Sample Index,EXG Channel 0,EXG Channel 1,EXG Channel 2,EXG Channel 3,EXG Channel 4,EXG Channel 5,EXG Channel 6,EXG Channel 7,Accel Channel 0,Accel Channel 1,Accel Channel 2,Not Used,Digital Channel 0 (D11),Digital Channel 1 (D12),Digital Channel 2 (D13),Digital Channel 3 (D17),Not Used,Digital Channel 4 (D18),Analog Channel 0,Analog Channel 1,Analog Channel 2,Timestamp,Marker Channel,Timestamp (Formatted),Stimulus_Direction,Stimulus_Number
183.0,8649.409848381263,-9855.264110000624,-22616.053833491067,-23994.307100094215,15994.371890350807,4457.384879277334,32701.920891037094,46648.627120092766,0.0,0.0,0.0,193.0,0.0,193.0,0.0,1.0,0.0,179.0,193.0,1.0,179.0,1744418653.5452027,0.0,2025-04-11 20:44:13.545,LEFT,16
184.0,8658.261139185564,-9836.153368491337,-22631.56594414305,-23963.014657856784,15905.166078229677,4518.762769551608,32525.54327554027,46337.69200297499,0.0,0.0,0.0,193.0,0.0,193.0,0.0,1.0,0.0,179.0,193.0,1.0,179.0,1744418653.5452363,0.0,2025-04-11 20:44:13.545,LEFT,16
185.0,8671.828648069937,-9807.051397210527,-22634.2928569666,-23940.417044212467,15831.450025016073,4714.2958300466335,32249.8121559396,46170.52330619375,0.0,0.0,0.0,193.0,0.0,192.0,0.0,1.0,0.0,178.0,192.0,1.0,178.0,1744418653.5452693,0.0,2025-04-11 20:44:13.545,LEFT,16
186.0,8663.111467732366,-9834.745208590652,-22607.202542686766,-23972.13416959455,16109.125746384354,4614.204718375769,32333.92177032492,45887.9302010453,0.0,0.0,0.0,193.0,0.0,192.0,0.0,1.0,0.0,178.0,192.0,1.0,178.0,1744418653.5453022,0.0,2025-04-11 20:44:13.545,LEFT,16
187.0,8670.465191658162,-9859.130961791392,-22618.534877125607,-23995.312928594703,16157.383162663362,4423.164358516259,32651.674169501566,45474.69114955558,0.0,0.0,0.0,193.0,0.0,193.0,0.0,1.0,0.0,179.0,193.0,1.0,179.0,1744418653.5453367,0.0,2025-04-11 20:44:13.545,LEFT,16
188.0,8682.266912730565,-9839.416723181812,-22641.400711703387,-23946.69788440441,15942.717008914593,4437.916509856762,32518.703641736945,45054.545409029175,0.0,0.0,0.0,193.0,0.0,192.0,0.0,1.0,0.0,178.0,192.0,1.0,178.0,1744418653.54537,0.0,2025-04-11 20:44:13.545,LEFT,16
189.0,8700.1036048059,-9804.03391170906,-22652.129549041932,-23920.054605013684,15793.36265246423,4715.6369347139525,32240.84910641302,44829.798618531066,0.0,0.0,0.0,193.0,0.0,192.0,0.0,1.0,0.0,178.0,192.0,1.0,178.0,1744418653.545403,0.0,2025-04-11 20:44:13.545,LEFT,16
190.0,8696.370863481863,-9822.496452629144,-22602.955711240258,-23939.366512223067,16090.886722908823,4726.566937752597,32232.780126664657,44564.63987405776,0.0,0.0,0.0,193.0,0.0,193.0,0.0,1.0,0.0,179.0,193.0,1.0,179.0,1744418653.545436,0.0,2025-04-11 20:44:13.545,LEFT,16
191.0,8661.166865964755,-9882.600293469464,-22624.748662084185,-23991.759001226306,16199.180924794786,4552.245682745657,32601.40509622158,44225.25098624838,0.0,0.0,0.0,193.0,0.0,193.0,0.0,1.0,0.0,179.0,193.0,1.0,179.0,1744418653.5454683,0.0,2025-04-11 20:44:13.545,LEFT,16
192.0,8667.090078245412,-9875.783011410596,-22658.00805783368,-23985.299347078722,16077.207455302174,4451.573425718954,32511.595787000155,43823.12075175295,0.0,0.0,0.0,193.0,0.0,193.0,0.0,1.0,0.0,179.0,193.0,1.0,179.0,1744418653.5455012,0.0,2025-04-11 20:44:13.545,LEFT,16
193.0,8705.982113597645,-9827.480891642677,-22637.645618634895,-23925.709596360877,15908.027101519956,4723.616507484497,32231.394318508428,43621.887996421814,0.0,0.0,0.0,193.0,0.0,192.0,0.0,1.0,0.0,178.0,192.0,1.0,178.0,1744418653.5455585,0.0,2025-04-11 20:44:13.545,LEFT,16
194.0,8717.023875358567,-9826.586821864465,-22593.52327508012,-23919.40640442448,15999.311625875429,4782.893333779971,32124.7317939677,43366.184039853106,0.0,0.0,0.0,193.0,0.0,193.0,0.0,1.0,0.0,179.0,193.0,1.0,179.0,1744418653.5455923,0.0,2025-04-11 20:44:13.545,LEFT,16
195.0,8713.089968334432,-9849.162083764326,-22596.741926281684,-23960.153634566504,16191.134296790875,4612.081302652515,32513.42863004549,42981.06348288817,0.0,0.0,0.0,193.0,0.0,193.0,0.0,1.0,0.0,179.0,193.0,1.0,179.0,1744418653.5456257,0.0,2025-04-11 20:44:13.545,LEFT,16
196.0,8720.331933537953,-9840.444903426756,-22609.14714445438,-23946.854346615597,16072.670051177747,4446.946614616706,32521.944644682964,42454.05405212093,0.0,0.0,0.0,193.0,0.0,192.0,0.0,1.0,0.0,178.0,192.0,1.0,178.0,1744418653.5458477,0.0,2025-04-11 20:44:13.545,LEFT,16
197.0,8721.047189360523,-9834.298173701545,-22631.297723209587,-23942.093425046616,15984.53712279047,4664.87612305595,32261.725635734278,42145.689385615515,0.0,0.0,0.0,193.0,0.0,193.0,0.0,1.0,0.0,179.0,193.0,1.0,179.0,1744418653.5458877,0.0,2025-04-11 20:44:13.545,LEFT,16
198.0,8745.1647216278,-9819.523670616589,-22607.604874086963,-23928.369453951058,15978.345689576352,4727.192786597346,32055.15081347833,41837.391774343465,0.0,0.0,0.0,193.0,0.0,193.0,0.0,1.0,0.0,179.0,193.0,1.0,179.0,1744418653.545921,0.0,2025-04-11 20:44:13.545,LEFT,16
199.0,8711.078311333456,-9880.700395190763,-22608.99068224319,-23961.69590493392,16066.925652852733,4582.576999971509,32402.765143247267,41496.75118884459,0.0,0.0,0.0,193.0,0.0,192.0,0.0,1.0,0.0,178.0,192.0,1.0,178.0,1744418653.5459557,0.0,2025-04-11 20:44:13.545,LEFT,16
200.0,8714.743997424126,-9876.520618977622,-22645.20050826079,-23986.483989534856,16096.98874914512,4360.579474041399,32498.20709207143,41049.42572706053,0.0,0.0,0.0,193.0,0.0,192.0,0.0,1.0,0.0,178.0,192.0,1.0,178.0,1744418653.5459895,0.0,2025-04-11 20:44:13.545,LEFT,16
201.0,8735.262898834098,-9835.795740580052,-22654.297668254098,-23943.613343669578,15995.288311873474,4555.598444413954,32276.164862652407,40810.32911662211,0.0,0.0,0.0,193.0,0.0,193.0,0.0,1.0,0.0,179.0,193.0,1.0,179.0,1744418653.5460243,0.0,2025-04-11 20:44:13.546,LEFT,16
202.0,8748.49513155164,-9834.476987657188,-22634.136394755413,-23935.454956943388,16002.798498010457,4724.465873773798,32036.554162091514,40642.53457099612,0.0,0.0,0.0,193.0,0.0,193.0,0.0,1.0,0.0,179.0,193.0,1.0,179.0,1744418653.5460603,0.0,2025-04-11 20:44:13.546,LEFT,16
203.0,8733.452407533217,-9868.496342718166,-22606.71080430875,-23958.700771176907,16246.320753851029,4658.68468984183,32305.937386266876,40411.55164379498,0.0,0.0,0.0,193.0,0.0,192.0,0.0,1.0,0.0,178.0,192.0,1.0,178.0,1744418653.5461075,0.0,2025-04-11 20:44:13.546,LEFT,16
204.0,8752.853721720425,-9864.85300837195,-22622.58054287202,-23948.955410594393,16218.693997704268,4425.064256794961,32491.3674582681,40042.054956204294,0.0,0.0,0.0,193.0,0.0,192.0,0.0,1.0,0.0,178.0,192.0,1.0,178.0,1744418653.54615,0.0,2025-04-11 20:44:13.546,LEFT,16
205.0,8744.851797205425,-9855.755848378642,-22657.00222933319,-23919.093480002106,15974.747058719047,4575.022110345615,32287.944231980353,39800.656116086975,0.0,0.0,0.0,193.0,0.0,193.0,0.0,1.0,0.0,179.0,193.0,1.0,179.0,1744418653.5462067,0.0,2025-04-11 20:44:13.546,LEFT,16
206.0,8782.045099979056,-9807.207859421715,-22631.81181333206,-23887.130485431015,15865.558787054872,4754.976004955292,32011.743725746124,39671.75360581322,0.0,0.0,0.0,193.0,0.0,193.0,0.0,1.0,0.0,178.0,193.0,1.0,178.0,1744418653.546248,0.0,2025-04-11 20:44:13.546,LEFT,16
207.0,8773.998471975145,-9840.71312436022,-22630.828336576025,-23921.038081769715,15975.819942452901,4611.343695085489,32200.14657975991,39475.4158825178,0.0,0.0,0.0,193.0,0.0,192.0,0.0,1.0,0.0,178.0,192.0,1.0,178.0,1744418653.5462918,0.0,2025-04-11 20:44:13.546,LEFT,16
208.0,8742.616622759893,-9892.971502896728,-22665.138264314923,-23990.484951792354,16139.926450243765,4379.399642872768,32490.875719890086,39178.42825394014,0.0,0.0,0.0,193.0,0.0,193.0,0.0,1.0,0.0,179.0,193.0,1.0,179.0,1744418653.546357,0.0,2025-04-11 20:44:13.546,LEFT,16
209.0,8750.30562285252,-9866.57409269501,-22676.76117143168,-23936.751358121797,16127.454176837706,4514.918269505295,32326.500991165758,38942.77381214784,0.0,0.0,0.0,193.0,0.0,193.0,0.0,1.0,0.0,179.0,193.0,1.0,179.0,1744418653.5463905,0.0,2025-04-11 20:44:13.546,LEFT,16
210.0,8779.854629022435,-9832.621792867398,-22655.951697343793,-23916.63478811202,16133.176223418264,4709.98194336676,32032.307330645006,38862.128718153086,0.0,0.0,0.0,193.0,0.0,193.0,0.0,1.0,0.0,179.0,193.0,1.0,179.0,1744418653.5464244,0.0,2025-04-11 20:44:13.546,LEFT,16
211.0,8793.064509995522,-9849.765580864618,-22627.65438886337,-23908.92343627494,16087.8468856629,4676.051995283603,32094.087552319477,38708.79575118968,0.0,0.0,0.0,193.0,0.0,192.0,0.0,1.0,0.0,178.0,192.0,1.0,178.0,1744418653.54646,0.0,2025-04-11 20:44:13.546,LEFT,16
212.0,8772.009166718623,-9893.463241274743,-22652.889508353415,-23963.998134612815,16094.32889155494,4474.595722507921,32444.31703618968,38477.276382121614,0.0,0.0,0.0,193.0,0.0,192.0,0.0,1.0,0.0,178.0,192.0,1.0,178.0,1744418653.5466697,0.0,2025-04-11 20:44:13.546,LEFT,16
213.0,8769.237550406164,-9896.72659596522,-22691.11099137199,-23951.682323417943,16054.363972468851,4460.424716523256,32334.122936025018,38239.789097283974,0.0,0.0,0.0,193.0,0.0,193.0,0.0,1.0,0.0,178.0,193.0,1.0,178.0,1744418653.5467052,0.0,2025-04-11 20:44:13.546,LEFT,16
214.0,8773.372623130397,-9886.668310960331,-22683.980784890748,-23917.797078823696,16074.301728522985,4744.135408894469,32045.070176728987,38206.015611412,0.0,0.0,0.0,193.0,0.0,193.0,0.0,1.0,0.0,178.0,193.0,1.0,178.0,1744418653.5467434,0.0,2025-04-11 20:44:13.546,LEFT,16
215.0,8800.082957754488,-9874.352499765457,-22639.165537257857,-23900.58623559311,16082.214246060163,4757.769973012206,32003.071248897464,38121.21309294857,0.0,0.0,0.0,193.0,0.0,193.0,0.0,1.0,0.0,179.0,193.0,1.0,179.0,1744418653.5467815,0.0,2025-04-11 20:44:13.546,LEFT,16
216.0,8776.993605732156,-9923.43693058931,-22655.527014199142,-23971.105989349606,16233.110872877942,4528.262260945113,32401.401686835492,37970.45057659753,0.0,0.0,0.0,193.0,0.0,192.0,0.0,1.0,0.0,178.0,192.0,1.0,178.0,1744418653.5468173,0.0,2025-04-11 20:44:13.546,LEFT,16
217.0,8782.000396490144,-9904.974389669227,-22672.62609870745,-23956.3538380091,16149.403589892816,4388.541506354989,32348.271590265227,37746.32963494416,0.0,0.0,0.0,193.0,0.0,193.0,0.0,1.0,0.0,179.0,193.0,1.0,179.0,1744418653.5468981,0.0,2025-04-11 20:44:13.546,LEFT,16
218.0,8788.236533193176,-9890.110479606448,-22693.21205535079,-23927.251866728293,16045.490329920094,4622.29604986859,32077.413150955817,37732.31509117068,0.0,0.0,0.0,193.0,0.0,193.0,0.0,1.0,0.0,179.0,193.0,1.0,179.0,1744418653.5469377,0.0,2025-04-11 20:44:13.546,LEFT,16
219.0,8803.458071167239,-9893.306779063556,-22668.938060872326,-23938.07011104466,16061.538882439005,4661.702175343296,31925.51069563755,37672.07713986363,0.0,0.0,0.0,193.0,0.0,192.0,0.0,1.0,0.0,178.0,192.0,1.0,178.0,1744418653.5469773,0.0,2025-04-11 20:44:13.546,LEFT,16
220.0,8770.0198614621,-9939.932517997328,-22677.722296443262,-23980.672535976475,16102.397871303307,4532.79966506954,32308.664299090422,37573.26007762671,0.0,0.0,0.0,193.0,0.0,192.0,0.0,0.0,0.0,179.0,192.0,0.0,179.0,1744418653.547018,0.0,2025-04-11 20:44:13.547,LEFT,16
221.0,8770.73511728467,-9939.798407530596,-22701.30338684361,-23972.78237018375,16010.532201591994,4381.858334762852,32344.047110563173,37360.5161739011,0.0,0.0,0.0,193.0,0.0,193.0,0.0,1.0,0.0,178.0,193.0,1.0,178.0,1744418653.5470543,0.0,2025-04-11 20:44:13.547,LEFT,16
222.0,8794.562076874028,-9914.831508974017,-22726.717320289295,-23930.49286967431,15778.386983679175,4606.67218049433,32101.50833147864,37322.495856582624,0.0,0.0,0.0,193.0,0.0,193.0,0.0,1.0,0.0,179.0,193.0,1.0,179.0,1744418653.5470936,0.0,2025-04-11 20:44:13.547,LEFT,16
223.0,8801.31230369953,-9906.986046670205,-22680.896244155916,-23922.20037248139,16077.520379724549,4713.938202135349,31907.31637565093,37310.09063840993,0.0,0.0,0.0,193.0,0.0,193.0,0.0,0.0,0.0,179.0,193.0,0.0,179.0,1744418653.5473197,0.0,2025-04-11 20:44:13.547,LEFT,16
224.0,8772.411498118818,-9942.122988953948,-22665.652354437396,-23960.82418690016,16411.09781397555,4591.964732642738,32221.8054201371,37204.65745981425,0.0,0.0,0.0,193.0,0.0,193.0,0.0,0.0,0.0,178.0,193.0,0.0,178.0,1744418653.5473688,0.0,2025-04-11 20:44:13.547,LEFT,16
225.0,8784.369681402408,-9941.072456964548,-22709.908808458902,-23983.757076711307,16224.527803007104,4380.360767884346,32339.040319805186,36968.354817432744,0.0,0.0,0.0,193.0,0.0,192.0,0.0,1.0,0.0,178.0,192.0,1.0,178.0,1744418653.5474057,0.0,2025-04-11 20:44:13.547,LEFT,16
226.0,8798.004245520146,-9926.655581790876,-22740.68716057386,-23952.3528757516,16055.146283524786,4570.998796343661,32120.77553519911,36892.94003164054,0.0,0.0,0.0,193.0,0.0,193.0,0.0,0.0,0.0,179.0,193.0,0.0,179.0,1744418653.5474515,0.0,2025-04-11 20:44:13.547,LEFT,16
227.0,8797.043120508566,-9924.643924789898,-22712.79218349364,-23925.284913216223,16010.755719036546,4756.831199745083,31855.102700603333,36849.354129952684,0.0,0.0,0.0,193.0,0.0,193.0,0.0,0.0,0.0,179.0,193.0,0.0,179.0,1744418653.5477383,0.0,2025-04-11 20:44:13.547,LEFT,16
228.0,8787.70009132625,-9956.897492038905,-22677.923462143357,-23946.02733207075,16151.392895149338,4686.780832622151,32121.20021834376,36767.434986523986,0.0,0.0,0.0,193.0,0.0,192.0,0.0,0.0,0.0,178.0,192.0,0.0,178.0,1744418653.5477777,0.0,2025-04-11 20:44:13.547,LEFT,16
229.0,8792.416309406319,-9959.803218818095,-22699.291729842633,-23973.497626006323,16170.525988403082,4419.2751549810355,32331.530133668202,36552.94764673086,0.0,0.0,0.0,193.0,0.0,193.0,0.0,0.0,0.0,179.0,193.0,0.0,179.0,1744418653.547815,0.0,2025-04-11 20:44:13.547,LEFT,16
230.0,8788.482402382184,-9958.126837983948,-22735.83683202706,-23945.580297181645,15981.206712866631,4544.623737886398,32129.179791114308,36434.818677284566,0.0,0.0,0.0,193.0,0.0,192.0,0.0,0.0,0.0,178.0,192.0,0.0,178.0,1744418653.5478504,0.0,2025-04-11 20:44:13.547,LEFT,16
231.0,8800.30647519904,-9947.733276812229,-22714.64737828343,-23931.141070263515,16004.608989311337,4744.515388550209,31843.50214523103,36424.78274402413,0.0,0.0,0.0,193.0,0.0,192.0,0.0,0.0,0.0,179.0,192.0,0.0,179.0,1744418653.5478964,0.0,2025-04-11 20:44:13.547,LEFT,16
232.0,8803.011036278134,-9960.585529874032,-22679.01869762167,-23938.360683722578,16278.104934466475,4705.690408431341,31992.632984236836,36350.37378673241,0.0,0.0,0.0,193.0,0.0,192.0,0.0,0.0,0.0,178.0,192.0,0.0,178.0,1744418653.547932,0.0,2025-04-11 20:44:13.547,LEFT,16
233.0,8788.437698893273,-9999.991655348738,-22725.711491788807,-23999.69387050794,16186.082802543975,4414.961268301162,32289.35239188104,36152.359682602844,0.0,0.0,0.0,193.0,0.0,193.0,0.0,0.0,0.0,179.0,193.0,0.0,179.0,1744418654.0217924,0.0,2025-04-11 20:44:14.021,LEFT,16
234.0,8783.565018602016,-9996.683597169353,-22751.01366651221,-23984.584091256154,16055.325097480429,4415.4530066791785,32143.686073265802,36001.26189008497,0.0,0.0,0.0,193.0,0.0,192.0,0.0,0.0,0.0,179.0,192.0,0.0,179.0,1744418654.0219293,0.0,2025-04-11 20:44:14.021,LEFT,16
235.0,8813.717521872226,-9954.192930959813,-22731.724111047282,-23926.246038227804,16045.646792131281,4663.870294555461,31834.67320617118,35985.92859338863,0.0,0.0,0.0,193.0,0.0,192.0,0.0,0.0,0.0,178.0,192.0,0.0,178.0,1744418654.0219693,0.0,2025-04-11 20:44:14.021,LEFT,16
236.0,8821.562984176038,-9967.581625888542,-22699.291729842633,-23934.851459843096,16135.567860074982,4694.738053648241,31861.472947773094,35900.50022608045,0.0,0.0,0.0,193.0,0.0,193.0,0.0,0.0,0.0,178.0,193.0,0.0,178.0,1744418654.022005,0.0,2025-04-11 20:44:14.022,LEFT,16
237.0,8799.83708856548,-10006.674826940874,-22731.590000580552,-23992.340146582144,16111.740900485624,4488.498507559122,32219.0561555691,35737.108974112154,0.0,0.0,0.0,193.0,0.0,193.0,0.0,0.0,0.0,179.0,193.0,0.0,179.0,1744418654.022042,0.0,2025-04-11 20:44:14.022,LEFT,16
238.0,8818.232574252197,-9981.417355706377,-22740.418939640396,-23949.6036111836,16053.715771879646,4400.834965805408,32118.227436331206,35564.48645168381,0.0,0.0,0.0,193.0,0.0,192.0,0.0,0.0,0.0,178.0,192.0,0.0,178.0,1744418654.0223129,0.0,2025-04-11 20:44:14.022,LEFT,16
239.0,8815.818585851024,-9980.344471972523,-22746.342151921053,-23936.751358121797,16050.027734044521,4638.165788431858,31832.63919742575,35592.04615259721,0.0,0.0,0.0,193.0,0.0,192.0,0.0,0.0,0.0,178.0,192.0,0.0,178.0,1744418654.0223546,0.0,2025-04-11 20:44:14.022,LEFT,16
240.0,8821.36181847594,-9985.284207497145,-22722.582247565064,-23935.320846476658,16103.180182359241,4731.909004677415,31777.318629898862,35566.27459124024,0.0,0.0,0.0,193.0,0.0,192.0,0.0,0.0,0.0,178.0,192.0,0.0,178.0,1744418654.0223875,0.0,2025-04-11 20:44:14.022,LEFT,16
241.0,8825.921574344824,-10004.238486795246,-22723.92335223238,-23960.26539328878,16168.9166628023,4550.323432722501,32164.339085142507,35455.63345618647,0.0,0.0,0.0,193.0,0.0,193.0,0.0,0.0,0.0,179.0,193.0,0.0,179.0,1744418654.02242,0.0,2025-04-11 20:44:14.022,LEFT,16
242.0,8818.277277741108,-10015.012027622704,-22751.304239190133,-23973.341163795136,16168.313165702006,4394.9117535247515,32120.820238688022,35258.69223579076,0.0,0.0,0.0,193.0,0.0,192.0,0.0,0.0,0.0,178.0,192.0,0.0,178.0,1744418654.0225437,0.0,2025-04-11 20:44:14.022,LEFT,16
243.0,8831.88949011439,-9995.78952739114,-22754.478186902787,-23948.821300127664,16090.260874064074,4623.6595062803635,31860.265953572507,35290.56582338403,0.0,0.0,0.0,193.0,0.0,192.0,0.0,0.0,0.0,178.0,192.0,0.0,178.0,1744418654.0225768,0.0,2025-04-11 20:44:14.022,LEFT,16
244.0,8859.650356727881,-9978.489277182733,-22729.421881368387,-23943.613343669578,16043.36691419684,4634.991840719204,31714.577283212817,35299.059486277045,0.0,0.0,0.0,193.0,0.0,193.0,0.0,0.0,0.0,179.0,193.0,0.0,179.0,1744418654.0226088,0.0,2025-04-11 20:44:14.022,LEFT,16
245.0,8827.17327203432,-10039.621298267997,-22744.82223329809,-23987.3110040797,16129.33172337195,4488.319693603479,32078.284868989573,35226.50572377512,0.0,0.0,0.0,193.0,0.0,193.0,0.0,0.0,0.0,179.0,193.0,0.0,179.0,1744418654.0226407,0.0,2025-04-11 20:44:14.022,LEFT,16
246.0,8811.191774748775,-10056.854493243038,-22775.1759022684,-24008.925140967982,16154.00804925061,4344.217997100115,32122.474267777714,35038.95223605064,0.0,0.0,0.0,193.0,0.0,193.0,0.0,0.0,0.0,178.0,193.0,0.0,178.0,1744418654.0226724,0.0,2025-04-11 20:44:14.022,LEFT,16
247.0,8837.94681286178,-10017.291905557146,-22781.926129093903,-23950.60943968409,16094.574760743948,4633.315459885056,31873.095854889856,35042.99790179705,0.0,0.0,0.0,193.0,0.0,192.0,0.0,0.0,0.0,178.0,192.0,0.0,178.0,1744418654.0227044,0.0,2025-04-11 20:44:14.022,LEFT,16
248.0,8887.791202997114,-9979.74097487223,-22745.179861209377,-23919.853439313585,15955.97159337659,4760.2733683912,31657.848555785247,35063.829727629396,0.0,0.0,0.0,193.0,0.0,193.0,0.0,0.0,0.0,179.0,193.0,0.0,179.0,1744418654.0227363,0.0,2025-04-11 20:44:14.022,LEFT,16
249.0,8855.9399671483,-10037.542586033653,-22738.966076250803,-23975.26341381829,16159.037191753054,4574.977406856705,31984.18402483273,35024.13302947677,0.0,0.0,0.0,193.0,0.0,193.0,0.0,0.0,0.0,179.0,193.0,0.0,179.0,1744418654.022768,0.0,2025-04-11 20:44:14.022,LEFT,16
250.0,8836.069266327533,-10069.058545715636,-22765.16232075242,-23994.687079749954,16237.536518280092,4334.070305117405,32130.051509148063,34847.64365525766,0.0,0.0,0.0,193.0,0.0,192.0,0.0,0.0,0.0,178.0,192.0,0.0,178.0,1744418654.0227995,0.0,2025-04-11 20:44:14.022,LEFT,16
251.0,8829.207280779754,-10059.84962700005,-22796.745335667772,-23957.53848046523,16044.730370608613,4525.468292888199,31919.36396591234,34826.07422185829,0.0,0.0,0.0,193.0,0.0,192.0,0.0,0.0,0.0,178.0,192.0,0.0,178.0,1744418654.0228312,0.0,2025-04-11 20:44:14.022,LEFT,16
252.0,8854.062420614055,-10030.926469674881,-22761.004896283735,-23928.056529528683,15996.227085140597,4690.848850113017,31640.190677665556,34858.081919918295,0.0,0.0,0.0,193.0,0.0,193.0,0.0,0.0,0.0,179.0,193.0,0.0,179.0,1744418654.0228631,0.0,2025-04-11 20:44:14.022,LEFT,16
253.0,8839.869062884934,-10069.438525371377,-22736.149756449435,-23968.423780014968,16306.983388302731,4616.730465499219,31874.526366534996,34833.539704506366,0.0,0.0,0.0,193.0,0.0,193.0,0.0,0.0,0.0,179.0,193.0,0.0,179.0,1744418654.0229104,0.0,2025-04-11 20:44:14.022,LEFT,16
254.0,8835.733990160703,-10088.415156413932,-22764.64823062995,-24005.259454877312,16259.955317968765,4425.39953296179,32120.484962521194,34678.30683926426,0.0,0.0,0.0,193.0,0.0,193.0,0.0,0.0,0.0,178.0,193.0,0.0,178.0,1744418654.0229423,0.0,2025-04-11 20:44:14.022,LEFT,16
255.0,8841.36662976344,-10065.124638691503,-22794.577216455607,-23971.016582371783,16033.375684425317,4511.27493515908,31945.85078309188,34606.91536747401,0.0,0.0,0.0,193.0,0.0,192.0,0.0,0.0,0.0,178.0,192.0,0.0,178.0,1744418654.0229743,0.0,2025-04-11 20:44:14.022,LEFT,16
0.0,8858.018679382645,-10045.723324504295,-22795.493637978274,-23946.40731172649,15901.701557839104,4676.901361572905,31673.36066643723,34658.972580310416,0.0,0.0,0.0,193.0,0.0,193.0,0.0,0.0,0.0,179.0,193.0,0.0,179.0,1744418654.023006,0.0,2025-04-11 20:44:14.023,LEFT,16
1.0,8854.040068869599,-10072.724231806307,-22754.67935260288,-23958.767826410276,16112.679673752747,4598.491442023688,31800.13976098773,34643.70633884744,0.0,0.0,0.0,193.0,0.0,192.0,0.0,0.0,0.0,179.0,192.0,0.0,179.0,1744418654.0230513,0.0,2025-04-11 20:44:14.023,LEFT,16
2.0,8811.817623593524,-10132.001058101781,-22785.055373317646,-24019.385757373067,16356.023115637676,4371.308311379947,32116.30518630805,34517.66485186396,0.0,0.0,0.0,193.0,0.0,192.0,0.0,0.0,0.0,178.0,192.0,0.0,178.0,1744418654.0230837,0.0,2025-04-11 20:44:14.023,LEFT,16
3.0,8822.099426042965,-10119.461729462353,-22804.344928782575,-23987.42276280198,16172.045907026042,4375.778660271008,31963.531012956028,34415.78560063668,0.0,0.0,0.0,193.0,0.0,193.0,0.0,0.0,0.0,179.0,193.0,0.0,179.0,1744418654.0231156,0.0,2025-04-11 20:44:14.023,LEFT,16
4.0,8846.909862388356,-10087.722252335818,-22805.46251600534,-23948.7542448943,16000.272750887008,4672.654530126397,31668.711503590526,34471.35203735257,0.0,0.0,0.0,193.0,0.0,193.0,0.0,0.0,0.0,179.0,193.0,0.0,179.0,1744418654.023147,0.0,2025-04-11 20:44:14.023,LEFT,16
5.0,8843.266528042142,-10111.52686018072,-22784.13895179498,-23975.978669640863,16123.497918069115,4687.339626233534,31695.824169614814,34468.37925534001,0.0,0.0,0.0,193.0,0.0,192.0,0.0,0.0,0.0,178.0,192.0,0.0,178.0,1744418654.0231788,0.0,2025-04-11 20:44:14.023,LEFT,16
6.0,8806.430853179796,-10162.935872427926,-22808.36824278453,-24025.308969653724,16213.35193077945,4463.93394040274,32066.170223494795,34363.683684311356,0.0,0.0,0.0,193.0,0.0,193.0,0.0,0.0,0.0,179.0,193.0,0.0,179.0,1744418654.0232103,0.0,2025-04-11 20:44:14.023,LEFT,16
7.0,8810.185946248288,-10158.107895625579,-22823.165097613943,-24003.627777532074,16103.80603120399,4377.767965527531,31989.347277801906,34229.08147920149,0.0,0.0,0.0,193.0,0.0,192.0,0.0,0.0,0.0,178.0,192.0,0.0,178.0,1744418654.023242,0.0,2025-04-11 20:44:14.023,LEFT,16
8.0,8826.882699356402,-10126.390770243499,-22816.034891132702,-23973.78819868424,16070.636042432314,4605.487538038199,31701.36740223973,34288.02302933014,0.0,0.0,0.0,193.0,0.0,192.0,0.0,0.0,0.0,178.0,192.0,0.0,178.0,1744418654.0232735,0.0,2025-04-11 20:44:14.023,LEFT,16
9.0,8841.590147207993,-10124.62498243153,-22779.445085459363,-23972.22357657237,16164.62512786688,4613.981200931215,31592.469703253475,34276.93656408031,0.0,0.0,0.0,193.0,0.0,192.0,0.0,0.0,0.0,178.0,192.0,0.0,178.0,1744418654.023305,0.0,2025-04-11 20:44:14.023,LEFT,16
10.0,8817.182042262799,-10168.277939352743,-22788.095210563566,-24015.205981159925,16289.839600305511,4457.116658343871,31979.75837943058,34201.36531607692,0.0,0.0,0.0,193.0,0.0,193.0,0.0,0.0,0.0,179.0,193.0,0.0,179.0,1744418654.0233366,0.0,2025-04-11 20:44:14.023,LEFT,16
11.0,8813.918687572323,-10166.91448294097,-22817.912437666946,-24005.46062057741,16143.748598545624,4329.7564184375315,31980.85361490889,34040.969197865634,0.0,0.0,0.0,193.0,0.0,192.0,0.0,0.0,0.0,178.0,192.0,0.0,178.0,1744418654.0233684,0.0,2025-04-11 20:44:14.023,LEFT,16
12.0,8804.039216523077,-10163.29350033921,-22842.05232167868,-23990.395544814535,16063.70700165117,4594.915162910839,31722.04276586089,34086.70086702119,0.0,0.0,0.0,193.0,0.0,192.0,0.0,0.0,0.0,178.0,192.0,0.0,178.0,1744418654.0234003,0.0,2025-04-11 20:44:14.023,LEFT,16
13.0,8848.452132755772,-10122.166290541445,-22799.89693163597,-23947.68136116044,16024.725559321114,4715.5251759916755,31567.703970396993,34124.20709421719,0.0,0.0,0.0,193.0,0.0,193.0,0.0,0.0,0.0,179.0,193.0,0.0,179.0,1744418654.0234447,0.0,2025-04-11 20:44:14.023,LEFT,16
14.0,8806.877888068902,-10179.677329024951,-22813.66560622044,-24005.70648976642,16176.806828595023,4547.305947221034,31957.719559397647,34081.17998614073,0.0,0.0,0.0,193.0,0.0,192.0,0.0,0.0,0.0,178.0,192.0,0.0,178.0,1744418654.0234764,0.0,2025-04-11 20:44:14.023,LEFT,16
15.0,8800.619399621415,-10191.88138149755,-22836.777309987225,-24021.173896929493,16162.233491210163,4315.42895024168,32031.8602957559,33909.07155383487,0.0,0.0,0.0,193.0,0.0,192.0,0.0,0.0,0.0,178.0,192.0,0.0,178.0,1744418654.0235133,0.0,2025-04-11 20:44:14.023,LEFT,16
16.0,8789.01884424911,-10192.216657664378,-22861.967725988357,-24000.99027168635,16013.057948715443,4468.8736759273625,31785.611127091783,33916.313519038384,0.0,0.0,0.0,193.0,0.0,193.0,0.0,0.0,0.0,179.0,193.0,0.0,179.0,1744418654.0235455,0.0,2025-04-11 20:44:14.023,LEFT,16
17.0,8825.452187711262,-10156.543273513707,-22814.89495216548,-23979.59965224262,16114.780737731546,4618.071570166537,31562.026627305346,33970.27063015349,0.0,0.0,0.0,193.0,0.0,192.0,0.0,0.0,0.0,178.0,192.0,0.0,178.0,1744418654.0235913,0.0,2025-04-11 20:44:14.023,LEFT,16
18.0,8801.69228335527,-10196.955227488903,-22804.300225293664,-23999.805629230217,16267.778428528123,4578.732499925197,31863.708122218624,33994.36581067632,0.0,0.0,0.0,193.0,0.0,192.0,0.0,0.0,0.0,178.0,192.0,0.0,178.0,1744418654.0236228,0.0,2025-04-11 20:44:14.023,LEFT,16
19.0,8778.0217859771,-10228.381780193065,-22846.969705458847,-24031.835679034673,16221.532669250093,4389.301465666469,32028.507534087603,33957.977170703074,0.0,0.0,0.0,193.0,0.0,193.0,0.0,0.0,0.0,179.0,193.0,0.0,179.0,1744418654.0236545,0.0,2025-04-11 20:44:14.023,LEFT,16
20.0,8773.819658019502,-10227.174785992478,-22877.591595362617,-24005.862951977608,16114.601923775903,4534.632508114875,31826.20189502262,34088.8466344889,0.0,0.0,0.0,193.0,0.0,193.0,0.0,0.0,0.0,179.0,193.0,0.0,179.0,1744418654.023686,0.0,2025-04-11 20:44:14.023,LEFT,16
21.0,8781.083974967478,-10214.277829441766,-22865.991039990313,-24001.459658319913,16074.391135500806,4640.400962877388,31515.982033727414,34243.230133441706,0.0,0.0,0.0,193.0,0.0,192.0,0.0,0.0,0.0,178.0,192.0,0.0,178.0,1744418654.0237176,0.0,2025-04-11 20:44:14.023,LEFT,16
22.0,8769.125791683888,-10231.64513488354,-22838.85602222157,-24014.22250440389,16212.994302868165,4577.391395257878,31707.156504053655,34324.2999105811,0.0,0.0,0.0,193.0,0.0,192.0,0.0,0.0,0.0,178.0,192.0,0.0,178.0,1744418654.023749,0.0,2025-04-11 20:44:14.023,LEFT,16
23.0,8766.085954437965,-10247.537225191263,-22872.741266815814,-24057.271964224812,16137.646572309324,4331.052819615939,31974.170443316754,34288.872395619444,0.0,0.0,0.0,193.0,0.0,193.0,0.0,0.0,0.0,178.0,193.0,0.0,178.0,1744418654.0237808,0.0,2025-04-11 20:44:14.023,LEFT,16
24.0,8769.505771339629,-10238.507120431319,-22885.99585127781,-24038.965885515918,16101.436746291727,4364.759250254542,31783.04067647942,34290.124093308936,0.0,0.0,0.0,193.0,0.0,193.0,0.0,0.0,0.0,179.0,193.0,0.0,179.0,1744418654.0238123,0.0,2025-04-11 20:44:14.023,LEFT,16
25.0,8797.087823997477,-10190.294407641222,-22867.488606868817,-23996.497571050833,16105.370653315862,4628.219262149246,31476.777073952806,34408.81185636662,0.0,0.0,0.0,193.0,0.0,192.0,0.0,0.0,0.0,178.0,192.0,0.0,178.0,1744418654.0238435,0.0,2025-04-11 20:44:14.023,LEFT,16
26.0,8781.64276857886,-10217.742349832339,-22822.18162085791,-23992.74247798234,16245.203166628262,4593.641113476886,31576.48820596793,34472.447272830876,0.0,0.0,0.0,193.0,0.0,192.0,0.0,0.0,0.0,178.0,192.0,0.0,178.0,1744418654.0238752,0.0,2025-04-11 20:44:14.023,LEFT,16
27.0,8729.406741786808,-10288.865600689125,-22853.742284028805,-24035.5237168698,16212.21199181223,4380.494878351078,31919.252207190064,34420.300653016646,0.0,0.0,0.0,193.0,0.0,193.0,0.0,0.0,0.0,179.0,193.0,0.0,179.0,1744418654.0239067,0.0,2025-04-11 20:44:14.023,LEFT,16
28.0,8740.247337847632,-10279.768440695816,-22882.084295998135,-24024.481955108877,16065.9421760967,4355.215055372126,31772.2000804186,34345.31055036909,0.0,0.0,0.0,193.0,0.0,193.0,0.0,0.0,0.0,178.0,193.0,0.0,178.0,1744418654.02395,0.0,2025-04-11 20:44:14.023,LEFT,16
29.0,8748.472779807184,-10266.290338789266,-22907.542932932727,-24020.592751573655,15968.376811549284,4592.702340209763,31484.197853111968,34458.119804635026,0.0,0.0,0.0,193.0,0.0,192.0,0.0,0.0,0.0,178.0,192.0,0.0,178.0,1744418654.023982,0.0,2025-04-11 20:44:14.023,LEFT,16
30.0,8753.032535676068,-10270.000728368846,-22866.48277836833,-24020.83862076266,16147.660153825302,4556.984252570182,31469.60216398265,34499.02349698824,0.0,0.0,0.0,193.0,0.0,193.0,0.0,0.0,0.0,179.0,193.0,0.0,179.0,1744418654.0240135,0.0,2025-04-11 20:44:14.024,LEFT,16
31.0,8741.499035537128,-10300.443804316976,-22867.309792913176,-24044.91144954103,16244.64437301688,4369.162543912237,31842.1163370748,34451.50368827626,0.0,0.0,0.0,193.0,0.0,193.0,0.0,0.0,0.0,178.0,193.0,0.0,178.0,1744418654.0240457,0.0,2025-04-11 20:44:14.024,LEFT,16
32.0,8727.305677808008,-10305.361188097142,-22905.48657244284,-24047.705417597943,16103.269589337062,4280.537877146945,31767.997952461003,34328.94907342781,0.0,0.0,0.0,193.0,0.0,192.0,0.0,0.0,0.0,178.0,192.0,0.0,178.0,1744418654.02409,0.0,2025-04-11 20:44:14.024,LEFT,16
33.0,8743.644803004838,-10267.631443456585,-22895.29417697122,-23994.664728005497,16125.464871581182,4602.693569981286,31472.060855872736,34398.686516128364,0.0,0.0,0.0,193.0,0.0,193.0,0.0,0.0,0.0,179.0,193.0,0.0,179.0,1744418654.024122,0.0,2025-04-11 20:44:14.024,LEFT,16
34.0,8776.613626076416,-10253.84041712766,-22852.13295842802,-23985.70167847892,16171.732982603668,4693.709873403296,31362.470252808365,34444.06055737264,0.0,0.0,0.0,193.0,0.0,193.0,0.0,0.0,0.0,179.0,193.0,0.0,179.0,1744418654.0241537,0.0,2025-04-11 20:44:14.024,LEFT,16
35.0,8744.672983249782,-10315.575935313218,-22866.818054535157,-24047.66071410903,16247.348934095971,4498.825013497474,31744.930952183124,34423.83222864059,0.0,0.0,0.0,193.0,0.0,192.0,0.0,0.0,0.0,178.0,192.0,0.0,178.0,1744418654.0241852,0.0,2025-04-11 20:44:14.024,LEFT,16
36.0,8734.592346500438,-10324.874261006626,-22906.38064222105,-24061.00470554885,16082.571873971448,4265.137525217238,31761.873574480247,34297.72368642374,0.0,0.0,0.0,193.0,0.0,192.0,0.0,0.0,0.0,178.0,192.0,0.0,178.0,1744418654.024217,0.0,2025-04-11 20:44:14.024,LEFT,16
37.0,8730.34551505393,-10306.478775319907,-22927.54774422023,-24001.102030408627,16014.220239427119,4511.029065970071,31502.548635309773,34359.79448077613,0.0,0.0,0.0,193.0,0.0,193.0,0.0,0.0,0.0,179.0,193.0,0.0,179.0,1744418654.0242488,0.0,2025-04-11 20:44:14.024,LEFT,16
38.0,8748.763352485103,-10299.79560372777,-22877.591595362617,-23983.55591101121,16169.274290713585,4680.634102896941,31321.63361568852,34431.36476652203,0.0,0.0,0.0,193.0,0.0,193.0,0.0,0.0,0.0,179.0,193.0,0.0,179.0,1744418654.0242803,0.0,2025-04-11 20:44:14.024,LEFT,16
39.0,8734.815863944992,-10350.131732241123,-22869.500263869795,-24041.938667528473,16323.948362344308,4541.159217495825,31649.69016905906,34420.97120535031,0.0,0.0,0.0,193.0,0.0,192.0,0.0,0.0,0.0,178.0,192.0,0.0,178.0,1744418654.024312,0.0,2025-04-11 20:44:14.024,LEFT,16
40.0,8731.798378443526,-10360.748810857393,-22902.223217752366,-24045.067911752216,16153.113979472397,4316.23361304207,31744.506269038473,34294.5944422,0.0,0.0,0.0,193.0,0.0,193.0,0.0,0.0,0.0,179.0,193.0,0.0,179.0,1744418654.0243435,0.0,2025-04-11 20:44:14.024,LEFT,16
41.0,8735.128788367367,-10337.502996623874,-22942.21048858291,-24012.47906833638,15990.192114137664,4496.746301263131,31524.162772198055,34342.18130614535,0.0,0.0,0.0,193.0,0.0,192.0,0.0,0.0,0.0,178.0,192.0,0.0,178.0,1744418654.0243757,0.0,2025-04-11 20:44:14.024,LEFT,16
42.0,8751.177340886277,-10321.499147593875,-22896.0541362827,-24003.85129497663,16151.14702596033,4598.737311212696,31272.683295331397,34432.951740378354,0.0,0.0,0.0,193.0,0.0,192.0,0.0,0.0,0.0,178.0,192.0,0.0,178.0,1744418654.024407,0.0,2025-04-11 20:44:14.024,LEFT,16
43.0,8728.467968519684,-10359.988851545913,-22872.67421158245,-24020.65980680702,16338.700513684811,4494.108795417404,31543.20645847398,34459.796185469175,0.0,0.0,0.0,193.0,0.0,192.0,0.0,0.0,0.0,178.0,192.0,0.0,178.0,1744418654.0244508,0.0,2025-04-11 20:44:14.024,LEFT,16
44.0,8700.81886062847,-10394.857572896191,-22926.161936064,-24068.693705641475,16265.766771527145,4315.1383775637605,31734.62679798923,34343.79063174613,0.0,0.0,0.0,193.0,0.0,193.0,0.0,0.0,0.0,179.0,193.0,0.0,179.0,1744418654.0244827,0.0,2025-04-11 20:44:14.024,LEFT,16
45.0,8703.232849029642,-10373.891636597114,-22945.563250251205,-24033.288542424267,16130.896345483823,4443.258576781581,31522.46403961945,34352.194887661324,0.0,0.0,0.0,193.0,0.0,193.0,0.0,0.0,0.0,178.0,193.0,0.0,178.0,1744418654.0245144,0.0,2025-04-11 20:44:14.024,LEFT,16
46.0,8719.996657371123,-10360.748810857393,-22929.112366332098,-24015.09422243765,16085.455249006183,4649.229901937235,31230.32673958859,34459.81853721363,0.0,0.0,0.0,193.0,0.0,192.0,0.0,0.0,0.0,178.0,192.0,0.0,178.0,1744418654.024546,0.0,2025-04-11 20:44:14.024,LEFT,16
47.0,8707.122052564866,-10391.415404250074,-22920.417537738984,-24054.746217101365,16210.312093533528,4555.106706035937,31406.391430663043,34501.884520278516,0.0,0.0,0.0,193.0,0.0,193.0,0.0,0.0,0.0,179.0,193.0,0.0,179.0,1744418654.0245905,0.0,2025-04-11 20:44:14.024,LEFT,16
48.0,8704.283381019042,-10393.360006017687,-22932.30866578921,-24055.75204560185,16205.39470975336,4311.338581006358,31694.12543703621,34426.514437975224,0.0,0.0,0.0,193.0,0.0,193.0,0.0,0.0,0.0,179.0,193.0,0.0,179.0,1744418654.0246224,0.0,2025-04-11 20:44:14.024,LEFT,16
49.0,8717.24739280312,-10372.975215074446,-22944.82564268418,-24018.581094572677,16088.405679274283,4399.58326811591,31532.38821415761,34399.33471671757,0.0,0.0,0.0,193.0,0.0,192.0,0.0,0.0,0.0,178.0,192.0,0.0,178.0,1744418654.024654,0.0,2025-04-11 20:44:14.024,LEFT,16
50.0,8732.334820310452,-10349.327069440731,-22937.40486352502,-23995.737611739354,15997.21056189663,4626.453474337277,31234.350053590544,34511.942805283405,0.0,0.0,0.0,193.0,0.0,192.0,0.0,0.0,0.0,178.0,192.0,0.0,178.0,1744418654.0246856,0.0,2025-04-11 20:44:14.024,LEFT,16
51.0,8707.412625242785,-10380.351290744698,-22905.263054998286,-24010.713280524407,16187.490962444659,4569.612988187431,31300.24299624479,34562.39069251903,0.0,0.0,0.0,193.0,0.0,193.0,0.0,0.0,0.0,179.0,193.0,0.0,179.0,1744418654.024717,0.0,2025-04-11 20:44:14.024,LEFT,16
52.0,8675.963720794169,-10420.96441041999,-22941.986971138358,-24064.80450210625,16327.815214135077,4386.4851458651,31660.106081975235,34530.53945667022,0.0,0.0,0.0,193.0,0.0,192.0,0.0,0.0,0.0,178.0,192.0,0.0,178.0,1744418654.0247493,0.0,2025-04-11 20:44:14.024,LEFT,16
53.0,8687.854848844392,-10408.53684050284,-22960.11423589161,-24051.57226938871,16092.719565954158,4348.397773313257,31535.18218221452,34471.329685608114,0.0,0.0,0.0,193.0,0.0,192.0,0.0,0.0,0.0,178.0,192.0,0.0,178.0,1744418654.0247808,0.0,2025-04-11 20:44:14.024,LEFT,16
54.0,8709.513689221583,-10369.510694683873,-22941.83050892717,-24010.109783424115,15994.036614183977,4558.459467704233,31239.2227338818,34585.770617219285,0.0,0.0,0.0,193.0,0.0,193.0,0.0,0.0,0.0,179.0,193.0,0.0,179.0,1744418654.0248125,0.0,2025-04-11 20:44:14.024,LEFT,16
55.0,8695.923828592757,-10393.270599039864,-22915.81307838119,-24035.03197849178,16205.662930686824,4590.869497164428,31199.32487002908,34634.653882343046,0.0,0.0,0.0,193.0,0.0,193.0,0.0,0.0,0.0,179.0,193.0,0.0,179.0,1744418654.0248446,0.0,2025-04-11 20:44:14.024,LEFT,16
56.0,8662.262101443064,-10447.697096788537,-22929.358235521107,-24098.95796763396,16368.920072188386,4390.4861081226,31573.046037321812,34599.36047784811,0.0,0.0,0.0,193.0,0.0,192.0,0.0,0.0,0.0,178.0,192.0,0.0,178.0,1744418654.0248764,0.0,2025-04-11 20:44:14.024,LEFT,16
57.0,8671.225150969643,-10427.714637245494,-22953.140491621554,-24054.99208629037,16248.220652129728,4317.418255498202,31507.510722578852,34486.48416834881,0.0,0.0,0.0,193.0,0.0,193.0,0.0,0.0,0.0,179.0,193.0,0.0,179.0,1744418654.024908,0.0,2025-04-11 20:44:14.024,LEFT,16
58.0,8674.577912637938,-10418.34925631872,-22965.7692272388,-24027.03005397678,16107.650531250303,4610.069645651537,31221.453097039834,34561.295457040724,0.0,0.0,0.0,193.0,0.0,193.0,0.0,0.0,0.0,179.0,193.0,0.0,179.0,1744418654.0249512,0.0,2025-04-11 20:44:14.024,LEFT,16
59.0,8679.428241184742,-10423.356047076708,-22937.315456547196,-24032.930914512985,16165.988584278653,4640.088038455015,31086.895595418882,34618.2700536573,0.0,0.0,0.0,193.0,0.0,192.0,0.0,0.0,0.0,178.0,192.0,0.0,178.0,1744418654.0249832,0.0,2025-04-11 20:44:14.024,LEFT,16
60.0,8674.421450426753,-10444.947832220536,-22941.808157182713,-24060.982353804393,16220.526840749604,4472.382899806846,31463.83541391318,34614.00087046634,0.0,0.0,0.0,193.0,0.0,192.0,0.0,0.0,0.0,179.0,192.0,0.0,179.0,1744418654.0250144,0.0,2025-04-11 20:44:14.025,LEFT,16
61.0,8686.647854643805,-10427.468768056486,-22967.78088423978,-24060.75883635984,16018.578829595905,4262.455315882601,31493.697344505472,34504.58908135761,0.0,0.0,0.0,193.0,0.0,193.0,0.0,0.0,0.0,178.0,193.0,0.0,178.0,1744418654.0250463,0.0,2025-04-11 20:44:14.025,LEFT,16
62.0,8682.222209241654,-10418.081035385256,-22982.44362860246,-24045.157318730035,15953.11057008631,4399.560916371455,31259.160489935937,34620.52757984729,0.0,0.0,0.0,193.0,0.0,192.0,0.0,0.0,0.0,178.0,192.0,0.0,178.0,1744418654.02509,0.0,2025-04-11 20:44:14.025,LEFT,16
63.0,8678.377709195342,-10421.232631353454,-22952.469939287894,-24033.199135446448,16186.909817088821,4567.71308990873,31052.228039768703,34702.11144710916,0.0,0.0,0.0,193.0,0.0,193.0,0.0,0.0,0.0,179.0,193.0,0.0,179.0,1744418654.025122,0.0,2025-04-11 20:44:14.025,LEFT,16
64.0,8659.42342989724,-10466.293748175352,-22951.106482876123,-24063.709266627942,16337.292353784127,4510.380865380867,31377.803549504704,34684.52062422283,0.0,0.0,0.0,193.0,0.0,193.0,0.0,0.0,0.0,179.0,193.0,0.0,179.0,1744418654.0251539,0.0,2025-04-11 20:44:14.025,LEFT,16
65.0,8662.485618887618,-10492.020606043412,-22975.916919221512,-24089.52553147382,16260.916442980344,4263.036461238439,31477.13470186409,34535.21097126138,0.0,0.0,0.0,193.0,0.0,192.0,0.0,0.0,0.0,178.0,192.0,0.0,178.0,1744418654.0251856,0.0,2025-04-11 20:44:14.025,LEFT,16
66.0,8668.85586605738,-10468.484219131973,-23005.398870158064,-24063.99983930586,16084.583530972426,4404.366541429346,31252.902001488448,34571.018465878784,0.0,0.0,0.0,193.0,0.0,192.0,0.0,0.0,0.0,178.0,192.0,0.0,178.0,1744418654.0252178,0.0,2025-04-11 20:44:14.025,LEFT,16
67.0,8693.688654147227,-10426.127663389167,-22972.20652964193,-24015.5189055823,16095.982920644632,4598.938476912794,31016.867580040405,34678.23978403089,0.0,0.0,0.0,193.0,0.0,193.0,0.0,0.0,0.0,179.0,193.0,0.0,179.0,1744418654.0252492,0.0,2025-04-11 20:44:14.025,LEFT,16
68.0,8660.38455490882,-10481.448230916052,-22960.583622525173,-24052.734560100387,16310.13498427093,4561.700470650252,31271.34219066408,34681.92782186602,0.0,0.0,0.0,193.0,0.0,192.0,0.0,0.0,0.0,178.0,192.0,0.0,178.0,1744418654.0252817,0.0,2025-04-11 20:44:14.025,LEFT,16
69.0,8642.212586666654,-10515.93697261059,-22995.631157831092,-24084.406981993554,16240.68811424829,4307.9187641046965,31470.809158183238,34548.5549627012,0.0,0.0,0.0,193.0,0.0,193.0,0.0,0.0,0.0,178.0,193.0,0.0,178.0,1744418654.025314,0.0,2025-04-11 20:44:14.025,LEFT,16
70.0,8648.359316391863,-10498.0779287908,-23012.014986516835,-24052.13106300009,16094.194781088208,4413.955439800673,31274.873766288016,34549.158459801496,0.0,0.0,0.0,193.0,0.0,193.0,0.0,0.0,0.0,179.0,193.0,0.0,179.0,1744418654.0253475,0.0,2025-04-11 20:44:14.025,LEFT,16
71.0,8678.981206295635,-10455.341393392253,-22979.98493671238,-24025.487783609366,16103.627217248348,4571.468182977222,30978.020248177083,34644.71216734793,0.0,0.0,0.0,193.0,0.0,192.0,0.0,0.0,0.0,178.0,192.0,0.0,178.0,1744418654.0253797,0.0,2025-04-11 20:44:14.025,LEFT,16
72.0,8670.62165386935,-10476.843771558259,-22961.857671959126,-24038.004760504336,16208.121622576908,4522.473159131188,31124.91591273736,34659.66548438853,0.0,0.0,0.0,193.0,0.0,192.0,0.0,0.0,0.0,179.0,192.0,0.0,179.0,1744418654.025412,0.0,2025-04-11 20:44:14.025,LEFT,16
73.0,8662.396211909796,-10497.340321223775,-22987.852750760645,-24064.960964317437,16143.636839823348,4339.211206342126,31429.41372745201,34568.47036701088,0.0,0.0,0.0,193.0,0.0,193.0,0.0,0.0,0.0,178.0,193.0,0.0,178.0,1744418654.0254445,0.0,2025-04-11 20:44:14.025,LEFT,16
74.0,8652.069705971446,-10487.974940297001,-23014.853658062657,-24032.55093485724,16104.633045748837,4390.351997655868,31284.06033325915,34510.78051457173,0.0,0.0,0.0,193.0,0.0,193.0,0.0,0.0,0.0,179.0,193.0,0.0,179.0,1744418654.02549,0.0,2025-04-11 20:44:14.025,LEFT,16
75.0,8649.700421059182,-10480.397698926652,-23015.12187899612,-24026.42655687649,16125.7554442591,4602.9394391702945,30989.821969249486,34594.308983601215,0.0,0.0,0.0,193.0,0.0,192.0,0.0,0.0,0.0,178.0,192.0,0.0,178.0,1744418654.0255268,0.0,2025-04-11 20:44:14.025,LEFT,16
76.0,8653.343755405398,-10503.978789327,-22984.008250714334,-24061.675257882507,16289.571379372048,4526.429417899778,31022.835495809974,34604.54608256174,0.0,0.0,0.0,193.0,0.0,193.0,0.0,0.0,0.0,179.0,193.0,0.0,179.0,1744418654.0255587,0.0,2025-04-11 20:44:14.025,LEFT,16
77.0,8636.468188341642,-10539.495711266483,-23006.583512614194,-24106.222284581934,16273.656937319869,4285.99170279404,31373.981401202847,34523.87863682254,0.0,0.0,0.0,193.0,0.0,193.0,0.0,0.0,0.0,179.0,193.0,0.0,179.0,1744418654.0256062,0.0,2025-04-11 20:44:14.025,LEFT,16
78.0,8639.083342442911,-10531.51613849594,-23028.912905325047,-24074.66162141104,16083.398888516294,4238.158969659683,31259.652228313953,34412.29872850165,0.0,0.0,0.0,193.0,0.0,192.0,0.0,0.0,0.0,178.0,192.0,0.0,178.0,1744418654.0256393,0.0,2025-04-11 20:44:14.025,LEFT,16
79.0,8648.895758258792,-10492.735861865982,-23020.173373243022,-24034.115556969115,16049.446588688683,4525.17772021028,30979.383704588858,34497.52593010973,0.0,0.0,0.0,193.0,0.0,193.0,0.0,0.0,0.0,179.0,193.0,0.0,179.0,1744418654.0256712,0.0,2025-04-11 20:44:14.025,LEFT,16
80.0,8660.362203164364,-10474.049803501344,-22970.396038341052,-24010.065079935204,16172.895273315344,4572.786935900085,30918.251683503593,34528.036061291226,0.0,0.0,0.0,193.0,0.0,193.0,0.0,0.0,0.0,179.0,193.0,0.0,179.0,1744418654.0257041,0.0,2025-04-11 20:44:14.025,LEFT,16
81.0,8616.530432287507,-10532.74548444098,-23004.907131780044,-24071.018287064828,16282.17295195734,4425.4442364507,31317.207970286367,34484.67367704793,0.0,0.0,0.0,193.0,0.0,192.0,0.0,0.0,0.0,178.0,192.0,0.0,178.0,1744418654.0257373,0.0,2025-04-11 20:44:14.025,LEFT,16
82.0,8625.404074836264,-10523.380103514208,-23017.535867397295,-24058.4789584254,16209.73094817769,4315.250136286037,31273.66677208743,34337.06275666509,0.0,0.0,0.0,193.0,0.0,193.0,0.0,0.0,0.0,178.0,193.0,0.0,178.0,1744418654.0257697,0.0,2025-04-11 20:44:14.025,LEFT,16
83.0,8627.616897537338,-10510.527850452407,-23032.37742571562,-24029.08641446667,16081.744859426602,4549.004679799638,31001.891911255352,34396.116065516006,0.0,0.0,0.0,193.0,0.0,193.0,0.0,0.0,0.0,179.0,193.0,0.0,179.0,1744418654.0258017,0.0,2025-04-11 20:44:14.025,LEFT,16
84.0,8644.268947156543,-10505.968094583523,-23003.387213157086,-24027.253571421334,16159.57363361998,4627.1240266709365,30835.05849064094,34429.39781300996,0.0,0.0,0.0,193.0,0.0,193.0,0.0,0.0,0.0,178.0,193.0,0.0,178.0,1744418654.0258346,0.0,2025-04-11 20:44:14.025,LEFT,16
85.0,8620.687856756194,-10558.382935331218,-23009.55629462675,-24085.591624449688,16299.741423099213,4460.715289201175,31204.4657712538,34414.489199458265,0.0,0.0,0.0,193.0,0.0,192.0,0.0,0.0,0.0,178.0,192.0,0.0,178.0,1744418654.0258677,0.0,2025-04-11 20:44:14.025,LEFT,16
86.0,8618.922068944225,-10560.238130121008,-23047.330742756218,-24094.62172920963,16077.967414613655,4230.246452122504,31265.262516172235,34274.321409979035,0.0,0.0,0.0,193.0,0.0,193.0,0.0,0.0,0.0,179.0,193.0,0.0,179.0,1744418654.0259004,0.0,2025-04-11 20:44:14.025,LEFT,16
87.0,8582.578132459896,-10571.570464559849,-23072.297641312798,-24089.369069262633,16083.644757705302,4406.557012385966,31032.446745925758,34309.50305575169,0.0,0.0,0.0,193.0,0.0,193.0,0.0,0.0,0.0,179.0,193.0,0.0,179.0,1744418654.0259328,0.0,2025-04-11 20:44:14.025,LEFT,16
88.0,8632.80250225097,-10519.110920323244,-22999.095678221667,-24005.773544999785,16207.093442331963,4604.213488604247,30799.161589045718,34354.76533827369,0.0,0.0,0.0,193.0,0.0,192.0,0.0,0.0,0.0,178.0,192.0,0.0,178.0,1744418654.0259647,0.0,2025-04-11 20:44:14.025,LEFT,16
89.0,8611.031903151501,-10575.70553728408,-22993.619500830115,-24042.89979254005,16295.896923052898,4526.138845221859,31102.854740959974,34348.03746319264,0.0,0.0,0.0,193.0,0.0,192.0,0.0,0.0,0.0,178.0,192.0,0.0,178.0,1744418654.0260117,0.0,2025-04-11 20:44:14.026,LEFT,16
90.0,8579.627702191794,-10608.540249888927,-23044.357960743662,-24090.978394863418,16251.908689964856,4272.133621231749,31241.994350194258,34210.082496414485,0.0,0.0,0.0,193.0,0.0,193.0,0.0,0.0,0.0,179.0,193.0,0.0,179.0,1744418654.0260444,0.0,2025-04-11 20:44:14.026,LEFT,16
91.0,8587.942551129168,-10577.068993695855,-23064.586289475716,-24041.290466939266,16085.321138539452,4426.405361462279,31018.968644019205,34223.784115765586,0.0,0.0,0.0,193.0,0.0,192.0,0.0,0.0,0.0,178.0,192.0,0.0,178.0,1744418654.0260763,0.0,2025-04-11 20:44:14.026,LEFT,16
92.0,8616.508080543052,-10553.644365506694,-23046.70489391147,-24041.290466939266,16052.374667212329,4582.353482526956,30745.763271541986,34306.150294083396,0.0,0.0,0.0,193.0,0.0,193.0,0.0,0.0,0.0,178.0,193.0,0.0,178.0,1744418654.0261095,0.0,2025-04-11 20:44:14.026,LEFT,16
93.0,8585.84148715037,-10604.919267287169,-23026.118937268133,-24084.898720371573,16278.619024588947,4490.018426182082,30964.340980570436,34316.4991517662,0.0,0.0,0.0,193.0,0.0,192.0,0.0,0.0,0.0,178.0,192.0,0.0,178.0,1744418654.026157,0.0,2025-04-11 20:44:14.026,LEFT,16
94.0,8577.101955068345,-10624.030008796455,-23033.40560596056,-24105.663490970554,16299.070870765552,4287.80219409492,31199.436628751355,34196.805560208035,0.0,0.0,0.0,193.0,0.0,192.0,0.0,0.0,0.0,178.0,192.0,0.0,178.0,1744418654.0261896,0.0,2025-04-11 20:44:14.026,LEFT,16
95.0,8590.55770523044,-10595.553886360394,-23052.002257347376,-24054.880327568095,16148.353057903418,4404.1877274737035,31017.24755969615,34159.813423134496,0.0,0.0,0.0,193.0,0.0,193.0,0.0,0.0,0.0,179.0,193.0,0.0,179.0,1744418654.026222,0.0,2025-04-11 20:44:14.026,LEFT,16
96.0,8588.680158696194,-10590.412985135674,-23053.499824225884,-24040.23993494987,16106.37648181635,4605.442834549289,30728.820649244866,34262.385578439906,0.0,0.0,0.0,193.0,0.0,192.0,0.0,0.0,0.0,178.0,192.0,0.0,178.0,1744418654.0262544,0.0,2025-04-11 20:44:14.026,LEFT,16
97.0,8575.917312612213,-10625.281706485952,-23034.746710627882,-24070.213624264434,16238.274125847118,4531.100932490937,30860.986514209097,34292.62748868793,0.0,0.0,0.0,193.0,0.0,192.0,0.0,0.0,0.0,178.0,192.0,0.0,178.0,1744418654.5022037,0.0,2025-04-11 20:44:14.502,LEFT,16
98.0,8547.776466342983,-10665.693660461147,-23083.585272262728,-24132.329122105733,16170.525988403082,4279.889676557741,31166.177233001858,34179.92999314427,0.0,0.0,0.0,193.0,0.0,192.0,0.0,0.0,0.0,178.0,192.0,0.0,178.0,1744418654.502418,0.0,2025-04-11 20:44:14.502,LEFT,16
99.0,8544.915443052703,-10644.68302067316,-23107.926321974555,-24091.693650685986,16128.57176406047,4328.460017259124,31027.551713890043,34117.00983250258,0.0,0.0,0.0,193.0,0.0,193.0,0.0,0.0,0.0,179.0,193.0,0.0,179.0,1744418654.502457,0.0,2025-04-11 20:44:14.502,LEFT,16
100.0,8540.623908117284,-10625.594630908327,-23093.66590901207,-24048.733597842886,16085.745821684102,4614.897622453884,30736.12966968175,34222.174790164805,0.0,0.0,0.0,193.0,0.0,193.0,0.0,0.0,0.0,179.0,193.0,0.0,179.0,1744418654.5024948,0.0,2025-04-11 20:44:14.502,LEFT,16
101.0,8550.1681029997,-10644.370096250785,-23026.945951812977,-24043.14566172906,16285.123382225442,4591.182421586803,30739.75065228351,34249.019235255626,0.0,0.0,0.0,193.0,0.0,192.0,0.0,0.0,0.0,178.0,192.0,0.0,178.0,1744418654.5025327,0.0,2025-04-11 20:44:14.502,LEFT,16
102.0,8536.198262715134,-10688.760660739024,-23054.99739110439,-24103.71888920294,16363.57800526357,4387.826250532419,31084.883938417905,34179.52766174408,0.0,0.0,0.0,193.0,0.0,192.0,0.0,0.0,0.0,178.0,192.0,0.0,178.0,1744418654.5025709,0.0,2025-04-11 20:44:14.502,LEFT,16
103.0,8526.20703294361,-10688.000701427543,-23091.341327588718,-24082.417676737034,16168.335517446461,4324.682572446176,30987.02800119257,34069.8923551908,0.0,0.0,0.0,193.0,0.0,193.0,0.0,0.0,0.0,179.0,193.0,0.0,179.0,1744418654.502608,0.0,2025-04-11 20:44:14.502,LEFT,16
104.0,8530.677381834672,-10658.138770835254,-23094.42586832355,-24038.228277948892,16053.402847457273,4580.386529014889,30700.366878553257,34168.061216838505,0.0,0.0,0.0,193.0,0.0,193.0,0.0,0.0,0.0,178.0,193.0,0.0,178.0,1744418654.5026958,0.0,2025-04-11 20:44:14.502,LEFT,16
105.0,8558.1700275147,-10634.53532869045,-23045.073216566234,-24021.240952162858,16157.047886496532,4608.4379683063,30603.136790172673,34215.29045287257,0.0,0.0,0.0,193.0,0.0,193.0,0.0,0.0,0.0,179.0,193.0,0.0,179.0,1744418654.5027328,0.0,2025-04-11 20:44:14.502,LEFT,16
106.0,8518.048646217423,-10691.68873926267,-23070.04011512281,-24081.411848236545,16271.377059385428,4418.626954391832,30985.396323847333,34203.73460098918,0.0,0.0,0.0,193.0,0.0,192.0,0.0,0.0,0.0,178.0,192.0,0.0,178.0,1744418654.502769,0.0,2025-04-11 20:44:14.502,LEFT,16
107.0,8517.646314817228,-10690.124117150799,-23083.51821702936,-24078.841397624183,16187.44625895575,4259.169609447671,30963.066931136484,34100.670707305755,0.0,0.0,0.0,193.0,0.0,192.0,0.0,0.0,0.0,178.0,192.0,0.0,178.0,1744418654.502805,0.0,2025-04-11 20:44:14.502,LEFT,16
108.0,8529.895070778737,-10663.212616826608,-23095.409345079584,-24049.515908898822,16086.7963536735,4493.438243083745,30695.6953639621,34199.28660384257,0.0,0.0,0.0,193.0,0.0,192.0,0.0,0.0,0.0,178.0,192.0,0.0,178.0,1744418654.5028646,0.0,2025-04-11 20:44:14.502,LEFT,16
109.0,8512.97480022607,-10695.98027419809,-23078.779647204836,-24071.711191142942,16236.798910713067,4563.689775906775,30517.037870530832,34270.32044772154,0.0,0.0,0.0,193.0,0.0,193.0,0.0,0.0,0.0,179.0,193.0,0.0,179.0,1744418654.5029013,0.0,2025-04-11 20:44:14.502,LEFT,16
110.0,8485.34804407931,-10749.31153646845,-23071.247109323398,-24096.47692399942,16328.41871123537,4424.058428294472,30859.77952000851,34250.986188767696,0.0,0.0,0.0,193.0,0.0,193.0,0.0,0.0,0.0,179.0,193.0,0.0,179.0,1744418654.5029376,0.0,2025-04-11 20:44:14.502,LEFT,16
111.0,8501.173079153667,-10724.076416978409,-23088.033269409334,-24086.955080861462,16186.932168833277,4260.13073445925,30935.618988945367,34127.04576576302,0.0,0.0,0.0,193.0,0.0,193.0,0.0,0.0,0.0,179.0,193.0,0.0,179.0,1744418654.5029736,0.0,2025-04-11 20:44:14.502,LEFT,16
112.0,8513.198317670622,-10695.466184075616,-23093.531798545337,-24039.39056866057,16104.431880048738,4477.07676614246,30692.163788338163,34188.200138592736,0.0,0.0,0.0,193.0,0.0,193.0,0.0,0.0,0.0,178.0,193.0,0.0,178.0,1744418654.5030096,0.0,2025-04-11 20:44:14.503,LEFT,16
113.0,8519.009771229003,-10692.515753807516,-23068.676658711036,-24027.767661543807,16171.129485503376,4589.684854708297,30458.56570703575,34277.80828211406,0.0,0.0,0.0,193.0,0.0,193.0,0.0,0.0,0.0,179.0,193.0,0.0,179.0,1744418654.5030458,0.0,2025-04-11 20:44:14.503,LEFT,16
114.0,8514.695884549128,-10718.533184353493,-23052.114016069656,-24050.61114437713,16297.260379464673,4511.4313973702665,30751.485318122544,34292.94041311031,0.0,0.0,0.0,193.0,0.0,192.0,0.0,0.0,0.0,178.0,192.0,0.0,178.0,1744418654.5030875,0.0,2025-04-11 20:44:14.503,LEFT,16
115.0,8487.806735969394,-10753.468960937138,-23081.059525139277,-24094.711136187452,16250.03114343061,4288.539801661945,30908.036936287517,34163.05442608052,0.0,0.0,0.0,193.0,0.0,192.0,0.0,0.0,0.0,178.0,192.0,0.0,178.0,1744418654.5031238,0.0,2025-04-11 20:44:14.503,LEFT,16
116.0,8473.523971262452,-10747.858673078856,-23113.42485111056,-24069.274850997313,16108.432842306238,4392.318951167936,30702.490294276515,34190.658830482826,0.0,0.0,0.0,193.0,0.0,193.0,0.0,0.0,0.0,179.0,193.0,0.0,179.0,1744418654.5031598,0.0,2025-04-11 20:44:14.503,LEFT,16
117.0,8497.306227362898,-10722.064759977433,-23081.439504795017,-24038.004760504336,16064.064629562454,4590.780090186607,30424.0322618523,34286.74897989619,0.0,0.0,0.0,193.0,0.0,193.0,0.0,0.0,0.0,179.0,193.0,0.0,179.0,1744418654.5031955,0.0,2025-04-11 20:44:14.503,LEFT,16
118.0,8489.550172036907,-10746.696382367181,-23043.486242709907,-24059.90947007054,16291.761850328667,4568.5401044535765,30629.891828285676,34317.236759333224,0.0,0.0,0.0,193.0,0.0,193.0,0.0,0.0,0.0,178.0,193.0,0.0,178.0,1744418654.5032315,0.0,2025-04-11 20:44:14.503,LEFT,16
119.0,8458.503598988485,-10798.66418822577,-23088.07797289824,-24112.48077302942,16295.002853274687,4336.752514452042,30875.269278916036,34205.63449926788,0.0,0.0,0.0,193.0,0.0,193.0,0.0,0.0,0.0,178.0,193.0,0.0,178.0,1744418654.5032835,0.0,2025-04-11 20:44:14.503,LEFT,16
120.0,8453.429752997132,-10794.126784101341,-23105.646444040114,-24083.602319193164,16187.580369422481,4377.499744594067,30685.100637090283,34160.70749291271,0.0,0.0,0.0,193.0,0.0,192.0,0.0,0.0,0.0,178.0,192.0,0.0,178.0,1744418654.5033207,0.0,2025-04-11 20:44:14.503,LEFT,16
121.0,8468.003090381992,-10765.874179109835,-23084.702859485493,-24037.267152937315,16124.056711680498,4623.6595062803635,30383.933232299478,34254.473060902725,0.0,0.0,0.0,193.0,0.0,192.0,0.0,0.0,0.0,178.0,192.0,0.0,178.0,1744418654.5033565,0.0,2025-04-11 20:44:14.503,LEFT,16
122.0,8483.984587667535,-10756.79937086098,-23038.032417062812,-24032.61799009061,16286.464486892759,4600.078415880014,30492.31684116326,34297.053134090085,0.0,0.0,0.0,193.0,0.0,193.0,0.0,0.0,0.0,179.0,193.0,0.0,179.0,1744418654.503392,0.0,2025-04-11 20:44:14.503,LEFT,16
123.0,8474.082764873834,-10786.728356686635,-23057.389027761106,-24078.774342390818,16334.833661894043,4368.693157278676,30832.06335688393,34220.2748918861,0.0,0.0,0.0,193.0,0.0,193.0,0.0,0.0,0.0,179.0,193.0,0.0,179.0,1744418654.503443,0.0,2025-04-11 20:44:14.503,LEFT,16
124.0,8464.739735691517,-10780.693385683702,-23102.51719981637,-24052.15341474455,16132.773892018067,4340.95464240964,30711.922730436654,34150.06806255198,0.0,0.0,0.0,193.0,0.0,193.0,0.0,0.0,0.0,178.0,193.0,0.0,178.0,1744418654.5034797,0.0,2025-04-11 20:44:14.503,LEFT,16
125.0,8482.039985899924,-10760.330946484917,-23106.361699862686,-24026.203039431937,15994.193076395164,4563.71212765123,30415.15861930354,34249.91330503384,0.0,0.0,0.0,193.0,0.0,192.0,0.0,0.0,0.0,178.0,192.0,0.0,178.0,1744418654.5035155,0.0,2025-04-11 20:44:14.503,LEFT,16
126.0,8476.92143641966,-10778.212342049163,-23060.115940584656,-24038.049463993248,16234.340218822983,4549.563473411021,30405.010927320833,34285.63139267342,0.0,0.0,0.0,193.0,0.0,193.0,0.0,0.0,0.0,179.0,193.0,0.0,179.0,1744418654.5035515,0.0,2025-04-11 20:44:14.503,LEFT,16
127.0,8426.227679995023,-10836.840967755434,-23091.587196777728,-24106.512857259855,16356.581909249058,4337.512473763522,30793.126618042785,34249.376863166915,0.0,0.0,0.0,193.0,0.0,192.0,0.0,0.0,0.0,179.0,192.0,0.0,179.0,1744418654.5035875,0.0,2025-04-11 20:44:14.503,LEFT,16
128.0,8432.709685887061,-10820.345380347417,-23103.679490528048,-24075.5333394448,16230.965105410232,4305.057740814417,30722.69627126411,34148.88342009585,0.0,0.0,0.0,193.0,0.0,192.0,0.0,0.0,0.0,179.0,192.0,0.0,179.0,1744418654.5036232,0.0,2025-04-11 20:44:14.503,LEFT,16
129.0,8446.299546515887,-10789.298807298996,-23121.00209248091,-24025.018396975804,16093.635987476826,4604.213488604247,30450.653189498567,34250.986188767696,0.0,0.0,0.0,193.0,0.0,192.0,0.0,0.0,0.0,178.0,192.0,0.0,178.0,1744418654.5036595,0.0,2025-04-11 20:44:14.503,LEFT,16
130.0,8471.400555539198,-10779.620501949848,-23086.490999041915,-24015.027167204284,16111.942066185722,4631.370858117444,30351.500851094825,34305.12211383845,0.0,0.0,0.0,193.0,0.0,193.0,0.0,0.0,0.0,178.0,193.0,0.0,178.0,1744418654.5036955,0.0,2025-04-11 20:44:14.503,LEFT,16
131.0,8437.045924311391,-10837.846796255923,-23105.937016718035,-24092.67712744202,16255.149692910874,4393.794166301986,30721.08694566333,34266.25243023067,0.0,0.0,0.0,193.0,0.0,193.0,0.0,0.0,0.0,179.0,193.0,0.0,179.0,1744418654.5037324,0.0,2025-04-11 20:44:14.503,LEFT,16
132.0,8417.644610124184,-10845.491092859638,-23130.501583874415,-24088.631461695608,16191.760145635624,4211.046303635395,30715.186085127127,34126.956358785195,0.0,0.0,0.0,193.0,0.0,192.0,0.0,0.0,0.0,178.0,192.0,0.0,178.0,1744418654.5037735,0.0,2025-04-11 20:44:14.503,LEFT,16
133.0,8429.535738174407,-10818.199612879707,-23137.989418266945,-24035.546068614254,16056.442684703194,4511.27493515908,30461.65024777058,34186.50140601413,0.0,0.0,0.0,193.0,0.0,192.0,0.0,0.0,0.0,178.0,192.0,0.0,178.0,1744418654.503816,0.0,2025-04-11 20:44:14.503,LEFT,16
134.0,8428.373447462733,-10831.968287464177,-23110.04973769781,-24031.74627205685,16220.437433771782,4641.63030882243,30274.208518768373,34245.599418353966,0.0,0.0,0.0,193.0,0.0,193.0,0.0,0.0,0.0,178.0,193.0,0.0,178.0,1744418654.503897,0.0,2025-04-11 20:44:14.503,LEFT,16
135.0,8403.741825072984,-10879.242226987151,-23095.498752057407,-24066.77145561832,16422.340741436572,4532.732609836175,30624.86268578323,34244.95121776476,0.0,0.0,0.0,193.0,0.0,193.0,0.0,0.0,0.0,179.0,193.0,0.0,179.0,1744418654.503934,0.0,2025-04-11 20:44:14.503,LEFT,16
136.0,8424.685409627606,-10861.159665722807,-23106.24994114041,-24064.357467217145,16340.242784052229,4315.116025819305,30712.906207192686,34101.11774219486,0.0,0.0,0.0,193.0,0.0,193.0,0.0,0.0,0.0,179.0,193.0,0.0,179.0,1744418654.5039766,0.0,2025-04-11 20:44:14.503,LEFT,16
137.0,8425.043037538891,-10839.52317709007,-23134.860174043202,-24033.914391269016,16188.183866522773,4477.121469631371,30500.251710444896,34145.821231105474,0.0,0.0,0.0,193.0,0.0,193.0,0.0,0.0,0.0,179.0,193.0,0.0,179.0,1744418654.504011,0.0,2025-04-11 20:44:14.504,LEFT,16
138.0,8437.872938856237,-10820.61360128088,-23124.600723338215,-24020.45864110692,16105.974150416156,4580.185363314791,30263.345570963094,34226.17575242231,0.0,0.0,0.0,193.0,0.0,192.0,0.0,0.0,0.0,178.0,192.0,0.0,178.0,1744418654.5040667,0.0,2025-04-11 20:44:14.504,LEFT,16
139.0,8411.363769932243,-10868.178113481774,-23124.444261127028,-24060.177691004003,16244.219689872229,4525.736513821664,30554.678208193567,34228.14270593437,0.0,0.0,0.0,193.0,0.0,193.0,0.0,0.0,0.0,179.0,193.0,0.0,179.0,1744418654.504102,0.0,2025-04-11 20:44:14.504,LEFT,16
140.0,8407.809842563849,-10888.518200936103,-23156.78723535386,-24109.06095612776,16266.705544794268,4291.154955763216,30739.12480343876,34090.63477404532,0.0,0.0,0.0,193.0,0.0,193.0,0.0,0.0,0.0,179.0,193.0,0.0,179.0,1744418654.5041373,0.0,2025-04-11 20:44:14.504,LEFT,16
141.0,8407.586325119297,-10872.492000161648,-23149.29940096133,-24056.601411891155,16194.799982881545,4423.834910849919,30526.582065413248,34082.901070463784,0.0,0.0,0.0,193.0,0.0,193.0,0.0,0.0,0.0,179.0,193.0,0.0,179.0,1744418654.504171,0.0,2025-04-11 20:44:14.504,LEFT,16
142.0,8399.539697115386,-10872.53670365056,-23121.404423881108,-24016.860010249617,16196.364604993416,4609.846128206984,30254.717797603345,34185.406170535825,0.0,0.0,0.0,193.0,0.0,192.0,0.0,0.0,0.0,178.0,192.0,0.0,178.0,1744418654.504204,0.0,2025-04-11 20:44:14.504,LEFT,16
143.0,8388.18501093209,-10897.34713999595,-23099.946749204013,-24029.4216906335,16275.93681525431,4550.792819356063,30447.65805574156,34207.33323184648,0.0,0.0,0.0,193.0,0.0,192.0,0.0,0.0,0.0,178.0,192.0,0.0,178.0,1744418654.504237,0.0,2025-04-11 20:44:14.504,LEFT,16
144.0,8368.962510700525,-10924.54921299806,-23135.77659556587,-24085.09988607167,16307.139850513919,4330.0469911154505,30730.27351263446,34098.41318111577,0.0,0.0,0.0,193.0,0.0,193.0,0.0,0.0,0.0,179.0,193.0,0.0,179.0,1744418654.5042722,0.0,2025-04-11 20:44:14.504,LEFT,16
145.0,8375.84684799276,-10900.074052819498,-23150.171118995087,-24047.727769342397,16224.661913473836,4360.2218461301145,30579.82392070579,34056.414253284245,0.0,0.0,0.0,193.0,0.0,193.0,0.0,0.0,0.0,179.0,193.0,0.0,179.0,1744418654.504306,0.0,2025-04-11 20:44:14.504,LEFT,16
146.0,8390.688406311085,-10872.20142748373,-23146.48308115996,-24015.541257326753,16151.929337016267,4563.063927062026,30307.71378370688,34164.216716792194,0.0,0.0,0.0,193.0,0.0,192.0,0.0,0.0,0.0,178.0,192.0,0.0,178.0,1744418654.5043397,0.0,2025-04-11 20:44:14.504,LEFT,16
147.0,8389.839040021783,-10893.703805649735,-23113.42485111056,-24025.37602488709,16268.381925628415,4567.891903864373,30392.15867425903,34192.08934212796,0.0,0.0,0.0,193.0,0.0,193.0,0.0,0.0,0.0,179.0,193.0,0.0,179.0,1744418654.5043764,0.0,2025-04-11 20:44:14.504,LEFT,16
148.0,8362.659318764128,-10933.109931124442,-23136.33538917725,-24068.894871341574,16326.697626912312,4391.9166197677405,30747.08202446485,34122.24014070513,0.0,0.0,0.0,193.0,0.0,193.0,0.0,0.0,0.0,179.0,193.0,0.0,179.0,1744418654.504414,0.0,2025-04-11 20:44:14.504,LEFT,16
149.0,8356.691402994562,-10934.451035791759,-23161.078770289278,-24059.48478692589,16171.15183724783,4360.132439152293,30628.885999785187,34036.722366419126,0.0,0.0,0.0,193.0,0.0,193.0,0.0,0.0,0.0,179.0,193.0,0.0,179.0,1744418654.504464,0.0,2025-04-11 20:44:14.504,LEFT,16
150.0,8347.527187767886,-10931.880585179399,-23165.079732546776,-24049.985295532384,16127.47652858216,4596.882116422906,30342.917781223987,34136.94758855672,0.0,0.0,0.0,193.0,0.0,192.0,0.0,0.0,0.0,178.0,192.0,0.0,178.0,1744418654.5045784,0.0,2025-04-11 20:44:14.504,LEFT,16
151.0,8368.001385688947,-10921.554079241048,-23113.24603715492,-24024.526658597788,16218.35872153744,4608.348561328478,30305.18803658343,34176.890155898356,0.0,0.0,0.0,193.0,0.0,192.0,0.0,1.0,0.0,178.0,192.0,1.0,178.0,1744418654.5046315,0.0,2025-04-11 20:44:14.504,LEFT,16
152.0,8351.32698432529,-10957.40627734736,-23113.82718251076,-24068.559595174742,16363.130970374463,4422.82908234943,30696.768247695956,34151.766795130585,0.0,0.0,0.0,193.0,0.0,193.0,0.0,2.0,0.0,179.0,193.0,2.0,179.0,1744418654.504685,0.0,2025-04-11 20:44:14.504,LEFT,16
153.0,8365.721507754506,-10938.340239326983,-23135.798947310323,-24049.828833321197,16212.971951123709,4284.89646731573,30625.846162539267,34040.52216297652,0.0,0.0,0.0,193.0,0.0,193.0,0.0,4.0,0.0,179.0,193.0,4.0,179.0,1744418654.5047777,0.0,2025-04-11 20:44:14.504,LEFT,16
154.0,8359.865350707216,-10930.360666556438,-23161.10112203373,-24037.311856426222,16144.329743901462,4507.452786857222,30335.519353809283,34125.54819888451,0.0,0.0,0.0,193.0,0.0,193.0,0.0,5.0,0.0,179.0,193.0,5.0,179.0,1744418654.504843,0.0,2025-04-11 20:44:14.504,LEFT,16
155.0,8365.945025199058,-10926.896146165866,-23129.160479207098,-24022.626760319086,16213.754262179646,4559.4429444602665,30207.287395869185,34181.09228385595,0.0,0.0,0.0,193.0,0.0,193.0,0.0,6.0,0.0,178.0,193.0,6.0,178.0,1744418654.5048869,0.0,2025-04-11 20:44:14.504,LEFT,16
156.0,8363.665147264617,-10946.588033030992,-23119.638636069136,-24040.1728797165,16278.842542033499,4425.623050406343,30572.00081014643,34155.76775738809,0.0,0.0,0.0,193.0,0.0,193.0,0.0,7.0,0.0,178.0,193.0,7.0,178.0,1744418654.504928,0.0,2025-04-11 20:44:14.504,LEFT,16
157.0,8352.93630992607,-10962.234254149706,-23144.82905207027,-24037.825946548695,16242.252736360162,4275.911066044697,30593.793760990357,34029.74862214907,0.0,0.0,0.0,193.0,0.0,193.0,0.0,8.0,0.0,179.0,193.0,8.0,179.0,1744418654.5049634,0.0,2025-04-11 20:44:14.504,LEFT,16
158.0,8322.247364788935,-10976.539370601104,-23188.750229924946,-24037.535373870778,16176.471552428193,4528.4187231563,30356.82056627519,34113.92529176775,0.0,0.0,0.0,193.0,0.0,193.0,0.0,9.0,0.0,179.0,193.0,9.0,179.0,1744418654.5049975,0.0,2025-04-11 20:44:14.504,LEFT,16
159.0,8356.289071594367,-10942.050628906563,-23141.67745610207,-24015.630664304575,16273.388716386406,4625.894680725894,30144.50134569423,34180.086455355464,0.0,0.0,0.0,193.0,0.0,192.0,0.0,9.0,0.0,178.0,192.0,9.0,178.0,1744418654.505031,0.0,2025-04-11 20:44:14.505,LEFT,16
160.0,8337.155978340625,-10976.002928734175,-23122.81258378179,-24039.658789594032,16389.14840092044,4510.22440316968,30469.853337985678,34184.82502517999,0.0,0.0,0.0,193.0,0.0,193.0,0.0,10.0,0.0,179.0,193.0,10.0,179.0,1744418654.505078,0.0,2025-04-11 20:44:14.505,LEFT,16
161.0,8325.533071223865,-10989.16810621835,-23157.658953387614,-24071.465321953932,16242.49860554917,4278.481516657057,30581.746170728944,34070.898183691286,0.0,0.0,0.0,193.0,0.0,193.0,0.0,11.0,0.0,179.0,193.0,11.0,179.0,1744418654.5051167,0.0,2025-04-11 20:44:14.505,LEFT,16
162.0,8343.347411554743,-10954.187626145796,-23155.11085451971,-24021.33035914068,16126.090720425931,4417.375256702335,30348.48336559336,34101.9000532508,0.0,0.0,0.0,193.0,0.0,193.0,0.0,11.0,0.0,179.0,193.0,11.0,179.0,1744418654.5051525,0.0,2025-04-11 20:44:14.505,LEFT,16
163.0,8336.105446351225,-10966.16816117384,-23141.632752613157,-24022.671463807997,16182.797096109045,4585.259209306146,30105.63166208645,34191.32938281648,0.0,0.0,0.0,193.0,0.0,192.0,0.0,12.0,0.0,178.0,192.0,12.0,178.0,1744418654.5052035,0.0,2025-04-11 20:44:14.505,LEFT,16
164.0,8328.975239869982,-10998.712301100768,-23118.38693837964,-24051.3264001997,16426.699331605356,4466.683204970742,30370.455130392926,34223.851170998954,0.0,0.0,0.0,193.0,0.0,193.0,0.0,12.0,0.0,179.0,193.0,12.0,179.0,1744418654.5052574,0.0,2025-04-11 20:44:14.505,LEFT,16
165.0,8316.637076930652,-11019.119443788462,-23157.457787687516,-24070.101865542158,16276.942643754799,4241.310565627881,30583.19903411854,34123.89416979482,0.0,0.0,0.0,193.0,0.0,193.0,0.0,12.0,0.0,179.0,193.0,12.0,179.0,1744418654.505396,0.0,2025-04-11 20:44:14.505,LEFT,16
166.0,8304.321265735778,-11007.049501782598,-23193.041764860365,-24032.23801043487,16101.302635824995,4441.559844202977,30413.21401753593,34134.66771062228,0.0,0.0,0.0,193.0,0.0,192.0,0.0,13.0,0.0,178.0,192.0,13.0,178.0,1744418654.505476,0.0,2025-04-11 20:44:14.505,LEFT,16
167.0,8330.249289303934,-10973.946568244288,-23160.63173540017,-23998.732745496363,16162.457008654716,4672.54277140412,30130.173877498375,34226.48867684468,0.0,0.0,0.0,193.0,0.0,193.0,0.0,13.0,0.0,179.0,193.0,13.0,179.0,1744418654.505562,0.0,2025-04-11 20:44:14.505,LEFT,16
168.0,8293.190096997036,-11023.008647323686,-23148.941773050043,-24042.81038556223,16401.888895259966,4586.421500017822,30271.302791989183,34229.953197235256,0.0,0.0,0.0,193.0,0.0,192.0,0.0,13.0,0.0,178.0,192.0,13.0,178.0,1744418654.5056205,0.0,2025-04-11 20:44:14.505,LEFT,16
169.0,8279.06379450128,-11047.349697035515,-23186.068020590308,-24092.073630341725,16339.862804396487,4320.323982277391,30575.08535088126,34155.00779807661,0.0,0.0,0.0,193.0,0.0,192.0,0.0,13.0,0.0,178.0,192.0,13.0,178.0,1744418654.5057588,0.0,2025-04-11 20:44:14.505,LEFT,16
170.0,8296.989893554437,-11018.828871110543,-23194.33816603877,-24037.602429104143,16168.357869190917,4341.178159854193,30409.078944811696,34108.89614926531,0.0,0.0,0.0,193.0,0.0,193.0,0.0,14.0,0.0,179.0,193.0,14.0,179.0,1744418654.5058389,0.0,2025-04-11 20:44:14.505,LEFT,16
171.0,8303.74012037994,-11011.27398148465,-23184.92808162309,-24019.47516435089,16117.23942962163,4599.676084479819,30115.511133135693,34199.465417798216,0.0,0.0,0.0,193.0,0.0,193.0,0.0,14.0,0.0,179.0,193.0,14.0,179.0,1744418654.505888,0.0,2025-04-11 20:44:14.505,LEFT,16
172.0,8305.818832614283,-11023.098054301508,-23156.809587098312,-24036.52954537029,16237.961201424743,4551.373964711901,30167.009552360723,34217.972662207205,0.0,0.0,0.0,193.0,0.0,192.0,0.0,14.0,0.0,178.0,192.0,14.0,178.0,1744418654.50594,0.0,2025-04-11 20:44:14.505,LEFT,16
173.0,8279.086146245736,-11058.123237862974,-23184.592805456257,-24096.566330977243,16241.582184026503,4324.168482323705,30525.57623691276,34158.89700161183,0.0,0.0,0.0,193.0,0.0,193.0,0.0,14.0,0.0,179.0,193.0,14.0,179.0,1744418654.5060008,0.0,2025-04-11 20:44:14.506,LEFT,16
174.0,8278.616759612174,-11036.822025397067,-23197.6238724737,-24048.152452487047,16158.992488264143,4302.956676835618,30418.846657138667,34077.31313434996,0.0,0.0,0.0,193.0,0.0,193.0,0.0,14.0,0.0,179.0,193.0,14.0,179.0,1744418654.5060496,0.0,2025-04-11 20:44:14.506,LEFT,16
175.0,8270.838352541728,-11027.546051448113,-23202.78712544288,-24014.870704993096,16148.9118515148,4573.077508578004,30121.210827971798,34174.565574475004,0.0,0.0,0.0,193.0,0.0,193.0,0.0,15.0,0.0,178.0,193.0,15.0,178.0,1744418654.5060997,0.0,2025-04-11 20:44:14.506,LEFT,16
176.0,8268.960806007482,-11053.630537227456,-23156.988401053954,-24017.55291432773,16381.504104316726,4628.018096449148,30065.95731567828,34233.19420018127,0.0,0.0,0.0,193.0,0.0,193.0,0.0,15.0,0.0,179.0,193.0,15.0,179.0,1744418654.5062108,0.0,2025-04-11 20:44:14.506,LEFT,16
177.0,8235.142616646603,-11095.96474122581,-23185.73274442348,-24079.958984846948,16443.932526580396,4439.637594179821,30444.72997721791,34206.48386555718,0.0,0.0,0.0,193.0,0.0,192.0,0.0,15.0,0.0,178.0,192.0,15.0,178.0,1744418654.5062785,0.0,2025-04-11 20:44:14.506,LEFT,16
178.0,8252.286404643823,-11067.063935645097,-23211.616064502727,-24064.201005005958,16231.523899021615,4301.369702979291,30385.699020111446,34094.30046013599,0.0,0.0,0.0,193.0,0.0,192.0,0.0,15.0,0.0,179.0,192.0,15.0,179.0,1744418654.5063343,0.0,2025-04-11 20:44:14.506,LEFT,16
179.0,8253.448695355499,-11046.56738597958,-23224.580076286802,-24028.28175166628,16076.313385523963,4546.903615820839,30117.94747328132,34191.64230723886,0.0,0.0,0.0,193.0,0.0,193.0,0.0,15.0,0.0,179.0,193.0,15.0,179.0,1744418654.5063727,0.0,2025-04-11 20:44:14.506,LEFT,16
180.0,8263.328166404744,-11051.931804648853,-23186.068020590308,-24034.6743505805,16230.808643199045,4592.970561143227,29974.94101225627,34253.10960449095,0.0,0.0,0.0,193.0,0.0,192.0,0.0,15.0,0.0,179.0,192.0,15.0,179.0,1744418654.506467,0.0,2025-04-11 20:44:14.506,LEFT,16
181.0,8222.066846140247,-11124.172642728407,-23204.59761674376,-24095.985185621405,16299.361443443471,4406.735826341609,30352.52903133977,34250.44974690077,0.0,0.0,0.0,193.0,0.0,193.0,0.0,15.0,0.0,179.0,193.0,15.0,179.0,1744418654.5065055,0.0,2025-04-11 20:44:14.506,LEFT,16
182.0,8216.367151304144,-11120.797529315654,-23228.379872844205,-24083.468208726434,16139.05473221001,4243.903367984697,30394.885587082576,34137.14875425682,0.0,0.0,0.0,193.0,0.0,193.0,0.0,15.0,0.0,179.0,193.0,15.0,179.0,1744418654.5065408,0.0,2025-04-11 20:44:14.506,LEFT,16
183.0,8212.835575680207,-11097.507011593225,-23239.64515204968,-24036.03780699227,16082.102487337886,4498.333275119457,30157.666523178403,34215.78219125059,0.0,0.0,0.0,193.0,0.0,193.0,0.0,15.0,0.0,178.0,193.0,15.0,178.0,1744418654.506575,0.0,2025-04-11 20:44:14.506,LEFT,16
184.0,8221.664514740052,-11093.975435969287,-23217.53927678338,-24050.85701356614,16207.853401643444,4557.878322348395,29932.74091872465,34289.721761908746,0.0,0.0,0.0,193.0,0.0,193.0,0.0,16.0,0.0,179.0,193.0,16.0,179.0,1744418654.5066369,0.0,2025-04-11 20:44:14.506,LEFT,16
185.0,8200.452709251966,-11129.91704105342,-23215.54997152686,-24093.593548964687,16344.511967243192,4454.389745520323,30247.006445766267,34298.14836956839,0.0,0.0,0.0,193.0,0.0,193.0,0.0,15.0,0.0,179.0,193.0,15.0,179.0,1744418654.5066717,0.0,2025-04-11 20:44:14.506,LEFT,16
186.0,8178.078613052204,-11149.430113962902,-23242.8861549957,-24104.210627580956,16381.05706942762,4333.66797371721,30371.237441448862,34156.70653065521,0.0,0.0,0.0,193.0,0.0,192.0,0.0,16.0,0.0,179.0,192.0,16.0,179.0,1744418654.5067053,0.0,2025-04-11 20:44:14.506,LEFT,16
187.0,8178.033909563293,-11138.745980113266,-23255.716056313046,-24051.415807177524,16245.471387561725,4522.048475986538,30143.20494451582,34195.97854566319,0.0,0.0,0.0,193.0,0.0,193.0,0.0,16.0,0.0,179.0,193.0,16.0,179.0,1744418654.5067384,0.0,2025-04-11 20:44:14.506,LEFT,16
188.0,8219.988133905905,-11104.212534929817,-23199.791991685866,-24013.03786194776,16210.803831911546,4658.215303208269,29858.466071899664,34279.59642167049,0.0,0.0,0.0,193.0,0.0,193.0,0.0,16.0,0.0,179.0,193.0,16.0,179.0,1744418654.5067725,0.0,2025-04-11 20:44:14.506,LEFT,16
189.0,8205.504203498866,-11137.58368940159,-23190.31485203682,-24046.252554208346,16300.322568455049,4561.007566572138,30092.444132857818,34312.38643078643,0.0,0.0,0.0,193.0,0.0,192.0,0.0,16.0,0.0,178.0,192.0,16.0,178.0,1744418654.5068061,0.0,2025-04-11 20:44:14.506,LEFT,16
190.0,8172.647139149563,-11176.386317776003,-23245.74717828598,-24100.701403701474,16249.517053308136,4300.162708778705,30310.99949014181,34214.35167960545,0.0,0.0,0.0,193.0,0.0,193.0,0.0,16.0,0.0,179.0,193.0,16.0,179.0,1744418654.5068395,0.0,2025-04-11 20:44:14.506,LEFT,16
191.0,8163.66173787853,-11160.471875723824,-23262.80155930538,-24065.2291852509,16119.698121511714,4363.932235709695,30126.709357107804,34204.069877156006,0.0,0.0,0.0,193.0,0.0,193.0,0.0,16.0,0.0,178.0,193.0,16.0,178.0,1744418654.506873,0.0,2025-04-11 20:44:14.506,LEFT,16
192.0,8177.206895018447,-11139.81886384712,-23241.20977416155,-24034.80846104723,16135.992543219632,4557.341880481467,29831.91219948676,34295.66732593386,0.0,0.0,0.0,193.0,0.0,192.0,0.0,16.0,0.0,178.0,192.0,16.0,178.0,1744418654.5069058,0.0,2025-04-11 20:44:14.506,LEFT,16
193.0,8170.546075170765,-11166.6856606824,-23206.54221851137,-24053.80744383424,16311.073757538052,4511.789025281551,29965.821500518505,34328.45733504979,0.0,0.0,0.0,193.0,0.0,193.0,0.0,16.0,0.0,179.0,193.0,16.0,179.0,1744418654.5069385,0.0,2025-04-11 20:44:14.506,LEFT,16
194.0,8149.960118527427,-11202.64961751099,-23232.15731765715,-24102.2883775578,16375.178560635874,4274.458202655102,30269.984039066323,34260.03864527209,0.0,0.0,0.0,193.0,0.0,193.0,0.0,16.0,0.0,179.0,193.0,16.0,179.0,1744418654.506971,0.0,2025-04-11 20:44:14.506,LEFT,16
195.0,8168.243845491868,-11166.97623336032,-23251.670390566636,-24059.48478692589,16236.55304152406,4346.09554363436,30138.891057835946,34228.76855477912,0.0,0.0,0.0,193.0,0.0,193.0,0.0,16.0,0.0,178.0,193.0,16.0,178.0,1744418654.5070157,0.0,2025-04-11 20:44:14.507,LEFT,16
196.0,8157.984394786882,-11160.762448401743,-23265.863748295757,-24039.457623893933,16088.003347874088,4610.382570073912,29848.47484212814,34339.67791076635,0.0,0.0,0.0,193.0,0.0,193.0,0.0,16.0,0.0,179.0,193.0,16.0,179.0,1744418654.5070488,0.0,2025-04-11 20:44:14.507,LEFT,16
197.0,8143.366353913111,-11199.319207587148,-23238.37110261573,-24077.09796155667,16178.662023384813,4549.965804811216,29843.780975792528,34370.389207647946,0.0,0.0,0.0,193.0,0.0,192.0,0.0,16.0,0.0,179.0,192.0,16.0,179.0,1744418654.507085,0.0,2025-04-11 20:44:14.507,LEFT,16
198.0,8125.082626948671,-11228.17530967895,-23237.477032837516,-24111.877275929128,16346.680086455357,4343.569796510911,30191.819988706113,34324.881055936945,0.0,0.0,0.0,193.0,0.0,193.0,0.0,16.0,0.0,179.0,193.0,16.0,179.0,1744418654.507118,0.0,2025-04-11 20:44:14.507,LEFT,16
199.0,8132.190481685458,-11205.93532394592,-23244.51783234094,-24070.4818451979,16307.743347614212,4324.459055001624,30099.261414916687,34248.92982827781,0.0,0.0,0.0,193.0,0.0,193.0,0.0,16.0,0.0,179.0,193.0,16.0,179.0,1744418654.5071645,0.0,2025-04-11 20:44:14.507,LEFT,16
200.0,8147.702592337441,-11179.31439629965,-23246.864765508744,-24027.745309799353,16190.284930501573,4584.365139527934,29805.626548007316,34349.08799518204,0.0,0.0,0.0,193.0,0.0,193.0,0.0,16.0,0.0,179.0,193.0,16.0,179.0,1744418654.5071971,0.0,2025-04-11 20:44:14.507,LEFT,16
201.0,8142.807560301729,-11191.45139353888,-23223.283675108396,-24042.296295439755,16304.07766152354,4598.178517601314,29714.49848586303,34395.75843760472,0.0,0.0,0.0,193.0,0.0,192.0,0.0,16.0,0.0,178.0,192.0,16.0,178.0,1744418654.5072298,0.0,2025-04-11 20:44:14.507,LEFT,16
202.0,8114.800824499229,-11230.879870758043,-23248.83171902081,-24098.734450189408,16321.690836154323,4426.941803329206,30092.10885669099,34382.056818253615,0.0,0.0,0.0,193.0,0.0,193.0,0.0,16.0,0.0,179.0,193.0,16.0,179.0,1744418654.5072627,0.0,2025-04-11 20:44:14.507,LEFT,16
203.0,8105.3683883390895,-11237.920670261463,-23269.55178613088,-24093.325328031224,16197.213971282717,4272.9382840321405,30059.676475486336,34274.56727916805,0.0,0.0,0.0,193.0,0.0,193.0,0.0,16.0,0.0,179.0,193.0,16.0,179.0,1744418654.5072951,0.0,2025-04-11 20:44:14.507,LEFT,16
204.0,8117.013647200304,-11211.009169937273,-23270.490559398004,-24047.61601062012,16094.999443888599,4497.975647208172,29798.965728159637,34373.22787919377,0.0,0.0,0.0,193.0,0.0,193.0,0.0,16.0,0.0,179.0,193.0,16.0,179.0,1744418654.5073273,0.0,2025-04-11 20:44:14.507,LEFT,16
205.0,8119.785263512763,-11213.847841483099,-23244.160204429652,-24049.60531587664,16140.328781643962,4542.343859951957,29647.420900752655,34443.881743417,0.0,0.0,0.0,193.0,0.0,193.0,0.0,16.0,0.0,179.0,193.0,16.0,179.0,1744418654.5073595,0.0,2025-04-11 20:44:14.507,LEFT,16
206.0,8082.4131467834895,-11268.6096153986,-23224.490669308983,-24100.187313579,16441.295020734673,4418.090512524905,30015.241207509185,34444.127612606004,0.0,0.0,0.0,193.0,0.0,193.0,0.0,16.0,0.0,179.0,193.0,16.0,179.0,1744418654.507392,0.0,2025-04-11 20:44:14.507,LEFT,16
207.0,8073.181876323448,-11272.364708467092,-23261.147530215687,-24113.419546296544,16334.967772360777,4235.879091725242,30063.69978948829,34308.519578995656,0.0,0.0,0.0,193.0,0.0,192.0,0.0,16.0,0.0,178.0,192.0,16.0,178.0,1744418654.5074246,0.0,2025-04-11 20:44:14.507,LEFT,16
208.0,8081.228504327358,-11245.073228487163,-23290.94240557461,-24079.333136002202,16124.168470402774,4436.5307017005325,29816.80242023497,34363.14724244443,0.0,0.0,0.0,193.0,0.0,193.0,0.0,17.0,0.0,179.0,193.0,17.0,179.0,1744418654.5074573,0.0,2025-04-11 20:44:14.507,LEFT,16
209.0,8103.088510404648,-11214.428986838937,-23254.35259990127,-24060.51296717083,16112.18793537473,4566.841371874973,29599.14113272919,34464.400644826965,0.0,0.0,0.0,193.0,0.0,193.0,0.0,17.0,0.0,179.0,193.0,17.0,179.0,1744418654.5074892,0.0,2025-04-11 20:44:14.507,LEFT,16
210.0,8067.6833471874415,-11262.194664739927,-23236.426500848116,-24098.77915367832,16332.732597915245,4444.443219237712,29899.280357275053,34483.89136599199,0.0,0.0,0.0,193.0,0.0,192.0,0.0,17.0,0.0,178.0,192.0,17.0,178.0,1744418654.5075357,0.0,2025-04-11 20:44:14.507,LEFT,16
211.0,8065.425820997456,-11275.069269546184,-23266.869576796245,-24113.844229441194,16331.883231625943,4247.479647097546,30049.238210825708,34360.19681217633,0.0,0.0,0.0,193.0,0.0,193.0,0.0,17.0,0.0,179.0,193.0,17.0,179.0,1744418654.5075836,0.0,2025-04-11 20:44:14.507,LEFT,16
212.0,8076.758155436297,-11248.425990155458,-23283.36516420426,-24065.81033060674,16172.224720981685,4412.614335133354,29834.974388477134,34395.400809693434,0.0,0.0,0.0,193.0,0.0,193.0,0.0,17.0,0.0,179.0,193.0,17.0,179.0,1744418654.5076163,0.0,2025-04-11 20:44:14.507,LEFT,16
213.0,8085.765908451785,-11237.048952227708,-23259.426445892626,-24037.222449448403,16178.170285006796,4607.610953761453,29550.03435016088,34487.31118289366,0.0,0.0,0.0,193.0,0.0,193.0,0.0,17.0,0.0,179.0,193.0,17.0,179.0,1744418654.5076487,0.0,2025-04-11 20:44:14.507,LEFT,16
214.0,8049.980765578839,-11288.927351108474,-23243.333189884805,-24078.416714479532,16393.082307944573,4544.735496608674,29769.349666756352,34523.18573274442,0.0,0.0,0.0,193.0,0.0,192.0,0.0,17.0,0.0,178.0,192.0,17.0,178.0,1744418654.507696,0.0,2025-04-11 20:44:14.507,LEFT,16
215.0,8034.803931093685,-11307.47929900638,-23269.864710553255,-24116.571142264744,16340.890984641432,4298.151051777727,30005.920530071326,34411.60582442353,0.0,0.0,0.0,193.0,0.0,193.0,0.0,17.0,0.0,179.0,193.0,17.0,179.0,1744418654.5077283,0.0,2025-04-11 20:44:14.507,LEFT,16
216.0,8037.30732647268,-11291.318987765193,-23285.577986905337,-24091.425429752522,16197.057509071532,4356.198532128159,29801.782047961005,34382.88383279846,0.0,0.0,0.0,193.0,0.0,193.0,0.0,17.0,0.0,179.0,193.0,17.0,179.0,1744418654.5077612,0.0,2025-04-11 20:44:14.507,LEFT,16
217.0,8056.5298267042435,-11263.08873451814,-23270.334097186817,-24060.15533925955,16162.099380743432,4570.931741110295,29496.88190184616,34497.57063359865,0.0,0.0,0.0,193.0,0.0,192.0,0.0,17.0,0.0,178.0,192.0,17.0,178.0,1744418654.5077934,0.0,2025-04-11 20:44:14.507,LEFT,16
218.0,8063.436515740934,-11265.078039774662,-23219.103898895253,-24050.342923443666,16272.427591374826,4549.585825155476,29607.3889264332,34551.863020880584,0.0,0.0,0.0,193.0,0.0,193.0,0.0,17.0,0.0,179.0,193.0,17.0,179.0,1744418654.9822457,0.0,2025-04-11 20:44:14.982,LEFT,16
219.0,8030.378285691534,-11308.038092617762,-23258.21945169204,-24109.48563927241,16228.774634453612,4319.206395054626,29930.97513091268,34486.30535439317,0.0,0.0,0.0,193.0,0.0,193.0,0.0,17.0,0.0,179.0,193.0,17.0,179.0,1744418654.9824135,0.0,2025-04-11 20:44:14.982,LEFT,16
220.0,8024.902108299984,-11296.929275623474,-23270.8928907982,-24096.454572254966,16285.168085714351,4283.46595567059,29772.389504002276,34419.89832161645,0.0,0.0,0.0,193.0,0.0,193.0,0.0,17.0,0.0,179.0,193.0,17.0,179.0,1744418654.982452,0.0,2025-04-11 20:44:14.982,LEFT,16
221.0,8018.4424541524,-11284.725223150877,-23277.08432401232,-24071.28650799829,16238.631753758402,4544.75784835313,29467.891689287626,34538.13904978503,0.0,0.0,0.0,193.0,0.0,192.0,0.0,17.0,0.0,178.0,192.0,17.0,178.0,1744418654.9824889,0.0,2025-04-11 20:44:14.982,LEFT,16
222.0,8023.225727465836,-11293.352996510625,-23239.689855538592,-24065.117426528624,16337.113539828486,4557.3865839703785,29441.136651174624,34574.237117080345,0.0,0.0,0.0,193.0,0.0,193.0,0.0,17.0,0.0,179.0,193.0,17.0,179.0,1744418654.982525,0.0,2025-04-11 20:44:14.982,LEFT,16
223.0,8001.186907432903,-11328.132310883084,-23260.94636451559,-24109.48563927241,16401.53126734868,4342.698078477154,29812.51088529955,34548.5549627012,0.0,0.0,0.0,193.0,0.0,193.0,0.0,17.0,0.0,179.0,193.0,17.0,179.0,1744418654.9825616,0.0,2025-04-11 20:44:14.982,LEFT,16
224.0,8007.735968558308,-11309.848583918641,-23286.8967398282,-24082.082400570205,16195.559942193026,4269.496115386023,29740.962951298116,34487.266479404745,0.0,0.0,0.0,193.0,0.0,192.0,0.0,17.0,0.0,178.0,192.0,17.0,178.0,1744418654.9825976,0.0,2025-04-11 20:44:14.982,LEFT,16
225.0,8025.460901911367,-11273.99638581233,-23303.392327236215,-24048.152452487047,15962.699468457637,4547.70827862123,29460.135633961636,34611.430419853976,0.0,0.0,0.0,193.0,0.0,192.0,0.0,17.0,0.0,178.0,192.0,17.0,178.0,1744418654.982748,0.0,2025-04-11 20:44:14.982,LEFT,16
226.0,8005.411387134956,-11298.382139013069,-23265.550823873382,-24078.372010990624,16245.516091050637,4569.568284698521,29346.275847706303,34664.24759200187,0.0,0.0,0.0,193.0,0.0,193.0,0.0,17.0,0.0,179.0,193.0,17.0,179.0,1744418654.9827845,0.0,2025-04-11 20:44:14.982,LEFT,16
227.0,7967.3687180720235,-11355.312032140737,-23268.18832971911,-24133.022026183848,16466.150160568974,4368.96137821214,29715.236093430056,34657.363254709635,0.0,0.0,0.0,193.0,0.0,192.0,0.0,17.0,0.0,179.0,192.0,17.0,179.0,1744418654.9828207,0.0,2025-04-11 20:44:14.982,LEFT,16
228.0,7987.999378204272,-11340.604584289144,-23264.947326773086,-24099.606168223163,16361.007554651209,4255.9733099905625,29677.193424367124,34543.79404113222,0.0,0.0,0.0,193.0,0.0,192.0,0.0,17.0,0.0,178.0,192.0,17.0,178.0,1744418654.9828563,0.0,2025-04-11 20:44:14.982,LEFT,16
229.0,8010.507584870767,-11294.09060407765,-23267.227204707528,-24033.936743013473,16210.35679702244,4531.011525513116,29391.38166801711,34629.4235741405,0.0,0.0,0.0,193.0,0.0,193.0,0.0,17.0,0.0,179.0,193.0,17.0,179.0,1744418654.9829109,0.0,2025-04-11 20:44:14.982,LEFT,16
230.0,8020.051779753182,-11285.820458629187,-23241.008608461456,-24033.199135446448,16253.048628932076,4607.834471206006,29200.609529091067,34710.02396464634,0.0,0.0,0.0,193.0,0.0,192.0,0.0,17.0,0.0,178.0,192.0,17.0,178.0,1744418654.9829464,0.0,2025-04-11 20:44:14.982,LEFT,16
231.0,7981.539724056688,-11347.690087281477,-23244.160204429652,-24104.47884851442,16442.457311446346,4416.212965990659,29559.13151015419,34742.41164236208,0.0,0.0,0.0,193.0,0.0,192.0,0.0,17.0,0.0,178.0,192.0,17.0,178.0,1744418654.982982,0.0,2025-04-11 20:44:14.982,LEFT,16
232.0,7964.798267459663,-11362.77751478881,-23293.825780609346,-24114.559485263766,16304.725862112746,4233.8450829798085,29631.3946999782,34624.97557699389,0.0,0.0,0.0,193.0,0.0,193.0,0.0,17.0,0.0,179.0,193.0,17.0,179.0,1744418654.9830177,0.0,2025-04-11 20:44:14.983,LEFT,16
233.0,7977.091726910082,-11336.469511564912,-23305.18046679264,-24075.488635955888,16093.658339221281,4449.338251273424,29371.645077663074,34677.077493319215,0.0,0.0,0.0,193.0,0.0,193.0,0.0,17.0,0.0,179.0,193.0,17.0,179.0,1744418654.9830527,0.0,2025-04-11 20:44:14.983,LEFT,16
234.0,7986.188886903392,-11322.879650936085,-23273.8433210663,-24058.546013658764,16165.586252878458,4582.755813927151,29121.171429296905,34770.060750253295,0.0,0.0,0.0,193.0,0.0,192.0,0.0,17.0,0.0,178.0,192.0,17.0,178.0,1744418654.9830885,0.0,2025-04-11 20:44:14.983,LEFT,16
235.0,7972.934302441395,-11346.796017503264,-23243.22143116253,-24082.70824941495,16470.329936782116,4450.478190240645,29385.19023480299,34790.1102650297,0.0,0.0,0.0,193.0,0.0,192.0,0.0,17.0,0.0,179.0,192.0,17.0,179.0,1744418654.983124,0.0,2025-04-11 20:44:14.983,LEFT,16
236.0,7957.24337783377,-11362.48694211089,-23272.70338209908,-24113.19602885199,16381.437049083359,4227.2066148765825,29547.285085592877,34696.70232495097,0.0,0.0,0.0,193.0,0.0,193.0,0.0,17.0,0.0,179.0,193.0,17.0,179.0,1744418654.9831593,0.0,2025-04-11 20:44:14.983,LEFT,16
237.0,7960.484380779789,-11346.90777622554,-23296.172713777152,-24075.041601066783,16177.991471051155,4404.366541429346,29320.772507282796,34709.95690941297,0.0,0.0,0.0,193.0,0.0,193.0,0.0,17.0,0.0,179.0,193.0,17.0,179.0,1744418654.9831946,0.0,2025-04-11 20:44:14.983,LEFT,16
238.0,7981.271503123225,-11326.321819582203,-23276.16790248965,-24052.354580444644,16125.442519836728,4591.696511709275,29027.07058514006,34809.44452398354,0.0,0.0,0.0,193.0,0.0,192.0,0.0,17.0,0.0,178.0,192.0,17.0,178.0,1744418654.9832292,0.0,2025-04-11 20:44:14.983,LEFT,16
239.0,7952.90713940944,-11369.05835498075,-23260.94636451559,-24090.844284396684,16327.569344946069,4531.771484824596,29224.704709613885,34863.26752463192,0.0,0.0,0.0,193.0,0.0,192.0,0.0,17.0,0.0,178.0,192.0,17.0,178.0,1744418654.9832647,0.0,2025-04-11 20:44:14.983,LEFT,16
240.0,7918.887784348462,-11408.933867089017,-23295.859789354778,-24142.946200722006,16450.25807026125,4296.765243621498,29463.3542851632,34773.52527064386,0.0,0.0,0.0,193.0,0.0,193.0,0.0,17.0,0.0,179.0,193.0,17.0,179.0,1744418654.9833145,0.0,2025-04-11 20:44:14.983,LEFT,16
241.0,7929.8624908760185,-11379.027233007817,-23300.307786501384,-24078.23790052389,16318.8521646085,4360.802991485953,29263.820262410674,34742.299883639804,0.0,0.0,0.0,193.0,0.0,193.0,0.0,17.0,0.0,179.0,193.0,17.0,179.0,1744418654.9833505,0.0,2025-04-11 20:44:14.983,LEFT,16
242.0,7957.980985400794,-11340.090494166672,-23291.545902674905,-24036.66365583702,16222.87377391741,4600.458395535755,28954.472119149224,34856.13731815068,0.0,0.0,0.0,193.0,0.0,192.0,0.0,17.0,0.0,178.0,192.0,17.0,178.0,1744418654.9833863,0.0,2025-04-11 20:44:14.983,LEFT,16
243.0,7942.267709048714,-11377.797887062776,-23284.728620616035,-24074.549862688764,16275.445076876293,4524.596574854443,29018.845143180508,34902.27131870644,0.0,0.0,0.0,193.0,0.0,193.0,0.0,17.0,0.0,179.0,193.0,17.0,179.0,1744418654.9834216,0.0,2025-04-11 20:44:14.983,LEFT,16
244.0,7911.601115656033,-11420.981457350428,-23320.491411744526,-24147.64006705762,16303.451812678793,4265.293987428426,29323.857048017628,34830.00812888243,0.0,0.0,0.0,193.0,0.0,192.0,0.0,17.0,0.0,179.0,192.0,17.0,179.0,1744418654.983471,0.0,2025-04-11 20:44:14.983,LEFT,16
245.0,7932.835272888574,-11382.20118072047,-23335.310618318395,-24104.210627580956,16207.763994665624,4275.531086388956,29174.212118889347,34768.36201767469,0.0,0.0,0.0,193.0,0.0,192.0,0.0,17.0,0.0,178.0,192.0,17.0,178.0,1744418654.983507,0.0,2025-04-11 20:44:14.983,LEFT,16
246.0,7932.276479277191,-11375.182732961504,-23325.297036802418,-24064.648039895063,16212.122584834407,4552.066868790015,28859.588963936447,34891.45307439007,0.0,0.0,0.0,193.0,0.0,193.0,0.0,17.0,0.0,179.0,193.0,17.0,179.0,1744418654.9835427,0.0,2025-04-11 20:44:14.983,LEFT,16
247.0,7913.724531379286,-11404.798794364786,-23281.71113511457,-24065.877385840107,16388.030813697675,4582.95697962725,28813.857294780886,34954.39558677621,0.0,0.0,0.0,193.0,0.0,192.0,0.0,17.0,0.0,178.0,192.0,17.0,178.0,1744418654.9835784,0.0,2025-04-11 20:44:14.983,LEFT,16
248.0,7875.614807082989,-11452.922100177062,-23314.076461085853,-24128.43991857051,16511.21127739087,4392.274247679025,29159.169394870925,34929.808667875375,0.0,0.0,0.0,193.0,0.0,192.0,0.0,17.0,0.0,178.0,192.0,17.0,178.0,1744418654.9836128,0.0,2025-04-11 20:44:14.983,LEFT,16
249.0,7885.5613333656,-11438.192300581015,-23329.879144415754,-24092.788886164297,16329.603353691502,4296.586429665856,29067.013152481697,34845.72140523451,0.0,0.0,0.0,193.0,0.0,193.0,0.0,17.0,0.0,179.0,193.0,17.0,179.0,1744418654.9836483,0.0,2025-04-11 20:44:14.983,LEFT,16
250.0,7899.508821905712,-11411.772538634843,-23326.52638274746,-24045.93962978597,16177.790305351056,4544.690793119764,28751.92061089523,34957.86010716678,0.0,0.0,0.0,193.0,0.0,193.0,0.0,17.0,0.0,179.0,193.0,17.0,179.0,1744418654.983684,0.0,2025-04-11 20:44:14.983,LEFT,16
251.0,7906.348455709035,-11411.5937246792,-23299.41371672317,-24057.339019458177,16208.546305721558,4580.140659825881,28620.872333153766,35041.67914887419,0.0,0.0,0.0,193.0,0.0,192.0,0.0,17.0,0.0,178.0,192.0,17.0,178.0,1744418654.9837196,0.0,2025-04-11 20:44:14.983,LEFT,16
252.0,7868.104620946005,-11462.26512935938,-23330.125013604764,-24098.510932744855,16205.30530277554,4442.923300614751,28990.614889933455,35046.59653265435,0.0,0.0,0.0,193.0,0.0,193.0,0.0,17.0,0.0,179.0,193.0,17.0,179.0,1744418654.9837615,0.0,2025-04-11 20:44:14.983,LEFT,16
253.0,7852.301937616103,-11474.849161487718,-23352.05207491542,-24116.01234865336,16347.708266700301,4269.809039808398,28988.335011999014,34936.31302551187,0.0,0.0,0.0,193.0,0.0,193.0,0.0,17.0,0.0,179.0,193.0,17.0,179.0,1744418654.9837976,0.0,2025-04-11 20:44:14.983,LEFT,16
254.0,7868.909283746396,-11442.282669816335,-23346.575897523868,-24071.957060331948,16309.173859259352,4485.078690657459,28679.09862745984,35006.25163391252,0.0,0.0,0.0,193.0,0.0,193.0,0.0,17.0,0.0,179.0,193.0,17.0,179.0,1744418654.9838328,0.0,2025-04-11 20:44:14.983,LEFT,16
255.0,7898.905324805418,-11424.065998085262,-23308.443821483117,-24052.198118233457,16260.670573791334,4576.385566757389,28458.2186887525,35096.4856262786,0.0,0.0,0.0,193.0,0.0,192.0,0.0,17.0,0.0,178.0,192.0,17.0,178.0,1744418654.9838812,0.0,2025-04-11 20:44:14.983,LEFT,16
0.0,7882.096812975027,-11462.108667148193,-23302.09592605781,-24094.644080954087,16415.992846011264,4418.917527069751,28777.043971662995,35112.31066135295,0.0,0.0,0.0,193.0,0.0,193.0,0.0,17.0,0.0,179.0,193.0,17.0,179.0,1744418654.9839168,0.0,2025-04-11 20:44:14.983,LEFT,16
1.0,7863.835437755041,-11473.5080568204,-23339.825670698367,-24112.81604919625,16341.89681314192,4242.182283661638,28865.355714005917,35004.955232734115,0.0,0.0,0.0,193.0,0.0,193.0,0.0,17.0,0.0,179.0,193.0,17.0,179.0,1744418654.983951,0.0,2025-04-11 20:44:14.983,LEFT,16
2.0,7865.9365017338405,-11450.865739687175,-23351.917964448687,-24059.730656114898,16161.071200498487,4449.78528616253,28643.112318886797,35084.862719161836,0.0,0.0,0.0,193.0,0.0,193.0,0.0,17.0,0.0,178.0,193.0,17.0,178.0,1744418654.9839916,0.0,2025-04-11 20:44:14.983,LEFT,16
3.0,7858.113391174483,-11461.616928770176,-23344.586592267347,-24063.306935227745,16168.268462213096,4636.422352364344,28375.00314414539,35173.44268243822,0.0,0.0,0.0,193.0,0.0,193.0,0.0,17.0,0.0,179.0,193.0,17.0,179.0,1744418654.9840407,0.0,2025-04-11 20:44:14.984,LEFT,16
4.0,7843.718867745265,-11503.258228690414,-23323.79946992391,-24097.885083900106,16395.876276001487,4512.459577615211,28604.28733876793,35185.19970002171,0.0,0.0,0.0,193.0,0.0,193.0,0.0,17.0,0.0,179.0,193.0,17.0,179.0,1744418654.9840765,0.0,2025-04-11 20:44:14.984,LEFT,16
5.0,7827.245632081704,-11520.267906220903,-23344.072502144874,-24127.948180192492,16400.614845826014,4294.172441264683,28791.192625903208,35096.6867919787,0.0,0.0,0.0,193.0,0.0,193.0,0.0,17.0,0.0,179.0,193.0,17.0,179.0,1744418654.9841123,0.0,2025-04-11 20:44:14.984,LEFT,16
6.0,7816.717960443254,-11512.37774042818,-23367.452426845128,-24111.407889295566,16303.98825454572,4415.788282846008,28573.061951763866,35117.56332129995,0.0,0.0,0.0,193.0,0.0,193.0,0.0,17.0,0.0,179.0,193.0,17.0,179.0,1744418654.9841475,0.0,2025-04-11 20:44:14.984,LEFT,16
7.0,7845.0376206681285,-11474.64799578762,-23338.7080834756,-24077.120313301126,16245.963125939743,4592.702340209763,28271.91689871751,35240.07323265949,0.0,0.0,0.0,193.0,0.0,193.0,0.0,17.0,0.0,179.0,193.0,17.0,179.0,1744418654.9841828,0.0,2025-04-11 20:44:14.984,LEFT,16
8.0,7854.0230219391615,-11481.778202268864,-23305.873370870755,-24073.76755163283,16314.6500366509,4540.376906439889,28416.84560976572,35281.98275351319,0.0,0.0,0.0,193.0,0.0,193.0,0.0,17.0,0.0,179.0,193.0,17.0,179.0,1744418654.984218,0.0,2025-04-11 20:44:14.984,LEFT,16
9.0,7829.011419893673,-11522.860708577718,-23347.827595213366,-24130.317465104756,16287.805591560078,4318.7817119099755,28692.77789506649,35217.185046337254,0.0,0.0,0.0,193.0,0.0,192.0,0.0,17.0,0.0,178.0,192.0,17.0,178.0,1744418654.9842532,0.0,2025-04-11 20:44:14.984,LEFT,16
10.0,7822.752931446187,-11526.481691179479,-23368.01122045651,-24116.280569586823,16307.8998098254,4294.4183104536905,28513.986291168487,35192.62047918087,0.0,0.0,0.0,193.0,0.0,192.0,0.0,17.0,0.0,178.0,192.0,17.0,178.0,1744418654.9842885,0.0,2025-04-11 20:44:14.984,LEFT,16
11.0,7834.599356007499,-11512.020112516895,-23358.936412207655,-24084.161112804548,16245.113759650441,4523.1660632093035,28193.39522044602,35313.76693412864,0.0,0.0,0.0,193.0,0.0,192.0,0.0,17.0,0.0,178.0,192.0,17.0,178.0,1744418654.9843233,0.0,2025-04-11 20:44:14.984,LEFT,16
12.0,7827.0221146371505,-11542.910223354129,-23315.082289586342,-24083.356450004158,16422.00546526974,4545.786028598074,28218.54093295824,35367.18760337682,0.0,0.0,0.0,193.0,0.0,192.0,0.0,17.0,0.0,178.0,192.0,17.0,178.0,1744418654.9843585,0.0,2025-04-11 20:44:14.984,LEFT,16
13.0,7808.716035928254,-11579.030642393906,-23336.942295663634,-24124.707177246473,16455.82365463062,4335.47846501809,28529.02901518691,35330.91072212586,0.0,0.0,0.0,193.0,0.0,193.0,0.0,17.0,0.0,179.0,193.0,17.0,179.0,1744418654.984394,0.0,2025-04-11 20:44:14.984,LEFT,16
14.0,7803.9551143592735,-11572.593339990777,-23375.09672344884,-24101.10373510167,16256.423742344827,4339.166502853215,28390.984641430932,35279.79228255657,0.0,0.0,0.0,193.0,0.0,192.0,0.0,17.0,0.0,178.0,192.0,17.0,178.0,1744418654.984444,0.0,2025-04-11 20:44:14.984,LEFT,16
15.0,7817.053236610083,-11540.898566353151,-23374.068543203895,-24060.848243337663,16171.688279114758,4599.072587379526,28064.023323538702,35414.08156324406,0.0,0.0,0.0,193.0,0.0,193.0,0.0,17.0,0.0,179.0,193.0,17.0,179.0,1744418654.9844792,0.0,2025-04-11 20:44:14.984,LEFT,16
16.0,7827.849129181997,-11544.474845466,-23332.85192642831,-24063.61985965012,16294.734632341222,4600.883078680406,27948.464804704763,35475.34769479605,0.0,0.0,0.0,193.0,0.0,193.0,0.0,17.0,0.0,179.0,193.0,17.0,179.0,1744418654.9845145,0.0,2025-04-11 20:44:14.984,LEFT,16
17.0,7790.54406768609,-11596.688520513597,-23349.794548725433,-24123.500183045886,16363.846226197033,4394.934105269206,28283.40569536754,35485.47303503431,0.0,0.0,0.0,193.0,0.0,193.0,0.0,17.0,0.0,178.0,193.0,17.0,178.0,1744418654.9845498,0.0,2025-04-11 20:44:14.984,LEFT,16
18.0,7793.695663654288,-11592.218171622537,-23367.87710998978,-24107.38457529361,16290.644263105902,4278.079185256861,28176.56435687117,35403.86681602798,0.0,0.0,0.0,193.0,0.0,193.0,0.0,17.0,0.0,179.0,193.0,17.0,179.0,1744418654.984598,0.0,2025-04-11 20:44:14.984,LEFT,16
19.0,7794.857954365963,-11577.108392370748,-23367.094798933842,-24073.47697895491,16245.560794539548,4520.483853874666,27838.717739429205,35513.949157470364,0.0,0.0,0.0,193.0,0.0,193.0,0.0,17.0,0.0,179.0,193.0,17.0,179.0,1744418654.9846337,0.0,2025-04-11 20:44:14.984,LEFT,16
20.0,7788.085375796006,-11582.29399708438,-23334.349493306818,-24076.33800224519,16353.51972025868,4569.90356086535,27660.015542509027,35605.14427484802,0.0,0.0,0.0,193.0,0.0,192.0,0.0,17.0,0.0,179.0,192.0,17.0,179.0,1744418654.9846692,0.0,2025-04-11 20:44:14.984,LEFT,16
21.0,7768.549951142068,-11610.881878242717,-23342.060845143897,-24114.20185735248,16426.609924627533,4409.753311843075,27994.040011649136,35628.32303384817,0.0,0.0,0.0,193.0,0.0,192.0,0.0,17.0,0.0,178.0,192.0,17.0,178.0,1744418654.9847047,0.0,2025-04-11 20:44:14.984,LEFT,16
22.0,7776.462468679246,-11599.638950781698,-23364.14436866574,-24102.131915346614,16244.957297439254,4223.451521808091,27961.451168233296,35511.62457604701,0.0,0.0,0.0,193.0,0.0,193.0,0.0,17.0,0.0,179.0,193.0,17.0,179.0,1744418654.9847405,0.0,2025-04-11 20:44:14.984,LEFT,16
23.0,7763.073773750517,-11594.878029212718,-23379.58942408436,-24084.116409315637,16238.8329194585,4453.875655397851,27638.75903353203,35604.361963792086,0.0,0.0,0.0,193.0,0.0,193.0,0.0,17.0,0.0,179.0,193.0,17.0,179.0,1744418654.9847758,0.0,2025-04-11 20:44:14.984,LEFT,16
24.0,7782.273922237626,-11565.038450364882,-23346.151214379217,-24057.495481669364,16265.945585482788,4636.4447041088,27341.592590998724,35696.138226525574,0.0,0.0,0.0,193.0,0.0,192.0,0.0,17.0,0.0,178.0,192.0,17.0,178.0,1744418654.9848113,0.0,2025-04-11 20:44:14.984,LEFT,16
25.0,7737.883357749386,-11623.130634204226,-23340.607981754303,-24099.226188567423,16509.490193067813,4533.85019705894,27575.101265323316,35718.55702621425,0.0,0.0,0.0,193.0,0.0,193.0,0.0,17.0,0.0,179.0,193.0,17.0,179.0,1744418654.9848464,0.0,2025-04-11 20:44:14.984,LEFT,16
26.0,7748.142808454372,-11611.708892787563,-23358.601136040823,-24115.87823818663,16429.336837451083,4292.384301708258,27599.24114933505,35612.27448132926,0.0,0.0,0.0,193.0,0.0,192.0,0.0,17.0,0.0,178.0,192.0,17.0,178.0,1744418654.984882,0.0,2025-04-11 20:44:14.984,LEFT,16
27.0,7744.410067130336,-11590.854715210762,-23380.684659562667,-24081.613013936643,16286.88917003741,4444.107943070882,27283.858035070665,35665.20341219943,0.0,0.0,0.0,193.0,0.0,193.0,0.0,17.0,0.0,178.0,193.0,17.0,178.0,1744418654.9849176,0.0,2025-04-11 20:44:14.984,LEFT,16
28.0,7772.103878510461,-11560.791618918374,-23344.340723078338,-24041.290466939266,16240.576355526015,4592.4341192762995,26914.003719568696,35773.92229723004,0.0,0.0,0.0,193.0,0.0,193.0,0.0,17.0,0.0,179.0,193.0,17.0,179.0,1744418654.984953,0.0,2025-04-11 20:44:14.984,LEFT,16
29.0,7762.224407461215,-11593.134593145203,-23325.56525773588,-24074.34869698867,16360.71698197329,4490.890144215839,27070.868262156044,35832.394460725125,0.0,0.0,0.0,193.0,0.0,192.0,0.0,17.0,0.0,179.0,192.0,17.0,179.0,1744418654.9850018,0.0,2025-04-11 20:44:14.985,LEFT,16
30.0,7750.7132590667325,-11616.469814356544,-23364.859624488312,-24126.785889480816,16328.66458042438,4215.6954664821,27216.10989762663,35752.4422708085,0.0,0.0,0.0,193.0,0.0,193.0,0.0,17.0,0.0,179.0,193.0,17.0,179.0,1744418654.9850376,0.0,2025-04-11 20:44:14.985,LEFT,16
31.0,7731.490758835168,-11616.514517845455,-23387.948976510645,-24089.05614484026,16230.898050176866,4360.802991485953,26957.43315904536,35749.22361960693,0.0,0.0,0.0,193.0,0.0,193.0,0.0,17.0,0.0,179.0,193.0,17.0,179.0,1744418654.985073,0.0,2025-04-11 20:44:14.985,LEFT,16
32.0,7743.091314207472,-11595.168601890637,-23364.546700065937,-24068.492539941377,16266.54908258308,4622.206642890768,26600.900483238758,35853.89683889113,0.0,0.0,0.0,193.0,0.0,192.0,0.0,17.0,0.0,178.0,192.0,17.0,178.0,1744418654.9851084,0.0,2025-04-11 20:44:14.985,LEFT,16
33.0,7730.127302423394,-11626.148119705693,-23333.835403184345,-24097.303938544268,16476.566073485144,4563.645072417864,26684.585414479425,35892.788874243364,0.0,0.0,0.0,193.0,0.0,193.0,0.0,17.0,0.0,179.0,193.0,17.0,179.0,1744418654.985156,0.0,2025-04-11 20:44:14.985,LEFT,16
34.0,7696.465575273702,-11668.83995161533,-23377.15308393873,-24140.040473942816,16466.038401846698,4327.990630625562,26958.818967201587,35838.74235615043,0.0,0.0,0.0,193.0,0.0,193.0,0.0,17.0,0.0,179.0,193.0,17.0,179.0,1744418654.9851916,0.0,2025-04-11 20:44:14.985,LEFT,16
35.0,7711.217726614204,-11639.358000678778,-23384.037421230965,-24109.507991016864,16348.915260900887,4332.416276027712,26757.317990936994,35794.284736428825,0.0,0.0,0.0,193.0,0.0,193.0,0.0,17.0,0.0,179.0,193.0,17.0,179.0,1744418654.9852264,0.0,2025-04-11 20:44:14.985,LEFT,16
36.0,7730.708447779232,-11596.979093191516,-23381.466970618603,-24056.109673513136,16186.753354877634,4561.52165669461,26417.37030951623,35908.9268337401,0.0,0.0,0.0,193.0,0.0,192.0,0.0,17.0,0.0,178.0,192.0,17.0,178.0,1744418654.9852617,0.0,2025-04-11 20:44:14.985,LEFT,16
37.0,7731.937793724274,-11603.170526405636,-23342.038493399443,-24056.109673513136,16351.843339424533,4569.612988187431,26432.61419923475,35980.07243634134,0.0,0.0,0.0,193.0,0.0,193.0,0.0,17.0,0.0,179.0,193.0,17.0,179.0,1744418654.9852972,0.0,2025-04-11 20:44:14.985,LEFT,16
38.0,7687.301360047026,-11673.243245273025,-23367.85475824532,-24128.752842992886,16512.55238205819,4355.5279797945,26776.67460163529,35971.17644204813,0.0,0.0,0.0,193.0,0.0,193.0,0.0,17.0,0.0,179.0,193.0,17.0,179.0,1744418654.985332,0.0,2025-04-11 20:44:14.985,LEFT,16
39.0,7685.781441424066,-11666.895349847717,-23398.96838652711,-24114.44772654149,16345.115464343486,4289.746795862531,26653.807062364467,35913.128961697694,0.0,0.0,0.0,193.0,0.0,192.0,0.0,17.0,0.0,178.0,192.0,17.0,178.0,1744418654.9853673,0.0,2025-04-11 20:44:14.985,LEFT,16
40.0,7680.797002410532,-11650.444465928611,-23421.901276338253,-24103.11539210265,16223.521974506615,4543.081467518981,26348.057549960322,36031.59320731082,0.0,0.0,0.0,193.0,0.0,192.0,0.0,17.0,0.0,178.0,192.0,17.0,178.0,1744418654.9854023,0.0,2025-04-11 20:44:14.985,LEFT,16
41.0,7688.173078080783,-11644.945936792605,-23384.126828208784,-24100.746107190385,16273.165198941851,4531.279746446579,26242.557316131275,36097.15087379824,0.0,0.0,0.0,193.0,0.0,193.0,0.0,17.0,0.0,179.0,193.0,17.0,179.0,1744418654.9854376,0.0,2025-04-11 20:44:14.985,LEFT,16
42.0,7662.043888812529,-11685.760222167995,-23384.8197322869,-24150.568145581263,16378.553674048624,4341.111104620827,26587.847064476857,36084.25391724753,0.0,0.0,0.0,193.0,0.0,193.0,0.0,17.0,0.0,179.0,193.0,17.0,179.0,1744418654.985473,0.0,2025-04-11 20:44:14.985,LEFT,16
43.0,7651.985603807641,-11686.140201823737,-23410.703052366145,-24142.25329664389,16251.55106205357,4207.827652433831,26535.49927896253,35978.284296784914,0.0,0.0,0.0,193.0,0.0,192.0,0.0,17.0,0.0,178.0,192.0,17.0,178.0,1744418654.9855082,0.0,2025-04-11 20:44:14.985,LEFT,16
44.0,7669.554074949512,-11641.660230357675,-23408.15495349824,-24081.255386025357,16091.557275242481,4484.162269134792,26254.001409292392,36081.70581837962,0.0,0.0,0.0,193.0,0.0,193.0,0.0,17.0,0.0,179.0,193.0,17.0,179.0,1744418654.985556,0.0,2025-04-11 20:44:14.985,LEFT,16
45.0,7679.9252843767745,-11638.754503578486,-23363.876147732277,-24088.47499948442,16330.877403125454,4583.292255794079,26071.097084414614,36156.91943847173,0.0,0.0,0.0,193.0,0.0,192.0,0.0,17.0,0.0,178.0,192.0,17.0,178.0,1744418654.9855912,0.0,2025-04-11 20:44:14.985,LEFT,16
46.0,7660.300452745016,-11674.4055359847,-23361.19393839764,-24128.43991857051,16531.88664101203,4423.052599793983,26409.167219301133,36176.566621847945,0.0,0.0,0.0,193.0,0.0,192.0,0.0,17.0,0.0,178.0,192.0,17.0,178.0,1744418654.9856265,0.0,2025-04-11 20:44:14.985,LEFT,16
47.0,7653.0361357970405,-11678.250036031013,-23397.336709181873,-24138.63231404213,16358.95119416132,4220.6352020067225,26458.721036758547,36088.09841729384,0.0,0.0,0.0,193.0,0.0,193.0,0.0,17.0,0.0,179.0,193.0,17.0,179.0,1744418654.9856625,0.0,2025-04-11 20:44:14.985,LEFT,16
48.0,7646.241205482627,-11660.88273058924,-23418.97319781461,-24092.25244429737,16289.07964099403,4421.555032915478,26205.073440679724,36177.68420907071,0.0,0.0,0.0,193.0,0.0,193.0,0.0,17.0,0.0,178.0,193.0,17.0,178.0,1744418654.9857109,0.0,2025-04-11 20:44:14.985,LEFT,16
49.0,7644.050734526007,-11652.791399096419,-23407.126773253298,-24065.81033060674,16266.102047693974,4604.593468259986,25968.681391320395,36281.977448699174,0.0,0.0,0.0,193.0,0.0,192.0,0.0,17.0,0.0,178.0,192.0,17.0,178.0,1744418654.9857466,0.0,2025-04-11 20:44:14.985,LEFT,16
50.0,7620.000257492096,-11695.483231006054,-23378.96357523961,-24114.87240968614,16527.304533398692,4504.055321700015,26245.597153377195,36290.158187169814,0.0,0.0,0.0,193.0,0.0,192.0,0.0,17.0,0.0,178.0,192.0,17.0,178.0,1744418654.9857817,0.0,2025-04-11 20:44:14.985,LEFT,16
51.0,7626.370504661859,-11692.689262949141,-23401.29296795046,-24121.35441557818,16434.522442164714,4273.340615432336,26371.45982640503,36179.3382381604,0.0,0.0,0.0,193.0,0.0,193.0,0.0,17.0,0.0,179.0,193.0,17.0,179.0,1744418654.9858167,0.0,2025-04-11 20:44:14.985,LEFT,16
52.0,7626.996353506608,-11671.723326650063,-23415.933360568688,-24086.262176783344,16334.028999093653,4428.68523939672,26139.962809081415,36214.60929091088,0.0,0.0,0.0,193.0,0.0,192.0,0.0,17.0,0.0,178.0,192.0,17.0,178.0,1744418654.9858522,0.0,2025-04-11 20:44:14.985,LEFT,16
53.0,7639.446275168214,-11644.185977481126,-23387.34547941035,-24067.28554574079,16296.902751553387,4604.705226982263,25859.940154545326,36331.35245220095,0.0,0.0,0.0,193.0,0.0,192.0,0.0,17.0,0.0,179.0,192.0,17.0,179.0,1744418654.9858873,0.0,2025-04-11 20:44:14.985,LEFT,16
54.0,7628.404513407292,-11673.466762717577,-23366.44659834464,-24084.42933373801,16408.43795638537,4524.261298687613,26077.713200773385,36385.42132203833,0.0,0.0,0.0,193.0,0.0,193.0,0.0,17.0,0.0,179.0,193.0,17.0,179.0,1744418654.9859228,0.0,2025-04-11 20:44:14.985,LEFT,16
55.0,7617.8768417688425,-11694.209181572101,-23400.421249916704,-24114.44772654149,16394.982206223274,4291.758452863509,26307.60089249622,36296.75195178413,0.0,0.0,0.0,193.0,0.0,192.0,0.0,17.0,0.0,179.0,192.0,17.0,179.0,1744418654.9859579,0.0,2025-04-11 20:44:14.985,LEFT,16
56.0,7614.725245800644,-11683.636806444742,-23415.665139635224,-24079.891929613583,16228.618172242424,4377.320930638424,26122.059061772714,36294.38266687187,0.0,0.0,0.0,193.0,0.0,192.0,0.0,17.0,0.0,178.0,192.0,17.0,178.0,1744418654.9859965,0.0,2025-04-11 20:44:14.985,LEFT,16
57.0,7622.1013214708955,-11661.821503856363,-23405.405688930237,-24058.970696803415,16239.12349213642,4606.448663049778,25823.082127938527,36416.423191597845,0.0,0.0,0.0,193.0,0.0,193.0,0.0,17.0,0.0,179.0,193.0,17.0,179.0,1744418654.9860315,0.0,2025-04-11 20:44:14.986,LEFT,16
58.0,7615.105225456385,-11686.028443101459,-23363.920851221188,-24074.080476055202,16434.857718331543,4547.842389087962,25930.504611790733,36479.16453828389,0.0,0.0,0.0,193.0,0.0,193.0,0.0,17.0,0.0,179.0,193.0,17.0,179.0,1744418654.9860797,0.0,2025-04-11 20:44:14.986,LEFT,16
59.0,7583.298693096483,-11727.110949410315,-23399.750697583044,-24124.126031890635,16395.272778901195,4267.864438040786,26240.81388006376,36435.86920927396,0.0,0.0,0.0,193.0,0.0,192.0,0.0,17.0,0.0,179.0,192.0,17.0,179.0,1744418654.9861236,0.0,2025-04-11 20:44:14.986,LEFT,16
60.0,7566.199608588173,-11730.106083167326,-23424.91876183972,-24106.423450282033,16351.418656279882,4286.796365594431,26081.40123860851,36379.90044115787,0.0,0.0,0.0,193.0,0.0,193.0,0.0,17.0,0.0,179.0,193.0,17.0,179.0,1744418654.9861548,0.0,2025-04-11 20:44:14.986,LEFT,16
61.0,7575.877913937321,-11705.519164266487,-23428.897372352767,-24091.872464641627,16276.65207107688,4520.550909108032,25783.363078041446,36524.33741382807,0.0,0.0,0.0,193.0,0.0,193.0,0.0,17.0,0.0,179.0,193.0,17.0,179.0,1744418654.9861853,0.0,2025-04-11 20:44:14.986,LEFT,16
62.0,7583.0081204185635,-11707.664931734196,-23387.166665454708,-24085.2339965384,16412.081290731585,4514.672400316286,25778.95978438375,36595.55007166268,0.0,0.0,0.0,193.0,0.0,192.0,0.0,17.0,0.0,179.0,192.0,17.0,179.0,1744418654.986216,0.0,2025-04-11 20:44:14.986,LEFT,16
63.0,7545.144265311274,-11763.790162061474,-23404.377508685295,-24138.408796597578,16516.508640826778,4336.104313862838,26137.280599746777,36561.03897822368,0.0,0.0,0.0,193.0,0.0,192.0,0.0,17.0,0.0,178.0,192.0,17.0,178.0,1744418654.986258,0.0,2025-04-11 20:44:14.986,LEFT,16
64.0,7569.775887701022,-11725.255754620524,-23420.649578648758,-24110.2903020728,16338.700513684811,4276.358100933802,26041.995113133802,36473.48719519225,0.0,0.0,0.0,193.0,0.0,192.0,0.0,17.0,0.0,178.0,192.0,17.0,178.0,1744418654.9862888,0.0,2025-04-11 20:44:14.986,LEFT,16
65.0,7571.988710402097,-11700.199449086125,-23434.82058463342,-24073.164054532535,16221.130337849896,4545.048421031049,25754.596382927466,36584.50830990175,0.0,0.0,0.0,193.0,0.0,193.0,0.0,17.0,0.0,179.0,193.0,17.0,179.0,1744418654.9863193,0.0,2025-04-11 20:44:14.986,LEFT,16
66.0,7575.207361603661,-11694.49975425002,-23391.145275967752,-24040.105824483137,16273.388716386406,4616.596355032487,25645.40811126329,36660.3030753497,0.0,0.0,0.0,193.0,0.0,192.0,0.0,17.0,0.0,178.0,192.0,17.0,178.0,1744418654.9863498,0.0,2025-04-11 20:44:14.986,LEFT,16
67.0,7545.479541478103,-11736.766903015006,-23403.68460460718,-24102.690708957998,16388.94723522034,4420.571556159443,26012.02142381924,36641.48290651833,0.0,0.0,0.0,193.0,0.0,193.0,0.0,17.0,0.0,179.0,193.0,17.0,179.0,1744418654.98638,0.0,2025-04-11 20:44:14.986,LEFT,16
68.0,7543.6243466883125,-11736.521033825999,-23427.06452930743,-24117.15228762058,16353.989106892242,4253.827542522853,26005.24884524928,36532.31698659861,0.0,0.0,0.0,193.0,0.0,193.0,0.0,17.0,0.0,179.0,193.0,17.0,179.0,1744418654.9864109,0.0,2025-04-11 20:44:14.986,LEFT,16
69.0,7529.6545064037455,-11738.398580360245,-23440.050892835963,-24092.654775697563,16342.299144542116,4498.6909030307415,25734.748033851152,36628.943577878905,0.0,0.0,0.0,193.0,0.0,192.0,0.0,18.0,0.0,178.0,192.0,18.0,178.0,1744418654.9864411,0.0,2025-04-11 20:44:14.986,LEFT,16
70.0,7545.6807071782005,-11719.60076327333,-23402.924645295698,-24067.77728411881,16394.222246911795,4584.320436039024,25545.048778658962,36710.19216897395,0.0,0.0,0.0,193.0,0.0,193.0,0.0,17.0,0.0,179.0,193.0,17.0,179.0,1744418654.9864917,0.0,2025-04-11 20:44:14.986,LEFT,16
71.0,7526.771131369011,-11763.65605159474,-23395.14623822525,-24113.419546296544,16518.87792573904,4443.839722137418,25884.59412867953,36726.10661102612,0.0,0.0,0.0,193.0,0.0,193.0,0.0,17.0,0.0,179.0,193.0,17.0,179.0,1744418654.9865253,0.0,2025-04-11 20:44:14.986,LEFT,16
72.0,7503.145337479751,-11789.80759260745,-23427.422157218716,-24131.189183138515,16465.88193963551,4236.415533592169,25950.665885289418,36622.930958620425,0.0,0.0,0.0,193.0,0.0,192.0,0.0,17.0,0.0,178.0,192.0,17.0,178.0,1744418654.9865556,0.0,2025-04-11 20:44:14.986,LEFT,16
73.0,7507.39216892626,-11762.806685305439,-23435.982875345097,-24083.62467093762,16335.213641549784,4447.863036139373,25706.94246374875,36698.725724068376,0.0,0.0,0.0,193.0,0.0,192.0,0.0,17.0,0.0,178.0,192.0,17.0,178.0,1744418654.986586,0.0,2025-04-11 20:44:14.986,LEFT,16
74.0,7516.243459730561,-11751.787275288973,-23419.420232703716,-24070.86182485364,16270.952376240777,4579.4030522588555,25461.22973695156,36812.07142020123,0.0,0.0,0.0,193.0,0.0,193.0,0.0,17.0,0.0,179.0,193.0,17.0,179.0,1744418654.9866164,0.0,2025-04-11 20:44:14.986,LEFT,16
75.0,7495.098709475841,-11786.633644894797,-23412.804116344945,-24106.75872644886,16425.246468215762,4461.40819327929,25738.95016180875,36848.84003983022,0.0,0.0,0.0,193.0,0.0,193.0,0.0,17.0,0.0,179.0,193.0,17.0,179.0,1744418654.9866643,0.0,2025-04-11 20:44:14.986,LEFT,16
76.0,7485.934494249165,-11795.350825232366,-23441.526107970014,-24131.166831394057,16397.664415557912,4232.325164356847,25910.20922782531,36757.913143386024,0.0,0.0,0.0,193.0,0.0,192.0,0.0,17.0,0.0,179.0,192.0,17.0,179.0,1744418654.9866953,0.0,2025-04-11 20:44:14.986,LEFT,16
77.0,7486.739157049556,-11786.208961750146,-23449.371570273826,-24106.557560748766,16309.196211003808,4353.538674537977,25673.63836451034,36779.594335507674,0.0,0.0,0.0,193.0,0.0,193.0,0.0,17.0,0.0,179.0,193.0,17.0,179.0,1744418654.9867256,0.0,2025-04-11 20:44:14.986,LEFT,16
78.0,7511.326075950394,-11754.80476079044,-23411.530066910993,-24099.069726356236,16306.46929818026,4454.009765864583,25373.074456819828,36883.59700245822,0.0,0.0,0.0,193.0,0.0,193.0,0.0,17.0,0.0,179.0,193.0,17.0,179.0,1744418654.986844,0.0,2025-04-11 20:44:14.986,LEFT,16
79.0,7487.72263380559,-11781.872723325816,-23387.926624766187,-24108.01042413836,16483.226893332827,4442.87859712584,25567.735799281098,36948.79704103435,0.0,0.0,0.0,193.0,0.0,192.0,0.0,17.0,0.0,179.0,192.0,17.0,179.0,1744418654.9868753,0.0,2025-04-11 20:44:14.986,LEFT,16
80.0,7461.839313726344,-11816.070892342435,-23422.54947692746,-24139.749901264895,16432.10845376354,4310.399807739235,25833.810965277073,36906.93222366956,0.0,0.0,0.0,193.0,0.0,193.0,0.0,17.0,0.0,179.0,193.0,17.0,179.0,1744418654.9869058,0.0,2025-04-11 20:44:14.986,LEFT,16
81.0,7454.060906655897,-11805.05148232597,-23460.21216633465,-24106.24463632639,16269.767733784645,4393.34713141288,25660.406131792803,36913.190712117044,0.0,0.0,0.0,193.0,0.0,193.0,0.0,17.0,0.0,179.0,193.0,17.0,179.0,1744418654.986936,0.0,2025-04-11 20:44:14.986,LEFT,16
82.0,7471.227046397573,-11776.061269767437,-23438.620381190824,-24074.616917922132,16255.708486522257,4600.637209491398,25356.288296733892,37038.31577757785,0.0,0.0,0.0,193.0,0.0,192.0,0.0,17.0,0.0,178.0,192.0,17.0,178.0,1744418655.462546,0.0,2025-04-11 20:44:15.462,LEFT,16
83.0,7474.266883643495,-11789.852296096362,-23394.945072525155,-24092.475961741922,16391.00359571023,4548.378830954889,25458.391065405736,37105.035734776946,0.0,0.0,0.0,193.0,0.0,193.0,0.0,17.0,0.0,179.0,193.0,17.0,179.0,1744418655.4626787,0.0,2025-04-11 20:44:15.462,LEFT,16
84.0,7461.705203259612,-11820.541241233497,-23407.506752909037,-24126.696482502997,16459.377581999015,4330.136398093271,25788.794551944084,37050.67629226164,0.0,0.0,0.0,193.0,0.0,193.0,0.0,17.0,0.0,179.0,193.0,17.0,179.0,1744418655.4627209,0.0,2025-04-11 20:44:15.462,LEFT,16
85.0,7446.327203074361,-11821.211793567158,-23445.236497549595,-24130.80920348277,16338.320534029071,4293.9489238201295,25654.237050323136,36996.808588124346,0.0,0.0,0.0,193.0,0.0,193.0,0.0,17.0,0.0,179.0,193.0,17.0,179.0,1744418655.4627593,0.0,2025-04-11 20:44:15.462,LEFT,16
86.0,7439.576976248858,-11810.125328317325,-23457.529957000013,-24120.16977312205,16230.249849587663,4492.275952372069,25365.5866224273,37147.05701435292,0.0,0.0,0.0,193.0,0.0,192.0,0.0,17.0,0.0,178.0,192.0,17.0,178.0,1744418655.4627993,0.0,2025-04-11 20:44:15.462,LEFT,16
87.0,7433.989040135031,-11824.542203490997,-23413.318206467415,-24113.48660152991,16415.366997166515,4526.809397555518,25339.368026181226,37221.39891641127,0.0,0.0,0.0,193.0,0.0,193.0,0.0,17.0,0.0,179.0,193.0,17.0,179.0,1744418655.4628391,0.0,2025-04-11 20:44:15.462,LEFT,16
88.0,7415.995885848509,-11854.359430594377,-23419.68845363718,-24147.796529268806,16556.115932001583,4331.253985316037,25714.18442895227,37218.560244865446,0.0,0.0,0.0,193.0,0.0,193.0,0.0,17.0,0.0,179.0,193.0,17.0,179.0,1744418655.4628797,0.0,2025-04-11 20:44:15.462,LEFT,16
89.0,7429.116359843774,-11834.734598962617,-23437.949828857163,-24121.466174300454,16356.514854015692,4205.436015777113,25643.284695540035,37144.598322462836,0.0,0.0,0.0,193.0,0.0,193.0,0.0,17.0,0.0,179.0,193.0,17.0,179.0,1744418655.4629192,0.0,2025-04-11 20:44:15.462,LEFT,16
90.0,7433.877281412755,-11811.466432984644,-23456.367666288337,-24092.43125825301,16202.01959634061,4456.244940310114,25366.748913138978,37272.673818191746,0.0,0.0,0.0,193.0,0.0,193.0,0.0,17.0,0.0,179.0,193.0,17.0,179.0,1744418655.4630992,0.0,2025-04-11 20:44:15.463,LEFT,16
91.0,7430.591574977824,-11821.994104623092,-23425.298741495462,-24087.223301794926,16381.615863039002,4588.142584340881,25250.586897204746,37348.84856329543,0.0,0.0,0.0,193.0,0.0,192.0,0.0,17.0,0.0,179.0,192.0,17.0,179.0,1744418655.463138,0.0,2025-04-11 20:44:15.463,LEFT,16
92.0,7402.473080453048,-11863.277776632045,-23426.170459529218,-24127.948180192492,16521.69424554041,4440.2857947690245,25627.303198254493,37355.03999650956,0.0,0.0,0.0,193.0,0.0,193.0,0.0,17.0,0.0,179.0,193.0,17.0,179.0,1744418655.4631872,0.0,2025-04-11 20:44:15.463,LEFT,16
93.0,7402.696597897601,-11859.477980074642,-23454.087788353896,-24122.44965105649,16415.970494266807,4250.36302213228,25643.46350949568,37263.8448791319,0.0,0.0,0.0,193.0,0.0,193.0,0.0,17.0,0.0,179.0,193.0,17.0,179.0,1744418655.463225,0.0,2025-04-11 20:44:15.463,LEFT,16
94.0,7400.260257751973,-11845.128160134336,-23473.8914339413,-24093.302976286766,16327.94932460181,4469.477173027655,25385.770247670443,37360.15854598982,0.0,0.0,0.0,193.0,0.0,192.0,0.0,17.0,0.0,179.0,192.0,17.0,179.0,1744418655.4632847,0.0,2025-04-11 20:44:15.463,LEFT,16
95.0,7420.645048695213,-11828.185537837213,-23434.999398589065,-24079.020211579827,16337.314705528583,4588.947247141272,25191.26536742036,37441.138916151394,0.0,0.0,0.0,193.0,0.0,193.0,0.0,17.0,0.0,179.0,193.0,17.0,179.0,1744418655.4633193,0.0,2025-04-11 20:44:15.463,LEFT,16
96.0,7399.388539718216,-11860.260291130578,-23428.29387525247,-24115.76647946435,16431.7284741078,4467.241998582125,25531.01188314103,37461.16607918335,0.0,0.0,0.0,193.0,0.0,193.0,0.0,17.0,0.0,179.0,193.0,17.0,179.0,1744418655.4633522,0.0,2025-04-11 20:44:15.463,LEFT,16
97.0,7382.736490099012,-11862.87544523185,-23466.962393160153,-24143.97438096695,16370.596453022536,4236.415533592169,25639.88723038283,37364.047749525045,0.0,0.0,0.0,193.0,0.0,192.0,0.0,17.0,0.0,178.0,192.0,17.0,178.0,1744418655.463385,0.0,2025-04-11 20:44:15.463,LEFT,16
98.0,7368.118449225241,-11862.942500465215,-23498.388945864313,-24128.261104614867,16346.836548666544,4354.700965249654,25420.66132076518,37431.81823871353,0.0,0.0,0.0,193.0,0.0,192.0,0.0,18.0,0.0,178.0,192.0,18.0,178.0,1744418655.4634185,0.0,2025-04-11 20:44:15.463,LEFT,16
99.0,7395.812260605367,-11835.00281989608,-23459.54161400099,-24081.34479300318,16386.868522986,4532.665554602809,25166.253765374873,37530.6576526949,0.0,0.0,0.0,193.0,0.0,193.0,0.0,18.0,0.0,179.0,193.0,18.0,179.0,1744418655.463451,0.0,2025-04-11 20:44:15.463,LEFT,16
100.0,7378.377899930228,-11870.318576135467,-23433.278314266005,-24100.075554856725,16521.426024606946,4501.820147254485,25440.5543733304,37569.39322583595,0.0,0.0,0.0,193.0,0.0,193.0,0.0,17.0,0.0,179.0,193.0,17.0,179.0,1744418655.4634836,0.0,2025-04-11 20:44:15.463,LEFT,16
101.0,7367.827876547322,-11886.344776909922,-23468.191739105194,-24147.796529268806,16410.740186064268,4235.208539391582,25640.468375738667,37482.824919560546,0.0,0.0,0.0,193.0,0.0,192.0,0.0,17.0,0.0,178.0,192.0,17.0,178.0,1744418655.4635172,0.0,2025-04-11 20:44:15.463,LEFT,16
102.0,7376.455649907071,-11847.63155551333,-23487.88362597032,-24106.40109853758,16267.532559339114,4338.786523197475,25446.56699258888,37516.777219388154,0.0,0.0,0.0,193.0,0.0,193.0,0.0,17.0,0.0,179.0,193.0,17.0,179.0,1744418655.46355,0.0,2025-04-11 20:44:15.463,LEFT,16
103.0,7383.518801154948,-11837.103883874881,-23481.580434033924,-24077.00855457885,16192.833029369478,4611.813081719051,25168.555995053768,37628.7818108537,0.0,0.0,0.0,193.0,0.0,192.0,0.0,18.0,0.0,179.0,192.0,18.0,179.0,1744418655.4635825,0.0,2025-04-11 20:44:15.463,LEFT,16
104.0,7373.773440572434,-11865.937634222226,-23441.168480058728,-24098.443877511487,16405.800450539642,4573.14456381137,25327.745119064468,37651.24531403129,0.0,0.0,0.0,193.0,0.0,193.0,0.0,17.0,0.0,179.0,193.0,17.0,179.0,1744418655.4636152,0.0,2025-04-11 20:44:15.463,LEFT,16
105.0,7360.228283432518,-11884.10960246439,-23461.709733213156,-24129.915133704562,16477.92952989692,4341.513436021022,25639.663712938276,37590.06858945711,0.0,0.0,0.0,193.0,0.0,193.0,0.0,17.0,0.0,179.0,193.0,17.0,179.0,1744418655.4636617,0.0,2025-04-11 20:44:15.463,LEFT,16
106.0,7348.225396660018,-11881.583855340941,-23482.16157938976,-24115.408851553068,16434.790663098178,4330.270508560003,25482.195673250637,37569.90731595842,0.0,0.0,0.0,193.0,0.0,193.0,0.0,17.0,0.0,179.0,193.0,17.0,179.0,1744418655.4636943,0.0,2025-04-11 20:44:15.463,LEFT,16
107.0,7344.157379169153,-11877.851114016905,-23481.200454378184,-24110.87144742864,16332.598487448513,4571.0658515770265,25171.68523927751,37674.55818349817,0.0,0.0,0.0,193.0,0.0,192.0,0.0,18.0,0.0,178.0,192.0,18.0,178.0,1744418655.463727,0.0,2025-04-11 20:44:15.463,LEFT,16
