Sample Index,EXG Channel 0,EXG Channel 1,EXG Channel 2,EXG Channel 3,EXG Channel 4,EXG Channel 5,EXG Channel 6,EXG Channel 7,Accel Channel 0,Accel Channel 1,Accel Channel 2,Not Used,Digital Channel 0 (D11),Digital Channel 1 (D12),Digital Channel 2 (D13),Digital Channel 3 (D17),Not Used,Digital Channel 4 (D18),Analog Channel 0,Analog Channel 1,Analog Channel 2,Timestamp,Marker Channel,Timestamp (Formatted),Stimulus_Direction,Stimulus_Number
204.0,8036.480311927833,-12073.160657067378,-21542.65600951386,-23713.45743101328,15570.202835822445,8602.27001932502,36614.683164916416,42593.66304798878,0.0,0.0,0.0,193.0,0.0,193.0,0.0,1.0,0.0,179.0,193.0,1.0,179.0,1744418805.9193225,0.0,2025-04-11 20:46:45.919,LEFT,35
205.0,8014.866175039551,-12106.420052816875,-21506.110907329432,-23741.30770460459,15759.142131703155,8514.315904893387,36899.846720677226,42596.546423023516,0.0,0.0,0.0,193.0,0.0,193.0,0.0,1.0,0.0,178.0,193.0,1.0,178.0,1744418805.919355,0.0,2025-04-11 20:46:45.919,LEFT,35
206.0,8010.172308703936,-12131.051675206623,-21541.270201357627,-23771.32609740807,15724.809852219803,8260.243625669913,37066.076644191344,42451.14832534175,0.0,0.0,0.0,193.0,0.0,192.0,0.0,1.0,0.0,178.0,192.0,1.0,178.0,1744418805.9193864,0.0,2025-04-11 20:46:45.919,LEFT,35
207.0,8003.1762126894255,-12120.233430890255,-21578.97759425373,-23748.862594230486,15584.060917384735,8382.03828120688,36873.136386053135,42446.7673834285,0.0,0.0,0.0,193.0,0.0,193.0,0.0,1.0,0.0,179.0,193.0,1.0,179.0,1744418805.9194179,0.0,2025-04-11 20:46:45.919,LEFT,35
208.0,8017.391922163001,-12089.320968308564,-21557.274050387627,-23721.61581773947,15547.31464950021,8601.532411757995,36615.15255154998,42547.1937712662,0.0,0.0,0.0,193.0,0.0,193.0,0.0,1.0,0.0,179.0,193.0,1.0,179.0,1744418805.9194493,0.0,2025-04-11 20:46:45.919,LEFT,35
209.0,8016.9672390183505,-12105.39187257193,-21502.91460787232,-23733.88692544543,15724.407520819608,8544.35664944132,36807.355202121165,42571.04308260001,0.0,0.0,0.0,193.0,0.0,193.0,0.0,1.0,0.0,178.0,193.0,1.0,178.0,1744418805.9194808,0.0,2025-04-11 20:46:45.919,LEFT,35
210.0,8010.2170121928475,-12134.69500955284,-21530.630770996904,-23774.23182418726,15726.665047009594,8286.439870171533,37074.63736231773,42467.04041564947,0.0,0.0,0.0,193.0,0.0,192.0,0.0,1.0,0.0,178.0,192.0,1.0,178.0,1744418805.9195127,0.0,2025-04-11 20:46:45.919,LEFT,35
211.0,8017.30251518518,-12115.137233154444,-21557.184643409808,-23739.206640625795,15608.133746163101,8321.018018843892,36912.11782838319,42420.81700811589,0.0,0.0,0.0,193.0,0.0,193.0,0.0,1.0,0.0,179.0,193.0,1.0,179.0,1744418805.9195445,0.0,2025-04-11 20:46:45.919,LEFT,35
212.0,8034.1110270155705,-12079.39679377041,-21546.634620026904,-23702.326262274535,15551.025039079792,8579.404184747242,36638.28660706122,42532.97806179262,0.0,0.0,0.0,193.0,0.0,192.0,0.0,1.0,0.0,178.0,192.0,1.0,178.0,1744418805.9195757,0.0,2025-04-11 20:46:45.919,LEFT,35
213.0,8035.742704360808,-12085.744689195715,-21494.756221146134,-23706.282521043126,15698.501848995907,8569.524713697996,36729.682890138974,42571.646579700304,0.0,0.0,0.0,193.0,0.0,193.0,0.0,1.0,0.0,179.0,193.0,1.0,179.0,1744418805.9196203,0.0,2025-04-11 20:46:45.919,LEFT,35
214.0,8002.371549889034,-12132.54924208513,-21528.59676225147,-23761.446626358826,15756.1693496906,8344.88968192216,37077.49838560801,42509.709895814645,0.0,0.0,0.0,193.0,0.0,193.0,0.0,1.0,0.0,179.0,193.0,1.0,179.0,1744418805.919652,0.0,2025-04-11 20:46:45.919,LEFT,35
215.0,8006.976009246828,-12114.690198265338,-21557.721085276735,-23739.564268537077,15625.56810683824,8287.155125994102,36947.992378233954,42420.28056624896,0.0,0.0,0.0,193.0,0.0,192.0,0.0,1.0,0.0,178.0,192.0,1.0,178.0,1744418805.9196837,0.0,2025-04-11 20:46:45.919,LEFT,35
216.0,8003.891468511995,-12092.740785210228,-21568.584033082014,-23718.486573515722,15523.353579444121,8547.530597153975,36676.84336624663,42523.38916342129,0.0,0.0,0.0,193.0,0.0,193.0,0.0,1.0,0.0,179.0,193.0,1.0,179.0,1744418805.9197154,0.0,2025-04-11 20:46:45.919,LEFT,35
217.0,8018.598916363588,-12088.069270619068,-21522.45003252626,-23725.281503830138,15632.519499363842,8563.020356061501,36670.964857454885,42572.004207611586,0.0,0.0,0.0,193.0,0.0,193.0,0.0,1.0,0.0,179.0,193.0,1.0,179.0,1744418805.9197607,0.0,2025-04-11 20:46:45.919,LEFT,35
218.0,8003.824413278629,-12125.933125726358,-21525.7804424501,-23777.495178877733,15762.561948604816,8370.66124327913,37045.80361197038,42539.638881640305,0.0,0.0,0.0,193.0,0.0,193.0,0.0,1.0,0.0,179.0,193.0,1.0,179.0,1744418805.9197931,0.0,2025-04-11 20:46:45.919,LEFT,35
219.0,8009.412349392456,-12115.897192465925,-21552.69194277429,-23755.434007100346,15644.745903580893,8257.15908493508,36979.262468726934,42413.7091533791,0.0,0.0,0.0,193.0,0.0,193.0,0.0,1.0,0.0,179.0,193.0,1.0,179.0,1744418805.9198248,0.0,2025-04-11 20:46:45.919,LEFT,35
220.0,8016.0284657512275,-12080.53673273763,-21567.287631903608,-23717.368986292957,15538.172786017989,8526.810530043904,36724.49728542534,42518.315317429944,0.0,0.0,0.0,193.0,0.0,193.0,0.0,1.0,0.0,178.0,193.0,1.0,178.0,1744418805.9198565,0.0,2025-04-11 20:46:45.919,LEFT,35
221.0,8021.3705326760455,-12089.455078775298,-21532.195393108774,-23715.69260545881,15605.51859206183,8614.764644475537,36639.62771172854,42610.82918773046,0.0,0.0,0.0,193.0,0.0,193.0,0.0,1.0,0.0,179.0,193.0,1.0,179.0,1744418805.9198933,0.0,2025-04-11 20:46:45.919,LEFT,35
222.0,8009.747625559286,-12133.152739185422,-21518.58318073549,-23756.037504200638,15755.54350084585,8441.493921457997,36997.70265790256,42592.92544042176,0.0,0.0,0.0,193.0,0.0,193.0,0.0,1.0,0.0,179.0,193.0,1.0,179.0,1744418805.9199252,0.0,2025-04-11 20:46:45.919,LEFT,35
223.0,8027.740779845808,-12109.996331929724,-21548.9368497058,-23756.46218734529,15661.129732266634,8232.125131145136,36983.28578272889,42430.07063032039,0.0,0.0,0.0,193.0,0.0,193.0,0.0,1.0,0.0,178.0,193.0,1.0,178.0,1744418805.9199867,0.0,2025-04-11 20:46:45.919,LEFT,35
224.0,8023.739817588308,-12082.548389738608,-21577.234158186217,-23727.024939897652,15543.492501198352,8466.48317175903,36748.79363164826,42500.92566024371,0.0,0.0,0.0,193.0,0.0,193.0,0.0,1.0,0.0,179.0,193.0,1.0,179.0,1744418805.9200196,0.0,2025-04-11 20:46:45.920,LEFT,35
225.0,8020.990553020305,-12079.732069937238,-21535.16817512133,-23700.87339888494,15588.195990108967,8621.358409089853,36600.24393799829,42608.146978395824,0.0,0.0,0.0,193.0,0.0,192.0,0.0,1.0,0.0,178.0,192.0,1.0,178.0,1744418805.920051,0.0,2025-04-11 20:46:45.920,LEFT,35
226.0,7991.061567194649,-12123.027398947168,-21504.97096836221,-23734.75864347919,15768.283995185377,8488.343177836321,36931.54149431485,42609.421027829776,0.0,0.0,0.0,193.0,0.0,192.0,0.0,1.0,0.0,178.0,192.0,1.0,178.0,1744418805.9200828,0.0,2025-04-11 20:46:45.920,LEFT,35
227.0,7991.396843361479,-12123.094454180535,-21546.32169560453,-23761.60308857001,15689.941130869525,8249.268919142356,37029.77741119592,42470.50493604004,0.0,0.0,0.0,193.0,0.0,193.0,0.0,1.0,0.0,179.0,193.0,1.0,179.0,1744418805.9201143,0.0,2025-04-11 20:46:45.920,LEFT,35
228.0,7989.742814271786,-12106.1071283945,-21578.910539020366,-23722.912218917874,15559.831626395182,8434.609584165762,36827.695289575495,42524.93143378871,0.0,0.0,0.0,193.0,0.0,192.0,0.0,1.0,0.0,178.0,192.0,1.0,178.0,1744418805.920164,0.0,2025-04-11 20:46:45.920,LEFT,35
229.0,8000.941038243895,-12085.856447917993,-21558.6375067994,-23707.333053032526,15547.404056478032,8621.537223045496,36617.901816117985,42642.23338869016,0.0,0.0,0.0,193.0,0.0,193.0,0.0,1.0,0.0,179.0,193.0,1.0,179.0,1744418805.9201963,0.0,2025-04-11 20:46:45.920,LEFT,35
230.0,7993.721424784831,-12109.750462740716,-21518.046738868565,-23730.89179168842,15725.25688710891,8526.49760562153,36879.216060544975,42662.01468253311,0.0,0.0,0.0,193.0,0.0,193.0,0.0,1.0,0.0,178.0,193.0,1.0,178.0,1744418805.9202378,0.0,2025-04-11 20:46:45.920,LEFT,35
231.0,7987.194715403881,-12124.860241992503,-21554.055399186065,-23764.665277560387,15688.264750035376,8273.408803154089,37075.3526181403,42535.168532749245,0.0,0.0,0.0,193.0,0.0,193.0,0.0,1.0,0.0,179.0,193.0,1.0,179.0,1744418805.920294,0.0,2025-04-11 20:46:45.920,LEFT,35
232.0,7999.175250431926,-12088.069270619068,-21565.946527236287,-23719.13477410493,15563.251443296844,8372.60584504674,36872.801109886306,42510.53691035949,0.0,0.0,0.0,193.0,0.0,192.0,0.0,1.0,0.0,178.0,192.0,1.0,178.0,1744418805.9203477,0.0,2025-04-11 20:46:45.920,LEFT,35
233.0,8013.167442460948,-12057.335621993021,-21548.020428183132,-23692.312680758558,15548.342829745154,8616.664542754239,36628.787115667714,42638.72416481068,0.0,0.0,0.0,193.0,0.0,193.0,0.0,1.0,0.0,178.0,193.0,1.0,178.0,1744418805.9203796,0.0,2025-04-11 20:46:45.920,LEFT,35
234.0,8010.1052534705705,-12082.883665905436,-21507.11673582992,-23706.148410576396,15725.97214293148,8575.716146912117,36795.62053628213,42670.53069717058,0.0,0.0,0.0,193.0,0.0,193.0,0.0,1.0,0.0,178.0,193.0,1.0,178.0,1744418805.9204116,0.0,2025-04-11 20:46:45.920,LEFT,35
235.0,7984.892485724984,-12122.44625359133,-21538.431529811805,-23749.153166908403,15744.077055940279,8333.98203062797,37080.91820250967,42569.14318432131,0.0,0.0,0.0,193.0,0.0,192.0,0.0,1.0,0.0,178.0,192.0,1.0,178.0,1744418805.9204433,0.0,2025-04-11 20:46:45.920,LEFT,35
236.0,7984.020767691228,-12110.666884263383,-21566.974707481233,-23716.430213025837,15609.586609552696,8352.019888403403,36934.380165860675,42512.41445689374,0.0,0.0,0.0,193.0,0.0,193.0,0.0,1.0,0.0,181.0,193.0,1.0,181.0,1744418805.9204748,0.0,2025-04-11 20:46:45.920,LEFT,35
237.0,8010.82050929314,-12079.352090281498,-21563.264317901652,-23688.4905324567,15533.300105726732,8600.683045468693,36662.8064707287,42621.62508030237,0.0,0.0,0.0,193.0,0.0,193.0,0.0,1.0,0.0,180.0,193.0,1.0,180.0,1744418805.9205065,0.0,2025-04-11 20:46:45.920,LEFT,35
238.0,8020.767035575752,-12075.440535001819,-21506.893218385365,-23693.340861003504,15671.746810882905,8578.018376591013,36721.03276503477,42650.078850993974,0.0,0.0,0.0,193.0,0.0,193.0,0.0,1.0,0.0,179.0,193.0,1.0,179.0,1744418805.920538,0.0,2025-04-11 20:46:45.920,LEFT,35
239.0,8001.209259177359,-12116.545393055128,-21513.84461091097,-23737.59731502501,15750.693172299048,8351.103466880735,37066.926010480645,42582.3977687833,0.0,0.0,0.0,193.0,0.0,193.0,0.0,1.0,0.0,179.0,193.0,1.0,179.0,1744418805.9205694,0.0,2025-04-11 20:46:45.920,LEFT,35
240.0,7997.096538197582,-12111.650361019418,-21553.161329407852,-23724.767413707665,15613.095833432179,8286.372814938166,36967.974837777,42486.3299711144,0.0,0.0,0.0,193.0,0.0,193.0,0.0,1.0,0.0,179.0,193.0,1.0,179.0,1744418805.9206011,0.0,2025-04-11 20:46:45.920,LEFT,35
241.0,8010.462881381855,-12073.831209401038,-21563.286669646106,-23691.373907491437,15514.07760549517,8554.012603046012,36699.84331129114,42597.14992012381,0.0,0.0,0.0,193.0,0.0,193.0,0.0,1.0,0.0,179.0,193.0,1.0,179.0,1744418805.9206328,0.0,2025-04-11 20:46:45.920,LEFT,35
242.0,8027.092579256604,-12063.392944740408,-21515.968026634222,-23682.701430642777,15611.307693875755,8596.905600655748,36672.909459222494,42658.59486563145,0.0,0.0,0.0,193.0,0.0,193.0,0.0,0.0,0.0,179.0,193.0,0.0,179.0,1744418805.920664,0.0,2025-04-11 20:46:45.920,LEFT,35
243.0,8004.807890034663,-12094.975959655758,-21512.905837643844,-23727.13669861993,15740.947811716534,8406.245220451978,37041.78029796843,42624.32964138146,0.0,0.0,0.0,193.0,0.0,193.0,0.0,1.0,0.0,179.0,193.0,1.0,179.0,1744418805.9207091,0.0,2025-04-11 20:46:45.920,LEFT,35
244.0,8004.5843725901095,-12095.668863733872,-21542.343085091485,-23715.156163591884,15640.610830856662,8260.534198347832,36981.60940189474,42494.42130260722,0.0,0.0,0.0,193.0,0.0,193.0,0.0,1.0,0.0,178.0,193.0,1.0,178.0,1744418806.3972952,0.0,2025-04-11 20:46:46.397,LEFT,35
245.0,8006.238401679802,-12085.632930473439,-21556.514091076147,-23681.87441609793,15541.570251175197,8521.580221841363,36730.0181663058,42593.48423403314,0.0,0.0,0.0,193.0,0.0,193.0,0.0,1.0,0.0,179.0,193.0,1.0,179.0,1744418806.397464,0.0,2025-04-11 20:46:46.397,LEFT,35
246.0,8029.595974635598,-12068.444438987308,-21510.290683542575,-23675.10183752797,15604.557467050252,8615.792824720482,36610.7939613812,42672.609409404926,0.0,0.0,0.0,193.0,0.0,193.0,0.0,0.0,0.0,178.0,193.0,0.0,178.0,1744418806.397503,0.0,2025-04-11 20:46:46.397,LEFT,35
247.0,8020.5435181312,-12100.541544025129,-21492.543398445057,-23715.960826392275,15763.903053272135,8458.548302477397,36968.04189301037,42667.75908085812,0.0,0.0,0.0,193.0,0.0,192.0,0.0,0.0,0.0,179.0,192.0,0.0,179.0,1744418806.3975716,0.0,2025-04-11 20:46:46.397,LEFT,35
248.0,8020.990553020305,-12094.39481429992,-21526.8309744395,-23719.201829338293,15664.236624745921,8256.44382911251,36995.89216660168,42525.736096589106,0.0,0.0,0.0,193.0,0.0,193.0,0.0,0.0,0.0,179.0,193.0,0.0,179.0,1744418806.3976076,0.0,2025-04-11 20:46:46.397,LEFT,35
249.0,8015.715541328853,-12069.62908144344,-21553.31779161904,-23687.350593489482,15536.652867395029,8479.290721331921,36764.86453591163,42593.55128926651,0.0,0.0,0.0,193.0,0.0,193.0,0.0,0.0,0.0,178.0,193.0,0.0,178.0,1744418806.397643,0.0,2025-04-11 20:46:46.397,LEFT,35
250.0,8033.529881659732,-12055.882758603426,-21516.236247567685,-23673.648974138378,15551.427370479987,8622.677162012717,36583.45777791236,42690.40139799135,0.0,0.0,0.0,193.0,0.0,193.0,0.0,0.0,0.0,179.0,193.0,0.0,179.0,1744418806.3976784,0.0,2025-04-11 20:46:46.397,LEFT,35
251.0,8012.429834893923,-12103.223753359765,-21492.275177511594,-23711.445774012303,15742.087750683755,8501.553058809408,36895.7563514419,42702.96307837523,0.0,0.0,0.0,193.0,0.0,193.0,0.0,0.0,0.0,179.0,193.0,0.0,179.0,1744418806.397714,0.0,2025-04-11 20:46:46.397,LEFT,35
252.0,7999.86815451004,-12112.92441045337,-21524.461689527237,-23729.304817832093,15702.122831597666,8255.035669211826,37014.0864865883,42574.28408554603,0.0,0.0,0.0,193.0,0.0,192.0,0.0,0.0,0.0,178.0,192.0,0.0,178.0,1744418806.397749,0.0,2025-04-11 20:46:46.397,LEFT,35
253.0,8010.194660448392,-12077.161619324877,-21542.991285680688,-23680.153331774873,15588.531266275797,8428.887537585204,36795.70994325995,42599.94388818072,0.0,0.0,0.0,193.0,0.0,193.0,0.0,0.0,0.0,179.0,193.0,0.0,179.0,1744418806.3977842,0.0,2025-04-11 20:46:46.397,LEFT,35
254.0,8020.655276853476,-12061.917729606359,-21530.720177974723,-23664.507110656155,15564.167864819512,8648.940461747701,36576.59579236458,42725.672450741826,0.0,0.0,0.0,193.0,0.0,192.0,0.0,0.0,0.0,178.0,192.0,0.0,178.0,1744418806.3978193,0.0,2025-04-11 20:46:46.397,LEFT,35
255.0,8009.501756370278,-12086.459945018285,-21495.247959524153,-23690.859817368964,15732.856480223714,8570.575245687396,36816.362955136654,42758.1942389243,0.0,0.0,0.0,193.0,0.0,192.0,0.0,0.0,0.0,178.0,192.0,0.0,178.0,1744418806.3978543,0.0,2025-04-11 20:46:46.397,LEFT,35
0.0,8007.244230180291,-12095.82532594506,-21520.88541041439,-23723.850992184998,15719.356026572708,8310.713864649995,37031.990233897,42639.55117935553,0.0,0.0,0.0,193.0,0.0,193.0,0.0,0.0,0.0,179.0,193.0,0.0,179.0,1744418806.3978894,0.0,2025-04-11 20:46:46.397,LEFT,35
1.0,8000.941038243895,-12094.05953813309,-21558.190471910297,-23703.197980308294,15588.79948720926,8396.231638936,36863.703949892995,42631.45984786271,0.0,0.0,0.0,193.0,0.0,193.0,0.0,0.0,0.0,179.0,193.0,0.0,179.0,1744418806.3979244,0.0,2025-04-11 20:46:46.397,LEFT,35
2.0,8023.404541421479,-12060.24134877221,-21542.723064747224,-23671.659668881854,15538.776283118283,8636.468188341642,36598.27698448622,42748.04654694159,0.0,0.0,0.0,193.0,0.0,193.0,0.0,0.0,0.0,179.0,193.0,0.0,179.0,1744418806.3979595,0.0,2025-04-11 20:46:46.397,LEFT,35
3.0,8010.194660448392,-12088.96334039728,-21501.26057878263,-23695.73249766022,15705.788517688337,8600.593638490873,36753.375739261595,42798.47208243276,0.0,0.0,0.0,193.0,0.0,193.0,0.0,0.0,0.0,179.0,193.0,0.0,179.0,1744418806.3980112,0.0,2025-04-11 20:46:46.398,LEFT,35
4.0,7986.05477643666,-12124.077930936568,-21528.17207910682,-23743.341713350026,15737.192718648044,8343.973260399493,37061.20396390009,42721.44797103977,0.0,0.0,0.0,193.0,0.0,193.0,0.0,0.0,0.0,178.0,193.0,0.0,178.0,1744418806.3980465,0.0,2025-04-11 20:46:46.398,LEFT,35
5.0,7990.502773583266,-12103.335512082043,-21558.279878888115,-23710.104669344983,15612.335874120698,8344.397943544143,36920.45502906502,42651.554066128025,0.0,0.0,0.0,193.0,0.0,193.0,0.0,0.0,0.0,179.0,193.0,0.0,179.0,1744418806.3980815,0.0,2025-04-11 20:46:46.398,LEFT,35
6.0,7997.409462619957,-12083.151886838901,-21566.237099914208,-23679.974517819228,15525.007608533813,8619.436159066696,36652.45761304589,42773.37107340945,0.0,0.0,0.0,193.0,0.0,193.0,0.0,0.0,0.0,179.0,193.0,0.0,179.0,1744418806.3981164,0.0,2025-04-11 20:46:46.398,LEFT,35
7.0,8011.848689538085,-12087.376366540953,-21512.101174843454,-23684.713087643755,15650.780874583827,8619.503214300063,36676.888069735534,42814.81120762959,0.0,0.0,0.0,193.0,0.0,193.0,0.0,0.0,0.0,178.0,193.0,0.0,178.0,1744418806.398166,0.0,2025-04-11 20:46:46.398,LEFT,35
8.0,7995.3083986411575,-12126.40251235992,-21525.333407560996,-23740.79361448212,15750.760227532415,8394.823479035316,37026.871684416736,42750.75110802068,0.0,0.0,0.0,193.0,0.0,193.0,0.0,0.0,0.0,179.0,193.0,0.0,179.0,1744418806.3982017,0.0,2025-04-11 20:46:46.398,LEFT,35
9.0,7995.397805618979,-12118.02060818918,-21562.37024812344,-23726.801422453096,15636.922793021537,8300.722634878473,36949.08761371227,42651.844638805946,0.0,0.0,0.0,193.0,0.0,193.0,0.0,0.0,0.0,179.0,193.0,0.0,179.0,1744418806.3982368,0.0,2025-04-11 20:46:46.398,LEFT,35
10.0,7998.661160309453,-12098.507535279696,-21579.134056464918,-23698.92879711733,15527.779224846272,8554.571396657395,36696.7140670674,42764.40802388287,0.0,0.0,0.0,193.0,0.0,192.0,0.0,0.0,0.0,178.0,192.0,0.0,178.0,1744418806.3982723,0.0,2025-04-11 20:46:46.398,LEFT,35
11.0,8013.905050027973,-12088.404546785898,-21527.099195372964,-23697.475933727736,15617.47677534542,8594.424557021208,36633.078650603136,42814.56533844058,0.0,0.0,0.0,193.0,0.0,193.0,0.0,0.0,0.0,179.0,193.0,0.0,179.0,1744418806.398307,0.0,2025-04-11 20:46:46.398,LEFT,35
12.0,7994.637846307498,-12119.24995413422,-21514.291645800073,-23743.22995462775,15758.0692479693,8417.354037446266,37013.61709995474,42785.35160843749,0.0,0.0,0.0,193.0,0.0,193.0,0.0,0.0,0.0,178.0,193.0,0.0,178.0,1744418806.3983417,0.0,2025-04-11 20:46:46.398,LEFT,35
13.0,7988.647578793476,-12115.114881409989,-21551.797872996078,-23745.88981221793,15653.440732174007,8249.425381353543,36989.20899500955,42650.83881030545,0.0,0.0,0.0,193.0,0.0,193.0,0.0,0.0,0.0,178.0,193.0,0.0,178.0,1744418806.3983767,0.0,2025-04-11 20:46:46.398,LEFT,35
14.0,7984.668968280432,-12098.462831790786,-21576.7424198082,-23713.658596713376,15546.197062277444,8498.446166330119,36739.808230377224,42742.52566606113,0.0,0.0,0.0,193.0,0.0,193.0,0.0,0.0,0.0,179.0,193.0,0.0,179.0,1744418806.3984115,0.0,2025-04-11 20:46:46.398,LEFT,35
15.0,8001.432776621912,-12090.706776464795,-21541.426663568815,-23701.476895985234,15594.387423323087,8618.22916486611,36604.84839735608,42834.19017007234,0.0,0.0,0.0,193.0,0.0,192.0,0.0,0.0,0.0,178.0,192.0,0.0,178.0,1744418806.3984468,0.0,2025-04-11 20:46:46.398,LEFT,35
16.0,7985.5630380586435,-12134.896175252936,-21528.328541318006,-23748.5049663192,15759.87973927018,8481.704709733094,36955.45786088203,42831.61971945998,0.0,0.0,0.0,193.0,0.0,193.0,0.0,0.0,0.0,179.0,193.0,0.0,179.0,1744418806.3984816,0.0,2025-04-11 20:46:46.398,LEFT,35
17.0,7994.213163162847,-12123.228564647266,-21557.676381787824,-23752.774149510165,15680.86632262067,8259.550721591797,36998.39556198067,42683.94174384377,0.0,0.0,0.0,193.0,0.0,193.0,0.0,0.0,0.0,179.0,193.0,0.0,179.0,1744418806.398517,0.0,2025-04-11 20:46:46.398,LEFT,35
18.0,7990.525125327722,-12105.72714873876,-21592.388640926914,-23724.45448928529,15550.399190235043,8469.925340405147,36775.95100116146,42743.71030851726,0.0,0.0,0.0,193.0,0.0,192.0,0.0,0.0,0.0,178.0,192.0,0.0,178.0,1744418806.3985677,0.0,2025-04-11 20:46:46.398,LEFT,35
19.0,8008.428872636423,-12091.265570076177,-21559.978611466722,-23709.568227478056,15552.813178636216,8624.04061842449,36568.86208878304,42840.38160328646,0.0,0.0,0.0,193.0,0.0,193.0,0.0,0.0,0.0,179.0,193.0,0.0,179.0,1744418806.3986027,0.0,2025-04-11 20:46:46.398,LEFT,35
20.0,8000.941038243895,-12119.78639600115,-21513.755203933146,-23733.12696613395,15731.20245113402,8521.647277074728,36862.653417903595,42857.14541162794,0.0,0.0,0.0,193.0,0.0,192.0,0.0,0.0,0.0,178.0,192.0,0.0,178.0,1744418806.3986382,0.0,2025-04-11 20:46:46.398,LEFT,35
21.0,8007.087767969105,-12118.937029711848,-21537.962143178243,-23748.37085585247,15674.71959289546,8283.601198625707,37014.220597055035,42730.45572405526,0.0,0.0,0.0,193.0,0.0,192.0,0.0,0.0,0.0,178.0,192.0,0.0,178.0,1744418806.3986745,0.0,2025-04-11 20:46:46.398,LEFT,35
22.0,8011.87104128254,-12095.19947710031,-21563.197262668284,-23712.02691936814,15548.029905322779,8412.771929832928,36810.59620506719,42733.45085781227,0.0,0.0,0.0,193.0,0.0,193.0,0.0,0.0,0.0,179.0,193.0,0.0,179.0,1744418806.398909,0.0,2025-04-11 20:46:46.398,LEFT,35
23.0,8020.409407664467,-12070.031412843635,-21537.045721655577,-23684.713087643755,15538.284544740267,8615.301086342464,36573.153623718455,42842.10268760952,0.0,0.0,0.0,193.0,0.0,192.0,0.0,0.0,0.0,179.0,192.0,0.0,179.0,1744418806.3989425,0.0,2025-04-11 20:46:46.398,LEFT,35
24.0,8009.434701136912,-12097.322892823566,-21488.229511765185,-23704.583788464523,15729.146090644133,8554.437286190663,36794.39119033709,42873.4174815914,0.0,0.0,0.0,193.0,0.0,192.0,0.0,0.0,0.0,178.0,192.0,0.0,178.0,1744418806.3989747,0.0,2025-04-11 20:46:46.398,LEFT,35
25.0,7996.358930630557,-12125.419035603885,-21523.791137193577,-23746.426254084858,15729.213145877498,8326.002457857425,37049.53635329442,42783.831689814535,0.0,0.0,0.0,193.0,0.0,193.0,0.0,0.0,0.0,179.0,193.0,0.0,179.0,1744418806.399006,0.0,2025-04-11 20:46:46.399,LEFT,35
26.0,7993.833183507108,-12110.689236007838,-21565.20891966926,-23722.129907861938,15591.392289566076,8391.157792944645,36888.69320019403,42765.88323901692,0.0,0.0,0.0,193.0,0.0,193.0,0.0,0.0,0.0,179.0,193.0,0.0,179.0,1744418806.3990428,0.0,2025-04-11 20:46:46.399,LEFT,35
27.0,8006.953657502372,-12078.010985614179,-21562.75022777918,-23698.526465717136,15517.720939841383,8626.968696948135,36628.317729034155,42891.85767076703,0.0,0.0,0.0,193.0,0.0,192.0,0.0,0.0,0.0,178.0,192.0,0.0,178.0,1744418806.3990743,0.0,2025-04-11 20:46:46.399,LEFT,35
28.0,8015.201451206381,-12097.859334690493,-21508.793116664066,-23705.455506498278,15675.926587096046,8584.142754571767,36734.2202942634,42929.85563634105,0.0,0.0,0.0,193.0,0.0,193.0,0.0,0.0,0.0,179.0,193.0,0.0,179.0,1744418806.3991055,0.0,2025-04-11 20:46:46.399,LEFT,35
29.0,8001.902163255473,-12127.363637371498,-21519.34314004697,-23741.08418716004,15743.004172206423,8352.533978525875,37059.1476034102,42857.368929072494,0.0,0.0,0.0,193.0,0.0,193.0,0.0,0.0,0.0,178.0,193.0,0.0,178.0,1744418806.3991368,0.0,2025-04-11 20:46:46.399,LEFT,35
30.0,8008.138299958504,-12103.559029526596,-21545.002942681665,-23711.423422267846,15617.52147883433,8325.22014680149,36933.84372399375,42771.448823386294,0.0,0.0,0.0,193.0,0.0,192.0,0.0,0.0,0.0,178.0,192.0,0.0,178.0,1744418806.3991685,0.0,2025-04-11 20:46:46.399,LEFT,35
31.0,8013.614477350054,-12080.715546693273,-21548.959201450256,-23679.6392416524,15527.93568705746,8591.094147097367,36668.796738242716,42885.04038870816,0.0,0.0,0.0,193.0,0.0,193.0,0.0,0.0,0.0,179.0,193.0,0.0,179.0,1744418806.3991995,0.0,2025-04-11 20:46:46.399,LEFT,35
32.0,8014.285029683713,-12094.841849189026,-21501.037061338076,-23684.668384154844,15645.885842548114,8609.84726069537,36685.94052623994,42938.90809284546,0.0,0.0,0.0,193.0,0.0,192.0,0.0,0.0,0.0,178.0,192.0,0.0,178.0,1744418806.3992307,0.0,2025-04-11 20:46:46.399,LEFT,35
33.0,7993.207334662358,-12136.147872942433,-21503.562808461527,-23728.433099798334,15753.844768267247,8404.479432640008,37049.75987073897,42892.595278334054,0.0,0.0,0.0,193.0,0.0,192.0,0.0,0.0,0.0,178.0,192.0,0.0,178.0,1744418806.39928,0.0,2025-04-11 20:46:46.399,LEFT,35
34.0,7990.547477072178,-12127.296582138131,-21536.26341059964,-23714.507963002678,15643.67301984704,8295.089995275735,36973.875698313204,42778.80254731209,0.0,0.0,0.0,193.0,0.0,193.0,0.0,0.0,0.0,179.0,193.0,0.0,179.0,1744418806.3993113,0.0,2025-04-11 20:46:46.399,LEFT,35
35.0,7993.050872451172,-12103.693139993327,-21551.708466018255,-23681.092105041997,15541.637306408562,8556.091315280357,36712.628509119575,42878.04429269365,0.0,0.0,0.0,193.0,0.0,193.0,0.0,0.0,0.0,179.0,193.0,0.0,179.0,1744418806.3993425,0.0,2025-04-11 20:46:46.399,LEFT,35
36.0,7997.141241686492,-12111.650361019418,-21514.716328944724,-23681.270918997638,15620.494260846885,8634.434179596208,36653.01640665727,42955.873066887034,0.0,0.0,0.0,193.0,0.0,193.0,0.0,0.0,0.0,179.0,193.0,0.0,179.0,1744418806.3993735,0.0,2025-04-11 20:46:46.399,LEFT,35
37.0,7971.392032073979,-12155.92916678538,-21504.702747428746,-23726.89082943092,15762.226672437988,8454.703802431084,37017.59571046778,42926.92755781741,0.0,0.0,0.0,193.0,0.0,193.0,0.0,0.0,0.0,179.0,193.0,0.0,179.0,1744418806.3995602,0.0,2025-04-11 20:46:46.399,LEFT,35
38.0,7960.842008691074,-12166.412134934919,-21541.31490484654,-23728.768375965166,15661.554415411285,8272.15710546459,37015.114666833244,42794.29230621962,0.0,0.0,0.0,193.0,0.0,193.0,0.0,0.0,0.0,178.0,193.0,0.0,178.0,1744418806.3995924,0.0,2025-04-11 20:46:46.399,LEFT,35
39.0,7953.309470809636,-12159.438390664864,-21557.944602721287,-23691.59742493599,15543.604259920628,8500.949561709114,36769.64780922506,42870.28823736766,0.0,0.0,0.0,193.0,0.0,192.0,0.0,0.0,0.0,178.0,192.0,0.0,178.0,1744418806.3996236,0.0,2025-04-11 20:46:46.399,LEFT,35
40.0,7955.946976655362,-12157.113809241511,-21518.717291202225,-23682.88024459842,15589.715908731927,8626.834586481404,36617.94651960689,42963.07032860164,0.0,0.0,0.0,193.0,0.0,193.0,0.0,0.0,0.0,179.0,193.0,0.0,179.0,1744418806.3996549,0.0,2025-04-11 20:46:46.399,LEFT,35
41.0,7914.99858081324,-12215.407158780952,-21501.86407588292,-23725.862649185976,15768.999251007946,8499.228477386056,36961.850459796246,42971.966322894856,0.0,0.0,0.0,193.0,0.0,192.0,0.0,0.0,0.0,178.0,192.0,0.0,178.0,1744418806.399686,0.0,2025-04-11 20:46:46.399,LEFT,35
42.0,7896.290170704147,-12240.41876082644,-21537.157480377853,-23737.08322490254,15688.443563991019,8277.83444855624,37039.18749561161,42829.78687641465,0.0,0.0,0.0,193.0,0.0,193.0,0.0,0.0,0.0,179.0,193.0,0.0,179.0,1744418806.399717,0.0,2025-04-11 20:46:46.399,LEFT,35
43.0,7882.4320891418565,-12236.75307473577,-21571.512111605658,-23706.17076232085,15553.975469347892,8467.15372409269,36814.17248418003,42862.93451344186,0.0,0.0,0.0,193.0,0.0,193.0,0.0,0.0,0.0,179.0,193.0,0.0,179.0,1744418806.399748,0.0,2025-04-11 20:46:46.399,LEFT,35
44.0,7889.22701945627,-12222.93969666239,-21547.059303171554,-23688.579939434523,15536.161129017011,8644.023077967535,36596.26532748524,42951.626235440526,0.0,0.0,0.0,193.0,0.0,193.0,0.0,0.0,0.0,178.0,193.0,0.0,178.0,1744418806.3997796,0.0,2025-04-11 20:46:46.399,LEFT,35
45.0,7860.281510386648,-12268.09022046211,-21512.078823098997,-23720.36412004997,15715.690340482039,8556.940681569658,36876.265630276874,42968.814726926656,0.0,0.0,0.0,193.0,0.0,193.0,0.0,0.0,0.0,179.0,193.0,0.0,179.0,1744418806.3998153,0.0,2025-04-11 20:46:46.399,LEFT,35
46.0,7842.511873544679,-12289.950226539402,-21546.098178159977,-23749.019056441673,15688.220046546467,8302.957809324003,37048.1952486271,42839.66634746389,0.0,0.0,0.0,193.0,0.0,192.0,0.0,0.0,0.0,178.0,192.0,0.0,178.0,1744418806.3998537,0.0,2025-04-11 20:46:46.399,LEFT,35
47.0,7844.300013101103,-12275.108668221077,-21567.332335392515,-23706.193114065303,15568.03471661028,8411.542583887885,36844.682615361526,42830.61389095949,0.0,0.0,0.0,193.0,0.0,193.0,0.0,0.0,0.0,179.0,193.0,0.0,179.0,1744418806.3998916,0.0,2025-04-11 20:46:46.399,LEFT,35
48.0,7844.970565434763,-12264.648051815993,-21551.552003807068,-23686.00948882216,15536.36229471711,8645.833569268414,36609.028173569226,42954.86723838654,0.0,0.0,0.0,193.0,0.0,193.0,0.0,0.0,0.0,179.0,193.0,0.0,179.0,1744418806.3999765,0.0,2025-04-11 20:46:46.399,LEFT,35
49.0,7834.018210651662,-12290.62077887306,-21513.978721377698,-23715.6479019699,15704.782689187849,8588.523696485006,36801.76726600734,43000.73301800883,0.0,0.0,0.0,193.0,0.0,193.0,0.0,0.0,0.0,178.0,193.0,0.0,178.0,1744418806.4000337,0.0,2025-04-11 20:46:46.400,LEFT,35
50.0,7817.0979400989945,-12316.0570640632,-21545.606439781957,-23759.256155402203,15722.35116032972,8325.778940412873,37054.02905392993,42901.46892088281,0.0,0.0,0.0,193.0,0.0,193.0,0.0,0.0,0.0,179.0,193.0,0.0,179.0,1744418806.400123,0.0,2025-04-11 20:46:46.400,LEFT,35
51.0,7811.554707474078,-12307.563401170184,-21580.296347176594,-23738.08905340303,15588.419507553519,8356.512589038919,36881.518290223874,42845.25428357772,0.0,0.0,0.0,193.0,0.0,192.0,0.0,0.0,0.0,178.0,192.0,0.0,178.0,1744418806.4001963,0.0,2025-04-11 20:46:46.400,LEFT,35
52.0,7824.853995424985,-12280.42838340144,-21576.69771631929,-23709.992910622706,15518.97263753088,8614.384664819798,36603.66375489995,42958.667034943945,0.0,0.0,0.0,193.0,0.0,193.0,0.0,0.0,0.0,179.0,193.0,0.0,179.0,1744418806.4007306,0.0,2025-04-11 20:46:46.400,LEFT,35
53.0,7821.948268645796,-12300.612008644583,-21531.07780588601,-23721.302893317094,15668.036421303324,8600.504231513052,36694.590651344144,43011.32774488065,0.0,0.0,0.0,193.0,0.0,192.0,0.0,0.0,0.0,178.0,192.0,0.0,178.0,1744418806.4008005,0.0,2025-04-11 20:46:46.400,LEFT,35
54.0,7796.02024507764,-12344.220262076888,-21550.345009606484,-23773.89654802043,15732.96823894599,8360.357089085233,37035.20888509857,42945.88183711551,0.0,0.0,0.0,193.0,0.0,193.0,0.0,0.0,0.0,178.0,193.0,0.0,178.0,1744418806.40085,0.0,2025-04-11 20:46:46.400,LEFT,35
55.0,7785.8725530949305,-12328.752854913815,-21580.40810589887,-23752.394169854426,15600.355339092654,8297.436928443543,36913.88361619516,42852.78682145916,0.0,0.0,0.0,193.0,0.0,193.0,0.0,0.0,0.0,179.0,193.0,0.0,179.0,1744418806.4009016,0.0,2025-04-11 20:46:46.400,LEFT,35
56.0,7783.726785627221,-12310.692645393927,-21596.121382250953,-23736.12209989096,15495.659768063995,8563.489742695063,36646.89202867651,42969.26176181576,0.0,0.0,0.0,193.0,0.0,192.0,0.0,0.0,0.0,178.0,192.0,0.0,178.0,1744418806.4009504,0.0,2025-04-11 20:46:46.400,LEFT,35
57.0,7802.1893265473045,-12319.67804666496,-21541.851346713465,-23739.4525098148,15605.451536828465,8589.1271935853,36616.694821917394,43017.832102517146,0.0,0.0,0.0,193.0,0.0,193.0,0.0,0.0,0.0,179.0,193.0,0.0,179.0,1744418806.4010055,0.0,2025-04-11 20:46:46.401,LEFT,35
58.0,7787.9289135848185,-12360.78290471827,-21556.827015498522,-23790.258024961713,15701.474631008463,8368.80604848934,36948.10413695624,42955.06840408664,0.0,0.0,0.0,193.0,0.0,192.0,0.0,0.0,0.0,178.0,192.0,0.0,178.0,1744418806.4010806,0.0,2025-04-11 20:46:46.401,LEFT,35
59.0,7801.407015491369,-12332.597354960128,-21609.711242879777,-23776.914033521898,15515.329303184666,8112.3644843536,36654.75984272479,42725.091305385984,0.0,0.0,0.0,193.0,0.0,193.0,0.0,0.0,0.0,179.0,193.0,0.0,179.0,1744418806.4011292,0.0,2025-04-11 20:46:46.401,LEFT,35
60.0,7831.850091439497,-12284.652863103494,-21571.713277305756,-23701.767468663154,15495.436250619443,8379.691348039074,36347.33394948649,42779.629561856935,0.0,0.0,0.0,193.0,0.0,193.0,0.0,0.0,0.0,179.0,193.0,0.0,179.0,1744418806.4011788,0.0,2025-04-11 20:46:46.401,LEFT,35
61.0,7850.022059681662,-12277.500304877794,-21522.986474393187,-23687.171779533837,15606.256199628855,8577.83956263537,36396.26191809916,42904.084074984086,0.0,0.0,0.0,193.0,0.0,192.0,0.0,0.0,0.0,178.0,192.0,0.0,178.0,1744418806.4012272,0.0,2025-04-11 20:46:46.401,LEFT,35
62.0,7812.2252598077375,-12320.77328214327,-21522.40532903735,-23740.03365517064,15751.922518244091,8465.700860703095,36844.48144966143,42930.0344502967,0.0,0.0,0.0,193.0,0.0,192.0,0.0,0.0,0.0,178.0,192.0,0.0,178.0,1744418806.4012806,0.0,2025-04-11 20:46:46.401,LEFT,35
63.0,7825.524547758645,-12300.299084222208,-21549.965029950745,-23737.59731502501,15671.210369015977,8288.071547516769,36909.97206091548,42813.64891691791,0.0,0.0,0.0,193.0,0.0,193.0,0.0,0.0,0.0,178.0,193.0,0.0,178.0,1744418806.4013345,0.0,2025-04-11 20:46:46.401,LEFT,35
64.0,7834.152321118394,-12272.158237952977,-21567.108817947963,-23701.83452389652,15561.865635140615,8537.561719126907,36710.68390735196,42905.00049650676,0.0,0.0,0.0,193.0,0.0,192.0,0.0,0.0,0.0,178.0,192.0,0.0,178.0,1744418806.4015648,0.0,2025-04-11 20:46:46.401,LEFT,35
65.0,7848.323327103059,-12262.077601203633,-21534.318808832028,-23689.228140023726,15589.023004653813,8688.212476755676,36572.57247836262,43009.94193672442,0.0,0.0,0.0,193.0,0.0,193.0,0.0,0.0,0.0,179.0,193.0,0.0,179.0,1744418806.401628,0.0,2025-04-11 20:46:46.401,LEFT,35
66.0,7815.913297642863,-12316.0570640632,-21525.042834883076,-23747.834413985544,15742.758303017416,8555.778390857982,36927.22760763497,43038.10513473811,0.0,0.0,0.0,193.0,0.0,193.0,0.0,0.0,0.0,178.0,193.0,0.0,178.0,1744418806.4016793,0.0,2025-04-11 20:46:46.401,LEFT,35
67.0,7812.001742363184,-12324.573078700672,-21570.573338338538,-23784.670088847888,15640.76729306785,8299.493288933432,37047.502344548986,42922.59131939308,0.0,0.0,0.0,193.0,0.0,192.0,0.0,0.0,0.0,178.0,192.0,0.0,178.0,1744418806.4017513,0.0,2025-04-11 20:46:46.401,LEFT,35
68.0,7831.492463528212,-12283.892903792013,-21587.18068446883,-23744.280486617146,15535.043541794246,8459.509427488974,36832.63502510012,42960.7904506672,0.0,0.0,0.0,193.0,0.0,193.0,0.0,0.0,0.0,179.0,193.0,0.0,179.0,1744418806.4024312,0.0,2025-04-11 20:46:46.402,LEFT,35
69.0,7851.899606215908,-12248.554795808173,-21564.046628957585,-23715.22321882525,15545.660620410517,8640.938537232701,36604.133141533515,43065.2625042513,0.0,0.0,0.0,193.0,0.0,192.0,0.0,0.0,0.0,178.0,192.0,0.0,178.0,1744418806.4025044,0.0,2025-04-11 20:46:46.402,LEFT,35
70.0,7844.322364845559,-12286.776278826748,-21528.239134340183,-23741.73238774924,15726.128605142667,8546.435361675663,36854.65149338859,43091.61521096411,0.0,0.0,0.0,193.0,0.0,193.0,0.0,0.0,0.0,179.0,193.0,0.0,179.0,1744418806.4025683,0.0,2025-04-11 20:46:46.402,LEFT,35
71.0,7840.477864799245,-12296.164011497976,-21557.83284399901,-23775.885853276952,15696.19961931701,8276.225122955457,37050.58688528382,42973.79916594019,0.0,0.0,0.0,193.0,0.0,193.0,0.0,0.0,0.0,179.0,193.0,0.0,179.0,1744418806.402628,0.0,2025-04-11 20:46:46.402,LEFT,35
72.0,7859.8344754975415,-12246.252566129277,-21570.238062171706,-23725.30385557459,15574.360260291132,8372.583493302285,36854.98676955543,42952.83322964111,0.0,0.0,0.0,193.0,0.0,193.0,0.0,0.0,0.0,178.0,193.0,0.0,178.0,1744418806.4026687,0.0,2025-04-11 20:46:46.402,LEFT,35
73.0,7873.446687870824,-12230.9863246663,-21562.146730678884,-23699.934625617818,15526.661637623507,8634.881214485315,36609.11758054705,43076.72894915688,0.0,0.0,0.0,193.0,0.0,193.0,0.0,0.0,0.0,179.0,193.0,0.0,179.0,1744418806.402724,0.0,2025-04-11 20:46:46.402,LEFT,35
74.0,7869.781001780153,-12248.845368486092,-21519.76782319162,-23717.12311710395,15690.321110525265,8599.341940801376,36775.123986616614,43111.64237399607,0.0,0.0,0.0,193.0,0.0,193.0,0.0,0.0,0.0,179.0,193.0,0.0,179.0,1744418806.4028094,0.0,2025-04-11 20:46:46.402,LEFT,35
75.0,7859.163923163882,-12269.699546062893,-21546.07582641552,-23753.824681499565,15714.952732915013,8352.153998870135,37067.23893490302,43016.960384483384,0.0,0.0,0.0,193.0,0.0,193.0,0.0,0.0,0.0,179.0,193.0,0.0,179.0,1744418806.4028804,0.0,2025-04-11 20:46:46.402,LEFT,35
76.0,7870.675071558366,-12240.105836404067,-21579.40227739838,-23726.332035819538,15564.212568308421,8352.265757592411,36912.22958710547,42951.84975288508,0.0,0.0,0.0,193.0,0.0,193.0,0.0,0.0,0.0,179.0,193.0,0.0,179.0,1744418806.4029372,0.0,2025-04-11 20:46:46.402,LEFT,35
77.0,7889.60699911201,-12209.260429055743,-21580.139884965407,-23704.181457064326,15503.326416412167,8613.490595041585,36644.07570887515,43068.10117579713,0.0,0.0,0.0,193.0,0.0,193.0,0.0,0.0,0.0,179.0,193.0,0.0,179.0,1744418806.4030004,0.0,2025-04-11 20:46:46.403,LEFT,35
78.0,7894.65849335891,-12226.381865308507,-21537.69392224478,-23723.82864044054,15649.506825149874,8604.639304237284,36706.03474450526,43118.99609792186,0.0,0.0,0.0,193.0,0.0,193.0,0.0,0.0,0.0,178.0,193.0,0.0,178.0,1744418806.4030738,0.0,2025-04-11 20:46:46.403,LEFT,35
79.0,7885.024891498672,-12257.741362779303,-21544.801776981567,-23767.548652595124,15735.181061647067,8383.200571918556,37044.417803814154,43052.25378897831,0.0,0.0,0.0,193.0,0.0,193.0,0.0,0.0,0.0,179.0,193.0,0.0,179.0,1744418806.4031732,0.0,2025-04-11 20:46:46.403,LEFT,35
80.0,7896.13370849296,-12229.891089187991,-21562.616117312446,-23731.919971933363,15624.94225799349,8311.65263791712,36928.45695358002,42936.80702886666,0.0,0.0,0.0,193.0,0.0,193.0,0.0,0.0,0.0,179.0,193.0,0.0,179.0,1744418806.4032102,0.0,2025-04-11 20:46:46.403,LEFT,35
81.0,7895.329045692569,-12203.694844686372,-21580.83278904352,-23712.31749204606,15521.341922443144,8587.160240073234,36674.36232261209,43048.54339939873,0.0,0.0,0.0,193.0,0.0,193.0,0.0,0.0,0.0,178.0,193.0,0.0,178.0,1744418806.4032445,0.0,2025-04-11 20:46:46.403,LEFT,35
82.0,7912.539888923156,-12192.36251024753,-21531.815413453034,-23711.289311801116,15616.80622301176,8638.1892726647,36639.73947045082,43114.95043217545,0.0,0.0,0.0,193.0,0.0,193.0,0.0,0.0,0.0,179.0,193.0,0.0,179.0,1744418806.4032798,0.0,2025-04-11 20:46:46.403,LEFT,35
83.0,7907.287228976158,-12217.84349892658,-21514.87279115591,-23744.302838361604,15743.630021051173,8447.260671527467,37004.74345740598,43079.746434658344,0.0,0.0,0.0,193.0,0.0,193.0,0.0,0.0,0.0,179.0,193.0,0.0,179.0,1744418806.4034364,0.0,2025-04-11 20:46:46.403,LEFT,35
84.0,7915.7138366358095,-12205.147708075967,-21549.585050295,-23736.189155124328,15616.180374167012,8289.613817884185,36959.056491739335,42950.46394472885,0.0,0.0,0.0,193.0,0.0,193.0,0.0,0.0,0.0,178.0,193.0,0.0,178.0,1744418806.40347,0.0,2025-04-11 20:46:46.403,LEFT,35
85.0,7930.264822276214,-12176.31395772862,-21568.204053426274,-23704.270864042148,15504.3098931682,8543.373172685287,36703.12901772607,43045.99530053083,0.0,0.0,0.0,193.0,0.0,193.0,0.0,0.0,0.0,179.0,193.0,0.0,179.0,1744418806.4035022,0.0,2025-04-11 20:46:46.403,LEFT,35
86.0,7956.90810166694,-12160.444219165352,-21523.277047071108,-23694.100820314983,15575.969585891913,8642.704325044671,36584.91064130195,43127.04272592577,0.0,0.0,0.0,193.0,0.0,193.0,0.0,0.0,0.0,179.0,193.0,0.0,179.0,1744418806.403534,0.0,2025-04-11 20:46:46.403,LEFT,35
87.0,7943.832331160585,-12187.199257278355,-21501.707613671733,-23730.02007365466,15741.484253583463,8488.365529580777,36947.50063985594,43112.00000190735,0.0,0.0,0.0,193.0,0.0,193.0,0.0,0.0,0.0,179.0,193.0,0.0,179.0,1744418806.4035652,0.0,2025-04-11 20:46:46.403,LEFT,35
88.0,7956.90810166694,-12174.905797827936,-21532.910648931345,-23733.015207411674,15654.96065079697,8279.175553223557,36983.106968773245,42965.998407125284,0.0,0.0,0.0,193.0,0.0,193.0,0.0,0.0,0.0,179.0,193.0,0.0,179.0,1744418806.4035966,0.0,2025-04-11 20:46:46.403,LEFT,35
89.0,7951.387220786479,-12163.752277344738,-21562.213785912252,-23703.89088438641,15543.939536087459,8504.481137333052,36756.70614918544,43037.389878915536,0.0,0.0,0.0,193.0,0.0,193.0,0.0,0.0,0.0,178.0,193.0,0.0,178.0,1744418806.403628,0.0,2025-04-11 20:46:46.403,LEFT,35
90.0,7964.127715126004,-12143.747466057237,-21531.54719251957,-23688.646994667888,15552.41084723602,8666.24071195611,36566.29163817068,43144.47708660091,0.0,0.0,0.0,193.0,0.0,193.0,0.0,0.0,0.0,179.0,193.0,0.0,179.0,1744418806.4036598,0.0,2025-04-11 20:46:46.403,LEFT,35
91.0,7962.853665692051,-12165.339251201065,-21483.133314029375,-23707.556570477078,15733.929363957568,8539.998059272535,36855.00912129988,43140.67729004351,0.0,0.0,0.0,193.0,0.0,193.0,0.0,0.0,0.0,179.0,193.0,0.0,179.0,1744418806.4036915,0.0,2025-04-11 20:46:46.403,LEFT,35
92.0,7959.5009040237555,-12172.067126282112,-21514.49281150017,-23732.523469033655,15690.254055291898,8292.340730707732,36989.968954321026,42999.66013427498,0.0,0.0,0.0,193.0,0.0,193.0,0.0,0.0,0.0,178.0,193.0,0.0,178.0,1744418806.4037228,0.0,2025-04-11 20:46:46.403,LEFT,35
93.0,7960.462029035334,-12154.789227818159,-21552.69194277429,-23704.382622764424,15562.022097351803,8451.172226807144,36795.01703918184,43028.4044776445,0.0,0.0,0.0,193.0,0.0,193.0,0.0,0.0,0.0,179.0,193.0,0.0,179.0,1744418806.4037547,0.0,2025-04-11 20:46:46.403,LEFT,35
94.0,7977.181133887903,-12131.610468818006,-21542.65600951386,-23689.474009212736,15524.560573644707,8646.504121602073,36554.04288220917,43137.72685977541,0.0,0.0,0.0,193.0,0.0,193.0,0.0,0.0,0.0,178.0,193.0,0.0,178.0,1744418806.4038029,0.0,2025-04-11 20:46:46.403,LEFT,35
95.0,7985.071299680627,-12141.288774167155,-21496.38789849137,-23708.31652978856,15699.619436218672,8554.549044912941,36770.60893423664,43159.452755385966,0.0,0.0,0.0,193.0,0.0,193.0,0.0,0.0,0.0,179.0,193.0,0.0,179.0,1744418806.4038348,0.0,2025-04-11 20:46:46.403,LEFT,35
96.0,7982.545552557177,-12153.001088261735,-21537.001018166666,-23757.088036190038,15675.680717907038,8303.158975024102,37002.12830330471,43051.20325698892,0.0,0.0,0.0,193.0,0.0,193.0,0.0,0.0,0.0,179.0,193.0,0.0,179.0,1744418806.4038663,0.0,2025-04-11 20:46:46.403,LEFT,35
97.0,7976.91291295444,-12134.963230486303,-21571.98149823922,-23727.024939897652,15537.681047639973,8385.480449852997,36833.75261232288,43033.92535852496,0.0,0.0,0.0,193.0,0.0,192.0,0.0,0.0,0.0,178.0,192.0,0.0,178.0,1744418806.4038978,0.0,2025-04-11 20:46:46.403,LEFT,35
98.0,7985.183058402903,-12118.557050056106,-21561.654992300868,-23701.87922738543,15495.279788408256,8622.006609679058,36570.60552485055,43156.658787329055,0.0,0.0,0.0,193.0,0.0,193.0,0.0,0.0,0.0,179.0,193.0,0.0,179.0,1744418806.4040253,0.0,2025-04-11 20:46:46.404,LEFT,35
99.0,7996.805965519663,-12135.566727586596,-21504.278064284095,-23705.455506498278,15680.329880753743,8588.79191741847,36699.10570372411,43190.58873541221,0.0,0.0,0.0,193.0,0.0,192.0,0.0,0.0,0.0,178.0,192.0,0.0,178.0,1744418806.4040575,0.0,2025-04-11 20:46:46.404,LEFT,35
100.0,7999.599933576576,-12145.35679165802,-21515.319826045015,-23733.88692544543,15733.392922090641,8349.069458135302,36988.136111275686,43090.13999583006,0.0,0.0,0.0,193.0,0.0,193.0,0.0,0.0,0.0,179.0,193.0,0.0,179.0,1744418806.404089,0.0,2025-04-11 20:46:46.404,LEFT,35
101.0,7997.320055642135,-12129.934087983858,-21550.12149216193,-23709.188247822316,15601.718795504428,8355.886740194172,36851.47754567594,43019.24026241783,0.0,0.0,0.0,193.0,0.0,193.0,0.0,0.0,0.0,179.0,193.0,0.0,179.0,1744418806.4041204,0.0,2025-04-11 20:46:46.404,LEFT,35
102.0,7993.050872451172,-12118.467643078286,-21569.07577146003,-23702.616834952456,15506.634474591552,8635.551766818973,36599.88631008701,43153.75306054987,0.0,0.0,0.0,193.0,0.0,192.0,0.0,0.0,0.0,178.0,192.0,0.0,178.0,1744418806.4041514,0.0,2025-04-11 20:46:46.404,LEFT,35
103.0,8009.747625559286,-12120.121672167978,-21509.195448064263,-23704.829657653532,15638.152138966578,8631.863728983848,36620.18169405242,43185.87251733214,0.0,0.0,0.0,193.0,0.0,193.0,0.0,0.0,0.0,179.0,193.0,0.0,179.0,1744418806.4041827,0.0,2025-04-11 20:46:46.404,LEFT,35
104.0,7992.62618930652,-12158.611376120018,-21517.91262840183,-23750.538975064635,15742.534785572861,8417.801072335371,36972.10991050123,43121.61125202313,0.0,0.0,0.0,193.0,0.0,193.0,0.0,0.0,0.0,178.0,193.0,0.0,178.0,1744418806.4042134,0.0,2025-04-11 20:46:46.404,LEFT,35
105.0,8009.166480203448,-12130.44817810633,-21551.753169507167,-23728.813079454074,15613.721682276928,8311.674989661573,36871.48235696344,43002.23058488734,0.0,0.0,0.0,193.0,0.0,193.0,0.0,0.0,0.0,179.0,193.0,0.0,179.0,1744418806.404245,0.0,2025-04-11 20:46:46.404,LEFT,35
106.0,8024.678590855431,-12097.993445157224,-21568.159349937363,-23697.185361049815,15499.101936710113,8573.324510255397,36593.650173383976,43097.784292433775,0.0,0.0,0.0,193.0,0.0,193.0,0.0,0.0,0.0,179.0,193.0,0.0,179.0,1744418806.404276,0.0,2025-04-11 20:46:46.404,LEFT,35
107.0,8026.466730411856,-12100.765061469683,-21529.624942496415,-23700.940454118307,15582.295129572765,8632.556633061962,36529.99240517526,43167.767604323344,0.0,0.0,0.0,193.0,0.0,192.0,0.0,0.0,0.0,178.0,192.0,0.0,178.0,1744418806.404307,0.0,2025-04-11 20:46:46.404,LEFT,35
108.0,8001.67864581092,-12140.528814855674,-21525.445166283273,-23751.902431476406,15736.231593636465,8461.968119379058,36936.63769205066,43165.91240953355,0.0,0.0,0.0,193.0,0.0,193.0,0.0,0.0,0.0,179.0,193.0,0.0,179.0,1744418806.4043376,0.0,2025-04-11 20:46:46.404,LEFT,35
109.0,8008.96531450335,-12128.101244938523,-21551.820224740535,-23745.50983256219,15626.015141727346,8279.644939857119,36918.95746218651,43039.64740510552,0.0,0.0,0.0,193.0,0.0,192.0,0.0,0.0,0.0,178.0,192.0,0.0,178.0,1744418806.8766828,0.0,2025-04-11 20:46:46.876,LEFT,35
110.0,8019.649448352987,-12101.68148299235,-21565.723009791735,-23703.68971868631,15519.39732067553,8519.009771229003,36662.31473235068,43115.30806008674,0.0,0.0,0.0,193.0,0.0,192.0,0.0,0.0,0.0,178.0,192.0,0.0,178.0,1744418806.8768988,0.0,2025-04-11 20:46:46.876,LEFT,35
111.0,8038.73783811782,-12083.755383939193,-21523.32175056002,-23684.511921943656,15574.092039357667,8644.559519834462,36528.338376085565,43200.065875061264,0.0,0.0,0.0,193.0,0.0,192.0,0.0,0.0,0.0,178.0,192.0,0.0,178.0,1744418806.876935,0.0,2025-04-11 20:46:46.876,LEFT,35
112.0,8011.4910616268,-12130.78345427316,-21504.9262648733,-23723.493364273712,15742.82535825078,8531.035009745958,36901.388991044645,43211.12998856664,0.0,0.0,0.0,193.0,0.0,192.0,0.0,0.0,0.0,178.0,192.0,0.0,178.0,1744418806.8769712,0.0,2025-04-11 20:46:46.876,LEFT,35
113.0,8010.149956959482,-12137.44427412084,-21539.616172267935,-23730.802384710598,15658.089895020712,8310.669161161084,36963.16921271911,43069.2187630199,0.0,0.0,0.0,193.0,0.0,193.0,0.0,0.0,0.0,179.0,193.0,0.0,179.0,1744418806.87703,0.0,2025-04-11 20:46:46.877,LEFT,35
114.0,8012.496890127289,-12115.114881409989,-21564.82894001352,-23698.571169206047,15528.606239391118,8498.82614598586,36731.716898884406,43114.74926647535,0.0,0.0,0.0,193.0,0.0,192.0,0.0,0.0,0.0,179.0,192.0,0.0,179.0,1744418806.87706,0.0,2025-04-11 20:46:46.877,LEFT,35
115.0,8042.761152119774,-12079.061517603579,-21528.663817484834,-23677.78404686261,15523.264172466299,8654.014307739057,36519.822361448096,43200.98229658393,0.0,0.0,0.0,193.0,0.0,193.0,0.0,0.0,0.0,178.0,193.0,0.0,178.0,1744418806.8770895,0.0,2025-04-11 20:46:46.877,LEFT,35
116.0,8046.650355654998,-12104.67661674936,-21489.235340265674,-23704.136753575418,15721.322980084775,8556.203074002633,36814.686574302505,43203.53039545183,0.0,0.0,0.0,193.0,0.0,192.0,0.0,0.0,0.0,179.0,192.0,0.0,179.0,1744418806.8771188,0.0,2025-04-11 20:46:46.877,LEFT,35
117.0,8037.620250895054,-12114.220811631778,-21523.96995114922,-23726.779070708642,15693.338596026731,8320.012190343403,36976.44614892556,43071.923324098985,0.0,0.0,0.0,193.0,0.0,193.0,0.0,0.0,0.0,179.0,193.0,0.0,179.0,1744418806.8771482,0.0,2025-04-11 20:46:46.877,LEFT,35
118.0,8038.469617184355,-12091.690253220828,-21548.154538649862,-23688.26701501215,15580.641100483073,8458.749468177493,36777.76149246234,43079.545268958245,0.0,0.0,0.0,193.0,0.0,193.0,0.0,0.0,0.0,179.0,193.0,0.0,179.0,1744418806.8771775,0.0,2025-04-11 20:46:46.877,LEFT,35
119.0,8053.2441202693135,-12070.210226799278,-21534.855250698954,-23671.033820037108,15547.69462915595,8674.264988215566,36536.876742467495,43191.01341855686,0.0,0.0,0.0,193.0,0.0,193.0,0.0,0.0,0.0,179.0,193.0,0.0,179.0,1744418806.8772068,0.0,2025-04-11 20:46:46.877,LEFT,35
120.0,8034.848634582596,-12104.095471393523,-21500.165343304318,-23702.750945419186,15715.019788148378,8613.200022363666,36750.715881671415,43231.26891032087,0.0,0.0,0.0,193.0,0.0,193.0,0.0,0.0,0.0,179.0,193.0,0.0,179.0,1744418806.877236,0.0,2025-04-11 20:46:46.877,LEFT,35
121.0,8021.750512331786,-12133.309201396609,-21532.016579153133,-23741.821794727064,15704.648578721117,8358.300728595344,36997.61325092474,43131.24485388337,0.0,0.0,0.0,193.0,0.0,193.0,0.0,0.0,0.0,179.0,193.0,0.0,179.0,1744418806.8772652,0.0,2025-04-11 20:46:46.877,LEFT,35
122.0,8038.603727651087,-12102.039110903635,-21554.591841052992,-23698.682927928323,15564.3243270307,8419.700970614073,36819.0898679602,43083.85915563812,0.0,0.0,0.0,193.0,0.0,193.0,0.0,0.0,0.0,179.0,193.0,0.0,179.0,1744418806.8772943,0.0,2025-04-11 20:46:46.877,LEFT,35
123.0,8054.764038892275,-12072.803029156094,-21549.22742238372,-23677.58288116251,15510.814250804693,8687.497220933106,36565.35286490356,43207.53135770933,0.0,0.0,0.0,193.0,0.0,193.0,0.0,0.0,0.0,179.0,193.0,0.0,179.0,1744418806.8773236,0.0,2025-04-11 20:46:46.877,LEFT,35
124.0,8050.561910934676,-12079.262683303677,-21500.522971215603,-23691.865645869453,15666.740020124917,8664.363165421864,36682.140729682535,43256.347567599725,0.0,0.0,0.0,193.0,0.0,193.0,0.0,0.0,0.0,178.0,193.0,0.0,178.0,1744418806.8773732,0.0,2025-04-11 20:46:46.877,LEFT,35
125.0,8027.718428101352,-12120.30048612362,-21520.77365169211,-23737.41850106937,15718.037273649845,8420.103302014268,37002.687096916095,43183.54793590879,0.0,0.0,0.0,193.0,0.0,193.0,0.0,0.0,0.0,179.0,193.0,0.0,179.0,1744418806.8774028,0.0,2025-04-11 20:46:46.877,LEFT,35
126.0,8031.4064659364785,-12109.549297040618,-21549.696809017278,-23709.545875733602,15591.727565732905,8367.688461266573,36867.749615639405,43094.56564123221,0.0,0.0,0.0,193.0,0.0,192.0,0.0,0.0,0.0,178.0,192.0,0.0,178.0,1744418806.877432,0.0,2025-04-11 20:46:46.877,LEFT,35
127.0,8050.852483612595,-12069.360860509976,-21543.17009963633,-23670.653840381365,15516.536297385252,8626.365199847842,36594.901871073474,43205.54205245281,0.0,0.0,0.0,193.0,0.0,193.0,0.0,0.0,0.0,178.0,193.0,0.0,178.0,1744418806.8774612,0.0,2025-04-11 20:46:46.877,LEFT,35
128.0,8060.620195939565,-12078.234503058733,-21489.950596088245,-23672.39727644888,15649.350362938687,8651.063877470957,36609.1399322915,43264.08127118126,0.0,0.0,0.0,193.0,0.0,193.0,0.0,0.0,0.0,179.0,193.0,0.0,179.0,1744418806.8775024,0.0,2025-04-11 20:46:46.877,LEFT,35
129.0,8042.403524208489,-12120.2110791458,-21497.81841013651,-23724.4991927742,15751.54253858835,8439.884595857215,36981.05060828336,43218.12608458115,0.0,0.0,0.0,193.0,0.0,192.0,0.0,0.0,0.0,178.0,192.0,0.0,178.0,1744418806.8775318,0.0,2025-04-11 20:46:46.877,LEFT,35
130.0,8048.840826611618,-12106.934142939346,-21533.000055909164,-23714.93264614733,15625.523403349329,8327.589431713752,36910.57555801577,43104.355705303635,0.0,0.0,0.0,193.0,0.0,193.0,0.0,0.0,0.0,179.0,193.0,0.0,179.0,1744418806.877561,0.0,2025-04-11 20:46:46.877,LEFT,35
131.0,8056.418067981967,-12076.714584435771,-21554.770655008633,-23684.713087643755,15515.195192717934,8596.391510533274,36643.069880374656,43201.183462284025,0.0,0.0,0.0,193.0,0.0,193.0,0.0,0.0,0.0,179.0,193.0,0.0,179.0,1744418806.87759,0.0,2025-04-11 20:46:46.877,LEFT,35
132.0,8071.371385022568,-12064.778752896638,-21507.384956763384,-23672.93371831581,15598.634254769595,8672.432145170229,36554.825193265104,43265.13180317066,0.0,0.0,0.0,193.0,0.0,193.0,0.0,0.0,0.0,179.0,193.0,0.0,179.0,1744418806.8776195,0.0,2025-04-11 20:46:46.877,LEFT,35
133.0,8039.87777708504,-12114.06434942059,-21500.522971215603,-23722.912218917874,15754.984707234467,8502.178907654155,36937.12943042868,43248.81502971829,0.0,0.0,0.0,193.0,0.0,193.0,0.0,0.0,0.0,178.0,193.0,0.0,178.0,1744418806.8776488,0.0,2025-04-11 20:46:46.877,LEFT,35
134.0,8038.82724509564,-12112.119747652978,-21543.25950661415,-23733.12696613395,15645.595269870195,8302.801347112816,36931.20621814802,43098.29838255625,0.0,0.0,0.0,193.0,0.0,193.0,0.0,0.0,0.0,178.0,193.0,0.0,178.0,1744418806.877678,0.0,2025-04-11 20:46:46.877,LEFT,35
135.0,8044.906919587484,-12083.710680450284,-21572.048553472585,-23700.560474462567,15526.304009712221,8540.936832539659,36686.45461636241,43166.82883105622,0.0,0.0,0.0,193.0,0.0,192.0,0.0,0.0,0.0,178.0,192.0,0.0,178.0,1744418806.8777068,0.0,2025-04-11 20:46:46.877,LEFT,35
136.0,8059.659070927986,-12058.922595849348,-21535.45874779925,-23690.859817368964,15563.31849853021,8672.05216551449,36530.52884704219,43251.96662568649,0.0,0.0,0.0,193.0,0.0,192.0,0.0,0.0,0.0,178.0,192.0,0.0,178.0,1744418806.877736,0.0,2025-04-11 20:46:46.877,LEFT,35
137.0,8049.600785923099,-12088.2033810858,-21498.734831659178,-23721.705224717287,15743.585317562261,8529.939774267646,36864.598019671204,43249.41852681858,0.0,0.0,0.0,193.0,0.0,193.0,0.0,0.0,0.0,181.0,193.0,0.0,181.0,1744418806.877765,0.0,2025-04-11 20:46:46.877,LEFT,35
138.0,8049.377268478545,-12104.073119649067,-21531.07780588601,-23736.703245246797,15673.914930095068,8292.854820830205,36957.67068358311,43114.61515600862,0.0,0.0,0.0,193.0,0.0,193.0,0.0,0.0,0.0,179.0,193.0,0.0,179.0,1744418806.877794,0.0,2025-04-11 20:46:46.877,LEFT,35
139.0,8054.83109412564,-12091.53379100964,-21558.816320755046,-23701.812172152066,15544.386570976565,8469.72417470505,36731.82865760668,43151.562589593246,0.0,0.0,0.0,193.0,0.0,193.0,0.0,0.0,0.0,180.0,193.0,0.0,180.0,1744418806.877823,0.0,2025-04-11 20:46:46.877,LEFT,35
140.0,8063.414163996478,-12071.886607633425,-21541.583125780002,-23692.044459825094,15533.188347004456,8655.824799039936,36517.922463169394,43259.074480423275,0.0,0.0,0.0,193.0,0.0,193.0,0.0,0.0,0.0,179.0,193.0,0.0,179.0,1744418806.8778665,0.0,2025-04-11 20:46:46.877,LEFT,35
141.0,8050.1372277900255,-12108.699930751316,-21507.764936419124,-23722.085204373026,15711.06352937979,8576.051423078945,36793.6312310256,43286.92475401459,0.0,0.0,0.0,193.0,0.0,193.0,0.0,0.0,0.0,178.0,193.0,0.0,178.0,1744418806.877896,0.0,2025-04-11 20:46:46.877,LEFT,35
142.0,8050.047820812205,-12129.554108328119,-21541.761939735647,-23748.773187252664,15673.825523117248,8328.908184636615,36971.05937851183,43164.79482231079,0.0,0.0,0.0,193.0,0.0,193.0,0.0,0.0,0.0,179.0,193.0,0.0,179.0,1744418806.877925,0.0,2025-04-11 20:46:46.877,LEFT,35
143.0,8059.323794761157,-12091.779660198648,-21557.36345736545,-23706.014300109662,15556.70238217144,8431.122712030734,36764.015169622326,43147.7851447803,0.0,0.0,0.0,193.0,0.0,193.0,0.0,0.0,0.0,178.0,193.0,0.0,178.0,1744418806.8779538,0.0,2025-04-11 20:46:46.877,LEFT,35
144.0,8074.321815290668,-12060.95660459478,-21537.06807340003,-23678.87928234092,15524.694684111439,8655.020136239546,36508.31121305361,43254.44766932102,0.0,0.0,0.0,193.0,0.0,193.0,0.0,0.0,0.0,178.0,193.0,0.0,178.0,1744418806.8779943,0.0,2025-04-11 20:46:46.877,LEFT,35
145.0,8067.660995442987,-12081.073174604557,-21491.179942033286,-23695.06194532656,15699.261808307387,8603.924048414714,36689.203880930414,43277.55937308781,0.0,0.0,0.0,193.0,0.0,193.0,0.0,0.0,0.0,179.0,193.0,0.0,179.0,1744418806.8780236,0.0,2025-04-11 20:46:46.878,LEFT,35
146.0,8048.326736489146,-12115.338398854543,-21526.92038141732,-23742.849974972007,15726.642695265138,8365.833266476782,36977.89901231516,43193.82973835823,0.0,0.0,0.0,193.0,0.0,192.0,0.0,0.0,0.0,178.0,192.0,0.0,178.0,1744418806.8780527,0.0,2025-04-11 20:46:46.878,LEFT,35
147.0,8051.478332457345,-12100.273323091666,-21555.59766955348,-23717.994835137706,15591.66051049954,8390.978978989004,36816.653527814575,43141.8842842441,0.0,0.0,0.0,193.0,0.0,193.0,0.0,0.0,0.0,179.0,193.0,0.0,179.0,1744418806.8780818,0.0,2025-04-11 20:46:46.878,LEFT,35
148.0,8061.469562228866,-12080.134401337435,-21556.715256776246,-23696.604215693977,15518.88323055306,8653.321403660942,36556.725091543805,43263.813050247794,0.0,0.0,0.0,193.0,0.0,193.0,0.0,0.0,0.0,179.0,193.0,0.0,179.0,1744418806.8781111,0.0,2025-04-11 20:46:46.878,LEFT,35
149.0,8062.9894808518275,-12086.616407229472,-21512.101174843454,-23713.882114157932,15647.070485004246,8636.892871486292,36635.649101215495,43310.28232697038,0.0,0.0,0.0,193.0,0.0,193.0,0.0,0.0,0.0,178.0,193.0,0.0,178.0,1744418806.87814,0.0,2025-04-11 20:46:46.878,LEFT,35
150.0,8036.525015416743,-12121.418073346385,-21527.59093375098,-23761.401922869914,15708.649540978617,8407.47456639702,36969.4277011666,43248.457401807,0.0,0.0,0.0,193.0,0.0,193.0,0.0,0.0,0.0,179.0,193.0,0.0,179.0,1744418806.8781693,0.0,2025-04-11 20:46:46.878,LEFT,35
151.0,8053.177065035948,-12098.842811446526,-21553.541309063592,-23727.203753853293,15583.613882495629,8338.877062663681,36846.13547875112,43146.75696453536,0.0,0.0,0.0,193.0,0.0,193.0,0.0,0.0,0.0,179.0,193.0,0.0,179.0,1744418806.8781984,0.0,2025-04-11 20:46:46.878,LEFT,35
152.0,8077.272245558768,-12063.996441840702,-21557.274050387627,-23686.791799878098,15491.88232325105,8615.345789831375,36576.41697840893,43254.49237280993,0.0,0.0,0.0,193.0,0.0,193.0,0.0,0.0,0.0,178.0,193.0,0.0,178.0,1744418806.8782277,0.0,2025-04-11 20:46:46.878,LEFT,35
153.0,8079.574475237665,-12066.34337500851,-21514.045776611063,-23691.619776680443,15598.075461158212,8662.396211909796,36561.10603345705,43328.8789783572,0.0,0.0,0.0,193.0,0.0,193.0,0.0,0.0,0.0,179.0,193.0,0.0,179.0,1744418806.8782568,0.0,2025-04-11 20:46:46.878,LEFT,35
154.0,8051.88066385754,-12104.609561515996,-21511.184753320784,-23736.904410946896,15732.1635761456,8463.577444979841,36924.61245353371,43293.42911165108,0.0,0.0,0.0,193.0,0.0,193.0,0.0,0.0,0.0,179.0,193.0,0.0,179.0,1744418806.878286,0.0,2025-04-11 20:46:46.878,LEFT,35
155.0,8054.428762725444,-12099.245142846721,-21542.36543683594,-23725.370910807957,15628.406778384064,8328.103521836225,36860.64176090262,43169.75690957987,0.0,0.0,0.0,193.0,0.0,192.0,0.0,0.0,0.0,178.0,192.0,0.0,178.0,1744418806.8783877,0.0,2025-04-11 20:46:46.878,LEFT,35
156.0,8057.669765671464,-12078.43566875883,-21565.968878980744,-23695.397221493393,15506.835640291649,8593.977522132102,36607.642365413,43276.28532365386,0.0,0.0,0.0,193.0,0.0,193.0,0.0,0.0,0.0,179.0,193.0,0.0,179.0,1744418806.8784215,0.0,2025-04-11 20:46:46.878,LEFT,35
157.0,8078.814515926185,-12064.085848818524,-21521.667721470323,-23687.529407445123,15579.501161515853,8676.589569638916,36499.30346003812,43344.59225470928,0.0,0.0,0.0,193.0,0.0,193.0,0.0,0.0,0.0,179.0,193.0,0.0,179.0,1744418806.878451,0.0,2025-04-11 20:46:46.878,LEFT,35
158.0,8067.906864631995,-12095.221828844766,-21502.624035194403,-23725.393262552414,15745.64167805215,8502.670646032173,36856.10435677819,43324.2745189994,0.0,0.0,0.0,193.0,0.0,192.0,0.0,0.0,0.0,178.0,192.0,0.0,178.0,1744418806.8784804,0.0,2025-04-11 20:46:46.878,LEFT,35
159.0,8073.986539123838,-12080.335567037531,-21529.244962840672,-23722.21931483976,15655.005354285879,8305.438852958543,36873.47166221996,43182.251534730385,0.0,0.0,0.0,193.0,0.0,193.0,0.0,0.0,0.0,179.0,193.0,0.0,179.0,1744418806.878524,0.0,2025-04-11 20:46:46.878,LEFT,35
160.0,8072.2654548007795,-12056.329793492532,-21558.615155054948,-23692.916177858853,15533.993009804846,8531.414989401697,36648.166078110466,43248.25623610691,0.0,0.0,0.0,193.0,0.0,193.0,0.0,0.0,0.0,178.0,193.0,0.0,178.0,1744418806.8785536,0.0,2025-04-11 20:46:46.878,LEFT,35
161.0,8083.575437495165,-12049.91484283386,-21533.760015220647,-23685.294232999593,15551.852053624638,8681.19402899671,36484.59601218653,43342.62530119721,0.0,0.0,0.0,193.0,0.0,193.0,0.0,0.0,0.0,178.0,193.0,0.0,178.0,1744418806.8785832,0.0,2025-04-11 20:46:46.878,LEFT,35
162.0,8073.450097256911,-12075.57464546855,-21503.138125316877,-23717.346634548503,15721.390035318142,8562.84154210586,36819.26868191584,43357.26569381544,0.0,0.0,0.0,193.0,0.0,193.0,0.0,0.0,0.0,179.0,193.0,0.0,179.0,1744418806.8786125,0.0,2025-04-11 20:46:46.878,LEFT,35
163.0,8070.723184433364,-12076.401660013398,-21537.380997822405,-23732.724634733753,15656.122941508645,8322.35912351121,36922.44433432154,43213.54397696781,0.0,0.0,0.0,193.0,0.0,193.0,0.0,0.0,0.0,178.0,193.0,0.0,178.0,1744418806.878642,0.0,2025-04-11 20:46:46.878,LEFT,35
164.0,8082.144925850025,-12062.141247050911,-21562.482006845716,-23697.051250583085,15537.88221334007,8503.855288488305,36704.872453793585,43245.21639886098,0.0,0.0,0.0,193.0,0.0,192.0,0.0,0.0,0.0,178.0,192.0,0.0,178.0,1744418806.8786707,0.0,2025-04-11 20:46:46.878,LEFT,35
165.0,8098.6181615135865,-12055.078095803035,-21537.49275654468,-23680.600366663977,15528.092149268647,8708.418453743274,36483.523128452674,43365.42408054163,0.0,0.0,0.0,193.0,0.0,193.0,0.0,0.0,0.0,179.0,193.0,0.0,179.0,1744418806.8787014,0.0,2025-04-11 20:46:46.878,LEFT,35
166.0,8084.603617740109,-12076.602825713495,-21491.358755988927,-23696.11247731596,15710.01299739039,8610.204888606655,36727.73828837136,43386.81469998535,0.0,0.0,0.0,193.0,0.0,193.0,0.0,0.0,0.0,179.0,193.0,0.0,179.0,1744418806.8787305,0.0,2025-04-11 20:46:46.878,LEFT,35
167.0,8074.768850179774,-12090.438555531331,-21523.522916260114,-23726.779070708642,15698.837125162736,8356.400830316643,36940.102212441234,43270.94325672904,0.0,0.0,0.0,193.0,0.0,193.0,0.0,0.0,0.0,179.0,193.0,0.0,179.0,1744418806.87876,0.0,2025-04-11 20:46:46.878,LEFT,35
168.0,8084.737728206841,-12064.041145329613,-21552.423721840827,-23691.530369702625,15559.943385117458,8449.697011673095,36753.06281483923,43253.553599542814,0.0,0.0,0.0,193.0,0.0,193.0,0.0,0.0,0.0,179.0,193.0,0.0,179.0,1744418806.878789,0.0,2025-04-11 20:46:46.878,LEFT,35
169.0,8092.806707955207,-12039.074246773034,-21551.999038696176,-23679.348668974482,15501.851201278116,8679.808220840481,36499.10229433802,43374.36477832375,0.0,0.0,0.0,193.0,0.0,193.0,0.0,1.0,0.0,178.0,193.0,1.0,178.0,1744418806.8788185,0.0,2025-04-11 20:46:46.878,LEFT,35
170.0,8097.455870801911,-12055.078095803035,-21500.344157259962,-23691.105686557974,15679.189941786522,8626.119330658834,36652.18939211242,43406.998325228495,0.0,0.0,0.0,193.0,0.0,193.0,0.0,2.0,0.0,178.0,193.0,2.0,178.0,1744418806.8790033,0.0,2025-04-11 20:46:46.879,LEFT,35
171.0,8077.875742659062,-12090.48325902024,-21525.869849427923,-23735.898582446407,15707.330788055753,8400.2326011935,36955.346102159754,43317.658402640634,0.0,0.0,0.0,193.0,0.0,193.0,0.0,3.0,0.0,179.0,193.0,3.0,179.0,1744418806.8790329,0.0,2025-04-11 20:46:46.879,LEFT,35
172.0,8080.826172927163,-12070.277282032643,-21557.497567832183,-23702.102744829983,15571.387478278575,8416.549374645874,36805.47765558692,43248.07742215126,0.0,0.0,0.0,193.0,0.0,193.0,0.0,5.0,0.0,179.0,193.0,5.0,179.0,1744418806.8790617,0.0,2025-04-11 20:46:46.879,LEFT,35
173.0,8091.59971375462,-12036.079113016023,-21563.107855690465,-23676.085314284006,15493.938683740937,8683.898590075802,36542.397623347955,43364.30649331886,0.0,0.0,0.0,193.0,0.0,193.0,0.0,6.0,0.0,178.0,193.0,6.0,178.0,1744418806.8790903,0.0,2025-04-11 20:46:46.879,LEFT,35
174.0,8100.160431881003,-12038.738970606206,-21512.615264965923,-23685.964785333254,15632.43009238602,8686.022005799057,36603.86492060005,43410.97693574154,0.0,0.0,0.0,193.0,0.0,193.0,0.0,7.0,0.0,178.0,193.0,7.0,178.0,1744418806.8791318,0.0,2025-04-11 20:46:46.879,LEFT,35
175.0,8074.858257157595,-12081.140229837923,-21528.01561689563,-23738.580791781045,15707.219029333477,8457.207197810078,36951.367491646706,43344.77106866492,0.0,0.0,0.0,193.0,0.0,193.0,0.0,8.0,0.0,179.0,193.0,8.0,179.0,1744418806.879161,0.0,2025-04-11 20:46:46.879,LEFT,35
176.0,8082.055518872205,-12075.619348957462,-21559.196300410786,-23724.11921311846,15594.700347745462,8365.855618221238,36858.83126960174,43243.472962793465,0.0,0.0,0.0,193.0,0.0,192.0,0.0,9.0,0.0,179.0,192.0,9.0,179.0,1744418806.8791895,0.0,2025-04-11 20:46:46.879,LEFT,35
177.0,8099.132251636059,-12046.986764310213,-21574.440190129306,-23699.241721539704,15498.87841926556,8619.32440034442,36587.972830292325,43352.683586202096,0.0,0.0,0.0,193.0,0.0,193.0,0.0,9.0,0.0,179.0,193.0,9.0,179.0,1744418806.879218,0.0,2025-04-11 20:46:46.879,LEFT,35
178.0,8120.366408868601,-12025.283220444111,-21517.152669090352,-23687.663517911857,15604.937446705992,8669.168790479755,36536.89909421195,43414.64262183221,0.0,0.0,0.0,193.0,0.0,193.0,0.0,10.0,0.0,179.0,193.0,10.0,179.0,1744418806.8792467,0.0,2025-04-11 20:46:46.879,LEFT,35
179.0,8080.356786293601,-12073.786505912127,-21505.7756311626,-23725.88500093043,15736.410407592108,8490.265427859476,36922.24316862144,43390.703903520574,0.0,0.0,0.0,193.0,0.0,193.0,0.0,11.0,0.0,178.0,193.0,11.0,178.0,1744418806.8792756,0.0,2025-04-11 20:46:46.879,LEFT,35
180.0,8070.253797799802,-12077.787468169627,-21548.78038749461,-23722.46518402877,15619.0861009462,8337.446551018542,36890.50369149491,43268.70808228351,0.0,0.0,0.0,193.0,0.0,193.0,0.0,11.0,0.0,179.0,193.0,11.0,179.0,1744418806.8793046,0.0,2025-04-11 20:46:46.879,LEFT,35
181.0,8084.581265995654,-12042.181139252323,-21555.038875942097,-23672.777256104622,15520.246686964832,8593.709301198638,36633.50333374779,43370.02853989942,0.0,0.0,0.0,193.0,0.0,192.0,0.0,12.0,0.0,178.0,192.0,12.0,178.0,1744418806.8793335,0.0,2025-04-11 20:46:46.879,LEFT,35
182.0,8098.908734191506,-12030.200604224277,-21519.83487842499,-23670.050343281073,15578.450629526453,8703.054035074001,36516.35784105752,43464.17408754517,0.0,0.0,0.0,193.0,0.0,193.0,0.0,12.0,0.0,179.0,193.0,12.0,179.0,1744418806.879362,0.0,2025-04-11 20:46:46.879,LEFT,35
183.0,8089.945684664927,-12057.91676734886,-21499.8747706264,-23708.65180595539,15736.723332014482,8557.834751347871,36875.28215352084,43467.30333176891,0.0,0.0,0.0,193.0,0.0,193.0,0.0,12.0,0.0,179.0,193.0,12.0,179.0,1744418806.8793912,0.0,2025-04-11 20:46:46.879,LEFT,35
184.0,8084.4695072733775,-12056.24038651471,-21531.30132333056,-23714.575018236046,15652.90429030708,8342.36393479871,36910.463799293495,43318.485417185475,0.0,0.0,0.0,193.0,0.0,192.0,0.0,13.0,0.0,178.0,192.0,13.0,178.0,1744418806.8794205,0.0,2025-04-11 20:46:46.879,LEFT,35
185.0,8083.776603195263,-12029.731217590717,-21555.262393386653,-23682.25439575367,15525.87932656757,8552.246815234044,36679.72674128136,43378.5892580258,0.0,0.0,0.0,193.0,0.0,193.0,0.0,13.0,0.0,179.0,193.0,13.0,179.0,1744418806.8794625,0.0,2025-04-11 20:46:46.879,LEFT,35
186.0,8116.208984399914,-12009.122909202923,-21517.06326211253,-23662.316639699537,15546.84526286665,8697.53315419354,36479.23159351726,43466.72218641308,0.0,0.0,0.0,193.0,0.0,192.0,0.0,13.0,0.0,178.0,192.0,13.0,178.0,1744418806.8794916,0.0,2025-04-11 20:46:46.879,LEFT,35
187.0,8087.375234052567,-12055.346316736499,-21498.6230729369,-23711.11049784547,15715.15389861511,8582.086394081878,36796.00051593787,43486.72699770058,0.0,0.0,0.0,193.0,0.0,193.0,0.0,13.0,0.0,179.0,193.0,13.0,179.0,1744418806.8795204,0.0,2025-04-11 20:46:46.879,LEFT,35
188.0,8078.881571159551,-12057.29091850411,-21536.665741999834,-23733.12696613395,15627.557412094762,8322.068550833292,36925.95355820102,43345.687490187585,0.0,0.0,0.0,193.0,0.0,193.0,0.0,14.0,0.0,179.0,193.0,14.0,179.0,1744418806.8795497,0.0,2025-04-11 20:46:46.879,LEFT,35
189.0,8089.722167220375,-12030.692342602295,-21560.02331495563,-23693.58673019251,15498.699605309917,8476.362642808275,36709.476913151375,43359.8361444278,0.0,0.0,0.0,193.0,0.0,193.0,0.0,14.0,0.0,178.0,193.0,14.0,178.0,1744418806.8795905,0.0,2025-04-11 20:46:46.879,LEFT,35
190.0,8099.355769080612,-12010.776938292616,-21539.862041456945,-23671.6373171374,15510.300160682222,8709.334875265942,36476.92936383836,43474.83586965035,0.0,0.0,0.0,193.0,0.0,193.0,0.0,14.0,0.0,179.0,193.0,14.0,179.0,1744418806.8796191,0.0,2025-04-11 20:46:46.879,LEFT,35
191.0,8092.203210854914,-12036.839072327504,-21497.036099080575,-23692.960881347764,15700.334692041242,8634.367124362841,36701.162064214004,43490.973829147086,0.0,0.0,0.0,193.0,0.0,193.0,0.0,14.0,0.0,179.0,193.0,14.0,179.0,1744418806.8796482,0.0,2025-04-11 20:46:46.879,LEFT,35
192.0,8093.477260288866,-12055.234558014221,-21516.012730123133,-23721.392300294912,15701.094651352723,8372.427031091098,36923.02547967738,43358.830315927305,0.0,0.0,0.0,193.0,0.0,193.0,0.0,14.0,0.0,179.0,193.0,14.0,179.0,1744418806.8796768,0.0,2025-04-11 20:46:46.879,LEFT,35
193.0,8101.568591781687,-12038.38134269492,-21545.718198504233,-23691.79859063609,15576.170751592012,8448.042982583402,36755.11917532911,43324.56509167732,0.0,0.0,0.0,193.0,0.0,193.0,0.0,15.0,0.0,179.0,193.0,15.0,179.0,1744418806.879706,0.0,2025-04-11 20:46:46.879,LEFT,35
194.0,8107.357693595612,-12015.38139765041,-21545.718198504233,-23667.859872324454,15512.267114194288,8697.130822793344,36500.62221296099,43450.51717168298,0.0,0.0,0.0,193.0,0.0,192.0,0.0,15.0,0.0,178.0,192.0,15.0,178.0,1744418806.8797348,0.0,2025-04-11 20:46:46.879,LEFT,35
195.0,8105.457795316911,-12023.09274948749,-21501.417040993816,-23683.573148676533,15667.365868969664,8662.798543309993,36628.42948775643,43493.834852437365,0.0,0.0,0.0,193.0,0.0,193.0,0.0,15.0,0.0,179.0,193.0,15.0,179.0,1744418806.8797684,0.0,2025-04-11 20:46:46.879,LEFT,35
196.0,8104.675484260975,-12040.638868884906,-21522.539439504082,-23726.98023640874,15727.939096443546,8403.942990773081,36922.913720955105,43392.804967499374,0.0,0.0,0.0,193.0,0.0,193.0,0.0,15.0,0.0,179.0,193.0,15.0,179.0,1744418806.8797972,0.0,2025-04-11 20:46:46.879,LEFT,35
197.0,8116.9912954558495,-12022.198679709278,-21560.537405078103,-23705.187285564814,15601.60703678215,8386.151002186656,36783.34942857616,43315.13265551718,0.0,0.0,0.0,193.0,0.0,192.0,0.0,15.0,0.0,178.0,192.0,15.0,178.0,1744418806.879826,0.0,2025-04-11 20:46:46.879,LEFT,35
198.0,8117.08070243367,-12003.42321436682,-21572.003849983677,-23683.126113787428,15507.148564714023,8664.631386355328,36526.68434699588,43450.38306121624,0.0,0.0,0.0,193.0,0.0,193.0,0.0,15.0,0.0,179.0,193.0,15.0,179.0,1744418806.879855,0.0,2025-04-11 20:46:46.879,LEFT,35
199.0,8123.518004836799,-11989.296911871066,-21514.02342486661,-23676.241776495193,15636.676923832527,8680.322310962953,36557.3285886441,43504.34017233136,0.0,0.0,0.0,193.0,0.0,192.0,0.0,15.0,0.0,179.0,192.0,15.0,179.0,1744418806.8798835,0.0,2025-04-11 20:46:46.879,LEFT,35
200.0,8112.096263420137,-12022.735121576205,-21514.761032433635,-23719.55945724958,15743.317096628798,8462.124581590246,36915.44823830703,43433.82041857486,0.0,0.0,0.0,193.0,0.0,193.0,0.0,15.0,0.0,179.0,193.0,15.0,179.0,1744418806.8799288,0.0,2025-04-11 20:46:46.879,LEFT,35
201.0,8115.22550764388,-12024.635019854906,-21549.294477617084,-23711.088146101018,15614.638103799594,8349.695306980051,36825.66128083006,43314.90913807263,0.0,0.0,0.0,193.0,0.0,193.0,0.0,15.0,0.0,179.0,193.0,15.0,179.0,1744418806.879958,0.0,2025-04-11 20:46:46.879,LEFT,35
202.0,8110.5316413082655,-12005.971313234724,-21566.66178305886,-23684.757791132666,15496.889114009038,8624.264135869043,36568.03507423819,43440.45888667809,0.0,0.0,0.0,193.0,0.0,192.0,0.0,15.0,0.0,178.0,192.0,15.0,178.0,1744418806.879987,0.0,2025-04-11 20:46:46.879,LEFT,35
203.0,8119.315876879201,-11998.550534075563,-21519.20902958024,-23681.49443644219,15580.46228652743,8700.751805395104,36504.93609964086,43506.79886422144,0.0,0.0,0.0,193.0,0.0,193.0,0.0,15.0,0.0,179.0,193.0,15.0,179.0,1744418806.8800156,0.0,2025-04-11 20:46:46.880,LEFT,35
204.0,8112.342132609146,-12035.207394982266,-21516.392709778873,-23724.230971840738,15712.82931719176,8528.375152155775,36883.7087611805,43474.47824173907,0.0,0.0,0.0,193.0,0.0,193.0,0.0,16.0,0.0,179.0,193.0,16.0,179.0,1744418806.8800645,0.0,2025-04-11 20:46:46.880,LEFT,35
205.0,8132.0787229631815,-12016.789557551094,-21543.41596882534,-23709.88115190043,15601.718795504428,8345.068495877802,36856.10435677819,43325.01212656643,0.0,0.0,0.0,193.0,0.0,193.0,0.0,16.0,0.0,179.0,193.0,16.0,179.0,1744418806.880094,0.0,2025-04-11 20:46:46.880,LEFT,35
206.0,8125.753179282329,-11992.828487495004,-21563.867815001944,-23677.560529418057,15478.82890448915,8598.55962974544,36615.241958527804,43408.2947264069,0.0,0.0,0.0,193.0,0.0,193.0,0.0,16.0,0.0,179.0,193.0,16.0,179.0,1744418806.8801231,0.0,2025-04-11 20:46:46.880,LEFT,35
207.0,8120.232298401868,-11987.128792658901,-21541.60547752446,-23682.12028528694,15537.189309261956,8720.890727149335,36483.0090383302,43509.92810844519,0.0,0.0,0.0,193.0,0.0,193.0,0.0,16.0,0.0,179.0,193.0,16.0,179.0,1744418806.8801522,0.0,2025-04-11 20:46:46.880,LEFT,35
208.0,8119.60644955712,-12022.422197153832,-21507.317901530016,-23715.960826392275,15727.782634232359,8574.777373644993,36832.47856288893,43517.99708819355,0.0,0.0,0.0,193.0,0.0,193.0,0.0,16.0,0.0,179.0,193.0,16.0,179.0,1744418806.8801808,0.0,2025-04-11 20:46:46.880,LEFT,35
209.0,8125.6190688155975,-12019.360008163454,-21534.855250698954,-23718.441870026814,15651.898461806592,8345.716696467007,36888.089703093734,43370.00618815496,0.0,0.0,0.0,193.0,0.0,193.0,0.0,16.0,0.0,179.0,193.0,16.0,179.0,1744418806.8802097,0.0,2025-04-11 20:46:46.880,LEFT,35
210.0,8117.773606511785,-11987.173496147812,-21563.241966157195,-23685.718916144244,15526.16989924549,8543.842559318848,36655.60920901409,43411.53572935292,0.0,0.0,0.0,193.0,0.0,193.0,0.0,16.0,0.0,179.0,193.0,16.0,179.0,1744418806.8802383,0.0,2025-04-11 20:46:46.880,LEFT,35
211.0,8133.553938097231,-11965.469952281708,-21534.385864065393,-23667.859872324454,15530.439082436453,8718.521442237074,36455.06935776107,43510.15162588974,0.0,0.0,0.0,193.0,0.0,193.0,0.0,16.0,0.0,179.0,193.0,16.0,179.0,1744418806.8802671,0.0,2025-04-11 20:46:46.880,LEFT,35
212.0,8125.082626948671,-12010.553420848062,-21500.54532296006,-23702.482724485722,15717.992570160935,8626.789882992492,36756.236762551875,43533.464495356624,0.0,0.0,0.0,193.0,0.0,193.0,0.0,16.0,0.0,178.0,193.0,16.0,178.0,1744418806.8802958,0.0,2025-04-11 20:46:46.880,LEFT,35
213.0,8133.509234608321,-12015.336694161499,-21538.49858504517,-23730.64592249941,15648.880976305125,8378.171429416112,36916.23054936297,43395.30836287837,0.0,0.0,0.0,193.0,0.0,193.0,0.0,16.0,0.0,179.0,193.0,16.0,179.0,1744418806.8803248,0.0,2025-04-11 20:46:46.880,LEFT,35
214.0,8140.5276823672875,-11986.2794263696,-21563.756056279668,-23690.681003413323,15494.251608163311,8499.809622741894,36703.888977037546,43379.4386243151,0.0,0.0,0.0,193.0,0.0,193.0,0.0,16.0,0.0,179.0,193.0,16.0,179.0,1744418806.8803537,0.0,2025-04-11 20:46:46.880,LEFT,35
215.0,8153.670508107008,-11966.118152870913,-21541.35960833545,-23658.74036058669,15491.189419172933,8733.430055788762,36454.97995078325,43485.94468664464,0.0,0.0,0.0,193.0,0.0,193.0,0.0,16.0,0.0,179.0,193.0,16.0,179.0,1744418806.8803957,0.0,2025-04-11 20:46:46.880,LEFT,35
216.0,8142.51698762381,-11990.839182238482,-21500.25475028214,-23684.35545973247,15701.407575775096,8692.325197735452,36664.97458994086,43526.31193713092,0.0,0.0,0.0,193.0,0.0,193.0,0.0,16.0,0.0,179.0,193.0,16.0,179.0,1744418806.8804288,0.0,2025-04-11 20:46:46.880,LEFT,35
217.0,8138.694839321953,-11999.288141642588,-21529.915515174333,-23723.962750907274,15703.910971154091,8426.674714884128,36898.997354387924,43410.06051421887,0.0,0.0,0.0,193.0,0.0,193.0,0.0,16.0,0.0,178.0,193.0,16.0,178.0,1744418806.8804579,0.0,2025-04-11 20:46:46.880,LEFT,35
218.0,8148.2166824599135,-11991.263865383133,-21563.107855690465,-23692.15621854737,15566.917129387515,8468.271311315455,36722.552683657734,43360.864324672744,0.0,0.0,0.0,193.0,0.0,192.0,0.0,16.0,0.0,179.0,192.0,16.0,179.0,1744418806.8804865,0.0,2025-04-11 20:46:46.880,LEFT,35
219.0,8146.249728947846,-11985.430060080298,-21565.65595455837,-23673.268994482638,15494.475125607863,8726.523366752073,36472.50371843621,43485.96703838909,0.0,0.0,0.0,193.0,0.0,193.0,0.0,16.0,0.0,179.0,193.0,16.0,179.0,1744418806.8805277,0.0,2025-04-11 20:46:46.880,LEFT,35
220.0,8136.571423598698,-11997.321188130521,-21514.045776611063,-23686.143599288895,15650.155025739077,8698.628389671849,36580.708513344354,43524.90377723024,0.0,0.0,0.0,193.0,0.0,193.0,0.0,16.0,0.0,179.0,193.0,16.0,179.0,1744418806.8805568,0.0,2025-04-11 20:46:46.880,LEFT,35
221.0,8119.651153046031,-12020.298781430576,-21533.11181463144,-23730.42240505486,15713.96925615898,8460.604662967286,36900.405514288606,43442.090564023325,0.0,0.0,0.0,193.0,0.0,193.0,0.0,16.0,0.0,178.0,193.0,16.0,178.0,1744418806.880586,0.0,2025-04-11 20:46:46.880,LEFT,35
222.0,8120.120539679592,-12004.272580656121,-21573.322602906537,-23710.97638737874,15578.562388248729,8410.80497632086,36762.65171321055,43341.418306996624,0.0,0.0,0.0,193.0,0.0,193.0,0.0,16.0,0.0,179.0,193.0,16.0,179.0,1744418806.8806148,0.0,2025-04-11 20:46:46.880,LEFT,35
223.0,8136.7725892987955,-11970.007356406137,-21571.467408116747,-23673.201939249273,15484.752116769805,8686.29022673252,36491.34623901203,43445.33156696935,0.0,0.0,0.0,193.0,0.0,192.0,0.0,16.0,0.0,178.0,192.0,16.0,178.0,1744418806.880644,0.0,2025-04-11 20:46:46.880,LEFT,35
224.0,8161.761839599829,-11965.894635426359,-21514.11283184443,-23662.428398421813,15613.721682276928,8721.784796927548,36495.12368382498,43489.99035239105,0.0,0.0,0.0,193.0,0.0,193.0,0.0,16.0,0.0,179.0,193.0,16.0,179.0,1744418806.880673,0.0,2025-04-11 20:46:46.880,LEFT,35
225.0,8150.697726094452,-11998.2823131421,-21518.851401668955,-23710.350538533992,15740.120797171689,8513.220669415077,36866.63202841664,43432.92634879665,0.0,0.0,0.0,193.0,0.0,193.0,0.0,16.0,0.0,179.0,193.0,16.0,179.0,1744418806.8807018,0.0,2025-04-11 20:46:46.880,LEFT,35
226.0,8141.824083545695,-11998.2823131421,-21568.02523947063,-23718.531277004633,15607.2843798738,8375.422164848109,36801.342582862686,43314.439751439066,0.0,0.0,0.0,193.0,0.0,193.0,0.0,17.0,0.0,179.0,193.0,17.0,179.0,1744418806.8807304,0.0,2025-04-11 20:46:46.880,LEFT,35
227.0,8150.921243539005,-11973.60598726344,-21573.70258256228,-23675.571224161533,15508.914352525993,8649.47690361463,36541.43649833638,43418.93415676763,0.0,0.0,0.0,193.0,0.0,193.0,0.0,17.0,0.0,179.0,193.0,17.0,179.0,1744418806.8807592,0.0,2025-04-11 20:46:46.880,LEFT,35
228.0,8162.141819255569,-11966.408725548832,-21527.54623026207,-23664.26124146715,15599.863600714638,8746.751695484125,36464.97118055477,43494.12542511528,0.0,0.0,0.0,193.0,0.0,193.0,0.0,17.0,0.0,179.0,193.0,17.0,179.0,1744418806.8807883,0.0,2025-04-11 20:46:46.880,LEFT,35
229.0,8134.157435197525,-12007.781804535605,-21520.728948203203,-23715.69260545881,15761.466713126507,8587.584923217884,36843.45326941649,43474.522945227975,0.0,0.0,0.0,193.0,0.0,193.0,0.0,17.0,0.0,179.0,193.0,17.0,179.0,1744418807.3567584,0.0,2025-04-11 20:46:47.356,LEFT,35
230.0,8119.56174606821,-12019.09178722999,-21565.432437113817,-23726.488498030725,15652.166682740055,8401.75251981646,36846.11312700667,43340.01014709594,0.0,0.0,0.0,193.0,0.0,193.0,0.0,17.0,0.0,179.0,193.0,17.0,179.0,1744418807.3568912,0.0,2025-04-11 20:46:47.356,LEFT,35
231.0,8126.021400215794,-11991.465031083231,-21588.588844369515,-23688.758753390164,15531.199041747934,8630.65673478326,36601.02624905422,43415.62609858824,0.0,0.0,0.0,193.0,0.0,193.0,0.0,17.0,0.0,179.0,193.0,17.0,179.0,1744418807.356933,0.0,2025-04-11 20:46:47.356,LEFT,35
232.0,8153.5587493847315,-11968.263920338622,-21553.295439874582,-23675.79474160609,15557.797617649749,8751.02087867509,36435.153953451394,43504.67544849819,0.0,0.0,0.0,193.0,0.0,193.0,0.0,17.0,0.0,179.0,193.0,17.0,179.0,1744418807.3569686,0.0,2025-04-11 20:46:47.356,LEFT,35
233.0,8133.352772397134,-12006.395996379375,-21535.950486177266,-23721.41465203937,15716.271485837877,8602.851164680858,36772.03944588178,43506.53064328797,0.0,0.0,0.0,193.0,0.0,193.0,0.0,17.0,0.0,179.0,193.0,17.0,179.0,1744418807.3570032,0.0,2025-04-11 20:46:47.357,LEFT,35
234.0,8141.08647597867,-11994.929551473804,-21571.467408116747,-23728.656617242887,15603.730452505406,8369.633063034185,36865.2015167715,43360.32788280581,0.0,0.0,0.0,193.0,0.0,193.0,0.0,17.0,0.0,179.0,193.0,17.0,179.0,1744418807.3570623,0.0,2025-04-11 20:46:47.357,LEFT,35
235.0,8138.046638732749,-11969.090934883468,-21595.22731247274,-23698.5935209505,15470.15642764049,8571.469315465607,36656.145650881015,43410.61930783025,0.0,0.0,0.0,193.0,0.0,193.0,0.0,17.0,0.0,179.0,193.0,17.0,179.0,1744418807.357098,0.0,2025-04-11 20:46:47.357,LEFT,35
236.0,8154.2069499739355,-11953.914100398315,-21564.806588269068,-23676.95703231776,15505.74040481334,8750.126808896877,36443.11117447748,43525.484922586074,0.0,0.0,0.0,193.0,0.0,192.0,0.0,17.0,0.0,178.0,192.0,17.0,178.0,1744418807.357133,0.0,2025-04-11 20:46:47.357,LEFT,35
237.0,8138.225452688391,-11989.743946760173,-21526.562753506038,-23702.594483208,15704.872096165669,8643.017249467046,36710.05805850722,43554.98922526708,0.0,0.0,0.0,193.0,0.0,193.0,0.0,17.0,0.0,179.0,193.0,17.0,179.0,1744418807.3571684,0.0,2025-04-11 20:46:47.357,LEFT,35
238.0,8135.252670675835,-12003.46791785573,-21556.759960265157,-23733.663408000877,15677.088877807722,8375.533923570387,36882.30060127981,43434.84859881981,0.0,0.0,0.0,193.0,0.0,193.0,0.0,17.0,0.0,179.0,193.0,17.0,179.0,1744418807.3572114,0.0,2025-04-11 20:46:47.357,LEFT,35
239.0,8133.08455146367,-11984.357176346442,-21590.51109439267,-23706.617797209954,15546.174710532989,8479.983625410036,36686.32050589568,43437.329642454344,0.0,0.0,0.0,193.0,0.0,192.0,0.0,17.0,0.0,178.0,192.0,17.0,178.0,1744418807.3572693,0.0,2025-04-11 20:46:47.357,LEFT,35
240.0,8157.649118620053,-11939.273707780088,-21566.348858636484,-23670.07269502553,15511.753024071817,8706.764424653582,36424.738040535216,43553.469306644125,0.0,0.0,0.0,193.0,0.0,192.0,0.0,17.0,0.0,178.0,192.0,17.0,178.0,1744418807.3573253,0.0,2025-04-11 20:46:47.357,LEFT,35
241.0,8146.5179498813095,-11974.2765395971,-21524.193468593774,-23695.397221493393,15683.883808122137,8662.373860165342,36605.69776364539,43596.25054553158,0.0,0.0,0.0,193.0,0.0,193.0,0.0,17.0,0.0,179.0,193.0,17.0,179.0,1744418807.357386,0.0,2025-04-11 20:46:47.357,LEFT,35
242.0,8126.110807193614,-12013.079167971513,-21557.45286434327,-23745.331018606546,15690.835200647736,8408.882726297705,36874.41043548709,43502.75319847503,0.0,0.0,0.0,193.0,0.0,193.0,0.0,17.0,0.0,178.0,193.0,17.0,178.0,1744418807.357458,0.0,2025-04-11 20:46:47.357,LEFT,35
243.0,8135.520891609299,-11989.18515314879,-21580.497512876693,-23707.958901877275,15562.692649685461,8436.28596499991,36712.337936441654,43448.34905247081,0.0,0.0,0.0,193.0,0.0,193.0,0.0,17.0,0.0,179.0,193.0,17.0,179.0,1744418807.357528,0.0,2025-04-11 20:46:47.357,LEFT,35
244.0,8150.85418830564,-11958.384449289377,-21576.831826786023,-23680.35449747497,15490.518866839275,8706.362093253385,36448.229723957746,43561.985321281594,0.0,0.0,0.0,193.0,0.0,193.0,0.0,17.0,0.0,179.0,193.0,17.0,179.0,1744418807.3575916,0.0,2025-04-11 20:46:47.357,LEFT,35
245.0,8149.46838014941,-11972.153123873846,-21536.486928044193,-23692.670308669844,15627.557412094762,8708.77608165456,36528.18191387438,43606.86762414785,0.0,0.0,0.0,193.0,0.0,192.0,0.0,17.0,0.0,178.0,192.0,17.0,178.0,1744418807.3578155,0.0,2025-04-11 20:46:47.357,LEFT,35
246.0,8132.346943896645,-12008.072377213524,-21556.111759675954,-23738.290219103124,15701.519334497374,8481.592951010818,36866.16264178308,43534.023288968005,0.0,0.0,0.0,193.0,0.0,193.0,0.0,17.0,0.0,179.0,193.0,17.0,179.0,1744418807.3578587,0.0,2025-04-11 20:46:47.357,LEFT,35
247.0,8152.75408658434,-11980.177400133301,-21580.631623343423,-23707.35540477698,15580.08230687169,8419.835081080804,36751.45348923844,43431.38407842923,0.0,0.0,0.0,193.0,0.0,193.0,0.0,17.0,0.0,179.0,193.0,17.0,179.0,1744418807.3579016,0.0,2025-04-11 20:46:47.357,LEFT,35
248.0,8155.928034296994,-11949.711972440717,-21586.62189085745,-23674.5877474055,15488.998948216315,8690.224133756654,36488.03818083265,43544.68507107319,0.0,0.0,0.0,193.0,0.0,193.0,0.0,17.0,0.0,179.0,193.0,17.0,179.0,1744418807.3579435,0.0,2025-04-11 20:46:47.357,LEFT,35
249.0,8143.9922027578605,-11962.474818524697,-21545.628791526415,-23684.60132892148,15590.31940583222,8735.084084878456,36477.01877081618,43616.523577752545,0.0,0.0,0.0,193.0,0.0,193.0,0.0,17.0,0.0,178.0,193.0,17.0,178.0,1744418807.3580964,0.0,2025-04-11 20:46:47.358,LEFT,35
250.0,8130.0223624732935,-11997.768223019628,-21536.84455595548,-23724.07450962955,15701.675796708561,8528.933945767158,36835.92073153505,43574.658760387756,0.0,0.0,0.0,193.0,0.0,193.0,0.0,17.0,0.0,179.0,193.0,17.0,179.0,1744418807.358143,0.0,2025-04-11 20:46:47.358,LEFT,35
251.0,8136.057333476226,-11991.465031083231,-21572.942623250798,-23717.816021182065,15584.887931929581,8376.293882881866,36780.443701796976,43446.426802447655,0.0,0.0,0.0,193.0,0.0,193.0,0.0,17.0,0.0,179.0,193.0,17.0,179.0,1744418807.3581843,0.0,2025-04-11 20:46:47.358,LEFT,35
252.0,8152.530569139787,-11963.637109236373,-21594.310890950073,-23684.087238799006,15471.96691894137,8630.14264466079,36525.343242328556,43543.52278036151,0.0,0.0,0.0,193.0,0.0,193.0,0.0,17.0,0.0,178.0,193.0,17.0,178.0,1744418807.3582215,0.0,2025-04-11 20:46:47.358,LEFT,35
253.0,8173.675319394508,-11949.60021371844,-21547.21576538274,-23668.619831635933,15545.101826799135,8730.792549943037,36412.62339504044,43617.842330675405,0.0,0.0,0.0,193.0,0.0,193.0,0.0,17.0,0.0,179.0,193.0,17.0,179.0,1744418807.3582628,0.0,2025-04-11 20:46:47.358,LEFT,35
254.0,8140.035943989271,-11992.247342139166,-21535.97283792172,-23717.994835137706,15704.91679965458,8580.186495803178,36781.360123319646,43607.76169392606,0.0,0.0,0.0,193.0,0.0,193.0,0.0,17.0,0.0,179.0,193.0,17.0,179.0,1744418807.3582995,0.0,2025-04-11 20:46:47.358,LEFT,35
255.0,8148.3954964155555,-11976.42230706481,-21556.961125965256,-23712.56336123507,15624.85285101567,8379.333720127788,36799.889719473096,43465.06815732338,0.0,0.0,0.0,193.0,0.0,193.0,0.0,17.0,0.0,178.0,193.0,17.0,178.0,1744418807.3583348,0.0,2025-04-11 20:46:47.358,LEFT,35
0.0,8144.886272536072,-11965.626414492895,-21585.012565256664,-23682.477913198225,15511.060119993703,8615.144624131277,36577.57926912061,43544.81918153992,0.0,0.0,0.0,193.0,0.0,193.0,0.0,17.0,0.0,179.0,193.0,17.0,179.0,1744418807.3583727,0.0,2025-04-11 20:46:47.358,LEFT,35
1.0,8162.499447166854,-11955.74694344365,-21552.535480563103,-23669.5362531586,15520.224335220379,8756.675870022282,36402.520406546646,43641.98221468714,0.0,0.0,0.0,193.0,0.0,192.0,0.0,17.0,0.0,178.0,192.0,17.0,178.0,1744418807.358415,0.0,2025-04-11 20:46:47.358,LEFT,35
2.0,8148.417848160011,-11981.339690844976,-21520.796003436568,-23698.817038395053,15704.223895576466,8639.977412221124,36725.39135520355,43655.102688682404,0.0,0.0,0.0,193.0,0.0,193.0,0.0,17.0,0.0,179.0,193.0,17.0,179.0,1744418807.3584545,0.0,2025-04-11 20:46:47.358,LEFT,35
3.0,8140.102999222637,-11986.70410951425,-21565.27597490263,-23726.75671896419,15652.658421118073,8397.081005225302,36849.26472297487,43528.25653889854,0.0,0.0,0.0,193.0,0.0,193.0,0.0,17.0,0.0,179.0,193.0,17.0,179.0,1744418807.3584971,0.0,2025-04-11 20:46:47.358,LEFT,35
4.0,8141.689973078964,-11969.046231394557,-21600.18939974182,-23698.5935209505,15531.02022779229,8555.778390857982,36643.09223211911,43558.632559613296,0.0,0.0,0.0,193.0,0.0,193.0,0.0,17.0,0.0,179.0,193.0,17.0,179.0,1744418807.3586128,0.0,2025-04-11 20:46:47.358,LEFT,35
5.0,8156.75504884184,-11941.88886188136,-21583.403239655883,-23679.795703863587,15504.3098931682,8751.803189731025,36406.20844438177,43659.997720718115,0.0,0.0,0.0,193.0,0.0,193.0,0.0,17.0,0.0,179.0,193.0,17.0,179.0,1744418807.3586557,0.0,2025-04-11 20:46:47.358,LEFT,35
6.0,8145.199196958447,-11977.2269698652,-21539.459710056748,-23697.92296861684,15696.534895483841,8675.606092882883,36647.07084263216,43678.97435176067,0.0,0.0,0.0,193.0,0.0,193.0,0.0,17.0,0.0,178.0,193.0,17.0,178.0,1744418807.3586938,0.0,2025-04-11 20:46:47.358,LEFT,35
7.0,8129.754141539829,-12016.633095339907,-21575.535425607613,-23743.11819590547,15672.52912193884,8418.80690083586,36865.06740630477,43563.527591649006,0.0,0.0,0.0,193.0,0.0,193.0,0.0,17.0,0.0,179.0,193.0,17.0,179.0,1744418807.358732,0.0,2025-04-11 20:46:47.358,LEFT,35
8.0,8135.207967186924,-11983.887789712882,-21598.624777629946,-23708.808268166576,15533.098940026635,8494.735776750538,36674.49643307882,43539.18654193718,0.0,0.0,0.0,193.0,0.0,193.0,0.0,17.0,0.0,179.0,193.0,17.0,179.0,1744418807.3588269,0.0,2025-04-11 20:46:47.358,LEFT,35
9.0,8159.414906432022,-11938.670210679795,-21578.865835531455,-23669.40214269187,15482.718108024374,8712.039436345034,36397.401857066376,43637.86949370736,0.0,0.0,0.0,193.0,0.0,193.0,0.0,17.0,0.0,179.0,193.0,17.0,179.0,1744418807.3588655,0.0,2025-04-11 20:46:47.358,LEFT,35
10.0,8161.337156455178,-11952.930623642282,-21522.07005287052,-23681.5391399311,15655.251223474888,8674.689671360216,36547.80674550614,43673.699340069215,0.0,0.0,0.0,193.0,0.0,193.0,0.0,17.0,0.0,178.0,193.0,17.0,178.0,1744418807.3589005,0.0,2025-04-11 20:46:47.358,LEFT,35
11.0,8144.618051602609,-11985.497115313663,-21545.002942681665,-23724.678006729842,15693.696223938015,8446.120732560246,36849.04120553031,43590.662609417755,0.0,0.0,0.0,193.0,0.0,193.0,0.0,17.0,0.0,179.0,193.0,17.0,179.0,1744418807.3589375,0.0,2025-04-11 20:46:47.358,LEFT,35
12.0,8145.422714403,-11963.234777836178,-21576.250681430185,-23696.581863949523,15563.474960741398,8448.490017472508,36699.95507001341,43519.11467541631,0.0,0.0,0.0,193.0,0.0,193.0,0.0,17.0,0.0,179.0,193.0,17.0,179.0,1744418807.3589728,0.0,2025-04-11 20:46:47.358,LEFT,35
13.0,8162.007708788838,-11931.003562331625,-21571.489759861204,-23665.892918812388,15491.457640106397,8720.242526560132,36429.633072570934,43631.43219130423,0.0,0.0,0.0,193.0,0.0,193.0,0.0,17.0,0.0,179.0,193.0,17.0,179.0,1744418807.3590093,0.0,2025-04-11 20:46:47.359,LEFT,35
14.0,8175.575217673209,-11935.585669944963,-21516.616227223425,-23664.44005542279,15626.417473127542,8733.810035444503,36480.70680865131,43673.297008669026,0.0,0.0,0.0,193.0,0.0,193.0,0.0,17.0,0.0,179.0,193.0,17.0,179.0,1744418807.359048,0.0,2025-04-11 20:46:47.359,LEFT,35
15.0,8156.5538831417425,-11969.627376750395,-21526.562753506038,-23708.607102466478,15712.695206725028,8519.054474717912,36837.46300190246,43608.20872881517,0.0,0.0,0.0,193.0,0.0,193.0,0.0,17.0,0.0,179.0,193.0,17.0,179.0,1744418807.3590956,0.0,2025-04-11 20:46:47.359,LEFT,35
16.0,8148.417848160011,-11958.965594645215,-21561.431474856316,-23698.034727339116,15591.258179099344,8434.67663939913,36753.75571891734,43506.552995032434,0.0,0.0,0.0,193.0,0.0,193.0,0.0,17.0,0.0,179.0,193.0,17.0,179.0,1744418807.3591323,0.0,2025-04-11 20:46:47.359,LEFT,35
17.0,8149.021345260304,-11943.252318293133,-21579.22346344274,-23673.380753204914,15476.794895743717,8695.230924514643,36493.961393113306,43619.74222895411,0.0,0.0,0.0,193.0,0.0,193.0,0.0,17.0,0.0,179.0,193.0,17.0,179.0,1744418807.359171,0.0,2025-04-11 20:46:47.359,LEFT,35
18.0,8167.126258269103,-11944.012277604614,-21527.903858173355,-23671.033820037108,15572.773286434805,8738.369791313386,36433.07524121705,43679.510793627596,0.0,0.0,0.0,193.0,0.0,193.0,0.0,17.0,0.0,179.0,193.0,17.0,179.0,1744418807.3592105,0.0,2025-04-11 20:46:47.359,LEFT,35
19.0,8150.764781327818,-11979.998586177659,-21522.40532903735,-23713.61389322447,15716.606762004705,8560.516960682507,36791.70898100245,43649.55945605749,0.0,0.0,0.0,193.0,0.0,193.0,0.0,17.0,0.0,179.0,193.0,17.0,179.0,1744418807.3592477,0.0,2025-04-11 20:46:47.359,LEFT,35
20.0,8151.569444128209,-11964.575882503495,-21558.12341667693,-23705.008471609173,15613.051129943267,8406.960476274548,36754.582733462186,43517.84062598236,0.0,0.0,0.0,193.0,0.0,193.0,0.0,17.0,0.0,179.0,193.0,17.0,179.0,1744418807.359328,0.0,2025-04-11 20:46:47.359,LEFT,35
21.0,8158.342022698167,-11928.41075997481,-21575.825998285534,-23671.324392715025,15505.315721668689,8654.886025772814,36510.54638749914,43612.9920021286,0.0,0.0,0.0,193.0,0.0,193.0,0.0,17.0,0.0,179.0,193.0,17.0,179.0,1744418807.3593657,0.0,2025-04-11 20:46:47.359,LEFT,35
22.0,8180.961988086938,-11907.824803331472,-21530.228439596707,-23653.97943901771,15562.826760152193,8762.39791660284,36381.599173736475,43696.922802558285,0.0,0.0,0.0,193.0,0.0,193.0,0.0,17.0,0.0,178.0,193.0,17.0,178.0,1744418807.3594036,0.0,2025-04-11 20:46:47.359,LEFT,35
23.0,8164.779325101295,-11948.46027475122,-21513.01759636612,-23694.68196567082,15725.368645831186,8624.88998471379,36745.73144265788,43694.262944968104,0.0,0.0,0.0,193.0,0.0,193.0,0.0,17.0,0.0,179.0,193.0,17.0,179.0,1744418807.3594716,0.0,2025-04-11 20:46:47.359,LEFT,35
24.0,8158.699650609452,-11957.468027766708,-21555.105931175465,-23717.234875826227,15626.305714405265,8410.536755387397,36801.94607996298,43551.502353132055,0.0,0.0,0.0,193.0,0.0,192.0,0.0,17.0,0.0,179.0,192.0,17.0,179.0,1744418807.3595104,0.0,2025-04-11 20:46:47.359,LEFT,35
25.0,8166.031022790793,-11929.46129196421,-21578.731725064725,-23683.93077658782,15495.927988997459,8609.623743250817,36565.50932711474,43606.040609603006,0.0,0.0,0.0,193.0,0.0,193.0,0.0,17.0,0.0,179.0,193.0,17.0,179.0,1744418807.3595457,0.0,2025-04-11 20:46:47.359,LEFT,35
26.0,8184.828839877706,-11906.64016087534,-21545.807605482056,-23665.714104856743,15524.02413177778,8765.057774193023,36370.37859801991,43706.10936952941,0.0,0.0,0.0,193.0,0.0,193.0,0.0,17.0,0.0,178.0,193.0,17.0,178.0,1744418807.3595848,0.0,2025-04-11 20:46:47.359,LEFT,35
27.0,8165.785153601784,-11950.516635241109,-21523.25469532665,-23708.964730377764,15704.179192087555,8658.149380463288,36685.26997390628,43726.4718087282,0.0,0.0,0.0,193.0,0.0,192.0,0.0,17.0,0.0,179.0,192.0,17.0,179.0,1744418807.3596244,0.0,2025-04-11 20:46:47.359,LEFT,35
28.0,8160.063107021226,-11959.971423145704,-21558.816320755046,-23728.500155031703,15661.1967875,8400.009083748948,36811.04323995629,43580.89489709078,0.0,0.0,0.0,193.0,0.0,193.0,0.0,17.0,0.0,178.0,193.0,17.0,178.0,1744418807.3596623,0.0,2025-04-11 20:46:47.359,LEFT,35
29.0,8168.087383280681,-11938.513748468607,-21586.018393757153,-23694.056116826072,15542.64313490905,8529.939774267646,36594.07485652863,43583.465347703146,0.0,0.0,0.0,193.0,0.0,192.0,0.0,17.0,0.0,178.0,192.0,17.0,178.0,1744418807.3597,0.0,2025-04-11 20:46:47.359,LEFT,35
30.0,8177.631578163097,-11923.895707594838,-21573.27789941763,-23682.053230053574,15520.40314917602,8735.464064534195,36368.948086374774,43701.102578771424,0.0,0.0,0.0,193.0,0.0,193.0,0.0,17.0,0.0,179.0,193.0,17.0,179.0,1744418807.3597372,0.0,2025-04-11 20:46:47.359,LEFT,35
31.0,8151.927072039494,-11964.821751692505,-21554.189509652795,-23720.565285750068,15680.95572959849,8680.657587129783,36621.83572314212,43762.68163474579,0.0,0.0,0.0,193.0,0.0,193.0,0.0,17.0,0.0,179.0,193.0,17.0,179.0,1744418807.3597708,0.0,2025-04-11 20:46:47.359,LEFT,35
32.0,8150.697726094452,-11971.527275029097,-21577.9941174977,-23750.091940175527,15649.52917689433,8431.279174241921,36849.73410960843,43652.3534241144,0.0,0.0,0.0,193.0,0.0,192.0,0.0,17.0,0.0,179.0,192.0,17.0,179.0,1744418807.3598046,0.0,2025-04-11 20:46:47.359,LEFT,35
33.0,8158.856112820639,-11940.927736869782,-21596.32254795105,-23707.087183843516,15520.44785266493,8502.022445442968,36662.2029736284,43618.06584811996,0.0,0.0,0.0,193.0,0.0,193.0,0.0,17.0,0.0,179.0,193.0,17.0,179.0,1744418807.3598456,0.0,2025-04-11 20:46:47.359,LEFT,35
34.0,8176.491639195877,-11906.148422497323,-21590.153466481384,-23684.623680665933,15466.758962483284,8747.377544328874,36389.2881738291,43737.58062572248,0.0,0.0,0.0,193.0,0.0,193.0,0.0,17.0,0.0,179.0,193.0,17.0,179.0,1744418807.3598828,0.0,2025-04-11 20:46:47.359,LEFT,35
35.0,8179.129145041603,-11903.175640484767,-21536.88925944439,-23694.50315171518,15648.970383282947,8717.225041058666,36502.835035662065,43772.31523660603,0.0,0.0,0.0,193.0,0.0,193.0,0.0,17.0,0.0,179.0,193.0,17.0,179.0,1744418807.3599489,0.0,2025-04-11 20:46:47.359,LEFT,35
36.0,8162.275929722301,-11948.996716618147,-21555.50826257566,-23735.138623134928,15705.430889777052,8478.642520742718,36809.590376566695,43684.83050880796,0.0,0.0,0.0,193.0,0.0,193.0,0.0,17.0,0.0,180.0,193.0,17.0,180.0,1744418807.3599906,0.0,2025-04-11 20:46:47.359,LEFT,35
37.0,8170.479019937399,-11942.760579915117,-21585.32548967904,-23703.600311708487,15569.956966633436,8456.804866409882,36670.607229543595,43608.02991485953,0.0,0.0,0.0,193.0,0.0,193.0,0.0,17.0,0.0,179.0,193.0,17.0,179.0,1744418807.3600264,0.0,2025-04-11 20:46:47.360,LEFT,35
38.0,8180.403194475555,-11916.296114480034,-21594.51205665017,-23677.180549762317,15474.067982920169,8730.591384242938,36412.39987759589,43738.8770269009,0.0,0.0,0.0,193.0,0.0,193.0,0.0,17.0,0.0,179.0,193.0,17.0,179.0,1744418807.3600614,0.0,2025-04-11 20:46:47.360,LEFT,35
39.0,8197.167002817036,-11910.328198710466,-21542.946582191777,-23676.912328828854,15591.414641310532,8733.25124183312,36424.76039227968,43782.50763207765,0.0,0.0,0.0,193.0,0.0,193.0,0.0,17.0,0.0,179.0,193.0,17.0,179.0,1744418807.3601148,0.0,2025-04-11 20:46:47.360,LEFT,35
40.0,8167.260368735835,-11957.088048110969,-21560.425646355827,-23736.435024313334,15688.287101779832,8528.263393433499,36795.553481048766,43743.682651958785,0.0,0.0,0.0,193.0,0.0,193.0,0.0,17.0,0.0,179.0,193.0,17.0,179.0,1744418807.36015,0.0,2025-04-11 20:46:47.360,LEFT,35
41.0,8175.61992116212,-11946.2698037946,-21598.46831541876,-23730.22123935476,15557.372934505098,8416.415264179142,36709.409857918006,43637.51186579608,0.0,0.0,0.0,193.0,0.0,193.0,0.0,17.0,0.0,178.0,193.0,17.0,178.0,1744418807.3601837,0.0,2025-04-11 20:46:47.360,LEFT,35
42.0,8192.42843299251,-11915.312637723999,-21609.04069054612,-23696.671270927345,15461.796875214206,8684.300921475999,36443.24528494421,43743.36972753641,0.0,0.0,0.0,193.0,0.0,193.0,0.0,17.0,0.0,178.0,193.0,17.0,178.0,1744418807.3602176,0.0,2025-04-11 20:46:47.360,LEFT,35
43.0,8200.296247040778,-11910.2611434771,-21563.085503946008,-23698.83939013951,15538.977448818381,8752.54079729805,36374.17839457731,43814.60473711547,0.0,0.0,0.0,193.0,0.0,193.0,0.0,17.0,0.0,179.0,193.0,17.0,179.0,1744418807.360252,0.0,2025-04-11 20:46:47.360,LEFT,35
44.0,8170.300205981756,-11934.401027488831,-21545.69584675978,-23734.93745743483,15684.174380800056,8585.617969705818,36754.40391950654,43801.05957997556,0.0,0.0,0.0,193.0,0.0,192.0,0.0,17.0,0.0,178.0,192.0,17.0,178.0,1744418807.3602853,0.0,2025-04-11 20:46:47.360,LEFT,35
45.0,8173.183581016491,-11924.45450120622,-21578.619966342445,-23728.634265498433,15575.768420191816,8412.28019145491,36747.83250663668,43674.07931972496,0.0,0.0,0.0,193.0,0.0,193.0,0.0,17.0,0.0,179.0,193.0,17.0,179.0,1744418807.3603191,0.0,2025-04-11 20:46:47.360,LEFT,35
46.0,8189.969741102427,-11905.813146330494,-21589.12528623644,-23681.5391399311,15472.548064297209,8653.746086805593,36494.095503580036,43746.09664035996,0.0,0.0,0.0,193.0,0.0,193.0,0.0,17.0,0.0,179.0,193.0,17.0,179.0,1744418807.3603532,0.0,2025-04-11 20:46:47.360,LEFT,35
47.0,8206.2865145548,-11894.950198525215,-21548.065131672043,-23672.754904360165,15521.654846865518,8774.132582441876,36348.831516365,43827.70285936628,0.0,0.0,0.0,193.0,0.0,192.0,0.0,17.0,0.0,178.0,192.0,17.0,178.0,1744418807.360388,0.0,2025-04-11 20:46:47.360,LEFT,35
48.0,8181.878409609606,-11933.328143754978,-21528.77557620711,-23719.626512482944,15707.330788055753,8632.064894683945,36700.178587457965,43829.312184967064,0.0,0.0,0.0,193.0,0.0,193.0,0.0,17.0,0.0,179.0,193.0,17.0,179.0,1744418807.3604228,0.0,2025-04-11 20:46:47.360,LEFT,35
49.0,8181.4313747205,-11936.926774612282,-21567.84642551499,-23731.02590215515,15626.395121383086,8403.272438439422,36773.291143571274,43688.27267745408,0.0,0.0,0.0,193.0,0.0,193.0,0.0,17.0,0.0,179.0,193.0,17.0,179.0,1744418807.3604572,0.0,2025-04-11 20:46:47.360,LEFT,35
50.0,8182.6160171766305,-11921.794643616038,-21599.854123574987,-23698.504113972678,15495.011567474792,8607.835603694391,36553.81936476462,43735.88189314388,0.0,0.0,0.0,193.0,0.0,193.0,0.0,17.0,0.0,179.0,193.0,17.0,179.0,1744418807.360509,0.0,2025-04-11 20:46:47.360,LEFT,35
51.0,8192.070805081226,-11904.494393407631,-21578.731725064725,-23691.485666213714,15500.35363439961,8781.486306367673,36345.41169946334,43836.665908892865,0.0,0.0,0.0,193.0,0.0,193.0,0.0,17.0,0.0,179.0,193.0,17.0,179.0,1744418807.3605444,0.0,2025-04-11 20:46:47.360,LEFT,35
52.0,8190.684996924997,-11932.50112921013,-21543.21480312524,-23720.654692727887,15685.873113378659,8679.76351735157,36626.708403433375,43848.66879566536,0.0,0.0,0.0,193.0,0.0,193.0,0.0,17.0,0.0,179.0,193.0,17.0,179.0,1744418807.3605788,0.0,2025-04-11 20:46:47.360,LEFT,35
53.0,8192.115508570136,-11938.290231024055,-21565.991230725198,-23740.88302145994,15655.005354285879,8426.250031739477,36783.304725087255,43709.30566898652,0.0,0.0,0.0,193.0,0.0,193.0,0.0,17.0,0.0,178.0,193.0,17.0,178.0,1744418807.360622,0.0,2025-04-11 20:46:47.360,LEFT,35
54.0,8173.541208927776,-11925.259164006611,-21588.566492625057,-23704.650843697887,15539.335076729665,8561.142809527255,36589.783321593204,43716.30176500104,0.0,0.0,0.0,193.0,0.0,193.0,0.0,17.0,0.0,179.0,193.0,17.0,179.0,1744418807.360674,0.0,2025-04-11 20:46:47.360,LEFT,35
55.0,8189.500354468865,-11893.922018280271,-21568.539329593103,-23678.342840473993,15495.100974452613,8777.664158065816,36348.49624019817,43835.07893503654,0.0,0.0,0.0,193.0,0.0,193.0,0.0,17.0,0.0,179.0,193.0,17.0,179.0,1744418807.360708,0.0,2025-04-11 20:46:47.360,LEFT,35
56.0,8188.472174223921,-11915.133823768358,-21526.942733161777,-23699.39818375089,15652.457255417974,8708.418453743274,36548.76787051772,43866.505487740695,0.0,0.0,0.0,193.0,0.0,193.0,0.0,17.0,0.0,179.0,193.0,17.0,179.0,1744418807.3607411,0.0,2025-04-11 20:46:47.360,LEFT,35
57.0,8180.783174131296,-11943.297021782044,-21555.709428275757,-23734.915105690376,15668.550511425796,8467.176075837146,36808.91982423304,43768.20251562625,0.0,0.0,0.0,193.0,0.0,193.0,0.0,17.0,0.0,179.0,193.0,17.0,179.0,1744418807.3607788,0.0,2025-04-11 20:46:47.360,LEFT,35
58.0,8178.927979341505,-11926.555565185019,-21593.014489771664,-23708.562398977567,15531.22139349239,8513.69005604864,36656.1009473921,43728.12583781789,0.0,0.0,0.0,193.0,0.0,193.0,0.0,17.0,0.0,179.0,193.0,17.0,179.0,1744418807.360813,0.0,2025-04-11 20:46:47.360,LEFT,35
59.0,8188.293360268279,-11898.325311937966,-21597.954225296286,-23692.58090169202,15447.67057271845,8756.273538622087,36497.78354141516,43840.778629872635,0.0,0.0,0.0,193.0,0.0,193.0,0.0,17.0,0.0,179.0,193.0,17.0,179.0,1744418807.360846,0.0,2025-04-11 20:46:47.360,LEFT,35
60.0,8188.516877712832,-11911.35637895541,-21553.74247476369,-23709.67998620033,15566.783018920783,8721.58363122745,36720.69748886794,43888.76782521818,0.0,0.0,0.0,193.0,0.0,193.0,0.0,17.0,0.0,179.0,193.0,17.0,179.0,1744418807.3608797,0.0,2025-04-11 20:46:47.360,LEFT,35
61.0,8179.486772952888,-11943.900518882338,-21564.381905124417,-23749.577850053054,15634.262935431354,8489.952503437104,37110.80248484641,43815.565862127056,0.0,0.0,0.0,193.0,0.0,193.0,0.0,17.0,0.0,179.0,193.0,17.0,179.0,1744418807.3609128,0.0,2025-04-11 20:46:47.360,LEFT,35
62.0,8181.990168331882,-11945.755713672128,-21601.239931731216,-23737.485556302734,15530.394378947543,8449.182921550622,37029.21861758454,43720.950927847734,0.0,0.0,0.0,193.0,0.0,193.0,0.0,17.0,0.0,179.0,193.0,17.0,179.0,1744418807.360946,0.0,2025-04-11 20:46:47.360,LEFT,35
63.0,8188.516877712832,-11918.486585436653,-21597.238969473718,-23696.4924569717,15463.719125237361,8729.563203997994,36790.8819664576,43839.884560094426,0.0,0.0,0.0,193.0,0.0,193.0,0.0,17.0,0.0,179.0,193.0,17.0,179.0,1744418807.3609796,0.0,2025-04-11 20:46:47.360,LEFT,35
64.0,8192.76370915934,-11917.413701702799,-21541.203146124262,-23695.08429707102,15603.439879827487,8778.245303421654,36820.58743483871,43905.4645783263,0.0,0.0,0.0,193.0,0.0,193.0,0.0,17.0,0.0,179.0,193.0,17.0,179.0,1744418807.3610134,0.0,2025-04-11 20:46:47.361,LEFT,35
65.0,8175.2175897619245,-11950.673097452296,-21541.96310543574,-23740.36893133747,15714.796270703826,8577.370176001808,37200.90236674576,43853.96615910127,0.0,0.0,0.0,193.0,0.0,193.0,0.0,17.0,0.0,179.0,193.0,17.0,179.0,1744418807.3610651,0.0,2025-04-11 20:46:47.361,LEFT,35
66.0,8178.525647941309,-11930.17654778678,-21577.211806441763,-23723.426309040347,15587.41367905303,8440.018706323946,37133.24363627954,43716.23470976767,0.0,0.0,0.0,193.0,0.0,193.0,0.0,17.0,0.0,179.0,193.0,17.0,179.0,1744418807.3611014,0.0,2025-04-11 20:46:47.361,LEFT,35
67.0,8185.030005577804,-11894.346701424922,-21588.141809480407,-23681.82971260902,15488.26134064929,8705.646837430815,36882.12178732417,43812.682487092316,0.0,0.0,0.0,193.0,0.0,193.0,0.0,17.0,0.0,179.0,193.0,17.0,179.0,1744418807.361138,0.0,2025-04-11 20:46:47.361,LEFT,35
68.0,8199.066901095737,-11891.217457201179,-21545.919364204332,-23685.49539869969,15569.062896855225,8792.393957661863,36809.90330098907,43887.85140369552,0.0,0.0,0.0,193.0,0.0,193.0,0.0,17.0,0.0,178.0,193.0,17.0,178.0,1744418807.3611736,0.0,2025-04-11 20:46:47.361,LEFT,35
69.0,8170.434316448488,-11946.962707872714,-21542.633657769402,-23734.043387656617,15715.645636993127,8632.556633061962,37196.07438994341,43880.94471465883,0.0,0.0,0.0,193.0,0.0,193.0,0.0,17.0,0.0,179.0,193.0,17.0,179.0,1744418807.3612287,0.0,2025-04-11 20:46:47.361,LEFT,35
70.0,8181.654892165053,-11939.787797902562,-21572.428533128328,-23728.41074805388,15610.883010731104,8437.872938856237,37202.623451068815,43739.636986212376,0.0,0.0,0.0,193.0,0.0,193.0,0.0,17.0,0.0,178.0,193.0,17.0,178.0,1744418807.361264,0.0,2025-04-11 20:46:47.361,LEFT,35
71.0,8191.2437905363795,-11907.757748098105,-21593.059193260575,-23693.45261972578,15487.613140060084,8670.934578291724,36965.0244075089,43812.86130104796,0.0,0.0,0.0,193.0,0.0,193.0,0.0,17.0,0.0,179.0,193.0,17.0,179.0,1744418807.3613005,0.0,2025-04-11 20:46:47.361,LEFT,35
72.0,8195.065938838237,-11907.489527164642,-21575.803646541077,-23694.12317205944,15505.874515280071,8801.669931610815,36805.36589686464,43908.79498825014,0.0,0.0,0.0,193.0,0.0,193.0,0.0,17.0,0.0,179.0,193.0,17.0,179.0,1744418807.3613355,0.0,2025-04-11 20:46:47.361,LEFT,35
73.0,8169.070860036714,-11954.361135287421,-21552.155500907364,-23734.35631207899,15664.974232312947,8649.23103442562,37123.699441397126,43914.047648197135,0.0,0.0,0.0,193.0,0.0,193.0,0.0,17.0,0.0,179.0,193.0,17.0,179.0,1744418807.3613696,0.0,2025-04-11 20:46:47.361,LEFT,35
74.0,8165.338118712679,-11962.206597591234,-21583.55970186707,-23749.399036097413,15587.860713942136,8405.127633229213,37217.66617508724,43792.47651010472,0.0,0.0,0.0,193.0,0.0,193.0,0.0,17.0,0.0,178.0,193.0,17.0,178.0,1744418807.3614025,0.0,2025-04-11 20:46:47.361,LEFT,35
75.0,8180.425546220011,-11929.707161153217,-21598.401260185394,-23700.761640162666,15468.435343317431,8590.89298139727,36994.908689845644,43836.26357749267,0.0,0.0,0.0,193.0,0.0,193.0,0.0,17.0,0.0,179.0,193.0,17.0,179.0,1744418807.361436,0.0,2025-04-11 20:46:47.361,LEFT,35
76.0,8205.90653489906,-11894.167887469279,-21568.248756915185,-23681.472084697736,15473.196264886412,8797.26663795312,36775.973352905916,43951.06213701512,0.0,0.0,0.0,193.0,0.0,193.0,0.0,17.0,0.0,179.0,193.0,17.0,179.0,1744418807.3614695,0.0,2025-04-11 20:46:47.361,LEFT,35
77.0,8188.3827672461,-11921.325256982476,-21525.266352327628,-23711.825753668043,15677.647671419105,8721.58363122745,37048.30700734937,43984.18742229789,0.0,0.0,0.0,193.0,0.0,193.0,0.0,17.0,0.0,179.0,193.0,17.0,179.0,1744418807.361503,0.0,2025-04-11 20:46:47.361,LEFT,35
78.0,8164.600511145653,-11945.643954949852,-21559.151596921874,-23750.963658209286,15647.539871637808,8467.600758981796,37245.02471030053,43867.08663309654,0.0,0.0,0.0,193.0,0.0,193.0,0.0,17.0,0.0,179.0,193.0,17.0,179.0,1744418807.3615365,0.0,2025-04-11 20:46:47.361,LEFT,35
79.0,8170.322557726212,-11916.810204602505,-21591.069888004055,-23718.374814793446,15507.59559960313,8563.087411294868,37057.58298129833,43862.05749059409,0.0,0.0,0.0,193.0,0.0,193.0,0.0,17.0,0.0,179.0,193.0,17.0,179.0,1744418807.3615696,0.0,2025-04-11 20:46:47.361,LEFT,35
80.0,8206.733549443907,-11881.092116962924,-21566.572376081036,-23676.01825905064,15466.356631083088,8780.9722162452,36790.993725179884,43970.17287852441,0.0,0.0,0.0,193.0,0.0,193.0,0.0,17.0,0.0,179.0,193.0,17.0,179.0,1744418807.3616188,0.0,2025-04-11 20:46:47.361,LEFT,35
81.0,8200.989151118893,-11919.000675559126,-21523.411157537837,-23690.5915964355,15623.064711459247,8748.897462951834,36971.9758000345,44014.3399255681,0.0,0.0,0.0,193.0,0.0,193.0,0.0,17.0,0.0,179.0,193.0,17.0,179.0,1744418807.361652,0.0,2025-04-11 20:46:47.361,LEFT,35
82.0,8182.392499732077,-11947.253280550633,-21546.276992115618,-23732.32230333356,15658.603985143183,8505.911648978192,37256.51350695056,43927.27988091468,0.0,0.0,0.0,193.0,0.0,193.0,0.0,17.0,0.0,178.0,193.0,17.0,178.0,1744418807.3616853,0.0,2025-04-11 20:46:47.361,LEFT,35
83.0,8182.481906709899,-11926.35439948492,-21575.55777735207,-23698.906445372875,15553.975469347892,8528.755131811517,37103.47111266507,43877.99428439073,0.0,0.0,0.0,193.0,0.0,193.0,0.0,17.0,0.0,179.0,193.0,17.0,179.0,1744418807.361719,0.0,2025-04-11 20:46:47.361,LEFT,35
84.0,8202.732587186407,-11888.758765311095,-21574.954280251775,-23663.97066878923,15485.668538292473,8790.583466360982,36834.445516401,44005.73450395281,0.0,0.0,0.0,193.0,0.0,193.0,0.0,17.0,0.0,179.0,193.0,17.0,179.0,1744418807.3617673,0.0,2025-04-11 20:46:47.361,LEFT,35
85.0,8208.097005855681,-11887.887047277338,-21530.608419252447,-23672.64314563789,15617.253257900866,8783.721480813203,36902.23835733395,44059.177524945444,0.0,0.0,0.0,193.0,0.0,193.0,0.0,17.0,0.0,179.0,193.0,17.0,179.0,1744418807.3618011,0.0,2025-04-11 20:46:47.361,LEFT,35
86.0,8184.2029910329575,-11919.961800570703,-21551.820224740535,-23727.851954442496,15682.363889499175,8543.97666978558,37234.96642529564,43987.04844558817,0.0,0.0,0.0,193.0,0.0,193.0,0.0,17.0,0.0,179.0,193.0,17.0,179.0,1744418807.3618348,0.0,2025-04-11 20:46:47.361,LEFT,35
87.0,8184.247694521868,-11909.16590799879,-21577.16710295285,-23702.862704141466,15568.3252892882,8476.92143641966,37124.191179775145,43885.30330482761,0.0,0.0,0.0,193.0,0.0,193.0,0.0,17.0,0.0,179.0,193.0,17.0,179.0,1744418807.3618698,0.0,2025-04-11 20:46:47.361,LEFT,35
88.0,8195.021235349326,-11882.433221630243,-21586.286614690616,-23666.943450801784,15477.107820166091,8765.616567804405,36868.19665052851,44007.67910572042,0.0,0.0,0.0,193.0,0.0,192.0,0.0,17.0,0.0,179.0,192.0,17.0,179.0,1744418807.3619044,0.0,2025-04-11 20:46:47.361,LEFT,35
89.0,8211.047436123781,-11873.984262226137,-21534.20705010975,-23661.422569921324,15583.971510406915,8813.98574280569,36837.194780969,44066.44184189342,0.0,0.0,0.0,193.0,0.0,193.0,0.0,17.0,0.0,179.0,193.0,17.0,179.0,1744418807.3619387,0.0,2025-04-11 20:46:47.361,LEFT,35
90.0,8182.593665432176,-11916.296114480034,-21543.01363742514,-23715.6479019699,15703.530991498352,8621.045484667478,37215.140427963786,44041.363184614565,0.0,0.0,0.0,193.0,0.0,193.0,0.0,17.0,0.0,179.0,193.0,17.0,179.0,1744418807.361972,0.0,2025-04-11 20:46:47.361,LEFT,35
91.0,8189.522706213321,-11902.460384662198,-21576.004812241175,-23709.590579222513,15580.305824316243,8472.004052639491,37161.585648248874,43913.712372030306,0.0,0.0,0.0,193.0,0.0,193.0,0.0,17.0,0.0,179.0,193.0,17.0,179.0,1744418807.3620057,0.0,2025-04-11 20:46:47.362,LEFT,35
92.0,8199.759805173851,-11875.414773871276,-21595.65199561739,-23678.49930268518,15460.38871531352,8727.260974319099,36907.20044460302,44006.29329756419,0.0,0.0,0.0,193.0,0.0,193.0,0.0,17.0,0.0,180.0,193.0,17.0,180.0,1744418807.3620396,0.0,2025-04-11 20:46:47.362,LEFT,35
93.0,8211.67328496853,-11864.261253388078,-21561.185605667306,-23667.189319990794,15511.97654151637,8821.384170220395,36799.241518883886,44085.463176424884,0.0,0.0,0.0,193.0,0.0,193.0,0.0,17.0,0.0,179.0,193.0,17.0,179.0,1744418807.837072,0.0,2025-04-11 20:46:47.837,LEFT,35
94.0,8191.690825425485,-11903.73443409615,-21541.471367057726,-23706.461334998767,15675.233683017932,8663.938482277214,37163.93258141668,44081.46221416738,0.0,0.0,0.0,193.0,0.0,193.0,0.0,17.0,0.0,179.0,193.0,17.0,179.0,1744418807.8372507,0.0,2025-04-11 20:46:47.837,LEFT,35
95.0,8194.462441737944,-11911.69165512224,-21566.28180340312,-23711.11049784547,15608.938408963491,8447.372430249743,37184.00444793754,43937.807552553124,0.0,0.0,0.0,193.0,0.0,193.0,0.0,17.0,0.0,179.0,193.0,17.0,179.0,1744418807.8373296,0.0,2025-04-11 20:46:47.837,LEFT,35
96.0,8197.256409794856,-11893.430279902253,-21592.61215837147,-23677.44877069578,15492.284654651245,8668.364127679364,36948.6182270787,44001.84530041758,0.0,0.0,0.0,193.0,0.0,193.0,0.0,17.0,0.0,179.0,193.0,17.0,179.0,1744418807.8373675,0.0,2025-04-11 20:46:47.837,LEFT,35
97.0,8212.947334402483,-11869.02217495706,-21567.779370281623,-23665.11060775645,15500.867724522082,8816.287972484586,36765.065701611726,44093.44274919543,0.0,0.0,0.0,193.0,0.0,193.0,0.0,17.0,0.0,179.0,193.0,17.0,179.0,1744418807.8374045,0.0,2025-04-11 20:46:47.837,LEFT,35
98.0,8201.86086915265,-11894.056128747003,-21529.64729424087,-23690.50218945768,15684.822581389259,8704.015160085579,37073.855051261795,44104.64097316754,0.0,0.0,0.0,193.0,0.0,193.0,0.0,17.0,0.0,178.0,193.0,17.0,178.0,1744418807.837441,0.0,2025-04-11 20:46:47.837,LEFT,35
99.0,8200.318598785234,-11901.655721861807,-21563.197262668284,-23714.77618393614,15638.2415459444,8461.834008912327,37199.181282422694,43977.4818989613,0.0,0.0,0.0,193.0,0.0,193.0,0.0,17.0,0.0,179.0,193.0,17.0,179.0,1744418807.837494,0.0,2025-04-11 20:46:47.837,LEFT,35
100.0,8213.953162902972,-11873.179599425746,-21581.63745184391,-23679.147503274384,15520.134928242556,8619.190289877688,36997.61325092474,44004.50515800776,0.0,0.0,0.0,193.0,0.0,193.0,0.0,17.0,0.0,180.0,193.0,17.0,180.0,1744418807.8375309,0.0,2025-04-11 20:46:47.837,LEFT,35
101.0,8218.512918771854,-11871.100887191402,-21567.801722026077,-23669.849177580974,15493.044613962724,8823.731103388203,36775.01222789434,44115.97330760638,0.0,0.0,0.0,193.0,0.0,193.0,0.0,17.0,0.0,179.0,193.0,17.0,179.0,1744418807.8375669,0.0,2025-04-11 20:46:47.837,LEFT,35
102.0,8209.885145412105,-11890.993939756625,-21524.10406161595,-23692.335032503015,15678.206465030487,8733.519462766584,37002.21771028253,44130.47958975787,0.0,0.0,0.0,193.0,0.0,193.0,0.0,17.0,0.0,179.0,193.0,17.0,179.0,1744418807.837603,0.0,2025-04-11 20:46:47.837,LEFT,35
103.0,8196.965837116937,-11897.274779948566,-21553.51895731914,-23726.868477686465,15667.410572458575,8482.174096366656,37220.32603267742,44011.72477146683,0.0,0.0,0.0,193.0,0.0,193.0,0.0,17.0,0.0,179.0,193.0,17.0,179.0,1744418807.837639,0.0,2025-04-11 20:46:47.837,LEFT,35
104.0,8194.2836277823,-11870.139762179824,-21585.906635034877,-23691.664480169355,15535.579983661173,8577.012548090524,37046.0941846483,43993.66456194694,0.0,0.0,0.0,193.0,0.0,193.0,0.0,17.0,0.0,178.0,193.0,17.0,178.0,1744418807.8376749,0.0,2025-04-11 20:46:47.837,LEFT,35
105.0,8204.163098831546,-11863.367183609866,-21584.409068156372,-23667.97163104673,15479.678270778451,8825.876870855913,36799.66620202854,44121.42713325348,0.0,0.0,0.0,193.0,0.0,192.0,0.0,17.0,0.0,179.0,192.0,17.0,179.0,1744418807.8377109,0.0,2025-04-11 20:46:47.837,LEFT,35
106.0,8208.611095978153,-11885.49541062062,-21535.8834309439,-23681.203863764273,15640.230851200922,8780.838105778468,36945.712500299516,44160.18505813897,0.0,0.0,0.0,193.0,0.0,193.0,0.0,17.0,0.0,179.0,193.0,17.0,179.0,1744418807.837747,0.0,2025-04-11 20:46:47.837,LEFT,35
107.0,8195.62473244962,-11908.718873109685,-21553.183681152306,-23725.236800341227,15679.43581097553,8527.54813761093,37239.883809075814,44071.22511520686,0.0,0.0,0.0,193.0,0.0,193.0,0.0,17.0,0.0,178.0,193.0,17.0,178.0,1744418807.8377824,0.0,2025-04-11 20:46:47.837,LEFT,35
108.0,8198.4857557399,-11896.738338081639,-21589.88524554792,-23699.68875642881,15548.521643700797,8518.763902039993,37098.08434225134,43997.12908233751,0.0,0.0,0.0,193.0,0.0,193.0,0.0,17.0,0.0,179.0,193.0,17.0,179.0,1744418807.8378172,0.0,2025-04-11 20:46:47.837,LEFT,35
109.0,8203.872526153627,-11872.441991858721,-21600.904655564387,-23678.812227107555,15453.638488488019,8778.759393544125,36831.942121022,44115.28040352827,0.0,0.0,0.0,193.0,0.0,193.0,0.0,17.0,0.0,179.0,193.0,17.0,179.0,1744418807.8378515,0.0,2025-04-11 20:46:47.837,LEFT,35
110.0,8206.062997110248,-11879.92982625125,-21552.669591029837,-23696.246587782694,15576.103696358645,8785.420213391806,36884.535775725344,44170.824488499704,0.0,0.0,0.0,193.0,0.0,193.0,0.0,17.0,0.0,179.0,193.0,17.0,179.0,1744418807.837901,0.0,2025-04-11 20:46:47.837,LEFT,35
111.0,8195.244752793878,-11911.557544655509,-21556.491739331694,-23740.145413892915,15662.068505533756,8576.990196346069,37237.40276544127,44115.392162250544,0.0,0.0,0.0,193.0,0.0,193.0,0.0,17.0,0.0,179.0,193.0,17.0,179.0,1744418807.8379376,0.0,2025-04-11 20:46:47.837,LEFT,35
112.0,8209.549869245277,-11883.081422219448,-21577.658841330867,-23704.449677997793,15561.575062462696,8482.799945211405,37127.946272843634,43997.531413737706,0.0,0.0,0.0,193.0,0.0,193.0,0.0,18.0,0.0,179.0,193.0,18.0,179.0,1744418807.8379736,0.0,2025-04-11 20:46:47.837,LEFT,35
113.0,8210.421587279032,-11861.556692308986,-21589.572321125546,-23676.15236951737,15483.679233035951,8749.009221674112,36866.29675224981,44107.05496156871,0.0,0.0,0.0,193.0,0.0,193.0,0.0,18.0,0.0,178.0,193.0,18.0,178.0,1744418807.8380096,0.0,2025-04-11 20:46:47.838,LEFT,35
114.0,8217.641200738097,-11863.054259187491,-21542.186622880297,-23673.961898560752,15576.818952181215,8796.283161197087,36807.31049863226,44168.56696230972,0.0,0.0,0.0,193.0,0.0,193.0,0.0,17.0,0.0,179.0,193.0,17.0,179.0,1744418807.8380594,0.0,2025-04-11 20:46:47.838,LEFT,35
115.0,8185.789964889284,-11908.830631831961,-21550.45676832876,-23728.276637587147,15692.95861637099,8613.08826364139,37173.49912804355,44138.70503171743,0.0,0.0,0.0,193.0,0.0,193.0,0.0,17.0,0.0,179.0,193.0,17.0,179.0,1744418807.8380957,0.0,2025-04-11 20:46:47.838,LEFT,35
116.0,8195.781194660807,-11891.463326390187,-21579.335222165017,-23712.473954257246,15591.74991747736,8460.33644203382,37131.14257230074,44004.77337894122,0.0,0.0,0.0,193.0,0.0,192.0,0.0,17.0,0.0,179.0,192.0,17.0,179.0,1744418807.8381307,0.0,2025-04-11 20:46:47.838,LEFT,35
117.0,8209.214593078446,-11861.511988820075,-21598.33420495203,-23674.833616594507,15483.165142913478,8714.319314279475,36874.00810408689,44087.29601947022,0.0,0.0,0.0,193.0,0.0,193.0,0.0,17.0,0.0,179.0,193.0,17.0,179.0,1744418807.8381667,0.0,2025-04-11 20:46:47.838,LEFT,35
118.0,8227.475968298431,-11848.592680524907,-21558.12341667693,-23672.39727644888,15537.345771473143,8812.689341627281,36734.443811707955,44162.576694795694,0.0,0.0,0.0,193.0,0.0,193.0,0.0,17.0,0.0,179.0,193.0,17.0,179.0,1744418807.8382027,0.0,2025-04-11 20:46:47.838,LEFT,35
119.0,8207.404101777567,-11894.614922358385,-21532.038930897586,-23711.021090867653,15711.018825890878,8666.1960084672,37090.37299041426,44162.55434305124,0.0,0.0,0.0,193.0,0.0,193.0,0.0,17.0,0.0,179.0,193.0,17.0,179.0,1744418807.8382387,0.0,2025-04-11 20:46:47.838,LEFT,35
120.0,8203.269029053334,-11902.616846873385,-21567.51114934816,-23723.78393695163,15624.76344403785,8451.842779140805,37145.96177887461,44028.8909112085,0.0,0.0,0.0,193.0,0.0,192.0,0.0,17.0,0.0,179.0,192.0,17.0,179.0,1744418807.8382747,0.0,2025-04-11 20:46:47.838,LEFT,35
121.0,8207.180584333013,-11879.169866939768,-21590.71226009277,-23683.282575998615,15496.531486097752,8659.199912452688,36921.57261628778,44084.88203106905,0.0,0.0,0.0,193.0,0.0,193.0,0.0,17.0,0.0,179.0,193.0,17.0,179.0,1744418807.8383102,0.0,2025-04-11 20:46:47.838,LEFT,35
122.0,8234.15913989057,-11857.645137029307,-21554.211861397253,-23664.574165889524,15511.68596883845,8827.79912087907,36727.78299186027,44181.396863627066,0.0,0.0,0.0,193.0,0.0,193.0,0.0,18.0,0.0,179.0,193.0,18.0,179.0,1744418807.838346,0.0,2025-04-11 20:46:47.838,LEFT,35
123.0,8212.366189046645,-11890.524553123065,-21520.527782503104,-23698.995852350698,15690.790497158827,8715.369846268875,37024.94943439358,44193.28799167729,0.0,0.0,0.0,193.0,0.0,193.0,0.0,17.0,0.0,179.0,193.0,17.0,179.0,1744418807.8383813,0.0,2025-04-11 20:46:47.838,LEFT,35
124.0,8203.224325564424,-11890.837477545438,-21548.80273923907,-23716.005529881186,15637.369827910643,8453.630918697228,37163.44084303866,44049.320405640654,0.0,0.0,0.0,193.0,0.0,193.0,0.0,17.0,0.0,179.0,193.0,17.0,179.0,1744418807.8384173,0.0,2025-04-11 20:46:47.838,LEFT,35
125.0,8212.276782068824,-11864.440067343721,-21572.205015683772,-23671.369096203936,15513.78703281725,8608.46145253914,36969.24888721095,44063.69257732542,0.0,0.0,0.0,193.0,0.0,193.0,0.0,17.0,0.0,179.0,193.0,17.0,179.0,1744418807.838467,0.0,2025-04-11 20:46:47.838,LEFT,35
126.0,8230.269936355346,-11841.037790899014,-21550.188547395297,-23646.849232536464,15488.931892982948,8829.251984268663,36739.76352688832,44179.60872407064,0.0,0.0,0.0,193.0,0.0,193.0,0.0,18.0,0.0,178.0,193.0,18.0,178.0,1744418807.838503,0.0,2025-04-11 20:46:47.838,LEFT,35
127.0,8212.500299513376,-11872.620805814364,-21514.761032433635,-23678.745171874187,15658.693392121006,8763.761373014615,36978.18958499308,44214.05276227627,0.0,0.0,0.0,193.0,0.0,193.0,0.0,17.0,0.0,179.0,193.0,17.0,179.0,1744418807.8385384,0.0,2025-04-11 20:46:47.838,LEFT,35
128.0,8198.709273184451,-11885.11543096488,-21558.861024243954,-23729.21541085427,15635.33581916521,8491.427718571153,37210.245395928076,44091.0064090498,0.0,0.0,0.0,193.0,0.0,193.0,0.0,17.0,0.0,179.0,193.0,17.0,179.0,1744418807.8385744,0.0,2025-04-11 20:46:47.838,LEFT,35
