Sample Index,EXG Channel 0,EXG Channel 1,EXG Channel 2,EXG Channel 3,EXG Channel 4,EXG Channel 5,EXG Channel 6,EXG Channel 7,Accel Channel 0,Accel Channel 1,Accel Channel 2,Not Used,Digital Channel 0 (D11),Digital Channel 1 (D12),Digital Channel 2 (D13),Digital Channel 3 (D17),Not Used,Digital Channel 4 (D18),Analog Channel 0,Analog Channel 1,Analog Channel 2,Timestamp,Marker Channel,Timestamp (Formatted),Stimulus_Direction,Stimulus_Number
208.0,14038.482491789162,2140.7159734625784,-62161.698897087444,-59458.747143596076,-35615.739001719834,-33028.97161590715,-19512.514115871683,-21980.526683393324,0.0,0.0,0.0,193.0,1.0,155.0,0.0,10.0,3.0,249.0,411.0,10.0,1017.0,1744252733.63949,0.0,2025-04-09 22:38:53.639,LEFT,20
209.0,14138.84182439349,2164.9452644521316,-62161.430676153985,-59495.67222543624,-35596.80707416619,-32999.24379578159,-19623.535230581194,-21951.15649117905,0.0,0.0,0.0,193.0,1.0,155.0,0.0,9.0,3.0,252.0,411.0,9.0,1020.0,1744252733.6394987,0.0,2025-04-09 22:38:53.639,LEFT,20
210.0,14094.764184327625,2180.055043703919,-62112.94974243042,-59445.581966111895,-35532.50110536827,-32936.36833862881,-19776.465866144405,-21893.84661839564,0.0,0.0,0.0,193.0,1.0,154.0,0.0,8.0,3.0,248.0,410.0,8.0,1016.0,1744252733.6395073,0.0,2025-04-09 22:38:53.639,LEFT,20
211.0,14032.894555675335,2179.9879884705533,-62146.9690974914,-59484.36224274186,-35553.109413756065,-32958.76478657303,-19600.714099492325,-21922.18863036497,0.0,0.0,0.0,193.0,1.0,154.0,0.0,8.0,3.0,250.0,410.0,8.0,1018.0,1744252733.639516,0.0,2025-04-09 22:38:53.639,LEFT,20
212.0,14012.353302520909,2136.156217593696,-62164.73873433337,-59471.107658279856,-35605.01016438129,-33011.760772676564,-19576.574215480592,-21964.701648318965,0.0,0.0,0.0,193.0,1.0,154.0,0.0,7.0,3.0,251.0,410.0,7.0,1019.0,1744252733.6395245,0.0,2025-04-09 22:38:53.639,LEFT,20
213.0,14135.332600514008,2158.2620928599945,-62173.88059781559,-59487.06680382095,-35618.33180407665,-33019.71799370265,-19522.14771773192,-21972.68122108951,0.0,0.0,0.0,193.0,1.0,154.0,0.0,7.0,3.0,249.0,410.0,7.0,1017.0,1744252733.639533,0.0,2025-04-09 22:38:53.639,LEFT,20
214.0,14116.445376449274,2187.2970089074383,-62106.15481211601,-59451.19225397018,-35523.5827593306,-32926.265350135014,-19853.087646137195,-21885.978804347375,0.0,0.0,0.0,193.0,1.0,155.0,0.0,6.0,3.0,252.0,411.0,6.0,1020.0,1744252733.6395416,0.0,2025-04-09 22:38:53.639,LEFT,20
215.0,14052.83231172947,2191.5885438428577,-62142.52110034479,-59473.87927459232,-35551.142460243995,-32961.223478463115,-19561.889119373456,-21916.354825062135,0.0,0.0,0.0,193.0,1.0,154.0,0.0,6.0,3.0,250.0,410.0,6.0,1018.0,1744252733.63955,0.0,2025-04-09 22:38:53.639,LEFT,20
216.0,14010.654569942304,2147.287386332439,-62165.65515585604,-59491.76067015656,-35597.09764684411,-33004.78702840651,-19636.253373176263,-21961.751218050864,0.0,0.0,0.0,193.0,1.0,154.0,0.0,6.0,3.0,249.0,410.0,6.0,1017.0,1744252733.6395586,0.0,2025-04-09 22:38:53.639,LEFT,20
217.0,14127.777710888115,2159.7149562495897,-62173.54532164876,-59473.47694319212,-35629.664138515494,-33033.62077875385,-19447.738760440203,-21990.428506187025,0.0,0.0,0.0,193.0,1.0,155.0,0.0,6.0,3.0,251.0,411.0,6.0,1019.0,1744252733.6395671,0.0,2025-04-09 22:38:53.639,LEFT,20
218.0,14122.927382341311,2183.0054739720194,-62120.0128936783,-59478.75195488358,-35538.290207182195,-32939.207010174636,-19902.395594405603,-21918.701758229945,0.0,0.0,0.0,193.0,1.0,155.0,0.0,5.0,3.0,251.0,411.0,5.0,1019.0,1744252733.6395755,0.0,2025-04-09 22:38:53.639,LEFT,20
219.0,14063.181169412277,2187.8110990299106,-62132.75338801782,-59459.015364529536,-35547.3426636866,-32953.98151325959,-19572.908529389922,-21920.512249530824,0.0,0.0,0.0,193.0,1.0,154.0,0.0,5.0,3.0,250.0,410.0,5.0,1018.0,1744252733.6395843,0.0,2025-04-09 22:38:53.639,LEFT,20
220.0,14005.893648373325,2150.774258467467,-62154.076952228184,-59495.381652758326,-35580.512652458274,-32983.50816768505,-19674.27369049474,-21952.72111329092,0.0,0.0,0.0,193.0,1.0,155.0,0.0,5.0,3.0,251.0,411.0,5.0,1019.0,1744252733.639593,0.0,2025-04-09 22:38:53.639,LEFT,20
221.0,14104.800117588058,2149.0531741444083,-62165.901025045045,-59456.15434123926,-35639.47655433137,-33038.15818287828,-19403.75052735216,-21985.041735773295,0.0,0.0,0.0,193.0,1.0,154.0,0.0,5.0,3.0,250.0,410.0,5.0,1018.0,1744252734.1085029,0.0,2025-04-09 22:38:54.108,LEFT,20
222.0,14132.091597567987,2177.9986832140307,-62122.829213479665,-59489.48079222212,-35554.47287016784,-32946.270161422515,-19893.544303601302,-21913.29263607176,0.0,0.0,0.0,193.0,1.0,155.0,0.0,5.0,3.0,253.0,411.0,5.0,1021.0,1744252734.1085403,0.0,2025-04-09 22:38:54.108,LEFT,20
223.0,14070.803114271535,2179.9879884705533,-62126.338437359154,-59450.81227431444,-35554.69638761239,-32958.004827261546,-19602.569294282115,-21918.366482063113,0.0,0.0,0.0,193.0,1.0,154.0,0.0,4.0,3.0,249.0,410.0,4.0,1017.0,1744252734.1086147,0.0,2025-04-09 22:38:54.108,LEFT,20
224.0,14002.898514616314,2152.227121857062,-62154.367524906105,-59506.4457662637,-35572.22015526535,-32980.1330542723,-19687.93060635693,-21947.53550857729,0.0,0.0,0.0,193.0,1.0,155.0,0.0,4.0,3.0,253.0,411.0,4.0,1021.0,1744252734.108632,0.0,2025-04-09 22:38:54.108,LEFT,20
225.0,14093.445431404762,2157.368023081782,-62146.20913817992,-59434.45079737315,-35618.04123139873,-33025.41768853876,-19414.83699260199,-21979.230282214914,0.0,0.0,0.0,193.0,1.0,154.0,0.0,4.0,3.0,249.0,410.0,4.0,1017.0,1744252734.108645,0.0,2025-04-09 22:38:54.108,LEFT,20
226.0,14145.927327385823,2181.1949826711398,-62131.38993160605,-59493.77232715754,-35560.77606210423,-32961.40229241875,-19820.901134121556,-21929.609409524135,0.0,0.0,0.0,193.0,1.0,154.0,0.0,4.0,3.0,249.0,410.0,4.0,1017.0,1744252734.108654,0.0,2025-04-09 22:38:54.108,LEFT,20
227.0,14089.757393569636,2189.934514753165,-62111.943913929936,-59436.082474718394,-35532.45640187936,-32952.88627778128,-19639.293210422184,-21912.6220837381,0.0,0.0,0.0,193.0,1.0,155.0,0.0,4.0,3.0,252.0,411.0,4.0,1020.0,1744252734.108663,0.0,2025-04-09 22:38:54.108,LEFT,20
228.0,14003.636122183338,2156.3621945812934,-62169.0749727577,-59519.23096409214,-35578.16571929046,-32991.15246428877,-19655.52057689674,-21947.624915555112,0.0,0.0,0.0,193.0,1.0,155.0,0.0,4.0,3.0,249.0,411.0,4.0,1017.0,1744252734.108672,0.0,2025-04-09 22:38:54.108,LEFT,20
229.0,14059.582538554972,2149.1425811222293,-62162.52591163229,-59454.94734703867,-35625.28319660225,-33035.52067703255,-19474.98553693122,-21975.899872291073,0.0,0.0,0.0,193.0,1.0,155.0,0.0,4.0,3.0,250.0,411.0,4.0,1018.0,1744252734.108681,0.0,2025-04-09 22:38:54.108,LEFT,20
230.0,14150.241214065698,2181.463203604603,-62146.92439400249,-59494.77815565803,-35580.26678326926,-32979.753074616565,-19721.547630017714,-21942.841642241674,0.0,0.0,0.0,193.0,1.0,155.0,0.0,4.0,3.0,252.0,411.0,4.0,1020.0,1744252734.1086898,0.0,2025-04-09 22:38:54.108,LEFT,20
231.0,14096.194695972765,2188.4369478746594,-62106.758309216304,-59435.21075668464,-35527.62842507701,-32935.80954501743,-19732.164708633987,-21898.875760898085,0.0,0.0,0.0,193.0,1.0,154.0,0.0,4.0,3.0,250.0,410.0,4.0,1018.0,1744252734.1086988,0.0,2025-04-09 22:38:54.108,LEFT,20
232.0,14018.857660157402,2171.740194766545,-62153.920490017,-59498.086213837414,-35557.66916962495,-32964.442129664676,-19618.237867145286,-21922.456851298437,0.0,0.0,0.0,193.0,1.0,155.0,0.0,4.0,3.0,252.0,411.0,4.0,1020.0,1744252734.1087077,0.0,2025-04-09 22:38:54.108,LEFT,20
233.0,14037.476663288673,2150.148409622718,-62152.10999871612,-59453.561538882444,-35602.395010280015,-33007.46923774114,-19534.709398115803,-21959.381933138604,0.0,0.0,0.0,193.0,1.0,154.0,0.0,4.0,3.0,250.0,410.0,4.0,1018.0,1744252734.1087165,0.0,2025-04-09 22:38:54.108,LEFT,20
234.0,14138.685362182303,2160.7878399834444,-62165.99043202287,-59495.06872833595,-35605.59130973712,-33006.35165051838,-19603.01632917122,-21971.92126177803,0.0,0.0,0.0,193.0,1.0,154.0,0.0,4.0,3.0,250.0,410.0,4.0,1018.0,1744252734.1087253,0.0,2025-04-09 22:38:54.108,LEFT,20
235.0,14097.088765750977,2177.3281308803716,-62114.84964070912,-59451.70634409265,-35533.57398910213,-32932.076803693395,-19814.463831718425,-21897.869932397596,0.0,0.0,0.0,193.0,1.0,155.0,0.0,3.0,3.0,252.0,411.0,3.0,1020.0,1744252734.1087344,0.0,2025-04-09 22:38:54.108,LEFT,20
236.0,14036.359076065908,2187.8558025188213,-62146.79028353576,-59479.60132117288,-35552.952951544874,-32951.85809753634,-19602.055204159642,-21914.410223294526,0.0,0.0,0.0,193.0,1.0,154.0,0.0,3.0,3.0,249.0,410.0,3.0,1017.0,1744252734.1087432,0.0,2025-04-09 22:38:54.108,LEFT,20
237.0,14007.681787929749,2138.3466885503162,-62165.476341900394,-59477.72377463863,-35604.22785332535,-33007.357479018865,-19608.492506562772,-21963.517005862836,0.0,0.0,0.0,193.0,1.0,154.0,0.0,3.0,3.0,250.0,410.0,3.0,1018.0,1744252734.1087518,0.0,2025-04-09 22:38:54.108,LEFT,20
238.0,14138.014809848644,2166.576941797369,-62159.57548136419,-59469.31951872344,-35610.06165862819,-33016.49934250109,-19499.438345365328,-21977.442142658492,0.0,0.0,0.0,193.0,1.0,155.0,0.0,3.0,3.0,250.0,411.0,3.0,1018.0,1744252734.1087663,0.0,2025-04-09 22:38:54.108,LEFT,20
239.0,14128.068283566034,2195.187174700162,-62089.212189818885,-59440.79869279846,-35510.462285335336,-32915.20123662963,-19866.83396897721,-21877.37338273208,0.0,0.0,0.0,193.0,1.0,155.0,0.0,3.0,3.0,252.0,411.0,3.0,1020.0,1744252734.1087751,0.0,2025-04-09 22:38:54.108,LEFT,20
240.0,14065.63986130236,2190.4933083645474,-62117.75536748832,-59448.24182370208,-35533.953968757865,-32942.358606142836,-19555.697686159336,-21896.23825505236,0.0,0.0,0.0,193.0,1.0,154.0,0.0,3.0,3.0,249.0,410.0,3.0,1017.0,1744252734.108784,0.0,2025-04-09 22:38:54.108,LEFT,20
241.0,14016.466023500685,2153.054136401908,-62139.72713228788,-59469.364222212345,-35576.01995182275,-32982.055304295456,-19641.617791845536,-21932.403377581046,0.0,0.0,0.0,193.0,1.0,155.0,0.0,3.0,3.0,252.0,411.0,3.0,1020.0,1744252734.1087925,0.0,2025-04-09 22:38:54.108,LEFT,20
242.0,14135.444359236284,2172.254284889017,-62143.392818378554,-59436.30599216295,-35610.68750747293,-33019.82975242493,-19406.0304052866,-21960.745389550375,0.0,0.0,0.0,193.0,1.0,155.0,0.0,3.0,3.0,251.0,411.0,3.0,1019.0,1744252734.1088014,0.0,2025-04-09 22:38:54.108,LEFT,20
243.0,14125.184908531299,2185.374758884282,-62109.19464936193,-59465.229149488114,-35534.80333504717,-32941.10690845334,-19880.848512750686,-21903.502572000336,0.0,0.0,0.0,193.0,1.0,154.0,0.0,3.0,3.0,250.0,410.0,3.0,1018.0,1744252734.1088107,0.0,2025-04-09 22:38:54.108,LEFT,20
244.0,14074.535855595572,2193.890773521754,-62115.45313780942,-59434.540204350975,-35534.26689318024,-32954.6297138488,-19565.10777057502,-21904.6201592231,0.0,0.0,0.0,193.0,1.0,155.0,0.0,3.0,3.0,251.0,411.0,3.0,1019.0,1744252734.108827,0.0,2025-04-09 22:38:54.108,LEFT,20
245.0,14011.123956575866,2157.0103951704973,-62143.41517012301,-59476.71794613814,-35567.03455055172,-32982.07765603992,-19662.784893844713,-21920.914580931018,0.0,0.0,0.0,193.0,1.0,154.0,0.0,3.0,3.0,249.0,410.0,3.0,1017.0,1744252734.108836,0.0,2025-04-09 22:38:54.108,LEFT,20
246.0,14108.264637978631,2157.479781804059,-62151.52885336028,-59422.246744900556,-35619.42703955496,-33033.73253747613,-19387.053774244043,-21954.77747378081,0.0,0.0,0.0,193.0,1.0,154.0,0.0,3.0,3.0,252.0,410.0,3.0,1020.0,1744252734.108845,0.0,2025-04-09 22:38:54.108,LEFT,20
247.0,14142.574565717527,2180.0103402150085,-62118.38121633306,-59459.46239941865,-35537.77611705972,-32944.83964977737,-19856.373352572125,-21884.682403168965,0.0,0.0,0.0,193.0,1.0,155.0,0.0,3.0,3.0,252.0,411.0,3.0,1020.0,1744252734.1088538,0.0,2025-04-09 22:38:54.108,LEFT,20
248.0,14091.925512781801,2196.0141892450083,-62105.79718420473,-59398.062157399916,-35522.062840707644,-32940.90574275324,-19592.39925055495,-21873.461827452404,0.0,0.0,0.0,193.0,1.0,154.0,0.0,3.0,3.0,249.0,410.0,3.0,1017.0,1744252734.1088626,0.0,2025-04-09 22:38:54.108,LEFT,20
249.0,14017.114224089888,2166.3981278417264,-62142.85637651162,-59458.14364649578,-35548.41554742045,-32969.67243786722,-19656.839329819602,-21909.157563347526,0.0,0.0,0.0,193.0,1.0,154.0,0.0,3.0,3.0,249.0,410.0,3.0,1017.0,1744252734.1088715,0.0,2025-04-09 22:38:54.108,LEFT,20
250.0,14089.26565519162,2159.7149562495897,-62146.27619341329,-59394.195305609144,-35599.28811780073,-33024.68008097173,-19412.020672800623,-21955.179805181004,0.0,0.0,0.0,193.0,1.0,155.0,0.0,3.0,3.0,252.0,411.0,3.0,1020.0,1744252734.1088824,0.0,2025-04-09 22:38:54.108,LEFT,20
251.0,14157.572586247039,2189.800404286433,-62129.0653501827,-59444.01734400003,-35541.82178280613,-32958.80949006194,-19782.411430169515,-21907.883513913574,0.0,0.0,0.0,193.0,1.0,154.0,0.0,3.0,3.0,251.0,410.0,3.0,1019.0,1744252734.108891,0.0,2025-04-09 22:38:54.108,LEFT,20
252.0,14107.348216455963,2205.0666457494076,-62097.08000386715,-59374.43636351066,-35504.04733467667,-32932.18856241567,-19661.823768833136,-21871.830150107166,0.0,0.0,0.0,193.0,1.0,154.0,0.0,3.0,3.0,249.0,410.0,3.0,1017.0,1744252734.1088996,0.0,2025-04-09 22:38:54.108,LEFT,20
253.0,14029.899421918324,2183.452508861126,-62141.47056835539,-59442.922108521714,-35532.188180945894,-32961.5811063744,-19636.275724920717,-21900.66390045451,0.0,0.0,0.0,193.0,1.0,154.0,0.0,3.0,3.0,251.0,410.0,3.0,1019.0,1744252734.1089127,0.0,2025-04-09 22:38:54.108,LEFT,20
254.0,14061.460085089218,2158.5973690268243,-62148.44431262545,-59390.641378240754,-35589.14042581802,-33012.252511054576,-19470.023449662145,-21935.353807849147,0.0,0.0,0.0,193.0,1.0,154.0,0.0,3.0,3.0,250.0,410.0,3.0,1018.0,1744252734.1089213,0.0,2025-04-09 22:38:54.108,LEFT,20
255.0,14155.493874012695,2179.0492152034303,-62147.75140854734,-59436.39539914077,-35564.75467261728,-32977.11556877084,-19676.732382384824,-21911.81742093771,0.0,0.0,0.0,193.0,1.0,155.0,0.0,3.0,3.0,251.0,411.0,3.0,1019.0,1744252734.10893,0.0,2025-04-09 22:38:54.108,LEFT,20
0.0,14113.204373503253,2196.8859072787654,-62098.73403295685,-59373.5646454769,-35502.840340476076,-32921.63853903276,-19748.77205476428,-21860.31900171268,0.0,0.0,0.0,193.0,1.0,155.0,0.0,3.0,3.0,251.0,411.0,3.0,1019.0,1744252734.1089387,0.0,2025-04-09 22:38:54.108,LEFT,20
1.0,14042.885785446857,2187.8110990299106,-62143.14694918954,-59426.18065192469,-35533.328119913116,-32951.12048996931,-19612.627579287004,-21893.153714317526,0.0,0.0,0.0,193.0,1.0,154.0,0.0,3.0,3.0,251.0,410.0,3.0,1019.0,1744252734.1089475,0.0,2025-04-09 22:38:54.108,LEFT,20
2.0,14039.890651689846,2152.450639301615,-62155.485112128874,-59397.771584721995,-35589.587460707124,-33002.395391749786,-19558.20108153833,-21941.500537574357,0.0,0.0,0.0,193.0,1.0,154.0,0.0,3.0,3.0,250.0,410.0,3.0,1018.0,1744252734.1089563,0.0,2025-04-09 22:38:54.108,LEFT,20
3.0,14159.360725803463,2184.704206550623,-62155.418056895505,-59417.01643669802,-35585.76531240527,-32996.04749632448,-19579.43523877087,-21952.363485379636,0.0,0.0,0.0,193.0,1.0,155.0,0.0,3.0,3.0,251.0,411.0,3.0,1019.0,1744252734.1089647,0.0,2025-04-09 22:38:54.108,LEFT,20
4.0,14125.654295164859,2198.4952328795475,-62108.32293132817,-59390.23904684056,-35515.96081447134,-32933.775536272,-19841.10711110915,-21891.5667404612,0.0,0.0,0.0,193.0,1.0,155.0,0.0,3.0,3.0,251.0,411.0,3.0,1019.0,1744252734.1089735,0.0,2025-04-09 22:38:54.108,LEFT,20
5.0,14057.704992020726,2191.5214886094914,-62147.505539358324,-59421.531489077985,-35541.12887872802,-32962.65399010825,-19588.73356446428,-21911.795069193253,0.0,0.0,0.0,193.0,1.0,154.0,0.0,3.0,3.0,250.0,410.0,3.0,1018.0,1744252734.1089823,0.0,2025-04-09 22:38:54.108,LEFT,20
6.0,14022.0092561256,2152.741211979534,-62147.304373658226,-59403.04659641345,-35566.14048077351,-32978.546080415974,-19612.672282775915,-21915.706624472932,0.0,0.0,0.0,193.0,1.0,155.0,0.0,3.0,3.0,252.0,411.0,3.0,1020.0,1744252734.1089911,0.0,2025-04-09 22:38:54.108,LEFT,20
7.0,14136.830167392513,2169.8402964878437,-62156.08860922916,-59396.3187213324,-35591.062675841174,-33002.17187430523,-19452.85730992047,-21940.941743962972,0.0,0.0,0.0,193.0,1.0,154.0,0.0,3.0,3.0,250.0,410.0,3.0,1018.0,1744252734.1089997,0.0,2025-04-09 22:38:54.108,LEFT,20
8.0,14123.709693397248,2193.287276421461,-62100.99155914683,-59389.05440438443,-35501.49923580876,-32907.668698748195,-19866.811617232754,-21866.309269226706,0.0,0.0,0.0,193.0,1.0,154.0,0.0,3.0,3.0,250.0,410.0,3.0,1018.0,1744252734.1090083,0.0,2025-04-09 22:38:54.109,LEFT,20
9.0,14063.628204301383,2195.2989334224385,-62123.03037917976,-59384.628758982275,-35515.714945282336,-32929.93103622568,-19547.33813373305,-21882.827208379174,0.0,0.0,0.0,193.0,1.0,155.0,0.0,2.0,3.0,251.0,411.0,2.0,1019.0,1744252734.1090171,0.0,2025-04-09 22:38:54.109,LEFT,20
10.0,14007.81589839648,2157.5691887818803,-62151.59590859365,-59420.19038441067,-35559.32319871464,-32971.81820533493,-19648.971515771333,-21930.995217680364,0.0,0.0,0.0,193.0,1.0,154.0,0.0,2.0,3.0,251.0,410.0,2.0,1019.0,1744252734.109026,0.0,2025-04-09 22:38:54.109,LEFT,20
11.0,14113.003207803156,2162.598331284324,-62159.79899880874,-59390.10493637383,-35600.83038816814,-33015.20294132268,-19416.669835647328,-21966.57919485321,0.0,0.0,0.0,193.0,1.0,154.0,0.0,2.0,3.0,250.0,410.0,2.0,1018.0,1744252734.1090348,0.0,2025-04-09 22:38:54.109,LEFT,20
12.0,14132.918612112835,2189.8227560308883,-62108.90407668401,-59409.52860230549,-35506.46132307784,-32916.18471338567,-19893.32078615675,-21884.771810146787,0.0,0.0,0.0,193.0,1.0,155.0,0.0,2.0,3.0,251.0,411.0,2.0,1019.0,1744252734.109048,0.0,2025-04-09 22:38:54.109,LEFT,20
13.0,14074.088820706465,2195.857727033821,-62122.02455067928,-59381.499514758536,-35515.31261388214,-32934.08846069437,-19575.702497446837,-21892.23729279486,0.0,0.0,0.0,193.0,1.0,154.0,0.0,2.0,3.0,249.0,410.0,2.0,1017.0,1744252734.1090567,0.0,2025-04-09 22:38:54.109,LEFT,20
14.0,14001.222133782165,2159.2008661271175,-62154.59104235066,-59439.234070686594,-35548.54965788718,-32966.453786665654,-19678.028783563233,-21930.23525836888,0.0,0.0,0.0,193.0,1.0,154.0,0.0,2.0,3.0,250.0,410.0,2.0,1018.0,1744252734.1090653,0.0,2025-04-09 22:38:54.109,LEFT,20
15.0,14092.707823837736,2159.2008661271175,-62158.94963251944,-59388.18268635067,-35604.94310914792,-33022.71312745966,-19409.785498355093,-21979.610261870654,0.0,0.0,0.0,193.0,1.0,154.0,0.0,2.0,3.0,251.0,410.0,2.0,1019.0,1744252734.1090744,0.0,2025-04-09 22:38:54.109,LEFT,20
16.0,14132.27041152363,2182.2231629160838,-62133.66980954049,-59439.90462302025,-35537.21732344834,-32943.20797243214,-19857.334477583707,-21919.61817975261,0.0,0.0,0.0,193.0,1.0,154.0,0.0,2.0,3.0,250.0,410.0,2.0,1018.0,1744252734.1090827,0.0,2025-04-09 22:38:54.109,LEFT,20
17.0,14081.21902718771,2194.3378084108604,-62113.64264650854,-59378.45967751261,-35517.391326116485,-32929.5734083144,-19628.720835294826,-21893.109010828615,0.0,0.0,0.0,193.0,1.0,155.0,0.0,2.0,3.0,252.0,411.0,2.0,1020.0,1744252734.1090922,0.0,2025-04-09 22:38:54.109,LEFT,20
18.0,14007.01123559609,2164.319415607383,-62151.97588824939,-59449.85114930286,-35547.096794497586,-32960.932905785194,-19673.37962071653,-21931.129328147093,0.0,0.0,0.0,193.0,1.0,154.0,0.0,2.0,3.0,250.0,410.0,2.0,1018.0,1744252734.1091008,0.0,2025-04-09 22:38:54.109,LEFT,20
19.0,14078.894445764357,2165.213485385595,-62143.25870791182,-59383.019433381494,-35592.269670041765,-33011.000813365084,-19443.715446438247,-21975.05050600177,0.0,0.0,0.0,193.0,1.0,154.0,0.0,2.0,3.0,249.0,410.0,2.0,1017.0,1744252734.1091096,0.0,2025-04-09 22:38:54.109,LEFT,20
20.0,14152.834016422514,2183.184287927662,-62132.686332784455,-59442.18450095469,-35550.13663174351,-32958.54126912847,-19772.06257248671,-21934.482089815392,0.0,0.0,0.0,193.0,1.0,155.0,0.0,2.0,3.0,250.0,411.0,2.0,1018.0,1744252734.1091182,0.0,2025-04-09 22:38:54.109,LEFT,20
21.0,14099.770975085614,2190.9403432536537,-62092.25202706481,-59377.297386800936,-35503.53324455419,-32919.336309353865,-19704.917932142966,-21882.268414767794,0.0,0.0,0.0,193.0,1.0,155.0,0.0,2.0,3.0,251.0,411.0,2.0,1019.0,1744252734.1091268,0.0,2025-04-09 22:38:54.109,LEFT,20
22.0,14029.139462606843,2179.473898348081,-62129.557088560716,-59438.27294567502,-35522.979262230314,-32946.29251316697,-19636.36513189854,-21916.46658378441,0.0,0.0,0.0,193.0,1.0,154.0,0.0,2.0,3.0,250.0,410.0,2.0,1018.0,1744252734.1091356,0.0,2025-04-09 22:38:54.109,LEFT,20
23.0,14038.951878422724,2140.023069384464,-62150.9700597489,-59410.221506383605,-35593.34255377562,-33016.789915179004,-19505.942703001823,-21978.179750225514,0.0,0.0,0.0,193.0,1.0,155.0,0.0,2.0,3.0,252.0,411.0,2.0,1020.0,1744252734.1091444,0.0,2025-04-09 22:38:54.109,LEFT,20
24.0,14149.883586154412,2180.6808925486675,-62141.24705091084,-59443.39149515528,-35565.98401856232,-32975.03685653649,-19656.280536208218,-21942.841642241674,0.0,0.0,0.0,193.0,1.0,154.0,0.0,2.0,3.0,249.0,410.0,2.0,1017.0,1744252734.109153,0.0,2025-04-09 22:38:54.109,LEFT,20
25.0,14116.423024704818,2208.218241717606,-62076.24817803481,-59376.76094493401,-35481.874404177004,-32900.18086435567,-19773.358973665116,-21869.751437872823,0.0,0.0,0.0,193.0,1.0,155.0,0.0,2.0,3.0,252.0,411.0,2.0,1020.0,1744252734.1091616,0.0,2025-04-09 22:38:54.109,LEFT,20
26.0,14037.499015033129,2186.5370495959583,-62130.16058566101,-59436.66362007423,-35522.71104129685,-32944.50437361054,-19593.0250993997,-21912.37621454909,0.0,0.0,0.0,193.0,1.0,154.0,0.0,2.0,3.0,251.0,410.0,2.0,1019.0,1744252734.1091702,0.0,2025-04-09 22:38:54.109,LEFT,20
27.0,14022.63510497035,2143.0405548859308,-62143.392818378554,-59420.74917802205,-35578.2998297572,-32992.02418232253,-19585.984299896278,-21953.10109294666,0.0,0.0,0.0,193.0,1.0,154.0,0.0,2.0,3.0,252.0,410.0,2.0,1020.0,1744252734.1091828,0.0,2025-04-09 22:38:54.109,LEFT,20
28.0,14150.688248954804,2182.8713635052877,-62137.29079214225,-59423.52079433451,-35577.94220184591,-32983.82109210743,-19548.58983142255,-21957.325572648715,0.0,0.0,0.0,193.0,1.0,155.0,0.0,2.0,3.0,252.0,411.0,2.0,1020.0,1744252734.1091917,0.0,2025-04-09 22:38:54.109,LEFT,20
29.0,14111.103309524455,2196.0365409894634,-62087.24523630682,-59400.789070223465,-35499.286413107686,-32910.060335404916,-19852.126521125618,-21889.309214271216,0.0,0.0,0.0,193.0,1.0,155.0,0.0,2.0,3.0,251.0,411.0,2.0,1019.0,1744252734.1092005,0.0,2025-04-09 22:38:54.109,LEFT,20
30.0,14046.417361070797,2190.0909769643517,-62123.07508266868,-59423.83371875688,-35524.230959919805,-32941.79981253145,-19571.567424722605,-21912.465621526913,0.0,0.0,0.0,193.0,1.0,154.0,0.0,2.0,3.0,249.0,410.0,2.0,1017.0,1744252734.1092093,0.0,2025-04-09 22:38:54.109,LEFT,20
31.0,14014.588476966439,2155.2893108474386,-62137.35784737562,-59429.84633801536,-35564.642913895004,-32980.445978694675,-19643.65180059097,-21953.570479580223,0.0,0.0,0.0,193.0,1.0,155.0,0.0,2.0,3.0,251.0,411.0,2.0,1019.0,1744252734.109218,0.0,2025-04-09 22:38:54.109,LEFT,20
32.0,14137.791292404092,2174.735328523556,-62140.665905555004,-59408.56747729391,-35594.39308576502,-33002.50715047206,-19468.123551383444,-21972.81533155624,0.0,0.0,0.0,193.0,1.0,155.0,0.0,2.0,3.0,251.0,411.0,2.0,1019.0,1744252734.1092265,0.0,2025-04-09 22:38:54.109,LEFT,20
33.0,14128.18004228831,2196.7517968120333,-62091.313253797685,-59413.59661979636,-35504.13674165449,-32913.055469161925,-19908.162344475073,-21903.5696272337,0.0,0.0,0.0,193.0,1.0,154.0,0.0,2.0,3.0,249.0,410.0,2.0,1017.0,1744252734.1092353,0.0,2025-04-09 22:38:54.109,LEFT,20
34.0,14060.364849610907,2195.991837500553,-62122.44923382393,-59410.4226720837,-35527.89664601048,-32942.358606142836,-19569.376953765983,-21921.138098375573,0.0,0.0,0.0,193.0,1.0,155.0,0.0,2.0,3.0,252.0,411.0,2.0,1020.0,1744252734.109244,0.0,2025-04-09 22:38:54.109,LEFT,20
35.0,13993.175505778254,2153.6129300132907,-62156.334478418175,-59457.00370752856,-35572.35426573209,-32978.68019088271,-19677.112362040563,-21946.328514376703,0.0,0.0,0.0,193.0,1.0,155.0,0.0,2.0,3.0,251.0,411.0,2.0,1019.0,1744252734.1092527,0.0,2025-04-09 22:38:54.109,LEFT,20
36.0,14110.499812424161,2166.3534243528156,-62151.282984171274,-59403.09129990236,-35613.34736506312,-33012.27486279904,-19416.155745524855,-21961.52770060631,0.0,0.0,0.0,193.0,1.0,154.0,0.0,2.0,3.0,249.0,410.0,2.0,1017.0,1744252734.1092613,0.0,2025-04-09 22:38:54.109,LEFT,20
37.0,14127.710655654748,2183.8771920057766,-62115.58724827615,-59440.79869279846,-35536.50206762577,-32929.841629247865,-19893.968986745953,-21903.27905455578,0.0,0.0,0.0,193.0,1.0,155.0,0.0,2.0,3.0,251.0,411.0,2.0,1019.0,1744252734.10927,0.0,2025-04-09 22:38:54.109,LEFT,20
38.0,14065.304585135531,2187.967561241098,-62118.04594016623,-59401.14669813475,-35538.290207182195,-32943.543248598966,-19600.490582047772,-21910.275150570294,0.0,0.0,0.0,193.0,1.0,155.0,0.0,2.0,3.0,252.0,411.0,2.0,1020.0,1744252734.1092784,0.0,2025-04-09 22:38:54.109,LEFT,20
39.0,13989.375709220853,2154.797572469422,-62151.95353650493,-59462.70340236466,-35568.10743428558,-32974.74628385857,-19692.825638392645,-21949.614220811633,0.0,0.0,0.0,193.0,1.0,154.0,0.0,2.0,3.0,251.0,410.0,2.0,1019.0,1744252734.1092873,0.0,2025-04-09 22:38:54.109,LEFT,20
40.0,14082.448373132751,2156.7198224925783,-62140.040056710255,-59393.70356723113,-35606.038344626235,-33021.617891981354,-19424.828222373515,-21988.796828841787,0.0,0.0,0.0,193.0,1.0,154.0,0.0,2.0,3.0,250.0,410.0,2.0,1018.0,1744252734.1092956,0.0,2025-04-09 22:38:54.109,LEFT,20
41.0,14148.251908809176,2196.14829971174,-62101.729166713856,-59433.02028572802,-35528.008404732755,-32935.630731061785,-19840.660076220047,-21922.90388618754,0.0,0.0,0.0,193.0,1.0,155.0,0.0,2.0,3.0,252.0,411.0,2.0,1020.0,1744252734.1093042,0.0,2025-04-09 22:38:54.109,LEFT,20
42.0,14082.984814999678,2192.259096176517,-62094.08487011014,-59384.18172409317,-35520.49821859577,-32928.858152491826,-19647.27278319273,-21892.639624195057,0.0,0.0,0.0,193.0,1.0,154.0,0.0,2.0,3.0,250.0,410.0,2.0,1018.0,1744252734.1093173,0.0,2025-04-09 22:38:54.109,LEFT,20
43.0,14000.305712259498,2158.7538312380116,-62148.220795180896,-59467.598434400374,-35561.08898652661,-32971.30411521246,-19680.778048131233,-21943.266325386325,0.0,0.0,0.0,193.0,1.0,155.0,0.0,2.0,3.0,251.0,411.0,2.0,1019.0,1744252734.109326,0.0,2025-04-09 22:38:54.109,LEFT,20
44.0,14052.944070451746,2146.7956479544223,-62142.699914300436,-59401.817250468404,-35602.685582957936,-33016.946377390195,-19470.47048455125,-21977.375087425124,0.0,0.0,0.0,193.0,1.0,154.0,0.0,2.0,3.0,250.0,410.0,2.0,1018.0,1744252734.1093345,0.0,2025-04-09 22:38:54.109,LEFT,20
45.0,14137.299554026074,2178.6468838032347,-62132.418111850995,-59447.705381835156,-35558.339721958604,-32961.60345811885,-19727.336731831638,-21934.370331093112,0.0,0.0,0.0,193.0,1.0,154.0,0.0,2.0,3.0,248.0,410.0,2.0,1016.0,1744252734.1093433,0.0,2025-04-09 22:38:54.109,LEFT,20
46.0,14079.564998098016,2182.7149012941004,-62098.085832367644,-59391.22252359659,-35512.04925919166,-32922.778477999986,-19715.914990414978,-21883.85538862412,0.0,0.0,0.0,193.0,1.0,155.0,0.0,2.0,3.0,251.0,411.0,2.0,1019.0,1744252734.1093516,0.0,2025-04-09 22:38:54.109,LEFT,20
47.0,14018.29886654602,2174.958845968109,-62135.32383863018,-59448.26417544654,-35533.97632050232,-32947.61126608983,-19620.227172401806,-21908.71052845842,0.0,0.0,0.0,193.0,1.0,154.0,0.0,2.0,3.0,250.0,410.0,2.0,1018.0,1744252734.1093605,0.0,2025-04-09 22:38:54.109,LEFT,20
48.0,14026.121977105377,2141.2971188184165,-62148.93605100347,-59417.95520996514,-35596.36003927708,-33009.43619125321,-19526.416900922883,-21964.29931691877,0.0,0.0,0.0,193.0,1.0,155.0,0.0,2.0,3.0,252.0,411.0,2.0,1020.0,1744252734.1093693,0.0,2025-04-09 22:38:54.109,LEFT,20
49.0,14131.510452212151,2162.4642208175924,-62150.791245793254,-59450.968736525625,-35587.084065328134,-32993.99113583459,-19619.10958517904,-21963.092322718185,0.0,0.0,0.0,193.0,1.0,155.0,0.0,2.0,3.0,251.0,411.0,2.0,1019.0,1744252734.109378,0.0,2025-04-09 22:38:54.109,LEFT,20
50.0,14095.345329683463,2182.379625127271,-62094.50955325479,-59400.45379405664,-35511.82574174711,-32926.980605957586,-19819.49297422087,-21906.721223201897,0.0,0.0,0.0,193.0,1.0,154.0,0.0,2.0,3.0,249.0,410.0,2.0,1017.0,1744252734.1093867,0.0,2025-04-09 22:38:54.109,LEFT,20
51.0,14022.500994503618,2170.153220910218,-62142.94578348944,-59449.091189991384,-35548.72847184283,-32968.62190587782,-19605.698538505858,-21936.38198809409,0.0,0.0,0.0,193.0,1.0,155.0,0.0,2.0,3.0,252.0,411.0,2.0,1020.0,1744252734.1093953,0.0,2025-04-09 22:38:54.109,LEFT,20
52.0,14006.474793729163,2139.6207379842685,-62148.13138820307,-59430.628649071296,-35585.072408327156,-33000.24962428208,-19609.565390296626,-21947.33434287719,0.0,0.0,0.0,193.0,1.0,155.0,0.0,2.0,3.0,252.0,411.0,2.0,1020.0,1744252734.109404,0.0,2025-04-09 22:38:54.109,LEFT,20
53.0,14140.473501738728,2178.579828569869,-62137.20138516443,-59417.88815473177,-35580.155024546984,-32996.7851038915,-19507.172048946864,-21944.58507830919,0.0,0.0,0.0,193.0,1.0,155.0,0.0,2.0,3.0,252.0,411.0,2.0,1020.0,1744252734.109413,0.0,2025-04-09 22:38:54.109,LEFT,20
54.0,14110.052777535055,2191.320322909394,-62090.35212878611,-59404.700625503145,-35504.29320386567,-32917.458762819624,-19854.428750804516,-21877.4627897099,0.0,0.0,0.0,193.0,1.0,154.0,0.0,2.0,3.0,251.0,410.0,2.0,1019.0,1744252734.1094213,0.0,2025-04-09 22:38:54.109,LEFT,20
55.0,14047.870224460392,2194.494270622047,-62124.61735303609,-59418.893983232265,-35530.69061406739,-32945.33138815539,-19561.889119373456,-21901.625025466088,0.0,0.0,0.0,193.0,1.0,155.0,0.0,2.0,3.0,252.0,411.0,2.0,1020.0,1744252734.10943,0.0,2025-04-09 22:38:54.109,LEFT,20
56.0,14004.776061150558,2157.345671337327,-62144.68921955696,-59439.0776084754,-35568.88974534151,-32984.513996185546,-19652.950126284377,-21948.13900567758,0.0,0.0,0.0,193.0,1.0,154.0,0.0,2.0,3.0,252.0,410.0,2.0,1020.0,1744252734.1094384,0.0,2025-04-09 22:38:54.109,LEFT,20
57.0,14118.904068339358,2166.800459241922,-62156.98267900738,-59414.89302097476,-35611.22394933987,-33021.550836747985,-19445.883565650412,-21986.91928230754,0.0,0.0,0.0,193.0,1.0,154.0,0.0,2.0,3.0,249.0,410.0,2.0,1017.0,1744252734.1094513,0.0,2025-04-09 22:38:54.109,LEFT,20
58.0,14120.111062539943,2188.414596130204,-62109.99931216232,-59428.84050951487,-35525.10267795357,-32929.1710769142,-19917.41596667957,-21912.599731993643,0.0,0.0,0.0,193.0,1.0,155.0,0.0,2.0,3.0,252.0,411.0,2.0,1020.0,1744252734.10946,0.0,2025-04-09 22:38:54.109,LEFT,20
59.0,14065.326936879987,2193.1084624658183,-62120.325818100675,-59404.275942358494,-35530.57885534511,-32946.18075444469,-19594.276797089195,-21914.05259538324,0.0,0.0,0.0,193.0,1.0,155.0,0.0,2.0,3.0,250.0,411.0,2.0,1018.0,1744252734.1094787,0.0,2025-04-09 22:38:54.109,LEFT,20
60.0,13993.354319733897,2150.4389823006372,-62151.19357719345,-59452.019268515025,-35563.95000981689,-32976.445016437174,-19696.781897161236,-21938.617162539624,0.0,0.0,0.0,193.0,1.0,155.0,0.0,2.0,3.0,252.0,411.0,2.0,1020.0,1744252734.1094878,0.0,2025-04-09 22:38:54.109,LEFT,20
61.0,14102.229666975698,2162.6206830287797,-62149.271327170296,-59397.39160506626,-35607.71472546038,-33021.707298959176,-19421.65427466086,-21973.307069934257,0.0,0.0,0.0,193.0,1.0,155.0,0.0,2.0,3.0,251.0,411.0,2.0,1019.0,1744252734.1094964,0.0,2025-04-09 22:38:54.109,LEFT,20
62.0,14141.814606406047,2193.890773521754,-62106.80301270521,-59431.746236294064,-35523.22513141932,-32929.30518738094,-19888.22458842094,-21899.367499276104,0.0,0.0,0.0,193.0,1.0,154.0,0.0,2.0,3.0,249.0,410.0,2.0,1017.0,1744252734.1095052,0.0,2025-04-09 22:38:54.109,LEFT,20
63.0,14082.269559177108,2196.438872389659,-62106.557143516206,-59389.30027357343,-35521.101715696066,-32940.95044624215,-19616.583838055594,-21900.395679521047,0.0,0.0,0.0,193.0,1.0,155.0,0.0,2.0,3.0,253.0,411.0,2.0,1021.0,1744252734.1095138,0.0,2025-04-09 22:38:54.109,LEFT,20
64.0,14001.713872160182,2163.179476640162,-62150.61243183762,-59460.423524430225,-35556.17160274644,-32974.165138502736,-19688.243530779306,-21935.286752615782,0.0,0.0,0.0,193.0,1.0,154.0,0.0,2.0,3.0,251.0,410.0,2.0,1019.0,1744252734.1095223,0.0,2025-04-09 22:38:54.109,LEFT,20
65.0,14078.939149253269,2163.3359388513495,-62146.36560039111,-59395.89403818775,-35606.57478649316,-33019.382717535824,-19440.385036514406,-21968.769665809832,0.0,0.0,0.0,193.0,1.0,154.0,0.0,2.0,3.0,250.0,410.0,2.0,1018.0,1744252734.1095307,0.0,2025-04-09 22:38:54.109,LEFT,20
66.0,14142.0381238506,2188.302837407927,-62124.796166991735,-59451.23695745909,-35544.101660740576,-32954.20503070415,-19828.433672002993,-21927.173069378507,0.0,0.0,0.0,193.0,1.0,155.0,0.0,2.0,3.0,252.0,411.0,2.0,1020.0,1744252734.1095395,0.0,2025-04-09 22:38:54.109,LEFT,20
67.0,14079.11796320891,2187.028787973975,-62105.19368710443,-59395.98344516557,-35519.470038350824,-32938.96114098563,-19684.957824344376,-21901.96030163292,0.0,0.0,0.0,193.0,1.0,155.0,0.0,2.0,3.0,251.0,411.0,2.0,1019.0,1744252734.109548,0.0,2025-04-09 22:38:54.109,LEFT,20
68.0,14005.24544778412,2162.888903962243,-62146.43265562447,-59464.133914009806,-35546.336835186106,-32956.104928982844,-19669.959803814865,-21914.924313416996,0.0,0.0,0.0,193.0,1.0,154.0,0.0,2.0,3.0,249.0,410.0,2.0,1017.0,1744252734.109557,0.0,2025-04-09 22:38:54.109,LEFT,20
69.0,14042.170529624287,2139.9336624066427,-62150.187748692966,-59413.641323285265,-35601.769161435266,-33010.95610987617,-19494.878589496446,-21961.371238395124,0.0,0.0,0.0,193.0,1.0,155.0,0.0,2.0,3.0,252.0,411.0,2.0,1020.0,1744252734.1095655,0.0,2025-04-09 22:38:54.109,LEFT,20
70.0,14147.290783797596,2181.9549419826203,-62131.4122833505,-59447.057181245946,-35560.999579548785,-32956.84253654987,-19718.463089282883,-21923.976769921395,0.0,0.0,0.0,193.0,1.0,154.0,0.0,2.0,3.0,250.0,410.0,2.0,1018.0,1744252734.1095743,0.0,2025-04-09 22:38:54.109,LEFT,20
71.0,14100.240361719176,2196.6623898342123,-62079.489180980825,-59382.48299151457,-35497.811197973635,-32904.76297196901,-19757.355124635116,-21868.65620239451,0.0,0.0,0.0,193.0,1.0,154.0,0.0,2.0,3.0,250.0,410.0,2.0,1018.0,1744252734.1095886,0.0,2025-04-09 22:38:54.109,LEFT,20
72.0,14027.597192239427,2175.629398301768,-62125.24320188084,-59443.32443992191,-35526.24261692078,-32937.12829794029,-19624.518707337225,-21901.177990576984,0.0,0.0,0.0,193.0,1.0,154.0,0.0,2.0,3.0,251.0,410.0,2.0,1019.0,1744252734.1095972,0.0,2025-04-09 22:38:54.109,LEFT,20
73.0,14021.316352047486,2137.3632117942825,-62140.88942299956,-59421.03975069997,-35584.848890882604,-33000.093162070894,-19564.146645563444,-21956.16328193704,0.0,0.0,0.0,193.0,1.0,154.0,0.0,2.0,3.0,249.0,410.0,2.0,1017.0,1744252734.109606,0.0,2025-04-09 22:38:54.109,LEFT,20
74.0,14136.807815648059,2167.9180464646874,-62138.92246948749,-59442.162149210235,-35578.076312312645,-32986.6374119088,-19599.59651226956,-21947.71432253293,0.0,0.0,0.0,193.0,1.0,155.0,0.0,2.0,3.0,251.0,411.0,2.0,1019.0,1744252734.1096144,0.0,2025-04-09 22:38:54.109,LEFT,20
75.0,14107.482326922694,2188.571058341391,-62077.0528408352,-59398.28567484447,-35493.00557291575,-32908.49571329304,-19845.488053022393,-21878.89330135504,0.0,0.0,0.0,193.0,1.0,155.0,0.0,2.0,3.0,251.0,411.0,2.0,1019.0,1744252734.109623,0.0,2025-04-09 22:38:54.109,LEFT,20
76.0,14038.929526678268,2180.189154170651,-62121.28694311225,-59436.39539914077,-35527.82959077711,-32942.00097823155,-19601.719927992814,-21905.17895283448,0.0,0.0,0.0,193.0,1.0,154.0,0.0,2.0,3.0,250.0,410.0,2.0,1018.0,1744252734.1096315,0.0,2025-04-09 22:38:54.109,LEFT,20
77.0,14008.48645073014,2142.9064444191986,-62136.10614968612,-59435.12134970682,-35576.57874543414,-32984.26812699653,-19651.899594294977,-21949.122482433617,0.0,0.0,0.0,193.0,1.0,155.0,0.0,2.0,3.0,251.0,411.0,2.0,1019.0,1744252734.10964,0.0,2025-04-09 22:38:54.109,LEFT,20
78.0,14132.069245823533,2166.6439970307347,-62137.7154752869,-59426.80650076944,-35592.49318748632,-33003.58003420592,-19507.90965651389,-21966.936822764495,0.0,0.0,0.0,193.0,1.0,155.0,0.0,2.0,3.0,251.0,411.0,2.0,1019.0,1744252734.1096487,0.0,2025-04-09 22:38:54.109,LEFT,20
79.0,14110.36570195743,2179.2727326479835,-62088.49693399631,-59427.56646008092,-35507.802427745155,-32926.35475711284,-19896.382975147128,-21900.976824876885,0.0,0.0,0.0,193.0,1.0,154.0,0.0,2.0,3.0,249.0,410.0,2.0,1017.0,1744252734.1096573,0.0,2025-04-09 22:38:54.109,LEFT,20
80.0,14050.217157628198,2181.217334415595,-62123.52211755778,-59439.61405034233,-35537.70906182636,-32962.698693597165,-19594.567369767115,-21929.989389179875,0.0,0.0,0.0,193.0,1.0,155.0,0.0,2.0,3.0,252.0,411.0,2.0,1020.0,1744252734.1096656,0.0,2025-04-09 22:38:54.109,LEFT,20
81.0,14001.468002971174,2151.489514290037,-62132.284001384265,-59451.34871618137,-35560.97722780433,-32980.46833043913,-19685.27074876675,-21942.126386419106,0.0,0.0,0.0,193.0,1.0,155.0,0.0,2.0,3.0,251.0,411.0,2.0,1019.0,1744252734.1096745,0.0,2025-04-09 22:38:54.109,LEFT,20
82.0,14106.141222255377,2157.770354481978,-62133.602754307125,-59409.014512183014,-35599.533986989736,-33009.34678427539,-19430.393806742886,-21959.046656971772,0.0,0.0,0.0,193.0,1.0,155.0,0.0,2.0,3.0,249.0,411.0,2.0,1017.0,1744252734.1096828,0.0,2025-04-09 22:38:54.109,LEFT,20
83.0,14117.205335760753,2179.451546603626,-62089.2568933078,-59432.68500956119,-35513.189198158885,-32917.19054188616,-19902.909684528076,-21885.017679335797,0.0,0.0,0.0,193.0,1.0,155.0,0.0,2.0,3.0,252.0,411.0,2.0,1020.0,1744252734.1096911,0.0,2025-04-09 22:38:54.109,LEFT,20
84.0,14050.015991928101,2180.2562094040168,-62104.76900395978,-59407.494593560055,-35527.00257623227,-32940.01167297503,-19588.44299178636,-21899.25574055383,0.0,0.0,0.0,193.0,1.0,154.0,0.0,2.0,3.0,249.0,410.0,2.0,1017.0,1744252734.1096997,0.0,2025-04-09 22:38:54.109,LEFT,20
85.0,13984.883008585335,2147.9132351771873,-62136.95551597542,-59462.34577445338,-35565.91696332896,-32974.165138502736,-19704.38149027604,-21942.81929049722,0.0,0.0,0.0,193.0,1.0,155.0,0.0,2.0,3.0,251.0,411.0,2.0,1019.0,1744252734.5900888,0.0,2025-04-09 22:38:54.590,LEFT,20
86.0,14086.65050109035,2153.2776538464614,-62134.18389966297,-59402.0184161685,-35613.727344718856,-33021.03674662551,-19440.250926047676,-21984.035907272806,0.0,0.0,0.0,193.0,1.0,155.0,0.0,2.0,3.0,252.0,411.0,2.0,1020.0,1744252734.5901616,0.0,2025-04-09 22:38:54.590,LEFT,20
87.0,14131.510452212151,2188.325189152383,-62096.61061723359,-59439.21171894213,-35531.294111167685,-32930.6239403038,-19893.03021347883,-21915.61721749511,0.0,0.0,0.0,193.0,1.0,154.0,0.0,2.0,3.0,249.0,410.0,2.0,1017.0,1744252734.5901814,0.0,2025-04-09 22:38:54.590,LEFT,20
88.0,14075.765201540615,2198.2046602016285,-62085.12182058357,-59384.04761362644,-35517.12310518302,-32927.874675735795,-19653.933603040412,-21910.319854059202,0.0,0.0,0.0,193.0,1.0,155.0,0.0,2.0,3.0,252.0,411.0,2.0,1020.0,1744252734.5902016,0.0,2025-04-09 22:38:54.590,LEFT,20
89.0,14005.468965228674,2170.4661453325925,-62120.392873334036,-59445.62666960081,-35538.849000793576,-32937.32946364039,-19693.362080259572,-21906.207133079428,0.0,0.0,0.0,193.0,1.0,154.0,0.0,2.0,3.0,251.0,410.0,2.0,1019.0,1744252734.5902193,0.0,2025-04-09 22:38:54.590,LEFT,20
90.0,14070.557245082528,2157.2115608705953,-62120.90696345651,-59386.595712494345,-35594.013106109276,-32996.67334516923,-19455.76303669966,-21960.074837216718,0.0,0.0,0.0,193.0,1.0,154.0,0.0,2.0,3.0,249.0,410.0,2.0,1017.0,1744252734.590237,0.0,2025-04-09 22:38:54.590,LEFT,20
91.0,14137.724237170725,2187.0734914628856,-62111.00514066281,-59445.872538789816,-35551.634198622014,-32942.33625439838,-19803.980863568886,-21928.715339745922,0.0,0.0,0.0,193.0,1.0,154.0,0.0,2.0,3.0,252.0,410.0,2.0,1020.0,1744252734.5902543,0.0,2025-04-09 22:38:54.590,LEFT,20
92.0,14081.68841382127,2197.176479956684,-62077.29871002421,-59382.013604881,-35516.65371854946,-32916.45293431913,-19726.085034142143,-21898.942816131454,0.0,0.0,0.0,193.0,1.0,154.0,0.0,2.0,3.0,251.0,410.0,2.0,1019.0,1744252734.5902636,0.0,2025-04-09 22:38:54.590,LEFT,20
93.0,13998.76344189208,2160.832543472355,-62133.40158860703,-59461.83168433091,-35554.22700097883,-32959.412987162235,-19680.710992897868,-21941.679351529998,0.0,0.0,0.0,193.0,1.0,154.0,0.0,2.0,3.0,251.0,410.0,2.0,1019.0,1744252734.5902731,0.0,2025-04-09 22:38:54.590,LEFT,20
94.0,14037.186090610754,2143.2640723304835,-62125.24320188084,-59402.93483769117,-35587.508748472785,-32994.48287421261,-19521.879496798458,-21945.747369020864,0.0,0.0,0.0,193.0,1.0,155.0,0.0,2.0,3.0,252.0,411.0,2.0,1020.0,1744252734.590282,0.0,2025-04-09 22:38:54.590,LEFT,20
95.0,14136.60664994796,2169.1026889208188,-62123.678579768966,-59442.13979746578,-35568.062730796664,-32964.66564710923,-19668.953975314376,-21927.933028689986,0.0,0.0,0.0,193.0,1.0,154.0,0.0,2.0,3.0,250.0,410.0,2.0,1018.0,1744252734.590291,0.0,2025-04-09 22:38:54.590,LEFT,20
96.0,14081.867227776913,2172.678968033668,-62083.44543974942,-59397.23514285507,-35512.205721402854,-32915.4694575631,-19793.050860530242,-21887.543426459244,0.0,0.0,0.0,193.0,1.0,153.0,0.0,2.0,3.0,250.0,409.0,2.0,1018.0,1744252734.5903003,0.0,2025-04-09 22:38:54.590,LEFT,20
97.0,14020.422282269274,2173.4389273451484,-62110.9604371739,-59434.6296113288,-35520.40881161795,-32929.86398099232,-19624.094024192575,-21901.312101043713,0.0,0.0,0.0,193.0,1.0,154.0,0.0,2.0,3.0,252.0,410.0,2.0,1020.0,1744252734.5903096,0.0,2025-04-09 22:38:54.590,LEFT,20
98.0,14018.656494457306,2146.0133368984866,-62115.52019304278,-59406.153488892734,-35564.08412028362,-32974.34395245838,-19580.48577076027,-21940.11472941813,0.0,0.0,0.0,193.0,1.0,154.0,0.0,2.0,3.0,249.0,410.0,2.0,1017.0,1744252734.5903184,0.0,2025-04-09 22:38:54.590,LEFT,20
99.0,14125.654295164859,2160.4749155610702,-62132.552222317725,-59433.69083806167,-35587.173472305956,-32986.458597953155,-19561.48678797326,-21958.420808127023,0.0,0.0,0.0,193.0,1.0,154.0,0.0,2.0,3.0,250.0,410.0,2.0,1018.0,1744252734.5903275,0.0,2025-04-09 22:38:54.590,LEFT,20
100.0,14087.633977846383,2174.6906250346456,-62084.56302697218,-59411.38379709528,-35514.82087550413,-32914.307166851424,-19875.55114931478,-21901.379156277082,0.0,0.0,0.0,193.0,1.0,155.0,0.0,2.0,3.0,253.0,411.0,2.0,1021.0,1744252734.5903363,0.0,2025-04-09 22:38:54.590,LEFT,20
101.0,14034.392122553842,2185.7547385400226,-62104.97016965988,-59422.157337922734,-35523.26983490823,-32932.479135093585,-19607.889009462477,-21915.81838319521,0.0,0.0,0.0,193.0,1.0,154.0,0.0,2.0,3.0,249.0,410.0,2.0,1017.0,1744252734.59035,0.0,2025-04-09 22:38:54.590,LEFT,20
102.0,13999.523401203562,2145.275729331461,-62116.481318054364,-59424.50427109055,-35558.31737021415,-32965.04562676497,-19641.103701723063,-21929.00591242384,0.0,0.0,0.0,193.0,1.0,154.0,0.0,2.0,3.0,250.0,410.0,2.0,1018.0,1744252734.59036,0.0,2025-04-09 22:38:54.590,LEFT,20
103.0,14121.116891040432,2167.6498255312235,-62119.409396578005,-59403.8736109583,-35587.575803706146,-32987.6879438982,-19464.1449408704,-21948.29546788877,0.0,0.0,0.0,193.0,1.0,155.0,0.0,2.0,3.0,251.0,411.0,2.0,1019.0,1744252734.5903685,0.0,2025-04-09 22:38:54.590,LEFT,20
104.0,14113.27142873662,2190.8509362758323,-62067.86627386407,-59407.38283483778,-35502.10273290906,-32904.15947486871,-19904.139030473118,-21889.309214271216,0.0,0.0,0.0,193.0,1.0,154.0,0.0,2.0,3.0,251.0,410.0,2.0,1019.0,1744252734.5903773,0.0,2025-04-09 22:38:54.590,LEFT,20
105.0,14047.803169227025,2184.704206550623,-62099.203419590405,-59410.37796859479,-35523.64981456397,-32938.37999562979,-19576.663622458414,-21911.549200004247,0.0,0.0,0.0,193.0,1.0,154.0,0.0,2.0,3.0,250.0,410.0,2.0,1018.0,1744252734.5903866,0.0,2025-04-09 22:38:54.590,LEFT,20
106.0,13983.944235318213,2138.480799017048,-62131.52404207278,-59455.21556797213,-35562.541849916204,-32978.12139727132,-19684.868417366557,-21954.196328424972,0.0,0.0,0.0,193.0,1.0,155.0,0.0,2.0,3.0,252.0,411.0,2.0,1020.0,1744252734.5903955,0.0,2025-04-09 22:38:54.590,LEFT,20
107.0,14100.285065208087,2157.0103951704973,-62129.33357111616,-59406.91344820422,-35600.53981549023,-33016.67815645673,-19439.13333882491,-21987.00868928536,0.0,0.0,0.0,193.0,1.0,154.0,0.0,2.0,3.0,251.0,410.0,2.0,1019.0,1744252734.5904045,0.0,2025-04-09 22:38:54.590,LEFT,20
108.0,14120.580449173505,2185.8888490067543,-62085.97118687287,-59433.33321015039,-35519.917073239936,-32918.442239575656,-19924.546173160812,-21905.290711556758,0.0,0.0,0.0,193.0,1.0,155.0,0.0,2.0,3.0,250.0,411.0,2.0,1018.0,1744252734.590413,0.0,2025-04-09 22:38:54.590,LEFT,20
109.0,14055.581576297473,2185.7770902844777,-62097.7058527119,-59403.20305862463,-35533.663396079945,-32940.34694914186,-19623.736396281292,-21913.918484916507,0.0,0.0,0.0,193.0,1.0,155.0,0.0,2.0,3.0,252.0,411.0,2.0,1020.0,1744252734.590422,0.0,2025-04-09 22:38:54.590,LEFT,20
110.0,13987.744031875614,2153.858799202299,-62128.43950133795,-59461.65287037526,-35560.32902721513,-32969.20305123366,-19718.552496260705,-21946.90965973254,0.0,0.0,0.0,193.0,1.0,154.0,0.0,2.0,3.0,249.0,410.0,2.0,1017.0,1744252734.590431,0.0,2025-04-09 22:38:54.590,LEFT,20
111.0,14078.715631808715,2157.680947504157,-62122.851565224126,-59394.99996840954,-35607.31239406019,-33014.73355468912,-19444.698923194283,-21986.427543929523,0.0,0.0,0.0,193.0,1.0,155.0,0.0,2.0,3.0,252.0,411.0,2.0,1020.0,1744252734.5904396,0.0,2025-04-09 22:38:54.590,LEFT,20
112.0,14136.003152847667,2193.0637589769076,-62090.15096308601,-59438.96584975313,-35532.72462281283,-32926.980605957586,-19875.059410936763,-21913.225580838392,0.0,0.0,0.0,193.0,1.0,154.0,0.0,2.0,3.0,251.0,410.0,2.0,1019.0,1744252734.5904486,0.0,2025-04-09 22:38:54.590,LEFT,20
113.0,14081.286082421075,2197.9364392681646,-62076.02466059026,-59384.069965370894,-35516.58666331609,-32919.44806807614,-19670.116266026052,-21898.272263797793,0.0,0.0,0.0,193.0,1.0,154.0,0.0,2.0,3.0,250.0,410.0,2.0,1018.0,1744252734.5904577,0.0,2025-04-09 22:38:54.590,LEFT,20
114.0,13994.896590101313,2160.2066946276063,-62127.031341437265,-59465.11739076584,-35551.58949513311,-32959.65885635124,-19697.765373917267,-21945.09916843166,0.0,0.0,0.0,193.0,1.0,154.0,0.0,2.0,3.0,250.0,410.0,2.0,1018.0,1744252734.5904665,0.0,2025-04-09 22:38:54.590,LEFT,20
115.0,14052.519387307095,2150.0366509004416,-62123.43271057996,-59403.225410369094,-35600.42805676795,-33007.73745867461,-19488.173066159852,-21973.552939123267,0.0,0.0,0.0,193.0,1.0,155.0,0.0,2.0,3.0,251.0,411.0,2.0,1019.0,1744252734.590475,0.0,2025-04-09 22:38:54.590,LEFT,20
116.0,14136.584298203505,2177.9763314695756,-62111.54158252974,-59453.74035283809,-35556.328064957626,-32949.93584751318,-19774.565967865703,-21927.642456012065,0.0,0.0,0.0,193.0,1.0,154.0,0.0,2.0,3.0,250.0,410.0,2.0,1018.0,1744252734.5904882,0.0,2025-04-09 22:38:54.590,LEFT,20
117.0,14089.22095170271,2191.320322909394,-62065.54169244072,-59383.84644792634,-35499.84520671907,-32906.37229756979,-19733.908144701498,-21873.28301349676,0.0,0.0,0.0,193.0,1.0,155.0,0.0,2.0,3.0,251.0,411.0,2.0,1019.0,1744252734.590497,0.0,2025-04-09 22:38:54.590,LEFT,20
118.0,14018.231811312655,2181.217334415595,-62107.58532376115,-59446.990126012584,-35525.95204424287,-32941.3751293868,-19644.143538968987,-21913.069118627205,0.0,0.0,0.0,193.0,1.0,154.0,0.0,2.0,3.0,250.0,410.0,2.0,1018.0,1744252734.5905056,0.0,2025-04-09 22:38:54.590,LEFT,20
119.0,14036.850814443926,2155.736345736545,-62111.11689938509,-59408.65688427173,-35579.97621059135,-33001.277804527024,-19545.39353196544,-21971.451875144467,0.0,0.0,0.0,193.0,1.0,155.0,0.0,2.0,3.0,253.0,411.0,2.0,1021.0,1744252734.5905144,0.0,2025-04-09 22:38:54.590,LEFT,20
120.0,14143.759208173658,2175.5623430684022,-62110.893381940536,-59441.9833352546,-35566.98984706281,-32973.20401349116,-19645.954030269866,-21940.561764307233,0.0,0.0,0.0,193.0,1.0,155.0,0.0,2.0,3.0,251.0,411.0,2.0,1019.0,1744252734.5905232,0.0,2025-04-09 22:38:54.590,LEFT,20
121.0,14100.486230908184,2187.542878096447,-62060.981936571836,-59393.23418059757,-35499.420523574416,-32908.67452724869,-19809.50174444935,-21876.300498998226,0.0,0.0,0.0,193.0,1.0,154.0,0.0,2.0,3.0,250.0,410.0,2.0,1018.0,1744252734.590532,0.0,2025-04-09 22:38:54.590,LEFT,20
122.0,14026.0102183831,2174.1765349121733,-62109.59698076213,-59441.67041083222,-35533.886913524504,-32942.76093754303,-19613.34283510957,-21909.04580462525,0.0,0.0,0.0,193.0,1.0,154.0,0.0,2.0,3.0,251.0,410.0,2.0,1019.0,1744252734.590541,0.0,2025-04-09 22:38:54.590,LEFT,20
123.0,14012.800337410014,2144.8510461868104,-62114.782585475754,-59422.313800133925,-35572.331913987626,-32980.378923461314,-19614.706291521346,-21941.791110252278,0.0,0.0,0.0,193.0,1.0,154.0,0.0,2.0,3.0,249.0,410.0,2.0,1017.0,1744252734.5905497,0.0,2025-04-09 22:38:54.590,LEFT,20
124.0,14137.32190577053,2173.95301746762,-62114.022626164275,-59422.20204141165,-35580.42324548045,-32982.85996709585,-19533.99414229323,-21950.77651152331,0.0,0.0,0.0,193.0,1.0,155.0,0.0,2.0,3.0,252.0,411.0,2.0,1020.0,1744252734.5905583,0.0,2025-04-09 22:38:54.590,LEFT,20
125.0,14103.347254198463,2183.318398394394,-62068.26860526426,-59409.3721400943,-35507.44479983387,-32902.572501012386,-19880.043849950296,-21880.32381300018,0.0,0.0,0.0,193.0,1.0,154.0,0.0,2.0,3.0,250.0,410.0,2.0,1018.0,1744252734.590567,0.0,2025-04-09 22:38:54.590,LEFT,20
126.0,14044.49511104764,2186.313532151405,-62097.81761143418,-59423.74431177906,-35530.69061406739,-32930.31101588142,-19598.613035513525,-21904.843676667653,0.0,0.0,0.0,193.0,1.0,155.0,0.0,2.0,3.0,252.0,411.0,2.0,1020.0,1744252734.5905762,0.0,2025-04-09 22:38:54.590,LEFT,20
127.0,14008.240581541131,2160.3631568387937,-62106.64655049403,-59430.44983511566,-35560.35137895958,-32957.803661561455,-19677.671155651948,-21938.594810795166,0.0,0.0,0.0,193.0,1.0,154.0,0.0,2.0,3.0,250.0,410.0,2.0,1018.0,1744252734.5905924,0.0,2025-04-09 22:38:54.590,LEFT,20
128.0,14131.979838845711,2182.312569893905,-62110.37929181806,-59399.51502078951,-35594.5495479762,-32981.60826940635,-19466.894205438402,-21955.693895303477,0.0,0.0,0.0,193.0,1.0,155.0,0.0,2.0,3.0,253.0,411.0,2.0,1021.0,1744252734.5906014,0.0,2025-04-09 22:38:54.590,LEFT,20
129.0,14131.421045234329,2204.0384655044636,-62061.27250924975,-59411.696721517656,-35508.852959734555,-32892.55891949641,-19928.502431929403,-21889.935063115965,0.0,0.0,0.0,193.0,1.0,154.0,0.0,2.0,3.0,250.0,410.0,2.0,1018.0,1744252734.5906105,0.0,2025-04-09 22:38:54.590,LEFT,20
130.0,14063.941128723756,2198.3611224128153,-62085.56885547267,-59401.414919068215,-35523.00161397477,-32926.80179200194,-19604.44684081636,-21913.940836660964,0.0,0.0,0.0,193.0,1.0,155.0,0.0,2.0,3.0,251.0,411.0,2.0,1019.0,1744252734.590619,0.0,2025-04-09 22:38:54.590,LEFT,20
131.0,13998.24935176961,2160.7431364945337,-62115.47548955387,-59447.81714055743,-35553.91407655646,-32959.4800423956,-19708.673025211458,-21949.18953766698,0.0,0.0,0.0,193.0,1.0,154.0,0.0,2.0,3.0,250.0,410.0,2.0,1018.0,1744252734.5906324,0.0,2025-04-09 22:38:54.590,LEFT,20
132.0,14100.016844274622,2163.827677229366,-62124.90792571401,-59405.34882609235,-35608.56409174968,-33010.35261277588,-19438.37337951343,-21986.49459916289,0.0,0.0,0.0,193.0,1.0,154.0,0.0,2.0,3.0,250.0,410.0,2.0,1018.0,1744252734.5906413,0.0,2025-04-09 22:38:54.590,LEFT,20
133.0,14127.330675999008,2186.760567040511,-62086.32881478415,-59443.12327422181,-35527.40490763246,-32918.2187221311,-19917.594780635212,-21904.843676667653,0.0,0.0,0.0,193.0,1.0,154.0,0.0,2.0,3.0,251.0,410.0,2.0,1019.0,1744252734.5906608,0.0,2025-04-09 22:38:54.590,LEFT,20
134.0,14073.93235849528,2197.377645656782,-62078.84098039162,-59393.94943642014,-35515.580834815606,-32920.543303554456,-19625.971570726822,-21894.070135840197,0.0,0.0,0.0,193.0,1.0,154.0,0.0,2.0,3.0,249.0,410.0,2.0,1017.0,1744252734.5906699,0.0,2025-04-09 22:38:54.590,LEFT,20
135.0,13996.170639535267,2163.514752806992,-62118.94000994445,-59459.4847511631,-35546.69446309739,-32952.30513242545,-19694.70318492689,-21932.738653747878,0.0,0.0,0.0,193.0,1.0,154.0,0.0,2.0,3.0,250.0,410.0,2.0,1018.0,1744252734.5906785,0.0,2025-04-09 22:38:54.590,LEFT,20
136.0,14070.31137589352,2153.5905782688355,-62120.72814950087,-59398.50919228902,-35602.395010280015,-33002.28363302751,-19440.966181870244,-21975.229319957416,0.0,0.0,0.0,193.0,1.0,154.0,0.0,2.0,3.0,252.0,410.0,2.0,1020.0,1744252734.5906885,0.0,2025-04-09 22:38:54.590,LEFT,20
137.0,14131.689266167792,2180.6138373153017,-62100.321006813174,-59453.785056327,-35543.252294451275,-32930.91451298172,-19831.339398782184,-21917.29359832926,0.0,0.0,0.0,193.0,1.0,154.0,0.0,2.0,3.0,249.0,410.0,2.0,1017.0,1744252734.5906973,0.0,2025-04-09 22:38:54.590,LEFT,20
138.0,14076.279291663086,2193.220221188095,-62071.84488437711,-59389.83671544036,-35510.12700916851,-32905.165303369206,-19677.179417273932,-21877.261624009803,0.0,0.0,0.0,193.0,1.0,155.0,0.0,2.0,3.0,251.0,411.0,2.0,1019.0,1744252734.5907094,0.0,2025-04-09 22:38:54.590,LEFT,20
139.0,13993.287264500532,2163.1124214067963,-62124.75146350283,-59469.09600127888,-35547.521477642236,-32940.41400437522,-19667.098780524586,-21920.109918130627,0.0,0.0,0.0,193.0,1.0,154.0,0.0,2.0,3.0,249.0,410.0,2.0,1017.0,1744252734.5907185,0.0,2025-04-09 22:38:54.590,LEFT,20
140.0,14045.478587803673,2146.058040387397,-62119.409396578005,-59410.31091336143,-35594.840120654124,-32995.57810969092,-19501.29354015512,-21978.44797115898,0.0,0.0,0.0,193.0,1.0,155.0,0.0,2.0,3.0,251.0,411.0,2.0,1019.0,1744252734.5907269,0.0,2025-04-09 22:38:54.590,LEFT,20
141.0,14138.193623804287,2178.222200658584,-62107.808841205704,-59453.11450399334,-35556.73039635782,-32950.315827168924,-19733.706979001403,-21942.841642241674,0.0,0.0,0.0,193.0,1.0,154.0,0.0,2.0,3.0,251.0,410.0,2.0,1019.0,1744252734.5907357,0.0,2025-04-09 22:38:54.590,LEFT,20
142.0,14080.50377136514,2184.078357705874,-62071.53195995474,-59399.112689389316,-35510.37287835752,-32907.735753981564,-19754.13647343355,-21881.933138600965,0.0,0.0,0.0,193.0,1.0,154.0,0.0,2.0,3.0,250.0,410.0,2.0,1018.0,1744252734.5907445,0.0,2025-04-09 22:38:54.590,LEFT,20
143.0,14015.01316011109,2172.5001540780254,-62111.943913929936,-59455.55084413897,-35537.08321298161,-32934.311978138925,-19642.578916857114,-21910.878647670586,0.0,0.0,0.0,193.0,1.0,155.0,0.0,2.0,3.0,252.0,411.0,2.0,1020.0,1744252734.590756,0.0,2025-04-09 22:38:54.590,LEFT,20
144.0,14021.115186347388,2140.157179851196,-62118.157698888506,-59422.29144838947,-35587.59815545061,-32987.017391564536,-19567.141779320453,-21963.986392496397,0.0,0.0,0.0,193.0,1.0,154.0,0.0,2.0,3.0,250.0,410.0,2.0,1018.0,1744252734.5907648,0.0,2025-04-09 22:38:54.590,LEFT,20
145.0,14136.807815648059,2174.377700612271,-62115.65430350952,-59443.503253877556,-35576.93637334542,-32969.51597565603,-19617.27674213371,-21952.05056095726,0.0,0.0,0.0,193.0,1.0,154.0,0.0,2.0,3.0,251.0,410.0,2.0,1019.0,1744252734.5907736,0.0,2025-04-09 22:38:54.590,LEFT,20
146.0,14095.770012828114,2187.766395541,-62063.73120113984,-59402.80072722444,-35501.0298491752,-32895.37523929778,-19839.006047130355,-21873.461827452404,0.0,0.0,0.0,193.0,1.0,155.0,0.0,2.0,3.0,252.0,411.0,2.0,1020.0,1744252734.5907865,0.0,2025-04-09 22:38:54.590,LEFT,20
147.0,14029.698256218226,2178.1327936807625,-62103.964341159386,-59439.52464336451,-35529.93065475591,-32928.34406236935,-19606.54790479516,-21904.6201592231,0.0,0.0,0.0,193.0,1.0,155.0,0.0,2.0,3.0,251.0,411.0,2.0,1019.0,1744252734.590795,0.0,2025-04-09 22:38:54.590,LEFT,20
148.0,14002.406776238297,2141.6323949852463,-62118.44827156643,-59438.54116660848,-35577.76338789027,-32981.04947579497,-19636.96862899883,-21957.705552304455,0.0,0.0,0.0,193.0,1.0,154.0,0.0,2.0,3.0,249.0,410.0,2.0,1017.0,1744252734.590804,0.0,2025-04-09 22:38:54.590,LEFT,20
149.0,14122.547402685572,2161.0337091724527,-62121.68927451245,-59434.49550086207,-35598.14817883351,-32996.11455155785,-19518.52673513016,-21970.98248851091,0.0,0.0,0.0,193.0,1.0,155.0,0.0,2.0,3.0,252.0,411.0,2.0,1020.0,1744252734.5908134,0.0,2025-04-09 22:38:54.590,LEFT,20
150.0,14107.102347266955,2183.743081539045,-62058.031506303734,-59413.26134362952,-35502.39330558697,-32895.777570697974,-19900.473344382448,-21874.735876886356,0.0,0.0,0.0,193.0,1.0,154.0,0.0,2.0,3.0,250.0,410.0,2.0,1018.0,1744252734.590822,0.0,2025-04-09 22:38:54.590,LEFT,20
151.0,14038.124863877878,2181.172630926684,-62087.66991945147,-59419.34101812137,-35524.27566340872,-32927.0700129354,-19585.559616751627,-21898.540484731257,0.0,0.0,0.0,193.0,1.0,155.0,0.0,2.0,3.0,252.0,411.0,2.0,1020.0,1744252734.5908313,0.0,2025-04-09 22:38:54.590,LEFT,20
152.0,13991.163848777278,2147.957938666098,-62100.611579491095,-59438.451759630654,-35553.891724812,-32959.56944937342,-19672.686716638415,-21932.604543281144,0.0,0.0,0.0,193.0,1.0,154.0,0.0,2.0,3.0,249.0,410.0,2.0,1017.0,1744252734.5908396,0.0,2025-04-09 22:38:54.590,LEFT,20
153.0,14106.007111788645,2159.9161219496873,-62108.367634817085,-59408.09809066035,-35601.970327135365,-33003.98236560611,-19409.673739632814,-21974.759933323854,0.0,0.0,0.0,193.0,1.0,154.0,0.0,2.0,3.0,252.0,410.0,2.0,1020.0,1744252734.5908487,0.0,2025-04-09 22:38:54.590,LEFT,20
154.0,14115.148975270866,2183.0725292053853,-62056.69040163641,-59424.63838155728,-35507.668317278425,-32904.27123359099,-19852.35003857017,-21892.125534072584,0.0,0.0,0.0,193.0,1.0,154.0,0.0,2.0,3.0,249.0,410.0,2.0,1017.0,1744252734.59086,0.0,2025-04-09 22:38:54.590,LEFT,20
155.0,14044.808035470014,2183.38545362776,-62077.52222746876,-59404.7229772476,-35524.45447736436,-32928.634635047274,-19520.694854342324,-21909.38108079208,0.0,0.0,0.0,193.0,1.0,154.0,0.0,2.0,3.0,249.0,410.0,2.0,1017.0,1744252734.5908687,0.0,2025-04-09 22:38:54.590,LEFT,20
156.0,13974.556502646983,2140.4924560180257,-62114.49201279784,-59461.876387819815,-35561.916001071455,-32963.592763375374,-19636.58864934309,-21947.11082543264,0.0,0.0,0.0,193.0,1.0,155.0,0.0,2.0,3.0,252.0,411.0,2.0,1020.0,1744252734.5908775,0.0,2025-04-09 22:38:54.590,LEFT,20
157.0,14079.229721931188,2145.320432820372,-62112.994445919336,-59403.6724452582,-35604.22785332535,-33010.35261277588,-19359.35996286392,-21985.73463985141,0.0,0.0,0.0,193.0,1.0,154.0,0.0,2.0,3.0,249.0,410.0,2.0,1017.0,1744252734.5908864,0.0,2025-04-09 22:38:54.590,LEFT,20
158.0,14119.999303817667,2178.825697758877,-62078.729221669346,-59445.313745178435,-35524.56623608664,-32921.236207632566,-19812.854506117645,-21917.89709542955,0.0,0.0,0.0,193.0,1.0,154.0,0.0,2.0,3.0,252.0,410.0,2.0,1020.0,1744252734.5908947,0.0,2025-04-09 22:38:54.590,LEFT,20
159.0,14058.889634476858,2181.9325902381647,-62072.38132624404,-59395.02232015399,-35515.11144818204,-32919.559826798424,-19565.286584530662,-21898.227560308882,0.0,0.0,0.0,193.0,1.0,154.0,0.0,2.0,3.0,251.0,410.0,2.0,1019.0,1744252734.5909035,0.0,2025-04-09 22:38:54.590,LEFT,20
160.0,13979.0492032825,2149.0978776333186,-62116.07898665417,-59467.598434400374,-35544.012253762754,-32950.53934461348,-19624.20578291485,-21923.19445886546,0.0,0.0,0.0,193.0,1.0,154.0,0.0,2.0,3.0,250.0,410.0,2.0,1018.0,1744252734.590912,0.0,2025-04-09 22:38:54.590,LEFT,20
161.0,14051.513558806606,2144.8733979312656,-62114.13438488655,-59404.09712840285,-35595.063638098676,-33004.40704875076,-19378.671870073304,-21974.469360645933,0.0,0.0,0.0,193.0,1.0,154.0,0.0,2.0,3.0,252.0,410.0,2.0,1020.0,1744252734.5909247,0.0,2025-04-09 22:38:54.590,LEFT,20
162.0,14114.41136770384,2164.319415607383,-62108.032358650256,-59465.787943099494,-35554.9422568014,-32954.20503070415,-19735.450415068917,-21948.988371966883,0.0,0.0,0.0,193.0,1.0,154.0,0.0,2.0,3.0,250.0,410.0,2.0,1018.0,1744252734.5909336,0.0,2025-04-09 22:38:54.590,LEFT,20
163.0,14062.912948478814,2174.1094796788075,-62074.84001813412,-59402.37604407979,-35520.09588719557,-32923.91841696721,-19644.21059420235,-21904.731917945377,0.0,0.0,0.0,193.0,1.0,155.0,0.0,2.0,3.0,252.0,411.0,2.0,1020.0,1744252734.5909421,0.0,2025-04-09 22:38:54.590,LEFT,20
164.0,14001.713872160182,2170.712014521601,-62101.75151845831,-59452.08632374839,-35527.96370124385,-32930.46747809261,-19588.26417783072,-21899.18868532046,0.0,0.0,0.0,193.0,1.0,155.0,0.0,2.0,3.0,250.0,411.0,2.0,1018.0,1744252734.5909507,0.0,2025-04-09 22:38:54.590,LEFT,20
165.0,14031.106416118912,2146.7285927210564,-62107.250047594316,-59403.784203980475,-35582.680771670435,-32986.90563284226,-19423.375358983918,-21943.467491086423,0.0,0.0,0.0,193.0,1.0,154.0,0.0,2.0,3.0,249.0,410.0,2.0,1017.0,1744252734.5909595,0.0,2025-04-09 22:38:54.590,LEFT,20
166.0,14127.822414377024,2166.174610397173,-62108.47939353936,-59450.76757082553,-35566.63221915153,-32960.35176042936,-19614.259256632242,-21937.23135438339,0.0,0.0,0.0,193.0,1.0,155.0,0.0,2.0,3.0,252.0,411.0,2.0,1020.0,1744252734.5909681,0.0,2025-04-09 22:38:54.590,LEFT,20
167.0,14091.053794748044,2189.4651281196034,-62050.43191318893,-59382.84061942585,-35497.61003227354,-32894.950556153126,-19716.71965321537,-21878.110990299105,0.0,0.0,0.0,193.0,1.0,154.0,0.0,2.0,3.0,249.0,410.0,2.0,1017.0,1744252734.5909767,0.0,2025-04-09 22:38:54.590,LEFT,20
168.0,14009.134651319344,2172.5895610558464,-62102.24325683633,-59442.4303701437,-35531.450573378876,-32935.11664093931,-19558.268136771698,-21918.254723340837,0.0,0.0,0.0,193.0,1.0,154.0,0.0,2.0,3.0,251.0,410.0,2.0,1019.0,1744252734.5909855,0.0,2025-04-09 22:38:54.590,LEFT,20
169.0,14004.686654172738,2136.08916236033,-62104.791355704234,-59413.015474440515,-35572.42132096545,-32975.77446410352,-19511.888267026934,-21941.791110252278,0.0,0.0,0.0,193.0,1.0,154.0,0.0,2.0,3.0,251.0,410.0,2.0,1019.0,1744252734.5909948,0.0,2025-04-09 22:38:54.590,LEFT,20
170.0,14129.454091722262,2170.1979243991286,-62102.355015558605,-59422.023227456004,-35574.12005354405,-32964.84446106487,-19502.031147722144,-21930.68229325799,0.0,0.0,0.0,193.0,1.0,154.0,0.0,2.0,3.0,250.0,410.0,2.0,1018.0,1744252734.5910032,0.0,2025-04-09 22:38:54.591,LEFT,20
171.0,14096.708786095238,2188.1687269411955,-62044.50870090827,-59383.37706129278,-35491.798578715156,-32887.17214908268,-19784.803066826233,-21860.43076043496,0.0,0.0,0.0,193.0,1.0,155.0,0.0,2.0,3.0,252.0,411.0,2.0,1020.0,1744252734.591014,0.0,2025-04-09 22:38:54.591,LEFT,20
172.0,14025.58553523845,2173.662444789701,-62090.66505320848,-59419.922163477204,-35525.61676807603,-32932.25561764903,-19526.39454917843,-21901.826191166187,0.0,0.0,0.0,193.0,1.0,154.0,0.0,2.0,3.0,249.0,410.0,2.0,1017.0,1744252734.5910225,0.0,2025-04-09 22:38:54.591,LEFT,20
173.0,13989.778040621048,2135.642127471224,-62107.47356503887,-59425.3759891243,-35566.34164647361,-32975.32742921441,-19583.078573117087,-21938.30423811725,0.0,0.0,0.0,193.0,1.0,154.0,0.0,2.0,3.0,249.0,410.0,2.0,1017.0,1744252734.5910313,0.0,2025-04-09 22:38:54.591,LEFT,20
174.0,14121.496870696172,2175.3611773683047,-62097.99642538982,-59391.24487534105,-35576.22111752285,-32979.57426066092,-19418.055643803556,-21936.8290229832,0.0,0.0,0.0,193.0,1.0,155.0,0.0,2.0,3.0,252.0,411.0,2.0,1020.0,1744252734.5910397,0.0,2025-04-09 22:38:54.591,LEFT,20
175.0,14112.1314897694,2196.8412037898547,-62046.90033756499,-59384.22642758208,-35488.244651346766,-32888.53560549446,-19831.40645401555,-21854.66401036549,0.0,0.0,0.0,193.0,1.0,154.0,0.0,2.0,3.0,248.0,410.0,2.0,1016.0,1744252734.591048,0.0,2025-04-09 22:38:54.591,LEFT,20
176.0,14047.199672126731,2192.6167240878017,-62078.52805596925,-59381.275997313984,-35507.19893064487,-32916.967024441605,-19508.647264080915,-21871.7630948738,0.0,0.0,0.0,193.0,1.0,155.0,0.0,2.0,3.0,251.0,411.0,2.0,1019.0,1744252734.5910609,0.0,2025-04-09 22:38:54.591,LEFT,20
177.0,13988.258121998088,2154.5964067693244,-62110.20047786242,-59414.33422736338,-35546.44859390838,-32953.735644070584,-19613.521649065216,-21910.588074992665,0.0,0.0,0.0,193.0,1.0,154.0,0.0,2.0,3.0,250.0,410.0,2.0,1018.0,1744252734.5910692,0.0,2025-04-09 22:38:54.591,LEFT,20
178.0,14105.582428643995,2169.8849999767544,-62121.68927451245,-59374.45871525511,-35595.24245205432,-32997.29919401398,-19368.54652983505,-21944.026284697808,0.0,0.0,0.0,193.0,1.0,153.0,0.0,2.0,3.0,250.0,409.0,2.0,1018.0,1744252734.591078,0.0,2025-04-09 22:38:54.591,LEFT,20
179.0,14121.78744337409,2188.951037997131,-62075.97995710134,-59398.17391612219,-35504.449666076864,-32903.198349857135,-19854.74167522689,-21868.410333205502,0.0,0.0,0.0,193.0,1.0,155.0,0.0,2.0,3.0,252.0,411.0,2.0,1020.0,1744252734.5910892,0.0,2025-04-09 22:38:54.591,LEFT,20
180.0,14044.629221514371,2171.7848982554556,-62087.93814038493,-59368.960186119104,-35507.84713123407,-32925.23716989007,-19541.973715063777,-21875.22761526437,0.0,0.0,0.0,193.0,1.0,154.0,0.0,2.0,3.0,248.0,410.0,2.0,1016.0,1744252734.591098,0.0,2025-04-09 22:38:54.591,LEFT,20
181.0,13985.039470796522,2152.316528834883,-62112.45800405241,-59414.825965741395,-35527.85194252157,-32943.2750276655,-19637.482719121304,-21895.254778296327,0.0,0.0,0.0,193.0,1.0,154.0,0.0,2.0,3.0,249.0,410.0,2.0,1017.0,1744252734.5911064,0.0,2025-04-09 22:38:54.591,LEFT,20
182.0,14077.30747190803,2160.050232416419,-62114.91669594249,-59354.11862780078,-35582.77017864826,-32997.992098092094,-19360.231680897676,-21936.58315379419,0.0,0.0,0.0,193.0,1.0,155.0,0.0,2.0,3.0,252.0,411.0,2.0,1020.0,1744252734.5911152,0.0,2025-04-09 22:38:54.591,LEFT,20
183.0,14108.599914145461,2156.8092294703997,-62101.237428335844,-59415.83179424189,-35525.95204424287,-32935.2731031505,-19804.74082288037,-21892.170237561495,0.0,0.0,0.0,193.0,1.0,154.0,0.0,2.0,3.0,250.0,410.0,2.0,1018.0,1744252734.5911238,0.0,2025-04-09 22:38:54.591,LEFT,20
184.0,14055.31335536401,2166.6216452862795,-62079.55623621419,-59350.385886476746,-35497.72179099581,-32915.82708547438,-19594.12033487801,-21847.17617597296,0.0,0.0,0.0,193.0,1.0,155.0,0.0,2.0,3.0,252.0,411.0,2.0,1020.0,1744252734.5911324,0.0,2025-04-09 22:38:54.591,LEFT,20
185.0,13986.224113252654,2142.5488165079137,-62119.543507044735,-59416.21177389762,-35525.61676807603,-32942.53742009847,-19618.103756678553,-21878.178045532473,0.0,0.0,0.0,193.0,1.0,155.0,0.0,1.0,3.0,251.0,411.0,1.0,1019.0,1744252734.5911407,0.0,2025-04-09 22:38:54.591,LEFT,20
186.0,14046.484416304162,2134.0551536148973,-62120.191707633945,-59353.02339232247,-35579.75269314679,-32991.46538871114,-19407.662082631836,-21923.61914201011,0.0,0.0,0.0,193.0,1.0,154.0,0.0,2.0,3.0,250.0,410.0,2.0,1018.0,1744252734.59115,0.0,2025-04-09 22:38:54.591,LEFT,20
187.0,14123.687341652792,2165.9063894637097,-62111.653341252015,-59405.3711778368,-35541.59826536158,-32939.16230668573,-19722.642865496025,-21896.57353121919,0.0,0.0,0.0,193.0,1.0,155.0,0.0,2.0,3.0,252.0,411.0,2.0,1020.0,1744252734.5911584,0.0,2025-04-09 22:38:54.591,LEFT,20
188.0,14068.389125870362,2176.5905233133462,-62082.61842520457,-59349.93885158764,-35502.0803811646,-32913.45780056212,-19693.205618048385,-21869.751437872823,0.0,0.0,0.0,193.0,1.0,155.0,0.0,2.0,3.0,251.0,411.0,2.0,1019.0,1744252734.591167,0.0,2025-04-09 22:38:54.591,LEFT,20
189.0,14001.19978203771,2164.0064911850086,-62118.47062331088,-59407.85222147134,-35516.16198017144,-32934.446088605655,-19610.615922286026,-21883.81068513521,0.0,0.0,0.0,193.0,1.0,154.0,0.0,2.0,3.0,250.0,410.0,2.0,1018.0,1744252734.5911756,0.0,2025-04-09 22:38:54.591,LEFT,20
190.0,14020.735206691648,2134.256319314995,-62119.99054193385,-59366.099162828825,-35566.45340519588,-32988.693772398685,-19481.13226665643,-21930.347017091157,0.0,0.0,0.0,193.0,1.0,154.0,0.0,2.0,3.0,251.0,410.0,2.0,1019.0,1744252734.591184,0.0,2025-04-09 22:38:54.591,LEFT,20
191.0,14122.905030596858,2157.2339126150505,-62127.657190282014,-59410.57913429489,-35565.46992843985,-32976.51207167054,-19601.943445437366,-21933.699778759456,0.0,0.0,0.0,193.0,1.0,154.0,0.0,2.0,3.0,250.0,410.0,2.0,1018.0,1744252734.5911975,0.0,2025-04-09 22:38:54.591,LEFT,20
192.0,14080.25790217613,2173.215409900595,-62077.321061768664,-59361.44999998212,-35499.17465438541,-32915.11182965182,-19769.13449396306,-21876.79223737624,0.0,0.0,0.0,193.0,1.0,154.0,0.0,2.0,3.0,250.0,410.0,2.0,1018.0,1744252734.5912066,0.0,2025-04-09 22:38:54.591,LEFT,20
193.0,14008.464098985685,2166.6887005196454,-62118.20240237742,-59405.594695281354,-35523.71686979734,-32940.19048693067,-19584.464381273316,-21900.19451382095,0.0,0.0,0.0,193.0,1.0,154.0,0.0,2.0,3.0,251.0,410.0,2.0,1019.0,1744252734.5912151,0.0,2025-04-09 22:38:54.591,LEFT,20
194.0,13999.858677370392,2140.6936217181233,-62120.884611712056,-59383.64528222624,-35561.71483537136,-32978.65783913825,-19576.127180591488,-21935.040883426773,0.0,0.0,0.0,193.0,1.0,155.0,0.0,2.0,3.0,250.0,411.0,2.0,1018.0,1744252734.591224,0.0,2025-04-09 22:38:54.591,LEFT,20
195.0,14119.798138117569,2161.8160202283884,-62127.61248679311,-59395.670520743195,-35576.735207645324,-32986.70446714216,-19507.507325113693,-21937.767796250322,0.0,0.0,0.0,193.0,1.0,155.0,0.0,2.0,3.0,252.0,411.0,2.0,1020.0,1744252734.5912323,0.0,2025-04-09 22:38:54.591,LEFT,20
196.0,14100.84385881947,2184.86066876181,-62063.70884939538,-59365.42861049517,-35484.936593167375,-32893.631803230266,-19848.103207123662,-21851.959449286398,0.0,0.0,0.0,193.0,1.0,154.0,0.0,2.0,3.0,250.0,410.0,2.0,1018.0,1744252734.591241,0.0,2025-04-09 22:38:54.591,LEFT,20
197.0,14040.762369723603,2183.9442472391424,-62095.850657922114,-59382.259474070015,-35508.562387056634,-32925.483039079074,-19562.134988562466,-21887.968109603895,0.0,0.0,0.0,193.0,1.0,154.0,0.0,2.0,3.0,249.0,410.0,2.0,1017.0,1744252734.5912497,0.0,2025-04-09 22:38:54.591,LEFT,20
198.0,13994.270741256565,2140.2689385734725,-62118.157698888506,-59401.28080860148,-35553.06471026716,-32967.21374597713,-19639.82965228911,-21933.14098514807,0.0,0.0,0.0,193.0,1.0,154.0,0.0,2.0,3.0,251.0,410.0,2.0,1019.0,1744252734.591258,0.0,2025-04-09 22:38:54.591,LEFT,20
199.0,14114.478422937205,2161.8830754617543,-62116.30250409872,-59372.20118906513,-35579.48447221333,-32985.74334213058,-19433.724216666727,-21940.78528175179,0.0,0.0,0.0,193.0,1.0,155.0,0.0,2.0,3.0,252.0,411.0,2.0,1020.0,1744252734.5912666,0.0,2025-04-09 22:38:54.591,LEFT,20
200.0,14109.382225201396,2185.57592458438,-62063.75355288429,-59379.06317461291,-35490.45747404784,-32888.26738456099,-19878.099248182687,-21858.195585989426,0.0,0.0,0.0,193.0,1.0,155.0,0.0,2.0,3.0,251.0,411.0,2.0,1019.0,1744252734.5912752,0.0,2025-04-09 22:38:54.591,LEFT,20
201.0,14053.122884407388,2193.4660903771032,-62077.20930304639,-59361.67351742667,-35500.962793941835,-32909.903873193725,-19554.222471025285,-21872.388943718546,0.0,0.0,0.0,193.0,1.0,154.0,0.0,10.0,3.0,252.0,410.0,10.0,1020.0,1744252734.5912838,0.0,2025-04-09 22:38:54.591,LEFT,20
202.0,13985.173581263254,2148.382621810749,-62105.86423943809,-59409.305084860935,-35537.26202693725,-32951.32165566941,-19666.919966568945,-21928.603581023646,0.0,0.0,0.0,193.0,1.0,154.0,0.0,21.0,3.0,252.0,410.0,21.0,1020.0,1744252734.5912924,0.0,2025-04-09 22:38:54.591,LEFT,20
203.0,14086.628149345894,2155.110496891796,-62111.04984415172,-59364.489837228044,-35587.911079872974,-33001.344859760386,-19405.27044597512,-21972.25653794486,0.0,0.0,0.0,193.0,1.0,154.0,0.0,31.0,3.0,252.0,410.0,31.0,1020.0,1744252734.5913012,0.0,2025-04-09 22:38:54.591,LEFT,20
204.0,14116.378321215907,2185.1065379508186,-62071.55431169919,-59400.52084929,-35505.880177722,-32901.05258238943,-19891.08561171122,-21876.14403678704,0.0,0.0,0.0,193.0,1.0,154.0,0.0,38.0,3.0,250.0,410.0,38.0,1018.0,1744252734.59131,0.0,2025-04-09 22:38:54.591,LEFT,20
205.0,14056.430942586774,2176.277598890972,-62077.83515189114,-59365.31685177289,-35511.132837669,-32919.22455063159,-19607.486678062283,-21882.08960081215,0.0,0.0,0.0,193.0,1.0,155.0,0.0,39.0,3.0,252.0,411.0,39.0,1020.0,1744252734.844155,0.0,2025-04-09 22:38:54.844,LEFT,20
206.0,13980.546770161007,2136.8044181829,-62118.67178901098,-59437.781207297,-35543.90049504048,-32959.412987162235,-19702.973330375353,-21930.347017091157,0.0,0.0,0.0,193.0,1.0,154.0,0.0,39.0,3.0,249.0,410.0,39.0,1017.0,1744252734.844288,0.0,2025-04-09 22:38:54.844,LEFT,20
207.0,14067.875035747891,2141.833560685344,-62109.03818715074,-59367.17204656268,-35584.915946115965,-33005.56933946244,-19439.401559758375,-21969.864901288143,0.0,0.0,0.0,193.0,1.0,155.0,0.0,38.0,3.0,253.0,411.0,38.0,1021.0,1744252734.8442993,0.0,2025-04-09 22:38:54.844,LEFT,20
208.0,14123.575582930516,2168.09686042033,-62089.078079352155,-59420.79388151097,-35523.046317463675,-32937.06124270693,-19836.815576173733,-21918.09826112965,0.0,0.0,0.0,193.0,1.0,155.0,0.0,38.0,3.0,251.0,411.0,38.0,1019.0,1744252734.8443089,0.0,2025-04-09 22:38:54.844,LEFT,20
209.0,14065.014012457612,2176.2328954020613,-62066.59222443012,-59362.45582848261,-35496.51479679523,-32923.31491986691,-19665.534158412716,-21888.929234615476,0.0,0.0,0.0,193.0,1.0,154.0,0.0,38.0,3.0,250.0,410.0,38.0,1018.0,1744252734.844318,0.0,2025-04-09 22:38:54.844,LEFT,20
210.0,13990.560351676984,2154.6634620026903,-62107.49591678333,-59429.68987580417,-35525.05797446465,-32948.57239110141,-19673.267861994253,-21920.065214641716,0.0,0.0,0.0,193.0,1.0,155.0,0.0,38.0,3.0,252.0,411.0,38.0,1020.0,1744252734.8443272,0.0,2025-04-09 22:38:54.844,LEFT,20
211.0,14034.056846387011,2136.200921082607,-62113.57559127517,-59378.66084321271,-35582.45725422588,-33008.07273484144,-19489.022432449154,-21968.88142453211,0.0,0.0,0.0,193.0,1.0,154.0,0.0,39.0,3.0,250.0,410.0,39.0,1018.0,1744252734.8443363,0.0,2025-04-09 22:38:54.844,LEFT,20
212.0,14120.871021851424,2160.989005683542,-62110.468698795885,-59434.45079737315,-35550.65072186598,-32965.71617909863,-19740.211336637894,-21943.19927015296,0.0,0.0,0.0,193.0,1.0,154.0,0.0,39.0,3.0,250.0,410.0,39.0,1018.0,1744252734.844345,0.0,2025-04-09 22:38:54.844,LEFT,20
213.0,14084.616492344916,2184.4583373616147,-62051.393038200506,-59357.918424358184,-35480.622706487506,-32906.10407663633,-19749.42025535348,-21882.223711278883,0.0,0.0,0.0,193.0,1.0,155.0,0.0,39.0,3.0,252.0,411.0,39.0,1020.0,1744252734.844354,0.0,2025-04-09 22:38:54.844,LEFT,20
214.0,14008.888782130336,2164.4088225852042,-62096.61061723359,-59420.48095708859,-35509.769381257225,-32938.290588651966,-19622.104718936054,-21904.642510967555,0.0,0.0,0.0,193.0,1.0,154.0,0.0,40.0,3.0,250.0,410.0,40.0,1018.0,1744252734.8443627,0.0,2025-04-09 22:38:54.844,LEFT,20
215.0,14018.589439223939,2135.351554793305,-62103.71847197038,-59386.0145671385,-35565.961666817864,-32990.90659509976,-19543.67244764238,-21950.351828378658,0.0,0.0,0.0,193.0,1.0,155.0,0.0,40.0,3.0,251.0,411.0,40.0,1019.0,1744252734.8443716,0.0,2025-04-09 22:38:54.844,LEFT,20
216.0,14131.018713834133,2160.676081261168,-62104.54548651523,-59415.04948318595,-35563.36886446105,-32981.60826940635,-19622.21647765833,-21950.64240105658,0.0,0.0,0.0,193.0,1.0,154.0,0.0,40.0,3.0,251.0,410.0,40.0,1019.0,1744252734.8443804,0.0,2025-04-09 22:38:54.844,LEFT,20
217.0,14094.473611649706,2182.9384187386536,-62045.60393638658,-59366.54619771793,-35482.991991399766,-32905.500579536034,-19839.743654697377,-21877.172217031984,0.0,0.0,0.0,193.0,1.0,154.0,0.0,40.0,3.0,249.0,410.0,40.0,1017.0,1744252734.8443894,0.0,2025-04-09 22:38:54.844,LEFT,20
218.0,14022.769215437082,2172.5448575669357,-62091.98380613134,-59410.288561616966,-35510.97637545781,-32941.55394334244,-19604.53624779418,-21914.76785120581,0.0,0.0,0.0,193.0,1.0,155.0,0.0,40.0,3.0,252.0,411.0,40.0,1020.0,1744252734.844398,0.0,2025-04-09 22:38:54.844,LEFT,20
219.0,13991.879104599848,2122.834577898333,-62116.4589663099,-59413.88719247427,-35567.48158544083,-32990.303097999466,-19626.664474804937,-21949.681276044998,0.0,0.0,0.0,193.0,1.0,154.0,0.0,41.0,3.0,250.0,410.0,41.0,1018.0,1744252734.8444068,0.0,2025-04-09 22:38:54.844,LEFT,20
220.0,14125.497832953673,2159.580845782858,-62106.981826660856,-59396.653997499234,-35573.941239588414,-32982.50233918457,-19519.174935719366,-21937.968961950417,0.0,0.0,0.0,193.0,1.0,154.0,0.0,41.0,3.0,250.0,410.0,41.0,1018.0,1744252734.8444428,0.0,2025-04-09 22:38:54.844,LEFT,20
221.0,14101.290893708576,2179.160973925707,-62053.87408183505,-59382.97472989259,-35490.85980544803,-32899.68912597765,-19892.158495445074,-21875.272318753283,0.0,0.0,0.0,193.0,1.0,155.0,0.0,41.0,3.0,252.0,411.0,41.0,1020.0,1744252734.844452,0.0,2025-04-09 22:38:54.844,LEFT,20
222.0,14035.822634198981,2179.3621396258045,-62083.065460093676,-59391.17782010768,-35512.22807314731,-32927.584103057874,-19592.756878466236,-21903.167295833504,0.0,0.0,0.0,193.0,1.0,154.0,0.0,41.0,3.0,251.0,410.0,41.0,1019.0,1744252734.8444607,0.0,2025-04-09 22:38:54.844,LEFT,20
223.0,13988.258121998088,2141.7888571964336,-62102.73499521435,-59412.166108151214,-35549.57783813213,-32958.13893772828,-19684.197865032897,-21933.856240970643,0.0,0.0,0.0,193.0,1.0,154.0,0.0,42.0,3.0,248.0,410.0,42.0,1016.0,1744252734.84447,0.0,2025-04-09 22:38:54.844,LEFT,20
224.0,14105.157745499344,2157.2562643595056,-62109.59698076213,-59382.14771534774,-35589.43099849594,-32997.209787036154,-19455.76303669966,-21969.44021814349,0.0,0.0,0.0,193.0,1.0,154.0,0.0,42.0,3.0,252.0,410.0,42.0,1020.0,1744252734.8444788,0.0,2025-04-09 22:38:54.844,LEFT,20
225.0,14104.017806532123,2172.5225058224805,-62061.47367494985,-59401.90665744623,-35496.96183168433,-32903.24305334604,-19925.931981317044,-21891.454981738923,0.0,0.0,0.0,193.0,1.0,154.0,0.0,42.0,3.0,252.0,410.0,42.0,1020.0,1744252734.8444877,0.0,2025-04-09 22:38:54.844,LEFT,20
226.0,14045.567994781495,2180.8150030153993,-62073.208340788886,-59374.59282572184,-35504.941404454876,-32918.79986748694,-19597.942483179868,-21898.406374264523,0.0,0.0,0.0,193.0,1.0,154.0,0.0,42.0,3.0,249.0,410.0,42.0,1017.0,1744252734.8444965,0.0,2025-04-09 22:38:54.844,LEFT,20
227.0,13967.627461865839,2135.195092582118,-62114.380254075564,-59431.58977408287,-35547.70029159788,-32952.43924289218,-19704.38149027604,-21921.42867105349,0.0,0.0,0.0,193.0,1.0,154.0,0.0,42.0,3.0,250.0,410.0,42.0,1018.0,1744252734.8445053,0.0,2025-04-09 22:38:54.844,LEFT,20
228.0,14073.574730583994,2140.47010427357,-62111.69804474092,-59373.51994198799,-35588.73809441782,-32994.505225957066,-19423.64357991738,-21949.18953766698,0.0,0.0,0.0,193.0,1.0,155.0,0.0,42.0,3.0,252.0,411.0,42.0,1020.0,1744252734.844514,0.0,2025-04-09 22:38:54.844,LEFT,20
229.0,14109.941018812779,2161.1454678947293,-62083.66895719397,-59421.777358267,-35517.34662262757,-32916.29647210795,-19886.995242475896,-21896.8194004082,0.0,0.0,0.0,193.0,1.0,154.0,0.0,42.0,3.0,249.0,410.0,42.0,1017.0,1744252734.8445227,0.0,2025-04-09 22:38:54.844,LEFT,20
230.0,14061.437733344763,2184.4583373616147,-62063.150055784,-59358.18664529165,-35497.29710785116,-32903.533626023964,-19636.722759809825,-21877.4627897099,0.0,0.0,0.0,193.0,1.0,154.0,0.0,42.0,3.0,252.0,410.0,42.0,1020.0,1744252734.8445313,0.0,2025-04-09 22:38:54.844,LEFT,20
231.0,13985.665319641272,2158.932645193654,-62102.01973939178,-59426.31476239143,-35525.61676807603,-32930.71334728162,-19693.384432004026,-21903.591978978155,0.0,0.0,0.0,193.0,1.0,154.0,0.0,42.0,3.0,251.0,410.0,42.0,1019.0,1744252734.84454,0.0,2025-04-09 22:38:54.844,LEFT,20
232.0,14052.742904751649,2145.5663020093803,-62104.83605919315,-59367.48497098505,-35583.75365540429,-32993.54410094549,-19445.101254594476,-21958.756084293855,0.0,0.0,0.0,193.0,1.0,154.0,0.0,43.0,3.0,250.0,410.0,43.0,1018.0,1744252734.8445487,0.0,2025-04-09 22:38:54.844,LEFT,20
233.0,14120.289876495586,2169.505020321014,-62090.19566657492,-59424.03488445698,-35533.17165770193,-32939.072899707906,-19815.514363707825,-21928.402415323548,0.0,0.0,0.0,193.0,1.0,155.0,0.0,43.0,3.0,252.0,411.0,43.0,1020.0,1744252734.8445575,0.0,2025-04-09 22:38:54.844,LEFT,20
234.0,14067.428000858785,2179.920933237187,-62057.13743652552,-59356.957299346606,-35497.16299738443,-32905.925262680685,-19704.493248998315,-21881.106124056118,0.0,0.0,0.0,193.0,1.0,154.0,0.0,43.0,3.0,249.0,410.0,43.0,1017.0,1744252734.8445663,0.0,2025-04-09 22:38:54.844,LEFT,20
235.0,13999.121069803366,2169.0356336874524,-62095.18010558845,-59420.3244948774,-35518.24069240579,-32927.98643445807,-19675.503036439783,-21902.630853966577,0.0,0.0,0.0,193.0,1.0,154.0,0.0,43.0,3.0,250.0,410.0,43.0,1018.0,1744252734.844596,0.0,2025-04-09 22:38:54.844,LEFT,20
236.0,14026.859584672402,2140.760676951489,-62105.59601850463,-59375.88922690025,-35579.50682395778,-32990.88424335531,-19515.688063584337,-21954.71041854744,0.0,0.0,0.0,193.0,1.0,155.0,0.0,43.0,3.0,252.0,411.0,43.0,1020.0,1744252734.8446047,0.0,2025-04-09 22:38:54.844,LEFT,20
237.0,14124.827280620013,2166.3087208639054,-62103.897285926025,-59422.00087571155,-35557.35624520257,-32961.20112671866,-19713.746871202813,-21941.232316640893,0.0,0.0,0.0,193.0,1.0,154.0,0.0,43.0,3.0,249.0,410.0,43.0,1017.0,1744252734.8446136,0.0,2025-04-09 22:38:54.844,LEFT,20
238.0,14072.25597766113,2170.6002557993243,-62062.99359357281,-59371.79885766493,-35503.756761998746,-32917.43641107516,-19792.38030819658,-21896.595882963644,0.0,0.0,0.0,193.0,1.0,155.0,0.0,43.0,3.0,252.0,411.0,43.0,1020.0,1744252734.8446224,0.0,2025-04-09 22:38:54.844,LEFT,20
239.0,14005.53602046204,2165.3922993412375,-62103.31614057018,-59424.817195512915,-35525.72852679832,-32945.62196083331,-19638.89087902199,-21913.717319216412,0.0,0.0,0.0,193.0,1.0,155.0,0.0,43.0,3.0,250.0,411.0,43.0,1018.0,1744252734.8446312,0.0,2025-04-09 22:38:54.844,LEFT,20
240.0,14002.227962282654,2132.669345458668,-62110.55810577371,-59395.35759632082,-35573.06952155465,-32991.30892649996,-19580.955157393833,-21948.54133707778,0.0,0.0,0.0,193.0,1.0,154.0,0.0,43.0,3.0,250.0,410.0,43.0,1018.0,1744252734.8446398,0.0,2025-04-09 22:38:54.844,LEFT,20
241.0,14116.9818183162,2154.99873816952,-62117.174222132475,-59417.95520996514,-35580.512652458274,-32989.27491775453,-19593.695651733356,-21953.01168596884,0.0,0.0,0.0,193.0,1.0,155.0,0.0,43.0,3.0,251.0,411.0,43.0,1019.0,1744252734.8448005,0.0,2025-04-09 22:38:54.844,LEFT,20
242.0,14083.856533033435,2172.991892456042,-62059.68553539342,-59379.44315426864,-35497.945308440365,-32909.61330051581,-19870.41024809006,-21879.742667644343,0.0,0.0,0.0,193.0,1.0,154.0,0.0,43.0,3.0,249.0,410.0,43.0,1017.0,1744252734.8448107,0.0,2025-04-09 22:38:54.844,LEFT,20
243.0,14019.528212491061,2175.38352911276,-62091.49206775333,-59402.91248594672,-35513.92680572591,-32930.95921647063,-19612.001730442254,-21898.38402252007,0.0,0.0,0.0,193.0,1.0,154.0,0.0,43.0,3.0,250.0,410.0,43.0,1018.0,1744252734.8448195,0.0,2025-04-09 22:38:54.844,LEFT,20
244.0,13988.325177231452,2143.576996752858,-62103.04791963672,-59400.498497545545,-35551.500088155284,-32967.34785644387,-19650.759655327758,-21932.381025836592,0.0,0.0,0.0,193.0,1.0,155.0,0.0,43.0,3.0,252.0,411.0,43.0,1020.0,1744252734.8448286,0.0,2025-04-09 22:38:54.844,LEFT,20
245.0,14104.1295652544,2154.6858137471454,-62118.91765819999,-59399.40326206724,-35590.861510141076,-32996.22631028012,-19501.76292678868,-21962.91350876254,0.0,0.0,0.0,193.0,1.0,154.0,0.0,43.0,3.0,249.0,410.0,43.0,1017.0,1744252734.8448374,0.0,2025-04-09 22:38:54.844,LEFT,20
246.0,14086.583445856983,2167.828639486866,-62068.022736075254,-59399.55972427842,-35505.61195678854,-32908.74158248205,-19933.531574431847,-21895.008909107317,0.0,0.0,0.0,193.0,1.0,155.0,0.0,43.0,3.0,252.0,411.0,43.0,1020.0,1744252734.8448465,0.0,2025-04-09 22:38:54.844,LEFT,20
247.0,14031.44169228574,2175.025901201475,-62082.9537013714,-59386.70747121662,-35508.785904501194,-32925.080707678884,-19613.45459383185,-21898.294615542247,0.0,0.0,0.0,193.0,1.0,154.0,0.0,43.0,3.0,249.0,410.0,43.0,1017.0,1744252734.844855,0.0,2025-04-09 22:38:54.844,LEFT,20
248.0,13974.221226480155,2135.0609821153857,-62105.41720454898,-59415.608276797335,-35542.201762461875,-32958.004827261546,-19692.199789547896,-21924.513211788322,0.0,0.0,0.0,193.0,1.0,155.0,0.0,43.0,3.0,252.0,411.0,43.0,1020.0,1744252734.844864,0.0,2025-04-09 22:38:54.844,LEFT,20
249.0,14085.354099911941,2147.957938666098,-62109.88755344004,-59376.55977923391,-35585.58649844963,-33001.3895632493,-19432.94190561079,-21960.611279083645,0.0,0.0,0.0,193.0,1.0,155.0,0.0,43.0,3.0,252.0,411.0,43.0,1020.0,1744252734.8448727,0.0,2025-04-09 22:38:54.844,LEFT,20
250.0,14098.966312285223,2174.3329971233607,-62067.530997697235,-59404.09712840285,-35502.19213988687,-32914.08364940687,-19920.83578358123,-21899.14398183155,0.0,0.0,0.0,193.0,1.0,155.0,0.0,44.0,3.0,250.0,411.0,44.0,1018.0,1744252734.8449168,0.0,2025-04-09 22:38:54.844,LEFT,20
251.0,14043.198709869232,2187.319360651894,-62071.82253263266,-59367.08263958486,-35504.941404454876,-32927.78526875797,-19615.198029899362,-21903.90490340053,0.0,0.0,0.0,193.0,1.0,156.0,0.0,43.0,3.0,252.0,412.0,43.0,1020.0,1744252734.8449256,0.0,2025-04-09 22:38:54.844,LEFT,20
252.0,13970.689650856215,2140.447752529115,-62109.217001106386,-59426.940611236176,-35544.34752992958,-32958.87654529531,-19718.61955149407,-21936.717264260922,0.0,0.0,0.0,193.0,1.0,155.0,0.0,43.0,3.0,250.0,411.0,43.0,1018.0,1744252734.8449347,0.0,2025-04-09 22:38:54.844,LEFT,20
253.0,14060.409553099818,2138.927833906154,-62113.19561161943,-59374.95045363313,-35597.56703347767,-33014.33122328892,-19449.95158314128,-21978.82795081472,0.0,0.0,0.0,193.0,1.0,155.0,0.0,44.0,3.0,250.0,411.0,44.0,1018.0,1744252734.8449435,0.0,2025-04-09 22:38:54.844,LEFT,20
254.0,14106.632960633393,2167.515715064492,-62083.42308800496,-59422.20204141165,-35522.487523852295,-32930.17690541469,-19883.351908129684,-21904.95543538993,0.0,0.0,0.0,193.0,1.0,155.0,0.0,44.0,3.0,251.0,411.0,44.0,1019.0,1744252734.8449523,0.0,2025-04-09 22:38:54.844,LEFT,20
255.0,14044.740980236647,2170.9355319661536,-62073.0518785777,-59369.72014543058,-35508.67414577892,-32930.266312392516,-19657.465178664348,-21900.350976032136,0.0,0.0,0.0,193.0,1.0,154.0,0.0,43.0,3.0,249.0,410.0,43.0,1017.0,1744252734.8449614,0.0,2025-04-09 22:38:54.844,LEFT,20
0.0,13976.05406952549,2150.193113111629,-62103.964341159386,-59428.05819845894,-35529.17069544443,-32944.437318377175,-19695.03846109372,-21915.751327961843,0.0,0.0,0.0,193.0,1.0,155.0,0.0,44.0,3.0,252.0,411.0,44.0,1020.0,1744252734.8449702,0.0,2025-04-09 22:38:54.844,LEFT,20
1.0,14041.20940461271,2142.8617409302883,-62098.86814342358,-59362.27701452697,-35578.88097511303,-32990.54896718848,-19466.42481880484,-21948.027246955306,0.0,0.0,0.0,193.0,1.0,154.0,0.0,44.0,3.0,250.0,410.0,44.0,1018.0,1744252734.8449788,0.0,2025-04-09 22:38:54.844,LEFT,20
2.0,14126.83893762099,2175.629398301768,-62083.78071591625,-59413.73073026309,-35533.61869259104,-32932.18856241567,-19789.228712228385,-21912.24210408236,0.0,0.0,0.0,193.0,1.0,154.0,0.0,44.0,3.0,251.0,410.0,44.0,1019.0,1744252734.8449876,0.0,2025-04-09 22:38:54.844,LEFT,20
3.0,14068.724402037193,2181.127927437774,-62053.2482329903,-59356.21969177958,-35493.54201478267,-32903.31010857941,-19726.956752175898,-21871.584280918156,0.0,0.0,0.0,193.0,1.0,155.0,0.0,43.0,3.0,251.0,411.0,43.0,1019.0,1744252734.8449965,0.0,2025-04-09 22:38:54.844,LEFT,20
4.0,13995.030700568046,2169.147392409729,-62094.800125932714,-59420.74917802205,-35514.396192359476,-32931.80858275993,-19655.94526004139,-21903.52492374479,0.0,0.0,0.0,193.0,1.0,154.0,0.0,44.0,3.0,249.0,410.0,44.0,1017.0,1744252734.8450053,0.0,2025-04-09 22:38:54.845,LEFT,20
5.0,14021.58457298095,2145.342784564827,-62094.06251836569,-59373.81051466591,-35563.07829178313,-32983.4858159406,-19526.886287556445,-21951.02238071232,0.0,0.0,0.0,193.0,1.0,154.0,0.0,44.0,3.0,252.0,410.0,44.0,1020.0,1744252734.8450148,0.0,2025-04-09 22:38:54.845,LEFT,20
6.0,14122.0333125631,2170.376738354771,-62099.76221320179,-59419.4751285881,-35555.61280913506,-32969.3818651893,-19675.480684695325,-21959.717209305432,0.0,0.0,0.0,193.0,1.0,155.0,0.0,44.0,3.0,251.0,411.0,44.0,1019.0,1744252734.8450236,0.0,2025-04-09 22:38:54.845,LEFT,20
7.0,14081.464896376718,2188.928686252676,-62042.787616585214,-59361.51705521549,-35479.3263053091,-32899.71147772211,-19813.34624449566,-21886.85052238113,0.0,0.0,0.0,193.0,1.0,154.0,0.0,44.0,3.0,250.0,410.0,44.0,1018.0,1744252734.8450322,0.0,2025-04-09 22:38:54.845,LEFT,20
8.0,13998.428165725252,2168.85681973181,-62100.36571030208,-59423.25257340105,-35522.420468618926,-32940.57046658641,-19625.815108515635,-21918.3217785742,0.0,0.0,0.0,193.0,1.0,155.0,0.0,44.0,3.0,251.0,411.0,44.0,1019.0,1744252734.845041,0.0,2025-04-09 22:38:54.845,LEFT,20
9.0,13997.288226758032,2143.353479308305,-62101.57270450267,-59396.028148654485,-35561.60307664908,-32974.94744955867,-19612.716986264826,-21948.183709166493,0.0,0.0,0.0,193.0,1.0,154.0,0.0,44.0,3.0,249.0,410.0,44.0,1017.0,1744252734.84507,0.0,2025-04-09 22:38:54.845,LEFT,20
10.0,14125.408425975851,2171.6507877887234,-62096.87883816705,-59395.64816899874,-35563.32416097214,-32971.52763265701,-19554.624802425482,-21949.72597953391,0.0,0.0,0.0,193.0,1.0,155.0,0.0,44.0,3.0,252.0,411.0,44.0,1020.0,1744252734.8450787,0.0,2025-04-09 22:38:54.845,LEFT,20
11.0,14095.859419805935,2184.927723995176,-62046.430950931426,-59374.078735599374,-35486.54591876816,-32895.442294531145,-19876.98166095992,-21882.246063023336,0.0,0.0,0.0,193.0,1.0,155.0,0.0,44.0,3.0,251.0,411.0,44.0,1019.0,1744252735.3151934,0.0,2025-04-09 22:38:55.315,LEFT,20
12.0,14029.564145751494,2187.8110990299106,-62082.86429439358,-59394.57528526489,-35512.78686675869,-32923.71725126711,-19596.847247701557,-21900.6191969656,0.0,0.0,0.0,193.0,1.0,154.0,0.0,44.0,3.0,250.0,410.0,44.0,1018.0,1744252735.3152416,0.0,2025-04-09 22:38:55.315,LEFT,20
13.0,13985.53120917454,2145.968633409576,-62103.472602781374,-59408.43336682718,-35558.2950184697,-32963.257487208546,-19661.51084441076,-21933.63272352609,0.0,0.0,0.0,193.0,1.0,155.0,0.0,44.0,3.0,252.0,411.0,44.0,1020.0,1744252735.3152673,0.0,2025-04-09 22:38:55.315,LEFT,20
14.0,14104.733062354693,2166.0181481859863,-62112.703873241415,-59394.68704398716,-35595.533024732234,-32998.908519614764,-19480.551121300596,-21971.76479956684,0.0,0.0,0.0,193.0,1.0,154.0,0.0,44.0,3.0,249.0,410.0,44.0,1017.0,1744252735.3153,0.0,2025-04-09 22:38:55.315,LEFT,20
15.0,14107.437623433785,2191.543840353947,-62053.0470672902,-59395.02232015399,-35495.62072701701,-32900.73965796705,-19934.17977502105,-21894.13719107356,0.0,0.0,0.0,193.0,1.0,155.0,0.0,44.0,3.0,252.0,411.0,44.0,1020.0,1744252735.3153265,0.0,2025-04-09 22:38:55.315,LEFT,20
16.0,14044.897442447835,2184.704206550623,-62072.47073322186,-59380.35957579131,-35504.06968642112,-32919.78334424298,-19591.527532521195,-21893.153714317526,0.0,0.0,0.0,193.0,1.0,154.0,0.0,44.0,3.0,250.0,410.0,44.0,1018.0,1744252735.31535,0.0,2025-04-09 22:38:55.315,LEFT,20
17.0,13982.938406817724,2145.275729331461,-62099.89632366852,-59420.54801232195,-35537.82082054864,-32949.86879227982,-19684.644899922,-21908.732880202875,0.0,0.0,0.0,193.0,1.0,155.0,0.0,44.0,3.0,252.0,411.0,44.0,1020.0,1744252735.3153658,0.0,2025-04-09 22:38:55.315,LEFT,20
18.0,14095.546495383562,2159.2679213604833,-62098.19759108992,-59370.94949137563,-35579.1491960465,-32990.70542939966,-19420.402576971363,-21949.949496978465,0.0,0.0,0.0,193.0,1.0,155.0,0.0,44.0,3.0,251.0,411.0,44.0,1019.0,1744252735.3153815,0.0,2025-04-09 22:38:55.315,LEFT,20
19.0,14108.398748445363,2177.5292965804692,-62067.01690757477,-59413.641323285265,-35504.65083177696,-32907.93691968166,-19903.334367672727,-21895.27713004078,0.0,0.0,0.0,193.0,1.0,155.0,0.0,44.0,3.0,251.0,411.0,44.0,1019.0,1744252735.315397,0.0,2025-04-09 22:38:55.315,LEFT,20
20.0,14045.411532570308,2173.5953895563352,-62071.19668378791,-59376.89505540074,-35506.684840522394,-32918.12931515328,-19620.629503802003,-21896.95351087493,0.0,0.0,0.0,193.0,1.0,155.0,0.0,44.0,3.0,252.0,411.0,44.0,1020.0,1744252735.315412,0.0,2025-04-09 22:38:55.315,LEFT,20
21.0,13971.918996801258,2138.99488913952,-62105.30544582671,-59440.30695442045,-35535.74210831429,-32947.164231200724,-19709.52239150076,-21934.169165393017,0.0,0.0,0.0,193.0,1.0,154.0,0.0,44.0,3.0,250.0,410.0,44.0,1018.0,1744252735.3154275,0.0,2025-04-09 22:38:55.315,LEFT,20
22.0,14060.186035655266,2146.2368543430393,-62100.07513762417,-59374.39166002175,-35586.81584439467,-32996.20395853567,-19447.22467031773,-21977.06216300275,0.0,0.0,0.0,193.0,1.0,155.0,0.0,44.0,3.0,252.0,411.0,44.0,1020.0,1744252735.3154428,0.0,2025-04-09 22:38:55.315,LEFT,20
23.0,14108.778728101102,2165.057023174408,-62086.66409095098,-59433.82494852841,-35533.99867224678,-32932.99322521606,-19859.92727994052,-21933.34215084817,0.0,0.0,0.0,193.0,1.0,155.0,0.0,44.0,3.0,250.0,411.0,44.0,1018.0,1744252735.315458,0.0,2025-04-09 22:38:55.315,LEFT,20
24.0,14054.195768141242,2173.8859622342543,-62065.18406452943,-59373.3634797768,-35509.344698112574,-32919.068088420405,-19679.883978353024,-21900.015699865307,0.0,0.0,0.0,193.0,1.0,155.0,0.0,44.0,3.0,251.0,411.0,44.0,1019.0,1744252735.3155837,0.0,2025-04-09 22:38:55.315,LEFT,20
25.0,13983.653662640294,2153.098839890819,-62101.61740799158,-59440.26225093153,-35531.294111167685,-32944.95140849965,-19688.779972646236,-21923.708548987932,0.0,0.0,0.0,193.0,1.0,155.0,0.0,44.0,3.0,251.0,411.0,44.0,1019.0,1744252735.3155997,0.0,2025-04-09 22:38:55.315,LEFT,20
26.0,14036.649648743827,2141.699450218612,-62095.850657922114,-59378.63849146826,-35579.3503617466,-32997.634470180805,-19491.883455739433,-21967.272098931327,0.0,0.0,0.0,193.0,1.0,155.0,0.0,44.0,3.0,249.0,411.0,44.0,1017.0,1744252735.3156147,0.0,2025-04-09 22:38:55.315,LEFT,20
27.0,14119.708731139748,2171.762546511,-62092.72141369837,-59433.221451428115,-35551.365977688554,-32956.73077782759,-19757.980973479865,-21943.06515968623,0.0,0.0,0.0,193.0,1.0,155.0,0.0,44.0,3.0,251.0,411.0,44.0,1019.0,1744252735.31563,0.0,2025-04-09 22:38:55.315,LEFT,20
28.0,14069.484361348674,2183.698378050134,-62046.90033756499,-59368.1108198298,-35498.50410205175,-32907.17696037018,-19762.116046204097,-21886.694060169943,0.0,0.0,0.0,193.0,1.0,155.0,0.0,44.0,3.0,251.0,411.0,44.0,1019.0,1744252735.3156452,0.0,2025-04-09 22:38:55.315,LEFT,20
29.0,13991.700290644205,2163.1124214067963,-62094.64366372152,-59433.66848631722,-35528.70130881087,-32941.62099857581,-19652.637201862002,-21921.540429775767,0.0,0.0,0.0,193.0,1.0,155.0,0.0,44.0,3.0,250.0,411.0,44.0,1018.0,1744252735.3156602,0.0,2025-04-09 22:38:55.315,LEFT,20
30.0,13996.170639535267,2122.3875430092266,-62111.496879040824,-59406.37700633729,-35591.71087643038,-33003.021240594535,-19569.60047121054,-21975.654003102067,0.0,0.0,0.0,193.0,1.0,155.0,0.0,44.0,3.0,252.0,411.0,44.0,1020.0,1744252735.3156755,0.0,2025-04-09 22:38:55.315,LEFT,20
31.0,14109.806908346047,2153.501171291014,-62107.250047594316,-59430.09220720437,-35574.500033199794,-32978.30021122697,-19647.563355870647,-21954.48690110289,0.0,0.0,0.0,193.0,1.0,154.0,0.0,44.0,3.0,249.0,410.0,44.0,1017.0,1744252735.315691,0.0,2025-04-09 22:38:55.315,LEFT,20
32.0,14077.329823652486,2179.1386221812513,-62042.05000901819,-59373.452886754625,-35489.20577635834,-32899.8679399333,-19836.033265117796,-21884.86121712461,0.0,0.0,0.0,193.0,1.0,155.0,0.0,44.0,3.0,252.0,411.0,44.0,1020.0,1744252735.3157065,0.0,2025-04-09 22:38:55.315,LEFT,20
33.0,14007.122994318366,2172.5448575669357,-62084.69713743891,-59415.116538419315,-35521.21347441834,-32931.272140893,-19585.06787837361,-21916.198362850948,0.0,0.0,0.0,193.0,1.0,154.0,0.0,44.0,3.0,249.0,410.0,44.0,1017.0,1744252735.3157215,0.0,2025-04-09 22:38:55.315,LEFT,20
34.0,13975.539979403018,2126.2320430555396,-62110.24518135133,-59418.13402392078,-35580.512652458274,-32987.71029564265,-19254.083246479422,-21970.893081533086,0.0,0.0,0.0,193.0,1.0,155.0,0.0,44.0,3.0,252.0,411.0,44.0,1020.0,1744252735.3157368,0.0,2025-04-09 22:38:55.315,LEFT,20
35.0,14106.476498422206,2158.709127749101,-62104.90311442651,-59410.981465695084,-35582.121978059055,-32989.49843519908,-18856.4010091306,-21965.595718097178,0.0,0.0,0.0,193.0,1.0,155.0,0.0,44.0,3.0,252.0,411.0,44.0,1020.0,1744252735.3157525,0.0,2025-04-09 22:38:55.315,LEFT,20
36.0,14084.527085367095,2174.578866312369,-62047.146206754,-59391.490744530056,-35492.44677930436,-32896.7163439651,-19142.50333815853,-21869.885548339553,0.0,0.0,0.0,193.0,1.0,154.0,0.0,44.0,3.0,249.0,410.0,44.0,1017.0,1744252735.3157675,0.0,2025-04-09 22:38:55.315,LEFT,20
37.0,14014.700235688715,2165.9510929526205,-62084.741840927825,-59408.7239395051,-35520.65468080696,-32934.80371651694,-18857.317430653267,-21904.19547607845,0.0,0.0,0.0,193.0,1.0,155.0,0.0,44.0,3.0,252.0,411.0,44.0,1020.0,1744252735.3157828,0.0,2025-04-09 22:38:55.315,LEFT,20
38.0,13966.509874643074,2127.282575044939,-62107.741785972335,-59431.76858803852,-35562.78771910521,-32975.416836192235,-18945.673876485096,-21948.831909755696,0.0,0.0,0.0,193.0,1.0,154.0,0.0,44.0,3.0,249.0,410.0,44.0,1017.0,1744252735.3158083,0.0,2025-04-09 22:38:55.315,LEFT,20
39.0,14082.694242321759,2140.9171391626764,-62116.0119314208,-59404.00772142503,-35606.77595219326,-33007.96097611916,-18747.302144444246,-21975.16226472405,0.0,0.0,0.0,193.0,1.0,155.0,0.0,44.0,3.0,252.0,411.0,44.0,1020.0,1744252735.3158236,0.0,2025-04-09 22:38:55.315,LEFT,20
40.0,14093.914818038324,2171.337863366349,-62054.23170974633,-59406.578172037385,-35504.49436956577,-32899.644422488745,-19194.739364950583,-21882.5142839568,0.0,0.0,0.0,193.0,1.0,154.0,0.0,44.0,3.0,250.0,410.0,44.0,1018.0,1744252735.3158386,0.0,2025-04-09 22:38:55.315,LEFT,20
41.0,14041.276459846076,2187.8110990299106,-62056.13160802503,-59370.4130495087,-35501.521587553216,-32907.28871909246,-18871.890768038127,-21885.755286902822,0.0,0.0,0.0,193.0,1.0,154.0,0.0,44.0,3.0,250.0,410.0,44.0,1018.0,1744252735.3158536,0.0,2025-04-09 22:38:55.315,LEFT,20
42.0,13966.219301965155,2137.5643774943806,-62096.8564864226,-59428.259364159036,-35546.26977995274,-32949.689978324175,-18973.367687865222,-21936.560802049735,0.0,0.0,0.0,193.0,1.0,155.0,0.0,44.0,3.0,251.0,411.0,44.0,1019.0,1744252735.315869,0.0,2025-04-09 22:38:55.315,LEFT,20
43.0,14069.439657859763,2143.644051986224,-62098.801088190216,-59375.4645437556,-35595.33185903214,-32996.025144580024,-18722.737577287862,-21967.04858148677,0.0,0.0,0.0,193.0,1.0,155.0,0.0,44.0,3.0,249.0,411.0,44.0,1017.0,1744252735.315884,0.0,2025-04-09 22:38:55.315,LEFT,20
44.0,14101.402652430852,2174.66827329019,-62061.07134354965,-59416.1223669198,-35513.949157470364,-32911.13321913877,-19172.298213517453,-21903.860199911618,0.0,0.0,0.0,193.0,1.0,155.0,0.0,44.0,3.0,251.0,411.0,44.0,1019.0,1744252735.3159025,0.0,2025-04-09 22:38:55.315,LEFT,20
45.0,14042.841081957948,2183.9442472391424,-62052.175349256446,-59366.99323260704,-35502.12508465351,-32913.50250405103,-18911.051024323824,-21897.266435297304,0.0,0.0,0.0,193.0,1.0,154.0,0.0,44.0,3.0,251.0,410.0,44.0,1019.0,1744252735.3159175,0.0,2025-04-09 22:38:55.315,LEFT,20
46.0,13971.695479356704,2155.736345736545,-62091.581474731145,-59433.3779136393,-35536.07738448112,-32945.51020211103,-18989.058612472847,-21937.030188683297,0.0,0.0,0.0,193.0,1.0,154.0,0.0,44.0,3.0,250.0,410.0,44.0,1018.0,1744252735.3159328,0.0,2025-04-09 22:38:55.315,LEFT,20
47.0,14053.54756755204,2154.506999791503,-62083.51249498278,-59362.07584882687,-35583.01604783726,-32987.30796424246,-18750.52079564581,-21959.270174416324,0.0,0.0,0.0,193.0,1.0,155.0,0.0,44.0,3.0,251.0,411.0,44.0,1019.0,1744252735.3159475,0.0,2025-04-09 22:38:55.315,LEFT,20
48.0,14119.619324161928,2179.8762297482767,-62066.25694826328,-59415.13889016377,-35527.65077682147,-32916.29647210795,-19101.1079074273,-21903.860199911618,0.0,0.0,0.0,193.0,1.0,154.0,0.0,44.0,3.0,249.0,410.0,44.0,1017.0,1744252735.3159633,0.0,2025-04-09 22:38:55.315,LEFT,20
49.0,14064.812846757513,2197.511756123514,-62038.540785138706,-59352.3081364999,-35500.40400033045,-32895.48699802005,-18977.770981522917,-21881.70962115641,0.0,0.0,0.0,193.0,1.0,155.0,0.0,44.0,3.0,252.0,411.0,44.0,1020.0,1744252735.3159783,0.0,2025-04-09 22:38:55.315,LEFT,20
50.0,13982.200799250699,2165.794630741433,-62088.921617140964,-59429.22048917061,-35538.64783509348,-32935.80954501743,-18974.395868110165,-21932.15750839204,0.0,0.0,0.0,193.0,1.0,154.0,0.0,44.0,3.0,251.0,410.0,44.0,1019.0,1744252735.3159935,0.0,2025-04-09 22:38:55.315,LEFT,20
51.0,14031.195823096732,2151.0424794009305,-62082.48431473784,-59368.17787506317,-35583.84306238211,-32979.0825222829,-18825.2426773599,-21964.858110530153,0.0,0.0,0.0,193.0,1.0,154.0,0.0,44.0,3.0,250.0,410.0,44.0,1018.0,1744252735.3160088,0.0,2025-04-09 22:38:55.316,LEFT,20
52.0,14119.55226892856,2174.6906250346456,-62085.4570967504,-59420.30214313295,-35561.33485571562,-32946.8736585228,-19027.302447235877,-21939.86886022912,0.0,0.0,0.0,193.0,1.0,155.0,0.0,44.0,3.0,252.0,411.0,44.0,1020.0,1744252735.316024,0.0,2025-04-09 22:38:55.316,LEFT,20
53.0,14065.885730491369,2179.5856570703577,-62047.86146257657,-59369.809552408406,-35507.93653821189,-32901.47726553408,-19075.44810479261,-21881.173179289483,0.0,0.0,0.0,193.0,1.0,154.0,0.0,44.0,3.0,251.0,410.0,44.0,1019.0,1744252735.3160477,0.0,2025-04-09 22:38:55.316,LEFT,20
54.0,13992.214380766676,2163.0453661734305,-62097.124707356066,-59433.53437585049,-35539.25133219377,-32941.12926019779,-18891.26973048088,-21922.85918269863,0.0,0.0,0.0,193.0,1.0,154.0,0.0,44.0,3.0,250.0,410.0,44.0,1018.0,1744252735.316063,0.0,2025-04-09 22:38:55.316,LEFT,20
55.0,13983.34073821792,2120.599403452802,-62111.40747206301,-59414.46833783011,-35592.0014491083,-33000.87547312683,-18694.864951952095,-21971.138950722096,0.0,0.0,0.0,193.0,1.0,155.0,0.0,44.0,3.0,251.0,411.0,44.0,1019.0,1744252735.3160784,0.0,2025-04-09 22:38:55.316,LEFT,20
56.0,14096.440565161773,2150.215464856084,-62111.161602873995,-59435.34486715137,-35586.14529206101,-32989.5878421769,-18686.639509992543,-21968.30027917627,0.0,0.0,0.0,193.0,1.0,154.0,0.0,44.0,3.0,250.0,410.0,44.0,1018.0,1744252735.3160932,0.0,2025-04-09 22:38:55.316,LEFT,20
57.0,14065.751620024637,2173.9083139787094,-62048.75553235478,-59390.37315730729,-35498.90643345194,-32905.03119290247,-18906.245399265936,-21890.896188127543,0.0,0.0,0.0,193.0,1.0,155.0,0.0,44.0,3.0,251.0,411.0,44.0,1019.0,1744252735.3161027,0.0,2025-04-09 22:38:55.316,LEFT,20
58.0,14003.569066949973,2170.399090099226,-62088.49693399631,-59420.369198366316,-35526.9355209989,-32931.0709751929,-18676.31300405419,-21910.252798825837,0.0,0.0,0.0,193.0,1.0,154.0,0.0,44.0,3.0,249.0,410.0,44.0,1017.0,1744252735.3161113,0.0,2025-04-09 22:38:55.316,LEFT,20
59.0,13983.787773107026,2142.5264647634585,-62095.56008524419,-59415.608276797335,-35565.201707506385,-32970.879432067806,-18726.112690700615,-21948.250764399858,0.0,0.0,0.0,193.0,1.0,154.0,0.0,44.0,3.0,250.0,410.0,44.0,1018.0,1744252735.31612,0.0,2025-04-09 22:38:55.316,LEFT,20
60.0,14103.928399554301,2158.932645193654,-62104.8584109376,-59413.88719247427,-35594.3036787872,-33002.28363302751,-18604.899180519486,-21984.080610761717,0.0,0.0,0.0,193.0,1.0,155.0,0.0,44.0,3.0,252.0,411.0,44.0,1020.0,1744252735.3161287,0.0,2025-04-09 22:38:55.316,LEFT,20
61.0,14098.653387862849,2186.8499740183324,-62036.95381128238,-59395.87168644329,-35492.53618628218,-32899.13033236627,-18982.04016471388,-21890.85148463863,0.0,0.0,0.0,193.0,1.0,154.0,0.0,44.0,3.0,249.0,410.0,44.0,1017.0,1744252735.3161376,0.0,2025-04-09 22:38:55.316,LEFT,20
62.0,14031.821671941481,2185.352407139827,-62062.88183485054,-59397.65982599972,-35509.635270790495,-32919.559826798424,-18674.703678453407,-21890.56091196071,0.0,0.0,0.0,193.0,1.0,155.0,0.0,44.0,3.0,252.0,411.0,44.0,1020.0,1744252735.316146,0.0,2025-04-09 22:38:55.316,LEFT,20
63.0,13968.990918277612,2142.325299063361,-62091.380309031054,-59430.18161418219,-35551.72360559984,-32953.48977488158,-18772.04552555627,-21927.083662400684,0.0,0.0,0.0,193.0,1.0,154.0,0.0,44.0,3.0,249.0,410.0,44.0,1017.0,1744252735.3161547,0.0,2025-04-09 22:38:55.316,LEFT,20
64.0,14083.029518488589,2154.149371880218,-62103.04791963672,-59397.59277076636,-35598.46110325588,-32998.126208558824,-18552.037304882684,-21968.50144487637,0.0,0.0,0.0,193.0,1.0,155.0,0.0,44.0,3.0,252.0,411.0,44.0,1020.0,1744252735.3161633,0.0,2025-04-09 22:38:55.316,LEFT,20
65.0,14091.83610580398,2174.891790734743,-62061.65248890549,-59427.00766646954,-35509.903491723955,-32909.054506904424,-19000.502705633964,-21900.127458587584,0.0,0.0,0.0,193.0,1.0,154.0,0.0,44.0,3.0,250.0,410.0,44.0,1018.0,1744252735.316172,0.0,2025-04-09 22:38:55.316,LEFT,20
66.0,14035.86733768789,2182.960770483109,-62064.669974406956,-59389.389680551256,-35507.5789103006,-32916.631748274776,-18698.93296944296,-21900.820362665698,0.0,0.0,0.0,193.0,1.0,155.0,0.0,44.0,3.0,252.0,411.0,44.0,1020.0,1744252735.3161805,0.0,2025-04-09 22:38:55.316,LEFT,20
67.0,13961.413676907263,2139.218406584073,-62101.41624229148,-59449.89585279177,-35544.593399118596,-32956.64137084978,-18801.885104404104,-21947.87078474412,0.0,0.0,0.0,193.0,1.0,154.0,0.0,44.0,3.0,249.0,410.0,44.0,1017.0,1744252735.3161893,0.0,2025-04-09 22:38:55.316,LEFT,20
68.0,14064.343460123953,2152.1377148792403,-62096.141230600035,-59387.80270669493,-35590.41447525197,-32999.40025799278,-18553.19959559436,-21973.709401334454,0.0,0.0,0.0,193.0,1.0,155.0,0.0,44.0,3.0,251.0,411.0,44.0,1019.0,1744252735.3162024,0.0,2025-04-09 22:38:55.316,LEFT,20
69.0,14105.224800732709,2173.95301746762,-62063.50768369528,-59432.930878750194,-35517.07840169411,-32912.04964066144,-18973.09946693176,-21896.729993430377,0.0,0.0,0.0,193.0,1.0,154.0,0.0,44.0,3.0,249.0,410.0,44.0,1017.0,1744252735.3162112,0.0,2025-04-09 22:38:55.316,LEFT,20
70.0,14054.866320474903,2185.3971106287377,-62041.111235751065,-59370.010718108504,-35492.849110704556,-32907.825160959386,-18746.229260710392,-21890.784429405267,0.0,0.0,0.0,193.0,1.0,154.0,0.0,44.0,3.0,249.0,410.0,44.0,1017.0,1744252735.31622,0.0,2025-04-09 22:38:55.316,LEFT,20
71.0,13980.703232372194,2162.218351628584,-62080.67382343696,-59435.54603285147,-35523.3815936305,-32932.99322521606,-18793.950235122473,-21915.61721749511,0.0,0.0,0.0,193.0,1.0,155.0,0.0,44.0,3.0,251.0,411.0,44.0,1019.0,1744252735.3162286,0.0,2025-04-09 22:38:55.316,LEFT,20
72.0,14041.119997634889,2149.321395077872,-62081.99257635982,-59373.07290709888,-35580.1997280359,-32982.36822871783,-18579.284081373702,-21951.558822579245,0.0,0.0,0.0,193.0,1.0,154.0,0.0,44.0,3.0,250.0,410.0,44.0,1018.0,1744252735.3162374,0.0,2025-04-09 22:38:55.316,LEFT,20
73.0,14114.523126426117,2175.7858605129554,-62068.49212270882,-59428.5275850925,-35530.802372789665,-32923.87371347829,-18891.69441362553,-21911.795069193253,0.0,0.0,0.0,193.0,1.0,155.0,0.0,44.0,3.0,251.0,411.0,44.0,1019.0,1744252735.316246,0.0,2025-04-09 22:38:55.316,LEFT,20
74.0,14064.321108379498,2185.1065379508186,-62033.846918803094,-59365.27214828398,-35488.088189135575,-32892.022477629485,-18804.835534672206,-21868.79031286124,0.0,0.0,0.0,193.0,1.0,154.0,0.0,44.0,3.0,251.0,410.0,44.0,1019.0,1744252735.3162546,0.0,2025-04-09 22:38:55.316,LEFT,20
75.0,13986.984072564135,2164.185305140651,-62085.0547653502,-59437.75885555254,-35522.71104129685,-32932.635597304776,-18759.439141683477,-21916.46658378441,0.0,0.0,0.0,193.0,1.0,154.0,0.0,44.0,3.0,250.0,410.0,44.0,1018.0,1744252735.3162632,0.0,2025-04-09 22:38:55.316,LEFT,20
76.0,14007.055939085001,2133.7645809369783,-62096.18593408894,-59397.771584721995,-35587.24052753932,-32993.43234222321,-18647.859233362586,-21976.324555435724,0.0,0.0,0.0,193.0,1.0,155.0,0.0,44.0,3.0,251.0,411.0,44.0,1019.0,1744252735.316272,0.0,2025-04-09 22:38:55.316,LEFT,20
77.0,14109.69514962377,2161.279578361461,-62094.08487011014,-59439.010553242035,-35569.605001164084,-32963.9280395422,-18814.53619176581,-21954.218680169426,0.0,0.0,0.0,193.0,1.0,154.0,0.0,44.0,3.0,251.0,410.0,44.0,1019.0,1744252735.3162808,0.0,2025-04-09 22:38:55.316,LEFT,20
78.0,14074.982890484678,2190.29214266445,-62031.09765423509,-59372.00002336503,-35491.239785103775,-32887.50742524951,-18903.898466098126,-21865.795179104232,0.0,0.0,0.0,193.0,1.0,155.0,0.0,44.0,3.0,250.0,411.0,44.0,1018.0,1744252735.3162892,0.0,2025-04-09 22:38:55.316,LEFT,20
79.0,14005.021930339568,2181.0385204599525,-62073.43185823344,-59422.8278902564,-35516.765477271736,-32919.001033187036,-18740.641324596563,-21895.34418527415,0.0,0.0,0.0,193.0,1.0,155.0,0.0,44.0,3.0,252.0,411.0,44.0,1020.0,1744252735.316298,0.0,2025-04-09 22:38:55.316,LEFT,20
80.0,13999.255180270098,2149.0531741444083,-62080.964396114876,-59399.89500044525,-35561.647780137995,-32969.06894076693,-18721.977617976383,-21947.893136488576,0.0,0.0,0.0,193.0,1.0,154.0,0.0,44.0,3.0,250.0,410.0,44.0,1018.0,1744252735.3163066,0.0,2025-04-09 22:38:55.316,LEFT,20
81.0,14116.914763082834,2171.695491277634,-62090.687404952936,-59420.145680921756,-35573.91888784395,-32979.753074616565,-18701.92810319997,-21966.221566941927,0.0,0.0,0.0,193.0,1.0,154.0,0.0,45.0,3.0,250.0,410.0,45.0,1018.0,1744252735.3163152,0.0,2025-04-09 22:38:55.316,LEFT,20
82.0,14076.480457363185,2182.737253038556,-62042.22882297383,-59397.43630855517,-35498.101770651556,-32901.65607948972,-18987.449286872066,-21894.29365328475,0.0,0.0,0.0,193.0,1.0,155.0,0.0,44.0,3.0,251.0,411.0,44.0,1019.0,1744252735.316324,0.0,2025-04-09 22:38:55.316,LEFT,20
83.0,14011.81686065398,2178.7139390366006,-62077.07519257966,-59416.25647738654,-35519.917073239936,-32922.24203613306,-18741.513042630322,-21901.647377210546,0.0,0.0,0.0,193.0,1.0,154.0,0.0,44.0,3.0,250.0,410.0,44.0,1018.0,1744252735.3163376,0.0,2025-04-09 22:38:55.316,LEFT,20
84.0,13968.275662455042,2134.3904297817267,-62101.21507659138,-59431.23214617159,-35566.00637030678,-32968.57720238891,-18797.750031679872,-21944.6297817981,0.0,0.0,0.0,193.0,1.0,155.0,0.0,44.0,3.0,253.0,411.0,44.0,1021.0,1744252735.3163464,0.0,2025-04-09 22:38:55.316,LEFT,20
85.0,14085.868190034413,2146.348613065316,-62109.99931216232,-59420.48095708859,-35598.70697244489,-33003.06594408345,-18641.91366933747,-21982.11365724965,0.0,0.0,0.0,193.0,1.0,155.0,0.0,44.0,3.0,251.0,411.0,44.0,1019.0,1744252735.3163552,0.0,2025-04-09 22:38:55.316,LEFT,20
86.0,14089.779745314092,2174.735328523556,-62040.820663073144,-59408.45571857163,-35494.21256711633,-32893.65415497472,-19043.261592776966,-21880.927310100476,0.0,0.0,0.0,193.0,1.0,155.0,0.0,44.0,3.0,252.0,411.0,44.0,1020.0,1744252735.3163636,0.0,2025-04-09 22:38:55.316,LEFT,20
87.0,14025.63023872736,2179.0268634589747,-62062.166579027966,-59398.73270973357,-35509.12118066802,-32923.471382078096,-18737.199155950446,-21903.256702811326,0.0,0.0,0.0,193.0,1.0,155.0,0.0,44.0,3.0,251.0,411.0,44.0,1019.0,1744252735.3163722,0.0,2025-04-09 22:38:55.316,LEFT,20
88.0,13956.943328016201,2129.696563446112,-62098.97990214585,-59449.13589348029,-35555.92573355744,-32976.64618213727,-18848.577898571242,-21962.39941864007,0.0,0.0,0.0,193.0,1.0,155.0,0.0,44.0,3.0,252.0,411.0,44.0,1020.0,1744252735.3163807,0.0,2025-04-09 22:38:55.316,LEFT,20
89.0,14078.35800389743,2145.90157817621,-62099.985730646345,-59398.44213705566,-35601.88092015754,-33016.186418078716,-18611.560000367164,-21988.506256163866,0.0,0.0,0.0,193.0,1.0,155.0,0.0,44.0,3.0,251.0,411.0,44.0,1019.0,1744252735.3163893,0.0,2025-04-09 22:38:55.316,LEFT,20
90.0,14104.464841421228,2180.502078593025,-62052.73414286783,-59419.85510824384,-35513.99386095928,-32912.58608252837,-19060.0477528629,-21894.85244689613,0.0,0.0,0.0,193.0,1.0,155.0,0.0,45.0,3.0,249.0,411.0,45.0,1017.0,1744252735.316398,0.0,2025-04-09 22:38:55.316,LEFT,20
91.0,14038.773064467081,2183.6536745612234,-62051.01305854477,-59368.60255820782,-35508.13770391198,-32910.28385284947,-18756.80163583775,-21878.200397276927,0.0,0.0,0.0,193.0,1.0,154.0,0.0,44.0,3.0,249.0,410.0,44.0,1017.0,1744252735.3164067,0.0,2025-04-09 22:38:55.316,LEFT,20
92.0,13964.677031597737,2148.963767166587,-62084.78654441673,-59423.94547747916,-35531.785849545704,-32940.01167297503,-18845.11337818067,-21911.61625523761,0.0,0.0,0.0,193.0,1.0,154.0,0.0,44.0,3.0,250.0,410.0,44.0,1018.0,1744252735.3164153,0.0,2025-04-09 22:38:55.316,LEFT,20
93.0,14056.699163520238,2151.7800869679554,-62082.5513699712,-59356.13028480176,-35579.596230935604,-32989.69960089918,-18592.20338966887,-21940.852336985154,0.0,0.0,0.0,193.0,1.0,154.0,0.0,44.0,3.0,252.0,410.0,44.0,1020.0,1744252735.316424,0.0,2025-04-09 22:38:55.316,LEFT,20
94.0,14103.347254198463,2172.723671522578,-62062.88183485054,-59407.002855182036,-35518.643023805984,-32918.933977953675,-18987.27047291642,-21884.682403168965,0.0,0.0,0.0,193.0,1.0,155.0,0.0,44.0,3.0,250.0,411.0,44.0,1018.0,1744252735.3164327,0.0,2025-04-09 22:38:55.316,LEFT,20
95.0,14038.326029577975,2173.7965552564333,-62047.45913117637,-59345.04381955193,-35499.17465438541,-32907.57929177037,-18801.214552070447,-21860.721333112877,0.0,0.0,0.0,193.0,1.0,155.0,0.0,44.0,3.0,252.0,411.0,44.0,1020.0,1744252735.3164413,0.0,2025-04-09 22:38:55.316,LEFT,20
96.0,13971.918996801258,2162.598331284324,-62081.92552112645,-59399.6714830007,-35517.63719530549,-32920.63271053228,-18832.30582860778,-21874.7135251419,0.0,0.0,0.0,193.0,1.0,154.0,0.0,44.0,3.0,252.0,410.0,44.0,1020.0,1744252735.3164499,0.0,2025-04-09 22:38:55.316,LEFT,20
97.0,14026.971343394678,2146.7956479544223,-62082.39490776002,-59336.3042874699,-35567.39217846301,-32970.745321601076,-18640.952544325894,-21917.114784373618,0.0,0.0,0.0,193.0,1.0,155.0,0.0,44.0,3.0,253.0,411.0,44.0,1021.0,1744252735.3164585,0.0,2025-04-09 22:38:55.316,LEFT,20
98.0,14111.349178713463,2172.723671522578,-62074.48239022284,-59384.7181659601,-35526.80141053217,-32918.2187221311,-18913.107384813713,-21880.32381300018,0.0,0.0,0.0,193.0,1.0,154.0,0.0,45.0,3.0,250.0,410.0,45.0,1018.0,1744252735.3164716,0.0,2025-04-09 22:38:55.316,LEFT,20
99.0,14061.97417521169,2190.1356804532625,-62034.85274730358,-59318.17702271665,-35478.56634599761,-32877.38208501125,-18885.435925178044,-21839.66598983598,0.0,0.0,0.0,193.0,1.0,155.0,0.0,44.0,3.0,252.0,411.0,44.0,1020.0,1744252735.3164809,0.0,2025-04-09 22:38:55.316,LEFT,20
100.0,13993.62254066736,2181.217334415595,-62078.25983503579,-59375.10691584431,-35505.54490155517,-32904.13712312426,-18812.368072553643,-21867.18098726046,0.0,0.0,0.0,193.0,1.0,154.0,0.0,44.0,3.0,249.0,410.0,44.0,1017.0,1744252735.3164897,0.0,2025-04-09 22:38:55.316,LEFT,20
101.0,14011.43688099824,2152.9423776796316,-62081.657300192994,-59330.29166821142,-35551.61184687756,-32954.316789426426,-18714.020396950295,-21904.53075224528,0.0,0.0,0.0,193.0,1.0,155.0,0.0,44.0,3.0,251.0,411.0,44.0,1019.0,1744252735.3164985,0.0,2025-04-09 22:38:55.316,LEFT,20
102.0,14118.814661361535,2179.0715669478855,-62086.17235257296,-59363.61811919429,-35543.185239217906,-32941.28572240898,-18806.44486027299,-21908.017624380307,0.0,0.0,0.0,193.0,1.0,155.0,0.0,44.0,3.0,252.0,411.0,44.0,1020.0,1744252735.316507,0.0,2025-04-09 22:38:55.316,LEFT,20
103.0,14071.853646260935,2192.6614275767124,-62041.42416017344,-59321.12745298475,-35479.3263053091,-32881.27128854648,-18967.109199417737,-21844.963353271887,0.0,0.0,0.0,193.0,1.0,154.0,0.0,44.0,3.0,249.0,410.0,44.0,1017.0,1744252735.3165157,0.0,2025-04-09 22:38:55.316,LEFT,20
104.0,14005.24544778412,2182.3349216383604,-62082.1043350821,-59359.952433103615,-35505.723715510816,-32908.003974915024,-18781.38855473859,-21864.09644652563,0.0,0.0,0.0,193.0,1.0,155.0,0.0,44.0,3.0,252.0,411.0,44.0,1020.0,1744252735.3165243,0.0,2025-04-09 22:38:55.316,LEFT,20
105.0,13993.91311334528,2145.18632235364,-62089.10043109661,-59343.74741837352,-35545.57687587463,-32957.24486795007,-18789.72575542042,-21917.33830181817,0.0,0.0,0.0,193.0,1.0,154.0,0.0,44.0,3.0,250.0,410.0,44.0,1018.0,1744252735.3165329,0.0,2025-04-09 22:38:55.316,LEFT,20
106.0,14114.433719448296,2166.733404008556,-62099.426937034965,-59349.60357542081,-35565.67109413995,-32967.75018784406,-18715.026225450783,-21921.33926407567,0.0,0.0,0.0,193.0,1.0,155.0,0.0,44.0,3.0,252.0,411.0,44.0,1020.0,1744252735.3165417,0.0,2025-04-09 22:38:55.316,LEFT,20
107.0,14089.779745314092,2188.258133919017,-62047.190910242905,-59331.47631066755,-35485.54009026767,-32883.484111247555,-19047.575479456842,-21852.42883591996,0.0,0.0,0.0,193.0,1.0,154.0,0.0,44.0,3.0,249.0,410.0,44.0,1017.0,1744252735.3165503,0.0,2025-04-09 22:38:55.316,LEFT,20
108.0,14021.316352047486,2185.95590424012,-62086.77584967326,-59349.73768588754,-35515.73729702679,-32919.358661098326,-18786.887083874593,-21889.935063115965,0.0,0.0,0.0,193.0,1.0,155.0,0.0,44.0,3.0,252.0,411.0,44.0,1020.0,1744252735.3165588,0.0,2025-04-09 22:38:55.316,LEFT,20
109.0,13974.71296485817,2142.772333952467,-62107.317102827685,-59371.68709894265,-35549.37667243203,-32957.75895807254,-18856.669230064064,-21922.81447920972,0.0,0.0,0.0,193.0,1.0,154.0,0.0,44.0,3.0,250.0,410.0,44.0,1018.0,1744252735.3165677,0.0,2025-04-09 22:38:55.316,LEFT,20
110.0,14099.346291940963,2166.442831330637,-62105.32779757116,-59340.7075811276,-35572.555431432185,-32983.932850829704,-18650.094407808116,-21945.63561029859,0.0,0.0,0.0,193.0,1.0,155.0,0.0,44.0,3.0,251.0,411.0,44.0,1019.0,1744252735.3165762,0.0,2025-04-09 22:38:55.316,LEFT,20
111.0,14101.402652430852,2190.2027356866283,-62049.51549166626,-59345.98259281905,-35475.7723779407,-32878.387913511746,-19072.408267546685,-21851.266545208284,0.0,0.0,0.0,193.0,1.0,155.0,0.0,44.0,3.0,251.0,411.0,44.0,1019.0,1744252735.3165853,0.0,2025-04-09 22:38:55.316,LEFT,20
112.0,14034.0121428981,2184.637151317257,-62076.67286117946,-59334.583203146845,-35495.285450850184,-32905.142951624744,-18766.591699909175,-21868.745609372334,0.0,0.0,0.0,193.0,1.0,154.0,0.0,44.0,3.0,250.0,410.0,44.0,1018.0,1744252735.3165941,0.0,2025-04-09 22:38:55.316,LEFT,20
113.0,13967.605110121383,2146.192150854129,-62104.56783825968,-59382.30417755892,-35525.6838233094,-32936.88242875128,-18878.819808819273,-21912.95735990493,0.0,0.0,0.0,193.0,1.0,155.0,0.0,44.0,3.0,251.0,411.0,44.0,1019.0,1744252735.316608,0.0,2025-04-09 22:38:55.316,LEFT,20
114.0,14075.45227711824,2160.0949359053297,-62101.77387020277,-59327.94473504362,-35570.879050598036,-32976.98145830411,-18625.865116818564,-21950.843566756674,0.0,0.0,0.0,193.0,1.0,155.0,0.0,45.0,3.0,250.0,411.0,45.0,1018.0,1744252735.3166168,0.0,2025-04-09 22:38:55.316,LEFT,20
115.0,14096.865248306423,2179.6303605592684,-62076.136419312534,-59376.42566876718,-35504.02498293221,-32896.04579163144,-19071.760066957482,-21892.214941050406,0.0,0.0,0.0,193.0,1.0,155.0,0.0,44.0,3.0,251.0,411.0,44.0,1019.0,1744252735.316625,0.0,2025-04-09 22:38:55.316,LEFT,20
116.0,14036.515538277095,2187.5205263519915,-62072.33662275513,-59331.16338624518,-35497.945308440365,-32900.5161405225,-18811.92103766454,-21885.4647142249,0.0,0.0,0.0,193.0,1.0,154.0,0.0,44.0,3.0,251.0,410.0,44.0,1019.0,1744252735.316634,0.0,2025-04-09 22:38:55.316,LEFT,20
117.0,13972.366031690364,2159.5137905494917,-62098.97990214585,-59388.89794217324,-35518.17363717242,-32921.66089077722,-18893.393146204133,-21908.71052845842,0.0,0.0,0.0,193.0,1.0,155.0,0.0,44.0,3.0,251.0,411.0,44.0,1019.0,1744252735.3166428,0.0,2025-04-09 22:38:55.316,LEFT,20
118.0,14049.59130878345,2148.024993899464,-62096.990596889336,-59327.654162365696,-35572.86835585455,-32980.71419962814,-18652.240175275823,-21957.839662771185,0.0,0.0,0.0,193.0,1.0,154.0,0.0,45.0,3.0,251.0,410.0,45.0,1019.0,1744252735.3166516,0.0,2025-04-09 22:38:55.316,LEFT,20
119.0,14103.12373675391,2166.9792731975645,-62085.56885547267,-59393.99413990905,-35523.49335235278,-32925.52774256799,-19025.89428733519,-21918.277075085294,0.0,0.0,0.0,193.0,1.0,155.0,0.0,45.0,3.0,251.0,411.0,45.0,1019.0,1744252735.3166604,0.0,2025-04-09 22:38:55.316,LEFT,20
120.0,14052.474683818184,2182.2455146605394,-62052.6000324011,-59323.92142104166,-35486.009476901236,-32893.92237590819,-18875.981137273448,-21867.471559938378,0.0,0.0,0.0,193.0,1.0,155.0,0.0,44.0,3.0,252.0,411.0,44.0,1020.0,1744252735.3166692,0.0,2025-04-09 22:38:55.316,LEFT,20
121.0,13976.255235225588,2160.8548952168103,-62098.33170155665,-59397.481012044074,-35517.32427088312,-32930.4227746037,-18870.437904648534,-21907.324720302193,0.0,0.0,0.0,193.0,1.0,155.0,0.0,44.0,3.0,252.0,411.0,44.0,1020.0,1744252735.316678,0.0,2025-04-09 22:38:55.316,LEFT,20
122.0,14023.931506148758,2149.343746822327,-62092.60965497609,-59337.578336903855,-35567.794509863204,-32978.635487393796,-18711.85227773813,-21951.089435945683,0.0,0.0,0.0,193.0,1.0,154.0,0.0,44.0,3.0,249.0,410.0,44.0,1017.0,1744252735.3166866,0.0,2025-04-09 22:38:55.316,LEFT,20
123.0,14121.183946273799,2183.2736949054834,-62079.95856761439,-59378.95141589063,-35530.958835000856,-32930.8251060039,-18925.154975075126,-21911.7727174488,0.0,0.0,0.0,193.0,1.0,155.0,0.0,45.0,3.0,252.0,411.0,45.0,1020.0,1744252735.3166952,0.0,2025-04-09 22:38:55.316,LEFT,20
124.0,14071.205445671732,2195.477747378081,-62031.120005979545,-59315.31599942637,-35469.223316815296,-32879.281983289955,-18940.756492704928,-21853.501719653814,0.0,0.0,0.0,193.0,1.0,154.0,0.0,44.0,3.0,250.0,410.0,44.0,1018.0,1744252735.316704,0.0,2025-04-09 22:38:55.316,LEFT,20
125.0,13992.1026220444,2172.2319331445615,-62082.43961124893,-59379.17493333518,-35502.52741605371,-32918.03990817546,-18823.901572692583,-21898.875760898085,0.0,0.0,0.0,193.0,1.0,155.0,0.0,44.0,3.0,252.0,411.0,44.0,1020.0,1744252735.3167126,0.0,2025-04-09 22:38:55.316,LEFT,20
126.0,13997.19881978021,2138.704316461601,-62089.88274215254,-59348.21776726458,-35553.37763468953,-32966.00675177655,-18765.384705708588,-21937.92425846151,0.0,0.0,0.0,193.0,1.0,154.0,0.0,45.0,3.0,250.0,410.0,45.0,1018.0,1744252735.3167212,0.0,2025-04-09 22:38:55.316,LEFT,20
