Sample Index,EXG Channel 0,EXG Channel 1,EXG Channel 2,EXG Channel 3,EXG Channel 4,EXG Channel 5,EXG Channel 6,EXG Channel 7,Accel Channel 0,Accel Channel 1,Accel Channel 2,Not Used,Digital Channel 0 (D11),Digital Channel 1 (D12),Digital Channel 2 (D13),Digital Channel 3 (D17),Not Used,Digital Channel 4 (D18),Analog Channel 0,Analog Channel 1,Analog Channel 2,Timestamp,Marker Channel,Timestamp (Formatted),Stimulus_Direction,Stimulus_Number
6.0,16026.960733766644,2784.3791585420563,-64209.67748280495,-62150.25480392633,-37091.57998461485,-34672.20481302796,-29574.5318620839,-22677.63288946544,0.0,0.0,0.0,193.0,1.0,155.0,0.0,10.0,3.0,252.0,411.0,10.0,1020.0,1744252669.484904,0.0,2025-04-09 22:37:49.484,LEFT,12
7.0,16007.112384690332,2806.8426617196396,-64144.56685120665,-62126.83017573717,-36990.371285721216,-34576.29347757024,-30089.605461311992,-22596.22783615921,0.0,0.0,0.0,193.0,1.0,155.0,0.0,9.0,3.0,252.0,411.0,9.0,1020.0,1744252669.4849124,0.0,2025-04-09 22:37:49.484,LEFT,12
8.0,15946.762674661002,2810.351885599123,-64168.729086962834,-62131.76991126179,-37006.19632079558,-34604.18845465046,-29721.293416177443,-22621.731176582718,0.0,0.0,0.0,193.0,1.0,155.0,0.0,8.0,3.0,252.0,411.0,8.0,1020.0,1744252669.4849212,0.0,2025-04-09 22:37:49.484,LEFT,12
9.0,15885.250673919998,2758.9875768408274,-64200.62502630056,-62162.86118779912,-37052.8444114738,-34647.46143191593,-29797.55756825895,-22658.47744446724,0.0,0.0,0.0,193.0,1.0,155.0,0.0,8.0,3.0,252.0,411.0,8.0,1020.0,1744252669.4849296,0.0,2025-04-09 22:37:49.484,LEFT,12
10.0,16029.97821926811,2794.012760402293,-64192.33252910764,-62119.65526576701,-37081.70051356561,-34671.17663278301,-29517.35609976722,-22676.44824700931,0.0,0.0,0.0,193.0,1.0,155.0,0.0,7.0,3.0,251.0,411.0,7.0,1019.0,1744252669.4849384,0.0,2025-04-09 22:37:49.484,LEFT,12
11.0,16039.455358917161,2825.908699740017,-64130.64171441099,-62116.99540817683,-36976.08852101428,-34567.0622071102,-30086.43151359934,-22588.158856410846,0.0,0.0,0.0,193.0,1.0,155.0,0.0,7.0,3.0,250.0,411.0,7.0,1018.0,1744252669.484948,0.0,2025-04-09 22:37:49.484,LEFT,12
12.0,15974.9705761636,2825.0146299618045,-64143.158691305965,-62098.59992249012,-36990.103064787756,-34589.25748935431,-29733.139840738757,-22603.84978101847,0.0,0.0,0.0,193.0,1.0,155.0,0.0,6.0,3.0,252.0,411.0,6.0,1020.0,1744252669.4849677,0.0,2025-04-09 22:37:49.484,LEFT,12
13.0,15891.352700156296,2774.9467223819165,-64186.09639240461,-62159.79899880874,-37039.098088633786,-34632.46341138642,-29822.457411582163,-22645.13345302742,0.0,0.0,0.0,193.0,1.0,154.0,0.0,6.0,3.0,249.0,410.0,6.0,1017.0,1744252669.4849799,0.0,2025-04-09 22:37:49.484,LEFT,12
14.0,15990.728556004591,2777.092489849626,-64201.04970944521,-62125.17614664748,-37099.40309517421,-34698.64692671859,-29496.16664602359,-22699.06821239808,0.0,0.0,0.0,193.0,1.0,155.0,0.0,6.0,3.0,251.0,411.0,6.0,1019.0,1744252669.4849887,0.0,2025-04-09 22:37:49.484,LEFT,12
15.0,16043.36691419684,2824.634650306064,-64144.768016906746,-62140.68825729946,-36995.78040787941,-34589.74922773233,-30029.032233838112,-22611.114097966445,0.0,0.0,0.0,193.0,1.0,155.0,0.0,6.0,3.0,250.0,411.0,6.0,1018.0,1744252669.4849973,0.0,2025-04-09 22:37:49.484,LEFT,12
16.0,15977.563378520415,2823.5617665722093,-64142.376380250025,-62097.303521311704,-36993.522881689416,-34592.85612021162,-29767.472120222108,-22603.313339151544,0.0,0.0,0.0,193.0,1.0,155.0,0.0,5.0,3.0,252.0,411.0,5.0,1020.0,1744252669.485006,0.0,2025-04-09 22:37:49.485,LEFT,12
17.0,15899.108755482288,2791.0176266452822,-64180.03906965722,-62156.960327262925,-37023.3401087928,-34614.35849837762,-29799.502170026564,-22630.403653431375,0.0,0.0,0.0,193.0,1.0,154.0,0.0,5.0,3.0,249.0,410.0,5.0,1017.0,1744252669.485015,0.0,2025-04-09 22:37:49.485,LEFT,12
18.0,15966.432209781673,2771.7504229248075,-64193.78539249723,-62110.49105054034,-37094.195138716124,-34682.37485675512,-29525.84976266024,-22687.53471225914,0.0,0.0,0.0,193.0,1.0,155.0,0.0,5.0,3.0,249.0,411.0,5.0,1017.0,1744252669.4850235,0.0,2025-04-09 22:37:49.485,LEFT,12
19.0,16045.624440386826,2811.000086188327,-64166.002174139285,-62146.70087655794,-37029.71035596256,-34602.71323951641,-29933.83615420296,-22627.699092352283,0.0,0.0,0.0,193.0,1.0,155.0,0.0,5.0,3.0,250.0,411.0,5.0,1018.0,1744252669.485032,0.0,2025-04-09 22:37:49.485,LEFT,12
20.0,15995.891808973767,2833.061257965715,-64123.019769551734,-62074.884721623035,-36979.57539314931,-34570.30321005621,-29871.608897639384,-22593.165647168833,0.0,0.0,0.0,193.0,1.0,155.0,0.0,4.0,3.0,252.0,411.0,4.0,1020.0,1744252669.4850411,0.0,2025-04-09 22:37:49.485,LEFT,12
21.0,15910.105813754299,2799.60069651612,-64171.72422071984,-62148.95840274792,-37009.83965514179,-34601.32743136018,-29770.333143512387,-22619.496002137184,0.0,0.0,0.0,193.0,1.0,154.0,0.0,4.0,3.0,250.0,410.0,4.0,1018.0,1744252669.48505,0.0,2025-04-09 22:37:49.485,LEFT,12
22.0,15943.29815427043,2770.0516903462044,-64182.67657550295,-62111.25100985182,-37069.07177794835,-34665.543993180276,-29596.369516416733,-22670.592089962018,0.0,0.0,0.0,193.0,1.0,154.0,0.0,4.0,3.0,249.0,410.0,4.0,1017.0,1744252669.4850588,0.0,2025-04-09 22:37:49.485,LEFT,12
23.0,16047.41257994325,2802.439368061944,-64177.826246956145,-62149.472492870394,-37041.8920566907,-34630.89878927455,-29785.17470183071,-22655.43760722132,0.0,0.0,0.0,193.0,1.0,155.0,0.0,4.0,3.0,252.0,411.0,4.0,1020.0,1744252669.4850676,0.0,2025-04-09 22:37:49.485,LEFT,12
24.0,16005.16778292272,2824.5005398393323,-64118.035330538194,-62082.68548043794,-36970.9252680451,-34563.41887276398,-29952.030474189578,-22580.402801084852,0.0,0.0,0.0,193.0,1.0,154.0,0.0,4.0,3.0,252.0,410.0,4.0,1020.0,1744252669.4850762,0.0,2025-04-09 22:37:49.485,LEFT,12
25.0,15927.048436051422,2807.2449931198353,-64167.477389273336,-62144.219832923394,-37004.922271361625,-34598.53346330327,-29727.97658776958,-22610.555304355064,0.0,0.0,0.0,193.0,1.0,154.0,0.0,4.0,3.0,250.0,410.0,4.0,1018.0,1744252669.4850848,0.0,2025-04-09 22:37:49.485,LEFT,12
26.0,15924.969723817077,2775.036129359738,-64176.37338356655,-62119.31998960018,-37055.034882430424,-34650.031882528296,-29684.390686081733,-22660.95848810178,0.0,0.0,0.0,193.0,1.0,155.0,0.0,4.0,3.0,253.0,411.0,4.0,1021.0,1744252669.4850934,0.0,2025-04-09 22:37:49.485,LEFT,12
27.0,16046.74202760959,2800.383007572056,-64186.58813078263,-62141.783492777766,-37061.15926041118,-34651.551801151254,-29656.652171212696,-22674.749514430707,0.0,0.0,0.0,193.0,1.0,155.0,0.0,4.0,3.0,252.0,411.0,4.0,1020.0,1744252669.4851809,0.0,2025-04-09 22:37:49.485,LEFT,12
28.0,16004.765451522524,2814.84458623464,-64129.14414753248,-62101.21507659138,-36976.08852101428,-34566.59282047663,-30040.27516129913,-22596.071373948023,0.0,0.0,0.0,193.0,1.0,154.0,0.0,4.0,3.0,249.0,410.0,4.0,1017.0,1744252669.4851897,0.0,2025-04-09 22:37:49.485,LEFT,12
29.0,15926.087311039844,2799.4218825604776,-64175.725182977345,-62142.00701022232,-37006.4868934735,-34602.31090811621,-29711.145724194736,-22626.782670829616,0.0,0.0,0.0,193.0,1.0,154.0,0.0,4.0,3.0,250.0,410.0,4.0,1018.0,1744252669.836911,0.0,2025-04-09 22:37:49.836,LEFT,12
30.0,15880.75797328448,2749.2422162583134,-64204.871857747064,-62157.787341807765,-37060.95809471108,-34658.99493205487,-29763.672323664705,-22679.801008677605,0.0,0.0,0.0,193.0,1.0,154.0,0.0,4.0,3.0,252.0,410.0,4.0,1020.0,1744252669.8369513,0.0,2025-04-09 22:37:49.836,LEFT,12
31.0,16024.189117454187,2783.865068419584,-64204.20130541341,-62143.12459744509,-37082.795749043915,-34668.09209204818,-29572.453149849553,-22685.835979680538,0.0,0.0,0.0,193.0,1.0,155.0,0.0,3.0,3.0,251.0,411.0,3.0,1019.0,1744252669.8369713,0.0,2025-04-09 22:37:49.836,LEFT,12
32.0,16014.711977805136,2816.5656705576985,-64135.804967380165,-62119.163527389,-36976.84848032576,-34559.84259365113,-30094.008754969687,-22590.88576923439,0.0,0.0,0.0,193.0,1.0,154.0,0.0,3.0,3.0,249.0,410.0,3.0,1017.0,1744252669.8369915,0.0,2025-04-09 22:37:49.836,LEFT,12
33.0,15935.519747199984,2797.4549290484106,-64175.591072510615,-62138.7660072763,-37006.95628010706,-34602.28855637176,-29711.54805559493,-22623.675778350327,0.0,0.0,0.0,193.0,1.0,154.0,0.0,3.0,3.0,249.0,410.0,3.0,1017.0,1744252669.8370092,0.0,2025-04-09 22:37:49.837,LEFT,12
34.0,15869.42563884564,2748.191684268914,-64207.37525312606,-62177.702746117444,-37051.36919633975,-34642.56639988022,-29813.203789377665,-22662.67957242484,0.0,0.0,0.0,193.0,1.0,154.0,0.0,3.0,3.0,250.0,410.0,3.0,1018.0,1744252669.8370216,0.0,2025-04-09 22:37:49.837,LEFT,12
35.0,16002.150297421254,2771.8174781581733,-64206.7047007924,-62135.48030084137,-37092.87638579326,-34674.082359562206,-29519.23364630147,-22692.16152336139,0.0,0.0,0.0,193.0,1.0,155.0,0.0,3.0,3.0,252.0,411.0,3.0,1020.0,1744252669.8370311,0.0,2025-04-09 22:37:49.837,LEFT,12
36.0,16023.429158142706,2808.8766704650725,-64142.4881389723,-62135.65911479702,-36984.001038551454,-34558.61324770609,-30090.723048534757,-22590.70695527875,0.0,0.0,0.0,193.0,1.0,155.0,0.0,3.0,3.0,251.0,411.0,3.0,1019.0,1744252669.8370404,0.0,2025-04-09 22:37:49.837,LEFT,12
37.0,15958.20676782212,2811.313010610701,-64152.099389088085,-62111.47452729637,-36991.421817710616,-34579.60153574962,-29737.07374776289,-22600.675833305817,0.0,0.0,0.0,193.0,1.0,154.0,0.0,3.0,3.0,249.0,410.0,3.0,1017.0,1744252669.8370495,0.0,2025-04-09 22:37:49.837,LEFT,12
38.0,15878.14281918321,2764.5978646991093,-64192.019604685265,-62173.41121118203,-37030.67148097414,-34618.985309479875,-29814.36608008934,-22643.81470010456,0.0,0.0,0.0,193.0,1.0,154.0,0.0,3.0,3.0,250.0,410.0,3.0,1018.0,1744252669.837058,0.0,2025-04-09 22:37:49.837,LEFT,12
39.0,15986.571131535904,2772.823306658662,-64189.493857561814,-62117.28598085475,-37079.24182167552,-34665.879269347104,-29488.634108142152,-22675.218901064265,0.0,0.0,0.0,193.0,1.0,155.0,0.0,3.0,3.0,253.0,411.0,3.0,1021.0,1744252669.837067,0.0,2025-04-09 22:37:49.837,LEFT,12
40.0,16025.597277354871,2798.5278127822653,-64160.16836883645,-62158.16732146351,-37008.051515585365,-34586.10589338611,-29992.062448509034,-22612.924589267324,0.0,0.0,0.0,193.0,1.0,154.0,0.0,3.0,3.0,250.0,410.0,3.0,1018.0,1744252669.837076,0.0,2025-04-09 22:37:49.837,LEFT,12
41.0,15963.526483002483,2803.378141329067,-64145.61738319605,-62109.99931216232,-36993.20995726704,-34586.262355597304,-29789.779161188504,-22605.90614150836,0.0,0.0,0.0,193.0,1.0,154.0,0.0,3.0,3.0,249.0,410.0,3.0,1017.0,1744252669.8370848,0.0,2025-04-09 22:37:49.837,LEFT,12
42.0,15883.574293085849,2774.5890944706316,-64185.49289530431,-62176.92043506151,-37019.89794014668,-34614.51496058881,-29798.51869327053,-22646.161633272368,0.0,0.0,0.0,193.0,1.0,154.0,0.0,3.0,3.0,251.0,410.0,3.0,1019.0,1744252669.837127,0.0,2025-04-09 22:37:49.837,LEFT,12
43.0,15950.62952645177,2763.8826088765395,-64187.59395928311,-62123.29860011323,-37078.168937941664,-34671.89188860558,-29542.70297797954,-22691.356860560998,0.0,0.0,0.0,193.0,1.0,155.0,0.0,3.0,3.0,251.0,411.0,3.0,1019.0,1744252669.837136,0.0,2025-04-09 22:37:49.837,LEFT,12
44.0,16029.866460545834,2796.158527870003,-64172.014793397764,-62168.11384774612,-37031.00675714097,-34613.50913208832,-29897.91690086328,-22646.58631641702,0.0,0.0,0.0,193.0,1.0,154.0,0.0,3.0,3.0,251.0,410.0,3.0,1019.0,1744252669.8371449,0.0,2025-04-09 22:37:49.837,LEFT,12
45.0,15973.45065754064,2812.6988187669303,-64132.00517082276,-62103.49495452583,-36985.69977113006,-34579.15450086052,-29888.57387168096,-22606.867266519937,0.0,0.0,0.0,193.0,1.0,154.0,0.0,3.0,3.0,250.0,410.0,3.0,1018.0,1744252669.8371537,0.0,2025-04-09 22:37:49.837,LEFT,12
46.0,15890.43627863363,2786.3237603096677,-64186.18579938243,-62177.25571122834,-37022.22252157003,-34617.018355967804,-29767.047437077457,-22643.81470010456,0.0,0.0,0.0,193.0,1.0,155.0,0.0,3.0,3.0,250.0,411.0,3.0,1018.0,1744252669.8371625,0.0,2025-04-09 22:37:49.837,LEFT,12
47.0,15923.069825538378,2761.759193153285,-64186.699889504904,-62128.841832738144,-37072.71511229457,-34664.11348153514,-29629.71831914405,-22676.314136542576,0.0,0.0,0.0,193.0,1.0,155.0,0.0,3.0,3.0,252.0,411.0,3.0,1020.0,1744252669.8371713,0.0,2025-04-09 22:37:49.837,LEFT,12
48.0,16041.9364025517,2801.3664843280894,-64176.7980667112,-62156.468588884905,-37047.837620715814,-34631.47993463039,-29764.722855654105,-22657.650429922396,0.0,0.0,0.0,193.0,1.0,154.0,0.0,3.0,3.0,250.0,410.0,3.0,1018.0,1744252669.83718,0.0,2025-04-09 22:37:49.837,LEFT,12
49.0,15994.93068396219,2819.1361211700587,-64120.136394516994,-62097.52703875626,-36979.1283582602,-34565.96697163188,-29981.13244547039,-22590.90812097885,0.0,0.0,0.0,193.0,1.0,154.0,0.0,3.0,3.0,250.0,410.0,3.0,1018.0,1744252669.8371909,0.0,2025-04-09 22:37:49.837,LEFT,12
50.0,15920.454671437106,2803.22167911788,-64162.76117119327,-62147.952574247436,-37008.52090221893,-34592.498492300336,-29736.82787857388,-22617.2384759472,0.0,0.0,0.0,193.0,1.0,155.0,0.0,3.0,3.0,252.0,411.0,3.0,1020.0,1744252669.8371997,0.0,2025-04-09 22:37:49.837,LEFT,12
51.0,15901.232171205542,2753.5337511937323,-64186.83399997163,-62142.58815557816,-37072.46924310556,-34656.53624016479,-29714.31967190739,-22679.622194721964,0.0,0.0,0.0,193.0,1.0,155.0,0.0,3.0,3.0,251.0,411.0,3.0,1019.0,1744252669.8372085,0.0,2025-04-09 22:37:49.837,LEFT,12
52.0,16030.134681479298,2781.4510800184107,-64193.2489506303,-62159.44137089746,-37082.594583343816,-34665.432234458,-29648.940819375614,-22693.88260768445,0.0,0.0,0.0,193.0,1.0,154.0,0.0,3.0,3.0,249.0,410.0,3.0,1017.0,1744252669.837217,0.0,2025-04-09 22:37:49.837,LEFT,12
53.0,15993.902503717245,2797.7902052152403,-64131.66989465593,-62123.00802743531,-36991.31005898834,-34577.54517525973,-30067.298420345596,-22612.61166484495,0.0,0.0,0.0,193.0,1.0,154.0,0.0,3.0,3.0,252.0,410.0,3.0,1020.0,1744252669.837226,0.0,2025-04-09 22:37:49.837,LEFT,12
54.0,15931.787005875947,2802.5287750397656,-64159.140188591504,-62141.89525150004,-37006.77746615141,-34600.254547626326,-29729.49650639254,-22631.275371465134,0.0,0.0,0.0,193.0,1.0,155.0,0.0,3.0,3.0,252.0,411.0,3.0,1020.0,1744252669.8372345,0.0,2025-04-09 22:37:49.837,LEFT,12
55.0,15888.201104188098,2760.4627919748777,-64179.636738257024,-62155.1721877065,-37051.63741727322,-34645.896809804064,-29781.88899539578,-22670.3015172841,0.0,0.0,0.0,193.0,1.0,155.0,0.0,3.0,3.0,251.0,411.0,3.0,1019.0,1744252669.8372433,0.0,2025-04-09 22:37:49.837,LEFT,12
56.0,16012.186230681686,2775.840792160129,-64197.13815416553,-62153.316992916705,-37091.736446826035,-34687.359295768656,-29539.5737337558,-22704.16441013389,0.0,0.0,0.0,193.0,1.0,154.0,0.0,3.0,3.0,251.0,410.0,3.0,1019.0,1744252669.837252,0.0,2025-04-09 22:37:49.837,LEFT,12
57.0,16010.509849847538,2811.313010610701,-64128.89827834348,-62133.98273396287,-36982.01173329494,-34573.45480602441,-30090.0524962011,-22598.842990260484,0.0,0.0,0.0,193.0,1.0,154.0,0.0,3.0,3.0,249.0,410.0,3.0,1017.0,1744252669.8372653,0.0,2025-04-09 22:37:49.837,LEFT,12
58.0,15929.48477619705,2792.1799173569584,-64170.204302096885,-62147.97492599189,-37017.014565111946,-34617.24187341236,-29713.44795387363,-22634.181098244324,0.0,0.0,0.0,193.0,1.0,155.0,0.0,3.0,3.0,252.0,411.0,3.0,1020.0,1744252669.837274,0.0,2025-04-09 22:37:49.837,LEFT,12
59.0,15848.571461268839,2731.9866695388164,-64215.82421253017,-62205.061281330745,-37070.16701342667,-34671.46720546093,-29822.926798215725,-22689.479314026754,0.0,0.0,0.0,193.0,1.0,155.0,0.0,3.0,3.0,251.0,411.0,3.0,1019.0,1744252669.8372827,0.0,2025-04-09 22:37:49.837,LEFT,12
60.0,15979.463276799117,2758.540541951721,-64211.53267759475,-62158.63670809707,-37107.8073510894,-34709.666336735056,-29518.80896315682,-22724.30333188812,0.0,0.0,0.0,193.0,1.0,154.0,0.0,3.0,3.0,249.0,410.0,3.0,1017.0,1744252669.8372912,0.0,2025-04-09 22:37:49.837,LEFT,12
61.0,16004.229009655597,2788.2460103328244,-64158.76020893577,-62173.14299024856,-37009.83965514179,-34607.80943725222,-30090.901862490402,-22648.44151120681,0.0,0.0,0.0,193.0,1.0,154.0,0.0,3.0,3.0,250.0,410.0,3.0,1018.0,1744252669.8373,0.0,2025-04-09 22:37:49.837,LEFT,12
62.0,15942.515843214494,2790.637646989542,-64160.213072325365,-62137.98369622036,-37008.99028885249,-34612.50330358783,-29767.13684405528,-22630.828336576025,0.0,0.0,0.0,193.0,1.0,155.0,0.0,3.0,3.0,251.0,411.0,3.0,1019.0,1744252669.8373086,0.0,2025-04-09 22:37:49.837,LEFT,12
63.0,15863.010688186967,2752.25970175978,-64199.70860477789,-62199.13806905009,-37045.736556737014,-34644.153373736546,-29832.04630995349,-22659.684438667828,0.0,0.0,0.0,193.0,1.0,154.0,0.0,2.0,3.0,251.0,410.0,2.0,1019.0,1744252669.8373175,0.0,2025-04-09 22:37:49.837,LEFT,12
64.0,15966.655727226225,2761.669786175464,-64195.39471809802,-62140.57649857718,-37096.51972013947,-34695.29416505029,-29520.03830910186,-22699.671709498372,0.0,0.0,0.0,193.0,1.0,154.0,0.0,3.0,3.0,250.0,410.0,3.0,1018.0,1744252669.8373263,0.0,2025-04-09 22:37:49.837,LEFT,12
65.0,16020.255210430052,2789.900039422517,-64166.09158111711,-62179.44618218496,-37025.57528323833,-34612.43624835447,-29990.251957208155,-22640.037255291612,0.0,0.0,0.0,193.0,1.0,154.0,0.0,2.0,3.0,249.0,410.0,2.0,1017.0,1744252669.8373349,0.0,2025-04-09 22:37:49.837,LEFT,12
66.0,15962.16302659071,2797.566687770687,-64143.89629887299,-62122.62804777957,-37003.00002133847,-34600.43336158197,-29827.240684895598,-22623.76518532815,0.0,0.0,0.0,193.0,1.0,154.0,0.0,3.0,3.0,251.0,410.0,3.0,1019.0,1744252669.8373437,0.0,2025-04-09 22:37:49.837,LEFT,12
67.0,15879.908606995179,2770.2975595352127,-64182.587168525126,-62187.47045844442,-37030.04563212939,-34625.132039205084,-29810.812152720948,-22655.63877292142,0.0,0.0,0.0,193.0,1.0,155.0,0.0,2.0,3.0,252.0,411.0,2.0,1020.0,1744252669.8373523,0.0,2025-04-09 22:37:49.837,LEFT,12
68.0,15935.922078600179,2749.8904168475174,-64191.460811073885,-62141.82819626668,-37095.84916780581,-34689.10273183617,-29582.220862176524,-22707.181895635356,0.0,0.0,0.0,193.0,1.0,154.0,0.0,2.0,3.0,249.0,410.0,2.0,1017.0,1744252669.8373609,0.0,2025-04-09 22:37:49.837,LEFT,12
69.0,16027.944210522677,2782.546315496721,-64183.57064528116,-62192.00786256884,-37055.884248719725,-34641.001777768346,-29891.658412415793,-22678.23638656573,0.0,0.0,0.0,193.0,1.0,154.0,0.0,2.0,3.0,250.0,410.0,2.0,1018.0,1744252669.8373697,0.0,2025-04-09 22:37:49.837,LEFT,12
70.0,15983.196018123153,2807.021475675282,-64137.12372030303,-62125.690236769944,-37001.2342335265,-34594.443094067945,-29938.664131005306,-22623.608723116962,0.0,0.0,0.0,193.0,1.0,155.0,0.0,2.0,3.0,252.0,411.0,2.0,1020.0,1744252669.8373785,0.0,2025-04-09 22:37:49.837,LEFT,12
71.0,15899.645197349215,2788.0224928882712,-64175.47931378834,-62178.46270542893,-37023.96595763755,-34611.20690240942,-29775.89872788176,-22636.885659323416,0.0,0.0,0.0,193.0,1.0,154.0,0.0,2.0,3.0,250.0,410.0,2.0,1018.0,1744252669.837387,0.0,2025-04-09 22:37:49.837,LEFT,12
72.0,15908.518839897972,2747.744649379808,-64183.72710749235,-62144.711571301414,-37078.41480713068,-34667.19802226997,-29649.276095542446,-22685.143075602424,0.0,0.0,0.0,193.0,1.0,154.0,0.0,2.0,3.0,249.0,410.0,2.0,1017.0,1744252669.8374112,0.0,2025-04-09 22:37:49.837,LEFT,12
73.0,16018.914105762733,2775.863143904584,-64189.359747095084,-62180.11673451862,-37070.68110354914,-34657.54206866528,-29731.10583199332,-22695.938968174338,0.0,0.0,0.0,193.0,1.0,155.0,0.0,2.0,3.0,252.0,411.0,2.0,1020.0,1744252669.8374202,0.0,2025-04-09 22:37:49.837,LEFT,12
74.0,15966.476913270584,2793.4986702798215,-64139.20243253737,-62130.54056531675,-37002.84355912728,-34593.34785858964,-30010.36852721793,-22636.460976178765,0.0,0.0,0.0,193.0,1.0,155.0,0.0,2.0,3.0,251.0,411.0,2.0,1019.0,1744252669.8374293,0.0,2025-04-09 22:37:49.837,LEFT,12
75.0,15901.165115972177,2789.78828070024,-64173.4453050429,-62166.750391334346,-37023.74244019299,-34606.98242270737,-29740.940599553658,-22633.532897655117,0.0,0.0,0.0,193.0,1.0,154.0,0.0,2.0,3.0,250.0,410.0,2.0,1018.0,1744252669.837438,0.0,2025-04-09 22:37:49.837,LEFT,12
76.0,15883.976624486046,2747.2752627462464,-64182.4977615473,-62151.88648127157,-37066.72484478055,-34650.25539997285,-29730.032948259468,-22665.92057537086,0.0,0.0,0.0,193.0,1.0,154.0,0.0,2.0,3.0,249.0,410.0,2.0,1017.0,1744252669.8374474,0.0,2025-04-09 22:37:49.837,LEFT,12
77.0,16017.908277262244,2781.316969551679,-64182.0507266582,-62152.758199305325,-37072.35748438328,-34649.29427496127,-29604.34908918728,-22668.558081216586,0.0,0.0,0.0,193.0,1.0,154.0,0.0,2.0,3.0,250.0,410.0,2.0,1018.0,1744252669.8374565,0.0,2025-04-09 22:37:49.837,LEFT,12
78.0,15986.884055958279,2803.668714006986,-64123.04212129619,-62123.8126902357,-36980.60357339425,-34561.83189890765,-30054.692036472803,-22594.931434980805,0.0,0.0,0.0,193.0,1.0,155.0,0.0,2.0,3.0,252.0,411.0,2.0,1020.0,1744252669.8374653,0.0,2025-04-09 22:37:49.837,LEFT,12
79.0,15908.027101519956,2792.5151935237877,-64167.186816595415,-62154.9710220064,-37011.18075980911,-34601.84152148265,-29695.879482731758,-22629.33076969752,0.0,0.0,0.0,193.0,1.0,155.0,0.0,2.0,3.0,252.0,411.0,2.0,1020.0,1744252669.837474,0.0,2025-04-09 22:37:49.837,LEFT,12
80.0,15859.635574774216,2743.475466188844,-64195.12649716455,-62180.25084498535,-37057.985312698525,-34650.165992995026,-29776.79279765997,-22676.671764453862,0.0,0.0,0.0,193.0,1.0,154.0,0.0,2.0,3.0,250.0,410.0,2.0,1018.0,1744252669.8374827,0.0,2025-04-09 22:37:49.837,LEFT,12
81.0,15990.750907749047,2758.0264518292493,-64206.905866492496,-62165.31987968921,-37101.0571242639,-34688.34277252469,-29524.463954504008,-22713.68625327185,0.0,0.0,0.0,193.0,1.0,154.0,0.0,2.0,3.0,249.0,410.0,2.0,1017.0,1744252669.8374915,0.0,2025-04-09 22:37:49.837,LEFT,12
82.0,15984.201846623642,2786.167298098481,-64150.0430285982,-62161.96711802091,-37004.922271361625,-34584.20599510741,-30094.411086369884,-22624.52514463963,0.0,0.0,0.0,193.0,1.0,155.0,0.0,2.0,3.0,252.0,411.0,2.0,1020.0,1744252669.8375003,0.0,2025-04-09 22:37:49.837,LEFT,12
83.0,15914.687921367637,2783.6191992305758,-64173.57941550964,-62157.47441738539,-37022.669556459135,-34610.49164658685,-29728.51302963651,-22630.873040064937,0.0,0.0,0.0,193.0,1.0,155.0,0.0,2.0,3.0,251.0,411.0,2.0,1019.0,1744252669.837509,0.0,2025-04-09 22:37:49.837,LEFT,12
84.0,15856.193406128099,2750.002175569794,-64195.729994264846,-62195.11475504813,-37049.581056783325,-34638.05134750025,-29828.157106418268,-22658.566851445063,0.0,0.0,0.0,193.0,1.0,154.0,0.0,2.0,3.0,249.0,410.0,2.0,1017.0,1744252669.8375175,0.0,2025-04-09 22:37:49.837,LEFT,12
85.0,15975.864645941812,2761.9827105978384,-64201.60850305659,-62154.47928362838,-37101.79473183092,-34693.17074932704,-29502.201617026523,-22702.577436277563,0.0,0.0,0.0,193.0,1.0,155.0,0.0,2.0,3.0,250.0,411.0,2.0,1018.0,1744252669.8375263,0.0,2025-04-09 22:37:49.837,LEFT,12
86.0,16010.532201591994,2800.1371383830474,-64147.11495007455,-62171.53366464778,-37000.25075677047,-34589.481006798866,-30058.223612096743,-22617.886676536404,0.0,0.0,0.0,193.0,1.0,155.0,0.0,2.0,3.0,252.0,411.0,2.0,1020.0,1744252669.837535,0.0,2025-04-09 22:37:49.837,LEFT,12
87.0,15949.511939229005,2806.328571597168,-64141.616420938546,-62129.266515882795,-36992.89703284467,-34590.30802134371,-29758.330256739886,-22606.979025242214,0.0,0.0,0.0,193.0,1.0,154.0,0.0,2.0,3.0,249.0,410.0,2.0,1017.0,1744252669.8375483,0.0,2025-04-09 22:37:49.837,LEFT,12
88.0,15865.402324843684,2763.5696844541653,-64186.52107554926,-62199.40628998355,-37033.308986819866,-34630.876437530096,-29808.80049571997,-22655.169386287856,0.0,0.0,0.0,193.0,1.0,154.0,0.0,2.0,3.0,251.0,410.0,2.0,1019.0,1744252669.8375573,0.0,2025-04-09 22:37:49.837,LEFT,12
89.0,15954.63048870927,2762.8991321205062,-64189.58326453964,-62144.30923990122,-37092.80933055989,-34688.253365546865,-29520.910027135615,-22705.885494456947,0.0,0.0,0.0,193.0,1.0,154.0,0.0,2.0,3.0,250.0,410.0,2.0,1018.0,1744252669.8375657,0.0,2025-04-09 22:37:49.837,LEFT,12
90.0,16013.54968709346,2793.8562981911064,-64165.51043576127,-62186.91166483303,-37029.665652473646,-34610.581053564674,-29970.448311620752,-22646.161633272368,0.0,0.0,0.0,193.0,1.0,155.0,0.0,2.0,3.0,252.0,411.0,2.0,1020.0,1744252669.8375742,0.0,2025-04-09 22:37:49.837,LEFT,12
91.0,15949.869567140291,2800.31595233869,-64140.45413022687,-62128.30539087122,-37005.99515509548,-34595.09129465715,-29853.414577652762,-22621.53001088262,0.0,0.0,0.0,193.0,1.0,155.0,0.0,2.0,3.0,251.0,411.0,2.0,1019.0,1744252669.8375828,0.0,2025-04-09 22:37:49.837,LEFT,12
92.0,15873.76187726997,2775.840792160129,-64179.48027604583,-62195.58414168169,-37027.54223675039,-34623.43330662648,-29807.459391052653,-22654.297668254098,0.0,0.0,0.0,193.0,1.0,154.0,0.0,2.0,3.0,250.0,410.0,2.0,1018.0,1744252669.8375912,0.0,2025-04-09 22:37:49.837,LEFT,12
93.0,15929.10479654131,2763.122649565059,-64181.15665687998,-62144.39864687904,-37080.73938855402,-34680.653772432066,-29585.19364418908,-22694.553160018106,0.0,0.0,0.0,193.0,1.0,154.0,0.0,2.0,3.0,250.0,410.0,2.0,1018.0,1744252669.8376,0.0,2025-04-09 22:37:49.837,LEFT,12
94.0,16023.764434309536,2796.31499008119,-64174.22761609884,-62186.62109215512,-37051.391548084204,-34634.8773997876,-29839.578847834928,-22668.669839938862,0.0,0.0,0.0,193.0,1.0,155.0,0.0,2.0,3.0,252.0,411.0,2.0,1020.0,1744252669.8376088,0.0,2025-04-09 22:37:49.837,LEFT,12
95.0,15973.830637196379,2814.0399234342485,-64120.27050498373,-62117.01775992129,-36986.97382056401,-34583.15546311801,-29937.07715714898,-22613.259865434156,0.0,0.0,0.0,193.0,1.0,154.0,0.0,2.0,3.0,251.0,410.0,2.0,1019.0,1744252669.8376176,0.0,2025-04-09 22:37:49.837,LEFT,12
96.0,15889.43045013314,2791.1964406009247,-64175.14403762151,-62186.9787200664,-37026.06702161634,-34623.36625139311,-29744.87450657779,-22648.977953073736,0.0,0.0,0.0,193.0,1.0,154.0,0.0,2.0,3.0,249.0,410.0,2.0,1017.0,1744252669.8376265,0.0,2025-04-09 22:37:49.837,LEFT,12
97.0,15905.970741030067,2771.191629313425,-64178.0497644007,-62148.220795180896,-37077.61014433028,-34668.74029263738,-29672.186633609133,-22692.407392550398,0.0,0.0,0.0,193.0,1.0,155.0,0.0,2.0,3.0,252.0,411.0,2.0,1020.0,1744252669.8376353,0.0,2025-04-09 22:37:49.837,LEFT,12
98.0,16035.879079804312,2802.439368061944,-64170.94190966391,-62163.8223128107,-37063.774414512445,-34644.063966758724,-29707.524741592973,-22678.594014477017,0.0,0.0,0.0,193.0,1.0,154.0,0.0,2.0,3.0,251.0,410.0,2.0,1019.0,1744252669.8376439,0.0,2025-04-09 22:37:49.837,LEFT,12
99.0,15997.054099685443,2820.2984118817344,-64107.01592052173,-62108.94878017292,-36977.25081172596,-34563.93296288645,-30019.420983722328,-22607.96250199825,0.0,0.0,0.0,193.0,1.0,154.0,0.0,2.0,3.0,249.0,410.0,2.0,1017.0,1744252669.8376527,0.0,2025-04-09 22:37:49.837,LEFT,12
100.0,15915.313770212386,2809.0778361651705,-64156.860310657066,-62158.077914485686,-37015.76286742245,-34604.65784128402,-29730.435279659665,-22657.762188644672,0.0,0.0,0.0,193.0,1.0,155.0,0.0,2.0,3.0,252.0,411.0,2.0,1020.0,1744252669.8376613,0.0,2025-04-09 22:37:49.837,LEFT,12
101.0,15894.325482168852,2775.9525508824054,-64167.63385148453,-62148.712533558915,-37061.31572262236,-34644.13102199209,-29754.88808809377,-22685.88068316945,0.0,0.0,0.0,193.0,1.0,155.0,0.0,2.0,3.0,251.0,411.0,2.0,1019.0,1744252669.8376744,0.0,2025-04-09 22:37:49.837,LEFT,12
102.0,16031.654600102258,2806.2168128748913,-64169.578453252136,-62142.52110034479,-37078.37010364176,-34645.91916154852,-29582.46673136553,-22668.111046327478,0.0,0.0,0.0,193.0,1.0,155.0,0.0,2.0,3.0,252.0,411.0,2.0,1020.0,1744252669.8376832,0.0,2025-04-09 22:37:49.837,LEFT,12
103.0,16009.571076580416,2829.127350941581,-64101.04800475216,-62112.8603354526,-36976.244983225464,-34543.43641322094,-30061.442263298308,-22564.264841588123,0.0,0.0,0.0,193.0,1.0,154.0,0.0,2.0,3.0,250.0,410.0,2.0,1018.0,1744252669.8376915,0.0,2025-04-09 22:37:49.837,LEFT,12
104.0,15928.814223863392,2811.961211199905,-64146.0420663407,-62140.732960788366,-37008.632660941206,-34591.24679461084,-29688.14577915022,-22608.029557231614,0.0,0.0,0.0,193.0,1.0,155.0,0.0,2.0,3.0,250.0,411.0,2.0,1018.0,1744252669.8377004,0.0,2025-04-09 22:37:49.837,LEFT,12
105.0,15869.515045823462,2761.5356757087325,-64176.1945696109,-62172.472437914905,-37054.65490277468,-34639.77243182331,-29779.89969013926,-22658.946831100802,0.0,0.0,0.0,193.0,1.0,155.0,0.0,2.0,3.0,252.0,411.0,2.0,1020.0,1744252669.837709,0.0,2025-04-09 22:37:49.837,LEFT,12
106.0,16006.777108523502,2788.6036382441093,-64178.56385452317,-62141.62703056658,-37090.66356309218,-34673.97060083993,-29501.575768181774,-22688.898168670916,0.0,0.0,0.0,193.0,1.0,155.0,0.0,2.0,3.0,252.0,411.0,2.0,1020.0,1744252669.8377175,0.0,2025-04-09 22:37:49.837,LEFT,12
107.0,16026.513698877538,2836.3022609117343,-64105.183077476395,-62126.65136178153,-36974.79211983587,-34552.73473891434,-30070.382961080428,-22587.734173266195,0.0,0.0,0.0,193.0,1.0,155.0,0.0,2.0,3.0,250.0,411.0,2.0,1018.0,1744252669.8377264,0.0,2025-04-09 22:37:49.837,LEFT,12
108.0,15961.760695190515,2838.1351039570695,-64118.37060670503,-62108.09941388362,-36983.531651917896,-34569.81147167819,-29705.110753191802,-22597.52423733762,0.0,0.0,0.0,193.0,1.0,155.0,0.0,2.0,3.0,249.0,411.0,2.0,1017.0,1744252669.837735,0.0,2025-04-09 22:37:49.837,LEFT,12
109.0,15875.013574959466,2780.6240654735643,-64168.37145905155,-62175.624033883105,-37036.12530662123,-34621.80162928124,-29792.774294945517,-22658.365685744964,0.0,0.0,0.0,193.0,1.0,155.0,0.0,2.0,3.0,251.0,411.0,2.0,1019.0,1744252669.8377435,0.0,2025-04-09 22:37:49.837,LEFT,12
110.0,15991.30970136043,2789.4977080223216,-64172.19360735341,-62131.18876590595,-37091.42352240366,-34672.07070256123,-29487.49416917493,-22699.179971120357,0.0,0.0,0.0,193.0,1.0,155.0,0.0,2.0,3.0,252.0,411.0,2.0,1020.0,1744252669.837752,0.0,2025-04-09 22:37:49.837,LEFT,12
111.0,16028.83828030089,2820.7454467708408,-64130.0382173107,-62159.35196391964,-37004.47523647252,-34572.31486705719,-30031.736794917204,-22612.61166484495,0.0,0.0,0.0,193.0,1.0,155.0,0.0,2.0,3.0,252.0,411.0,2.0,1020.0,1744252669.8377607,0.0,2025-04-09 22:37:49.837,LEFT,12
112.0,15961.715991701603,2822.0418479492487,-64130.21703126634,-62124.8632222251,-37000.67543991512,-34588.51988178729,-29777.485701738085,-22623.541667883597,0.0,0.0,0.0,193.0,1.0,155.0,0.0,2.0,3.0,252.0,411.0,2.0,1020.0,1744252669.8377693,0.0,2025-04-09 22:37:49.837,LEFT,12
113.0,15877.584025571827,2781.1828590849473,-64173.51236027627,-62194.86888585912,-37033.59955949779,-34619.745268791354,-29816.154219645767,-22655.325848499044,0.0,0.0,0.0,193.0,1.0,154.0,0.0,2.0,3.0,250.0,410.0,2.0,1018.0,1744252669.837778,0.0,2025-04-09 22:37:49.837,LEFT,12
114.0,15953.19997706413,2770.319911279668,-64181.648395258,-62143.41517012301,-37096.78794107294,-34680.430254987514,-29539.104347122237,-22703.024471166667,0.0,0.0,0.0,193.0,1.0,154.0,0.0,2.0,3.0,251.0,410.0,2.0,1019.0,1744252669.8377867,0.0,2025-04-09 22:37:49.837,LEFT,12
115.0,16015.091957460876,2793.2080976019024,-64168.14794160699,-62195.606493426145,-37042.65201600218,-34624.10385896014,-29952.611619545416,-22674.436590008332,0.0,0.0,0.0,193.0,1.0,155.0,0.0,2.0,3.0,252.0,411.0,2.0,1020.0,1744252669.940884,0.0,2025-04-09 22:37:49.940,LEFT,12
116.0,15954.652840453726,2797.700798237419,-64137.79427263669,-62135.39089386355,-37003.938794605594,-34597.39352433605,-29877.643868642317,-22625.978008029226,0.0,0.0,0.0,193.0,1.0,155.0,0.0,2.0,3.0,252.0,411.0,2.0,1020.0,1744252669.940946,0.0,2025-04-09 22:37:49.940,LEFT,12
117.0,15874.007746458978,2780.8252311736624,-64177.02158415575,-62196.34410099317,-37020.27791980242,-34612.27978614328,-29779.69852443916,-22629.2413627197,0.0,0.0,0.0,193.0,1.0,155.0,0.0,2.0,3.0,251.0,411.0,2.0,1019.0,1744252669.9409578,0.0,2025-04-09 22:37:49.940,LEFT,12
118.0,15918.19714524712,2768.509419978788,-64176.41808705546,-62146.58911783566,-37070.59169657132,-34671.266039760834,-29585.975955245016,-22684.58428199104,0.0,0.0,0.0,193.0,1.0,154.0,0.0,2.0,3.0,249.0,410.0,2.0,1017.0,1744252669.9409688,0.0,2025-04-09 22:37:49.940,LEFT,12
119.0,16023.250344187063,2798.572516271176,-64168.48321777383,-62184.8776560876,-37040.72976597903,-34629.892960774065,-29789.533291999494,-22665.29472652611,0.0,0.0,0.0,193.0,1.0,154.0,0.0,2.0,3.0,250.0,410.0,2.0,1018.0,1744252669.9409797,0.0,2025-04-09 22:37:49.940,LEFT,12
120.0,15975.194093608154,2807.692028008941,-64115.598990392566,-62122.58334429066,-36976.02146578091,-34569.54325074473,-29937.412433315807,-22601.033461217103,0.0,0.0,0.0,193.0,1.0,154.0,0.0,2.0,3.0,248.0,410.0,2.0,1016.0,1744252669.9409888,0.0,2025-04-09 22:37:49.940,LEFT,12
121.0,15893.81139204638,2787.21783008788,-64164.325793305135,-62182.3742607086,-37008.833826641305,-34601.26037612681,-29726.233151702065,-22629.15195574188,0.0,0.0,0.0,193.0,1.0,154.0,0.0,2.0,3.0,250.0,410.0,2.0,1018.0,1744252669.9409983,0.0,2025-04-09 22:37:49.940,LEFT,12
122.0,15895.24190369152,2754.4278209719446,-64173.11002887607,-62155.574519106696,-37063.796766256906,-34651.75296685135,-29672.141930120222,-22673.49781674121,0.0,0.0,0.0,193.0,1.0,155.0,0.0,2.0,3.0,252.0,411.0,2.0,1020.0,1744252669.9410074,0.0,2025-04-09 22:37:49.941,LEFT,12
123.0,16023.607972098349,2790.3694260560783,-64173.02062189825,-62172.24892047035,-37061.78510925593,-34644.086318503185,-29666.375180050753,-22678.526959243653,0.0,0.0,0.0,193.0,1.0,155.0,0.0,2.0,3.0,252.0,411.0,2.0,1020.0,1744252669.9410164,0.0,2025-04-09 22:37:49.941,LEFT,12
124.0,15990.795611237958,2816.1409874130472,-64106.881810055,-62121.62221927908,-36971.50641340094,-34557.942695372425,-30027.914646615347,-22593.076240191014,0.0,0.0,0.0,193.0,1.0,155.0,0.0,2.0,3.0,251.0,411.0,2.0,1019.0,1744252669.9410255,0.0,2025-04-09 22:37:49.941,LEFT,12
125.0,15914.106776011799,2805.389798330045,-64150.87004314304,-62160.96128952042,-37002.687096916095,-34593.07963765617,-29708.68703230465,-22626.939133040803,0.0,0.0,0.0,193.0,1.0,155.0,0.0,2.0,3.0,249.0,411.0,2.0,1017.0,1744252669.9410343,0.0,2025-04-09 22:37:49.941,LEFT,12
126.0,15883.686051808127,2765.4248792439557,-64165.1975113389,-62162.59296686566,-37048.93285619412,-34636.3749666661,-29748.763710113017,-22663.595993947507,0.0,0.0,0.0,193.0,1.0,155.0,0.0,2.0,3.0,249.0,411.0,2.0,1017.0,1744252669.9410439,0.0,2025-04-09 22:37:49.941,LEFT,12
127.0,16013.192059182174,2783.5297922527543,-64178.094467889605,-62163.57644362169,-37081.63345833224,-34669.880231604606,-29549.520260038407,-22697.436535052842,0.0,0.0,0.0,193.0,1.0,155.0,0.0,2.0,3.0,252.0,411.0,2.0,1020.0,1744252669.941053,0.0,2025-04-09 22:37:49.941,LEFT,12
128.0,15996.092974673866,2809.7930919877404,-64113.11794675803,-62143.25870791182,-36980.55886990534,-34568.917401899984,-30076.70850476128,-22613.2375136897,0.0,0.0,0.0,193.0,1.0,155.0,0.0,2.0,3.0,252.0,411.0,2.0,1020.0,1744252669.9410615,0.0,2025-04-09 22:37:49.941,LEFT,12
129.0,15933.977476832568,2813.6152402895978,-64136.31905750264,-62143.593984078645,-36997.32267824682,-34591.023277166285,-29711.63746257275,-22630.15778424237,0.0,0.0,0.0,193.0,1.0,155.0,0.0,2.0,3.0,250.0,411.0,2.0,1018.0,1744252669.9410708,0.0,2025-04-09 22:37:49.941,LEFT,12
130.0,15875.795886015403,2773.0468241032154,-64158.93902289141,-62169.052621013245,-37034.51598102045,-34624.41678338251,-29796.46233278064,-22656.264621766168,0.0,0.0,0.0,193.0,1.0,155.0,0.0,2.0,3.0,249.0,411.0,2.0,1017.0,1744252669.94108,0.0,2025-04-09 22:37:49.941,LEFT,12
131.0,15997.992872952567,2786.3461120541233,-64170.71839221936,-62140.12946368808,-37086.5508421124,-34673.232993272904,-29487.874148830673,-22700.275206598664,0.0,0.0,0.0,193.0,1.0,154.0,0.0,2.0,3.0,250.0,410.0,2.0,1018.0,1744252669.9410944,0.0,2025-04-09 22:37:49.941,LEFT,12
132.0,16000.585675309381,2809.1672431429915,-64124.22676375232,-62155.976850506886,-36997.8814718582,-34574.103006613615,-30070.159443635876,-22620.591237615496,0.0,0.0,0.0,193.0,1.0,154.0,0.0,2.0,3.0,250.0,410.0,2.0,1018.0,1744252669.9411068,0.0,2025-04-09 22:37:49.941,LEFT,12
133.0,15940.906517613712,2817.9738304583825,-64125.16553701944,-62126.137271659056,-36993.56758517833,-34581.90376542852,-29732.55869538292,-22611.561132855553,0.0,0.0,0.0,193.0,1.0,155.0,0.0,2.0,3.0,252.0,411.0,2.0,1020.0,1744252669.9411159,0.0,2025-04-09 22:37:49.941,LEFT,12
134.0,15872.376069113741,2782.032225374249,-64153.52990073323,-62175.467571671914,-37020.99317562499,-34611.67628904299,-29815.640129523294,-22648.329752484533,0.0,0.0,0.0,193.0,1.0,155.0,0.0,2.0,3.0,252.0,411.0,2.0,1020.0,1744252669.9411247,0.0,2025-04-09 22:37:49.941,LEFT,12
135.0,15977.295157586952,2781.2722660627683,-64162.62706072653,-62126.49489957034,-37082.25930717699,-34667.19802226997,-29493.32797447777,-22689.054630882103,0.0,0.0,0.0,193.0,1.0,155.0,0.0,2.0,3.0,251.0,411.0,2.0,1019.0,1744252669.9411335,0.0,2025-04-09 22:37:49.941,LEFT,12
136.0,16018.779995296001,2809.636629776553,-64131.2899150002,-62165.5210453893,-37007.80564639636,-34584.27305034078,-30015.867056353934,-22625.150993484378,0.0,0.0,0.0,193.0,1.0,154.0,0.0,2.0,3.0,250.0,410.0,2.0,1018.0,1744252669.941142,0.0,2025-04-09 22:37:49.941,LEFT,12
137.0,15965.15816034772,2826.1769206734803,-64109.943999045376,-62110.71456798489,-36984.55983216284,-34572.359570546105,-29802.407896805755,-22610.018862488138,0.0,0.0,0.0,193.0,1.0,155.0,0.0,2.0,3.0,251.0,411.0,2.0,1019.0,1744252669.941151,0.0,2025-04-09 22:37:49.941,LEFT,12
138.0,15879.61803431726,2798.84073720464,-64149.75245592028,-62177.21100773943,-37010.39844875318,-34600.7686377488,-29802.072620638923,-22637.064473279057,0.0,0.0,0.0,193.0,1.0,155.0,0.0,2.0,3.0,251.0,411.0,2.0,1019.0,1744252669.9411597,0.0,2025-04-09 22:37:49.941,LEFT,12
139.0,15936.659686167204,2770.3422630241234,-64169.22082534085,-62140.64355381055,-37082.236955432534,-34679.11150206465,-29538.098518621748,-22697.235369352744,0.0,0.0,0.0,193.0,1.0,154.0,0.0,2.0,3.0,249.0,410.0,2.0,1017.0,1744252669.9411683,0.0,2025-04-09 22:37:49.941,LEFT,12
140.0,16021.082224974898,2802.148795384025,-64144.56685120665,-62179.98262405189,-37020.926120391625,-34609.23994889736,-29902.499008476618,-22641.4454151923,0.0,0.0,0.0,193.0,1.0,154.0,0.0,2.0,3.0,251.0,410.0,2.0,1019.0,1744252669.9411774,0.0,2025-04-09 22:37:49.941,LEFT,12
141.0,15965.87341617029,2813.883461223061,-64106.881810055,-62116.2130971209,-36977.96606754852,-34577.03108513726,-29879.72258087666,-22606.308472908553,0.0,0.0,0.0,193.0,1.0,154.0,0.0,2.0,3.0,249.0,410.0,2.0,1017.0,1744252670.4104884,0.0,2025-04-09 22:37:50.410,LEFT,12
142.0,15877.181694171632,2784.7591381977963,-64161.08479035912,-62192.76782188033,-37010.577262708815,-34613.531483832776,-29772.03187609099,-22642.92063032635,0.0,0.0,0.0,193.0,1.0,154.0,0.0,2.0,3.0,250.0,410.0,2.0,1018.0,1744252670.4105287,0.0,2025-04-09 22:37:50.410,LEFT,12
143.0,15913.01154053349,2763.9273123654502,-64164.50460726078,-62148.19844343644,-37065.115519179766,-34666.460414702946,-29619.212999250056,-22682.59497673452,0.0,0.0,0.0,193.0,1.0,155.0,0.0,2.0,3.0,252.0,411.0,2.0,1020.0,1744252670.4105515,0.0,2025-04-09 22:37:50.410,LEFT,12
144.0,16027.474823889117,2803.5346035402545,-64155.47450250084,-62176.29458621676,-37038.87457118923,-34624.28267291578,-29762.957067842137,-22648.553269929085,0.0,0.0,0.0,193.0,1.0,154.0,0.0,2.0,3.0,250.0,410.0,2.0,1018.0,1744252670.4105716,0.0,2025-04-09 22:37:50.410,LEFT,12
145.0,15977.49632328705,2820.7454467708408,-64100.80213556316,-62112.569762774685,-36972.1769657346,-34557.92034362797,-29966.31323889652,-22589.61171980044,0.0,0.0,0.0,193.0,1.0,154.0,0.0,2.0,3.0,249.0,410.0,2.0,1017.0,1744252670.410592,0.0,2025-04-09 22:37:50.410,LEFT,12
146.0,15898.326444426351,2802.8864029510505,-64147.42787449693,-62165.38693492257,-37005.391657995184,-34590.19626262144,-29730.859962804316,-22614.13158346791,0.0,0.0,0.0,193.0,1.0,154.0,0.0,2.0,3.0,252.0,410.0,2.0,1020.0,1744252670.41064,0.0,2025-04-09 22:37:50.410,LEFT,12
147.0,15893.945502513112,2768.4870682343326,-64156.23446181232,-62141.40351312203,-37052.866763218255,-34641.38175742409,-29696.795904254428,-22653.53770894262,0.0,0.0,0.0,193.0,1.0,155.0,0.0,2.0,3.0,251.0,411.0,2.0,1019.0,1744252670.4106572,0.0,2025-04-09 22:37:50.410,LEFT,12
148.0,16029.061797745444,2803.9816384293604,-64155.18392982292,-62147.997277736344,-37051.3468445953,-34634.2739026873,-29638.502554714985,-22645.20050826079,0.0,0.0,0.0,193.0,1.0,154.0,0.0,2.0,3.0,249.0,410.0,2.0,1017.0,1744252670.4106667,0.0,2025-04-09 22:37:50.410,LEFT,12
149.0,15997.143506663264,2824.5005398393323,-64089.08982146857,-62103.00321614781,-36954.69790157055,-34545.31395975518,-30033.346120517985,-22560.28623107508,0.0,0.0,0.0,193.0,1.0,154.0,0.0,2.0,3.0,250.0,410.0,2.0,1018.0,1744252670.410676,0.0,2025-04-09 22:37:50.410,LEFT,12
150.0,15920.72289237057,2814.0175716897934,-64135.112063302055,-62135.79322526375,-36984.33631471829,-34585.16712011899,-29686.268232615977,-22583.934376708792,0.0,0.0,0.0,193.0,1.0,154.0,0.0,2.0,3.0,250.0,410.0,2.0,1018.0,1744252670.4106853,0.0,2025-04-09 22:37:50.410,LEFT,12
151.0,15873.292490636408,2767.5035914782993,-64161.35301129258,-62146.49971085784,-37032.884303675215,-34633.8268677982,-29745.008617044525,-22623.161688227858,0.0,0.0,0.0,193.0,1.0,155.0,0.0,2.0,3.0,252.0,411.0,2.0,1020.0,1744252670.4106944,0.0,2025-04-09 22:37:50.410,LEFT,12
152.0,16006.486535845583,2789.9223911669724,-64170.71839221936,-62131.4122833505,-37066.25545814699,-34664.33699897969,-29526.36385278271,-22655.1470345434,0.0,0.0,0.0,193.0,1.0,155.0,0.0,2.0,3.0,251.0,411.0,2.0,1019.0,1744252670.4107032,0.0,2025-04-09 22:37:50.410,LEFT,12
153.0,15996.517657818516,2815.805711246218,-64112.55915314665,-62113.910867442,-36967.93013428809,-34563.28476229725,-30072.19345238131,-22570.880957946894,0.0,0.0,0.0,193.0,1.0,155.0,0.0,2.0,3.0,251.0,411.0,2.0,1019.0,1744252670.4107125,0.0,2025-04-09 22:37:50.410,LEFT,12
154.0,15931.362322731296,2815.2692693792906,-64135.55909819116,-62106.08775688264,-36981.8776228282,-34585.05536139671,-29703.54613107993,-22587.890635477383,0.0,0.0,0.0,193.0,1.0,154.0,0.0,2.0,3.0,250.0,410.0,2.0,1018.0,1744252670.4107213,0.0,2025-04-09 22:37:50.410,LEFT,12
155.0,15871.727868524536,2778.254780561302,-64157.486159501816,-62127.590135048646,-37013.75121042147,-34613.889111744065,-29796.171760102723,-22618.132545725413,0.0,0.0,0.0,193.0,1.0,154.0,0.0,2.0,3.0,250.0,410.0,2.0,1018.0,1744252670.4107304,0.0,2025-04-09 22:37:50.410,LEFT,12
156.0,15990.281521115485,2788.782452199752,-64174.115857376564,-62094.28603581024,-37073.855051261795,-34665.94632458047,-29481.190977238537,-22658.76801714516,0.0,0.0,0.0,193.0,1.0,155.0,0.0,2.0,3.0,252.0,411.0,2.0,1020.0,1744252670.4107394,0.0,2025-04-09 22:37:50.410,LEFT,12
157.0,16011.158050436743,2822.1312549270697,-64126.39488296448,-62107.38415806105,-36980.06713152732,-34565.02819836476,-30057.75422546318,-22573.741981237174,0.0,0.0,0.0,193.0,1.0,155.0,0.0,2.0,3.0,251.0,411.0,2.0,1019.0,1744252670.4107482,0.0,2025-04-09 22:37:50.410,LEFT,12
158.0,15951.411837507707,2832.413057376511,-64128.45124345437,-62071.55431169919,-36980.111835016236,-34575.66762872549,-29733.16219248321,-22583.062658675037,0.0,0.0,0.0,193.0,1.0,154.0,0.0,2.0,3.0,250.0,410.0,2.0,1018.0,1744252670.4107573,0.0,2025-04-09 22:37:50.410,LEFT,12
159.0,15869.649156290194,2780.31114105119,-64170.137246863516,-62132.418111850995,-37023.921254148634,-34614.55966407772,-29811.95209168817,-22632.348255198987,0.0,0.0,0.0,193.0,1.0,154.0,0.0,2.0,3.0,251.0,410.0,2.0,1019.0,1744252670.410766,0.0,2025-04-09 22:37:50.410,LEFT,12
160.0,15966.901596415235,2780.1099753510925,-64175.03227889923,-62079.086849580635,-37082.86280427728,-34671.17663278301,-29506.64961417313,-22667.887528882926,0.0,0.0,0.0,193.0,1.0,155.0,0.0,2.0,3.0,252.0,411.0,2.0,1020.0,1744252670.4107747,0.0,2025-04-09 22:37:50.410,LEFT,12
161.0,16014.488460360582,2806.8426617196396,-64143.04693258369,-62116.81659422119,-37004.11760856123,-34585.65885849701,-29985.289869939075,-22593.56797856903,0.0,0.0,0.0,193.0,1.0,155.0,0.0,2.0,3.0,250.0,411.0,2.0,1018.0,1744252670.410789,0.0,2025-04-09 22:37:50.410,LEFT,12
162.0,15960.48664575656,2816.811539746707,-64121.8351270956,-62059.90905283798,-36980.20124199406,-34572.65014322402,-29800.776219460517,-22567.930527678793,0.0,0.0,0.0,193.0,1.0,154.0,0.0,2.0,3.0,250.0,410.0,2.0,1018.0,1744252670.4107978,0.0,2025-04-09 22:37:50.410,LEFT,12
163.0,15874.343022625808,2783.194516085925,-64168.527921262736,-62129.93706821646,-37014.39941101067,-34601.48389357136,-29788.192187332177,-22602.41926937333,0.0,0.0,0.0,193.0,1.0,154.0,0.0,2.0,3.0,252.0,410.0,2.0,1020.0,1744252670.410807,0.0,2025-04-09 22:37:50.410,LEFT,12
164.0,15931.518784942484,2765.9166176219724,-64181.55898828018,-62085.56885547267,-37083.421597888664,-34671.93659209449,-29552.47069030651,-22670.569738217564,0.0,0.0,0.0,193.0,1.0,155.0,0.0,2.0,3.0,251.0,411.0,2.0,1019.0,1744252670.4108157,0.0,2025-04-09 22:37:50.410,LEFT,12
165.0,16027.564230866938,2810.307182110212,-64158.8943194025,-62118.02358842178,-37029.06215537336,-34605.10487617313,-29880.52724367705,-22631.1412609984,0.0,0.0,0.0,193.0,1.0,154.0,0.0,2.0,3.0,251.0,410.0,2.0,1019.0,1744252670.4108248,0.0,2025-04-09 22:37:50.410,LEFT,12
166.0,15967.39333479325,2814.84458623464,-64123.37739746302,-62060.46784644936,-36983.665762384626,-34570.79494843423,-29906.29880503402,-22589.99169945618,0.0,0.0,0.0,193.0,1.0,154.0,0.0,2.0,3.0,250.0,410.0,2.0,1018.0,1744252670.4108336,0.0,2025-04-09 22:37:50.410,LEFT,12
167.0,15887.977586743546,2797.231411603858,-64165.51043576127,-62122.89626871303,-37005.59282369528,-34594.24192836785,-29760.94541084116,-22606.017900230636,0.0,0.0,0.0,193.0,1.0,155.0,0.0,2.0,3.0,252.0,411.0,2.0,1020.0,1744252670.4108424,0.0,2025-04-09 22:37:50.410,LEFT,12
168.0,15911.178697488154,2776.377234027056,-64169.82432244114,-62081.56789321517,-37060.064024932864,-34646.0756237597,-29634.211019779566,-22649.00030481819,0.0,0.0,0.0,193.0,1.0,154.0,0.0,2.0,3.0,250.0,410.0,2.0,1018.0,1744252670.4108512,0.0,2025-04-09 22:37:50.410,LEFT,12
169.0,16027.497175633573,2811.0894931661483,-64163.23055782683,-62107.942951672434,-37039.38866131171,-34615.5207890893,-29734.83857331736,-22630.493060409197,0.0,0.0,0.0,193.0,1.0,154.0,0.0,2.0,3.0,250.0,410.0,2.0,1018.0,1744252670.4108598,0.0,2025-04-09 22:37:50.410,LEFT,12
170.0,15976.468143042106,2822.868862494095,-64109.251094967265,-62056.15395976949,-36966.41021566513,-34551.237172035835,-29985.066352494523,-22569.718667235218,0.0,0.0,0.0,193.0,1.0,155.0,0.0,2.0,3.0,250.0,411.0,2.0,1018.0,1744252670.4108686,0.0,2025-04-09 22:37:50.410,LEFT,12
171.0,15904.920209040667,2816.163339157503,-64146.913784374454,-62100.90215216901,-36986.19150950808,-34578.0592653822,-29723.26036968951,-22596.540760581585,0.0,0.0,0.0,193.0,1.0,154.0,0.0,2.0,3.0,250.0,410.0,2.0,1018.0,1744252670.4108772,0.0,2025-04-09 22:37:50.410,LEFT,12
172.0,15887.687014065626,2773.762079925785,-64161.822397926146,-62093.36961428757,-37037.08643163281,-34631.43523114148,-29710.072840460878,-22644.753473371682,0.0,0.0,0.0,193.0,1.0,155.0,0.0,2.0,3.0,249.0,411.0,2.0,1017.0,1744252670.410886,0.0,2025-04-09 22:37:50.410,LEFT,12
173.0,16014.443756871673,2798.796033715729,-64172.84180794261,-62110.33458832915,-37058.23118188753,-34645.338016192676,-29609.110010756256,-22662.590165447018,0.0,0.0,0.0,193.0,1.0,154.0,0.0,2.0,3.0,251.0,410.0,2.0,1019.0,1744252670.410895,0.0,2025-04-09 22:37:50.410,LEFT,12
174.0,15989.566265292915,2820.6560397930193,-64102.947903030865,-62069.632061676035,-36958.87767778369,-34543.41406147648,-30058.536536519117,-22564.890690432872,0.0,0.0,0.0,193.0,1.0,154.0,0.0,2.0,3.0,250.0,410.0,2.0,1018.0,1744252670.4109092,0.0,2025-04-09 22:37:50.410,LEFT,12
175.0,15914.24088647853,2808.9437256984384,-64143.04693258369,-62097.28116956725,-36985.29743972987,-34579.08744562715,-29693.599604797317,-22590.304623878554,0.0,0.0,0.0,193.0,1.0,155.0,0.0,2.0,3.0,251.0,411.0,2.0,1019.0,1744252670.410918,0.0,2025-04-09 22:37:50.410,LEFT,12
176.0,15870.789095257414,2770.3422630241234,-64161.06243861467,-62113.262666852796,-37025.01648962695,-34619.29823390225,-29768.410893489232,-22635.76807210065,0.0,0.0,0.0,193.0,1.0,155.0,0.0,2.0,3.0,253.0,411.0,2.0,1021.0,1744252670.4109313,0.0,2025-04-09 22:37:50.410,LEFT,12
177.0,16011.739195792581,2803.422844817978,-64158.4919880023,-62086.127649084054,-37053.13498415172,-34643.5275248918,-29521.71468993601,-22657.091636311012,0.0,0.0,0.0,193.0,1.0,154.0,0.0,2.0,3.0,250.0,410.0,2.0,1018.0,1744252670.41094,0.0,2025-04-09 22:37:50.410,LEFT,12
178.0,15993.544875805961,2814.442254834444,-64113.430871180404,-62094.464849765885,-36970.254715711446,-34556.89216338303,-30080.664763529872,-22585.14137090938,0.0,0.0,0.0,193.0,1.0,155.0,0.0,2.0,3.0,251.0,411.0,2.0,1019.0,1744252670.4109485,0.0,2025-04-09 22:37:50.410,LEFT,12
179.0,15927.00373256251,2810.2401268768463,-64135.29087725769,-62092.52024799827,-36985.900936830156,-34586.530576530764,-29716.890122519748,-22610.689414821794,0.0,0.0,0.0,193.0,1.0,155.0,0.0,2.0,3.0,252.0,411.0,2.0,1020.0,1744252670.410957,0.0,2025-04-09 22:37:50.410,LEFT,12
180.0,15854.092342149299,2763.189704798425,-64166.98565089532,-62137.33549563116,-37025.48587626051,-34623.20978918193,-29813.919045200237,-22644.619362904952,0.0,0.0,0.0,193.0,1.0,154.0,0.0,2.0,3.0,250.0,410.0,2.0,1018.0,1744252670.4109657,0.0,2025-04-09 22:37:50.410,LEFT,12
181.0,15974.68000348568,2781.8757631630615,-64167.25387182878,-62088.4075270185,-37072.49159485002,-34659.26315298834,-29489.125846520168,-22651.414293219364,0.0,0.0,0.0,193.0,1.0,154.0,0.0,2.0,3.0,250.0,410.0,2.0,1018.0,1744252670.4109745,0.0,2025-04-09 22:37:50.410,LEFT,12
182.0,16005.793631767468,2817.5491473137317,-64116.649522381966,-62105.23839059334,-36977.63079138169,-34558.68030293945,-30056.368417306952,-22574.61369927093,0.0,0.0,0.0,193.0,1.0,155.0,0.0,2.0,3.0,252.0,411.0,2.0,1020.0,1744252670.410983,0.0,2025-04-09 22:37:50.410,LEFT,12
183.0,15941.778235647469,2815.2692693792906,-64122.61743815154,-62072.850712877604,-36980.55886990534,-34574.4606345249,-29757.65970440623,-22586.907158721348,0.0,0.0,0.0,193.0,1.0,154.0,0.0,2.0,3.0,251.0,410.0,2.0,1019.0,1744252670.4109917,0.0,2025-04-09 22:37:50.410,LEFT,12
184.0,15862.04956317539,2776.8466206606176,-64161.263604314765,-62135.79322526375,-37011.85131214277,-34606.35657386262,-29816.578902790417,-22626.827374318527,0.0,0.0,0.0,193.0,1.0,154.0,0.0,2.0,3.0,249.0,410.0,2.0,1017.0,1744252670.4110003,0.0,2025-04-09 22:37:50.411,LEFT,12
185.0,15951.992982863545,2777.114841594081,-64166.359802050574,-62083.66895719397,-37068.80355701489,-34667.57800192571,-29506.47080021749,-22679.935119144335,0.0,0.0,0.0,193.0,1.0,155.0,0.0,2.0,3.0,252.0,411.0,2.0,1020.0,1744252670.4110088,0.0,2025-04-09 22:37:50.411,LEFT,12
186.0,16005.883038745289,2802.3723128285783,-64146.086769829606,-62132.485167084364,-37006.71041091805,-34597.14765514704,-29958.959514970724,-22620.65829284886,0.0,0.0,0.0,193.0,1.0,155.0,0.0,2.0,3.0,252.0,411.0,2.0,1020.0,1744252670.4110177,0.0,2025-04-09 22:37:50.411,LEFT,12
187.0,15959.614927722805,2823.8746909945835,-64105.76422283224,-62061.07134354965,-36968.46657615502,-34567.531593743755,-29828.58178956292,-22578.927585950805,0.0,0.0,0.0,193.0,1.0,155.0,0.0,2.0,3.0,253.0,411.0,2.0,1021.0,1744252670.4110262,0.0,2025-04-09 22:37:50.411,LEFT,12
188.0,15875.684127293127,2796.7843767147515,-64149.640697198,-62130.317047872195,-36998.95435559206,-34602.15444590503,-29783.006582618546,-22618.557228870064,0.0,0.0,0.0,193.0,1.0,154.0,0.0,2.0,3.0,250.0,410.0,2.0,1018.0,1744252670.4110348,0.0,2025-04-09 22:37:50.411,LEFT,12
189.0,15918.755938858503,2770.252856046302,-64163.69994446039,-62089.65922470799,-37069.161184926175,-34675.08818806269,-29569.033332947893,-22681.455037767297,0.0,0.0,0.0,193.0,1.0,154.0,0.0,2.0,3.0,250.0,410.0,2.0,1018.0,1744252670.4110436,0.0,2025-04-09 22:37:50.411,LEFT,12
190.0,16018.467070873628,2805.6133157745976,-64148.03137159722,-62126.20432689242,-37028.50336176197,-34620.12524844709,-29848.877173528337,-22641.62422914794,0.0,0.0,0.0,193.0,1.0,155.0,0.0,2.0,3.0,252.0,411.0,2.0,1020.0,1744252670.4110522,0.0,2025-04-09 22:37:50.411,LEFT,12
191.0,15961.894805657246,2820.097246181637,-64104.758394331744,-62064.669974406956,-36978.03312278189,-34572.65014322402,-29926.795354699538,-22587.018917443624,0.0,0.0,0.0,193.0,1.0,155.0,0.0,2.0,3.0,251.0,411.0,2.0,1019.0,1744252670.4110649,0.0,2025-04-09 22:37:50.411,LEFT,12
192.0,15881.875560507246,2799.9136209384947,-64148.813682653155,-62122.87391696858,-37002.62004168273,-34594.4654458124,-29757.79381487296,-22604.743850796684,0.0,0.0,0.0,193.0,1.0,154.0,0.0,2.0,3.0,249.0,410.0,2.0,1017.0,1744252670.4110737,0.0,2025-04-09 22:37:50.411,LEFT,12
193.0,15899.131107226744,2768.598826956609,-64149.864214642555,-62082.39490776002,-37049.53635329442,-34640.19711496796,-29660.228450325543,-22650.00613331868,0.0,0.0,0.0,193.0,1.0,155.0,0.0,2.0,3.0,252.0,411.0,2.0,1020.0,1744252670.4110823,0.0,2025-04-09 22:37:50.411,LEFT,12
194.0,16017.952980751155,2799.9136209384947,-64149.014848353254,-62108.233524350355,-37038.0922601333,-34621.220483925405,-29701.467418845587,-22640.01490354716,0.0,0.0,0.0,193.0,1.0,154.0,0.0,2.0,3.0,251.0,410.0,2.0,1019.0,1744252670.4110909,0.0,2025-04-09 22:37:50.411,LEFT,12
195.0,15966.007526637022,2808.2061181314134,-64101.09270824108,-62069.43089597594,-36969.69592210006,-34558.590895961635,-30006.211102749243,-22582.012126685637,0.0,0.0,0.0,193.0,1.0,154.0,0.0,2.0,3.0,248.0,410.0,2.0,1016.0,1744252670.4110997,0.0,2025-04-09 22:37:50.411,LEFT,12
196.0,15893.789040301925,2802.0146849172934,-64139.023618581734,-62110.15577437351,-36991.26535549943,-34590.57624227717,-29729.25063720353,-22614.220990445734,0.0,0.0,0.0,193.0,1.0,154.0,0.0,2.0,3.0,252.0,410.0,2.0,1020.0,1744252670.4111083,0.0,2025-04-09 22:37:50.411,LEFT,12
197.0,15871.727868524536,2761.73684140883,-64148.9924966088,-62099.11401261259,-37035.36534730975,-34634.76564106532,-29732.17871572718,-22656.53284269963,0.0,0.0,0.0,193.0,1.0,155.0,0.0,2.0,3.0,251.0,411.0,2.0,1019.0,1744252670.4111168,0.0,2025-04-09 22:37:50.411,LEFT,12
198.0,15998.462259586127,2783.6191992305758,-64157.28499380172,-62101.48329752485,-37060.71222552207,-34646.65676911554,-29582.690248810086,-22674.660107452884,0.0,0.0,0.0,193.0,1.0,155.0,0.0,2.0,3.0,252.0,411.0,2.0,1020.0,1744252670.4111257,0.0,2025-04-09 22:37:50.411,LEFT,12
199.0,15972.288366828963,2805.993295430338,-64095.482420382796,-62070.77200064326,-36966.45491915404,-34541.96119808689,-30074.920365204856,-22577.76529523913,0.0,0.0,0.0,193.0,1.0,154.0,0.0,2.0,3.0,251.0,410.0,2.0,1019.0,1744252670.4111342,0.0,2025-04-09 22:37:50.411,LEFT,12
200.0,15898.52761012645,2797.03024590376,-64135.536746446705,-62092.34143404263,-36992.204128766556,-34571.309038556705,-29706.27304390348,-22596.13842918139,0.0,0.0,0.0,193.0,1.0,154.0,0.0,2.0,3.0,249.0,410.0,2.0,1017.0,1744252670.4111428,0.0,2025-04-09 22:37:50.411,LEFT,12
201.0,15837.909679163657,2744.3024807336906,-64164.16933109395,-62121.57751579017,-37032.16904785264,-34613.598539066144,-29776.010486604035,-22631.63299937642,0.0,0.0,0.0,193.0,1.0,155.0,0.0,2.0,3.0,252.0,411.0,2.0,1020.0,1744252670.4111516,0.0,2025-04-09 22:37:50.411,LEFT,12
202.0,15955.636317209759,2747.0517453016932,-64180.486104546326,-62106.825364449665,-37081.65581007669,-34662.54885942327,-29497.50775069091,-22681.2538720672,0.0,0.0,0.0,193.0,1.0,155.0,0.0,2.0,3.0,252.0,411.0,2.0,1020.0,1744252670.4111602,0.0,2025-04-09 22:37:50.411,LEFT,12
203.0,15955.435151509662,2770.0963938351147,-64122.393920706985,-62107.49591678333,-36982.23525073949,-34558.14386107252,-30078.787216995624,-22594.082068691503,0.0,0.0,0.0,193.0,1.0,154.0,0.0,2.0,3.0,250.0,410.0,2.0,1018.0,1744252670.4111688,0.0,2025-04-09 22:37:50.411,LEFT,12
204.0,15887.463496621072,2769.0458618457155,-64139.157729048464,-62095.40362303301,-36994.17108227862,-34581.143806117034,-29712.956215495615,-22609.728289810217,0.0,0.0,0.0,193.0,1.0,154.0,0.0,2.0,3.0,250.0,410.0,2.0,1018.0,1744252670.4111774,0.0,2025-04-09 22:37:50.411,LEFT,12
205.0,15807.846582871269,2718.709733332364,-64174.51818877676,-62148.10903645862,-37033.26428333095,-34620.885207758576,-29802.005565405558,-22656.264621766168,0.0,0.0,0.0,193.0,1.0,155.0,0.0,2.0,3.0,252.0,411.0,2.0,1020.0,1744252670.411186,0.0,2025-04-09 22:37:50.411,LEFT,12
206.0,15923.71802612758,2728.768018337252,-64178.876778945545,-62101.796221947225,-37087.400208401705,-34671.28839150529,-29477.972326036972,-22695.603692007506,0.0,0.0,0.0,193.0,1.0,155.0,0.0,2.0,3.0,251.0,411.0,2.0,1019.0,1744252670.411199,0.0,2025-04-09 22:37:50.411,LEFT,12
207.0,15959.838445167357,2760.105164063593,-64137.57075519214,-62128.88653622706,-37002.59768993827,-34572.53838450174,-30028.786364649102,-22616.031481746613,0.0,0.0,0.0,193.0,1.0,154.0,0.0,2.0,3.0,249.0,410.0,2.0,1017.0,1744252670.4112082,0.0,2025-04-09 22:37:50.411,LEFT,12
208.0,15895.57717985835,2765.938969366428,-64134.46386271285,-62088.67574795196,-36997.009753824444,-34577.098140370625,-29763.337047497876,-22609.840048532493,0.0,0.0,0.0,193.0,1.0,154.0,0.0,2.0,3.0,251.0,410.0,2.0,1019.0,1744252670.4112167,0.0,2025-04-09 22:37:50.411,LEFT,12
209.0,15816.899039375669,2729.505625904277,-64168.28205207373,-62148.75723704782,-37023.51892274844,-34603.94258546145,-29809.024013164522,-22640.81956634755,0.0,0.0,0.0,193.0,1.0,154.0,0.0,2.0,3.0,250.0,410.0,2.0,1018.0,1744252670.4112256,0.0,2025-04-09 22:37:50.411,LEFT,12
210.0,15907.20008697511,2731.226710227336,-64165.46573227236,-62088.787506674234,-37076.716074552074,-34658.50319367686,-29524.352195781732,-22676.492950498217,0.0,0.0,0.0,193.0,1.0,155.0,0.0,2.0,3.0,252.0,411.0,2.0,1020.0,1744252670.4112344,0.0,2025-04-09 22:37:50.411,LEFT,12
211.0,15971.193131350654,2763.2791117762463,-64141.951697105374,-62132.842794995646,-37014.44411449959,-34590.95622193292,-29927.890590177845,-22624.972179528737,0.0,0.0,0.0,193.0,1.0,154.0,0.0,2.0,3.0,250.0,410.0,2.0,1018.0,1744252670.4112432,0.0,2025-04-09 22:37:50.411,LEFT,12
212.0,15909.882296309746,2772.2421613028246,-64108.826411822614,-62070.14615179851,-36977.27316347041,-34567.77746293276,-29833.074490198433,-22593.009184957646,0.0,0.0,0.0,193.0,1.0,155.0,0.0,2.0,3.0,249.0,411.0,2.0,1017.0,1744252670.411252,0.0,2025-04-09 22:37:50.411,LEFT,12
213.0,15824.833908657303,2742.7155068773636,-64164.951642149885,-62151.12652196009,-37018.556835479365,-34609.530521575274,-29764.521689954006,-22639.836089591514,0.0,0.0,0.0,193.0,1.0,155.0,0.0,2.0,3.0,252.0,411.0,2.0,1020.0,1744252670.4112604,0.0,2025-04-09 22:37:50.411,LEFT,12
214.0,15880.579159328838,2726.935175291917,-64163.342316549104,-62099.89632366852,-37071.552821582896,-34663.59939141267,-29590.066324480336,-22684.494875013217,0.0,0.0,0.0,193.0,1.0,154.0,0.0,2.0,3.0,251.0,410.0,2.0,1019.0,1744252670.4112692,0.0,2025-04-09 22:37:50.411,LEFT,12
215.0,15985.16297163522,2761.669786175464,-64152.68053444392,-62134.87680374108,-37037.42170779964,-34618.31475714621,-29808.75579223106,-22653.358894986977,0.0,0.0,0.0,193.0,1.0,154.0,0.0,2.0,3.0,250.0,410.0,2.0,1018.0,1744252670.4112778,0.0,2025-04-09 22:37:50.411,LEFT,12
216.0,15934.849194866323,2777.74069043883,-64098.969292517824,-62068.08979130862,-36972.333427945785,-34558.993227361825,-29938.68648274976,-22594.640862302884,0.0,0.0,0.0,193.0,1.0,155.0,0.0,2.0,3.0,252.0,411.0,2.0,1020.0,1744252670.4112864,0.0,2025-04-09 22:37:50.411,LEFT,12
217.0,15856.729847995026,2762.0497658312042,-64146.35499076307,-62128.77477750478,-37004.11760856123,-34590.50918704381,-29739.2195152306,-22620.323016682032,0.0,0.0,0.0,193.0,1.0,155.0,0.0,2.0,3.0,251.0,411.0,2.0,1019.0,1744252670.4112952,0.0,2025-04-09 22:37:50.411,LEFT,12
218.0,15855.969888683545,2724.1412072350035,-64165.95747065038,-62111.586286018646,-37066.61308605827,-34656.5809436537,-29676.858148200292,-22679.1528080884,0.0,0.0,0.0,193.0,1.0,154.0,0.0,2.0,3.0,249.0,410.0,2.0,1017.0,1744252670.4113038,0.0,2025-04-09 22:37:50.411,LEFT,12
219.0,15976.937529675668,2754.539579694221,-64165.376325294535,-62128.43950133795,-37058.56645805436,-34638.85601030064,-29674.310049332387,-22658.745665400704,0.0,0.0,0.0,193.0,1.0,154.0,0.0,2.0,3.0,250.0,410.0,2.0,1018.0,1744252670.4113126,0.0,2025-04-09 22:37:50.411,LEFT,12
220.0,15940.660648424704,2775.8184404156736,-64104.71369084284,-62083.24427404932,-36974.90387855814,-34562.61420996359,-30012.111963285442,-22582.61562378593,0.0,0.0,0.0,193.0,1.0,154.0,0.0,2.0,3.0,251.0,410.0,2.0,1019.0,1744252670.4113212,0.0,2025-04-09 22:37:50.411,LEFT,12
221.0,15871.23613014652,2768.6882339344306,-64147.69609543039,-62124.70676001391,-37006.2857277734,-34601.75211450483,-29705.803657269917,-22621.28414169361,0.0,0.0,0.0,193.0,1.0,155.0,0.0,2.0,3.0,252.0,411.0,2.0,1020.0,1744252670.411334,0.0,2025-04-09 22:37:50.411,LEFT,12
222.0,15843.452911788574,2731.2937654607017,-64164.16933109395,-62123.678579768966,-37053.6937777631,-34641.60527486864,-29747.109681023325,-22661.316116013066,0.0,0.0,0.0,193.0,1.0,154.0,0.0,2.0,3.0,251.0,410.0,2.0,1019.0,1744252670.411343,0.0,2025-04-09 22:37:50.411,LEFT,12
223.0,15978.435096554173,2763.390870498523,-64170.763095708266,-62116.59307677664,-37080.359408898286,-34659.64313264407,-29566.731103268994,-22684.673688968862,0.0,0.0,0.0,193.0,1.0,154.0,0.0,2.0,3.0,250.0,410.0,2.0,1018.0,1744252670.4113517,0.0,2025-04-09 22:37:50.411,LEFT,12
224.0,15958.363230033307,2791.9787516568604,-64108.22291472232,-62094.800125932714,-36981.296477472366,-34563.03889310824,-30075.501510560694,-22600.89935075037,0.0,0.0,0.0,193.0,1.0,155.0,0.0,2.0,3.0,252.0,411.0,2.0,1020.0,1744252670.4113603,0.0,2025-04-09 22:37:50.411,LEFT,12
225.0,15892.604397845793,2796.5608592701983,-64133.301572001175,-62097.907018412,-36996.51801544643,-34584.63067825206,-29700.34983162282,-22611.315263666544,0.0,0.0,0.0,193.0,1.0,155.0,0.0,2.0,3.0,250.0,411.0,2.0,1018.0,1744252670.4113688,0.0,2025-04-09 22:37:50.411,LEFT,12
226.0,15838.0884931193,2747.16350402397,-64162.515302004256,-62128.081873426665,-37042.69671949109,-34625.400260138544,-29793.04251587898,-22650.184947274323,0.0,0.0,0.0,193.0,1.0,154.0,0.0,2.0,3.0,250.0,410.0,2.0,1018.0,1744252670.4113772,0.0,2025-04-09 22:37:50.411,LEFT,12
227.0,15969.941433661155,2766.900094378006,-64164.86223517206,-62096.02947187775,-37081.16407169868,-34666.10278679166,-29504.727364149974,-22686.931215158846,0.0,0.0,0.0,193.0,1.0,154.0,0.0,2.0,3.0,249.0,410.0,2.0,1017.0,1744252670.411386,0.0,2025-04-09 22:37:50.411,LEFT,12
228.0,15973.428305796184,2790.6599987339973,-64116.582467148604,-62109.686387739945,-36985.81152985233,-34563.821204164175,-30069.824167469047,-22597.70305129326,0.0,0.0,0.0,193.0,1.0,155.0,0.0,2.0,3.0,253.0,411.0,2.0,1021.0,1744252670.4113948,0.0,2025-04-09 22:37:50.411,LEFT,12
229.0,15918.130090013754,2802.3052575952124,-64117.36477820454,-62079.26566353627,-36980.64827688316,-34565.54228848723,-29717.247750431034,-22586.080144176503,0.0,0.0,0.0,193.0,1.0,154.0,0.0,2.0,3.0,249.0,410.0,2.0,1017.0,1744252670.4114037,0.0,2025-04-09 22:37:50.411,LEFT,12
230.0,15838.446121030585,2755.992443083816,-64157.687325201914,-62140.48709159936,-37022.35663203676,-34611.25160589834,-29791.79081818948,-22637.19858374579,0.0,0.0,0.0,193.0,1.0,154.0,0.0,2.0,3.0,250.0,410.0,2.0,1018.0,1744252670.4114122,0.0,2025-04-09 22:37:50.411,LEFT,12
231.0,15945.376866504774,2762.5862076981316,-64162.872929915546,-62092.654358465006,-37079.68885656463,-34667.220374014425,-29477.190014981035,-22682.930252901348,0.0,0.0,0.0,193.0,1.0,154.0,0.0,2.0,3.0,250.0,410.0,2.0,1018.0,1744252670.4114208,0.0,2025-04-09 22:37:50.411,LEFT,12
232.0,15994.707166517635,2800.6288767610645,-64117.40948169345,-62116.615428521094,-36990.930079332604,-34565.721102442876,-30012.000204563166,-22604.05094671857,0.0,0.0,0.0,193.0,1.0,155.0,0.0,1.0,3.0,252.0,411.0,1.0,1020.0,1744252670.4114296,0.0,2025-04-09 22:37:50.411,LEFT,12
233.0,15931.071750053377,2805.5686122856873,-64109.69812985637,-62074.258872778286,-36983.241079239975,-34569.006808877806,-29783.073637851914,-22603.358042640455,0.0,0.0,0.0,193.0,1.0,154.0,0.0,2.0,3.0,250.0,410.0,2.0,1018.0,1744252670.4114382,0.0,2025-04-09 22:37:50.411,LEFT,12
234.0,15845.41986530064,2769.02351010126,-64155.76507517876,-62148.69018181446,-37018.981518624016,-34604.18845465046,-29800.977385160615,-22641.311304725565,0.0,0.0,0.0,193.0,1.0,154.0,0.0,2.0,3.0,250.0,410.0,2.0,1018.0,1744252670.4114468,0.0,2025-04-09 22:37:50.411,LEFT,12
235.0,15912.877430066757,2753.1984750269025,-64163.67759271593,-62098.91284691249,-37080.47116762056,-34668.829699615206,-29529.69426270655,-22686.283014569643,0.0,0.0,0.0,193.0,1.0,155.0,0.0,2.0,3.0,252.0,411.0,2.0,1020.0,1744252670.4114556,0.0,2025-04-09 22:37:50.411,LEFT,12
236.0,15998.395204352762,2795.2421063473353,-64136.47551971383,-62137.15668167552,-37016.098143589275,-34594.64425976804,-29912.601996970418,-22633.085862766013,0.0,0.0,0.0,193.0,1.0,155.0,0.0,1.0,3.0,251.0,411.0,1.0,1019.0,1744252670.4114685,0.0,2025-04-09 22:37:50.411,LEFT,12
237.0,15952.39531426374,2817.3926851025444,-64089.8274290356,-62065.42993371844,-36966.70078834305,-34556.10985232709,-29870.133682505333,-22592.85272274646,0.0,0.0,0.0,193.0,1.0,154.0,0.0,2.0,3.0,250.0,410.0,2.0,1018.0,1744252670.411477,0.0,2025-04-09 22:37:50.411,LEFT,12
238.0,15858.495635806996,2780.4676032623775,-64147.919612874946,-62145.31506840171,-37011.627794698215,-34597.28176561377,-29763.717027153616,-22628.257885963667,0.0,0.0,0.0,193.0,1.0,154.0,0.0,2.0,3.0,250.0,410.0,2.0,1018.0,1744252670.4114857,0.0,2025-04-09 22:37:50.411,LEFT,12
239.0,15895.063089735877,2762.474448975855,-64149.8418628981,-62098.26464632329,-37064.981408713036,-34646.65676911554,-29612.865103824748,-22672.357877773986,0.0,0.0,0.0,193.0,1.0,155.0,0.0,1.0,3.0,252.0,411.0,1.0,1020.0,1744252670.4114943,0.0,2025-04-09 22:37:50.411,LEFT,12
240.0,16002.910256732734,2794.3927400580337,-64144.902127373476,-62133.5133473293,-37041.22150435704,-34610.96103322042,-29772.769483658016,-22649.223822262746,0.0,0.0,0.0,193.0,1.0,155.0,0.0,2.0,3.0,251.0,411.0,2.0,1019.0,1744252670.4115026,0.0,2025-04-09 22:37:50.411,LEFT,12
241.0,15949.82486365138,2802.0370366617485,-64096.130620972,-62078.77392515826,-36978.81543383782,-34554.41111974849,-29956.947857969746,-22585.14137090938,0.0,0.0,0.0,193.0,1.0,154.0,0.0,2.0,3.0,250.0,410.0,2.0,1018.0,1744252670.4115112,0.0,2025-04-09 22:37:50.411,LEFT,12
242.0,15879.483923850528,2792.5151935237877,-64132.452205711874,-62128.30539087122,-36999.110817803245,-34582.44020729545,-29745.589762400363,-22617.931380025315,0.0,0.0,0.0,193.0,1.0,155.0,0.0,2.0,3.0,252.0,411.0,2.0,1020.0,1744252670.4115195,0.0,2025-04-09 22:37:50.411,LEFT,12
243.0,15864.687069021114,2748.705774391386,-64155.63096471202,-62117.598905277126,-37063.30502787889,-34648.981350538896,-29717.001881242024,-22679.91276739988,0.0,0.0,0.0,193.0,1.0,155.0,0.0,2.0,3.0,251.0,411.0,2.0,1019.0,1744252670.4115283,0.0,2025-04-09 22:37:50.411,LEFT,12
244.0,15997.232913641086,2788.469527777377,-64154.71454318936,-62129.51238507181,-37062.522716822954,-34638.967769022915,-29677.05931390039,-22670.86031089548,0.0,0.0,0.0,193.0,1.0,154.0,0.0,2.0,3.0,248.0,410.0,2.0,1016.0,1744252670.4115367,0.0,2025-04-09 22:37:50.411,LEFT,12
245.0,15965.247567325541,2815.895118224039,-64083.90421675494,-62080.18208505894,-36964.1750412196,-34541.6035701756,-30070.22649886924,-22579.911062706837,0.0,0.0,0.0,193.0,1.0,155.0,0.0,2.0,3.0,252.0,411.0,2.0,1020.0,1744252670.4115455,0.0,2025-04-09 22:37:50.411,LEFT,12
246.0,15896.426546147652,2809.2342983763574,-64120.292856728185,-62110.62516100707,-36987.26439324193,-34567.88922165504,-29725.294378434945,-22596.831333259506,0.0,0.0,0.0,193.0,1.0,155.0,0.0,2.0,3.0,252.0,411.0,2.0,1020.0,1744252670.411554,0.0,2025-04-09 22:37:50.411,LEFT,12
247.0,15853.779417726926,2763.3014635207014,-64143.06928432814,-62122.851565224126,-37037.08643163281,-34614.11262918862,-29765.79573938796,-22634.561077900064,0.0,0.0,0.0,193.0,1.0,154.0,0.0,2.0,3.0,250.0,410.0,2.0,1018.0,1744252670.4115624,0.0,2025-04-09 22:37:50.411,LEFT,12
248.0,15987.219332125109,2783.3956817860226,-64150.17713906493,-62113.463832552894,-37068.93766748162,-34643.05813825824,-29547.352140826246,-22668.267508538665,0.0,0.0,0.0,193.0,1.0,154.0,0.0,2.0,3.0,249.0,410.0,2.0,1017.0,1744252670.4115713,0.0,2025-04-09 22:37:50.411,LEFT,12
249.0,15969.919081916702,2798.550164526721,-64094.38718490448,-62104.07609988166,-36977.80960533734,-34547.817355134175,-30080.173025151853,-22587.9800424552,0.0,0.0,0.0,193.0,1.0,155.0,0.0,2.0,3.0,250.0,411.0,2.0,1018.0,1744252670.41158,0.0,2025-04-09 22:37:50.411,LEFT,12
250.0,15910.597552132316,2806.2615163638015,-64110.703958356855,-62095.940064899936,-36984.96216356303,-34566.12343384307,-29709.648157316227,-22596.13842918139,0.0,0.0,0.0,193.0,1.0,155.0,0.0,2.0,3.0,252.0,411.0,2.0,1020.0,1744252670.4115927,0.0,2025-04-09 22:37:50.411,LEFT,12
251.0,15847.006839156968,2768.598826956609,-64137.68251391441,-62129.08770192716,-37020.5908442248,-34606.55773956272,-29785.308812297444,-22639.031426791124,0.0,0.0,0.0,193.0,1.0,154.0,0.0,2.0,3.0,251.0,410.0,2.0,1019.0,1744252670.4116015,0.0,2025-04-09 22:37:50.411,LEFT,12
252.0,15966.231044081575,2774.4326322594443,-64150.60182220958,-62101.7068149694,-37074.615010573274,-34660.76071986684,-29471.26680270038,-22691.088639627535,0.0,0.0,0.0,193.0,1.0,155.0,0.0,2.0,3.0,252.0,411.0,2.0,1020.0,1744252670.41161,0.0,2025-04-09 22:37:50.411,LEFT,12
253.0,15982.816038467414,2804.4957285518326,-64097.8293535506,-62112.0109691633,-36978.32369545981,-34555.59576220462,-30047.830050925026,-22604.699147307772,0.0,0.0,0.0,193.0,1.0,155.0,0.0,2.0,3.0,251.0,411.0,2.0,1019.0,1744252670.4116187,0.0,2025-04-09 22:37:50.411,LEFT,12
254.0,15908.250618964508,2792.8281179461624,-64118.325903216115,-62096.968245144875,-36995.66864915713,-34579.42272179398,-29718.633558587262,-22618.490173636696,0.0,0.0,0.0,193.0,1.0,154.0,0.0,2.0,3.0,250.0,410.0,2.0,1018.0,1744252670.411628,0.0,2025-04-09 22:37:50.411,LEFT,12
255.0,15836.970905896535,2761.088640819626,-64152.97110712184,-62154.523987117296,-37028.21278908406,-34608.27882388578,-29804.218388106634,-22647.56979317305,0.0,0.0,0.0,193.0,1.0,154.0,0.0,2.0,3.0,252.0,410.0,2.0,1020.0,1744252670.4116364,0.0,2025-04-09 22:37:50.411,LEFT,12
0.0,15941.800587391925,2769.0682135901707,-64151.31707803215,-62097.258817822796,-37077.76660654147,-34657.51971692082,-29492.25509074391,-22681.276223811656,0.0,0.0,0.0,193.0,1.0,155.0,0.0,2.0,3.0,252.0,411.0,2.0,1020.0,1744252670.4116452,0.0,2025-04-09 22:37:50.411,LEFT,12
1.0,16000.026881697999,2810.0836646656594,-64106.30066469916,-62122.62804777957,-36993.05349505586,-34563.17300357497,-29989.603756618948,-22613.393975900886,0.0,0.0,0.0,193.0,1.0,155.0,0.0,2.0,3.0,251.0,411.0,2.0,1019.0,1744252670.4116535,0.0,2025-04-09 22:37:50.411,LEFT,12
2.0,15937.218479778587,2818.6890862809523,-64092.599045348055,-62070.414372731975,-36980.49181467197,-34559.57437271767,-29793.333088556898,-22606.822563031026,0.0,0.0,0.0,193.0,1.0,154.0,0.0,2.0,3.0,250.0,410.0,2.0,1018.0,1744252670.411662,0.0,2025-04-09 22:37:50.411,LEFT,12
3.0,15849.063199646855,2780.1993823289135,-64141.4376069829,-62145.65034456854,-37016.85810290076,-34598.30994585871,-29793.578957745907,-22652.95656358678,0.0,0.0,0.0,193.0,1.0,155.0,0.0,2.0,3.0,252.0,411.0,2.0,1020.0,1744252670.4116707,0.0,2025-04-09 22:37:50.411,LEFT,12
4.0,15917.168965002176,2770.4987252353103,-64139.42594998192,-62087.37934677355,-37068.33417038133,-34650.76949009532,-29547.709768737528,-22684.718392457773,0.0,0.0,0.0,193.0,1.0,155.0,0.0,2.0,3.0,252.0,411.0,2.0,1020.0,1744252670.41168,0.0,2025-04-09 22:37:50.411,LEFT,12
5.0,16004.385471866784,2800.807690716707,-64123.869135841036,-62129.87001298309,-37020.009698868955,-34586.24000385285,-29860.164804478267,-22620.837106804505,0.0,0.0,0.0,193.0,1.0,155.0,0.0,2.0,3.0,251.0,411.0,2.0,1019.0,1744252670.8899033,0.0,2025-04-09 22:37:50.889,LEFT,12
6.0,15947.008543850012,2807.066179164193,-64090.90031276945,-62075.06353557868,-36980.737683860985,-34556.825108149664,-29871.698304617206,-22589.164684911335,0.0,0.0,0.0,193.0,1.0,154.0,0.0,3.0,3.0,250.0,410.0,3.0,1018.0,1744252670.889943,0.0,2025-04-09 22:37:50.889,LEFT,12
7.0,15874.454781348084,2796.247934847824,-64128.65240915447,-62134.943858974446,-37000.54132944838,-34580.09327412764,-29746.97557055659,-22623.027577761124,0.0,0.0,0.0,193.0,1.0,155.0,0.0,11.0,3.0,250.0,411.0,11.0,1018.0,1744252670.889963,0.0,2025-04-09 22:37:50.889,LEFT,12
8.0,15898.818182804369,2773.382100270045,-64135.514394702244,-62097.750556200815,-37055.1466411527,-34641.26999870181,-29620.084717283815,-22679.28691855513,0.0,0.0,0.0,193.0,1.0,155.0,0.0,22.0,3.0,251.0,411.0,22.0,1019.0,1744252670.8899827,0.0,2025-04-09 22:37:50.889,LEFT,12
9.0,16012.968541737622,2810.575403043676,-64131.468728955835,-62130.451158338925,-37037.4440595441,-34615.9231204895,-29740.31475070891,-22666.412313748875,0.0,0.0,0.0,193.0,1.0,154.0,0.0,31.0,3.0,249.0,410.0,31.0,1017.0,1744252670.890072,0.0,2025-04-09 22:37:50.890,LEFT,12
10.0,15970.25435808353,2832.8824440100725,-64071.58840556007,-62070.414372731975,-36960.039968495366,-34542.587046931636,-29977.80203554655,-22593.344461124478,0.0,0.0,0.0,193.0,1.0,155.0,0.0,38.0,3.0,251.0,411.0,38.0,1019.0,1744252670.8900812,0.0,2025-04-09 22:37:50.890,LEFT,12
11.0,15890.637444333726,2812.4305978334664,-64121.49985092877,-62125.37731234757,-36994.52871018991,-34572.203108334914,-29712.82210502888,-22614.75743231266,0.0,0.0,0.0,193.0,1.0,155.0,0.0,39.0,3.0,251.0,411.0,39.0,1019.0,1744252670.8900902,0.0,2025-04-09 22:37:50.890,LEFT,12
12.0,15874.343022625808,2772.3092165361904,-64134.97795283532,-62110.893381940536,-37044.44015555861,-34621.980443236884,-29692.236148385546,-22654.029447320634,0.0,0.0,0.0,193.0,1.0,154.0,0.0,39.0,3.0,250.0,410.0,39.0,1018.0,1744252670.8900993,0.0,2025-04-09 22:37:50.890,LEFT,12
13.0,16002.530277076994,2796.002065658816,-64144.45509248437,-62126.36078910361,-37060.064024932864,-34631.74815556385,-29602.069211252834,-22674.235424308234,0.0,0.0,0.0,193.0,1.0,154.0,0.0,38.0,3.0,250.0,410.0,38.0,1018.0,1744252670.890108,0.0,2025-04-09 22:37:50.890,LEFT,12
14.0,15982.92779718969,2829.887310253061,-64066.06752467961,-62074.884721623035,-36953.78148004788,-34520.36941294306,-30037.81646940905,-22566.343553822466,0.0,0.0,0.0,193.0,1.0,155.0,0.0,38.0,3.0,252.0,411.0,38.0,1020.0,1744252670.890117,0.0,2025-04-09 22:37:50.890,LEFT,12
15.0,15900.919246783167,2814.822234490184,-64116.26954272623,-62113.5085360418,-36992.29353574438,-34568.11273909959,-29682.088456402835,-22607.76133629815,0.0,0.0,0.0,193.0,1.0,155.0,0.0,38.0,3.0,250.0,411.0,38.0,1018.0,1744252670.8901258,0.0,2025-04-09 22:37:50.890,LEFT,12
16.0,15849.823158958336,2767.615350200576,-64145.70679017387,-62138.38602762056,-37040.57330376784,-34620.61698682511,-29758.08438755088,-22657.829243878037,0.0,0.0,0.0,193.0,1.0,154.0,0.0,39.0,3.0,250.0,410.0,39.0,1018.0,1744252670.8901346,0.0,2025-04-09 22:37:50.890,LEFT,12
17.0,15990.505038560039,2799.1760133714693,-64143.5386709617,-62112.52505928577,-37063.41678660116,-34641.04648125726,-29515.724422421983,-22673.877796396948,0.0,0.0,0.0,193.0,1.0,155.0,0.0,39.0,3.0,252.0,411.0,39.0,1020.0,1744252670.8901434,0.0,2025-04-09 22:37:50.890,LEFT,12
18.0,15982.525465789495,2816.6550775355195,-64083.367774888015,-62104.947817915425,-36964.733834830986,-34541.871791109064,-30063.588030766015,-22587.734173266195,0.0,0.0,0.0,193.0,1.0,154.0,0.0,39.0,3.0,251.0,410.0,39.0,1019.0,1744252670.8901525,0.0,2025-04-09 22:37:50.890,LEFT,12
19.0,15909.256447464997,2805.389798330045,-64115.55428690366,-62110.9604371739,-36993.90286134516,-34581.724951472876,-29695.275985631466,-22620.635941104407,0.0,0.0,0.0,193.0,1.0,154.0,0.0,39.0,3.0,250.0,410.0,39.0,1018.0,1744252670.8901613,0.0,2025-04-09 22:37:50.890,LEFT,12
20.0,15840.882461176214,2764.933140865939,-64143.38220875052,-62148.44431262545,-37031.409088541164,-34612.88328324357,-29800.955033416158,-22648.396807717898,0.0,0.0,0.0,193.0,1.0,154.0,0.0,39.0,3.0,252.0,410.0,39.0,1020.0,1744252670.89017,0.0,2025-04-09 22:37:50.890,LEFT,12
21.0,15961.067791112398,2779.573533484165,-64148.47840648633,-62105.30544582671,-37081.119368209766,-34659.732539621895,-29477.190014981035,-22679.68924995533,0.0,0.0,0.0,193.0,1.0,155.0,0.0,40.0,3.0,251.0,411.0,40.0,1019.0,1744252670.890179,0.0,2025-04-09 22:37:50.890,LEFT,12
22.0,15981.296119844452,2803.9816384293604,-64109.69812985637,-62134.40741710752,-36998.52967244741,-34571.241983323336,-30044.38788227891,-22614.980949757213,0.0,0.0,0.0,193.0,1.0,155.0,0.0,40.0,3.0,249.0,411.0,40.0,1017.0,1744252670.890188,0.0,2025-04-09 22:37:50.890,LEFT,12
23.0,15920.298209225919,2809.346057098634,-64108.24526646677,-62096.63296897805,-36994.86398635674,-34576.22642233687,-29747.78023335698,-22611.158801455356,0.0,0.0,0.0,193.0,1.0,155.0,0.0,40.0,3.0,250.0,411.0,40.0,1018.0,1744252670.8901966,0.0,2025-04-09 22:37:50.890,LEFT,12
24.0,15850.873690947736,2781.540486996232,-64134.66502841294,-62147.237318424864,-37015.42759125562,-34593.66078301201,-29806.252396852065,-22630.00132203118,0.0,0.0,0.0,193.0,1.0,155.0,0.0,40.0,3.0,251.0,411.0,40.0,1019.0,1744252670.8902128,0.0,2025-04-09 22:37:50.890,LEFT,12
25.0,15952.954107875123,2792.2469725903243,-64129.41236846595,-62086.32881478415,-37064.37791161274,-34643.90750454754,-29497.530102435365,-22672.760209174183,0.0,0.0,0.0,193.0,1.0,155.0,0.0,41.0,3.0,249.0,411.0,41.0,1017.0,1744252670.8902216,0.0,2025-04-09 22:37:50.890,LEFT,12
26.0,16003.78197476649,2817.5938508026425,-64104.84780130957,-62132.0157804508,-36996.741532890985,-34573.83478568015,-29951.091700922454,-22619.42894690382,0.0,0.0,0.0,193.0,1.0,154.0,0.0,41.0,3.0,250.0,410.0,41.0,1018.0,1744252670.8902304,0.0,2025-04-09 22:37:50.890,LEFT,12
27.0,15943.812244392902,2825.3275543841787,-64080.26088240873,-62075.48821872333,-36968.55598313284,-34561.69778844092,-29802.340841572386,-22601.726365295217,0.0,0.0,0.0,193.0,1.0,155.0,0.0,41.0,3.0,252.0,411.0,41.0,1020.0,1744252670.8902395,0.0,2025-04-09 22:37:50.890,LEFT,12
28.0,15867.369278355753,2800.874745950073,-64119.06351078314,-62141.291754399754,-36992.673515400114,-34583.669553240485,-29767.427416733197,-22626.827374318527,0.0,0.0,0.0,193.0,1.0,155.0,0.0,41.0,3.0,252.0,411.0,41.0,1020.0,1744252670.8902483,0.0,2025-04-09 22:37:50.890,LEFT,12
29.0,15912.832726577846,2770.252856046302,-64134.28504875721,-62100.544524257726,-37066.61308605827,-34650.52362090631,-29538.210277344024,-22668.96041261678,0.0,0.0,0.0,193.0,1.0,154.0,0.0,41.0,3.0,250.0,410.0,41.0,1018.0,1744252670.890257,0.0,2025-04-09 22:37:50.890,LEFT,12
30.0,16009.83929751388,2804.4957285518326,-64116.247190981776,-62140.330629388176,-37020.81436166935,-34591.291498099745,-29829.744080274595,-22621.90999053836,0.0,0.0,0.0,193.0,1.0,154.0,0.0,42.0,3.0,249.0,410.0,42.0,1017.0,1744252670.8902657,0.0,2025-04-09 22:37:50.890,LEFT,12
31.0,15967.281576070975,2833.6200515770975,-64059.29494610965,-62067.03925931922,-36953.803831792335,-34537.28968349573,-29889.982031581647,-22567.774065467605,0.0,0.0,0.0,193.0,1.0,154.0,0.0,42.0,3.0,250.0,410.0,42.0,1018.0,1744252670.8902743,0.0,2025-04-09 22:37:50.890,LEFT,12
32.0,15878.969833728057,2806.663847763997,-64115.464879925836,-62140.57649857718,-36994.72987589001,-34577.16519560399,-29723.796811556436,-22612.634016589407,0.0,0.0,0.0,193.0,1.0,155.0,0.0,42.0,3.0,251.0,411.0,42.0,1019.0,1744252670.890283,0.0,2025-04-09 22:37:50.890,LEFT,12
33.0,15883.95427274159,2769.3364345236346,-64132.85453711206,-62116.14604188753,-37057.09124292031,-34642.544048135765,-29631.349996489287,-22670.972069617757,0.0,0.0,0.0,193.0,1.0,154.0,0.0,42.0,3.0,249.0,410.0,42.0,1017.0,1744252670.890292,0.0,2025-04-09 22:37:50.890,LEFT,12
34.0,15999.669253786715,2798.997199415827,-64134.28504875721,-62144.62216432359,-37046.76473698196,-34623.522713604296,-29697.667622288183,-22653.80592987608,0.0,0.0,0.0,193.0,1.0,154.0,0.0,42.0,3.0,249.0,410.0,42.0,1017.0,1744252670.8903005,0.0,2025-04-09 22:37:50.890,LEFT,12
35.0,15969.852026683335,2825.059333450715,-64060.18901588786,-62076.40464024599,-36950.29460791285,-34535.32272998366,-29982.585308859983,-22565.89651893336,0.0,0.0,0.0,193.0,1.0,154.0,0.0,42.0,3.0,252.0,410.0,42.0,1020.0,1744252670.890309,0.0,2025-04-09 22:37:50.890,LEFT,12
36.0,15893.766688557469,2812.7211705113855,-64104.26665595373,-62124.08091116916,-36974.300381457855,-34571.82312867917,-29680.479130802054,-22600.072336205525,0.0,0.0,0.0,193.0,1.0,154.0,0.0,42.0,3.0,249.0,410.0,42.0,1017.0,1744252670.890318,0.0,2025-04-09 22:37:50.890,LEFT,12
37.0,15860.194368385599,2766.1401350665255,-64133.34627549008,-62127.76894900429,-37041.46737354605,-34630.027071240795,-29692.996107697025,-22655.929345599336,0.0,0.0,0.0,193.0,1.0,154.0,0.0,42.0,3.0,249.0,410.0,42.0,1017.0,1744252670.8903267,0.0,2025-04-09 22:37:50.890,LEFT,12
38.0,15996.271788629509,2802.3276093396676,-64135.246173768785,-62127.321914115186,-37058.119423165255,-34638.967769022915,-29578.488120852486,-22673.274299296656,0.0,0.0,0.0,193.0,1.0,154.0,0.0,43.0,3.0,250.0,410.0,43.0,1018.0,1744252670.8903353,0.0,2025-04-09 22:37:50.890,LEFT,12
39.0,15970.634337739271,2813.503481567321,-64071.11901892651,-62098.5552190012,-36960.97874176249,-34545.31395975518,-30046.46659451325,-22588.717650022227,0.0,0.0,0.0,193.0,1.0,155.0,0.0,43.0,3.0,252.0,411.0,43.0,1020.0,1744252670.890349,0.0,2025-04-09 22:37:50.890,LEFT,12
40.0,15898.1029269818,2802.573478528676,-64108.80406007815,-62120.92931520096,-36991.93590783309,-34577.74634095983,-29677.64045925623,-22608.94597875428,0.0,0.0,0.0,193.0,1.0,154.0,0.0,42.0,3.0,249.0,410.0,42.0,1017.0,1744252670.8903575,0.0,2025-04-09 22:37:50.890,LEFT,12
41.0,15843.005876899468,2760.127515808048,-64133.8380138681,-62145.94091724646,-37037.846390944294,-34620.90755950303,-29761.437149219175,-22652.017790319656,0.0,0.0,0.0,193.0,1.0,154.0,0.0,43.0,3.0,249.0,410.0,43.0,1017.0,1744252670.8903663,0.0,2025-04-09 22:37:50.890,LEFT,12
42.0,15980.11147738832,2786.904905665506,-64131.893412100486,-62115.922524442976,-37064.71318777957,-34648.02022552732,-29492.433904699556,-22672.357877773986,0.0,0.0,0.0,193.0,1.0,154.0,0.0,43.0,3.0,252.0,410.0,43.0,1020.0,1744252670.890375,0.0,2025-04-09 22:37:50.890,LEFT,12
43.0,15978.390393065261,2813.1458536560363,-64076.796362018154,-62119.05176866672,-36966.7231400875,-34551.48304122484,-30057.553059763082,-22591.5339698236,0.0,0.0,0.0,193.0,1.0,155.0,0.0,43.0,3.0,251.0,411.0,43.0,1019.0,1744252670.890384,0.0,2025-04-09 22:37:50.890,LEFT,12
44.0,15912.899781811213,2816.409208346511,-64093.04608023717,-62103.29378882573,-36978.25664022644,-34572.02429437927,-29696.39357285423,-22597.591292570985,0.0,0.0,0.0,193.0,1.0,155.0,0.0,43.0,3.0,253.0,411.0,43.0,1021.0,1744252670.8903928,0.0,2025-04-09 22:37:50.890,LEFT,12
45.0,15843.94465016659,2774.7232049373633,-64123.287990485194,-62145.94091724646,-37014.68998368859,-34606.31187037371,-29792.684887967695,-22630.113080753457,0.0,0.0,0.0,193.0,1.0,154.0,0.0,43.0,3.0,250.0,410.0,43.0,1018.0,1744252670.8904016,0.0,2025-04-09 22:37:50.890,LEFT,12
46.0,15954.786950920457,2778.746518939319,-64134.39680747948,-62104.81370744869,-37073.31860939486,-34665.56634492473,-29460.850889784208,-22676.805874920592,0.0,0.0,0.0,193.0,1.0,154.0,0.0,43.0,3.0,249.0,410.0,43.0,1017.0,1744252670.8904102,0.0,2025-04-09 22:37:50.890,LEFT,12
47.0,15983.330128589885,2807.960248942405,-64094.38718490448,-62132.39576010654,-36989.99130606548,-34564.737625686845,-30016.157629031855,-22599.04415596058,0.0,0.0,0.0,193.0,1.0,154.0,0.0,43.0,3.0,252.0,410.0,43.0,1020.0,1744252670.8904188,0.0,2025-04-09 22:37:50.890,LEFT,12
48.0,15932.859889609801,2823.829987505673,-64077.89159749647,-62079.04214609172,-36972.5792971348,-34557.27214303877,-29750.01540780251,-22588.3823738554,0.0,0.0,0.0,193.0,1.0,154.0,0.0,43.0,3.0,249.0,410.0,43.0,1017.0,1744252670.8904276,0.0,2025-04-09 22:37:50.890,LEFT,12
49.0,15854.628784016228,2790.5705917561763,-64116.716577615334,-62144.242184667855,-37005.36930625073,-34590.30802134371,-29790.002678633056,-22630.224839475733,0.0,0.0,0.0,193.0,1.0,153.0,0.0,43.0,3.0,249.0,409.0,43.0,1017.0,1744252670.8904364,0.0,2025-04-09 22:37:50.890,LEFT,12
50.0,15937.084369311855,2786.4355190319443,-64124.85261259707,-62093.9060561545,-37068.736501781525,-34650.83654532868,-29494.020878555883,-22679.957470888792,0.0,0.0,0.0,193.0,1.0,155.0,0.0,43.0,3.0,252.0,411.0,43.0,1020.0,1744252670.890445,0.0,2025-04-09 22:37:50.890,LEFT,12
51.0,16004.229009655597,2819.3372868701563,-64100.04217625168,-62134.20625140742,-37004.94462310608,-34568.69388445543,-29921.967377897192,-22610.734118310706,0.0,0.0,0.0,193.0,1.0,155.0,0.0,43.0,3.0,252.0,411.0,43.0,1020.0,1744252670.8904536,0.0,2025-04-09 22:37:50.890,LEFT,12
52.0,15945.801549649424,2825.2381474063573,-64073.801228261145,-62075.68938442342,-36974.74741634696,-34549.09140456813,-29818.27763536902,-22577.809998728037,0.0,0.0,0.0,193.0,1.0,154.0,0.0,43.0,3.0,249.0,410.0,43.0,1017.0,1744252670.8904622,0.0,2025-04-09 22:37:50.890,LEFT,12
53.0,15860.730810252526,2795.957362169905,-64121.768071862236,-62149.0701614702,-37005.481064973006,-34584.22834685187,-29764.633448676283,-22621.507659138162,0.0,0.0,0.0,193.0,1.0,154.0,0.0,43.0,3.0,250.0,410.0,43.0,1018.0,1744252670.8904707,0.0,2025-04-09 22:37:50.890,LEFT,12
54.0,15901.09806073881,2769.6940624349195,-64129.94881033288,-62107.71943422788,-37069.719978537556,-34650.165992995026,-29575.47063535102,-22677.901110398903,0.0,0.0,0.0,193.0,1.0,155.0,0.0,43.0,3.0,251.0,411.0,43.0,1019.0,1744252670.890484,0.0,2025-04-09 22:37:50.890,LEFT,12
55.0,15997.054099685443,2799.60069651612,-64121.969237562334,-62153.33934466116,-37037.19819035509,-34611.5198268318,-29807.74996373057,-22651.749569386193,0.0,0.0,0.0,193.0,1.0,154.0,0.0,43.0,3.0,249.0,410.0,43.0,1017.0,1744252670.8904927,0.0,2025-04-09 22:37:50.890,LEFT,12
56.0,15943.141692059244,2816.0068769463155,-64069.97907995929,-62089.94979738591,-36972.40048317915,-34558.859116895095,-29921.721508708182,-22590.729307023204,0.0,0.0,0.0,193.0,1.0,154.0,0.0,43.0,3.0,249.0,410.0,43.0,1017.0,1744252670.8905013,0.0,2025-04-09 22:37:50.890,LEFT,12
57.0,15860.596699785794,2788.469527777377,-64119.19762124987,-62155.08278072868,-37003.96114635005,-34594.42074232349,-29731.37405292679,-22626.112118495956,0.0,0.0,0.0,193.0,1.0,154.0,0.0,43.0,3.0,251.0,410.0,43.0,1019.0,1744252670.89051,0.0,2025-04-09 22:37:50.890,LEFT,12
58.0,15873.314842380863,2762.6309111870423,-64121.81277535114,-62119.58821053365,-37048.552876538386,-34636.35261492165,-29656.71922644606,-22654.34237174301,0.0,0.0,0.0,193.0,1.0,154.0,0.0,43.0,3.0,249.0,410.0,43.0,1017.0,1744252670.8905187,0.0,2025-04-09 22:37:50.890,LEFT,12
59.0,15990.125058904297,2790.749405711819,-64130.418196966435,-62149.45014112594,-37053.82788822983,-34632.70928057543,-29660.116691603267,-22659.57267994555,0.0,0.0,0.0,193.0,1.0,154.0,0.0,44.0,3.0,249.0,410.0,44.0,1017.0,1744252670.8905272,0.0,2025-04-09 22:37:50.890,LEFT,12
60.0,15952.864700897302,2812.31883911119,-64065.03934443466,-62098.06348062319,-36964.93500053108,-34547.28091326725,-30008.111001027944,-22582.436809830288,0.0,0.0,0.0,193.0,1.0,154.0,0.0,44.0,3.0,252.0,410.0,44.0,1020.0,1744252670.8905358,0.0,2025-04-09 22:37:50.890,LEFT,12
61.0,15883.395479130208,2803.2440308623354,-64103.32788268661,-62137.08962644215,-36988.42668395361,-34582.484910784355,-29695.76772400948,-22614.95859801276,0.0,0.0,0.0,193.0,1.0,155.0,0.0,43.0,3.0,252.0,411.0,43.0,1020.0,1744252670.890545,0.0,2025-04-09 22:37:50.890,LEFT,12
62.0,15851.834815959313,2760.149867552503,-64123.422100951924,-62138.073103198185,-37041.132097379224,-34628.52950436229,-29719.304110920923,-22649.11206354047,0.0,0.0,0.0,193.0,1.0,154.0,0.0,44.0,3.0,252.0,410.0,44.0,1020.0,1744252670.8905537,0.0,2025-04-09 22:37:50.890,LEFT,12
63.0,15984.492419301561,2785.2955800647237,-64132.42985396741,-62135.88263224157,-37067.30599013639,-34646.90263830455,-29545.31813208081,-22668.893357383415,0.0,0.0,0.0,193.0,1.0,154.0,0.0,44.0,3.0,250.0,410.0,44.0,1018.0,1744252670.8905623,0.0,2025-04-09 22:37:50.890,LEFT,12
64.0,15968.019183638,2812.6988187669303,-64067.67685028039,-62110.28988484024,-36967.03606450988,-34546.49860221131,-30052.054530627076,-22577.13944639438,0.0,0.0,0.0,193.0,1.0,155.0,0.0,44.0,3.0,251.0,411.0,44.0,1019.0,1744252670.8905709,0.0,2025-04-09 22:37:50.890,LEFT,12
65.0,15895.688938580626,2804.9427634409385,-64103.39493791997,-62126.606658292614,-36991.82414911081,-34585.54709977473,-29684.368334337276,-22614.019824745636,0.0,0.0,0.0,193.0,1.0,154.0,0.0,44.0,3.0,249.0,410.0,44.0,1017.0,1744252670.8905797,0.0,2025-04-09 22:37:50.890,LEFT,12
66.0,15833.931068650612,2756.797105884207,-64133.65919991246,-62158.94963251944,-37037.6899287331,-34632.66457708652,-29775.339934270378,-22659.10329331199,0.0,0.0,0.0,193.0,1.0,155.0,0.0,43.0,3.0,252.0,411.0,43.0,1020.0,1744252670.890588,0.0,2025-04-09 22:37:50.890,LEFT,12
67.0,15962.475951013084,2775.3714055265673,-64142.577545950124,-62132.127539173074,-37084.963868256076,-34673.300048506266,-29494.5126169339,-22691.49097102773,0.0,0.0,0.0,193.0,1.0,155.0,0.0,44.0,3.0,251.0,411.0,44.0,1019.0,1744252670.8905969,0.0,2025-04-09 22:37:50.890,LEFT,12
68.0,15978.457448298628,2809.971905943383,-64075.276443395196,-62126.09256817014,-36974.21097448003,-34555.75222441581,-30069.48889130222,-22586.683641276795,0.0,0.0,0.0,193.0,1.0,154.0,0.0,44.0,3.0,250.0,410.0,44.0,1018.0,1744252670.8906057,0.0,2025-04-09 22:37:50.890,LEFT,12
69.0,15916.543116157427,2816.2080426464136,-64083.948920243856,-62102.846753936625,-36977.65314312615,-34574.01359963579,-29707.815314270894,-22597.546589082074,0.0,0.0,0.0,193.0,1.0,154.0,0.0,44.0,3.0,250.0,410.0,44.0,1018.0,1744252670.8906193,0.0,2025-04-09 22:37:50.890,LEFT,12
70.0,15838.647286730682,2770.4540217463996,-64124.69615038588,-62160.96128952042,-37018.71329769055,-34616.07958270068,-29789.980326888603,-22644.306438482578,0.0,0.0,0.0,193.0,1.0,154.0,0.0,44.0,3.0,252.0,410.0,44.0,1020.0,1744252670.890628,0.0,2025-04-09 22:37:50.890,LEFT,12
71.0,15954.228157309075,2783.3286265526567,-64120.136394516994,-62100.34335855763,-37065.0484639464,-34650.031882528296,-29473.323163190267,-22667.52990097164,0.0,0.0,0.0,193.0,1.0,155.0,0.0,44.0,3.0,252.0,411.0,44.0,1020.0,1744252670.8906364,0.0,2025-04-09 22:37:50.890,LEFT,12
72.0,15990.840314726867,2810.1060164101145,-64082.00431847624,-62130.71937927239,-36983.88927982918,-34556.84745989412,-30005.339384715488,-22594.015013458134,0.0,0.0,0.0,193.0,1.0,154.0,0.0,44.0,3.0,249.0,410.0,44.0,1017.0,1744252670.890645,0.0,2025-04-09 22:37:50.890,LEFT,12
73.0,15925.193241261632,2815.3139728682013,-64070.96255671532,-62084.741840927825,-36967.48309939898,-34557.31684652768,-29758.151442784245,-22584.3814115979,0.0,0.0,0.0,193.0,1.0,154.0,0.0,44.0,3.0,250.0,410.0,44.0,1018.0,1744252670.8906536,0.0,2025-04-09 22:37:50.890,LEFT,12
74.0,15846.112769378755,2783.59684748612,-64105.89833329897,-62148.39960913654,-36992.29353574438,-34582.10493112862,-29767.159195799733,-22613.14810671188,0.0,0.0,0.0,193.0,1.0,154.0,0.0,44.0,3.0,249.0,410.0,44.0,1017.0,1744252670.8906624,0.0,2025-04-09 22:37:50.890,LEFT,12
75.0,15928.300133740919,2785.317931809179,-64103.95373153136,-62088.4075270185,-37049.603408527786,-34634.38566140958,-29489.192901753537,-22652.35306648649,0.0,0.0,0.0,193.0,1.0,155.0,0.0,44.0,3.0,252.0,411.0,44.0,1020.0,1744252670.890671,0.0,2025-04-09 22:37:50.890,LEFT,12
76.0,15993.12019266131,2814.777531001274,-64095.21419944933,-62142.565803833706,-37004.363477750245,-34578.2604310823,-29885.399923968307,-22630.783633087118,0.0,0.0,0.0,193.0,1.0,155.0,0.0,44.0,3.0,251.0,411.0,44.0,1019.0,1744252670.89068,0.0,2025-04-09 22:37:50.890,LEFT,12
77.0,15932.546965187428,2811.6929902664415,-64065.30756536813,-62082.707832182394,-36967.68426509908,-34547.12445105606,-29834.795574521493,-22579.79930398456,0.0,0.0,0.0,193.0,1.0,154.0,0.0,44.0,3.0,249.0,410.0,44.0,1017.0,1744252670.8906884,0.0,2025-04-09 22:37:50.890,LEFT,12
78.0,15854.382914827218,2785.094414364626,-64111.15099324596,-62150.61243183762,-36997.367381735734,-34570.817300178685,-29739.13010825278,-22593.299757635566,0.0,0.0,0.0,193.0,1.0,155.0,0.0,44.0,3.0,253.0,411.0,44.0,1021.0,1744252670.8906972,0.0,2025-04-09 22:37:50.890,LEFT,12
79.0,15888.469325121561,2763.1673530539697,-64118.39295844948,-62107.33945457214,-37054.87842021923,-34632.95514976444,-29573.973068472515,-22650.34140948551,0.0,0.0,0.0,193.0,1.0,155.0,0.0,44.0,3.0,251.0,411.0,44.0,1019.0,1744252670.8907056,0.0,2025-04-09 22:37:50.890,LEFT,12
80.0,15986.615835024815,2788.178955099458,-64119.17526950542,-62152.04294348275,-37036.14765836569,-34610.71516403141,-29758.352608484343,-22647.39097921741,0.0,0.0,0.0,193.0,1.0,154.0,0.0,44.0,3.0,250.0,410.0,44.0,1018.0,1744252670.8907144,0.0,2025-04-09 22:37:50.890,LEFT,12
81.0,15943.231099037064,2810.284830365757,-64057.39504783095,-62086.082945595146,-36958.47534638349,-34546.92328535596,-29934.998444914636,-22570.65744050234,0.0,0.0,0.0,193.0,1.0,155.0,0.0,44.0,3.0,252.0,411.0,44.0,1020.0,1744252670.890723,0.0,2025-04-09 22:37:50.890,LEFT,12
82.0,15867.481037078029,2798.483109293355,-64101.71855708582,-62143.48222535637,-36984.73864611848,-34580.78617820575,-29700.68510778965,-22596.317243137033,0.0,0.0,0.0,193.0,1.0,155.0,0.0,44.0,3.0,251.0,411.0,44.0,1019.0,1744252670.890732,0.0,2025-04-09 22:37:50.890,LEFT,12
83.0,15871.169074913154,2769.7164141793746,-64107.46295541084,-62116.63778026555,-37033.06311763085,-34631.502286374845,-29651.95830487708,-22643.792348360104,0.0,0.0,0.0,193.0,1.0,154.0,0.0,44.0,3.0,249.0,410.0,44.0,1017.0,1744252670.8907406,0.0,2025-04-09 22:37:50.890,LEFT,12
84.0,16000.45156484265,2798.3937023155336,-64112.60385663556,-62135.03326595227,-37041.02033865695,-34627.68013807299,-29614.608539892262,-22654.074150809545,0.0,0.0,0.0,193.0,1.0,154.0,0.0,44.0,3.0,250.0,410.0,44.0,1018.0,1744252670.890754,0.0,2025-04-09 22:37:50.890,LEFT,12
85.0,15960.374887034284,2813.4364263339553,-64051.33772508356,-62094.12957359906,-36953.08857596977,-34543.14584054302,-30001.964271302735,-22575.23954811568,0.0,0.0,0.0,193.0,1.0,154.0,0.0,44.0,3.0,252.0,410.0,44.0,1020.0,1744252670.8907623,0.0,2025-04-09 22:37:50.890,LEFT,12
86.0,15885.541246597917,2801.2323738613577,-64092.86726628152,-62131.859318239614,-36980.581221649794,-34580.09327412764,-29677.707514489593,-22610.510600866153,0.0,0.0,0.0,193.0,1.0,155.0,0.0,44.0,3.0,251.0,411.0,44.0,1019.0,1744252670.8907712,0.0,2025-04-09 22:37:50.890,LEFT,12
87.0,15848.772626968936,2758.473486718355,-64109.228743222804,-62135.8155770082,-37023.74244019299,-34620.32641414719,-29719.773497554484,-22636.460976178765,0.0,0.0,0.0,193.0,1.0,154.0,0.0,44.0,3.0,249.0,410.0,44.0,1017.0,1744252670.89078,0.0,2025-04-09 22:37:50.890,LEFT,12
88.0,15968.82384643839,2772.9127136364837,-64133.010999323255,-62140.44238811045,-37067.57421106985,-34660.648961144565,-29511.142314808647,-22673.028430107646,0.0,0.0,0.0,193.0,1.0,155.0,0.0,44.0,3.0,250.0,411.0,44.0,1018.0,1744252670.8907883,0.0,2025-04-09 22:37:50.890,LEFT,12
89.0,15955.77042767649,2800.472414549877,-64070.76139101522,-62120.99637043433,-36967.594858121265,-34557.36155001659,-30059.117681874955,-22585.588405798484,0.0,0.0,0.0,193.0,1.0,155.0,0.0,44.0,3.0,252.0,411.0,44.0,1020.0,1744252670.8907971,0.0,2025-04-09 22:37:50.890,LEFT,12
90.0,15900.829839805347,2809.2342983763574,-64085.42413537791,-62108.61350400609,-36973.40631167964,-34570.191451333936,-29697.153532165714,-22587.689469777284,0.0,0.0,0.0,193.0,1.0,154.0,0.0,44.0,3.0,250.0,410.0,44.0,1018.0,1744252670.8908062,0.0,2025-04-09 22:37:50.890,LEFT,12
91.0,15842.178862354622,2766.8553908890954,-64111.03923452368,-62136.91081248651,-37010.778428408914,-34608.68115528597,-29782.22427156261,-22625.598028373486,0.0,0.0,0.0,193.0,1.0,154.0,0.0,44.0,3.0,249.0,410.0,44.0,1017.0,1744252670.8908193,0.0,2025-04-09 22:37:50.890,LEFT,12
92.0,15956.77625617698,2770.923408379961,-64131.60283942257,-62110.893381940536,-37072.33513263883,-34667.75681588135,-29473.703142846007,-22680.516264500173,0.0,0.0,0.0,193.0,1.0,155.0,0.0,44.0,3.0,250.0,411.0,44.0,1018.0,1744252670.890828,0.0,2025-04-09 22:37:50.890,LEFT,12
93.0,15975.30585233043,2808.4966908093324,-64076.952824229345,-62113.01679766379,-36971.21584072302,-34556.73570117184,-30050.71342595976,-22579.776952240107,0.0,0.0,0.0,193.0,1.0,155.0,0.0,44.0,3.0,252.0,411.0,44.0,1020.0,1744252670.8908365,0.0,2025-04-09 22:37:50.890,LEFT,12
94.0,15914.86673532328,2817.2809263802683,-64081.713745798326,-62074.951776856404,-36964.48796564197,-34565.497584998324,-29705.40132586972,-22568.310507334532,0.0,0.0,0.0,193.0,1.0,154.0,0.0,44.0,3.0,250.0,410.0,44.0,1018.0,1744252670.8908453,0.0,2025-04-09 22:37:50.890,LEFT,12
95.0,15839.362542553252,2770.856353146595,-64117.92357181592,-62125.48907106985,-36998.909652103146,-34597.79585573624,-29773.775312158505,-22604.22976067421,0.0,0.0,0.0,193.0,1.0,154.0,0.0,44.0,3.0,250.0,410.0,44.0,1018.0,1744252670.890854,0.0,2025-04-09 22:37:50.890,LEFT,12
96.0,15942.784064147958,2777.405414272,-64120.158746261455,-62066.56987268566,-37055.168992897154,-34648.1766877385,-29466.081197986747,-22644.686418138317,0.0,0.0,0.0,193.0,1.0,154.0,0.0,44.0,3.0,250.0,410.0,44.0,1018.0,1744252670.8908625,0.0,2025-04-09 22:37:50.890,LEFT,12
97.0,15995.377718851296,2816.900946724528,-64081.51258009823,-62092.40848927599,-36974.09921575776,-34557.741529672334,-29971.58825058797,-22573.384353325888,0.0,0.0,0.0,193.0,1.0,155.0,0.0,44.0,3.0,252.0,411.0,44.0,1020.0,1744252670.8908713,0.0,2025-04-09 22:37:50.890,LEFT,12
98.0,15939.766578646491,2828.412095119011,-64059.00437343173,-62027.74489256679,-36947.92532300059,-34542.63175042054,-29761.481852708086,-22540.54964072104,0.0,0.0,0.0,193.0,1.0,155.0,0.0,44.0,3.0,252.0,411.0,44.0,1020.0,1744252670.8908846,0.0,2025-04-09 22:37:50.890,LEFT,12
99.0,15858.205063129077,2793.051635390715,-64103.26082745324,-62094.464849765885,-36978.30134371536,-34573.208936835406,-29749.635428146772,-22571.439751558275,0.0,0.0,0.0,193.0,1.0,154.0,0.0,44.0,3.0,250.0,410.0,44.0,1018.0,1744252670.8908932,0.0,2025-04-09 22:37:50.890,LEFT,12
100.0,15925.170889517176,2782.4122050299893,-64106.2783129547,-62037.534956638214,-37036.1923618546,-34630.652920085544,-29498.759448380406,-22620.23360970421,0.0,0.0,0.0,193.0,1.0,155.0,0.0,44.0,3.0,250.0,411.0,44.0,1018.0,1744252670.8909023,0.0,2025-04-09 22:37:50.890,LEFT,12
101.0,16007.425309112707,2817.79501650274,-64093.60487384855,-62080.13738157003,-36994.081675300804,-34574.32652405817,-29841.85872576937,-22586.61658604343,0.0,0.0,0.0,193.0,1.0,155.0,0.0,44.0,3.0,252.0,411.0,44.0,1020.0,1744252670.890911,0.0,2025-04-09 22:37:50.890,LEFT,12
102.0,15951.68005844117,2830.088475953159,-64055.11516989651,-62014.199735426875,-36952.485078869475,-34533.35577647159,-29842.23870542511,-22532.815937139505,0.0,0.0,0.0,193.0,1.0,155.0,0.0,44.0,3.0,249.0,411.0,44.0,1017.0,1744252670.8909197,0.0,2025-04-09 22:37:50.890,LEFT,12
103.0,15869.537397567916,2806.9097169530055,-64103.28317919769,-62081.523189726264,-36982.615230395226,-34568.51507049979,-29716.085459719357,-22570.880957946894,0.0,0.0,0.0,193.0,1.0,154.0,0.0,44.0,3.0,250.0,410.0,44.0,1018.0,1744252670.8909285,0.0,2025-04-09 22:37:50.890,LEFT,12
104.0,15890.749203056002,2777.114841594081,-64117.11890901553,-62045.939212553414,-37046.18359162612,-34633.98333000938,-29581.125626698213,-22633.219973232746,0.0,0.0,0.0,193.0,1.0,155.0,0.0,44.0,3.0,252.0,411.0,44.0,1020.0,1744252670.8909369,0.0,2025-04-09 22:37:50.890,LEFT,12
105.0,16001.233875898586,2806.440330319444,-64117.20831599335,-62079.980919358844,-37028.32454780633,-34606.244815140344,-29710.475171861075,-22621.90999053836,0.0,0.0,0.0,193.0,1.0,155.0,0.0,44.0,3.0,251.0,411.0,44.0,1019.0,1744252670.8909457,0.0,2025-04-09 22:37:50.890,LEFT,12
106.0,15961.268956812497,2828.0097637188155,-64051.091855894556,-62011.204601669866,-36945.10900319922,-34526.694956623905,-29940.385215328362,-22545.55643147903,0.0,0.0,0.0,193.0,1.0,154.0,0.0,44.0,3.0,250.0,410.0,44.0,1018.0,1744252670.8909545,0.0,2025-04-09 22:37:50.890,LEFT,12
107.0,15885.608301831282,2814.1069786676144,-64095.43771689388,-62065.11700929607,-36975.060340769334,-34558.52384072827,-29690.179787895657,-22576.670059760818,0.0,0.0,0.0,193.0,1.0,154.0,0.0,44.0,3.0,250.0,410.0,44.0,1018.0,1744252670.8909633,0.0,2025-04-09 22:37:50.890,LEFT,12
108.0,15870.163246412665,2772.9797688698495,-64115.30841771465,-62058.165616770464,-37032.526675763926,-34617.599501323646,-29669.996162652515,-22632.01297903216,0.0,0.0,0.0,193.0,1.0,155.0,0.0,44.0,3.0,252.0,411.0,44.0,1020.0,1744252670.890972,0.0,2025-04-09 22:37:50.890,LEFT,12
109.0,16005.413652111729,2807.5579175422095,-64116.56011540415,-62068.38036398654,-37042.07087064634,-34617.80066702374,-29600.95162403007,-22642.92063032635,0.0,0.0,0.0,193.0,1.0,155.0,0.0,44.0,3.0,251.0,411.0,44.0,1019.0,1744252670.8909805,0.0,2025-04-09 22:37:50.890,LEFT,12
110.0,15969.516750516505,2825.4393131064553,-64057.46210306432,-62036.931459537926,-36953.602666092236,-34537.15557302899,-30030.37333850543,-22574.05490565955,0.0,0.0,0.0,193.0,1.0,155.0,0.0,44.0,3.0,249.0,411.0,44.0,1017.0,1744252670.890989,0.0,2025-04-09 22:37:50.890,LEFT,12
111.0,15893.72198506856,2812.184728644458,-64100.086879740586,-62072.11310531058,-36978.52486115991,-34569.342085044635,-29675.15941562169,-22580.961594696237,0.0,0.0,0.0,193.0,1.0,155.0,0.0,44.0,3.0,250.0,411.0,44.0,1018.0,1744252670.8909976,0.0,2025-04-09 22:37:50.890,LEFT,12
112.0,15851.343077581298,2771.3480915246123,-64114.57081014763,-62080.38325075904,-37015.62875695572,-34605.55191106223,-29728.155401725224,-22612.008167744658,0.0,0.0,0.0,193.0,1.0,155.0,0.0,44.0,3.0,252.0,411.0,44.0,1020.0,1744252670.8910065,0.0,2025-04-09 22:37:50.891,LEFT,12
113.0,15981.96667217811,2791.442309789933,-64125.97019981983,-62068.872102364556,-37056.308931864376,-34641.560571379734,-29494.087933789247,-22654.63294442093,0.0,0.0,0.0,193.0,1.0,154.0,0.0,44.0,3.0,250.0,410.0,44.0,1018.0,1744252670.89102,0.0,2025-04-09 22:37:50.891,LEFT,12
114.0,15977.675137242692,2827.518025340799,-64059.674925765394,-62051.817721345156,-36952.060395724824,-34535.27802649475,-30057.597763251993,-22572.1773591253,0.0,0.0,0.0,193.0,1.0,154.0,0.0,44.0,3.0,250.0,410.0,44.0,1018.0,1744252670.891029,0.0,2025-04-09 22:37:50.891,LEFT,12
115.0,15899.891066538225,2818.5773275586757,-64094.92362677141,-62061.56308192767,-36976.98259079249,-34572.44897752392,-29678.646287756717,-22591.824542501516,0.0,0.0,0.0,193.0,1.0,155.0,0.0,44.0,3.0,252.0,411.0,44.0,1020.0,1744252670.8910375,0.0,2025-04-09 22:37:50.891,LEFT,12
116.0,15836.635629729704,2768.799992656707,-64119.91287707244,-62097.66114922299,-37009.30321327486,-34601.70741101592,-29767.472120222108,-22607.604874086963,0.0,0.0,0.0,193.0,1.0,155.0,0.0,44.0,3.0,251.0,411.0,44.0,1019.0,1744252670.8910463,0.0,2025-04-09 22:37:50.891,LEFT,12
117.0,15955.144578831743,2771.4374985024333,-64130.149976032975,-62064.13353254003,-37066.367216869265,-34658.63730414359,-29455.665285070576,-22664.04302883661,0.0,0.0,0.0,193.0,1.0,155.0,0.0,44.0,3.0,249.0,411.0,44.0,1017.0,1744252670.891055,0.0,2025-04-09 22:37:50.891,LEFT,12
118.0,15981.810209966925,2807.4685105643885,-64076.61754806252,-62078.99744260281,-36966.90195404315,-34556.28866628274,-30032.18382980631,-22578.65936501734,0.0,0.0,0.0,193.0,1.0,154.0,0.0,44.0,3.0,249.0,410.0,44.0,1017.0,1744252670.8910637,0.0,2025-04-09 22:37:50.891,LEFT,12
119.0,15920.141747014732,2812.162376900003,-64076.237568406774,-62042.67585786294,-36961.783404562884,-34557.92034362797,-29711.950386995126,-22562.163777609323,0.0,0.0,0.0,193.0,1.0,154.0,0.0,44.0,3.0,252.0,410.0,44.0,1020.0,1744252670.8910725,0.0,2025-04-09 22:37:50.891,LEFT,12
120.0,15837.015609385446,2769.6270072015536,-64118.86234508304,-62108.05471039471,-37000.8319021263,-34590.71035274391,-29776.837501148882,-22606.174362441823,0.0,0.0,0.0,193.0,1.0,154.0,0.0,44.0,3.0,251.0,410.0,44.0,1019.0,1744252670.891081,0.0,2025-04-09 22:37:50.891,LEFT,12
121.0,15934.156290788209,2771.8174781581733,-64122.4833276848,-62054.18700625742,-37057.0465394314,-34647.081452260194,-29473.36786667918,-22656.04110432161,0.0,0.0,0.0,193.0,1.0,154.0,0.0,44.0,3.0,249.0,410.0,44.0,1017.0,1744252670.8910902,0.0,2025-04-09 22:37:50.891,LEFT,12
122.0,16006.173611423208,2822.5559380717204,-64074.18120791689,-62074.392983245016,-36967.19252672107,-34547.325616756156,-29950.68936952226,-22584.403763342354,0.0,0.0,0.0,193.0,1.0,154.0,0.0,44.0,3.0,252.0,410.0,44.0,1020.0,1744252670.8910987,0.0,2025-04-09 22:37:50.891,LEFT,12
123.0,15944.460444982105,2828.188577674458,-64050.60011751654,-62012.94803773738,-36942.85147700924,-34531.5005816818,-29775.004658103546,-22554.56418449452,0.0,0.0,0.0,193.0,1.0,154.0,0.0,44.0,3.0,250.0,410.0,44.0,1018.0,1744252670.8911076,0.0,2025-04-09 22:37:50.891,LEFT,12
124.0,15855.433446816618,2787.709568465897,-64102.92555128641,-62092.45319276491,-36979.03895128238,-34573.92419265797,-29743.30988446592,-22597.971272226725,0.0,0.0,0.0,193.0,1.0,154.0,0.0,44.0,3.0,250.0,410.0,44.0,1018.0,1744252670.8911164,0.0,2025-04-09 22:37:50.891,LEFT,12
125.0,15906.015444518978,2766.542466466721,-64114.97314154782,-62047.548538154195,-37044.37310032524,-34642.38758592458,-29522.87698064768,-22655.325848499044,0.0,0.0,0.0,193.0,1.0,155.0,0.0,44.0,3.0,252.0,411.0,44.0,1020.0,1744252671.1679003,0.0,2025-04-09 22:37:51.167,LEFT,12
126.0,16002.195000910164,2808.2284698758685,-64094.96833026032,-62080.62911994805,-36994.84163461228,-34581.233213094856,-29827.15127791778,-22614.869191034937,0.0,0.0,0.0,193.0,1.0,154.0,0.0,44.0,3.0,251.0,410.0,44.0,1019.0,1744252671.167937,0.0,2025-04-09 22:37:51.167,LEFT,12
127.0,15957.245642810542,2833.508292854821,-64043.76048371321,-62006.22016265633,-36935.900084483634,-34526.38203220154,-29879.409656454285,-22553.08896936047,0.0,0.0,0.0,193.0,1.0,154.0,0.0,44.0,3.0,249.0,410.0,44.0,1017.0,1744252671.1679568,0.0,2025-04-09 22:37:51.167,LEFT,12
128.0,15869.47034233455,2804.2275076183687,-64099.90806578494,-62080.539712970225,-36972.40048317915,-34569.409140278,-29716.0631079749,-22592.785667513093,0.0,0.0,0.0,193.0,1.0,154.0,0.0,44.0,3.0,252.0,410.0,44.0,1020.0,1744252671.167997,0.0,2025-04-09 22:37:51.167,LEFT,12
129.0,15874.030098203433,2764.083774576637,-64118.460013682845,-62057.98680281482,-37037.645225244196,-34636.5761323662,-29607.09835375528,-22646.943944328304,0.0,0.0,0.0,193.0,1.0,155.0,0.0,44.0,3.0,251.0,411.0,44.0,1019.0,1744252671.1680064,0.0,2025-04-09 22:37:51.168,LEFT,12
130.0,15996.830582240891,2801.5900017726426,-64110.81571707913,-62081.14321007052,-37017.30513778987,-34607.67532678549,-29681.64142151373,-22624.905124295372,0.0,0.0,0.0,193.0,1.0,154.0,0.0,44.0,3.0,249.0,410.0,44.0,1017.0,1744252671.1680157,0.0,2025-04-09 22:37:51.168,LEFT,12
131.0,15953.937584631156,2815.448083334933,-64053.84112046256,-62030.136529223506,-36943.00793922042,-34539.904837596994,-29960.345323126952,-22563.482530532187,0.0,0.0,0.0,193.0,1.0,154.0,0.0,44.0,3.0,252.0,410.0,44.0,1020.0,1744252671.1680248,0.0,2025-04-09 22:37:51.168,LEFT,12
132.0,15880.534455839928,2806.775606486274,-64095.14714421596,-62074.527093711746,-36969.31594244432,-34567.531593743755,-29682.893119203225,-22588.829408744503,0.0,0.0,0.0,193.0,1.0,155.0,0.0,44.0,3.0,252.0,411.0,44.0,1020.0,1744252671.1680336,0.0,2025-04-09 22:37:51.168,LEFT,12
133.0,15852.550071781883,2761.1780477974476,-64118.97410380532,-62073.16363729998,-37029.48683851801,-34622.87451301509,-29685.97765993806,-22628.615513874953,0.0,0.0,0.0,193.0,1.0,154.0,0.0,44.0,3.0,250.0,410.0,44.0,1018.0,1744252671.1680424,0.0,2025-04-09 22:37:51.168,LEFT,12
134.0,15986.459372813628,2791.93404816795,-64121.969237562334,-62077.83515189114,-37040.10391713428,-34627.791896795265,-29567.26754513592,-22629.800156331083,0.0,0.0,0.0,193.0,1.0,155.0,0.0,44.0,3.0,250.0,411.0,44.0,1018.0,1744252671.1680515,0.0,2025-04-09 22:37:51.168,LEFT,12
135.0,15963.571186491394,2818.756141514318,-64050.48835879426,-62039.636020617014,-36938.582293818276,-34526.82906709064,-30031.04389083909,-22542.98598086667,0.0,0.0,0.0,193.0,1.0,155.0,0.0,44.0,3.0,252.0,411.0,44.0,1020.0,1744252671.1680603,0.0,2025-04-09 22:37:51.168,LEFT,12
136.0,15889.877485022245,2806.4850338083547,-64087.97223424581,-62063.23946276182,-36965.44909065355,-34558.68030293945,-29666.64340098422,-22573.540815537075,0.0,0.0,0.0,193.0,1.0,154.0,0.0,44.0,3.0,249.0,410.0,44.0,1017.0,1744252671.1680691,0.0,2025-04-09 22:37:51.168,LEFT,12
137.0,15824.900963890668,2747.074097046149,-64126.61840040903,-62098.89049516803,-37022.13311459221,-34616.79483852325,-29740.940599553658,-22633.465842421752,0.0,0.0,0.0,193.0,1.0,154.0,0.0,44.0,3.0,250.0,410.0,44.0,1018.0,1744252671.168078,0.0,2025-04-09 22:37:51.168,LEFT,12
138.0,15962.006564379522,2767.056556589193,-64133.88271735701,-62080.6514716925,-37058.99114119901,-34653.161126752035,-29483.69437261753,-22666.926403871348,0.0,0.0,0.0,193.0,1.0,155.0,0.0,44.0,3.0,252.0,411.0,44.0,1020.0,1744252671.1680868,0.0,2025-04-09 22:37:51.168,LEFT,12
139.0,15972.73540171807,2809.927202454472,-64061.574824044095,-62064.468808706864,-36945.06429971031,-34534.98745381683,-30052.121585860445,-22566.947050922758,0.0,0.0,0.0,193.0,1.0,154.0,0.0,45.0,3.0,249.0,410.0,45.0,1017.0,1744252671.168096,0.0,2025-04-09 22:37:51.168,LEFT,12
140.0,15906.708348597092,2813.503481567321,-64077.846894007555,-62048.57671839914,-36958.47534638349,-34558.41208200599,-29680.747351735517,-22592.71861227973,0.0,0.0,0.0,193.0,1.0,155.0,0.0,44.0,3.0,251.0,411.0,44.0,1019.0,1744252671.168105,0.0,2025-04-09 22:37:51.168,LEFT,12
141.0,15828.767815681436,2763.9273123654502,-64116.29189447068,-62099.695157968425,-37006.35278300676,-34598.42170458099,-29780.816111661927,-22638.450281435285,0.0,0.0,0.0,193.0,1.0,155.0,0.0,44.0,3.0,251.0,411.0,44.0,1019.0,1744252671.1681137,0.0,2025-04-09 22:37:51.168,LEFT,12
142.0,15944.549851959928,2775.192591570925,-64122.28216198471,-62056.66804989196,-37062.790937756414,-34645.31566444822,-29459.867413028172,-22666.166444559865,0.0,0.0,0.0,193.0,1.0,154.0,0.0,44.0,3.0,249.0,410.0,44.0,1017.0,1744252671.1681225,0.0,2025-04-09 22:37:51.168,LEFT,12
143.0,15978.949186676646,2813.347019356134,-64077.712783540825,-62077.81280014668,-36972.46753841252,-34542.4529364649,-30013.408364463852,-22579.464027817732,0.0,0.0,0.0,193.0,1.0,155.0,0.0,44.0,3.0,251.0,411.0,44.0,1019.0,1744252671.168137,0.0,2025-04-09 22:37:51.168,LEFT,12
144.0,15934.715084399591,2835.60935683362,-64063.49707406725,-62027.43196814442,-36954.56379110382,-34537.78142187374,-29734.1680209837,-22563.840158443472,0.0,0.0,0.0,193.0,1.0,155.0,0.0,44.0,3.0,251.0,411.0,44.0,1019.0,1744252671.168146,0.0,2025-04-09 22:37:51.168,LEFT,12
145.0,15843.117635621744,2781.3616730405897,-64107.909990299944,-62100.83509693565,-36992.74057063348,-34580.92028867248,-29772.635373191282,-22612.85753403396,0.0,0.0,0.0,193.0,1.0,154.0,0.0,44.0,3.0,249.0,410.0,44.0,1017.0,1744252671.1681545,0.0,2025-04-09 22:37:51.168,LEFT,12
146.0,15914.263238222986,2761.5356757087325,-64119.04115903869,-62056.51158768077,-37061.20396390009,-34649.92012380602,-29483.157930750604,-22676.269433053665,0.0,0.0,0.0,193.0,1.0,155.0,0.0,44.0,3.0,252.0,411.0,44.0,1020.0,1744252671.1681633,0.0,2025-04-09 22:37:51.168,LEFT,12
147.0,15979.060945398922,2799.868917449584,-64090.54268485817,-62095.40362303301,-36994.19343402308,-34572.27016356828,-29935.289017592553,-22629.66604586435,0.0,0.0,0.0,193.0,1.0,154.0,0.0,44.0,3.0,250.0,410.0,44.0,1018.0,1744252671.1681721,0.0,2025-04-09 22:37:51.168,LEFT,12
148.0,15922.712197627092,2812.1400251555474,-64064.212329889815,-62035.74681708179,-36965.53849763137,-34549.98547434634,-29815.684833012205,-22579.911062706837,0.0,0.0,0.0,193.0,1.0,154.0,0.0,44.0,3.0,250.0,410.0,44.0,1018.0,1744252671.1681812,0.0,2025-04-09 22:37:51.168,LEFT,12
149.0,15833.595792483782,2773.2032863144027,-64114.21318223634,-62109.842849951136,-37000.004887581454,-34579.26625958279,-29750.59655315835,-22597.501885593163,0.0,0.0,0.0,193.0,1.0,155.0,0.0,44.0,3.0,249.0,411.0,44.0,1017.0,1744252671.16819,0.0,2025-04-09 22:37:51.168,LEFT,12
150.0,15877.025231960444,2749.3986784695007,-64124.9867230638,-62066.86044536358,-37062.00862670048,-34642.85697255814,-29547.352140826246,-22655.661124665872,0.0,0.0,0.0,193.0,1.0,154.0,0.0,44.0,3.0,249.0,410.0,44.0,1017.0,1744252671.1681988,0.0,2025-04-09 22:37:51.168,LEFT,12
151.0,15982.9725006786,2788.067196377182,-64111.0839380126,-62102.82440219217,-37022.02135586993,-34591.3138498442,-29792.394315289774,-22624.212220217254,0.0,0.0,0.0,193.0,1.0,155.0,0.0,44.0,3.0,252.0,411.0,44.0,1020.0,1744252671.168208,0.0,2025-04-09 22:37:51.168,LEFT,12
152.0,15925.506165684006,2793.096338879626,-64061.30660311063,-62039.23368921682,-36960.866983040214,-34538.228456762845,-29890.406714726298,-22569.383391068386,0.0,0.0,0.0,193.0,1.0,154.0,0.0,44.0,3.0,252.0,410.0,44.0,1020.0,1744252671.1682167,0.0,2025-04-09 22:37:51.168,LEFT,12
153.0,15849.823158958336,2784.6250277310646,-64108.11115600004,-62104.0090446483,-36990.21482351003,-34573.87948916906,-29709.514046849497,-22610.890580521893,0.0,0.0,0.0,193.0,1.0,154.0,0.0,44.0,3.0,249.0,410.0,44.0,1017.0,1744252671.1682255,0.0,2025-04-09 22:37:51.168,LEFT,12
154.0,15870.722040024048,2762.697966420408,-64102.053833252656,-62060.46784644936,-37029.0398036289,-34617.39833562355,-29637.854354125782,-22652.35306648649,0.0,0.0,0.0,193.0,1.0,154.0,0.0,44.0,3.0,250.0,410.0,44.0,1018.0,1744252671.1682343,0.0,2025-04-09 22:37:51.168,LEFT,12
155.0,15981.005547166533,2778.8806294060505,-64115.64369388148,-62093.23550382084,-37036.035899643415,-34614.313794888716,-29647.778528663937,-22657.382208988933,0.0,0.0,0.0,193.0,1.0,155.0,0.0,44.0,3.0,252.0,411.0,44.0,1020.0,1744252671.168243,0.0,2025-04-09 22:37:51.168,LEFT,12
156.0,15947.813206650402,2806.9097169530055,-64048.49905353774,-62034.85274730358,-36949.221724179,-34522.78340134423,-29984.038172249577,-22562.61081249843,0.0,0.0,0.0,193.0,1.0,155.0,0.0,44.0,3.0,251.0,411.0,44.0,1019.0,1744252671.1682518,0.0,2025-04-09 22:37:51.168,LEFT,12
157.0,15876.086458693322,2798.281943593257,-64094.49894362676,-62078.84098039162,-36979.7765588494,-34561.653084952006,-29678.467473801076,-22595.557283825554,0.0,0.0,0.0,193.0,1.0,154.0,0.0,44.0,3.0,249.0,410.0,44.0,1017.0,1744252671.1682603,0.0,2025-04-09 22:37:51.168,LEFT,12
158.0,15843.162339110655,2752.706736648886,-64115.55428690366,-62081.09850658161,-37030.31385306286,-34616.41485886751,-29699.25459614451,-22649.29087749611,0.0,0.0,0.0,193.0,1.0,155.0,0.0,44.0,3.0,252.0,411.0,44.0,1020.0,1744252671.168274,0.0,2025-04-09 22:37:51.168,LEFT,12
159.0,15973.920044174201,2777.0477863607152,-64128.09361554308,-62083.825419405155,-37059.90756272168,-34632.977501508896,-29536.89152442116,-22658.76801714516,0.0,0.0,0.0,193.0,1.0,155.0,0.0,44.0,3.0,251.0,411.0,44.0,1019.0,1744252671.1682827,0.0,2025-04-09 22:37:51.168,LEFT,12
160.0,15956.709200943615,2807.4014553310226,-64061.88774846646,-62056.86921559206,-36957.76009056093,-34533.78045961624,-30040.09634734349,-22573.831388214992,0.0,0.0,0.0,193.0,1.0,154.0,0.0,45.0,3.0,249.0,410.0,45.0,1017.0,1744252671.1682923,0.0,2025-04-09 22:37:51.168,LEFT,12
161.0,15886.949406498601,2802.998161673327,-64092.15201045895,-62071.33079425464,-36977.228459981496,-34565.34112278713,-29670.398494052708,-22602.17340018432,0.0,0.0,0.0,193.0,1.0,155.0,0.0,44.0,3.0,252.0,411.0,44.0,1020.0,1744252671.168301,0.0,2025-04-09 22:37:51.168,LEFT,12
162.0,15827.694931947583,2752.4385157154225,-64119.510545672245,-62102.80205044771,-37023.51892274844,-34608.81526575271,-29756.922096839204,-22641.132490769924,0.0,0.0,0.0,193.0,1.0,155.0,0.0,44.0,3.0,252.0,411.0,44.0,1020.0,1744252671.1683097,0.0,2025-04-09 22:37:51.168,LEFT,12
163.0,15956.910366643711,2767.5259432227544,-64127.87009809853,-62077.72339316886,-37069.85408900429,-34647.55083889375,-29463.68956133003,-22669.474502739253,0.0,0.0,0.0,193.0,1.0,155.0,0.0,44.0,3.0,251.0,411.0,44.0,1019.0,1744252671.1683185,0.0,2025-04-09 22:37:51.168,LEFT,12
164.0,15963.817055680402,2797.611391259598,-64068.50386482524,-62080.472657736864,-36967.48309939898,-34546.006863833296,-30043.225591567232,-22589.723478522716,0.0,0.0,0.0,193.0,1.0,155.0,0.0,45.0,3.0,251.0,411.0,45.0,1019.0,1744252671.168327,0.0,2025-04-09 22:37:51.168,LEFT,12
165.0,15901.43333690564,2800.0477314052264,-64081.132600442485,-62061.876006350045,-36973.674532613106,-34569.52089900028,-29688.481055317054,-22604.05094671857,0.0,0.0,0.0,193.0,1.0,155.0,0.0,44.0,3.0,252.0,411.0,44.0,1020.0,1744252671.168336,0.0,2025-04-09 22:37:51.168,LEFT,12
166.0,15820.810594655348,2749.5551406806876,-64123.35504571856,-62121.48810881235,-37017.10397208977,-34610.53635007577,-29776.74809417106,-22646.161633272368,0.0,0.0,0.0,193.0,1.0,155.0,0.0,44.0,3.0,253.0,411.0,44.0,1021.0,1744252671.1683445,0.0,2025-04-09 22:37:51.168,LEFT,12
167.0,15931.831709364858,2763.033242587238,-64128.473595198826,-62072.157808799486,-37069.11648143727,-34653.6305133856,-29463.93543051904,-22676.112970842478,0.0,0.0,0.0,193.0,1.0,155.0,0.0,44.0,3.0,251.0,411.0,44.0,1019.0,1744252671.1683533,0.0,2025-04-09 22:37:51.168,LEFT,12
168.0,15982.704279745136,2806.730902997363,-64075.16468467292,-62088.13930608503,-36968.69009359957,-34540.91066609749,-30001.36077420244,-22582.079181919,0.0,0.0,0.0,193.0,1.0,154.0,0.0,45.0,3.0,249.0,410.0,45.0,1017.0,1744252671.1683626,0.0,2025-04-09 22:37:51.168,LEFT,12
169.0,15914.017369033978,2802.8193477176846,-64072.99656546075,-62049.38138119953,-36964.95735227554,-34547.21385803388,-29742.058186776423,-22581.676850518805,0.0,0.0,0.0,193.0,1.0,155.0,0.0,44.0,3.0,252.0,411.0,44.0,1020.0,1744252671.1683714,0.0,2025-04-09 22:37:51.168,LEFT,12
170.0,15834.735731451005,2768.6211787010648,-64114.146127002976,-62118.58238203316,-36994.75222763446,-34579.37801830507,-29773.3282772694,-22623.9887027727,0.0,0.0,0.0,193.0,1.0,155.0,0.0,44.0,3.0,251.0,411.0,44.0,1019.0,1744252671.16838,0.0,2025-04-09 22:37:51.168,LEFT,12
171.0,15913.279761466953,2763.5920361986205,-64117.94592356038,-62064.13353254003,-37053.13498415172,-34640.375928923604,-29500.30171874782,-22674.838921408525,0.0,0.0,0.0,193.0,1.0,154.0,0.0,44.0,3.0,249.0,410.0,44.0,1017.0,1744252671.1683888,0.0,2025-04-09 22:37:51.168,LEFT,12
172.0,15980.156180877231,2794.3703883135786,-64100.13158322949,-62109.61933250658,-36996.316849746334,-34572.426625779466,-29893.938290350234,-22620.792403315594,0.0,0.0,0.0,193.0,1.0,155.0,0.0,44.0,3.0,252.0,411.0,44.0,1020.0,1744252671.168402,0.0,2025-04-09 22:37:51.168,LEFT,12
173.0,15919.895877825724,2798.4607575488994,-64069.889672981466,-62049.60489864408,-36960.71052082903,-34546.07391906666,-29827.37479536233,-22583.353231352954,0.0,0.0,0.0,193.0,1.0,155.0,0.0,45.0,3.0,250.0,411.0,45.0,1018.0,1744252671.1684115,0.0,2025-04-09 22:37:51.168,LEFT,12
174.0,15839.988391398001,2773.136231081037,-64114.16847874743,-62117.53185004376,-36992.78527412239,-34575.846442681126,-29747.13203276778,-22615.58444685751,0.0,0.0,0.0,193.0,1.0,155.0,0.0,44.0,3.0,249.0,411.0,44.0,1017.0,1744252671.16842,0.0,2025-04-09 22:37:51.168,LEFT,12
175.0,15876.824066260348,2752.7961436267074,-64120.583429406106,-62071.889587866026,-37052.95617019608,-34638.58778936718,-29576.52116734042,-22671.597918462507,0.0,0.0,0.0,193.0,1.0,155.0,0.0,44.0,3.0,252.0,411.0,44.0,1020.0,1744252671.1684287,0.0,2025-04-09 22:37:51.168,LEFT,12
176.0,15969.606157494327,2773.2032863144027,-64125.8360893531,-62120.2140593784,-37035.678271732126,-34614.447905355446,-29754.821032860404,-22657.91865085586,0.0,0.0,0.0,193.0,1.0,155.0,0.0,44.0,3.0,250.0,411.0,44.0,1018.0,1744252671.1684372,0.0,2025-04-09 22:37:51.168,LEFT,12
177.0,15927.875450596268,2796.382045314556,-64064.704068267834,-62050.968355055855,-36959.548230117354,-34543.92815159895,-29929.410508800807,-22578.79347548407,0.0,0.0,0.0,193.0,1.0,154.0,0.0,44.0,3.0,250.0,410.0,44.0,1018.0,1744252671.168446,0.0,2025-04-09 22:37:51.168,LEFT,12
178.0,15859.099132907288,2791.5317167677545,-64102.456164652845,-62099.359881801596,-36981.162367005636,-34564.82703266466,-29703.657889802205,-22602.598083328972,0.0,0.0,0.0,193.0,1.0,155.0,0.0,44.0,3.0,252.0,411.0,44.0,1020.0,1744252671.1684544,0.0,2025-04-09 22:37:51.168,LEFT,12
179.0,15852.103036892777,2748.325794735646,-64120.583429406106,-62082.5513699712,-37040.32743457883,-34621.645167070055,-29643.621104195252,-22649.782615874126,0.0,0.0,0.0,193.0,1.0,155.0,0.0,44.0,3.0,252.0,411.0,44.0,1020.0,1744252671.1684632,0.0,2025-04-09 22:37:51.168,LEFT,12
180.0,15978.368041320808,2779.3947195285227,-64125.47846144182,-62103.02556789226,-37044.46250730306,-34621.354594392134,-29617.804839349374,-22660.980839846237,0.0,0.0,0.0,193.0,1.0,155.0,0.0,44.0,3.0,249.0,411.0,44.0,1017.0,1744252671.1684716,0.0,2025-04-09 22:37:51.168,LEFT,12
