Sample Index,EXG Channel 0,EXG Channel 1,EXG Channel 2,EXG Channel 3,EXG Channel 4,EXG Channel 5,EXG Channel 6,EXG Channel 7,Accel Channel 0,Accel Channel 1,Accel Channel 2,Not Used,Digital Channel 0 (D11),Digital Channel 1 (D12),Digital Channel 2 (D13),Digital Channel 3 (D17),Not Used,Digital Channel 4 (D18),Analog Channel 0,Analog Channel 1,Analog Channel 2,Timestamp,Marker Channel,Timestamp (Formatted),Stimulus_Direction,Stimulus_Number
126.0,25122.712567175935,28731.848744374365,-31751.949399942092,-27168.56773717019,-36718.015279533305,-31678.054532772847,-10668.509980262515,-38619.053497201625,0.0,0.0,0.0,193.0,0.0,193.0,0.0,1.0,0.0,180.0,193.0,1.0,180.0,1744420391.526713,0.0,2025-04-11 21:13:11.526,LEFT,12
127.0,25166.700800263978,28740.96825611213,-31758.85608897878,-27172.434588960958,-36730.19698026145,-31691.912614335135,-10243.670373400495,-38607.92232846288,0.0,0.0,0.0,193.0,0.0,193.0,0.0,1.0,0.0,179.0,193.0,1.0,179.0,1744420391.5267603,0.0,2025-04-11 21:13:11.526,LEFT,12
128.0,25164.13034965162,28719.68939539068,-31770.836624006824,-27194.29459503825,-36740.858762366624,-31698.864006860735,-10180.34788135861,-38648.11076499352,0.0,0.0,0.0,193.0,0.0,193.0,0.0,1.0,0.0,178.0,193.0,1.0,178.0,1744420391.526808,0.0,2025-04-11 21:13:11.526,LEFT,12
129.0,25126.02062535532,28714.615549399325,-31768.735560028024,-27184.325717011183,-36733.28152099628,-31682.144902008167,-10516.138138310687,-38628.754154295224,0.0,0.0,0.0,193.0,0.0,193.0,0.0,1.0,0.0,179.0,193.0,1.0,179.0,1744420391.52687,0.0,2025-04-11 21:13:11.526,LEFT,12
130.0,25115.78352639479,28725.858476860343,-31755.32451335484,-27173.395713972535,-36715.131904498565,-31669.426759413098,-10724.635210589793,-38616.751267522726,0.0,0.0,0.0,193.0,0.0,193.0,0.0,1.0,0.0,179.0,193.0,1.0,179.0,1744420391.526919,0.0,2025-04-11 21:13:11.526,LEFT,12
131.0,25136.391834782582,28725.746718138067,-31774.032923463932,-27188.080810079675,-36732.87918959608,-31697.925233593614,-10327.243545918887,-38615.45486634432,0.0,0.0,0.0,193.0,0.0,193.0,0.0,1.0,0.0,179.0,193.0,1.0,179.0,1744420391.5269666,0.0,2025-04-11 21:13:11.526,LEFT,12
132.0,25144.460814530947,28710.83810458638,-31780.58198458934,-27205.55987424372,-36738.489477454365,-31701.300347006363,-10149.793046688204,-38654.123384252,0.0,0.0,0.0,193.0,0.0,193.0,0.0,1.0,0.0,179.0,193.0,1.0,179.0,1744420391.5270152,0.0,2025-04-11 21:13:11.527,LEFT,12
133.0,25117.68342467349,28705.317223705915,-31776.648077565205,-27197.468542750903,-36729.83935235016,-31690.392695712173,-10461.398716139642,-38643.08162249108,0.0,0.0,0.0,193.0,0.0,193.0,0.0,1.0,0.0,179.0,193.0,1.0,179.0,1744420391.5270631,0.0,2025-04-11 21:13:11.527,LEFT,12
134.0,25102.30542448824,28721.58929366938,-31767.66267629417,-27183.878682122075,-36722.66444238001,-31678.546271150863,-10723.40586464475,-38633.112744464015,0.0,0.0,0.0,193.0,0.0,194.0,0.0,1.0,0.0,180.0,194.0,1.0,180.0,1744420391.527111,0.0,2025-04-11 21:13:11.527,LEFT,12
135.0,25126.400605011062,28724.986758826588,-31779.419693877662,-27184.05749607772,-36737.103669298136,-31696.98646032649,-10431.268564613887,-38624.999061226736,0.0,0.0,0.0,193.0,0.0,194.0,0.0,1.0,0.0,179.0,194.0,1.0,179.0,1744420391.5271735,0.0,2025-04-11 21:13:11.527,LEFT,12
136.0,25139.07404411722,28710.793401097468,-31794.57417661836,-27203.056478864728,-36746.69256766946,-31711.1351145667,-10115.416063715944,-38646.255570203735,0.0,0.0,0.0,193.0,0.0,194.0,0.0,1.0,0.0,179.0,194.0,1.0,179.0,1744420391.5272224,0.0,2025-04-11 21:13:11.527,LEFT,12
137.0,25113.503648460348,28709.58640689688,-31789.701496327103,-27192.707621181922,-36743.63037867908,-31692.449056202062,-10389.403747249096,-38638.87949453348,0.0,0.0,0.0,193.0,0.0,194.0,0.0,1.0,0.0,180.0,194.0,1.0,180.0,1744420391.5272703,0.0,2025-04-11 21:13:11.527,LEFT,12
138.0,25102.88656984408,28730.68645366269,-31769.33905712832,-27170.489987193345,-36727.73828837136,-31670.45493965804,-10710.553611582949,-38625.98253798277,0.0,0.0,0.0,193.0,0.0,193.0,0.0,1.0,0.0,179.0,193.0,1.0,179.0,1744420391.5273187,0.0,2025-04-11 21:13:11.527,LEFT,12
139.0,25128.59107596768,28733.45806997515,-31757.649094778193,-27157.973010298374,-36716.69652661044,-31672.801872825847,-10521.167280813132,-38607.18472089586,0.0,0.0,0.0,193.0,0.0,193.0,0.0,1.0,0.0,179.0,193.0,1.0,179.0,1744420391.5273967,0.0,2025-04-11 21:13:11.527,LEFT,12
140.0,25156.26253560335,28730.35117749586,-31771.104844940288,-27177.173158785485,-36729.258206994324,-31695.444189959075,-10094.51718265023,-38626.27311066069,0.0,0.0,0.0,193.0,0.0,193.0,0.0,1.0,0.0,179.0,193.0,1.0,179.0,1744420391.5274527,0.0,2025-04-11 21:13:11.527,LEFT,12
141.0,25138.20232608346,28717.96831106762,-31768.556746072383,-27175.876757607075,-36731.04634655075,-31681.56375665233,-10310.435034088498,-38634.07386947559,0.0,0.0,0.0,193.0,0.0,193.0,0.0,1.0,0.0,179.0,193.0,1.0,179.0,1744420391.52751,0.0,2025-04-11 21:13:11.527,LEFT,12
142.0,25121.751442164357,28733.25690427505,-31753.983408687523,-27157.816548087187,-36720.20575048992,-31663.101215732244,-10650.606232953814,-38619.45582860182,0.0,0.0,0.0,193.0,0.0,193.0,0.0,1.0,0.0,179.0,193.0,1.0,179.0,1744420391.52756,0.0,2025-04-11 21:13:11.527,LEFT,12
143.0,25138.69406446148,28741.750567168066,-31748.797803973892,-27152.675646862466,-36717.590596388654,-31669.40440766864,-10595.017444493467,-38620.372250124485,0.0,0.0,0.0,193.0,0.0,193.0,0.0,1.0,0.0,178.0,193.0,1.0,178.0,1744420391.5276244,0.0,2025-04-11 21:13:11.527,LEFT,12
144.0,25170.522948565835,28744.477479991616,-31766.835661749326,-27174.490949450847,-36737.930683842984,-31696.69588764857,-10133.632735447018,-38630.05055547364,0.0,0.0,0.0,193.0,0.0,193.0,0.0,1.0,0.0,179.0,193.0,1.0,179.0,1744420391.527711,0.0,2025-04-11 21:13:11.527,LEFT,12
145.0,25153.60267801317,28727.356043738848,-31770.926030984647,-27184.884510622564,-36737.438945464964,-31693.119608535722,-10281.042490129768,-38656.78324184218,0.0,0.0,0.0,193.0,0.0,193.0,0.0,1.0,0.0,179.0,193.0,1.0,179.0,1744420391.5277584,0.0,2025-04-11 21:13:11.527,LEFT,12
146.0,25117.43755548448,28725.277331504505,-31771.283658895933,-27177.687248907954,-36729.30291048323,-31684.581242153796,-10619.425549438662,-38636.35374741003,0.0,0.0,0.0,193.0,0.0,193.0,0.0,1.0,0.0,179.0,193.0,1.0,179.0,1744420391.5278049,0.0,2025-04-11 21:13:11.527,LEFT,12
147.0,25119.53861946328,28729.010072828543,-31767.95324897209,-27170.691152893443,-36725.346651714644,-31681.56375665233,-10662.296195303941,-38627.52480835019,0.0,0.0,0.0,193.0,0.0,193.0,0.0,1.0,0.0,179.0,193.0,1.0,179.0,1744420391.5278518,0.0,2025-04-11 21:13:11.527,LEFT,12
148.0,25151.255744845363,28729.25594201755,-31785.38760964723,-27188.818417646697,-36743.56332344572,-31709.615195943737,-10192.753099531306,-38635.28086367618,0.0,0.0,0.0,193.0,0.0,194.0,0.0,1.0,0.0,179.0,194.0,1.0,179.0,1744420391.5278988,0.0,2025-04-11 21:13:11.527,LEFT,12
149.0,25138.425843528017,28702.679717860192,-31788.539205615427,-27204.95637714343,-36745.50792521333,-31708.47525697652,-10230.54989940523,-38665.65688439094,0.0,0.0,0.0,193.0,0.0,194.0,0.0,1.0,0.0,179.0,194.0,1.0,179.0,1744420391.5279505,0.0,2025-04-11 21:13:11.527,LEFT,12
150.0,25111.559046692735,28711.531008664493,-31776.91629849867,-27188.259624035316,-36733.77325937429,-31692.89609109117,-10564.70847901207,-38640.60057885654,0.0,0.0,0.0,193.0,0.0,194.0,0.0,1.0,0.0,179.0,194.0,1.0,179.0,1744420391.528127,0.0,2025-04-11 21:13:11.528,LEFT,12
151.0,25115.336491505685,28725.702014649156,-31763.594658803304,-27176.01086807381,-36720.22810223438,-31683.84363458677,-10702.35052136785,-38628.17300893939,0.0,0.0,0.0,193.0,0.0,193.0,0.0,1.0,0.0,179.0,193.0,1.0,179.0,1744420391.528174,0.0,2025-04-11 21:13:11.528,LEFT,12
152.0,25150.49578553388,28731.625226929813,-31779.39734213321,-27185.28684202276,-36736.72368964239,-31708.117629065233,-10260.74710616435,-38620.4169536134,0.0,0.0,0.0,193.0,0.0,193.0,0.0,1.0,0.0,179.0,193.0,1.0,179.0,1744420391.528219,0.0,2025-04-11 21:13:11.528,LEFT,12
153.0,25153.177994868518,28725.657311160245,-31779.486749111027,-27196.976804372884,-36736.90250359804,-31707.760001153947,-10188.05923319569,-38668.78612861468,0.0,0.0,0.0,193.0,0.0,193.0,0.0,1.0,0.0,178.0,193.0,1.0,178.0,1744420391.5282924,0.0,2025-04-11 21:13:11.528,LEFT,12
154.0,25125.50653523285,28730.462936218137,-31772.691818796615,-27182.649336177034,-36731.80630586223,-31691.778503868405,-10523.55891746985,-38643.03691900217,0.0,0.0,0.0,193.0,0.0,193.0,0.0,1.0,0.0,179.0,193.0,1.0,179.0,1744420391.5283384,0.0,2025-04-11 21:13:11.528,LEFT,12
155.0,25110.463811214428,28722.77393612551,-31776.58102233184,-27185.443304233948,-36738.40007047654,-31701.50151270646,-10735.162882228242,-38657.83377383158,0.0,0.0,0.0,193.0,0.0,193.0,0.0,1.0,0.0,179.0,193.0,1.0,179.0,1744420391.5283844,0.0,2025-04-11 21:13:11.528,LEFT,12
156.0,25136.011855126842,28723.39978497026,-31787.980412004046,-27191.81355140371,-36747.40782349203,-31720.902826893667,-10371.701165640494,-38648.40133767144,0.0,0.0,0.0,193.0,0.0,193.0,0.0,1.0,0.0,179.0,193.0,1.0,179.0,1744420391.5284293,0.0,2025-04-11 21:13:11.528,LEFT,12
157.0,25144.661980231045,28710.56988365291,-31794.931804529646,-27205.76103994382,-36751.65465493854,-31723.160353083655,-10178.000948190804,-38679.00087583076,0.0,0.0,0.0,193.0,0.0,193.0,0.0,1.0,0.0,179.0,193.0,1.0,179.0,1744420391.5284774,0.0,2025-04-11 21:13:11.528,LEFT,12
158.0,25121.10324157515,28710.01109004153,-31782.370124145764,-27186.404429245526,-36735.85197160864,-31697.99228882698,-10460.30348066133,-38643.57336086909,0.0,0.0,0.0,193.0,0.0,194.0,0.0,0.0,0.0,180.0,194.0,0.0,180.0,1744420391.5285416,0.0,2025-04-11 21:13:11.528,LEFT,12
159.0,25101.67957564349,28723.869171603823,-31772.513004840974,-27174.178025028472,-36727.35830871562,-31684.02244854241,-10736.101655495366,-38639.460639889316,0.0,0.0,0.0,193.0,0.0,194.0,0.0,1.0,0.0,179.0,194.0,1.0,179.0,1744420391.5286448,0.0,2025-04-11 21:13:11.528,LEFT,12
160.0,25123.897209632065,28721.231665758096,-31786.43814163663,-27182.112894310107,-36738.981215832384,-31707.558835453852,-10456.347221892742,-38633.64918633094,0.0,0.0,0.0,193.0,0.0,194.0,0.0,0.0,0.0,180.0,194.0,0.0,180.0,1744420391.5286953,0.0,2025-04-11 21:13:11.528,LEFT,12
161.0,25142.717378463436,28713.229741243096,-31797.591662119827,-27204.24112132086,-36747.094899069656,-31725.976672885023,-10116.66776140544,-38668.92023908142,0.0,0.0,0.0,193.0,0.0,194.0,0.0,0.0,0.0,179.0,194.0,0.0,179.0,1744420391.5287516,0.0,2025-04-11 21:13:11.528,LEFT,12
162.0,25126.199439310963,28713.430906943195,-31783.1524352017,-27187.924347868488,-36733.05800355173,-31696.427666715106,-10393.739985673426,-38657.498497664754,0.0,0.0,0.0,193.0,0.0,194.0,0.0,0.0,0.0,179.0,194.0,0.0,179.0,1744420391.5288105,0.0,2025-04-11 21:13:11.528,LEFT,12
163.0,25099.39969770905,28712.670947631712,-31781.163129945176,-27182.09054256565,-36728.74411687185,-31687.1293410217,-10708.899582493255,-38644.86976204751,0.0,0.0,0.0,193.0,0.0,194.0,0.0,0.0,0.0,179.0,194.0,0.0,179.0,1744420391.5288916,0.0,2025-04-11 21:13:11.528,LEFT,12
164.0,25118.421032240516,28715.599026155356,-31777.29627815441,-27175.7649988848,-36725.07843078118,-31692.069076546322,-10551.789170716902,-38636.040822987656,0.0,0.0,0.0,193.0,0.0,194.0,0.0,0.0,0.0,179.0,194.0,0.0,179.0,1744420391.5289946,0.0,2025-04-11 21:13:11.528,LEFT,12
165.0,25137.285904560795,28714.950825566153,-31796.451723152608,-27195.233368305373,-36748.011320592326,-31714.46552449054,-10123.306229508666,-38651.95526503983,0.0,0.0,0.0,193.0,0.0,194.0,0.0,0.0,0.0,179.0,194.0,0.0,179.0,1744420391.529159,0.0,2025-04-11 21:13:11.529,LEFT,12
166.0,25122.7796224093,28701.405668426236,-31786.661659081183,-27185.28684202276,-36736.61193092012,-31691.443227701573,-10325.56716508474,-38644.89211379196,0.0,0.0,0.0,193.0,0.0,194.0,0.0,0.0,0.0,180.0,194.0,0.0,180.0,1744420391.5292535,0.0,2025-04-11 21:13:11.529,LEFT,12
167.0,25107.803953624243,28715.867247088823,-31773.71999904156,-27168.031295303263,-36724.49728542534,-31675.03704727138,-10659.122247591287,-38626.92131124989,0.0,0.0,0.0,193.0,0.0,193.0,0.0,0.0,0.0,179.0,193.0,0.0,179.0,1744420391.529336,0.0,2025-04-11 21:13:11.529,LEFT,12
168.0,25123.40547125405,28728.361872239337,-31767.997952461003,-27158.308286465202,-36719.60225338963,-31674.54530889336,-10620.029046538955,-38627.54716009464,0.0,0.0,0.0,193.0,0.0,193.0,0.0,0.0,0.0,179.0,193.0,0.0,179.0,1744420391.5294752,0.0,2025-04-11 21:13:11.529,LEFT,12
169.0,25151.658076245556,28726.19375302717,-31788.24863293751,-27177.508434952313,-36739.29414025476,-31698.685192905094,-10145.590918730608,-38627.54716009464,0.0,0.0,0.0,193.0,0.0,193.0,0.0,0.0,0.0,179.0,193.0,0.0,179.0,1744420391.52956,0.0,2025-04-11 21:13:11.529,LEFT,12
170.0,25135.78833768229,28704.378450438795,-31785.991106747522,-27183.498702466335,-36732.45450645143,-31692.136131779687,-10261.909396876026,-38654.36925344101,0.0,0.0,0.0,193.0,0.0,193.0,0.0,0.0,0.0,179.0,193.0,0.0,179.0,1744420391.529625,0.0,2025-04-11 21:13:11.529,LEFT,12
171.0,25113.436593226983,28720.11407853533,-31774.077626952843,-27163.67270513448,-36719.44579117844,-31665.89518378916,-10603.19818296411,-38627.21188392781,0.0,0.0,0.0,193.0,0.0,193.0,0.0,0.0,0.0,179.0,193.0,0.0,179.0,1744420391.5297089,0.0,2025-04-11 21:13:11.529,LEFT,12
172.0,25118.219866540418,28732.40753798575,-31763.102920425288,-27152.22861197336,-36710.77331432978,-31657.98266625198,-10669.806381440923,-38613.35380236552,0.0,0.0,0.0,193.0,0.0,193.0,0.0,0.0,0.0,179.0,193.0,0.0,179.0,1744420391.5298033,0.0,2025-04-11 21:13:11.529,LEFT,12
173.0,25145.35488430916,28729.59121818438,-31782.995972990513,-27170.691152893443,-36731.64984365104,-31693.8795678472,-10206.208849693401,-38620.50636059122,0.0,0.0,0.0,193.0,0.0,194.0,0.0,0.0,0.0,180.0,194.0,0.0,180.0,1744420391.5299752,0.0,2025-04-11 21:13:11.529,LEFT,12
174.0,25131.899134147065,28705.786610339477,-31789.522682371462,-27189.488969980357,-36735.74021288636,-31697.65701266015,-10212.690855585439,-38650.94943653935,0.0,0.0,0.0,193.0,0.0,194.0,0.0,0.0,0.0,179.0,194.0,0.0,179.0,1744420391.5300255,0.0,2025-04-11 21:13:11.530,LEFT,12
175.0,25106.664014657024,28712.000395298055,-31778.19034793262,-27171.205243015916,-36723.826733091686,-31675.193509482568,-10550.068086393845,-38621.40043036943,0.0,0.0,0.0,193.0,0.0,193.0,0.0,0.0,0.0,179.0,193.0,0.0,179.0,1744420391.5300725,0.0,2025-04-11 21:13:11.530,LEFT,12
176.0,25105.993462323364,28723.35508148135,-31764.75694951498,-27156.631905631057,-36711.37681143008,-31668.689151846072,-10707.625533059303,-38613.9125959769,0.0,0.0,0.0,193.0,0.0,193.0,0.0,0.0,0.0,179.0,193.0,0.0,179.0,1744420391.5301163,0.0,2025-04-11 21:13:11.530,LEFT,12
177.0,25135.475413259916,28726.77489838301,-31776.558670587383,-27163.963277812396,-36728.65470989403,-31696.338259737287,-10277.689728461472,-38615.007831455216,0.0,0.0,0.0,193.0,0.0,193.0,0.0,0.0,0.0,179.0,193.0,0.0,179.0,1744420391.5301597,0.0,2025-04-11 21:13:11.530,LEFT,12
178.0,25136.235372571395,28704.6243196278,-31785.320554413865,-27184.23631003336,-36743.42921297899,-31705.99421334198,-10176.458677823386,-38662.01355004472,0.0,0.0,0.0,193.0,0.0,193.0,0.0,0.0,0.0,179.0,193.0,0.0,179.0,1744420391.530203,0.0,2025-04-11 21:13:11.530,LEFT,12
179.0,25113.928331605,28705.83131382839,-31774.01057171948,-27168.254812747815,-36732.94624482945,-31688.023410799913,-10510.281981263397,-38647.3731574265,0.0,0.0,0.0,193.0,0.0,193.0,0.0,0.0,0.0,180.0,193.0,0.0,180.0,1744420391.5302455,0.0,2025-04-11 21:13:11.530,LEFT,12
180.0,25109.25681701384,28717.029537800496,-31758.63257153423,-27155.00022828582,-36720.518674912295,-31680.960259552034,-10736.235765962098,-38646.680253348386,0.0,0.0,0.0,193.0,0.0,193.0,0.0,0.0,0.0,179.0,193.0,0.0,179.0,1744420391.5303073,0.0,2025-04-11 21:13:11.530,LEFT,12
181.0,25133.754328936855,28718.884732590286,-31774.256440908488,-27166.04199004674,-36739.31649199921,-31704.966033097036,-10370.404764462086,-38629.00002348424,0.0,0.0,0.0,193.0,0.0,193.0,0.0,0.0,0.0,179.0,193.0,0.0,179.0,1744420391.53035,0.0,2025-04-11 21:13:11.530,LEFT,12
182.0,25148.46177678845,28714.079107532398,-31780.33611540033,-27184.05749607772,-36741.66342516702,-31712.74444016748,-10135.018543603248,-38651.55293363964,0.0,0.0,0.0,193.0,0.0,193.0,0.0,0.0,0.0,179.0,193.0,0.0,179.0,1744420391.5303917,0.0,2025-04-11 21:13:11.530,LEFT,12
183.0,25127.473488744916,28711.21808424212,-31771.19425191811,-27168.634792403554,-36731.64984365104,-31690.83973060128,-10439.53871006235,-38645.16033472542,0.0,0.0,0.0,193.0,0.0,193.0,0.0,0.0,0.0,179.0,193.0,0.0,179.0,1744420391.530449,0.0,2025-04-11 21:13:11.530,LEFT,12
184.0,25112.900151360056,28721.991625069575,-31760.800690746393,-27156.43073993096,-36722.66444238001,-31672.399541425653,-10722.042408232977,-38631.48106711877,0.0,0.0,0.0,193.0,0.0,193.0,0.0,0.0,0.0,179.0,193.0,0.0,179.0,1744420391.530491,0.0,2025-04-11 21:13:11.530,LEFT,12
185.0,25136.660055716045,28724.092689048375,-31762.34296111381,-27155.38020794156,-36720.20575048992,-31682.97191655301,-10441.036276940857,-38601.48502605975,0.0,0.0,0.0,193.0,0.0,193.0,0.0,0.0,0.0,179.0,193.0,0.0,179.0,1744420391.5305383,0.0,2025-04-11 21:13:11.530,LEFT,12
186.0,25154.65321000257,28720.27054074652,-31780.023190977958,-27180.034182075764,-36741.149335044545,-31708.117629065233,-10088.683377347395,-38641.58405561258,0.0,0.0,0.0,193.0,0.0,193.0,0.0,0.0,0.0,179.0,193.0,0.0,179.0,1744420391.5305808,0.0,2025-04-11 21:13:11.530,LEFT,12
187.0,25135.11778534863,28715.9790058111,-31771.685990296126,-27169.350048226126,-36733.34857622964,-31690.727971879005,-10360.681755624028,-38649.85420106104,0.0,0.0,0.0,193.0,0.0,193.0,0.0,0.0,0.0,179.0,193.0,0.0,179.0,1744420391.5306227,0.0,2025-04-11 21:13:11.530,LEFT,12
188.0,25115.22473278341,28719.935264579686,-31761.784167502425,-27155.111987008095,-36723.670270880495,-31675.9758205385,-10685.340843837363,-38630.095258962545,0.0,0.0,0.0,193.0,0.0,194.0,0.0,0.0,0.0,179.0,194.0,0.0,179.0,1744420391.5306792,0.0,2025-04-11 21:13:11.530,LEFT,12
189.0,25137.01768362733,28725.187924526683,-31754.206926132076,-27145.545440381225,-36717.63529987756,-31673.293611203866,-10549.129313126721,-38602.557909793606,0.0,0.0,0.0,193.0,0.0,193.0,0.0,0.0,0.0,179.0,193.0,0.0,179.0,1744420391.5307224,0.0,2025-04-11 21:13:11.530,LEFT,12
190.0,25159.436483316003,28719.376470968306,-31772.37889437424,-27166.7125423804,-36734.443811707955,-31695.1312655367,-10109.85047934657,-38620.14873267993,0.0,0.0,0.0,193.0,0.0,193.0,0.0,0.0,0.0,179.0,193.0,0.0,179.0,1744420391.5307667,0.0,2025-04-11 21:13:11.530,LEFT,12
191.0,25134.335474292693,28698.321127691404,-31776.648077565205,-27174.602708173123,-36735.18141927498,-31691.622041657218,-10309.719778265928,-38652.29054120667,0.0,0.0,0.0,193.0,0.0,193.0,0.0,0.0,0.0,179.0,193.0,0.0,179.0,1744420391.5308115,0.0,2025-04-11 21:13:11.530,LEFT,12
192.0,25097.835075597177,28705.54074115047,-31775.821063020358,-27171.696981393932,-36730.59931166164,-31686.950527066056,-10649.555700964416,-38636.46550613231,0.0,0.0,0.0,193.0,0.0,193.0,0.0,0.0,0.0,178.0,193.0,0.0,178.0,1744420391.5308545,0.0,2025-04-11 21:13:11.530,LEFT,12
193.0,25105.032337311786,28711.955691809144,-31765.963943715567,-27162.488062678345,-36718.641128378054,-31685.117684020723,-10610.417796423173,-38618.45000010133,0.0,0.0,0.0,193.0,0.0,193.0,0.0,0.0,0.0,179.0,193.0,0.0,179.0,1744420391.530896,0.0,2025-04-11 21:13:11.530,LEFT,12
194.0,25139.65518947306,28713.00622379854,-31779.464397366573,-27176.077923307173,-36731.31456748421,-31706.284786019896,-10144.942718141403,-38627.368346138996,0.0,0.0,0.0,193.0,0.0,194.0,0.0,0.0,0.0,179.0,194.0,0.0,179.0,1744420391.5309377,0.0,2025-04-11 21:13:11.530,LEFT,12
195.0,25129.485145745894,28691.950880521643,-31776.268097909466,-27181.040010576253,-36725.79368660375,-31697.65701266015,-10257.103771818134,-38654.011625529725,0.0,0.0,0.0,193.0,0.0,193.0,0.0,0.0,0.0,179.0,193.0,0.0,179.0,1744420391.530995,0.0,2025-04-11 21:13:11.530,LEFT,12
196.0,25103.8253431112,28705.652499872747,-31764.33226637033,-27160.029370788263,-36714.371945187086,-31672.22072747001,-10593.408118892685,-38612.70560177632,0.0,0.0,0.0,193.0,0.0,194.0,0.0,0.0,0.0,180.0,194.0,0.0,180.0,1744420391.5310366,0.0,2025-04-11 21:13:11.531,LEFT,12
197.0,25111.760212392834,28723.444488459172,-31749.691873752105,-27145.031350258752,-36702.145540970036,-31664.911707033123,-10679.261169345518,-38609.77752325267,0.0,0.0,0.0,193.0,0.0,193.0,0.0,0.0,0.0,179.0,193.0,0.0,179.0,1744420391.5310783,0.0,2025-04-11 21:13:11.531,LEFT,12
198.0,25140.169279595528,28723.578598925902,-31768.71320828357,-27160.85638533311,-36724.34082321415,-31693.52193993592,-10219.619896366585,-38615.49956983323,0.0,0.0,0.0,193.0,0.0,193.0,0.0,0.0,0.0,178.0,193.0,0.0,178.0,1744420391.5311337,0.0,2025-04-11 21:13:11.531,LEFT,12
199.0,25133.664921959036,28700.802171325944,-31768.176766416644,-27172.635754661056,-36725.637224392565,-31689.275108489408,-10211.886192785048,-38646.99317777076,0.0,0.0,0.0,193.0,0.0,193.0,0.0,0.0,0.0,179.0,193.0,0.0,179.0,1744420391.531176,0.0,2025-04-11 21:13:11.531,LEFT,12
200.0,25111.335529248183,28711.910988320233,-31753.022283675946,-27154.106158507606,-36708.985174773356,-31666.588087867272,-10539.89804266668,-38610.64924128643,0.0,0.0,0.0,193.0,0.0,193.0,0.0,0.0,0.0,178.0,193.0,0.0,178.0,1744420391.5312178,0.0,2025-04-11 21:13:11.531,LEFT,12
201.0,25107.289863501774,28724.696186148667,-31743.500440537984,-27144.673722347467,-36702.346706670134,-31658.54145986336,-10693.767451497013,-38597.84169171354,0.0,0.0,0.0,193.0,0.0,193.0,0.0,0.0,0.0,179.0,193.0,0.0,179.0,1744420391.5312595,0.0,2025-04-11 21:13:11.531,LEFT,12
202.0,25138.247029572372,28735.536782209492,-31753.201097631587,-27148.160594482495,-36718.417610933495,-31680.13324500719,-10292.955969924447,-38599.473369058775,0.0,0.0,0.0,193.0,0.0,193.0,0.0,0.0,0.0,179.0,193.0,0.0,179.0,1744420391.531302,0.0,2025-04-11 21:13:11.531,LEFT,12
203.0,25146.49482327638,28721.16461052473,-31762.14179541371,-27169.975897070875,-36729.03468954977,-31693.588995169284,-10164.187570117423,-38652.89403830696,0.0,0.0,0.0,193.0,0.0,194.0,0.0,0.0,0.0,180.0,194.0,0.0,180.0,1744420391.5313568,0.0,2025-04-11 21:13:11.531,LEFT,12
204.0,25121.863200886633,28717.230703500594,-31755.257458121476,-27157.816548087187,-36721.39039294606,-31677.89807056166,-10491.618274643217,-38639.058308489126,0.0,0.0,0.0,193.0,0.0,193.0,0.0,0.0,0.0,179.0,193.0,0.0,179.0,1744420391.5313988,0.0,2025-04-11 21:13:11.531,LEFT,12
205.0,25105.881703601088,28725.41144197124,-31750.965923186057,-27151.37924568406,-36720.96570980141,-31671.28195420289,-10725.752797812558,-38624.149694937434,0.0,0.0,0.0,193.0,0.0,193.0,0.0,0.0,0.0,179.0,193.0,0.0,179.0,1744420391.5314407,0.0,2025-04-11 21:13:11.531,LEFT,12
206.0,25139.02934062831,28734.083918819895,-31756.777376744438,-27153.390902685038,-36727.64888139354,-31688.89512883367,-10391.325997272254,-38610.60453779752,0.0,0.0,0.0,193.0,0.0,193.0,0.0,0.0,0.0,179.0,193.0,0.0,179.0,1744420391.5314827,0.0,2025-04-11 21:13:11.531,LEFT,12
207.0,25156.530756536813,28724.718537893124,-31765.025170448444,-27172.054609305218,-36730.93458782847,-31697.65701266015,-10130.414084245454,-38641.919331779405,0.0,0.0,0.0,193.0,0.0,193.0,0.0,0.0,0.0,179.0,193.0,0.0,179.0,1744420391.531524,0.0,2025-04-11 21:13:11.531,LEFT,12
208.0,25122.801974153757,28711.910988320233,-31770.166071673164,-27172.255775005317,-36733.90736984103,-31692.136131779687,-10422.01494240939,-38648.6695586049,0.0,0.0,0.0,193.0,0.0,193.0,0.0,0.0,0.0,179.0,193.0,0.0,179.0,1744420391.5315657,0.0,2025-04-11 21:13:11.531,LEFT,12
209.0,25113.280131015796,28729.54651469547,-31752.105862153276,-27157.302457964714,-36718.842294078146,-31675.908765305136,-10721.88594602179,-38640.444116645354,0.0,0.0,0.0,193.0,0.0,193.0,0.0,0.0,0.0,179.0,193.0,0.0,179.0,1744420391.531608,0.0,2025-04-11 21:13:11.531,LEFT,12
210.0,25143.902020919566,28737.034349087997,-31746.674388250638,-27148.89820204952,-36717.858817322114,-31682.502529919453,-10499.530792180394,-38621.04280245815,0.0,0.0,0.0,193.0,0.0,193.0,0.0,0.0,0.0,179.0,193.0,0.0,179.0,1744420391.5316632,0.0,2025-04-11 21:13:11.531,LEFT,12
211.0,25157.7377507374,28726.59608442737,-31765.651019293193,-27174.245080261837,-36737.81892512071,-31710.285748277398,-10138.706581438373,-38657.38673894248,0.0,0.0,0.0,193.0,0.0,194.0,0.0,0.0,0.0,179.0,194.0,0.0,179.0,1744420391.5317051,0.0,2025-04-11 21:13:11.531,LEFT,12
212.0,25140.571610995725,28721.29872099146,-31753.312856353863,-27163.784463856755,-36721.1668755015,-31690.99619281247,-10379.390165733119,-38654.7268813523,0.0,0.0,0.0,193.0,0.0,194.0,0.0,0.0,0.0,179.0,194.0,0.0,179.0,1744420392.0052564,0.0,2025-04-11 21:13:12.005,LEFT,12
213.0,25113.54835194926,28729.010072828543,-31750.787109230416,-27155.00022828582,-36718.23879697786,-31682.83780608628,-10695.35442535334,-38644.75800332522,0.0,0.0,0.0,193.0,0.0,193.0,0.0,0.0,0.0,179.0,193.0,0.0,179.0,1744420392.0053976,0.0,2025-04-11 21:13:12.005,LEFT,12
214.0,25125.595942210668,28727.221933272118,-31753.491670309508,-27153.14503349603,-36722.68679412446,-31687.3305067218,-10576.398441362197,-38622.048630958634,0.0,0.0,0.0,193.0,0.0,193.0,0.0,0.0,0.0,179.0,193.0,0.0,179.0,1744420392.0054493,0.0,2025-04-11 21:13:12.005,LEFT,12
215.0,25146.45011978747,28713.58736915438,-31777.51979559896,-27179.14011229755,-36748.59246594816,-31719.069983848334,-10136.113779081557,-38645.38385216997,0.0,0.0,0.0,193.0,0.0,193.0,0.0,0.0,0.0,179.0,193.0,0.0,179.0,1744420392.0055037,0.0,2025-04-11 21:13:12.005,LEFT,12
216.0,25126.959398622443,28699.505770147538,-31779.039714221923,-27182.269356521294,-36748.03367233678,-31711.157466311153,-10318.548717325773,-38669.34492222607,0.0,0.0,0.0,193.0,0.0,193.0,0.0,0.0,0.0,179.0,193.0,0.0,179.0,1744420392.0055523,0.0,2025-04-11 21:13:12.005,LEFT,12
217.0,25112.475468215405,28725.702014649156,-31758.498461067495,-27150.485175905847,-36722.329166213174,-31672.08661700328,-10651.232081798564,-38616.684212289365,0.0,0.0,0.0,193.0,0.0,193.0,0.0,0.0,0.0,179.0,193.0,0.0,179.0,1744420392.0056,0.0,2025-04-11 21:13:12.005,LEFT,12
218.0,25120.812668897233,28743.02461660202,-31749.915391196657,-27136.448280387915,-36715.24366322085,-31665.962239022523,-10638.826863625869,-38606.5141685622,0.0,0.0,0.0,193.0,0.0,194.0,0.0,0.0,0.0,179.0,194.0,0.0,179.0,1744420392.0056684,0.0,2025-04-11 21:13:12.005,LEFT,12
219.0,25145.712512220445,28736.520258965524,-31770.210775162075,-27156.631905631057,-36736.99191057586,-31693.365477724732,-10169.68609925343,-38610.00104069722,0.0,0.0,0.0,193.0,0.0,193.0,0.0,0.0,0.0,179.0,193.0,0.0,179.0,1744420392.0057168,0.0,2025-04-11 21:13:12.005,LEFT,12
220.0,25136.570648738223,28712.58154065389,-31766.500385582494,-27162.7115801229,-36729.817000605704,-31687.106989277243,-10259.204835796934,-38646.16616322591,0.0,0.0,0.0,193.0,0.0,193.0,0.0,0.0,0.0,179.0,193.0,0.0,179.0,1744420392.005765,0.0,2025-04-11 21:13:12.005,LEFT,12
221.0,25102.283072743783,28717.744793623067,-31764.66754253716,-27156.18487074195,-36728.87822733858,-31681.407294441142,-10580.645272808704,-38632.77746829718,0.0,0.0,0.0,193.0,0.0,193.0,0.0,0.0,0.0,179.0,193.0,0.0,179.0,1744420392.0058124,0.0,2025-04-11 21:13:12.005,LEFT,12
222.0,25105.859351856634,28732.228724030105,-31747.94843768459,-27141.298608934714,-36712.203825974924,-31666.78925356737,-10692.49340206306,-38615.09723843304,0.0,0.0,0.0,193.0,0.0,193.0,0.0,0.0,0.0,179.0,193.0,0.0,179.0,1744420392.0058603,0.0,2025-04-11 21:13:12.005,LEFT,12
223.0,25140.45985227345,28732.45224147466,-31759.10195816779,-27148.406463671505,-36725.99485230385,-31688.671611389116,-10232.718018617394,-38601.507377804206,0.0,0.0,0.0,193.0,0.0,193.0,0.0,0.0,0.0,179.0,193.0,0.0,179.0,1744420392.005905,0.0,2025-04-11 21:13:12.005,LEFT,12
224.0,25137.26355281634,28711.083973775385,-31763.304086125387,-27164.05268479022,-36731.94041632896,-31695.80181787036,-10203.101957214112,-38650.54710513915,0.0,0.0,0.0,193.0,0.0,194.0,0.0,0.0,0.0,180.0,194.0,0.0,180.0,1744420392.005948,0.0,2025-04-11 21:13:12.005,LEFT,12
225.0,25110.329700747694,28714.48143893259,-31755.1456993992,-27148.384111927047,-36720.92100631249,-31678.993306039967,-10539.048676377377,-38628.418878128396,0.0,0.0,0.0,193.0,0.0,194.0,0.0,0.0,0.0,179.0,194.0,0.0,179.0,1744420392.0060077,0.0,2025-04-11 21:13:12.006,LEFT,12
226.0,25108.0274710688,28729.859439117845,-31736.750213712483,-27132.782594297245,-36702.12318922558,-31668.376227423698,-10722.400036144261,-38626.85425601652,0.0,0.0,0.0,193.0,0.0,193.0,0.0,0.0,0.0,179.0,193.0,0.0,179.0,1744420392.0060592,0.0,2025-04-11 21:13:12.006,LEFT,12
227.0,25133.329645792204,28733.078090319406,-31746.003835916978,-27137.968199010873,-36714.88603530956,-31688.045762544367,-10314.257182390355,-38609.039915685644,0.0,0.0,0.0,193.0,0.0,193.0,0.0,0.0,0.0,179.0,193.0,0.0,179.0,1744420392.0061016,0.0,2025-04-11 21:13:12.006,LEFT,12
228.0,25132.145003336074,28713.00622379854,-31757.291466866907,-27159.917612065987,-36729.10174478313,-31695.287727747887,-10150.262433321766,-38642.947512024344,0.0,0.0,0.0,193.0,0.0,193.0,0.0,0.0,0.0,179.0,193.0,0.0,179.0,1744420392.0064557,0.0,2025-04-11 21:13:12.006,LEFT,12
229.0,25108.00511932434,28712.536837164982,-31749.33424584082,-27145.344274681127,-36721.52450341279,-31675.59584088276,-10474.250969201443,-38619.50053209073,0.0,0.0,0.0,193.0,0.0,194.0,0.0,0.0,0.0,180.0,194.0,0.0,180.0,1744420392.006499,0.0,2025-04-11 21:13:12.006,LEFT,12
230.0,25094.25879648433,28725.992587327077,-31741.42172830364,-27136.671797832467,-36714.103724253626,-31671.08078850279,-10727.093902479875,-38622.115686192,0.0,0.0,0.0,193.0,0.0,193.0,0.0,0.0,0.0,179.0,193.0,0.0,179.0,1744420392.0065415,0.0,2025-04-11 21:13:12.006,LEFT,12
231.0,25124.21013405444,28735.603837442857,-31747.9931411735,-27133.40844314199,-36722.552683657734,-31679.797968840357,-10419.779767963859,-38604.0107731832,0.0,0.0,0.0,193.0,0.0,193.0,0.0,0.0,0.0,179.0,193.0,0.0,179.0,1744420392.006584,0.0,2025-04-11 21:13:12.006,LEFT,12
232.0,25136.16831733803,28721.946921580664,-31762.9464582141,-27156.43073993096,-36733.43798320746,-31694.75128588096,-10134.325639525132,-38634.40914564242,0.0,0.0,0.0,193.0,0.0,193.0,0.0,0.0,0.0,179.0,193.0,0.0,179.0,1744420392.006626,0.0,2025-04-11 21:13:12.006,LEFT,12
233.0,25106.462848956926,28705.25016847255,-31764.444025092605,-27153.592068385133,-36732.7227273849,-31686.212919499034,-10424.563041277295,-38641.31583467911,0.0,0.0,0.0,193.0,0.0,193.0,0.0,0.0,0.0,179.0,193.0,0.0,179.0,1744420392.006686,0.0,2025-04-11 21:13:12.006,LEFT,12
234.0,25091.934215060977,28719.39882271276,-31751.323551097343,-27136.537687365733,-36719.87047432309,-31664.621134355206,-10726.69157107968,-38626.42957287187,0.0,0.0,0.0,193.0,0.0,193.0,0.0,0.0,0.0,179.0,193.0,0.0,179.0,1744420392.0067284,0.0,2025-04-11 21:13:12.006,LEFT,12
235.0,25107.60278792415,28722.393956469772,-31761.270077379955,-27142.08091999065,-36729.191151760955,-31682.904861319646,-10512.763024897937,-38629.00002348424,0.0,0.0,0.0,193.0,0.0,193.0,0.0,0.0,0.0,179.0,193.0,0.0,179.0,1744420392.00677,0.0,2025-04-11 21:13:12.006,LEFT,12
236.0,25125.528886977303,28707.597101640356,-31776.89394675421,-27165.729065624368,-36745.5749804467,-31697.433495215595,-10144.20511057438,-38645.45090740334,0.0,0.0,0.0,193.0,0.0,194.0,0.0,0.0,0.0,180.0,194.0,0.0,180.0,1744420392.0068123,0.0,2025-04-11 21:13:12.006,LEFT,12
237.0,25108.854485613643,28694.63308985628,-31765.315743126364,-27155.89429806403,-36727.090087782155,-31680.848500829758,-10372.416421463064,-38642.38871841296,0.0,0.0,0.0,193.0,0.0,194.0,0.0,0.0,0.0,179.0,194.0,0.0,179.0,1744420392.0068543,0.0,2025-04-11 21:13:12.006,LEFT,12
238.0,25083.14997949004,28709.005261541042,-31754.13987089871,-27142.37149266857,-36711.48857015235,-31665.872832044704,-10681.339881579863,-38624.79789552664,0.0,0.0,0.0,193.0,0.0,193.0,0.0,0.0,0.0,179.0,193.0,0.0,179.0,1744420392.006896,0.0,2025-04-11 21:13:12.006,LEFT,12
239.0,25097.566854663713,28715.286101732985,-31750.0942051523,-27138.638751344533,-36710.75096258533,-31670.253773957942,-10578.633615807727,-38607.3635348515,0.0,0.0,0.0,193.0,0.0,193.0,0.0,0.0,0.0,178.0,193.0,0.0,178.0,1744420392.0069523,0.0,2025-04-11 21:13:12.006,LEFT,12
240.0,25120.20917179694,28716.604854655845,-31772.58006007434,-27162.59982140062,-36735.36023323062,-31695.712410892538,-10123.708560908863,-38616.97478496728,0.0,0.0,0.0,193.0,0.0,193.0,0.0,0.0,0.0,178.0,193.0,0.0,178.0,1744420392.0069945,0.0,2025-04-11 21:13:12.006,LEFT,12
241.0,25105.188799522974,28704.043174271963,-31769.026132705945,-27162.28689697825,-36731.82865760668,-31687.151692766154,-10285.646949487562,-38640.06413698961,0.0,0.0,0.0,193.0,0.0,193.0,0.0,0.0,0.0,179.0,193.0,0.0,179.0,1744420392.0070364,0.0,2025-04-11 21:13:12.007,LEFT,12
242.0,25083.48525565687,28707.93237780719,-31755.592734288304,-27145.008998514295,-36720.76454410131,-31670.83491931378,-10625.907555330701,-38620.97574722478,0.0,0.0,0.0,193.0,0.0,193.0,0.0,0.0,0.0,179.0,193.0,0.0,179.0,1744420392.0070782,0.0,2025-04-11 21:13:12.007,LEFT,12
243.0,25089.810799337723,28709.899331319255,-31749.17778362963,-27137.968199010873,-36712.98613703086,-31668.823262312802,-10658.317584790897,-38614.292575632644,0.0,0.0,0.0,193.0,0.0,193.0,0.0,0.0,0.0,179.0,193.0,0.0,179.0,1744420392.0071332,0.0,2025-04-11 21:13:12.007,LEFT,12
244.0,25123.45017474296,28714.995529055064,-31763.259382636475,-27150.596934628124,-36728.073564538194,-31693.432532958097,-10185.689948283429,-38617.22065415629,0.0,0.0,0.0,193.0,0.0,193.0,0.0,0.0,0.0,179.0,193.0,0.0,179.0,1744420392.0071754,0.0,2025-04-11 21:13:12.007,LEFT,12
245.0,25114.621235683113,28696.8235608129,-31763.482900081028,-27157.593030642634,-36730.532256428276,-31690.437399201084,-10249.41477172551,-38649.29540744965,0.0,0.0,0.0,193.0,0.0,193.0,0.0,0.0,0.0,179.0,193.0,0.0,179.0,1744420392.0072174,0.0,2025-04-11 21:13:12.007,LEFT,12
246.0,25087.463866169914,28705.764258595023,-31754.69866451009,-27139.66693158948,-36717.41178243301,-31669.47146290201,-10582.276950153942,-38611.94564246484,0.0,0.0,0.0,193.0,0.0,193.0,0.0,0.0,0.0,179.0,193.0,0.0,179.0,1744420392.0072591,0.0,2025-04-11 21:13:12.007,LEFT,12
247.0,25081.898281800542,28714.392031954772,-31749.960094685568,-27135.665969331978,-36709.8121893182,-31670.142015235666,-10691.599332284848,-38611.87858723147,0.0,0.0,0.0,193.0,0.0,193.0,0.0,0.0,0.0,179.0,193.0,0.0,179.0,1744420392.007301,0.0,2025-04-11 21:13:12.007,LEFT,12
248.0,25113.146020549062,28713.274444732007,-31766.321571626853,-27151.46865266188,-36730.241683750355,-31700.361573739243,-10249.817103125704,-38623.41208737041,0.0,0.0,0.0,193.0,0.0,193.0,0.0,0.0,0.0,179.0,193.0,0.0,179.0,1744420392.0073564,0.0,2025-04-11 21:13:12.007,LEFT,12
249.0,25110.977901336897,28695.281290445484,-31770.300182139898,-27165.52789992427,-36734.68968089696,-31698.37226848272,-10207.572306105174,-38658.37021569851,0.0,0.0,0.0,193.0,0.0,193.0,0.0,0.0,0.0,179.0,193.0,0.0,179.0,1744420392.0073988,0.0,2025-04-11 21:13:12.007,LEFT,12
250.0,25076.77973232028,28691.30267993244,-31768.802615261393,-27154.866117819085,-36732.14158202906,-31684.201262498056,-10536.589984487295,-38626.518979849694,0.0,0.0,0.0,193.0,0.0,193.0,0.0,0.0,0.0,179.0,193.0,0.0,179.0,1744420392.0074408,0.0,2025-04-11 21:13:12.007,LEFT,12
251.0,25073.136397974064,28704.289043460973,-31755.32451335484,-27142.639713602035,-36719.93752955646,-31673.51712864842,-10741.287260208996,-38627.39069788346,0.0,0.0,0.0,193.0,0.0,193.0,0.0,0.0,0.0,179.0,193.0,0.0,179.0,1744420392.0074863,0.0,2025-04-11 21:13:12.007,LEFT,12
252.0,25106.194628023462,28707.083011517887,-31767.394455360707,-27149.188774727438,-36734.153239030034,-31694.25954750294,-10344.47674089393,-38611.61036629801,0.0,0.0,0.0,193.0,0.0,194.0,0.0,0.0,0.0,180.0,194.0,0.0,180.0,1744420392.0075288,0.0,2025-04-11 21:13:12.007,LEFT,12
253.0,25105.278206500796,28688.911043275722,-31778.34681014381,-27172.389885472046,-36745.5749804467,-31702.529692951408,-10149.39071528801,-38646.54614288165,0.0,0.0,0.0,193.0,0.0,193.0,0.0,0.0,0.0,179.0,193.0,0.0,179.0,1744420392.0075712,0.0,2025-04-11 21:13:12.007,LEFT,12
254.0,25073.583432863168,28686.20648219663,-31773.787054274926,-27163.89622257903,-36739.830582121685,-31690.571509667818,-10477.69313784756,-38645.54031438116,0.0,0.0,0.0,193.0,0.0,193.0,0.0,0.0,0.0,179.0,193.0,0.0,179.0,1744420392.0076268,0.0,2025-04-11 21:13:12.007,LEFT,12
255.0,25055.59027857665,28692.48732238857,-31768.512042583472,-27156.90012656452,-36731.493381439854,-31683.37424795321,-10742.673068365226,-38642.16520096841,0.0,0.0,0.0,193.0,0.0,193.0,0.0,0.0,0.0,179.0,193.0,0.0,179.0,1744420392.0076692,0.0,2025-04-11 21:13:12.007,LEFT,12
0.0,25080.06543875521,28699.326956191893,-31775.262269408977,-27156.341332953136,-36734.48851519686,-31696.047687059367,-10443.83024499777,-38623.07681120358,0.0,0.0,0.0,193.0,0.0,193.0,0.0,0.0,0.0,179.0,193.0,0.0,179.0,1744420392.0077112,0.0,2025-04-11 21:13:12.007,LEFT,12
1.0,25092.425953438993,28690.67683108769,-31793.94832777361,-27181.487045465357,-36751.05115783825,-31709.145809310176,-10136.203186059378,-38649.36246268302,0.0,0.0,0.0,193.0,0.0,194.0,0.0,0.0,0.0,180.0,194.0,0.0,180.0,1744420392.0077522,0.0,2025-04-11 21:13:12.007,LEFT,12
2.0,25074.25398519683,28677.24343267005,-31788.539205615427,-27176.43555121846,-36742.73630890087,-31696.56177718184,-10418.639828996638,-38645.65207310344,0.0,0.0,0.0,193.0,0.0,194.0,0.0,0.0,0.0,179.0,194.0,0.0,179.0,1744420392.0078068,0.0,2025-04-11 21:13:12.007,LEFT,12
3.0,25058.607764078115,28686.072371729897,-31783.420656135164,-27171.875795349577,-36739.76352688832,-31692.382000968697,-10732.79359731598,-38653.98927378527,0.0,0.0,0.0,193.0,0.0,193.0,0.0,0.0,0.0,179.0,193.0,0.0,179.0,1744420392.0078492,0.0,2025-04-11 21:13:12.007,LEFT,12
4.0,25082.09944750064,28696.06360150142,-31776.737484543024,-27157.32480970917,-36735.09201229716,-31688.872777089215,-10555.94659518559,-38634.90088402043,0.0,0.0,0.0,193.0,0.0,193.0,0.0,0.0,0.0,179.0,193.0,0.0,179.0,1744420392.0078907,0.0,2025-04-11 21:13:12.007,LEFT,12
5.0,25099.846732598155,28687.301717674938,-31789.23210969354,-27171.89814709403,-36745.23970427987,-31703.401410985163,-10141.165273328457,-38629.58116884007,0.0,0.0,0.0,193.0,0.0,193.0,0.0,0.0,0.0,178.0,193.0,0.0,178.0,1744420392.0079327,0.0,2025-04-11 21:13:12.007,LEFT,12
6.0,25076.310345686717,28669.53208083297,-31787.37691490375,-27171.540519182745,-36739.38354723257,-31696.964108582037,-10352.255147964377,-38642.79104981316,0.0,0.0,0.0,193.0,0.0,193.0,0.0,0.0,0.0,179.0,193.0,0.0,179.0,1744420392.0079744,0.0,2025-04-11 21:13:12.007,LEFT,12
7.0,25057.0654937107,28684.843025784856,-31778.838548521824,-27159.33646671015,-36731.53808492876,-31686.771713110415,-10679.887018190268,-38637.69485207735,0.0,0.0,0.0,193.0,0.0,193.0,0.0,0.0,0.0,179.0,193.0,0.0,179.0,1744420392.0080297,0.0,2025-04-11 21:13:12.008,LEFT,12
8.0,25071.504720628825,28693.91783403371,-31776.782188031935,-27156.56485039769,-36732.49920994034,-31691.912614335135,-10617.749168604514,-38636.13022996548,0.0,0.0,0.0,193.0,0.0,193.0,0.0,0.0,0.0,179.0,193.0,0.0,179.0,1744420392.0080717,0.0,2025-04-11 21:13:12.008,LEFT,12
9.0,25103.981805322386,28699.326956191893,-31791.891967283726,-27176.055571562716,-36745.79849789125,-31713.2361785455,-10162.041802649714,-38630.00585198472,0.0,0.0,0.0,193.0,0.0,193.0,0.0,0.0,0.0,179.0,193.0,0.0,179.0,1744420392.008114,0.0,2025-04-11 21:13:12.008,LEFT,12
10.0,25097.16452326352,28681.892595516754,-31780.87255726726,-27172.211071516405,-36730.8228291062,-31694.550120180862,-10290.631388501095,-38636.84548578805,0.0,0.0,0.0,193.0,0.0,193.0,0.0,0.0,0.0,178.0,193.0,0.0,178.0,1744420392.0081556,0.0,2025-04-11 21:13:12.008,LEFT,12
11.0,25075.05864799722,28694.364868922818,-31765.360446615276,-27150.798100328222,-36717.63529987756,-31671.1254919917,-10615.268124969974,-38611.140979664444,0.0,0.0,0.0,193.0,0.0,193.0,0.0,0.0,0.0,179.0,193.0,0.0,179.0,1744420392.0081975,0.0,2025-04-11 21:13:12.008,LEFT,12
12.0,25088.53674990377,28710.21225574163,-31752.86582146476,-27140.04691124522,-36705.11832298259,-31671.483119902983,-10660.150427836232,-38614.583148310565,0.0,0.0,0.0,193.0,0.0,193.0,0.0,0.0,0.0,179.0,193.0,0.0,179.0,1744420392.0082393,0.0,2025-04-11 21:13:12.008,LEFT,12
13.0,25110.910846103532,28698.20936896913,-31780.783150289437,-27164.678533634968,-36732.409802962524,-31703.535521451897,-10195.010625721292,-38608.995212196736,0.0,0.0,0.0,193.0,0.0,193.0,0.0,0.0,0.0,179.0,193.0,0.0,179.0,1744420392.0082943,0.0,2025-04-11 21:13:12.008,LEFT,12
14.0,25091.934215060977,28671.119054689298,-31785.00762999149,-27177.28491750776,-36732.23098900688,-31698.66284116064,-10219.798710322228,-38633.33626190857,0.0,0.0,0.0,193.0,0.0,193.0,0.0,0.0,0.0,179.0,193.0,0.0,179.0,1744420392.0083363,0.0,2025-04-11 21:13:12.008,LEFT,12
15.0,25064.82154903669,28683.412514139716,-31772.714170541072,-27158.420045187482,-36715.40012543203,-31677.518090905916,-10546.648269492181,-38609.41989534139,0.0,0.0,0.0,193.0,0.0,193.0,0.0,0.0,0.0,179.0,193.0,0.0,179.0,1744420392.0083785,0.0,2025-04-11 21:13:12.008,LEFT,12
16.0,25067.079075226677,28701.29390970396,-31761.0465599354,-27145.388978170038,-36709.54396838474,-31669.493814646463,-10687.866590960812,-38613.0632296876,0.0,0.0,0.0,193.0,0.0,193.0,0.0,0.0,0.0,179.0,193.0,0.0,179.0,1744420392.00842,0.0,2025-04-11 21:13:12.008,LEFT,12
17.0,25098.706793630936,28703.663194616223,-31778.39151363272,-27156.743664353333,-36732.02982330678,-31696.3829632262,-10257.014364840314,-38615.343107622044,0.0,0.0,0.0,193.0,0.0,193.0,0.0,0.0,0.0,179.0,193.0,0.0,179.0,1744420392.008474,0.0,2025-04-11 21:13:12.008,LEFT,12
18.0,25106.127572790097,28683.703086817633,-31781.587813089827,-27172.09931279413,-36736.58957917566,-31697.209977771043,-10182.694814526418,-38650.100070250046,0.0,0.0,0.0,193.0,0.0,193.0,0.0,0.0,0.0,179.0,193.0,0.0,179.0,1744420392.0085163,0.0,2025-04-11 21:13:12.008,LEFT,12
19.0,25084.088752757165,28691.369735165805,-31767.729731527535,-27151.80392882871,-36722.351517957635,-31671.349009436253,-10527.045789604877,-38626.78720078316,0.0,0.0,0.0,193.0,0.0,193.0,0.0,0.0,0.0,179.0,193.0,0.0,179.0,1744420392.008558,0.0,2025-04-11 21:13:12.008,LEFT,12
20.0,25076.064476497708,28700.95863353713,-31758.654923278682,-27140.829222301152,-36712.78497133076,-31664.799948310847,-10737.59922237387,-38619.29936639063,0.0,0.0,0.0,193.0,0.0,193.0,0.0,0.0,0.0,179.0,193.0,0.0,179.0,1744420392.0086,0.0,2025-04-11 21:13:12.008,LEFT,12
21.0,25099.623215153602,28702.34444169336,-31771.57423157385,-27145.858364803596,-36726.64305289305,-31690.392695712173,-10360.90527306858,-38611.67742153137,0.0,0.0,0.0,193.0,0.0,193.0,0.0,0.0,0.0,179.0,193.0,0.0,179.0,1744420392.0086417,0.0,2025-04-11 21:13:12.008,LEFT,12
22.0,25106.462848956926,28693.068467744408,-31781.744275301015,-27164.85734759061,-36737.03661406477,-31701.725030151014,-10144.786255930216,-38650.368291183506,0.0,0.0,0.0,193.0,0.0,193.0,0.0,0.0,0.0,179.0,193.0,0.0,179.0,1744420392.0086968,0.0,2025-04-11 21:13:12.008,LEFT,12
23.0,25088.089715014663,28694.00724101153,-31770.99308621801,-27148.205297971406,-36726.64305289305,-31680.73674210748,-10450.714582290004,-38638.65597708893,0.0,0.0,0.0,193.0,0.0,193.0,0.0,0.0,0.0,179.0,193.0,0.0,179.0,1744420392.008739,0.0,2025-04-11 21:13:12.008,LEFT,12
24.0,25075.997421264343,28703.283214960484,-31758.453757578583,-27136.51533562128,-36717.14356149954,-31667.057474500834,-10735.8334345619,-38635.83965728756,0.0,0.0,0.0,193.0,0.0,193.0,0.0,0.0,0.0,179.0,193.0,0.0,179.0,1744420392.0087807,0.0,2025-04-11 21:13:12.008,LEFT,12
25.0,25097.991537808364,28705.965424295122,-31761.8959262247,-27132.246152430314,-36724.1173057696,-31672.287782703377,-10456.861312015213,-38606.29065111764,0.0,0.0,0.0,193.0,0.0,193.0,0.0,0.0,0.0,179.0,193.0,0.0,179.0,1744420392.0088224,0.0,2025-04-11 21:13:12.008,LEFT,12
26.0,25115.44825022796,28694.118999733808,-31776.268097909466,-27153.904992807507,-36737.03661406477,-31689.096294533767,-10119.886412607004,-38623.233273414764,0.0,0.0,0.0,193.0,0.0,193.0,0.0,0.0,0.0,179.0,193.0,0.0,179.0,1744420392.008864,0.0,2025-04-11 21:13:12.008,LEFT,12
27.0,25100.182008764987,28687.078200230386,-31762.32060936935,-27138.214068199883,-36720.04928827874,-31669.60557336874,-10384.978101846946,-38611.94564246484,0.0,0.0,0.0,193.0,0.0,193.0,0.0,0.0,0.0,179.0,193.0,0.0,179.0,1744420392.0089056,0.0,2025-04-11 21:13:12.008,LEFT,12
28.0,25077.316174187206,28697.047078257452,-31754.542202298904,-27129.452184373404,-36712.87437830858,-31662.45301514304,-10696.851992231846,-38608.92815696337,0.0,0.0,0.0,193.0,0.0,194.0,0.0,0.0,0.0,179.0,194.0,0.0,179.0,1744420392.0089605,0.0,2025-04-11 21:13:12.008,LEFT,12
29.0,25098.39386920856,28705.384278939284,-31752.575248786838,-27125.69709130491,-36715.22131147639,-31670.79021582487,-10537.41699903214,-38604.6142702835,0.0,0.0,0.0,193.0,0.0,194.0,0.0,0.0,0.0,180.0,194.0,0.0,180.0,1744420392.0090024,0.0,2025-04-11 21:13:12.009,LEFT,12
30.0,25117.146982806564,28695.236586956573,-31771.90950774068,-27148.339408438136,-36733.102707040634,-31691.107951534745,-10112.018598558736,-38620.57341582458,0.0,0.0,0.0,193.0,0.0,194.0,0.0,0.0,0.0,179.0,194.0,0.0,179.0,1744420392.009044,0.0,2025-04-11 21:13:12.009,LEFT,12
31.0,25099.980843064888,28688.039325241964,-31761.91827796916,-27140.963332767886,-36722.776201102286,-31670.20907046903,-10326.99767672988,-38624.95435773783,0.0,0.0,0.0,193.0,0.0,193.0,0.0,0.0,0.0,179.0,193.0,0.0,179.0,1744420392.009086,0.0,2025-04-11 21:13:12.009,LEFT,12
32.0,25071.907052029022,28701.428020170693,-31759.41488259016,-27133.967236753375,-36724.854913336625,-31663.056512243333,-10674.142619865253,-38618.87468324598,0.0,0.0,0.0,193.0,0.0,194.0,0.0,0.0,0.0,179.0,194.0,0.0,179.0,1744420392.0091393,0.0,2025-04-11 21:13:12.009,LEFT,12
33.0,25080.06543875521,28698.321127691404,-31755.480975566028,-27129.072204717664,-36713.03084051977,-31668.018599512412,-10618.218555238076,-38605.575395295076,0.0,0.0,0.0,193.0,0.0,193.0,0.0,0.0,0.0,179.0,193.0,0.0,179.0,1744420392.0091815,0.0,2025-04-11 21:13:12.009,LEFT,12
34.0,25105.63583441208,28694.63308985628,-31774.770531030957,-27151.826280573165,-36729.817000605704,-31698.931062094103,-10124.043837075691,-38616.527750078174,0.0,0.0,0.0,193.0,0.0,194.0,0.0,0.0,0.0,179.0,194.0,0.0,179.0,1744420392.0092237,0.0,2025-04-11 21:13:12.009,LEFT,12
35.0,25097.835075597177,28678.53983384846,-31770.277830395444,-27155.42491143047,-36726.687756381965,-31685.944698565567,-10257.394344496053,-38639.661805589414,0.0,0.0,0.0,193.0,0.0,193.0,0.0,0.0,0.0,179.0,193.0,0.0,179.0,1744420392.0092654,0.0,2025-04-11 21:13:12.009,LEFT,12
36.0,25079.461941654914,28697.315299190916,-31752.23997262001,-27130.972102996362,-36708.3146224397,-31656.239230184467,-10605.545116131916,-38596.43353181285,0.0,0.0,0.0,193.0,0.0,194.0,0.0,0.0,0.0,179.0,194.0,0.0,179.0,1744420392.009307,0.0,2025-04-11 21:13:12.009,LEFT,12
37.0,25084.021697523796,28706.188941739674,-31746.070891150346,-27120.958521480385,-36703.397238659534,-31654.473442372495,-10660.463352258606,-38590.21974685428,0.0,0.0,0.0,193.0,0.0,193.0,0.0,0.0,0.0,179.0,193.0,0.0,179.0,1744420392.0093615,0.0,2025-04-11 21:13:12.009,LEFT,12
38.0,25110.083831558684,28703.752601594046,-31771.261307151475,-27143.109100235597,-36730.68871863946,-31689.94566082307,-10199.235105423344,-38603.317869105085,0.0,0.0,0.0,193.0,0.0,193.0,0.0,0.0,0.0,179.0,193.0,0.0,179.0,1744420392.0094035,0.0,2025-04-11 21:13:12.009,LEFT,12
39.0,25093.230616239383,28675.63410706927,-31782.23601367903,-27163.85151909012,-36737.52835244279,-31697.65701266015,-10226.705399358916,-38654.704529607836,0.0,0.0,0.0,193.0,0.0,193.0,0.0,0.0,0.0,179.0,193.0,0.0,179.0,1744420392.0094452,0.0,2025-04-11 21:13:12.009,LEFT,12
40.0,25068.219014193895,28683.68073507318,-31771.663638551672,-27146.41715841498,-36720.3175092122,-31677.249869972453,-10573.626825049738,-38638.38775615546,0.0,0.0,0.0,193.0,0.0,193.0,0.0,0.0,0.0,179.0,193.0,0.0,179.0,1744420392.0094895,0.0,2025-04-11 21:13:12.009,LEFT,12
41.0,25062.9663542469,28695.035421256474,-31765.785129759926,-27138.57169611117,-36715.10955275411,-31669.717332091015,-10709.391320871273,-38621.64629955844,0.0,0.0,0.0,193.0,0.0,194.0,0.0,0.0,0.0,179.0,194.0,0.0,179.0,1744420392.0095315,0.0,2025-04-11 21:13:12.009,LEFT,12
42.0,25094.951700562444,28697.382354424284,-31775.508138597983,-27141.544478123724,-36730.59931166164,-31684.760056109437,-10274.806353426738,-38598.355781836006,0.0,0.0,0.0,193.0,0.0,194.0,0.0,0.0,0.0,179.0,194.0,0.0,179.0,1744420392.0095732,0.0,2025-04-11 21:13:12.009,LEFT,12
43.0,25095.8234185962,28677.601060581335,-31778.682086310637,-27157.213050986895,-36731.426326206485,-31687.352858466253,-10174.938759200426,-38641.78522131267,0.0,0.0,0.0,193.0,0.0,193.0,0.0,0.0,0.0,179.0,193.0,0.0,179.0,1744420392.0096288,0.0,2025-04-11 21:13:12.009,LEFT,12
44.0,25067.48140662687,28677.355191392326,-31775.821063020358,-27147.355931682105,-36731.2698639953,-31675.908765305136,-10508.65030391816,-38633.85035203104,0.0,0.0,0.0,193.0,0.0,193.0,0.0,0.0,0.0,179.0,193.0,0.0,179.0,1744420392.0096707,0.0,2025-04-11 21:13:12.009,LEFT,12
45.0,25059.8147582787,28690.67683108769,-31762.700589025095,-27132.26850417477,-36720.3175092122,-31663.615305854717,-10745.958774800156,-38627.48010486127,0.0,0.0,0.0,193.0,0.0,193.0,0.0,0.0,0.0,179.0,193.0,0.0,179.0,1744420392.0097127,0.0,2025-04-11 21:13:12.009,LEFT,12
46.0,25092.738877861368,28701.517427148516,-31766.500385582494,-27131.262675674283,-36724.45258193643,-31678.523919406405,-10375.322148242254,-38605.37422959498,0.0,0.0,0.0,193.0,0.0,193.0,0.0,0.0,0.0,179.0,193.0,0.0,179.0,1744420392.0097547,0.0,2025-04-11 21:13:12.009,LEFT,12
47.0,25102.841866355167,28685.893557774256,-31777.408036876684,-27153.592068385133,-36733.90736984103,-31691.756152123948,-10148.563700743163,-38654.05632901863,0.0,0.0,0.0,193.0,0.0,194.0,0.0,0.0,0.0,179.0,194.0,0.0,179.0,1744420392.0098083,0.0,2025-04-11 21:13:12.009,LEFT,12
48.0,25080.11014224412,28682.183168194675,-31764.66754253716,-27137.476460632857,-36718.19409348894,-31665.06816924431,-10457.889492260158,-38637.94072126636,0.0,0.0,0.0,193.0,0.0,193.0,0.0,0.0,0.0,179.0,193.0,0.0,179.0,1744420392.00985,0.0,2025-04-11 21:13:12.009,LEFT,12
49.0,25067.43670313796,28696.085953245874,-31753.692836009603,-27123.32780639265,-36711.33210794117,-31653.288799916365,-10733.55355662746,-38616.4159913559,0.0,0.0,0.0,193.0,0.0,194.0,0.0,0.0,0.0,180.0,194.0,0.0,180.0,1744420392.0098915,0.0,2025-04-11 21:13:12.009,LEFT,12
50.0,25101.992500065866,28712.02274704251,-31747.32258883984,-27109.80500099719,-36708.80636081772,-31652.327674904787,-10464.371498152197,-38583.11189211749,0.0,0.0,0.0,193.0,0.0,194.0,0.0,0.0,0.0,179.0,194.0,0.0,179.0,1744420392.0099337,0.0,2025-04-11 21:13:12.009,LEFT,12
51.0,25111.29082575927,28699.25990095853,-31769.651981550694,-27138.214068199883,-36734.60027391914,-31681.31788746332,-10111.973895069827,-38624.75319203773,0.0,0.0,0.0,193.0,0.0,193.0,0.0,0.0,0.0,178.0,193.0,0.0,178.0,1744420392.009975,0.0,2025-04-11 21:13:12.009,LEFT,12
52.0,25086.949776047444,28688.598118853348,-31766.165109415666,-27133.90018152001,-36733.54974192974,-31673.673590859606,-10389.806078649293,-38642.41107015742,0.0,0.0,0.0,193.0,0.0,193.0,0.0,0.0,0.0,179.0,193.0,0.0,179.0,1744420392.010106,0.0,2025-04-11 21:13:12.010,LEFT,12
53.0,25071.795293306746,28706.97125279561,-31750.63064701923,-27113.381280110036,-36720.49632316784,-31657.69209357406,-10716.0297889745,-38630.83286652957,0.0,0.0,0.0,193.0,0.0,193.0,0.0,0.0,0.0,179.0,193.0,0.0,179.0,1744420392.0101483,0.0,2025-04-11 21:13:12.010,LEFT,12
54.0,25099.645566898056,28721.321072735915,-31744.930952183124,-27101.668966015455,-36716.78593358826,-31659.92726801959,-10565.870769723746,-38613.107933176514,0.0,0.0,0.0,193.0,0.0,193.0,0.0,0.0,0.0,178.0,193.0,0.0,178.0,1744420392.0101905,0.0,2025-04-11 21:13:12.010,LEFT,12
55.0,25125.350073021662,28718.84002910138,-31763.77347275895,-27126.83703027213,-36737.19307627596,-31682.234308985986,-10143.467503007354,-38629.2682444177,0.0,0.0,0.0,193.0,0.0,193.0,0.0,0.0,0.0,180.0,193.0,0.0,180.0,1744420392.010232,0.0,2025-04-11 21:13:12.010,LEFT,12
56.0,25104.8758751006,28700.556302136934,-31759.68310352363,-27127.7534517948,-36727.60417790463,-31669.65027685765,-10340.47577863643,-38637.20311369933,0.0,0.0,0.0,193.0,0.0,194.0,0.0,0.0,0.0,179.0,194.0,0.0,179.0,1744420392.0102737,0.0,2025-04-11 21:13:12.010,LEFT,12
57.0,25074.589261363657,28701.182150981684,-31759.86191747927,-27126.010015727286,-36719.28932896726,-31664.956410522034,-10655.210692311608,-38621.80276176963,0.0,0.0,0.0,193.0,0.0,194.0,0.0,0.0,0.0,180.0,194.0,0.0,180.0,1744420392.0103157,0.0,2025-04-11 21:13:12.010,LEFT,12
58.0,25084.871063813098,28705.227816728097,-31754.363388343263,-27118.745698779312,-36715.93656729896,-31663.525898876895,-10625.169947763676,-38613.39850585443,0.0,0.0,0.0,193.0,0.0,193.0,0.0,0.0,0.0,179.0,193.0,0.0,179.0,1744420392.0103729,0.0,2025-04-11 21:13:12.010,LEFT,12
59.0,25110.329700747694,28701.11509574832,-31778.793845032913,-27140.762167067787,-36743.518619956805,-31694.348954480763,-10152.318793811655,-38621.04280245815,0.0,0.0,0.0,193.0,0.0,193.0,0.0,0.0,0.0,179.0,193.0,0.0,179.0,1744420392.0104144,0.0,2025-04-11 21:13:12.010,LEFT,12
60.0,25098.72914537539,28682.29492691695,-31776.08928395382,-27145.94777178142,-36740.50113445534,-31687.106989277243,-10273.107620848134,-38653.18461098488,0.0,0.0,0.0,193.0,0.0,193.0,0.0,0.0,0.0,179.0,193.0,0.0,179.0,1744420392.010456,0.0,2025-04-11 21:13:12.010,LEFT,12
61.0,25076.10917998662,28702.38914518227,-31761.739464013513,-27125.384166882537,-36724.54198891425,-31663.07886398779,-10617.324485459863,-38622.272148403186,0.0,0.0,0.0,193.0,0.0,194.0,0.0,0.0,0.0,179.0,194.0,0.0,179.0,1744420392.0104976,0.0,2025-04-11 21:13:12.010,LEFT,12
62.0,25075.55038637524,28719.152953523753,-31757.17970814463,-27119.818582513166,-36717.81411383321,-31659.681398830584,-10684.826753714891,-38612.0126976982,0.0,0.0,0.0,193.0,0.0,194.0,0.0,0.0,0.0,179.0,194.0,0.0,179.0,1744420392.0105524,0.0,2025-04-11 21:13:12.010,LEFT,12
63.0,25103.132439033085,28704.356098694338,-31779.173824688653,-27136.73885306583,-36741.50696295583,-31690.16917826762,-10225.386646436054,-38619.83580825756,0.0,0.0,0.0,193.0,0.0,194.0,0.0,0.0,0.0,179.0,194.0,0.0,179.0,1744420392.0105944,0.0,2025-04-11 21:13:12.010,LEFT,12
64.0,25096.04693604075,28677.824578025888,-31782.3030689124,-27149.568754383177,-36745.59733219115,-31691.286765490386,-10237.300126230732,-38663.48876517877,0.0,0.0,0.0,193.0,0.0,193.0,0.0,0.0,0.0,179.0,193.0,0.0,179.0,1744420392.010636,0.0,2025-04-11 21:13:12.010,LEFT,12
65.0,25068.688400827457,28686.899386274745,-31772.937687985625,-27132.98375999734,-36736.79074487576,-31672.60070712575,-10578.700671041093,-38637.53838986616,0.0,0.0,0.0,193.0,0.0,193.0,0.0,0.0,0.0,179.0,193.0,0.0,179.0,1744420392.0106776,0.0,2025-04-11 21:13:12.010,LEFT,12
66.0,25076.444456153447,28708.222950485106,-31750.63064701923,-27110.721422519855,-36709.87924455157,-31650.45012837054,-10725.529280368004,-38606.06713367309,0.0,0.0,0.0,193.0,0.0,193.0,0.0,0.0,0.0,179.0,193.0,0.0,179.0,1744420392.0107193,0.0,2025-04-11 21:13:12.010,LEFT,12
67.0,25106.10522104564,28716.49309593357,-31766.701551282593,-27120.287969146728,-36728.87822733858,-31672.712465848028,-10293.961798424936,-38600.389790581445,0.0,0.0,0.0,193.0,0.0,193.0,0.0,0.0,0.0,178.0,193.0,0.0,178.0,1744420392.0108533,0.0,2025-04-11 21:13:12.010,LEFT,12
68.0,25100.472581442904,28689.96157526512,-31782.034847978935,-27146.350103181616,-36745.686739168974,-31686.592899154773,-10179.274997624756,-38658.37021569851,0.0,0.0,0.0,193.0,0.0,193.0,0.0,0.0,0.0,179.0,193.0,0.0,179.0,1744420392.0108957,0.0,2025-04-11 21:13:12.010,LEFT,12
69.0,25070.67770608398,28679.7691797935,-31780.604336333792,-27135.598914098613,-36746.08907056917,-31676.46755891652,-10516.048731332867,-38654.346901696554,0.0,0.0,0.0,193.0,0.0,194.0,0.0,0.0,0.0,180.0,194.0,0.0,180.0,1744420392.0109377,0.0,2025-04-11 21:13:12.010,LEFT,12
70.0,25062.9663542469,28699.282252702982,-31763.102920425288,-27115.817620255664,-36727.76064011582,-31652.12650920469,-10748.596280645881,-38619.612290813006,0.0,0.0,0.0,193.0,0.0,193.0,0.0,0.0,0.0,179.0,193.0,0.0,179.0,1744420392.0109797,0.0,2025-04-11 21:13:12.010,LEFT,12
71.0,25097.49979943035,28709.273482474506,-31764.1981559036,-27112.420155098458,-36729.86170409462,-31665.93988727807,-10412.269581826877,-38605.03895342815,0.0,0.0,0.0,193.0,0.0,193.0,0.0,0.0,0.0,179.0,193.0,0.0,179.0,1744420392.0110214,0.0,2025-04-11 21:13:12.011,LEFT,12
72.0,25105.12174428961,28690.565072365414,-31785.38760964723,-27143.623190358066,-36752.056986338735,-31689.11864627822,-10161.43830554942,-38663.51111692323,0.0,0.0,0.0,193.0,0.0,193.0,0.0,0.0,0.0,178.0,193.0,0.0,178.0,1744420392.011063,0.0,2025-04-11 21:13:12.011,LEFT,12
73.0,25072.48819738486,28675.81292102491,-31784.828816035846,-27141.142146723527,-36753.91218112853,-31675.908765305136,-10474.720355835005,-38653.4751836628,0.0,0.0,0.0,193.0,0.0,193.0,0.0,0.0,0.0,179.0,193.0,0.0,179.0,1744420392.011125,0.0,2025-04-11 21:13:12.011,LEFT,12
74.0,25052.95277273092,28681.289098416462,-31768.512042583472,-27128.915742506477,-36733.102707040634,-31658.87673603019,-10761.672051152236,-38624.90965424891,0.0,0.0,0.0,193.0,0.0,194.0,0.0,0.0,0.0,179.0,194.0,0.0,179.0,1744420392.0111675,0.0,2025-04-11 21:13:12.011,LEFT,12
75.0,25085.116933002108,28688.888691531265,-31765.85218499329,-27126.725271549854,-36729.59348316115,-31671.84074781427,-10507.59977192876,-38602.9602411938,0.0,0.0,0.0,193.0,0.0,194.0,0.0,0.0,0.0,179.0,194.0,0.0,179.0,1744420392.0112092,0.0,2025-04-11 21:13:12.011,LEFT,12
76.0,25105.7252413899,28683.34545890635,-31782.213661934577,-27150.641638117035,-36744.5244484573,-31693.74545738047,-10125.653162676474,-38629.93879675136,0.0,0.0,0.0,193.0,0.0,194.0,0.0,0.0,0.0,179.0,194.0,0.0,179.0,1744420392.011264,0.0,2025-04-11 21:13:12.011,LEFT,12
77.0,25082.412371923016,28676.125845447285,-31769.204946661586,-27138.23641994434,-36727.090087782155,-31671.93015479209,-10363.676889381039,-38630.16231419591,0.0,0.0,0.0,193.0,0.0,194.0,0.0,0.0,0.0,179.0,194.0,0.0,179.0,1744420392.485426,0.0,2025-04-11 21:13:12.485,LEFT,12
78.0,25059.30066815623,28689.15691246473,-31760.755987257482,-27126.434698871937,-36719.31168071171,-31661.558945364828,-10689.40886132823,-38621.914520491904,0.0,0.0,0.0,193.0,0.0,193.0,0.0,0.0,0.0,179.0,193.0,0.0,179.0,1744420392.4855974,0.0,2025-04-11 21:13:12.485,LEFT,12
79.0,25074.54455787475,28689.536892120468,-31763.57230705885,-27124.04306221522,-36722.59738714664,-31670.387884424676,-10576.130220428733,-38613.86789248799,0.0,0.0,0.0,193.0,0.0,193.0,0.0,0.0,0.0,179.0,193.0,0.0,179.0,1744420392.4856496,0.0,2025-04-11 21:13:12.485,LEFT,12
80.0,25096.73984011887,28682.20551993913,-31785.320554413865,-27147.08771074864,-36743.920951357,-31695.064210303335,-10144.38392453002,-38630.83286652957,0.0,0.0,0.0,193.0,0.0,193.0,0.0,0.0,0.0,179.0,193.0,0.0,179.0,1744420392.4857,0.0,2025-04-11 21:13:12.485,LEFT,12
81.0,25075.259813697317,28666.00050520903,-31786.125217214256,-27150.351065439114,-36740.63524492207,-31688.001059055456,-10324.382522628608,-38652.804631329134,0.0,0.0,0.0,193.0,0.0,194.0,0.0,0.0,0.0,179.0,194.0,0.0,179.0,1744420392.4857483,0.0,2025-04-11 21:13:12.485,LEFT,12
82.0,25059.658296067515,28685.625336840792,-31765.271039637453,-27128.69222506192,-36720.20575048992,-31660.284895930876,-10655.501264989527,-38621.4674856028,0.0,0.0,0.0,193.0,0.0,194.0,0.0,0.0,0.0,180.0,194.0,0.0,180.0,1744420392.486164,0.0,2025-04-11 21:13:12.486,LEFT,12
83.0,25071.929403773476,28694.58838636737,-31755.033940676924,-27116.51052433378,-36714.97544228738,-31655.568677850806,-10645.621793940281,-38607.11766566249,0.0,0.0,0.0,193.0,0.0,194.0,0.0,0.0,0.0,180.0,194.0,0.0,180.0,1744420392.4862173,0.0,2025-04-11 21:13:12.486,LEFT,12
84.0,25099.131476775587,28691.72736307709,-31779.911432255678,-27138.66110308899,-36744.636207179574,-31691.21971025702,-10184.170029660467,-38627.368346138996,0.0,0.0,0.0,193.0,0.0,194.0,0.0,0.0,0.0,179.0,194.0,0.0,179.0,1744420392.4862652,0.0,2025-04-11 21:13:12.486,LEFT,12
85.0,25095.01875579581,28678.875110015288,-31775.821063020358,-27141.969161268375,-36740.3223204997,-31682.502529919453,-10272.481772003386,-38656.35855869753,0.0,0.0,0.0,193.0,0.0,194.0,0.0,0.0,0.0,179.0,194.0,0.0,179.0,1744420392.486314,0.0,2025-04-11 21:13:12.486,LEFT,12
86.0,25074.29868868574,28696.354174179338,-31758.18553664512,-27118.85745750159,-36719.15521850052,-31655.07693947279,-10609.233153967041,-38621.221616413786,0.0,0.0,0.0,193.0,0.0,193.0,0.0,0.0,0.0,179.0,193.0,0.0,179.0,1744420392.4863615,0.0,2025-04-11 21:13:12.486,LEFT,12
87.0,25078.277299198784,28708.71468886312,-31752.195269131098,-27111.03434694223,-36717.255320221826,-31653.55702084983,-10706.195021414163,-38621.6686513029,0.0,0.0,0.0,193.0,0.0,193.0,0.0,0.0,0.0,179.0,193.0,0.0,179.0,1744420392.4864092,0.0,2025-04-11 21:13:12.486,LEFT,12
88.0,25111.089660059173,28710.34636620836,-31769.80844376188,-27125.02653897125,-36738.13184954308,-31678.725085106504,-10244.631498412073,-38618.80762801262,0.0,0.0,0.0,193.0,0.0,193.0,0.0,0.0,0.0,179.0,193.0,0.0,179.0,1744420392.4864843,0.0,2025-04-11 21:13:12.486,LEFT,12
89.0,25105.76994487881,28682.227871683583,-31775.86576650927,-27142.550306624213,-36738.08714605417,-31682.97191655301,-10224.961963291404,-38662.34882621156,0.0,0.0,0.0,193.0,0.0,194.0,0.0,0.0,0.0,180.0,194.0,0.0,180.0,1744420392.4865324,0.0,2025-04-11 21:13:12.486,LEFT,12
90.0,25071.929403773476,28682.607851339326,-31773.272964152453,-27136.26946643227,-36729.23585524987,-31673.003038525945,-10558.159417886665,-38647.79784057115,0.0,0.0,0.0,193.0,0.0,194.0,0.0,0.0,0.0,180.0,194.0,0.0,180.0,1744420392.4865797,0.0,2025-04-11 21:13:12.486,LEFT,12
91.0,25066.9673165044,28694.521331134005,-31762.52177506945,-27125.674739560454,-36719.66930862299,-31663.83882329927,-10739.990859030588,-38638.477163133284,0.0,0.0,0.0,193.0,0.0,194.0,0.0,0.0,0.0,179.0,194.0,0.0,179.0,1744420392.4866433,0.0,2025-04-11 21:13:12.486,LEFT,12
92.0,25092.247139483352,28693.269633444506,-31778.14564444371,-27135.93419026544,-36736.50017219784,-31694.192492269576,-10335.446636133986,-38636.0184712432,0.0,0.0,0.0,193.0,0.0,193.0,0.0,0.0,0.0,179.0,193.0,0.0,179.0,1744420392.4866912,0.0,2025-04-11 21:13:12.486,LEFT,12
93.0,25091.420124938504,28672.974249479088,-31786.81812129237,-27154.575545141168,-36742.490439711866,-31699.959242339046,-10173.955282444393,-38668.204983258845,0.0,0.0,0.0,193.0,0.0,194.0,0.0,0.0,0.0,180.0,194.0,0.0,180.0,1744420392.4867387,0.0,2025-04-11 21:13:12.486,LEFT,12
94.0,25063.234575180362,28669.353266877326,-31780.537281100427,-27143.71259733589,-36731.56043667322,-31676.758131594437,-10480.665919860116,-38634.16327645341,0.0,0.0,0.0,193.0,0.0,193.0,0.0,0.0,0.0,179.0,193.0,0.0,179.0,1744420392.4868033,0.0,2025-04-11 21:13:12.486,LEFT,12
95.0,25051.499909341328,28684.574804851392,-31766.567440815863,-27128.066376217175,-36719.37873594508,-31661.670704087104,-10733.330039182907,-38622.65212805893,0.0,0.0,0.0,193.0,0.0,193.0,0.0,0.0,0.0,179.0,193.0,0.0,179.0,1744420392.4868588,0.0,2025-04-11 21:13:12.486,LEFT,12
96.0,25086.726258602892,28691.325031676894,-31766.165109415666,-27121.293797647217,-36722.03859353526,-31672.69011410357,-10425.390055822141,-38620.59576756904,0.0,0.0,0.0,193.0,0.0,193.0,0.0,0.0,0.0,179.0,193.0,0.0,179.0,1744420392.486902,0.0,2025-04-11 21:13:12.486,LEFT,12
97.0,25104.428840211494,28681.82554028339,-31772.021266462954,-27135.28598967624,-36727.55947441572,-31674.16532923762,-10146.172064086446,-38640.734689323275,0.0,0.0,0.0,193.0,0.0,193.0,0.0,1.0,0.0,179.0,193.0,1.0,179.0,1744420392.4870477,0.0,2025-04-11 21:13:12.487,LEFT,12
98.0,25080.333659688673,28675.745865791545,-31765.271039637453,-27125.719443049366,-36716.78593358826,-31657.423872640597,-10422.260811598399,-38628.17300893939,0.0,0.0,0.0,193.0,0.0,194.0,0.0,2.0,0.0,179.0,194.0,2.0,179.0,1744420392.4870913,0.0,2025-04-11 21:13:12.487,LEFT,12
99.0,25063.34633390264,28690.7215345766,-31754.27398136544,-27112.64367254301,-36701.854968292115,-31643.07405270029,-10717.683818064192,-38616.4159913559,0.0,0.0,0.0,193.0,0.0,194.0,0.0,3.0,0.0,179.0,194.0,3.0,179.0,1744420392.4871345,0.0,2025-04-11 21:13:12.487,LEFT,12
100.0,25077.897319543044,28687.413476397214,-31768.065007694368,-27118.85745750159,-36718.574073144686,-31665.090520988768,-10514.88644062119,-38620.32754663558,0.0,0.0,0.0,193.0,0.0,193.0,0.0,4.0,0.0,179.0,193.0,4.0,179.0,1744420392.4871776,0.0,2025-04-11 21:13:12.487,LEFT,12
101.0,25100.24906399835,28681.646726327745,-31782.750103801503,-27142.147975224016,-36732.208637262425,-31688.291631733377,-10127.933040610915,-38639.1700672114,0.0,0.0,0.0,193.0,0.0,193.0,0.0,6.0,0.0,179.0,193.0,6.0,179.0,1744420392.48722,0.0,2025-04-11 21:13:12.487,LEFT,12
102.0,25085.318098702206,28672.95189773463,-31772.781225774437,-27137.23059144385,-36720.02693653428,-31675.34997169375,-10369.57774991724,-38646.92612253739,0.0,0.0,0.0,193.0,0.0,193.0,0.0,7.0,0.0,179.0,193.0,7.0,179.0,1744420392.487263,0.0,2025-04-11 21:13:12.487,LEFT,12
103.0,25060.015923978797,28683.323107161894,-31769.629629806237,-27127.686396561432,-36715.80245683223,-31665.537555877872,-10706.26207664753,-38639.952378267335,0.0,0.0,0.0,193.0,0.0,193.0,0.0,8.0,0.0,179.0,193.0,8.0,179.0,1744420392.487322,0.0,2025-04-11 21:13:12.487,LEFT,12
104.0,25076.77973232028,28689.536892120468,-31765.0475221929,-27121.249094158306,-36716.42830567698,-31670.365532680218,-10614.66462786968,-38637.851314288535,0.0,0.0,0.0,193.0,0.0,194.0,0.0,8.0,0.0,179.0,194.0,8.0,179.0,1744420392.4873652,0.0,2025-04-11 21:13:12.487,LEFT,12
105.0,25100.740802376367,28681.37850539428,-31788.695667826614,-27147.445338659923,-36744.725614157396,-31697.79112312688,-10136.04672384819,-38638.87949453348,0.0,0.0,0.0,193.0,0.0,193.0,0.0,9.0,0.0,179.0,193.0,9.0,179.0,1744420392.4874077,0.0,2025-04-11 21:13:12.487,LEFT,12
106.0,25086.81566558071,28667.63218255427,-31783.778284046446,-27147.04300725973,-36741.8198873782,-31681.966088052523,-10307.417548587031,-38653.229314473785,0.0,0.0,0.0,193.0,0.0,193.0,0.0,10.0,0.0,179.0,193.0,10.0,179.0,1744420392.4874628,0.0,2025-04-11 21:13:12.487,LEFT,12
107.0,25070.67770608398,28688.44165664216,-31764.80165300389,-27122.389033125524,-36722.351517957635,-31655.389863895165,-10670.007547141022,-38625.69196530485,0.0,0.0,0.0,193.0,0.0,193.0,0.0,10.0,0.0,179.0,193.0,10.0,179.0,1744420392.487506,0.0,2025-04-11 21:13:12.487,LEFT,12
108.0,25072.15292121803,28692.28615668847,-31765.20398440409,-27118.186905167928,-36722.53033191327,-31656.976837751492,-10674.321433820896,-38613.89024423245,0.0,0.0,0.0,193.0,0.0,193.0,0.0,11.0,0.0,180.0,193.0,11.0,180.0,1744420392.4875484,0.0,2025-04-11 21:13:12.487,LEFT,12
109.0,25091.755401105333,28683.524272861992,-31796.831702808347,-27144.830184558654,-36755.18623056248,-31693.0302015579,-10192.976616975859,-38627.860084517015,0.0,0.0,0.0,193.0,0.0,193.0,0.0,11.0,0.0,179.0,193.0,11.0,179.0,1744420392.4875915,0.0,2025-04-11 21:13:12.487,LEFT,12
110.0,25079.707810843924,28663.7653307635,-31794.37301091826,-27152.273315462273,-36743.40686123453,-31685.45296018755,-10273.822876670703,-38659.46545117682,0.0,0.0,0.0,193.0,0.0,193.0,0.0,12.0,0.0,179.0,193.0,12.0,179.0,1744420392.487635,0.0,2025-04-11 21:13:12.487,LEFT,12
111.0,25059.613592578604,28681.40085713874,-31776.782188031935,-27131.709710563387,-36719.15521850052,-31660.664875586615,-10605.411005665184,-38625.08846820456,0.0,0.0,0.0,193.0,0.0,193.0,0.0,12.0,0.0,179.0,193.0,12.0,179.0,1744420392.4877448,0.0,2025-04-11 21:13:12.487,LEFT,12
112.0,25064.553328103226,28692.643784599757,-31770.255478650986,-27123.260751159283,-36714.52840739828,-31655.45691912853,-10709.704245293648,-38614.18081691037,0.0,0.0,0.0,193.0,0.0,193.0,0.0,13.0,0.0,180.0,193.0,13.0,180.0,1744420392.487789,0.0,2025-04-11 21:13:12.487,LEFT,12
113.0,25096.11399127412,28694.409572411725,-31789.790903304925,-27135.867135032076,-36737.46129720942,-31680.1779484961,-10260.657699186528,-38617.22065415629,0.0,0.0,0.0,193.0,0.0,194.0,0.0,13.0,0.0,180.0,194.0,13.0,180.0,1744420392.4878373,0.0,2025-04-11 21:13:12.487,LEFT,12
114.0,25096.15869476303,28681.8702437723,-31792.473112639564,-27145.768957825778,-36738.60123617664,-31675.34997169375,-10213.093186985634,-38652.06702376211,0.0,0.0,0.0,193.0,0.0,193.0,0.0,13.0,0.0,179.0,193.0,13.0,179.0,1744420392.4878802,0.0,2025-04-11 21:13:12.487,LEFT,12
115.0,25063.078112969175,28683.23370018407,-31789.120350971265,-27134.369568153572,-36732.87918959608,-31660.508413375428,-10537.841682176791,-38632.6657095749,0.0,0.0,0.0,193.0,0.0,193.0,0.0,13.0,0.0,179.0,193.0,13.0,179.0,1744420392.4879231,0.0,2025-04-11 21:13:12.487,LEFT,12
116.0,25061.692304812947,28694.431924156183,-31774.949344986602,-27119.773879024255,-36719.71401211191,-31647.611456824718,-10739.02973401901,-38629.536465351164,0.0,0.0,0.0,193.0,0.0,193.0,0.0,14.0,0.0,179.0,193.0,14.0,179.0,1744420392.4879663,0.0,2025-04-11 21:13:12.487,LEFT,12
117.0,25087.44151442546,28691.570900865903,-31789.030943993446,-27123.774841281756,-36736.47782045339,-31662.430663398587,-10350.802284574782,-38602.82613072707,0.0,0.0,0.0,193.0,0.0,193.0,0.0,14.0,0.0,180.0,193.0,14.0,180.0,1744420392.488009,0.0,2025-04-11 21:13:12.488,LEFT,12
118.0,25093.63294763958,28678.7186478041,-31795.535301629938,-27139.018731000273,-36739.85293386614,-31667.303343689844,-10162.891168939015,-38635.63849158746,0.0,0.0,0.0,193.0,0.0,194.0,0.0,14.0,0.0,179.0,194.0,14.0,179.0,1744420392.4880688,0.0,2025-04-11 21:13:12.488,LEFT,12
119.0,25066.92261301549,28675.030609968977,-31789.29916492691,-27124.22187617086,-36729.1688000165,-31647.097366702244,-10469.288881932365,-38615.700735533326,0.0,0.0,0.0,193.0,0.0,193.0,0.0,14.0,0.0,179.0,193.0,14.0,179.0,1744420392.4881115,0.0,2025-04-11 21:13:12.488,LEFT,12
120.0,25052.036351208255,28686.564110107913,-31775.10580719779,-27108.620358541055,-36713.88020680907,-31632.322863617286,-10746.875196322822,-38609.755171508215,0.0,0.0,0.0,193.0,0.0,194.0,0.0,14.0,0.0,180.0,194.0,14.0,180.0,1744420392.488155,0.0,2025-04-11 21:13:12.488,LEFT,12
121.0,25082.613537623114,28691.883825288278,-31783.71122881308,-27110.520256819756,-36727.023032548794,-31651.634770826673,-10451.407486368118,-38610.53748256415,0.0,0.0,0.0,193.0,0.0,193.0,0.0,14.0,0.0,179.0,193.0,14.0,179.0,1744420392.4882095,0.0,2025-04-11 21:13:12.488,LEFT,12
122.0,25095.935177318475,28676.215252425107,-31801.302051699407,-27137.968199010873,-36747.38547174758,-31667.683323345584,-10148.094314109601,-38637.76190731071,0.0,0.0,0.0,193.0,0.0,193.0,0.0,15.0,0.0,179.0,193.0,15.0,179.0,1744420392.488253,0.0,2025-04-11 21:13:12.488,LEFT,12
123.0,25070.7671130618,28667.989810465555,-31792.16018821719,-27131.821469285664,-36736.36606173111,-31656.485099373473,-10424.227765110465,-38632.464543874805,0.0,0.0,0.0,193.0,0.0,194.0,0.0,15.0,0.0,180.0,194.0,15.0,180.0,1744420392.4882958,0.0,2025-04-11 21:13:12.488,LEFT,12
124.0,25061.33467690166,28690.25214794304,-31769.33905712832,-27112.93424522093,-36712.15912248601,-31639.1177939317,-10720.254268676552,-38617.19830241183,0.0,0.0,0.0,193.0,0.0,194.0,0.0,15.0,0.0,180.0,194.0,15.0,180.0,1744420392.4883387,0.0,2025-04-11 21:13:12.488,LEFT,12
125.0,25078.031430009774,28688.44165664216,-31769.47316759505,-27111.347271364604,-36717.68000336648,-31657.200355196044,-10531.426731518119,-38617.2653576452,0.0,0.0,0.0,193.0,0.0,193.0,0.0,15.0,0.0,179.0,193.0,15.0,179.0,1744420392.4883816,0.0,2025-04-11 21:13:12.488,LEFT,12
126.0,25104.20532276694,28683.85954902882,-31783.979449746545,-27131.7544140523,-36740.21056177742,-31680.75909385194,-10137.991325615803,-38647.082584748576,0.0,0.0,0.0,193.0,0.0,193.0,0.0,15.0,0.0,179.0,193.0,15.0,179.0,1744420392.488502,0.0,2025-04-11 21:13:12.488,LEFT,12
127.0,25090.637813882568,28676.05879021392,-31774.3011443974,-27123.394861626013,-36730.59931166164,-31665.64931460015,-10371.902331340592,-38664.85222159055,0.0,0.0,0.0,193.0,0.0,193.0,0.0,15.0,0.0,179.0,193.0,15.0,179.0,1744420392.4885457,0.0,2025-04-11 21:13:12.488,LEFT,12
128.0,25061.96052574641,28690.45331364314,-31770.791920517913,-27114.007128954785,-36721.926834812984,-31650.830108026283,-10696.181439898186,-38636.19728519885,0.0,0.0,0.0,193.0,0.0,194.0,0.0,15.0,0.0,180.0,194.0,15.0,180.0,1744420392.4885886,0.0,2025-04-11 21:13:12.488,LEFT,12
129.0,25083.619366123603,28704.914892305722,-31761.784167502425,-27102.85360847159,-36712.494398652845,-31641.777651521883,-10624.298229729919,-38601.48502605975,0.0,0.0,0.0,193.0,0.0,194.0,0.0,15.0,0.0,180.0,194.0,15.0,180.0,1744420392.4886315,0.0,2025-04-11 21:13:12.488,LEFT,12
130.0,25107.893360602066,28692.621432855303,-31784.314725913377,-27128.915742506477,-36733.30387274073,-31675.84171007177,-10159.91838692646,-38626.40722112742,0.0,0.0,0.0,193.0,0.0,194.0,0.0,15.0,0.0,180.0,194.0,15.0,180.0,1744420392.4886749,0.0,2025-04-11 21:13:12.488,LEFT,12
131.0,25088.29088071476,28671.34257213385,-31788.963888760078,-27141.4550711459,-36737.371890231596,-31675.59584088276,-10305.763519497337,-38663.06408203412,0.0,0.0,0.0,193.0,0.0,193.0,0.0,15.0,0.0,179.0,193.0,15.0,179.0,1744420392.4887173,0.0,2025-04-11 21:13:12.488,LEFT,12
132.0,25057.020790221788,28677.198729181142,-31786.77341780346,-27132.492021619324,-36734.93555008597,-31654.674608072593,-10648.840445141846,-38622.763886781206,0.0,0.0,0.0,193.0,0.0,193.0,0.0,16.0,0.0,179.0,193.0,16.0,179.0,1744420392.4887605,0.0,2025-04-11 21:13:12.488,LEFT,12
133.0,25066.654392082026,28685.826502540887,-31773.943516486113,-27122.79136452572,-36721.993890046346,-31649.98074173698,-10707.491422592571,-38619.72404953528,0.0,0.0,0.0,193.0,0.0,193.0,0.0,16.0,0.0,179.0,193.0,16.0,179.0,1744420392.488864,0.0,2025-04-11 21:13:12.488,LEFT,12
134.0,25099.645566898056,28689.112208975817,-31786.885176525735,-27132.916704763975,-36734.577922174685,-31671.147843736155,-10224.872556313581,-38609.17402615238,0.0,0.0,0.0,193.0,0.0,194.0,0.0,16.0,0.0,179.0,194.0,16.0,179.0,1744420392.4889076,0.0,2025-04-11 21:13:12.488,LEFT,12
135.0,25086.122761502596,28672.795435523443,-31789.9026620272,-27145.56779212568,-36734.153239030034,-31670.253773957942,-10245.167940279001,-38636.823134043596,0.0,0.0,0.0,193.0,0.0,194.0,0.0,16.0,0.0,180.0,194.0,16.0,180.0,1744420392.4889507,0.0,2025-04-11 21:13:12.488,LEFT,12
136.0,25059.077150711677,28687.480531630583,-31773.0494467079,-27123.32780639265,-36716.38360218806,-31645.39863412364,-10591.642331080715,-38607.855273229514,0.0,0.0,0.0,193.0,0.0,193.0,0.0,16.0,0.0,179.0,193.0,16.0,179.0,1744420392.4890084,0.0,2025-04-11 21:13:12.489,LEFT,12
137.0,25059.188909433953,28695.750677079046,-31761.247725635498,-27110.520256819756,-36708.02404976178,-31638.715462531505,-10721.058931476944,-38599.272203358676,0.0,0.0,0.0,193.0,0.0,193.0,0.0,16.0,0.0,179.0,193.0,16.0,179.0,1744420392.4890516,0.0,2025-04-11 21:13:12.489,LEFT,12
138.0,25085.496912657847,28693.96253752262,-31778.90560375519,-27122.32197789216,-36729.30291048323,-31670.23142221349,-10282.495353519364,-38600.59095628154,0.0,0.0,0.0,193.0,0.0,193.0,0.0,16.0,0.0,179.0,193.0,16.0,179.0,1744420392.4890947,0.0,2025-04-11 21:13:12.489,LEFT,12
139.0,25084.558139390727,28673.57774657938,-31785.700534069605,-27142.215030457384,-36737.304834998235,-31679.395637440164,-10210.790957306739,-38645.629721358986,0.0,0.0,0.0,193.0,0.0,194.0,0.0,16.0,0.0,180.0,194.0,16.0,180.0,1744420392.489138,0.0,2025-04-11 21:13:12.489,LEFT,12
140.0,25055.43381636546,28673.555394834926,-31782.995972990513,-27133.140222208527,-36733.169762274,-31670.097311746755,-10541.932051412112,-38641.74051782376,0.0,0.0,0.0,193.0,0.0,194.0,0.0,16.0,0.0,180.0,194.0,16.0,180.0,1744420392.4891808,0.0,2025-04-11 21:13:12.489,LEFT,12
141.0,25051.455205852417,28692.219101455106,-31765.718074526558,-27115.705861533388,-36716.74123009935,-31653.40055863864,-10764.533074442515,-38634.34209040905,0.0,0.0,0.0,193.0,0.0,194.0,0.0,16.0,0.0,180.0,194.0,16.0,180.0,1744420392.489238,0.0,2025-04-11 21:13:12.489,LEFT,12
142.0,25078.031430009774,28696.264767201515,-31775.776359531446,-27116.8010970117,-36731.6721953955,-31670.20907046903,-10379.077241310744,-38605.95537495081,0.0,0.0,0.0,193.0,0.0,193.0,0.0,16.0,0.0,179.0,193.0,16.0,179.0,1744420392.4892812,0.0,2025-04-11 21:13:12.489,LEFT,12
143.0,25082.434723667473,28677.57870883688,-31786.929880014646,-27137.543515866222,-36742.78101238978,-31678.70273336205,-10179.722032513862,-38637.65014858844,0.0,0.0,0.0,193.0,0.0,193.0,0.0,16.0,0.0,179.0,193.0,16.0,179.0,1744420392.489324,0.0,2025-04-11 21:13:12.489,LEFT,12
144.0,25061.468787368394,28671.9684209786,-31776.15633918719,-27120.623245313556,-36732.38745121806,-31656.12747146219,-10501.430690459096,-38618.695869290335,0.0,0.0,0.0,193.0,0.0,193.0,0.0,16.0,0.0,179.0,193.0,16.0,179.0,1744420392.4893668,0.0,2025-04-11 21:13:12.489,LEFT,12
145.0,25048.14714767303,28689.49218863156,-31759.10195816779,-27102.60773928258,-36711.35445968562,-31634.44627934054,-10768.332870999917,-38601.82030222658,0.0,0.0,0.0,193.0,0.0,193.0,0.0,16.0,0.0,180.0,193.0,16.0,180.0,1744420392.4894092,0.0,2025-04-11 21:13:12.489,LEFT,12
146.0,25077.092656742654,28698.276424202493,-31758.945495956603,-27097.735058991322,-36715.84716032114,-31647.544401591353,-10481.60469312724,-38589.52684277616,0.0,0.0,0.0,193.0,0.0,194.0,0.0,16.0,0.0,179.0,194.0,16.0,179.0,1744420392.4894521,0.0,2025-04-11 21:13:12.489,LEFT,12
147.0,25091.710697616425,28685.513578118513,-31774.636420564228,-27124.37833838205,-36730.8228291062,-31670.79021582487,-10154.419857790454,-38632.039860730154,0.0,0.0,0.0,193.0,0.0,193.0,0.0,16.0,0.0,179.0,193.0,16.0,179.0,1744420392.4895086,0.0,2025-04-11 21:13:12.489,LEFT,12
148.0,25067.77197930479,28676.05879021392,-31766.14275767121,-27114.56592256617,-36723.111477269114,-31652.484137115975,-10425.099483144222,-38625.02141297119,0.0,0.0,0.0,193.0,0.0,193.0,0.0,16.0,0.0,179.0,193.0,16.0,179.0,1744420392.4895518,0.0,2025-04-11 21:13:12.489,LEFT,12
149.0,25048.504775584315,28687.838159541865,-31754.922181954647,-27104.373527094547,-36711.13094224107,-31642.425852111086,-10726.423350146217,-38607.49764531823,0.0,0.0,0.0,193.0,0.0,193.0,0.0,16.0,0.0,179.0,193.0,16.0,179.0,1744420392.4895947,0.0,2025-04-11 21:13:12.489,LEFT,12
150.0,25074.49985438584,28703.05969751593,-31746.160298128165,-27095.097553145595,-36704.15719797101,-31651.679474315584,-10563.18856038911,-38606.178892395365,0.0,0.0,0.0,193.0,0.0,194.0,0.0,16.0,0.0,180.0,194.0,16.0,180.0,1744420392.4896374,0.0,2025-04-11 21:13:12.489,LEFT,12
151.0,25096.561026163225,28696.06360150142,-31762.454719836085,-27116.734041778334,-36722.195055746444,-31673.13714899268,-10140.852348906083,-38615.85719774452,0.0,0.0,0.0,193.0,0.0,194.0,0.0,16.0,0.0,180.0,194.0,16.0,180.0,1744420392.489692,0.0,2025-04-11 21:13:12.489,LEFT,12
152.0,25072.24232819585,28677.444598370148,-31765.271039637453,-27118.879809246042,-36725.637224392565,-31663.302381432342,-10350.690525852506,-38624.75319203773,0.0,0.0,0.0,193.0,0.0,194.0,0.0,16.0,0.0,180.0,194.0,16.0,180.0,1744420392.489735,0.0,2025-04-11 21:13:12.489,LEFT,12
153.0,25056.260830910305,28691.794418310456,-31757.291466866907,-27105.826390484144,-36719.71401211191,-31649.55605859233,-10690.749965995547,-38612.39267735394,0.0,0.0,0.0,193.0,0.0,193.0,0.0,17.0,0.0,179.0,193.0,17.0,179.0,1744420392.489778,0.0,2025-04-11 21:13:12.489,LEFT,12
154.0,25076.757380575822,28708.91585456322,-31746.830850461825,-27094.918739189954,-36717.30002371073,-31649.48900335896,-10665.336032549863,-38607.25177612922,0.0,0.0,0.0,193.0,0.0,193.0,0.0,17.0,0.0,179.0,193.0,17.0,179.0,1744420392.4898207,0.0,2025-04-11 21:13:12.489,LEFT,12
155.0,25097.611558152625,28702.858531815833,-31769.629629806237,-27121.114983691572,-36741.6187216781,-31684.514186920427,-10194.787108276738,-38620.28284314666,0.0,0.0,0.0,193.0,0.0,193.0,0.0,17.0,0.0,179.0,193.0,17.0,179.0,1744420392.4898636,0.0,2025-04-11 21:13:12.489,LEFT,12
156.0,25082.077095756187,28678.137502448262,-31766.835661749326,-27125.317111649172,-36733.952073329936,-31671.28195420289,-10296.644007759573,-38633.58213109757,0.0,0.0,0.0,193.0,0.0,193.0,0.0,17.0,0.0,179.0,193.0,17.0,179.0,1744420392.48992,0.0,2025-04-11 21:13:12.489,LEFT,12
157.0,25056.506700099315,28687.43582814167,-31755.637437777215,-27106.94397770691,-36721.77037260179,-31653.109985960724,-10626.57810766436,-38610.71629651979,0.0,0.0,0.0,193.0,0.0,194.0,0.0,17.0,0.0,180.0,194.0,17.0,180.0,1744420392.489963,0.0,2025-04-11 21:13:12.489,LEFT,12
158.0,25056.417293121493,28689.38042990928,-31754.76571974346,-27108.016861440763,-36722.99971854684,-31658.340294163263,-10689.654730517237,-38618.24883440123,0.0,0.0,0.0,193.0,0.0,193.0,0.0,17.0,0.0,179.0,193.0,17.0,179.0,1744420392.490006,0.0,2025-04-11 21:13:12.490,LEFT,12
159.0,25086.033354524774,28690.542720620957,-31770.81427226237,-27121.76318428078,-36739.02591932129,-31685.877643332202,-10233.299163973232,-38619.03114545717,0.0,0.0,0.0,193.0,0.0,194.0,0.0,17.0,0.0,180.0,194.0,17.0,180.0,1744420392.490049,0.0,2025-04-11 21:13:12.490,LEFT,12
160.0,25075.86331079761,28670.49320584455,-31774.3011443974,-27133.319036164172,-36741.32814900019,-31682.346067708266,-10256.880254373582,-38650.34593943905,0.0,0.0,0.0,193.0,0.0,193.0,0.0,17.0,0.0,179.0,193.0,17.0,179.0,1744420392.4900916,0.0,2025-04-11 21:13:12.490,LEFT,12
161.0,25061.7146565574,28693.73902007807,-31752.687007509114,-27104.41823058346,-36719.24462547834,-31651.657122571127,-10603.511107386483,-38615.54427332214,0.0,0.0,0.0,193.0,0.0,193.0,0.0,17.0,0.0,180.0,193.0,17.0,180.0,1744420392.4901342,0.0,2025-04-11 21:13:12.490,LEFT,12
162.0,25066.319115915194,28706.43481092868,-31735.65497823417,-27085.486303029815,-36701.40793340301,-31638.536648575864,-10743.142454998786,-38600.36743883698,0.0,0.0,0.0,193.0,0.0,194.0,0.0,17.0,0.0,180.0,194.0,17.0,180.0,1744420392.4901905,0.0,2025-04-11 21:13:12.490,LEFT,12
163.0,25089.16259874852,28697.91879629121,-31758.163184900666,-27099.970233436852,-36726.50894242632,-31667.616268112215,-10301.85196421766,-38592.11964513298,0.0,0.0,0.0,193.0,0.0,194.0,0.0,17.0,0.0,180.0,194.0,17.0,180.0,1744420392.4902337,0.0,2025-04-11 21:13:12.490,LEFT,12
164.0,25085.049877768743,28678.517482104002,-31768.735560028024,-27122.523143592258,-36738.198904776444,-31673.964163537523,-10202.096128713623,-38628.17300893939,0.0,0.0,0.0,193.0,0.0,194.0,0.0,17.0,0.0,179.0,194.0,17.0,179.0,1744420392.4902763,0.0,2025-04-11 21:13:12.490,LEFT,12
165.0,25058.898336756032,28681.53496760547,-31759.05725467888,-27110.006166697287,-36730.35344247263,-31656.909782518123,-10534.958307142057,-38607.96703195179,0.0,0.0,0.0,193.0,0.0,193.0,0.0,17.0,0.0,179.0,193.0,17.0,179.0,1744420392.4903193,0.0,2025-04-11 21:13:12.490,LEFT,12
166.0,25045.621400549582,28689.268671187005,-31753.603429031784,-27107.435716084925,-36722.66444238001,-31652.908820260625,-10763.974280831133,-38613.107933176514,0.0,0.0,0.0,193.0,0.0,193.0,0.0,17.0,0.0,179.0,193.0,17.0,179.0,1744420392.4903789,0.0,2025-04-11 21:13:12.490,LEFT,12
167.0,25073.49402588535,28690.274499687494,-31761.96298145807,-27113.113059176572,-36722.99971854684,-31672.958335037034,-10403.44064276703,-38599.138092891946,0.0,0.0,0.0,193.0,0.0,193.0,0.0,17.0,0.0,179.0,193.0,17.0,179.0,1744420392.4904225,0.0,2025-04-11 21:13:12.490,LEFT,12
168.0,25080.378363177584,28672.48251110107,-31773.451778108094,-27135.107175720594,-36731.94041632896,-31686.32467822131,-10168.568512030663,-38642.74634632425,0.0,0.0,0.0,193.0,0.0,194.0,0.0,17.0,0.0,180.0,194.0,17.0,180.0,1744420392.4904652,0.0,2025-04-11 21:13:12.490,LEFT,12
169.0,25055.612630321102,28665.44171159765,-31768.28852513892,-27123.19369592592,-36727.671233138,-31672.354837936742,-10479.45892565953,-38639.75121256724,0.0,0.0,0.0,193.0,0.0,194.0,0.0,17.0,0.0,180.0,194.0,17.0,180.0,1744420392.4905083,0.0,2025-04-11 21:13:12.490,LEFT,12
170.0,25042.87213598158,28683.43486588417,-31751.927048197635,-27108.061564929674,-36708.918119539994,-31658.31794241881,-10752.954870814667,-38635.14675320945,0.0,0.0,0.0,193.0,0.0,193.0,0.0,17.0,0.0,179.0,193.0,17.0,179.0,1744420392.4905512,0.0,2025-04-11 21:13:12.490,LEFT,12
171.0,25071.25885143982,28693.91783403371,-31748.171955129143,-27097.377431080036,-36708.560491628705,-31660.64252384216,-10495.909809578636,-38613.21969189879,0.0,0.0,0.0,193.0,0.0,193.0,0.0,17.0,0.0,179.0,193.0,17.0,179.0,1744420392.4906087,0.0,2025-04-11 21:13:12.490,LEFT,12
172.0,25080.6689358555,28676.43876986966,-31770.300182139898,-27124.065413959674,-36730.375794217085,-31679.283878717888,-10142.014639617759,-38625.98253798277,0.0,0.0,0.0,193.0,0.0,193.0,0.0,17.0,0.0,179.0,193.0,17.0,179.0,1744420392.490652,0.0,2025-04-11 21:13:12.490,LEFT,12
173.0,25052.796310519734,28662.04424644044,-31769.0484844504,-27121.293797647217,-36728.766468616304,-31664.867003544216,-10399.640846209628,-38630.3187764071,0.0,0.0,0.0,193.0,0.0,194.0,0.0,17.0,0.0,180.0,194.0,17.0,180.0,1744420392.4906948,0.0,2025-04-11 21:13:12.490,LEFT,12
174.0,25034.400824833017,28679.7691797935,-31753.0446354204,-27102.40657358248,-36711.421514918984,-31640.68241604357,-10715.40394012975,-38609.889281974945,0.0,0.0,0.0,193.0,0.0,193.0,0.0,17.0,0.0,179.0,193.0,17.0,179.0,1744420392.490738,0.0,2025-04-11 21:13:12.490,LEFT,12
175.0,25050.136452929553,28689.38042990928,-31751.323551097343,-27096.617471768557,-36705.8112270607,-31650.78540453737,-10569.37999360323,-38606.15654065091,0.0,0.0,0.0,193.0,0.0,193.0,0.0,17.0,0.0,179.0,193.0,17.0,179.0,1744420392.4907808,0.0,2025-04-11 21:13:12.490,LEFT,12
176.0,25078.478464898883,28687.547586863948,-31764.37696985924,-27114.722384777357,-36717.3670789441,-31668.152709979146,-10143.691020451906,-38613.107933176514,0.0,0.0,0.0,193.0,0.0,193.0,0.0,17.0,0.0,179.0,193.0,17.0,179.0,1744420392.490824,0.0,2025-04-11 21:13:12.490,LEFT,12
177.0,25062.29580191324,28669.979115722075,-31759.593696545806,-27114.767088266264,-36711.086238752156,-31658.474404629997,-10338.553528613273,-38621.73570653626,0.0,0.0,0.0,193.0,0.0,194.0,0.0,17.0,0.0,180.0,194.0,17.0,180.0,1744420392.4908843,0.0,2025-04-11 21:13:12.490,LEFT,12
178.0,25034.266714366284,28671.610793067313,-31753.782242987425,-27104.485285816823,-36705.02891600477,-31652.30532316033,-10670.9686721526,-38616.30423263362,0.0,0.0,0.0,193.0,0.0,194.0,0.0,17.0,0.0,180.0,194.0,17.0,180.0,1744420392.4909277,0.0,2025-04-11 21:13:12.490,LEFT,12
179.0,25048.504775584315,28679.456255371126,-31744.148641127187,-27091.40951531047,-36699.910366524506,-31647.052663213333,-10640.994982838034,-38594.511281789695,0.0,0.0,0.0,193.0,0.0,194.0,0.0,17.0,0.0,180.0,194.0,17.0,180.0,1744420392.4909704,0.0,2025-04-11 21:13:12.490,LEFT,12
180.0,25081.67476435599,28681.95965075012,-31760.353655857285,-27107.50277131829,-36719.959881300914,-31665.69401808906,-10173.329433599643,-38583.93890666233,0.0,0.0,0.0,193.0,0.0,193.0,0.0,17.0,0.0,179.0,193.0,17.0,179.0,1744420392.491025,0.0,2025-04-11 21:13:12.491,LEFT,12
181.0,25069.560118861213,28662.49128132955,-31760.95715295758,-27115.817620255664,-36723.22323599139,-31664.151747721644,-10293.358301324643,-38621.37807862498,0.0,0.0,0.0,193.0,0.0,193.0,0.0,17.0,0.0,179.0,193.0,17.0,179.0,1744420392.491068,0.0,2025-04-11 21:13:12.491,LEFT,12
182.0,25035.697226011423,28670.7167232891,-31759.325475612342,-27107.636881785023,-36722.46327667991,-31660.64252384216,-10630.422607710672,-38614.47138958829,0.0,0.0,0.0,193.0,0.0,193.0,0.0,17.0,0.0,179.0,193.0,17.0,179.0,1744420392.4911108,0.0,2025-04-11 21:13:12.491,LEFT,12
183.0,25046.068435438687,28687.81580779741,-31742.695777737594,-27090.73896297681,-36704.62658460457,-31645.622151568194,-10706.798518514457,-38598.422837069375,0.0,0.0,0.0,193.0,0.0,193.0,0.0,17.0,0.0,179.0,193.0,17.0,179.0,1744420392.4911537,0.0,2025-04-11 21:13:12.491,LEFT,12
184.0,25074.835130552667,28683.81484553991,-31769.182594917133,-27114.230646399337,-36733.99677681885,-31680.289707218377,-10235.847262841138,-38605.64245052844,0.0,0.0,0.0,193.0,0.0,194.0,0.0,17.0,0.0,180.0,194.0,17.0,180.0,1744420392.4911966,0.0,2025-04-11 21:13:12.491,LEFT,12
185.0,25069.62717409458,28667.766293021,-31771.261307151475,-27128.155783194994,-36736.79074487576,-31682.12255026371,-10246.88902460206,-38653.89986680745,0.0,0.0,0.0,193.0,0.0,194.0,0.0,17.0,0.0,179.0,194.0,17.0,179.0,1744420392.4912522,0.0,2025-04-11 21:13:12.491,LEFT,12
186.0,25047.498947083826,28676.125845447285,-31763.438196592117,-27110.6990707754,-36728.78882036076,-31665.403445411142,-10601.00771200749,-38633.872703775494,0.0,0.0,0.0,193.0,0.0,193.0,0.0,17.0,0.0,179.0,193.0,17.0,179.0,1744420392.4912963,0.0,2025-04-11 21:13:12.491,LEFT,12
187.0,25047.789519761744,28688.329897919884,-31746.652036506184,-27095.65634675698,-36709.70043059593,-31654.674608072593,-10764.264853509052,-38615.23134889977,0.0,0.0,0.0,193.0,0.0,193.0,0.0,17.0,0.0,179.0,193.0,17.0,179.0,1744420392.4913712,0.0,2025-04-11 21:13:12.491,LEFT,12
188.0,25079.68545909947,28692.375563666294,-31755.436272077117,-27102.36187009357,-36719.64695687854,-31679.373285695707,-10321.65560980506,-38600.2109766258,0.0,0.0,0.0,193.0,0.0,194.0,0.0,17.0,0.0,180.0,194.0,17.0,180.0,1744420392.4914155,0.0,2025-04-11 21:13:12.491,LEFT,12
189.0,25073.941060774454,28669.353266877326,-31773.80940601938,-27129.69805356241,-36737.75186988734,-31690.83973060128,-10189.199172162911,-38646.05440450364,0.0,0.0,0.0,193.0,0.0,194.0,0.0,17.0,0.0,180.0,194.0,17.0,180.0,1744420392.491459,0.0,2025-04-11 21:13:12.491,LEFT,12
190.0,25048.348313373128,28671.09670294484,-31765.785129759926,-27114.387108610525,-36732.23098900688,-31671.013733269425,-10527.023437860422,-38634.78912529816,0.0,0.0,0.0,193.0,0.0,194.0,0.0,17.0,0.0,180.0,194.0,17.0,180.0,1744420392.491502,0.0,2025-04-11 21:13:12.491,LEFT,12
191.0,25041.285162125252,28689.20161595364,-31748.99896967399,-27096.997451424297,-36715.33307019866,-31657.960314507523,-10778.212342049163,-38632.93393050837,0.0,0.0,0.0,193.0,0.0,193.0,0.0,17.0,0.0,179.0,193.0,17.0,179.0,1744420392.4915452,0.0,2025-04-11 21:13:12.491,LEFT,12
192.0,25067.235537437864,28689.313374675916,-31762.90175472519,-27103.41240208297,-36726.75481161533,-31681.049666529856,-10428.765169234894,-38626.22840717178,0.0,0.0,0.0,193.0,0.0,193.0,0.0,17.0,0.0,179.0,193.0,17.0,179.0,1744420392.491608,0.0,2025-04-11 21:13:12.491,LEFT,12
193.0,25075.460979397416,28676.52817684748,-31778.77149328846,-27130.7038820629,-36743.56332344572,-31696.36061148174,-10181.197247647911,-38672.83179436109,0.0,0.0,0.0,193.0,0.0,193.0,0.0,17.0,0.0,179.0,193.0,17.0,179.0,1744420392.4916513,0.0,2025-04-11 21:13:12.491,LEFT,12
194.0,25059.27831641177,28677.57870883688,-31762.007684946977,-27108.061564929674,-36726.665404637504,-31662.296552931854,-10487.46085017453,-38637.292520677154,0.0,0.0,0.0,193.0,0.0,193.0,0.0,17.0,0.0,179.0,193.0,17.0,179.0,1744420392.4916937,0.0,2025-04-11 21:13:12.491,LEFT,12
195.0,25038.08886266814,28687.994621753052,-31755.27980986593,-27097.55624503568,-36716.13773299906,-31651.277142915387,-10771.015080334555,-38627.59186358355,0.0,0.0,0.0,193.0,0.0,194.0,0.0,17.0,0.0,180.0,194.0,17.0,180.0,1744420392.4917505,0.0,2025-04-11 21:13:12.491,LEFT,12
196.0,25054.025656464775,28692.755543322033,-31762.030036691434,-27095.254015356782,-36721.90448306852,-31657.625038340695,-10529.616240217238,-38611.990345953745,0.0,0.0,0.0,193.0,0.0,193.0,0.0,17.0,0.0,179.0,193.0,17.0,179.0,1744420392.4917936,0.0,2025-04-11 21:13:12.491,LEFT,12
197.0,25068.35312466063,28675.142368691253,-31785.454664880595,-27124.64655931551,-36741.75283214484,-31681.18377699659,-10169.1496573865,-38646.07675624809,0.0,0.0,0.0,193.0,0.0,193.0,0.0,17.0,0.0,179.0,193.0,17.0,179.0,1744420392.9654672,0.0,2025-04-11 21:13:12.965,LEFT,12
198.0,25046.046083694233,28658.557374305416,-31781.47605436755,-27123.774841281756,-36730.2193320059,-31666.208108211533,-10410.213221336988,-38641.22642770129,0.0,0.0,0.0,193.0,0.0,193.0,0.0,17.0,0.0,179.0,193.0,17.0,179.0,1744420392.965655,0.0,2025-04-11 21:13:12.965,LEFT,12
199.0,25024.14137412803,28671.029647711475,-31770.970734473558,-27112.04017544272,-36719.71401211191,-31651.79123303786,-10724.165823956231,-38623.14386643694,0.0,0.0,0.0,193.0,0.0,194.0,0.0,17.0,0.0,180.0,194.0,17.0,180.0,1744420392.965722,0.0,2025-04-11 21:13:12.965,LEFT,12
200.0,25038.982932446354,28674.67298205769,-31770.90367924019,-27108.530951563236,-36720.49632316784,-31660.083730230777,-10601.544153874416,-38618.94173847935,0.0,0.0,0.0,193.0,0.0,194.0,0.0,17.0,0.0,180.0,194.0,17.0,180.0,1744420392.9658434,0.0,2025-04-11 21:13:12.965,LEFT,12
201.0,25064.218051936397,28669.129749432774,-31785.611127091783,-27124.870076760064,-36736.254303008835,-31674.902936804647,-10155.604500246585,-38615.834846000056,0.0,0.0,0.0,193.0,0.0,194.0,0.0,17.0,0.0,180.0,194.0,17.0,180.0,1744420392.9659047,0.0,2025-04-11 21:13:12.965,LEFT,12
202.0,25046.359008116604,28654.198784136628,-31781.18548168963,-27121.785536025232,-36729.973462816895,-31662.497718631952,-10346.421342661542,-38629.603520584526,0.0,0.0,0.0,193.0,0.0,193.0,0.0,17.0,0.0,179.0,193.0,17.0,179.0,1744420392.965966,0.0,2025-04-11 21:13:12.965,LEFT,12
203.0,25026.912990440487,28672.43780761216,-31762.76764425846,-27098.047983413697,-36710.08041025167,-31637.709634031016,-10689.252399117042,-38610.872758730984,0.0,0.0,0.0,193.0,0.0,193.0,0.0,17.0,0.0,179.0,193.0,17.0,179.0,1744420392.966024,0.0,2025-04-11 21:13:12.966,LEFT,12
204.0,25034.490231810836,28681.95965075012,-31752.91052495367,-27086.447428041392,-36702.65963109251,-31632.792250250848,-10667.973538395589,-38593.68426724485,0.0,0.0,0.0,193.0,0.0,193.0,0.0,17.0,0.0,179.0,193.0,17.0,179.0,1744420392.9660792,0.0,2025-04-11 21:13:12.966,LEFT,12
205.0,25068.017848493797,28691.995584010554,-31772.356542629786,-27105.669928272957,-36727.4700674379,-31663.07886398779,-10191.859029753094,-38595.852386457016,0.0,0.0,0.0,193.0,0.0,194.0,0.0,17.0,0.0,180.0,194.0,17.0,180.0,1744420392.9661336,0.0,2025-04-11 21:13:12.966,LEFT,12
206.0,25055.657333810013,28661.373694106784,-31772.714170541072,-27113.336576621125,-36727.17949475998,-31665.626962855695,-10289.782022211793,-38630.721107807294,0.0,0.0,0.0,193.0,0.0,194.0,0.0,17.0,0.0,180.0,194.0,17.0,180.0,1744420392.9661882,0.0,2025-04-11 21:13:12.966,LEFT,12
207.0,25027.650598007513,28666.00050520903,-31761.91827796916,-27098.830294469633,-36713.99196553135,-31655.03223598388,-10620.274915727963,-38607.60940404051,0.0,0.0,0.0,193.0,0.0,194.0,0.0,17.0,0.0,179.0,194.0,17.0,179.0,1744420392.9662645,0.0,2025-04-11 21:13:12.966,LEFT,12
208.0,25032.47857480986,28678.383371637272,-31754.51985055445,-27093.35411707808,-36715.22131147639,-31659.524936619397,-10709.078396448898,-38614.091409932546,0.0,0.0,0.0,193.0,0.0,193.0,0.0,17.0,0.0,179.0,193.0,17.0,179.0,1744420392.966319,0.0,2025-04-11 21:13:12.966,LEFT,12
209.0,25073.04699099624,28691.772066566,-31764.555783814885,-27100.640785770513,-36733.34857622964,-31680.75909385194,-10271.94533013646,-38615.29840413313,0.0,0.0,0.0,193.0,0.0,193.0,0.0,17.0,0.0,179.0,193.0,17.0,179.0,1744420392.9663737,0.0,2025-04-11 21:13:12.966,LEFT,12
210.0,25065.49210137035,28670.649668055736,-31767.43915884962,-27115.50469583329,-36735.87432335309,-31683.307192719843,-10247.447818213443,-38647.21669521531,0.0,0.0,0.0,193.0,0.0,193.0,0.0,17.0,0.0,179.0,193.0,17.0,179.0,1744420392.9665964,0.0,2025-04-11 21:13:12.966,LEFT,12
211.0,25044.28029588226,28678.361019892815,-31752.687007509114,-27096.28219560173,-36723.044422035746,-31665.626962855695,-10587.127278700744,-38631.39166014095,0.0,0.0,0.0,193.0,0.0,194.0,0.0,17.0,0.0,180.0,194.0,17.0,180.0,1744420392.9666529,0.0,2025-04-11 21:13:12.966,LEFT,12
212.0,25044.213240648896,28690.609775854326,-31741.019396903444,-27087.65442224198,-36716.13773299906,-31660.1731372086,-10775.194856547698,-38641.65111084594,0.0,0.0,0.0,193.0,0.0,194.0,0.0,17.0,0.0,180.0,194.0,17.0,180.0,1744420392.9667115,0.0,2025-04-11 21:13:12.966,LEFT,12
213.0,25074.85748229712,28688.57576710889,-31758.498461067495,-27102.428925326938,-36736.70133789794,-31688.89512883367,-10381.759450645382,-38646.50143939274,0.0,0.0,0.0,193.0,0.0,193.0,0.0,17.0,0.0,179.0,193.0,17.0,179.0,1744420392.9667704,0.0,2025-04-11 21:13:12.966,LEFT,12
214.0,25074.34339217465,28667.766293021,-31771.77539727395,-27124.087765704127,-36749.84416363766,-31695.645355659173,-10235.400227952032,-38674.195250772864,0.0,0.0,0.0,193.0,0.0,193.0,0.0,17.0,0.0,180.0,193.0,17.0,180.0,1744420392.9668279,0.0,2025-04-11 21:13:12.966,LEFT,12
215.0,25052.751607030823,28674.360057635316,-31759.347827356796,-27104.574692794646,-36733.594445418654,-31663.70471283254,-10546.871786936736,-38635.28086367618,0.0,0.0,0.0,193.0,0.0,194.0,0.0,17.0,0.0,180.0,194.0,17.0,180.0,1744420392.966932,0.0,2025-04-11 21:13:12.966,LEFT,12
216.0,25044.772034260277,28696.555339879436,-31744.03688240491,-27091.32010833265,-36714.707221353914,-31647.87967775818,-10786.549542730992,-38623.233273414764,0.0,0.0,0.0,193.0,0.0,194.0,0.0,17.0,0.0,180.0,194.0,17.0,180.0,1744420392.966987,0.0,2025-04-11 21:13:12.966,LEFT,12
217.0,25066.43087463747,28697.047078257452,-31755.458623821574,-27095.633995012522,-36726.4195354485,-31671.617230369717,-10466.584320853271,-38620.95339548033,0.0,0.0,0.0,193.0,0.0,194.0,0.0,17.0,0.0,180.0,194.0,17.0,180.0,1744420392.9670413,0.0,2025-04-11 21:13:12.967,LEFT,12
218.0,25075.259813697317,28684.708915318122,-31769.584926317326,-27118.41042261248,-36736.34370998666,-31687.55402416635,-10193.44600360942,-38662.058253533636,0.0,0.0,0.0,193.0,0.0,193.0,0.0,17.0,0.0,179.0,193.0,17.0,179.0,1744420392.967095,0.0,2025-04-11 21:13:12.967,LEFT,12
219.0,25053.08688319765,28680.01504898251,-31763.505251825485,-27107.860399229576,-36725.43605869247,-31668.42093091261,-10477.737841336471,-38654.302198207646,0.0,0.0,0.0,193.0,0.0,194.0,0.0,17.0,0.0,179.0,194.0,17.0,179.0,1744420392.9671812,0.0,2025-04-11 21:13:12.967,LEFT,12
220.0,25036.770109745277,28692.15204622174,-31752.105862153276,-27092.348288577592,-36713.34376494215,-31647.41029112462,-10773.89845536929,-38631.32460490759,0.0,0.0,0.0,193.0,0.0,194.0,0.0,17.0,0.0,179.0,194.0,17.0,179.0,1744420392.9672377,0.0,2025-04-11 21:13:12.967,LEFT,12
221.0,25051.85753725261,28688.307546175427,-31758.118481411755,-27089.8448931986,-36721.725669112886,-31654.629904583682,-10561.892159210702,-38608.10114241852,0.0,0.0,0.0,193.0,0.0,193.0,0.0,17.0,0.0,179.0,193.0,17.0,179.0,1744420392.9673254,0.0,2025-04-11 21:13:12.967,LEFT,12
222.0,25066.654392082026,28672.236641912063,-31780.157301444688,-27115.92937897794,-36744.010358334825,-31679.976782796002,-10184.550009316208,-38637.62779684398,0.0,0.0,0.0,193.0,0.0,193.0,0.0,17.0,0.0,179.0,193.0,17.0,179.0,1744420392.9673808,0.0,2025-04-11 21:13:12.967,LEFT,12
223.0,25051.00817096331,28663.206537152117,-31770.81427226237,-27106.094611417608,-36732.543913429254,-31662.050683742844,-10423.221936609976,-38642.41107015742,0.0,0.0,0.0,193.0,0.0,193.0,0.0,17.0,0.0,179.0,193.0,17.0,179.0,1744420392.9674351,0.0,2025-04-11 21:13:12.967,LEFT,12
224.0,25025.884810195545,28678.24926117054,-31762.588830302815,-27094.35994557857,-36722.66444238001,-31646.44916611304,-10739.566175885937,-38622.67447980338,0.0,0.0,0.0,193.0,0.0,193.0,0.0,17.0,0.0,179.0,193.0,17.0,179.0,1744420392.9674902,0.0,2025-04-11 21:13:12.967,LEFT,12
225.0,25042.961542959398,28686.072371729897,-31754.0951674098,-27084.815750696154,-36713.54493064224,-31644.1692881786,-10644.638317184248,-38605.39658133943,0.0,0.0,0.0,193.0,0.0,194.0,0.0,17.0,0.0,180.0,194.0,17.0,180.0,1744420392.9678693,0.0,2025-04-11 21:13:12.967,LEFT,12
226.0,25067.14613046004,28679.702124560135,-31773.205908919088,-27106.27342537325,-36730.97929131738,-31669.31500069082,-10191.322587886167,-38612.92911922087,0.0,0.0,0.0,193.0,0.0,193.0,0.0,17.0,0.0,179.0,193.0,17.0,179.0,1744420392.967929,0.0,2025-04-11 21:13:12.967,LEFT,12
227.0,25050.00234246282,28658.110339416307,-31771.23895540702,-27108.732117263335,-36727.96180581592,-31661.715407576015,-10366.470857437953,-38636.35374741003,0.0,0.0,0.0,193.0,0.0,193.0,0.0,17.0,0.0,179.0,193.0,17.0,179.0,1744420392.967984,0.0,2025-04-11 21:13:12.967,LEFT,12
228.0,25020.25217059281,28664.793511008444,-31765.941591971114,-27098.092686902608,-36722.70914586892,-31649.667817314607,-10704.920971980211,-38620.036973957656,0.0,0.0,0.0,193.0,0.0,193.0,0.0,17.0,0.0,179.0,193.0,17.0,179.0,1744420392.968038,0.0,2025-04-11 21:13:12.968,LEFT,12
229.0,25028.47761255236,28672.34840063434,-31755.056292421377,-27088.950823420386,-36711.89090155255,-31651.3218464043,-10705.055082446943,-38611.61036629801,0.0,0.0,0.0,193.0,0.0,193.0,0.0,17.0,0.0,180.0,193.0,17.0,180.0,1744420392.968094,0.0,2025-04-11 21:13:12.968,LEFT,12
230.0,25067.839034538156,28685.848854285345,-31759.213716890066,-27089.755486220776,-36719.53519815626,-31664.621134355206,-10213.093186985634,-38599.85334871452,0.0,0.0,0.0,193.0,0.0,193.0,0.0,17.0,0.0,179.0,193.0,17.0,179.0,1744420392.9681826,0.0,2025-04-11 21:13:12.968,LEFT,12
231.0,25052.77395877528,28666.76046452051,-31766.81331000487,-27102.45127707139,-36726.84421859315,-31668.26446870142,-10269.710155690927,-38637.49368637725,0.0,0.0,0.0,193.0,0.0,193.0,0.0,17.0,0.0,179.0,193.0,17.0,179.0,1744420392.96824,0.0,2025-04-11 21:13:12.968,LEFT,12
232.0,25035.272542866773,28680.77500829399,-31750.00479817448,-27080.41245703846,-36711.577977130175,-31645.64450331265,-10624.387636707741,-38610.33631686406,0.0,0.0,0.0,193.0,0.0,193.0,0.0,17.0,0.0,179.0,193.0,17.0,179.0,1744420392.968296,0.0,2025-04-11 21:13:12.968,LEFT,12
233.0,25038.9605807019,28690.7215345766,-31737.107841623765,-27068.83425341061,-36704.26895669329,-31639.36366312071,-10740.773170086524,-38601.30621210411,0.0,0.0,0.0,193.0,0.0,194.0,0.0,17.0,0.0,180.0,194.0,17.0,180.0,1744420392.9683528,0.0,2025-04-11 21:13:12.968,LEFT,12
234.0,25063.99453449184,28691.50384563254,-31757.894963967203,-27088.123808875538,-36731.2698639953,-31677.160462994634,-10289.334987322687,-38610.15750290841,0.0,0.0,0.0,193.0,0.0,194.0,0.0,17.0,0.0,180.0,194.0,17.0,180.0,1744420392.9684105,0.0,2025-04-11 21:13:12.968,LEFT,12
235.0,25067.213185693407,28678.361019892815,-31762.298257624898,-27105.424059083947,-36739.16002978802,-31683.17308225311,-10259.517760219307,-38661.61121864453,0.0,0.0,0.0,193.0,0.0,193.0,0.0,17.0,0.0,179.0,193.0,17.0,179.0,1744420392.9684668,0.0,2025-04-11 21:13:12.968,LEFT,12
236.0,25046.314304627696,28681.512615861015,-31746.227353361533,-27083.49699777329,-36715.33307019866,-31657.915611018612,-10596.492659627516,-38622.115686192,0.0,0.0,0.0,193.0,0.0,193.0,0.0,17.0,0.0,179.0,193.0,17.0,179.0,1744420392.9685447,0.0,2025-04-11 21:13:12.968,LEFT,12
237.0,25037.932400456953,28693.180226466684,-31735.029129389422,-27071.248241811783,-36702.39141015904,-31648.55023009184,-10768.377574488828,-38601.95441269331,0.0,0.0,0.0,193.0,0.0,193.0,0.0,17.0,0.0,179.0,193.0,17.0,179.0,1744420392.9685996,0.0,2025-04-11 21:13:12.968,LEFT,12
238.0,25063.659258325013,28693.11317123332,-31755.033940676924,-27085.821579196643,-36727.69358488245,-31681.60846014124,-10365.397973704097,-38612.70560177632,0.0,0.0,0.0,193.0,0.0,194.0,0.0,17.0,0.0,180.0,194.0,17.0,180.0,1744420392.9686546,0.0,2025-04-11 21:13:12.968,LEFT,12
239.0,25070.744761317346,28681.356153649827,-31768.601449561294,-27106.675756773446,-36742.065756567215,-31693.991326569478,-10228.02415228178,-38675.536355440185,0.0,0.0,0.0,193.0,0.0,193.0,0.0,17.0,0.0,179.0,193.0,17.0,179.0,1744420392.9688487,0.0,2025-04-11 21:13:12.968,LEFT,12
240.0,25042.44745283693,28670.58261282237,-31765.159280915177,-27096.70687874638,-36732.610968662615,-31677.719256606015,-10542.356734556763,-38660.56068665513,0.0,0.0,0.0,193.0,0.0,193.0,0.0,17.0,0.0,179.0,193.0,17.0,179.0,1744420392.9689047,0.0,2025-04-11 21:13:12.968,LEFT,12
241.0,25026.82358346267,28680.95382224963,-31752.776414486936,-27086.268614085748,-36719.35638420062,-31663.92823027709,-10793.389176534316,-38653.162259240424,0.0,0.0,0.0,193.0,0.0,193.0,0.0,17.0,0.0,179.0,193.0,17.0,179.0,1744420392.9689584,0.0,2025-04-11 21:13:12.968,LEFT,12
242.0,25051.76813027479,28686.653517085735,-31761.85122273579,-27088.436733297913,-36731.493381439854,-31680.021486284913,-10498.0779287908,-38648.4236894159,0.0,0.0,0.0,193.0,0.0,194.0,0.0,17.0,0.0,180.0,194.0,17.0,180.0,1744420392.9690132,0.0,2025-04-11 21:13:12.969,LEFT,12
243.0,25070.990630506352,28676.68463905867,-31771.306010640386,-27107.70393701839,-36739.36119548812,-31688.872777089215,-10212.065006740691,-38668.85318384805,0.0,0.0,0.0,193.0,0.0,194.0,0.0,17.0,0.0,180.0,194.0,17.0,180.0,1744420392.9690676,0.0,2025-04-11 21:13:12.969,LEFT,12
244.0,25042.134528414554,28665.017028453,-31768.46733909456,-27101.646614271,-36731.04634655075,-31669.89614604666,-10484.800992584347,-38653.385776684976,0.0,0.0,0.0,193.0,0.0,193.0,0.0,17.0,0.0,179.0,193.0,17.0,179.0,1744420392.9691212,0.0,2025-04-11 21:13:12.969,LEFT,12
245.0,25024.14137412803,28684.261880429018,-31755.95036219959,-27084.525178018237,-36714.97544228738,-31646.65033181314,-10774.27843502503,-38631.32460490759,0.0,0.0,0.0,193.0,0.0,193.0,0.0,17.0,0.0,179.0,193.0,17.0,179.0,1744420392.969201,0.0,2025-04-11 21:13:12.969,LEFT,12
246.0,25043.699150526423,28688.598118853348,-31762.700589025095,-27084.771047207243,-36721.725669112886,-31659.54728836385,-10579.281816396931,-38619.947566979834,0.0,0.0,0.0,193.0,0.0,193.0,0.0,17.0,0.0,179.0,193.0,17.0,179.0,1744420392.969256,0.0,2025-04-11 21:13:12.969,LEFT,12
247.0,25062.29580191324,28675.81292102491,-31782.928917757145,-27109.246207385804,-36744.90442811304,-31681.78727409688,-10188.439212851432,-38638.81243930011,0.0,0.0,0.0,193.0,0.0,193.0,0.0,17.0,0.0,179.0,193.0,17.0,179.0,1744420392.9693103,0.0,2025-04-11 21:13:12.969,LEFT,12
248.0,25039.832298735655,28668.973287221586,-31778.369161888262,-27106.094611417608,-36739.204733276936,-31667.906840790136,-10422.327866831763,-38651.39647142845,0.0,0.0,0.0,193.0,0.0,193.0,0.0,17.0,0.0,179.0,193.0,17.0,179.0,1744420392.9693642,0.0,2025-04-11 21:13:12.969,LEFT,12
249.0,25017.033519391243,28680.931470505177,-31766.366275115764,-27088.727305975834,-36722.485628424365,-31645.957427735026,-10744.79648408848,-38616.97478496728,0.0,0.0,0.0,193.0,0.0,194.0,0.0,17.0,0.0,180.0,194.0,17.0,180.0,1744420392.9694293,0.0,2025-04-11 21:13:12.969,LEFT,12
250.0,25031.360987587093,28682.786665294967,-31758.00672268948,-27079.138407604507,-36714.95309054293,-31642.78348002237,-10654.562491722405,-38590.3091538321,0.0,0.0,0.0,193.0,0.0,194.0,0.0,17.0,0.0,180.0,194.0,17.0,180.0,1744420392.9695053,0.0,2025-04-11 21:13:12.969,LEFT,12
251.0,25058.898336756032,28679.031572226475,-31773.22826066354,-27099.07616365864,-36732.99094831836,-31668.085654745777,-10192.216657664378,-38606.06713367309,0.0,0.0,0.0,193.0,0.0,193.0,0.0,17.0,0.0,179.0,193.0,17.0,179.0,1744420392.9695885,0.0,2025-04-11 21:13:12.969,LEFT,12
252.0,25044.43675809345,28661.8654324848,-31764.399321603698,-27094.963442678865,-36720.876302823584,-31653.35585514973,-10346.019011261345,-38623.032107714665,0.0,0.0,0.0,193.0,0.0,193.0,0.0,17.0,0.0,179.0,193.0,17.0,179.0,1744420392.969643,0.0,2025-04-11 21:13:12.969,LEFT,12
253.0,25012.518467011272,28672.795435523443,-31757.17970814463,-27080.97125064984,-36713.388468431054,-31639.40836660962,-10674.388489054261,-38601.708543504305,0.0,0.0,0.0,193.0,0.0,194.0,0.0,17.0,0.0,180.0,194.0,17.0,180.0,1744420392.9696972,0.0,2025-04-11 21:13:12.969,LEFT,12
254.0,25018.776955458758,28683.121941461795,-31748.551934784882,-27072.07525635663,-36708.09110499515,-31634.803907251826,-10705.345655124862,-38604.301345861124,0.0,0.0,0.0,193.0,0.0,193.0,0.0,17.0,0.0,179.0,193.0,17.0,179.0,1744420392.9699051,0.0,2025-04-11 21:13:12.969,LEFT,12
255.0,25054.29387739824,28683.904252517732,-31763.1476239142,-27082.357058806072,-36723.379698202574,-31649.109023703222,-10236.495463430341,-38590.800892210114,0.0,0.0,0.0,193.0,0.0,193.0,0.0,17.0,0.0,179.0,193.0,17.0,179.0,1744420392.9699597,0.0,2025-04-11 21:13:12.969,LEFT,12
0.0,25045.554345316214,28659.272630127984,-31766.947420471603,-27095.052849656684,-36724.07260228069,-31644.951599234537,-10272.057088858735,-38611.230386642266,0.0,0.0,0.0,193.0,0.0,194.0,0.0,17.0,0.0,180.0,194.0,17.0,180.0,1744420392.9700136,0.0,2025-04-11 21:13:12.970,LEFT,12
1.0,25020.788612459735,28667.766293021,-31758.43140583413,-27081.127712861027,-36711.0638870077,-31629.819468238293,-10620.252563983508,-38591.76201722169,0.0,0.0,0.0,193.0,0.0,194.0,0.0,17.0,0.0,180.0,194.0,17.0,180.0,1744420392.9700663,0.0,2025-04-11 21:13:12.970,LEFT,12
2.0,25023.157897371995,28684.552453106935,-31746.316760339352,-27069.013067366253,-36699.50803512431,-31624.186828635557,-10755.301803982473,-38588.02927589766,0.0,0.0,0.0,193.0,0.0,194.0,0.0,17.0,0.0,180.0,194.0,17.0,180.0,1744420392.97012,0.0,2025-04-11 21:13:12.970,LEFT,12
3.0,25055.903202999023,28683.34545890635,-31762.119443669257,-27078.825483182132,-36723.13382901357,-31653.802890038838,-10315.933563224502,-38594.1089503895,0.0,0.0,0.0,193.0,0.0,193.0,0.0,17.0,0.0,179.0,193.0,17.0,179.0,1744420392.9701939,0.0,2025-04-11 21:13:12.970,LEFT,12
4.0,25050.158804674007,28661.06076968441,-31775.86576650927,-27100.439620070414,-36740.70230015544,-31666.99041926747,-10251.247614770844,-38645.71912833681,0.0,0.0,0.0,193.0,0.0,193.0,0.0,17.0,0.0,179.0,193.0,17.0,179.0,1744420392.9702477,0.0,2025-04-11 21:13:12.970,LEFT,12
5.0,25025.99656891782,28669.95676397762,-31769.13789142822,-27086.670945485945,-36735.762564630815,-31652.193564438054,-10586.412022878174,-38629.31294790661,0.0,0.0,0.0,193.0,0.0,193.0,0.0,17.0,0.0,179.0,193.0,17.0,179.0,1744420392.9703019,0.0,2025-04-11 21:13:12.970,LEFT,12
6.0,25024.856629950602,28688.911043275722,-31754.363388343263,-27072.812863923653,-36721.435096434965,-31641.800003266337,-10795.914923657767,-38626.809552527615,0.0,0.0,0.0,193.0,0.0,193.0,0.0,17.0,0.0,179.0,193.0,17.0,179.0,1744420392.9703553,0.0,2025-04-11 21:13:12.970,LEFT,12
7.0,25055.322057643185,28697.337650935373,-31767.997952461003,-27081.485340772313,-36740.81405887772,-31665.69401808906,-10430.73212274696,-38623.1662181814,0.0,0.0,0.0,193.0,0.0,194.0,0.0,17.0,0.0,180.0,194.0,17.0,180.0,1744420392.970409,0.0,2025-04-11 21:13:12.970,LEFT,12
8.0,25065.469749625892,28681.62437458329,-31773.541185085916,-27099.70201250339,-36742.37868098959,-31676.914593805624,-10233.321515717687,-38656.78324184218,0.0,0.0,0.0,193.0,0.0,194.0,0.0,17.0,0.0,180.0,194.0,17.0,180.0,1744420392.970462,0.0,2025-04-11 21:13:12.970,LEFT,12
9.0,25038.29002836824,28671.7672552785,-31771.306010640386,-27092.12477113304,-36736.56722743121,-31665.69401808906,-10538.825158932825,-38645.830887059084,0.0,0.0,0.0,193.0,0.0,193.0,0.0,17.0,0.0,179.0,193.0,17.0,179.0,1744420392.9705155,0.0,2025-04-11 21:13:12.970,LEFT,12
10.0,25022.017958404776,28689.8721682873,-31763.9969902035,-27087.36384956406,-36726.196018003946,-31660.64252384216,-10814.086891899931,-38653.98927378527,0.0,0.0,0.0,193.0,0.0,194.0,0.0,17.0,0.0,180.0,194.0,17.0,180.0,1744420392.9705875,0.0,2025-04-11 21:13:12.970,LEFT,12
11.0,25047.76716801729,28691.794418310456,-31766.120405926755,-27087.766180964256,-36727.023032548794,-31671.058436758332,-10535.762969942447,-38637.11370672151,0.0,0.0,0.0,193.0,0.0,194.0,0.0,17.0,0.0,179.0,194.0,17.0,179.0,1744420392.9706416,0.0,2025-04-11 21:13:12.970,LEFT,12
12.0,25059.591240834146,28670.11322618881,-31784.202967191097,-27114.588274310623,-36738.198904776444,-31687.039934043878,-10201.82790778016,-38647.79784057115,0.0,0.0,0.0,193.0,0.0,194.0,0.0,17.0,0.0,179.0,194.0,17.0,179.0,1744420392.9706953,0.0,2025-04-11 21:13:12.970,LEFT,12
13.0,25034.42317657747,28657.238621382552,-31784.67235382466,-27112.867189987566,-36734.66732915251,-31683.016620041923,-10474.720355835005,-38668.31674198112,0.0,0.0,0.0,193.0,0.0,193.0,0.0,17.0,0.0,179.0,193.0,17.0,179.0,1744420392.9708447,0.0,2025-04-11 21:13:12.970,LEFT,12
14.0,25010.350347799107,28668.079217443374,-31778.167996188167,-27101.870131715554,-36730.93458782847,-31667.772730323402,-10787.220095064653,-38659.21958198781,0.0,0.0,0.0,193.0,0.0,193.0,0.0,17.0,0.0,179.0,193.0,17.0,179.0,1744420392.9708996,0.0,2025-04-11 21:13:12.970,LEFT,12
15.0,25030.28810385324,28677.466950114605,-31776.178690931643,-27093.018840911252,-36730.46520119491,-31664.732893077482,-10625.81814835288,-38626.65309031643,0.0,0.0,0.0,193.0,0.0,193.0,0.0,17.0,0.0,179.0,193.0,17.0,179.0,1744420392.9709532,0.0,2025-04-11 21:13:12.970,LEFT,12
16.0,25056.931383243966,28676.572880336393,-31790.05912423839,-27110.207332397382,-36740.724651899895,-31680.93790780758,-10205.493593870831,-38630.56464559611,0.0,0.0,0.0,193.0,0.0,193.0,0.0,17.0,0.0,180.0,193.0,17.0,180.0,1744420392.9710064,0.0,2025-04-11 21:13:12.971,LEFT,12
17.0,25045.822566249677,28662.558336562914,-31778.48092061054,-27101.42309682645,-36728.766468616304,-31665.179927966587,-10412.180174849054,-38640.444116645354,0.0,0.0,0.0,193.0,0.0,194.0,0.0,17.0,0.0,180.0,194.0,17.0,180.0,1744420392.97106,0.0,2025-04-11 21:13:12.971,LEFT,12
18.0,25017.14527811352,28668.928583732675,-31773.250612408,-27091.677736243935,-36723.93849181396,-31656.44039588456,-10741.354315442362,-38629.08943046206,0.0,0.0,0.0,193.0,0.0,193.0,0.0,17.0,0.0,179.0,193.0,17.0,179.0,1744420392.9711328,0.0,2025-04-11 21:13:12.971,LEFT,12
19.0,25032.14329864303,28677.28813615896,-31760.443062835107,-27077.864358170555,-36708.985174773356,-31650.003093481435,-10669.091125618354,-38607.29647961813,0.0,0.0,0.0,193.0,0.0,193.0,0.0,17.0,0.0,179.0,193.0,17.0,179.0,1744420392.9711916,0.0,2025-04-11 21:13:12.971,LEFT,12
20.0,25061.11115945711,28674.404761124228,-31775.19521417561,-27094.02466941174,-36726.71010812642,-31671.371361180707,-10198.16222168949,-38611.34214536454,0.0,0.0,0.0,193.0,0.0,194.0,0.0,17.0,0.0,180.0,194.0,17.0,180.0,1744420392.9712455,0.0,2025-04-11 21:13:12.971,LEFT,12
21.0,25041.79925224772,28650.175470134673,-31779.039714221923,-27104.865265472567,-36731.56043667322,-31668.510337890428,-10330.551604098273,-38645.9202940369,0.0,0.0,0.0,193.0,0.0,194.0,0.0,17.0,0.0,180.0,194.0,17.0,180.0,1744420392.971299,0.0,2025-04-11 21:13:12.971,LEFT,12
22.0,25012.56317050018,28661.597211551336,-31771.1495484292,-27090.44839029889,-36724.63139589207,-31646.315055646308,-10679.127058878787,-38618.65116580143,0.0,0.0,0.0,193.0,0.0,194.0,0.0,17.0,0.0,180.0,194.0,17.0,180.0,1744420392.971352,0.0,2025-04-11 21:13:12.971,LEFT,12
23.0,25016.161801357484,28667.29690638744,-31761.96298145807,-27079.22781458233,-36714.50605565382,-31635.74268051895,-10724.523451867515,-38587.358723564,0.0,0.0,0.0,193.0,0.0,193.0,0.0,18.0,0.0,179.0,193.0,18.0,179.0,1744420392.9714055,0.0,2025-04-11 21:13:12.971,LEFT,12
24.0,25053.422159364483,28673.91302274621,-31769.54022282842,-27083.83227394012,-36720.116343512105,-31650.293666159352,-10261.21649279791,-38582.575450250566,0.0,0.0,0.0,193.0,0.0,193.0,0.0,18.0,0.0,179.0,193.0,18.0,179.0,1744420392.9714592,0.0,2025-04-11 21:13:12.971,LEFT,12
25.0,25051.67872329697,28654.891688214742,-31772.2000804186,-27092.191826366405,-36720.876302823584,-31652.1712126936,-10280.684862218484,-38623.05445945913,0.0,0.0,0.0,193.0,0.0,194.0,0.0,17.0,0.0,180.0,194.0,17.0,180.0,1744420392.971531,0.0,2025-04-11 21:13:12.971,LEFT,12
26.0,25023.649635750015,28661.708970273612,-31768.24382165001,-27080.367753549548,-36720.250453978835,-31639.341311376254,-10616.497470915017,-38610.98451745326,0.0,0.0,0.0,193.0,0.0,194.0,0.0,17.0,0.0,180.0,194.0,17.0,180.0,1744420392.9715965,0.0,2025-04-11 21:13:12.971,LEFT,12
27.0,25018.66519673648,28673.264822157005,-31763.214679147564,-27073.908099401964,-36720.384564445565,-31634.64744504064,-10766.455324465673,-38608.25760462971,0.0,0.0,0.0,193.0,0.0,194.0,0.0,17.0,0.0,179.0,194.0,17.0,179.0,1744420392.9716845,0.0,2025-04-11 21:13:12.971,LEFT,12
28.0,25049.01886570679,28674.42711286868,-31779.75497004449,-27084.25695708477,-36740.36702398861,-31661.000151753447,-10344.990831016401,-38600.2109766258,0.0,0.0,0.0,193.0,0.0,193.0,0.0,17.0,0.0,179.0,193.0,17.0,179.0,1744420392.9719098,0.0,2025-04-11 21:13:12.971,LEFT,12
29.0,25051.47755759687,28658.691484772145,-31781.990144490024,-27098.4950183028,-36741.95399784494,-31662.318904676307,-10267.542036478762,-38647.41786091541,0.0,0.0,0.0,193.0,0.0,193.0,0.0,17.0,0.0,179.0,193.0,17.0,179.0,1744420392.9719644,0.0,2025-04-11 21:13:12.971,LEFT,12
30.0,25028.991702674834,28664.97232496409,-31772.691818796615,-27081.6418029835,-36731.94041632896,-31644.325750389788,-10601.633560852237,-38634.5209043647,0.0,0.0,0.0,193.0,0.0,193.0,0.0,17.0,0.0,179.0,193.0,17.0,179.0,1744420392.9720178,0.0,2025-04-11 21:13:12.972,LEFT,12
31.0,25014.99951064581,28672.77308377899,-31766.90271698269,-27074.243375568793,-36726.061907537216,-31640.88358174367,-10822.021761181566,-38634.34209040905,0.0,0.0,0.0,193.0,0.0,193.0,0.0,17.0,0.0,180.0,193.0,17.0,180.0,1744420392.9720712,0.0,2025-04-11 21:13:12.972,LEFT,12
32.0,25049.600011062626,28677.355191392326,-31773.317667641364,-27075.606831980567,-36738.64593966555,-31657.98266625198,-10468.238349942965,-38626.07194496059,0.0,0.0,0.0,193.0,0.0,194.0,0.0,17.0,0.0,180.0,194.0,17.0,180.0,1744420392.9721248,0.0,2025-04-11 21:13:12.972,LEFT,12
33.0,25057.400769877528,28659.943182461644,-31782.1019032123,-27098.11503864706,-36746.245532780355,-31664.911707033123,-10235.35552446312,-38646.814363815116,0.0,0.0,0.0,193.0,0.0,194.0,0.0,17.0,0.0,180.0,194.0,17.0,180.0,1744420392.9721992,0.0,2025-04-11 21:13:12.972,LEFT,12
34.0,25032.8585544656,28651.605981779812,-31775.95517348709,-27089.88959668751,-36740.389375733066,-31651.45595687103,-10540.233318833509,-38636.97959625478,0.0,0.0,0.0,193.0,0.0,193.0,0.0,17.0,0.0,179.0,193.0,17.0,179.0,1744420392.9722533,0.0,2025-04-11 21:13:12.972,LEFT,12
35.0,25024.700167739415,28670.33674363336,-31756.866783722257,-27070.13065458902,-36713.187302730956,-31633.999244451436,-10811.650551754303,-38623.41208737041,0.0,0.0,0.0,193.0,0.0,193.0,0.0,17.0,0.0,179.0,193.0,17.0,179.0,1744420392.9723067,0.0,2025-04-11 21:13:12.972,LEFT,12
36.0,25045.33082787166,28676.01408672501,-31762.655885536184,-27071.248241811783,-36718.08233476667,-31654.83107028378,-10523.60362095876,-38616.93008147837,0.0,0.0,0.0,193.0,0.0,193.0,0.0,17.0,0.0,180.0,193.0,17.0,180.0,1744420392.9723604,0.0,2025-04-11 21:13:12.972,LEFT,12
37.0,25067.235537437864,28667.363961620806,-31772.602411818792,-27092.705916488878,-36733.169762274,-31667.83978555677,-10192.484878597841,-38636.93489276587,0.0,0.0,0.0,193.0,0.0,194.0,0.0,17.0,0.0,180.0,194.0,17.0,180.0,1744420392.9724138,0.0,2025-04-11 21:13:12.972,LEFT,12
38.0,25044.369702860084,28652.410644580206,-31770.56840307336,-27088.369678064548,-36734.019128563305,-31659.055549985835,-10469.557102865829,-38641.51700037921,0.0,0.0,0.0,193.0,0.0,194.0,0.0,17.0,0.0,180.0,194.0,17.0,180.0,1744420392.9724674,0.0,2025-04-11 21:13:12.972,LEFT,12
39.0,25025.035443906243,28666.402836609228,-31756.978542444533,-27074.556299991167,-36715.80245683223,-31649.041968469857,-10776.647719937291,-38624.90965424891,0.0,0.0,0.0,193.0,0.0,193.0,0.0,17.0,0.0,179.0,193.0,17.0,179.0,1744420392.9725385,0.0,2025-04-11 21:13:12.972,LEFT,12
40.0,25046.13549067205,28680.752656549535,-31752.888173209212,-27070.331820289117,-36708.918119539994,-31658.630866841184,-10605.254543453997,-38611.78918025365,0.0,0.0,0.0,193.0,0.0,193.0,0.0,17.0,0.0,179.0,193.0,17.0,179.0,1744420392.972592,0.0,2025-04-11 21:13:12.972,LEFT,12
41.0,25067.77197930479,28676.23760416956,-31773.138853685723,-27092.571806022144,-36731.53808492876,-31680.826149085304,-10187.67925353995,-38632.71041306382,0.0,0.0,0.0,193.0,0.0,194.0,0.0,17.0,0.0,180.0,194.0,17.0,180.0,1744420392.9726453,0.0,2025-04-11 21:13:12.972,LEFT,12
42.0,25053.9138977425,28656.38925509325,-31769.428464106142,-27087.699125730887,-36724.854913336625,-31664.419968655107,-10392.19771530601,-38646.92612253739,0.0,0.0,0.0,193.0,0.0,194.0,0.0,17.0,0.0,180.0,194.0,17.0,180.0,1744420392.9726987,0.0,2025-04-11 21:13:12.972,LEFT,12
43.0,25032.679740509957,28674.58357507987,-31757.358522100276,-27067.381390021015,-36713.34376494215,-31641.93411373307,-10727.74210306908,-38628.150657194936,0.0,0.0,0.0,193.0,0.0,194.0,0.0,17.0,0.0,180.0,194.0,17.0,180.0,1744420392.9727695,0.0,2025-04-11 21:13:12.972,LEFT,12
44.0,25041.843955736633,28678.740999548558,-31753.692836009603,-27058.708913172355,-36711.421514918984,-31641.621189310696,-10705.300951635953,-38614.06905818809,0.0,0.0,0.0,193.0,0.0,194.0,0.0,17.0,0.0,179.0,194.0,17.0,179.0,1744420392.9728231,0.0,2025-04-11 21:13:12.972,LEFT,12
