Sample Index,EXG Channel 0,EXG Channel 1,EXG Channel 2,EXG Channel 3,EXG Channel 4,EXG Channel 5,EXG Channel 6,EXG Channel 7,Accel Channel 0,Accel Channel 1,Accel Channel 2,Not Used,Digital Channel 0 (D11),Digital Channel 1 (D12),Digital Channel 2 (D13),Digital Channel 3 (D17),Not Used,Digital Channel 4 (D18),Analog Channel 0,Analog Channel 1,Analog Channel 2,Timestamp,Marker Channel,Timestamp (Formatted),Stimulus_Direction,Stimulus_Number
125.0,22274.876806125263,27179.65420242002,-32208.304966486096,-24678.493997871163,-36756.21441080742,-30426.69211944248,-13406.285751615258,-38514.872016295434,0.0,0.0,0.0,193.0,0.0,193.0,0.0,1.0,0.0,182.0,193.0,1.0,182.0,1744420447.7473495,0.0,2025-04-11 21:14:07.747,LEFT,19
126.0,22298.435544781154,27179.453036719926,-32222.81124863759,-24694.341384689975,-36772.70999821544,-30445.556991762758,-12958.736772386645,-38518.89533029739,0.0,0.0,0.0,193.0,0.0,194.0,0.0,1.0,0.0,181.0,194.0,1.0,181.0,1744420447.7476165,0.0,2025-04-11 21:14:07.747,LEFT,19
127.0,22286.65617545321,27164.812644101698,-32221.47014397027,-24695.973062035213,-36765.758605689836,-30432.8835526566,-13103.330207268025,-38525.69026061181,0.0,0.0,0.0,193.0,0.0,194.0,0.0,1.0,0.0,181.0,194.0,1.0,181.0,1744420447.7477453,0.0,2025-04-11 21:14:07.747,LEFT,19
128.0,22258.157701272692,27161.57164115568,-32215.99396657872,-24686.473570641705,-36757.711977685925,-30422.489991484883,-13433.420769384,-38506.89244352489,0.0,0.0,0.0,193.0,0.0,194.0,0.0,1.0,0.0,179.0,194.0,1.0,179.0,1744420447.747851,0.0,2025-04-11 21:14:07.747,LEFT,19
129.0,22267.768951388472,27170.355876726615,-32201.822960594054,-24672.660192568328,-36745.23970427987,-30414.376308247603,-13469.697650634964,-38497.549414342575,0.0,0.0,0.0,193.0,0.0,193.0,0.0,1.0,0.0,179.0,193.0,1.0,179.0,1744420447.747917,0.0,2025-04-11 21:14:07.747,LEFT,19
130.0,22292.46762901159,27168.38892321455,-32221.917178859378,-24691.614471866425,-36765.46803301192,-30442.628913239114,-12995.080708870973,-38497.34824864248,0.0,0.0,0.0,193.0,0.0,194.0,0.0,1.0,0.0,179.0,194.0,1.0,179.0,1744420447.7480063,0.0,2025-04-11 21:14:07.748,LEFT,19
131.0,22283.929262629663,27150.641638117035,-32221.201923036806,-24701.583349893495,-36762.472899254906,-30438.985578892898,-13058.090276490484,-38539.213066007265,0.0,0.0,0.0,193.0,0.0,194.0,0.0,1.0,0.0,179.0,194.0,1.0,179.0,1744420447.7483325,0.0,2025-04-11 21:14:07.748,LEFT,19
132.0,22247.674733123153,27150.7086933504,-32225.67227192787,-24699.683451614794,-36762.89758239956,-30432.995311378876,-13391.064213641193,-38524.885597811415,0.0,0.0,0.0,193.0,0.0,194.0,0.0,1.0,0.0,180.0,194.0,1.0,180.0,1744420447.7484212,0.0,2025-04-11 21:14:07.748,LEFT,19
133.0,22253.374427959257,27159.18000449896,-32216.03867006763,-24693.067335256022,-36755.56621021822,-30429.821363666222,-13533.802453732784,-38530.87586532544,0.0,0.0,0.0,193.0,0.0,193.0,0.0,1.0,0.0,179.0,193.0,1.0,179.0,1744420447.7484748,0.0,2025-04-11 21:14:07.748,LEFT,19
134.0,22279.794189905428,27161.258716733304,-32227.46041148429,-24701.292777215574,-36773.20173659346,-30451.524907532326,-13084.353576225469,-38509.99933600418,0.0,0.0,0.0,193.0,0.0,194.0,0.0,1.0,0.0,179.0,194.0,1.0,179.0,1744420447.7485256,0.0,2025-04-11 21:14:07.748,LEFT,19
135.0,22281.023535850472,27149.144071238527,-32228.689757429336,-24714.927341333314,-36773.84993718266,-30455.50351804537,-13019.309999860527,-38551.86415336897,0.0,0.0,0.0,193.0,0.0,194.0,0.0,1.0,0.0,180.0,194.0,1.0,180.0,1744420447.748572,0.0,2025-04-11 21:14:07.748,LEFT,19
136.0,22261.26459375198,27159.671742876977,-32216.03867006763,-24693.626128867403,-36758.53899223077,-30430.268398555327,-13341.599803161598,-38522.44925766579,0.0,0.0,0.0,193.0,0.0,194.0,0.0,1.0,0.0,180.0,194.0,1.0,180.0,1744420447.748614,0.0,2025-04-11 21:14:07.748,LEFT,19
137.0,22257.44244545012,27172.792216872243,-32203.18641700583,-24679.231605438188,-36749.3747770041,-30417.282035026794,-13533.802453732784,-38510.267556937644,0.0,0.0,0.0,193.0,0.0,193.0,0.0,1.0,0.0,179.0,193.0,1.0,179.0,1744420447.7486594,0.0,2025-04-11 21:14:07.748,LEFT,19
138.0,22293.048774367428,27178.491911708345,-32204.03578329513,-24678.27048042661,-36750.82764039369,-30432.391814278584,-13158.024925950162,-38493.973135229724,0.0,0.0,0.0,193.0,0.0,194.0,0.0,1.0,0.0,180.0,194.0,1.0,180.0,1744420447.7487535,0.0,2025-04-11 21:14:07.748,LEFT,19
139.0,22292.04294586694,27155.357856197104,-32218.631472424448,-24706.97012030722,-36760.997684120855,-30454.609448267158,-12952.6570978948,-38551.52887720214,0.0,0.0,0.0,193.0,0.0,194.0,0.0,1.0,0.0,179.0,194.0,1.0,179.0,1744420447.7487977,0.0,2025-04-11 21:14:07.748,LEFT,19
140.0,22266.003163576504,27152.966219540387,-32212.372983976962,-24694.497846901162,-36755.208582306936,-30440.30433181576,-13263.726325479309,-38546.2985689996,0.0,0.0,0.0,193.0,0.0,194.0,0.0,1.0,0.0,179.0,194.0,1.0,179.0,1744420447.74884,0.0,2025-04-11 21:14:07.748,LEFT,19
141.0,22257.73301812804,27174.267432006294,-32196.61500413597,-24672.347268145953,-36746.64786418055,-30414.421011736515,-13534.271840366346,-38510.58048136002,0.0,0.0,0.0,193.0,0.0,193.0,0.0,1.0,0.0,179.0,193.0,1.0,179.0,1744420447.748906,0.0,2025-04-11 21:14:07.748,LEFT,19
142.0,22271.4569892236,27173.08278955016,-32210.22721650925,-24678.806922293537,-36761.3776637766,-30436.41512828054,-13238.871185645008,-38503.60673708996,0.0,0.0,0.0,193.0,0.0,194.0,0.0,1.0,0.0,179.0,194.0,1.0,179.0,1744420447.7489471,0.0,2025-04-11 21:14:07.748,LEFT,19
143.0,22286.946748131126,27161.012847544298,-32226.6557486839,-24706.41132669584,-36776.75566396185,-30461.158509392564,-12932.182899973739,-38548.220819022754,0.0,0.0,0.0,193.0,0.0,194.0,0.0,1.0,0.0,179.0,194.0,1.0,179.0,1744420447.7489884,0.0,2025-04-11 21:14:07.748,LEFT,19
144.0,22275.882634625752,27163.695056878933,-32209.735478131235,-24686.630032852892,-36760.1259660871,-30434.045843368276,-13223.560240693121,-38528.88656006892,0.0,0.0,0.0,193.0,0.0,193.0,0.0,1.0,0.0,178.0,193.0,1.0,178.0,1744420447.7490296,0.0,2025-04-11 21:14:07.749,LEFT,19
145.0,22262.583346674845,27181.352934998624,-32199.028992537143,-24669.709762300226,-36754.001588106345,-30420.768907161822,-13524.81705246175,-38514.22381570623,0.0,0.0,0.0,193.0,0.0,193.0,0.0,1.0,0.0,180.0,193.0,1.0,180.0,1744420447.749071,0.0,2025-04-11 21:14:07.749,LEFT,19
146.0,22283.482227740555,27195.501589238836,-32197.442018680817,-24661.59607906295,-36753.46514623942,-30427.16150607604,-13344.661992151976,-38510.200501704276,0.0,0.0,0.0,193.0,0.0,194.0,0.0,1.0,0.0,180.0,194.0,1.0,180.0,1744420447.7491279,0.0,2025-04-11 21:14:07.749,LEFT,19
147.0,22309.723175731084,27187.678478679478,-32209.17668451985,-24678.15872170433,-36769.31253305823,-30439.522020759825,-12945.951574558208,-38523.902121055384,0.0,0.0,0.0,193.0,0.0,193.0,0.0,1.0,0.0,179.0,193.0,1.0,179.0,1744420447.749169,0.0,2025-04-11 21:14:07.749,LEFT,19
148.0,22293.83108542336,27171.585222671656,-32203.43228619484,-24674.247166424655,-36760.50594574284,-30423.518171729826,-13167.524417343668,-38526.87490306794,0.0,0.0,0.0,193.0,0.0,194.0,0.0,1.0,0.0,179.0,194.0,1.0,179.0,1744420447.7492115,0.0,2025-04-11 21:14:07.749,LEFT,19
149.0,22269.557090944898,27183.588109444157,-32200.213634993273,-24664.278288397585,-36752.66048343903,-30410.26358726783,-13486.416755487533,-38509.0382109926,0.0,0.0,0.0,193.0,0.0,194.0,0.0,1.0,0.0,180.0,194.0,1.0,180.0,1744420447.7492533,0.0,2025-04-11 21:14:07.749,LEFT,19
150.0,22274.31801251388,27185.733876911865,-32206.293309485118,-24668.055733210535,-36758.60604746414,-30422.489991484883,-13425.284734402268,-38513.19563546129,0.0,0.0,0.0,193.0,0.0,193.0,0.0,1.0,0.0,179.0,193.0,1.0,179.0,1744420447.749294,0.0,2025-04-11 21:14:07.749,LEFT,19
151.0,22291.819428422383,27175.42972271797,-32230.14262081893,-24696.621262624416,-36783.684704743,-30456.06231165675,-12976.99814760663,-38533.759240360174,0.0,0.0,0.0,193.0,0.0,193.0,0.0,1.0,0.0,179.0,193.0,1.0,179.0,1744420447.7493346,0.0,2025-04-11 21:14:07.749,LEFT,19
152.0,22270.78643688994,27147.825318315667,-32235.842315655034,-24713.474477943717,-36785.1822716215,-30460.21973612544,-13122.508004010679,-38574.97585713576,0.0,0.0,0.0,193.0,0.0,194.0,0.0,1.0,0.0,179.0,194.0,1.0,179.0,1744420447.7493749,0.0,2025-04-11 21:14:07.749,LEFT,19
153.0,22245.327799955347,27160.789330099742,-32228.51094347369,-24703.527951661104,-36774.90046917206,-30444.908791173555,-13478.906569350549,-38553.00409233619,0.0,0.0,0.0,193.0,0.0,194.0,0.0,1.0,0.0,179.0,194.0,1.0,179.0,1744420447.7494287,0.0,2025-04-11 21:14:07.749,LEFT,19
154.0,22249.26170697948,27165.840824346644,-32223.37004224897,-24695.861303312937,-36766.742082445875,-30445.35582606266,-13511.808337188762,-38536.687318883814,0.0,0.0,0.0,193.0,0.0,193.0,0.0,1.0,0.0,179.0,193.0,1.0,179.0,1744420447.7494695,0.0,2025-04-11 21:14:07.749,LEFT,19
155.0,22276.374373003768,27163.85151909012,-32236.57992322206,-24705.74077436218,-36775.63807673909,-30464.958305949964,-13029.480043587691,-38520.79522857609,0.0,0.0,0.0,193.0,0.0,194.0,0.0,1.0,0.0,179.0,194.0,1.0,179.0,1744420447.7495093,0.0,2025-04-11 21:14:07.749,LEFT,19
156.0,22272.194596790625,27146.640675859533,-32242.90546690291,-24718.32480649052,-36783.21531810943,-30465.092416416697,-13063.96878528223,-38563.93409537484,0.0,0.0,0.0,193.0,0.0,194.0,0.0,0.0,0.0,180.0,194.0,0.0,180.0,1744420447.7495623,0.0,2025-04-11 21:14:07.749,LEFT,19
157.0,22250.133425013235,27156.676609119968,-32236.222295310774,-24705.31609121753,-36775.16869010552,-30453.938895933497,-13409.973789450383,-38554.90399061489,0.0,0.0,0.0,193.0,0.0,193.0,0.0,1.0,0.0,179.0,193.0,1.0,179.0,1744420447.7496023,0.0,2025-04-11 21:14:07.749,LEFT,19
158.0,22256.83894834983,27177.106103552116,-32222.587731193034,-24692.754410833648,-36763.389320777576,-30446.741634218888,-13544.061904437769,-38550.43364172383,0.0,0.0,0.0,193.0,0.0,193.0,0.0,0.0,0.0,178.0,193.0,0.0,178.0,1744420447.7496424,0.0,2025-04-11 21:14:07.749,LEFT,19
159.0,22287.572596975875,27182.5152257103,-32233.6071412095,-24697.76120159164,-36777.5826785067,-30463.21486988245,-13110.482765493723,-38530.138257758415,0.0,0.0,0.0,193.0,0.0,194.0,0.0,1.0,0.0,179.0,194.0,1.0,179.0,1744420447.749682,0.0,2025-04-11 21:14:07.749,LEFT,19
160.0,22287.527893486964,27165.170272012983,-32238.546876734126,-24710.65815814235,-36782.14243437558,-30466.5899832952,-13023.467424329214,-38573.70180770181,0.0,0.0,0.0,193.0,0.0,193.0,0.0,0.0,0.0,179.0,193.0,0.0,179.0,1744420447.7497303,0.0,2025-04-11 21:14:07.749,LEFT,19
161.0,22261.376352474257,27171.629926160567,-32232.869533642475,-24698.856437069946,-36772.93351565999,-30455.570573278736,-13346.919518341962,-38563.10708082999,0.0,0.0,0.0,193.0,0.0,193.0,0.0,0.0,0.0,179.0,193.0,0.0,179.0,1744420447.749784,0.0,2025-04-11 21:14:07.749,LEFT,19
162.0,22258.895308839717,27187.34320251265,-32218.542065446625,-24682.852588039947,-36758.8742683976,-30437.420956781025,-13559.3504976452,-38537.469629939755,0.0,0.0,0.0,193.0,0.0,193.0,0.0,0.0,0.0,179.0,193.0,0.0,179.0,1744420447.7498386,0.0,2025-04-11 21:14:07.749,LEFT,19
163.0,22283.303413784914,27189.75719091382,-32230.366138263482,-24688.865207298426,-36775.88394592809,-30458.230430868916,-13188.356243176013,-38523.209216977266,0.0,0.0,0.0,193.0,0.0,194.0,0.0,0.0,0.0,180.0,194.0,0.0,180.0,1744420447.74988,0.0,2025-04-11 21:14:07.749,LEFT,19
164.0,22284.353945774314,27171.65227790502,-32245.76649019319,-24715.933169833803,-36790.27846935731,-30471.730884519922,-12977.04285109554,-38571.89131640093,0.0,0.0,0.0,193.0,0.0,193.0,0.0,0.0,0.0,179.0,193.0,0.0,179.0,1744420447.7499213,0.0,2025-04-11 21:14:07.749,LEFT,19
165.0,22263.432712964146,27166.667838891488,-32238.74804243422,-24704.042041783578,-36782.50006228686,-30457.381064579615,-13302.081918964615,-38575.288781558134,0.0,0.0,0.0,193.0,0.0,193.0,0.0,0.0,0.0,178.0,193.0,0.0,178.0,1744420447.7499628,0.0,2025-04-11 21:14:07.749,LEFT,19
166.0,22248.613506390277,27171.160539527005,-32231.57313246407,-24694.2296259677,-36773.24644008237,-30447.233372596907,-13570.883997784138,-38570.86313615598,0.0,0.0,0.0,193.0,0.0,193.0,0.0,0.0,0.0,179.0,193.0,0.0,179.0,1744420447.750004,0.0,2025-04-11 21:14:07.750,LEFT,19
167.0,22279.190692805136,27178.46955996389,-32226.67810042836,-24681.44442813926,-36769.22312608041,-30446.22754409642,-13300.047910219182,-38534.16157176037,0.0,0.0,0.0,193.0,0.0,194.0,0.0,0.0,0.0,180.0,194.0,0.0,180.0,1744420447.7500486,0.0,2025-04-11 21:14:07.750,LEFT,19
168.0,22285.784457419453,27161.23636498885,-32247.57698149407,-24710.814620353536,-36790.166710635036,-30474.323686876738,-12964.436467222748,-38572.718330945776,0.0,0.0,0.0,193.0,0.0,193.0,0.0,0.0,0.0,179.0,193.0,0.0,179.0,1744420447.750104,0.0,2025-04-11 21:14:07.750,LEFT,19
169.0,22264.527948442454,27152.094501506628,-32242.6595977139,-24705.249035984165,-36782.56711752023,-30456.241125612396,-13240.81578741262,-38565.00697910869,0.0,0.0,0.0,193.0,0.0,194.0,0.0,0.0,0.0,179.0,194.0,0.0,179.0,1744420447.7501457,0.0,2025-04-11 21:14:07.750,LEFT,19
170.0,22249.418169190667,27167.070170291685,-32229.829696396555,-24690.98862302168,-36768.75373944685,-30440.84077368269,-13545.626526549642,-38547.885542855925,0.0,0.0,0.0,193.0,0.0,194.0,0.0,0.0,0.0,179.0,194.0,0.0,179.0,1744420447.7501876,0.0,2025-04-11 21:14:07.750,LEFT,19
171.0,22273.088666568838,27178.80483613072,-32222.677138170857,-24682.49496012866,-36764.708073700436,-30442.852430683666,-13380.581245491654,-38533.893350826904,0.0,0.0,0.0,193.0,0.0,193.0,0.0,0.0,0.0,179.0,193.0,0.0,179.0,1744420447.750242,0.0,2025-04-11 21:14:07.750,LEFT,19
172.0,22294.591044734843,27174.893280851044,-32234.814135410088,-24701.069259771022,-36778.677913985004,-30461.717303003945,-12964.36941198938,-38549.91955160136,0.0,0.0,0.0,193.0,0.0,193.0,0.0,0.0,0.0,179.0,193.0,0.0,179.0,1744420447.750284,0.0,2025-04-11 21:14:07.750,LEFT,19
173.0,22277.78253290445,27164.164443512494,-32225.873437627964,-24697.224759724708,-36763.79165217777,-30445.199363851472,-13166.764458032187,-38556.66977842686,0.0,0.0,0.0,193.0,0.0,193.0,0.0,0.0,0.0,179.0,193.0,0.0,179.0,1744420447.7503247,0.0,2025-04-11 21:14:07.750,LEFT,19
174.0,22254.044980292914,27174.021562817285,-32219.27967301365,-24687.769971820115,-36757.48846024137,-30434.26936081283,-13505.192220829991,-38545.13627828792,0.0,0.0,0.0,193.0,0.0,194.0,0.0,0.0,0.0,179.0,194.0,0.0,179.0,1744420447.750366,0.0,2025-04-11 21:14:07.750,LEFT,19
175.0,22263.63387866424,27176.122626796085,-32221.648957925914,-24687.524102631105,-36768.59727723566,-30443.79120395079,-13468.244787245369,-38546.119755043954,0.0,0.0,0.0,193.0,0.0,193.0,0.0,0.0,0.0,179.0,193.0,0.0,179.0,1744420447.7504067,0.0,2025-04-11 21:14:07.750,LEFT,19
176.0,22294.52398950148,27172.56869942769,-32235.194115065828,-24703.550303405562,-36779.81785295223,-30466.478224572926,-12992.443203025246,-38542.856400353485,0.0,0.0,0.0,193.0,0.0,193.0,0.0,0.0,0.0,179.0,193.0,0.0,179.0,1744420447.750561,0.0,2025-04-11 21:14:07.750,LEFT,19
177.0,22291.6629662112,27164.767940612786,-32223.884132371444,-24698.878788814403,-36764.1269283446,-30452.821308710732,-13109.49928873769,-38568.516202988176,0.0,0.0,0.0,193.0,0.0,193.0,0.0,0.0,0.0,179.0,193.0,0.0,179.0,1744420447.7506032,0.0,2025-04-11 21:14:07.750,LEFT,19
178.0,22263.186843775136,27174.692115150945,-32222.99006259323,-24688.30641368704,-36765.60214347865,-30439.45496552646,-13455.906624306039,-38546.38797597742,0.0,0.0,0.0,193.0,0.0,194.0,0.0,0.0,0.0,179.0,194.0,0.0,179.0,1744420447.750644,0.0,2025-04-11 21:14:07.750,LEFT,19
179.0,22266.830178121352,27185.599766445135,-32218.117382301974,-24681.89146302837,-36764.015169622326,-30436.54923874727,-13513.216497089446,-38531.792286848104,0.0,0.0,0.0,193.0,0.0,193.0,0.0,0.0,0.0,179.0,193.0,0.0,179.0,1744420447.7506852,0.0,2025-04-11 21:14:07.750,LEFT,19
180.0,22296.826219180373,27179.006001830818,-32235.08235634355,-24693.84964631196,-36786.47867279991,-30466.634686784113,-13046.19914844026,-38534.98858630521,0.0,0.0,0.0,193.0,0.0,193.0,0.0,0.0,0.0,179.0,193.0,0.0,179.0,1744420447.750726,0.0,2025-04-11 21:14:07.750,LEFT,19
181.0,22285.292719041434,27152.966219540387,-32243.888943658945,-24709.160591263844,-36792.69245775849,-30472.781416509322,-13053.39641015487,-38576.24990656971,0.0,0.0,0.0,193.0,0.0,193.0,0.0,0.0,0.0,179.0,193.0,0.0,179.0,1744420447.750767,0.0,2025-04-11 21:14:07.750,LEFT,19
182.0,22269.22181477807,27168.098350536628,-32229.740289418733,-24686.630032852892,-36778.74496921837,-30446.5851720077,-13406.822193482185,-38546.23151376623,0.0,0.0,0.0,193.0,0.0,193.0,0.0,0.0,0.0,179.0,193.0,0.0,179.0,1744420447.7508273,0.0,2025-04-11 21:14:07.750,LEFT,19
183.0,22273.31218401339,27182.93990885495,-32217.960920090787,-24672.324916401496,-36774.65459998305,-30433.934084646,-13556.198901677002,-38529.646519380396,0.0,0.0,0.0,193.0,0.0,194.0,0.0,0.0,0.0,179.0,194.0,0.0,179.0,1744420447.750882,0.0,2025-04-11 21:14:07.750,LEFT,19
184.0,22306.4151175517,27189.13134206907,-32229.673234185368,-24678.941032760267,-36792.9830304364,-30458.40924482456,-13138.55655652959,-38532.842818837504,0.0,0.0,0.0,193.0,0.0,193.0,0.0,0.0,0.0,179.0,193.0,0.0,179.0,1744420447.7509224,0.0,2025-04-11 21:14:07.750,LEFT,19
185.0,22310.281969342468,27175.60853667361,-32236.28935054414,-24697.716498102727,-36796.604013038166,-30463.438387327005,-13027.624848797901,-38572.51716524568,0.0,0.0,0.0,193.0,0.0,193.0,0.0,0.0,0.0,179.0,193.0,0.0,179.0,1744420447.750962,0.0,2025-04-11 21:14:07.750,LEFT,19
186.0,22282.49875098452,27174.736818639856,-32230.94728361932,-24689.759277076635,-36788.31151584524,-30448.30625633076,-13348.059457309182,-38549.070185312055,0.0,0.0,0.0,193.0,0.0,194.0,0.0,0.0,0.0,179.0,194.0,0.0,179.0,1744420447.751015,0.0,2025-04-11 21:14:07.751,LEFT,19
187.0,22270.965250845584,27186.404429245526,-32224.19705679382,-24686.250053197153,-36782.678876242506,-30443.522983017327,-13568.470009382965,-38545.38214747693,0.0,0.0,0.0,193.0,0.0,193.0,0.0,0.0,0.0,179.0,193.0,0.0,179.0,1744420447.7510552,0.0,2025-04-11 21:14:07.751,LEFT,19
188.0,22301.587140749354,27193.6687461935,-32222.408917237393,-24685.199521207753,-36778.052065140255,-30451.12257613213,-13210.037435297661,-38521.19755997629,0.0,0.0,0.0,193.0,0.0,193.0,0.0,0.0,0.0,179.0,193.0,0.0,179.0,1744420447.7510946,0.0,2025-04-11 21:14:07.751,LEFT,19
189.0,22306.281007084966,27173.887452350555,-32237.026958111164,-24710.83697209799,-36788.64679201207,-30467.97579145143,-12972.326633015471,-38559.977836606246,0.0,0.0,0.0,193.0,0.0,193.0,0.0,0.0,0.0,179.0,193.0,0.0,179.0,1744420447.751134,0.0,2025-04-11 21:14:07.751,LEFT,19
190.0,22285.717402186085,27168.075998792174,-32232.936588875844,-24704.1314487614,-36782.56711752023,-30457.671637257536,-13283.284101877702,-38560.29076102862,0.0,0.0,0.0,193.0,0.0,193.0,0.0,0.0,0.0,179.0,193.0,0.0,179.0,1744420447.7511735,0.0,2025-04-11 21:14:07.751,LEFT,19
191.0,22275.770875903472,27183.677516421976,-32218.51971370217,-24689.535759632083,-36769.3795882916,-30442.94183766149,-13577.880093798649,-38556.11098481548,0.0,0.0,0.0,193.0,0.0,193.0,0.0,0.0,0.0,179.0,193.0,0.0,179.0,1744420447.7513037,0.0,2025-04-11 21:14:07.751,LEFT,19
192.0,22294.903969157218,27186.22561528988,-32223.928835860355,-24688.64168985387,-36775.191041849976,-30456.285829101307,-13311.626113847033,-38529.914740313856,0.0,0.0,0.0,193.0,0.0,193.0,0.0,0.0,0.0,179.0,193.0,0.0,179.0,1744420447.7513444,0.0,2025-04-11 21:14:07.751,LEFT,19
193.0,22300.581312248865,27168.43362670346,-32244.15716459241,-24716.9837018232,-36788.71384724544,-30475.97771596643,-12957.350964230414,-38554.63576968143,0.0,0.0,0.0,193.0,0.0,193.0,0.0,0.0,0.0,179.0,193.0,0.0,179.0,1744420447.7513845,0.0,2025-04-11 21:14:07.751,LEFT,19
194.0,22280.017707349984,27159.85055683262,-32238.725690689767,-24708.9817773082,-36778.11912037362,-30456.6881605015,-13218.754615635231,-38558.234400538735,0.0,0.0,0.0,193.0,0.0,193.0,0.0,0.0,0.0,179.0,193.0,0.0,179.0,1744420447.7514246,0.0,2025-04-11 21:14:07.751,LEFT,19
195.0,22253.59794540381,27172.032257560764,-32235.439984254837,-24697.89531205837,-36773.84993718266,-30444.238238839895,-13535.322372355746,-38550.880676612935,0.0,0.0,0.0,193.0,0.0,193.0,0.0,0.0,0.0,179.0,193.0,0.0,179.0,1744420447.7514644,0.0,2025-04-11 21:14:07.751,LEFT,19
196.0,22270.898195612215,27184.01279258881,-32228.33212951805,-24690.206311965743,-36769.111367358135,-30441.757195205355,-13396.898018944028,-38528.43952517981,0.0,0.0,0.0,193.0,0.0,193.0,0.0,0.0,0.0,178.0,193.0,0.0,178.0,1744420447.7515044,0.0,2025-04-11 21:14:07.751,LEFT,19
197.0,22291.4618005111,27171.361705227104,-32242.391376780437,-24708.668852885825,-36778.432044796,-30457.626933768624,-12970.627900436868,-38531.70287987028,0.0,0.0,0.0,193.0,0.0,193.0,0.0,0.0,0.0,179.0,193.0,0.0,179.0,1744420447.7515612,0.0,2025-04-11 21:14:07.751,LEFT,19
198.0,22270.249995023012,27147.624152615568,-32240.737347690745,-24709.764088364136,-36775.03457963879,-30448.55212551977,-13171.74889704572,-38551.97591209125,0.0,0.0,0.0,193.0,0.0,193.0,0.0,0.0,0.0,179.0,193.0,0.0,179.0,1744420447.7516015,0.0,2025-04-11 21:14:07.751,LEFT,19
199.0,22249.50757616849,27162.24219348934,-32229.04738534062,-24695.816599824026,-36764.61866672262,-30434.35876779065,-13516.926886669027,-38542.76699337566,0.0,0.0,0.0,193.0,0.0,193.0,0.0,0.0,0.0,179.0,193.0,0.0,179.0,1744420447.7516408,0.0,2025-04-11 21:14:07.751,LEFT,19
200.0,22258.671791395165,27172.814568616697,-32225.940492861333,-24693.737887589683,-36761.69058819897,-30444.059424884254,-13472.335156480689,-38538.00607180668,0.0,0.0,0.0,193.0,0.0,193.0,0.0,0.0,0.0,179.0,193.0,0.0,179.0,1744420447.7516809,0.0,2025-04-11 21:14:07.751,LEFT,19
201.0,22286.365602775288,27174.08861805065,-32236.401109266415,-24705.159629006343,-36775.86159418364,-30459.41507332505,-12981.557903475512,-38513.19563546129,0.0,0.0,0.0,193.0,0.0,194.0,0.0,0.0,0.0,180.0,194.0,0.0,180.0,1744420447.7517343,0.0,2025-04-11 21:14:07.751,LEFT,19
202.0,22271.144064801225,27153.860289318596,-32235.775260421666,-24711.46282094274,-36777.94030641798,-30453.82713721122,-13095.127117052927,-38545.29274049911,0.0,0.0,0.0,193.0,0.0,194.0,0.0,0.0,0.0,179.0,194.0,0.0,179.0,1744420447.751774,0.0,2025-04-11 21:14:07.751,LEFT,19
203.0,22252.636820392232,27172.546347683234,-32221.29133001463,-24690.78745732158,-36767.993780135366,-30434.224657323917,-13456.867749317616,-38529.73592635822,0.0,0.0,0.0,193.0,0.0,193.0,0.0,0.0,0.0,179.0,193.0,0.0,179.0,1744420447.751814,0.0,2025-04-11 21:14:07.751,LEFT,19
204.0,22256.21309950508,27179.363629742104,-32213.915254344378,-24685.80301830805,-36766.00447487885,-30439.857296926653,-13542.094950925703,-38537.20140900629,0.0,0.0,0.0,193.0,0.0,193.0,0.0,0.0,0.0,178.0,193.0,0.0,178.0,1744420447.7518537,0.0,2025-04-11 21:14:07.751,LEFT,19
205.0,22287.17026557568,27171.18289127146,-32227.66157718439,-24699.951672548257,-36781.65069599756,-30470.099207174684,-13071.568378397034,-38536.17322876135,0.0,0.0,0.0,193.0,0.0,194.0,0.0,0.0,0.0,179.0,194.0,0.0,179.0,1744420447.751894,0.0,2025-04-11 21:14:07.751,LEFT,19
206.0,22279.861245138796,27148.831146816156,-32235.48468774375,-24716.246094256174,-36790.39022807959,-30470.680352530522,-13068.707355106755,-38578.41802578187,0.0,0.0,0.0,193.0,0.0,193.0,0.0,0.0,0.0,179.0,193.0,0.0,179.0,1744420447.7519484,0.0,2025-04-11 21:14:07.751,LEFT,19
207.0,22262.02455306346,27169.484158692856,-32217.715050901777,-24689.93809103228,-36769.96073364744,-30441.220753338428,-13422.13313843407,-38542.72228988675,0.0,0.0,0.0,193.0,0.0,193.0,0.0,0.0,0.0,179.0,193.0,0.0,179.0,1744420447.751989,0.0,2025-04-11 21:14:07.751,LEFT,19
208.0,22259.96819257357,27187.544368212744,-32209.333146731038,-24678.918681015813,-36758.53899223077,-30436.30336955826,-13574.795553063817,-38535.167400260856,0.0,0.0,0.0,193.0,0.0,193.0,0.0,0.0,0.0,179.0,193.0,0.0,179.0,1744420448.2241209,0.0,2025-04-11 21:14:08.224,LEFT,19
209.0,22288.13139058726,27185.353897256125,-32219.503190458203,-24685.758314819137,-36767.59144873518,-30458.453948313472,-13138.55655652959,-38516.995432018695,0.0,0.0,0.0,193.0,0.0,193.0,0.0,0.0,0.0,179.0,193.0,0.0,179.0,1744420448.2242844,0.0,2025-04-11 21:14:08.224,LEFT,19
210.0,22292.244111567034,27168.299516236726,-32222.31951025957,-24700.9798527932,-36771.45830052594,-30461.02439892583,-13019.265296371615,-38566.281028542646,0.0,0.0,0.0,193.0,0.0,193.0,0.0,0.0,0.0,179.0,193.0,0.0,179.0,1744420448.2243333,0.0,2025-04-11 21:14:08.224,LEFT,19
211.0,22266.897233354717,27169.171234270485,-32218.51971370217,-24687.300585186553,-36767.636152224084,-30439.6337794821,-13340.884547339028,-38540.15183927439,0.0,0.0,0.0,193.0,0.0,193.0,0.0,0.0,0.0,179.0,193.0,0.0,179.0,1744420448.2243807,0.0,2025-04-11 21:14:08.224,LEFT,19
212.0,22255.27432623796,27178.111932052605,-32208.014393808175,-24674.671849569306,-36757.55551547474,-30437.689177714492,-13579.3553089327,-38545.2480370102,0.0,0.0,0.0,193.0,0.0,193.0,0.0,0.0,0.0,179.0,193.0,0.0,179.0,1744420448.2244751,0.0,2025-04-11 21:14:08.224,LEFT,19
213.0,22280.107114327802,27182.895205366043,-32206.494475185216,-24670.715590800715,-36761.71293994343,-30449.043863897787,-13241.799264168652,-38527.29958621259,0.0,0.0,0.0,193.0,0.0,194.0,0.0,0.0,0.0,179.0,194.0,0.0,179.0,1744420448.2245228,0.0,2025-04-11 21:14:08.224,LEFT,19
214.0,22284.331594029856,27162.66687663399,-32221.42544048136,-24696.88948355788,-36776.26392558384,-30463.572497793735,-12989.917455901797,-38550.43364172383,0.0,0.0,0.0,193.0,0.0,193.0,0.0,0.0,0.0,179.0,193.0,0.0,179.0,1744420448.22457,0.0,2025-04-11 21:14:08.224,LEFT,19
215.0,22259.83408210684,27153.14503349603,-32219.302024758104,-24691.659175355337,-36771.16772784802,-30455.190593622996,-13281.25009313227,-38553.29466501411,0.0,0.0,0.0,193.0,0.0,193.0,0.0,0.0,0.0,179.0,193.0,0.0,179.0,1744420448.2246222,0.0,2025-04-11 21:14:08.224,LEFT,19
216.0,22253.26266923698,27172.032257560764,-32199.61013789298,-24670.492073356163,-36751.02880609379,-30434.559933490746,-13582.462201411987,-38544.82335386555,0.0,0.0,0.0,193.0,0.0,194.0,0.0,0.0,0.0,179.0,194.0,0.0,179.0,1744420448.2246885,0.0,2025-04-11 21:14:08.224,LEFT,19
217.0,22268.21598627758,27173.038086061253,-32209.17668451985,-24672.07904721249,-36759.45541375344,-30447.92627667502,-13330.334523956124,-38517.4424669078,0.0,0.0,0.0,193.0,0.0,193.0,0.0,0.0,0.0,179.0,193.0,0.0,179.0,1744420448.2247348,0.0,2025-04-11 21:14:08.224,LEFT,19
218.0,22279.794189905428,27156.766016097787,-32232.04251909763,-24703.393841194375,-36782.6341727536,-30471.88734673111,-12966.895159112832,-38551.01478707967,0.0,0.0,0.0,193.0,0.0,193.0,0.0,0.0,0.0,179.0,193.0,0.0,179.0,1744420448.2247856,0.0,2025-04-11 21:14:08.224,LEFT,19
219.0,22262.583346674845,27149.52405089427,-32225.538161461136,-24696.17422773531,-36773.35819880464,-30453.201288366472,-13234.244374542759,-38558.234400538735,0.0,0.0,0.0,193.0,0.0,193.0,0.0,0.0,0.0,179.0,193.0,0.0,179.0,1744420448.224831,0.0,2025-04-11 21:14:08.224,LEFT,19
220.0,22238.53286964093,27164.007981301307,-32216.508056701194,-24680.863282783426,-36761.26590505432,-30432.950607889965,-13552.555567330786,-38533.4463159378,0.0,0.0,0.0,193.0,0.0,194.0,0.0,0.0,0.0,180.0,194.0,0.0,180.0,1744420448.2248776,0.0,2025-04-11 21:14:08.224,LEFT,19
221.0,22257.822425105864,27169.506510437313,-32208.7520013752,-24670.335611144976,-36753.12987007259,-30434.31406430174,-13431.789092038762,-38523.16451348836,0.0,0.0,0.0,193.0,0.0,193.0,0.0,0.0,0.0,179.0,193.0,0.0,179.0,1744420448.2249413,0.0,2025-04-11 21:14:08.224,LEFT,19
222.0,22282.722268429075,27159.269411476784,-32223.861780626987,-24691.569768377518,-36768.820794680214,-30462.49961405988,-12978.093383084939,-38544.733946887725,0.0,0.0,0.0,193.0,0.0,194.0,0.0,0.0,0.0,180.0,194.0,0.0,180.0,1744420448.224987,0.0,2025-04-11 21:14:08.224,LEFT,19
223.0,22260.236413507035,27136.649446088013,-32226.834562639546,-24700.912797559835,-36770.54187900327,-30459.34801809168,-13152.258175880692,-38566.45984249828,0.0,0.0,0.0,193.0,0.0,193.0,0.0,0.0,0.0,179.0,193.0,0.0,179.0,1744420448.2250328,0.0,2025-04-11 21:14:08.225,LEFT,19
224.0,22239.11401499677,27157.190699242437,-32213.579978177546,-24681.422076394807,-36757.35434977464,-30429.486087499394,-13481.074688562714,-38514.31322268405,0.0,0.0,0.0,193.0,0.0,193.0,0.0,0.0,0.0,179.0,193.0,0.0,179.0,1744420448.2250793,0.0,2025-04-11 21:14:08.225,LEFT,19
225.0,22257.375390216755,27173.552176183723,-32196.100914013496,-24665.395875620354,-36744.39033799057,-30423.78639266329,-13469.965871568427,-38493.59315557399,0.0,0.0,0.0,193.0,0.0,193.0,0.0,0.0,0.0,179.0,193.0,0.0,179.0,1744420448.2251253,0.0,2025-04-11 21:14:08.225,LEFT,19
226.0,22288.533721987453,27170.62409766008,-32216.61981542347,-24687.25588169764,-36771.88298367059,-30459.146852391586,-13008.201182866238,-38513.77678081713,0.0,0.0,0.0,193.0,0.0,193.0,0.0,0.0,0.0,179.0,193.0,0.0,179.0,1744420448.2251713,0.0,2025-04-11 21:14:08.225,LEFT,19
227.0,22274.966213103082,27151.781577084254,-32221.917178859378,-24698.722326603216,-36778.8790796851,-30461.583192537215,-13116.45068126329,-38566.34808377601,0.0,0.0,0.0,193.0,0.0,193.0,0.0,0.0,0.0,179.0,193.0,0.0,179.0,1744420448.2252307,0.0,2025-04-11 21:14:08.225,LEFT,19
228.0,22247.048884278403,27164.879699335066,-32211.747135132213,-24678.78457054908,-36765.13275684509,-30439.41026203755,-13453.783208582785,-38532.507542670675,0.0,0.0,0.0,193.0,0.0,193.0,0.0,0.0,0.0,179.0,193.0,0.0,179.0,1744420448.2252772,0.0,2025-04-11 21:14:08.225,LEFT,19
229.0,22258.962364073082,27180.66003092051,-32199.27486172615,-24664.725323286693,-36750.53706771578,-30430.268398555327,-13533.847157221695,-38517.397763418885,0.0,0.0,0.0,193.0,0.0,194.0,0.0,0.0,0.0,179.0,194.0,0.0,179.0,1744420448.2253227,0.0,2025-04-11 21:14:08.225,LEFT,19
230.0,22277.938995115637,27170.869966849088,-32219.145562546917,-24681.176207205797,-36776.82271919522,-30461.672599515034,-13071.903654563863,-38520.72817334273,0.0,0.0,0.0,193.0,0.0,193.0,0.0,0.0,0.0,179.0,193.0,0.0,179.0,1744420448.2253692,0.0,2025-04-11 21:14:08.225,LEFT,19
231.0,22271.479340968053,27146.685379348444,-32224.018242838174,-24698.07412601401,-36777.359161062144,-30464.55597454977,-13052.43528514329,-38564.71640643077,0.0,0.0,0.0,193.0,0.0,194.0,0.0,0.0,0.0,179.0,194.0,0.0,179.0,1744420448.2254283,0.0,2025-04-11 21:14:08.225,LEFT,19
232.0,22252.659172136686,27158.7106178654,-32212.171818276864,-24679.052791482543,-36763.61283822213,-30441.35486380516,-13392.919408430984,-38533.15574325988,0.0,0.0,0.0,193.0,0.0,194.0,0.0,0.0,0.0,180.0,194.0,0.0,180.0,1744420448.2254744,0.0,2025-04-11 21:14:08.225,LEFT,19
233.0,22247.540622656423,27175.09444655114,-32202.158236760886,-24666.379352376385,-36758.136660830576,-30432.145945089575,-13561.853893024194,-38526.96431004576,0.0,0.0,0.0,193.0,0.0,193.0,0.0,0.0,0.0,179.0,193.0,0.0,179.0,1744420448.22552,0.0,2025-04-11 21:14:08.225,LEFT,19
234.0,22276.26261428149,27179.833016375665,-32216.32924274555,-24675.230643180686,-36780.153129119055,-30456.799919223777,-13173.93936800234,-38524.01387977766,0.0,0.0,0.0,193.0,0.0,193.0,0.0,0.0,0.0,179.0,193.0,0.0,179.0,1744420448.225566,0.0,2025-04-11 21:14:08.225,LEFT,19
235.0,22275.36854450328,27153.681475362955,-32229.114440573987,-24703.237378983187,-36782.99180066488,-30479.017553212354,-13038.376037880904,-38579.8038339381,0.0,0.0,0.0,193.0,0.0,193.0,0.0,0.0,0.0,179.0,193.0,0.0,179.0,1744420448.2256117,0.0,2025-04-11 21:14:08.225,LEFT,19
236.0,22251.675695380654,27152.630943373555,-32222.76654514868,-24693.313204445032,-36770.87715517011,-30466.299410617285,-13348.26062300928,-38577.83688042604,0.0,0.0,0.0,193.0,0.0,193.0,0.0,0.0,0.0,179.0,193.0,0.0,179.0,1744420448.2256703,0.0,2025-04-11 21:14:08.225,LEFT,19
237.0,22239.11401499677,27163.449187689926,-32215.23400726724,-24683.389029906873,-36767.21146907943,-30452.59779126618,-13593.92864631756,-38564.82816515305,0.0,0.0,0.0,193.0,0.0,193.0,0.0,0.0,0.0,179.0,193.0,0.0,179.0,1744420448.2257166,0.0,2025-04-11 21:14:08.225,LEFT,19
238.0,22267.724247899565,27171.629926160567,-32215.36811773397,-24677.42111413731,-36770.83245168119,-30455.727035489923,-13268.397840070467,-38529.087725769015,0.0,0.0,0.0,193.0,0.0,194.0,0.0,0.0,0.0,179.0,194.0,0.0,179.0,1744420448.225763,0.0,2025-04-11 21:14:08.225,LEFT,19
239.0,22278.27427128247,27161.392827200038,-32226.543989961625,-24698.16353299183,-36785.87517569961,-30468.378122851627,-12991.973816391686,-38558.45791798329,0.0,0.0,0.0,193.0,0.0,193.0,0.0,0.0,0.0,179.0,193.0,0.0,179.0,1744420448.225809,0.0,2025-04-11 21:14:08.225,LEFT,19
240.0,22250.289887224422,27152.429777673457,-32222.09599281502,-24690.429829410295,-36780.55546051925,-30455.235297111907,-13288.760279269252,-38558.659083683386,0.0,0.0,0.0,193.0,0.0,193.0,0.0,0.0,0.0,179.0,193.0,0.0,179.0,1744420448.225855,0.0,2025-04-11 21:14:08.225,LEFT,19
241.0,22235.29186669491,27165.773769113275,-32209.37785021995,-24674.69420131376,-36760.64005620957,-30435.208134079952,-13568.335898916233,-38532.86517058196,0.0,0.0,0.0,193.0,0.0,193.0,0.0,0.0,0.0,179.0,193.0,0.0,179.0,1744420448.2259011,0.0,2025-04-11 21:14:08.225,LEFT,19
242.0,22252.815634347873,27166.667838891488,-32216.262187512184,-24677.532872859585,-36767.18911733498,-30450.45202379847,-13344.952564829895,-38531.658176381374,0.0,0.0,0.0,193.0,0.0,194.0,0.0,0.0,0.0,180.0,194.0,0.0,180.0,1744420448.2259588,0.0,2025-04-11 21:14:08.225,LEFT,19
243.0,22269.065352566882,27157.74949285382,-32230.924931874866,-24694.810771323537,-36782.678876242506,-30459.41507332505,-12979.725060430177,-38540.71063288577,0.0,0.0,0.0,193.0,0.0,193.0,0.0,0.0,0.0,179.0,193.0,0.0,179.0,1744420448.226005,0.0,2025-04-11 21:14:08.226,LEFT,19
244.0,22252.636820392232,27140.248076945318,-32225.448754483314,-24688.149951475854,-36775.2804488278,-30445.35582606266,-13221.213307525315,-38549.29370275661,0.0,0.0,0.0,193.0,0.0,193.0,0.0,0.0,0.0,180.0,193.0,0.0,180.0,1744420448.2260506,0.0,2025-04-11 21:14:08.226,LEFT,19
245.0,22230.329779425836,27159.51528066579,-32217.402126479403,-24678.82927403799,-36760.595352720666,-30435.29754105777,-13531.880203709628,-38539.570693918555,0.0,0.0,0.0,193.0,0.0,193.0,0.0,0.0,0.0,179.0,193.0,0.0,179.0,1744420448.2261093,0.0,2025-04-11 21:14:08.226,LEFT,19
246.0,22246.087759266826,27171.18289127146,-32212.507094443692,-24672.88371001288,-36757.46610849692,-30432.816497423235,-13415.964056964405,-38503.494978367686,0.0,0.0,0.0,193.0,0.0,193.0,0.0,0.0,0.0,179.0,193.0,0.0,179.0,1744420448.2261555,0.0,2025-04-11 21:14:08.226,LEFT,19
247.0,22268.84183512233,27155.983705041854,-32229.181495807352,-24694.497846901162,-36775.816890694725,-30454.07300640023,-12972.773667904577,-38505.05960047956,0.0,0.0,0.0,193.0,0.0,194.0,0.0,0.0,0.0,180.0,194.0,0.0,180.0,1744420448.2262013,0.0,2025-04-11 21:14:08.226,LEFT,19
248.0,22249.798148846407,27135.598914098613,-32224.822905638568,-24696.911835302333,-36762.15997483253,-30448.239201097396,-13145.820873477564,-38536.15087701689,0.0,0.0,0.0,193.0,0.0,194.0,0.0,0.0,0.0,179.0,194.0,0.0,179.0,1744420448.2262466,0.0,2025-04-11 21:14:08.226,LEFT,19
249.0,22231.73793932652,27151.870984062076,-32209.444905453314,-24676.996430992658,-36747.56428570322,-30432.056538111752,-13475.57615942671,-38519.1411994864,0.0,0.0,0.0,193.0,0.0,193.0,0.0,0.0,0.0,179.0,193.0,0.0,179.0,1744420448.2262924,0.0,2025-04-11 21:14:08.226,LEFT,19
250.0,22241.662113864677,27164.745588868333,-32200.9512425603,-24666.044076209557,-36748.65952118153,-30431.184820077997,-13479.375955984111,-38518.67181285284,0.0,0.0,0.0,193.0,0.0,193.0,0.0,0.0,0.0,179.0,193.0,0.0,179.0,1744420448.2263389,0.0,2025-04-11 21:14:08.226,LEFT,19
251.0,22268.93124210015,27164.075036534672,-32217.782106135146,-24679.097494971455,-36772.888812171084,-30456.73286399041,-13012.38095907938,-38518.85062680848,0.0,0.0,0.0,193.0,0.0,194.0,0.0,0.0,0.0,179.0,194.0,0.0,179.0,1744420448.2263985,0.0,2025-04-11 21:14:08.226,LEFT,19
252.0,22265.64553566522,27150.932210794952,-32209.243739753216,-24678.315183915518,-36768.99960863586,-30443.72414871742,-13102.123213067438,-38548.26552251167,0.0,0.0,0.0,193.0,0.0,193.0,0.0,0.0,0.0,179.0,193.0,0.0,179.0,1744420448.226444,0.0,2025-04-11 21:14:08.226,LEFT,19
253.0,22243.673770865655,27166.667838891488,-32197.71023961428,-24662.892480241357,-36759.0754340977,-30427.139154331584,-13441.154472965536,-38522.98569953271,0.0,0.0,0.0,193.0,0.0,193.0,0.0,0.0,0.0,179.0,193.0,0.0,179.0,1744420448.2264895,0.0,2025-04-11 21:14:08.226,LEFT,19
254.0,22248.948782557105,27177.731952396865,-32188.45661740978,-24654.868203981903,-36753.733367172885,-30425.50747698635,-13542.430227092533,-38526.003185034184,0.0,0.0,0.0,193.0,0.0,194.0,0.0,0.0,0.0,179.0,194.0,0.0,179.0,1744420448.226535,0.0,2025-04-11 21:14:08.226,LEFT,19
255.0,22283.50457948501,27181.017658831795,-32198.112571014473,-24661.21609940721,-36765.49038475638,-30447.27807608582,-13085.404108214869,-38512.368620916444,0.0,0.0,0.0,193.0,0.0,193.0,0.0,0.0,0.0,179.0,193.0,0.0,179.0,1744420448.226581,0.0,2025-04-11 21:14:08.226,LEFT,19
0.0,22278.117809071282,27163.04685628973,-32206.203902507295,-24677.912852515325,-36774.58754474969,-30445.333474318206,-13038.353686136448,-38544.91276084337,0.0,0.0,0.0,193.0,0.0,193.0,0.0,0.0,0.0,179.0,193.0,0.0,179.0,1744420448.2266269,0.0,2025-04-11 21:14:08.226,LEFT,19
1.0,22254.715532626575,27170.04295230424,-32198.626661136946,-24661.73018952968,-36767.2785243128,-30426.468601997927,-13385.051594382716,-38521.890464054406,0.0,0.0,0.0,193.0,0.0,194.0,0.0,0.0,0.0,179.0,194.0,0.0,179.0,1744420448.226755,0.0,2025-04-11 21:14:08.226,LEFT,19
2.0,22250.088721524327,27184.750400155834,-32188.054286009585,-24651.78366324707,-36758.65075095305,-30419.11487807213,-13573.253282696402,-38516.95072852978,0.0,0.0,0.0,193.0,0.0,194.0,0.0,0.0,0.0,179.0,194.0,0.0,179.0,1744420448.2267992,0.0,2025-04-11 21:14:08.226,LEFT,19
3.0,22276.17320730367,27181.53174895427,-32203.588748406026,-24661.886651740868,-36778.18617560699,-30447.814517952746,-13180.533132616656,-38512.45802789427,0.0,0.0,0.0,193.0,0.0,193.0,0.0,0.0,0.0,179.0,193.0,0.0,179.0,1744420448.2268407,0.0,2025-04-11 21:14:08.226,LEFT,19
4.0,22278.810713149396,27158.218879487384,-32216.37394623446,-24689.379297420895,-36791.32900134671,-30464.98065769442,-13015.286685858571,-38563.5541157191,0.0,0.0,0.0,193.0,0.0,194.0,0.0,0.0,0.0,180.0,194.0,0.0,180.0,1744420448.2268977,0.0,2025-04-11 21:14:08.226,LEFT,19
5.0,22249.26170697948,27156.341332953136,-32212.820018866067,-24682.36084966193,-36787.484501300394,-30451.8378319547,-13349.73583814333,-38562.01184535168,0.0,0.0,0.0,193.0,0.0,194.0,0.0,0.0,0.0,180.0,194.0,0.0,180.0,1744420448.2269387,0.0,2025-04-11 21:14:08.226,LEFT,19
6.0,22242.01974177596,27171.13818778255,-32201.62179489396,-24673.174282690798,-36773.91699241602,-30441.824250438724,-13611.720634903984,-38556.80388889359,0.0,0.0,0.0,193.0,0.0,193.0,0.0,0.0,0.0,179.0,193.0,0.0,179.0,1744420448.2269797,0.0,2025-04-11 21:14:08.226,LEFT,19
7.0,22267.07604731036,27175.921461095986,-32203.18641700583,-24673.12957920189,-36768.820794680214,-30456.50934654586,-13281.942997210384,-38531.21114149227,0.0,0.0,0.0,193.0,0.0,193.0,0.0,0.0,0.0,179.0,193.0,0.0,179.0,1744420448.2270205,0.0,2025-04-11 21:14:08.227,LEFT,19
8.0,22282.051716095415,27165.170272012983,-32217.75975439069,-24696.3306899465,-36780.39899830807,-30467.349942606685,-12973.824199893976,-38547.7961358781,0.0,0.0,0.0,193.0,0.0,194.0,0.0,0.0,0.0,180.0,194.0,0.0,180.0,1744420448.2270615,0.0,2025-04-11 21:14:08.227,LEFT,19
9.0,22253.821462848362,27155.08963526364,-32217.17860903485,-24689.222835209708,-36773.80523369375,-30456.419939568037,-13259.457142288345,-38549.0478335676,0.0,0.0,0.0,193.0,0.0,193.0,0.0,0.0,0.0,179.0,193.0,0.0,179.0,1744420448.2271025,0.0,2025-04-11 21:14:08.227,LEFT,19
10.0,22236.029474261937,27168.455978447913,-32207.343841474518,-24674.582442591483,-36760.9753323764,-30443.321817317228,-13563.01618373587,-38547.170287033354,0.0,0.0,0.0,193.0,0.0,193.0,0.0,0.0,0.0,179.0,193.0,0.0,179.0,1744420448.2271564,0.0,2025-04-11 21:14:08.227,LEFT,19
11.0,22257.285983238937,27173.75334188382,-32211.545969432114,-24670.916756500814,-36766.96559989043,-30457.224602368427,-13367.483123240843,-38549.62897892344,0.0,0.0,0.0,193.0,0.0,194.0,0.0,0.0,0.0,179.0,194.0,0.0,179.0,1744420448.227198,0.0,2025-04-11 21:14:08.227,LEFT,19
12.0,22270.585271189844,27156.341332953136,-32229.740289418733,-24695.41426842383,-36783.90822218755,-30471.50736707537,-12992.197333836239,-38570.63961871143,0.0,0.0,0.0,193.0,0.0,194.0,0.0,0.0,0.0,179.0,194.0,0.0,179.0,1744420448.227239,0.0,2025-04-11 21:14:08.227,LEFT,19
13.0,22247.317105211867,27138.951675766908,-32225.784030650146,-24691.569768377518,-36774.67695172751,-30449.222677853428,-13222.263839514713,-38555.68630167083,0.0,0.0,0.0,193.0,0.0,193.0,0.0,0.0,0.0,179.0,193.0,0.0,179.0,1744420448.2272797,0.0,2025-04-11 21:14:08.227,LEFT,19
14.0,22222.35020665529,27148.47351890487,-32222.38656549294,-24679.49982637165,-36768.84314642467,-30432.324759045216,-13534.025971177338,-38523.03040302162,0.0,0.0,0.0,193.0,0.0,193.0,0.0,0.0,0.0,179.0,193.0,0.0,179.0,1744420448.2273204,0.0,2025-04-11 21:14:08.227,LEFT,19
15.0,22240.499823153,27165.773769113275,-32213.04353631062,-24667.608698321426,-36760.61770446512,-30431.20717182245,-13441.668563088007,-38509.28408018161,0.0,0.0,0.0,193.0,0.0,193.0,0.0,0.0,0.0,179.0,193.0,0.0,179.0,1744420448.2273612,0.0,2025-04-11 21:14:08.227,LEFT,19
16.0,22268.908890355695,27162.80098710072,-32223.81707713808,-24681.824407795004,-36776.01805639482,-30450.474375542926,-12991.370319291393,-38522.091629754505,0.0,0.0,0.0,193.0,0.0,194.0,0.0,0.0,0.0,180.0,194.0,0.0,180.0,1744420448.2274156,0.0,2025-04-11 21:14:08.227,LEFT,19
17.0,22253.620297148263,27141.83505080164,-32220.24079802523,-24685.065410741023,-36770.49717551436,-30443.88061092861,-13142.915146698375,-38551.21595277977,0.0,0.0,0.0,193.0,0.0,194.0,0.0,0.0,0.0,179.0,194.0,0.0,179.0,1744420448.227457,0.0,2025-04-11 21:14:08.227,LEFT,19
18.0,22234.82248006135,27156.453091675412,-32203.097010028006,-24665.373523875896,-36752.43696599448,-30421.193590306473,-13477.00667107185,-38519.5435308866,0.0,0.0,0.0,193.0,0.0,193.0,0.0,0.0,0.0,179.0,193.0,0.0,179.0,1744420448.227498,0.0,2025-04-11 21:14:08.227,LEFT,19
19.0,22247.942954056616,27170.869966849088,-32189.909480799375,-24650.88959346886,-36745.195000790955,-30414.331604758696,-13494.709252680452,-38504.32199291253,0.0,0.0,0.0,193.0,0.0,194.0,0.0,0.0,0.0,179.0,194.0,0.0,179.0,1744420448.227552,0.0,2025-04-11 21:14:08.227,LEFT,19
20.0,22273.043963079926,27172.32283023868,-32208.684946141835,-24666.960497732223,-36772.73234995989,-30445.78050920731,-13026.395502852858,-38510.088742982,0.0,0.0,0.0,193.0,0.0,193.0,0.0,0.0,0.0,179.0,193.0,0.0,179.0,1744420448.2275932,0.0,2025-04-11 21:14:08.227,LEFT,19
21.0,22259.208233262092,27150.351065439114,-32216.843332868022,-24682.338497917473,-36781.829509953204,-30450.69789298748,-13079.480895934212,-38545.940941088316,0.0,0.0,0.0,193.0,0.0,193.0,0.0,0.0,0.0,179.0,193.0,0.0,179.0,1744420448.227634,0.0,2025-04-11 21:14:08.227,LEFT,19
22.0,22236.72237834005,27158.95648705441,-32208.930815330845,-24666.826387265493,-36772.75470170435,-30432.481221256403,-13414.51119357481,-38517.554225630076,0.0,0.0,0.0,193.0,0.0,194.0,0.0,0.0,0.0,179.0,194.0,0.0,179.0,1744420448.227675,0.0,2025-04-11 21:14:08.227,LEFT,19
23.0,22239.695160352607,27173.865100606097,-32193.441056423315,-24649.079102167976,-36753.97923636189,-30416.16444780403,-13544.553642815787,-38503.91966151234,0.0,0.0,0.0,193.0,0.0,193.0,0.0,0.0,0.0,179.0,193.0,0.0,179.0,1744420448.227716,0.0,2025-04-11 21:14:08.227,LEFT,19
24.0,22265.10909379829,27178.24604251934,-32204.795742606613,-24655.471701082195,-36765.89271615657,-30439.65613122656,-13089.852105361475,-38492.162643928845,0.0,0.0,0.0,193.0,0.0,193.0,0.0,0.0,0.0,179.0,193.0,0.0,179.0,1744420448.2277696,0.0,2025-04-11 21:14:08.227,LEFT,19
25.0,22262.762160630486,27158.28593472075,-32212.84237061052,-24676.057657725534,-36776.68860872849,-30448.30625633076,-13024.495604574156,-38547.84083936702,0.0,0.0,0.0,193.0,0.0,193.0,0.0,0.0,0.0,179.0,193.0,0.0,179.0,1744420448.227811,0.0,2025-04-11 21:14:08.227,LEFT,19
26.0,22242.422073176156,27160.208184743904,-32208.260262997184,-24664.65826805333,-36772.44177728197,-30433.419994523527,-13355.301422512703,-38534.58625490502,0.0,0.0,0.0,193.0,0.0,193.0,0.0,0.0,0.0,179.0,193.0,0.0,179.0,1744420448.227852,0.0,2025-04-11 21:14:08.227,LEFT,19
27.0,22242.176203987146,27179.117760553094,-32192.904614556388,-24648.252087623132,-36756.236762551875,-30419.025471094308,-13572.470971640465,-38528.3948216909,0.0,0.0,0.0,193.0,0.0,193.0,0.0,0.0,0.0,179.0,193.0,0.0,179.0,1744420448.227893,0.0,2025-04-11 21:14:08.227,LEFT,19
28.0,22266.629012421254,27178.24604251934,-32204.527521673146,-24656.298715627043,-36768.91020165804,-30443.16535510604,-13187.663339097899,-38514.112056983955,0.0,0.0,0.0,193.0,0.0,193.0,0.0,0.0,0.0,179.0,193.0,0.0,179.0,1744420448.227934,0.0,2025-04-11 21:14:08.227,LEFT,19
29.0,22277.559015459898,27161.03519928875,-32208.595539164013,-24676.281175170086,-36771.39124529258,-30450.139099376098,-13011.442185812259,-38559.977836606246,0.0,0.0,0.0,193.0,0.0,193.0,0.0,0.0,0.0,179.0,193.0,0.0,179.0,1744420448.2279751,0.0,2025-04-11 21:14:08.227,LEFT,19
30.0,22244.88076506624,27150.574582883666,-32210.13780953143,-24672.45902686823,-36767.434986523986,-30443.79120395079,-13320.767977329253,-38559.01671159467,0.0,0.0,0.0,193.0,0.0,193.0,0.0,0.0,0.0,179.0,193.0,0.0,179.0,1744420448.228016,0.0,2025-04-11 21:14:08.228,LEFT,19
31.0,22225.144174712204,27159.604687643612,-32208.394373463914,-24667.407532621328,-36765.49038475638,-30437.532715503305,-13575.153180975101,-38559.351987761496,0.0,0.0,0.0,193.0,0.0,193.0,0.0,0.0,0.0,179.0,193.0,0.0,179.0,1744420448.2280693,0.0,2025-04-11 21:14:08.228,LEFT,19
32.0,22257.06246579438,27167.204280758415,-32209.914292086876,-24661.30550638503,-36767.61380047963,-30443.768852206333,-13284.82637224512,-38525.2432257227,0.0,0.0,0.0,193.0,0.0,194.0,0.0,0.0,0.0,180.0,194.0,0.0,180.0,1744420448.2281103,0.0,2025-04-11 21:14:08.228,LEFT,19
33.0,22268.97594558906,27158.107120765108,-32222.09599281502,-24682.27144268411,-36777.493271528874,-30459.191555880494,-12979.23332205216,-38555.90981911538,0.0,0.0,0.0,193.0,0.0,193.0,0.0,0.0,0.0,179.0,193.0,0.0,179.0,1744420448.2281516,0.0,2025-04-11 21:14:08.228,LEFT,19
34.0,22245.908945311185,27152.407425929003,-32217.67034741287,-24674.49303561366,-36770.56423074773,-30441.779546949812,-13264.57569176861,-38554.814583637075,0.0,0.0,0.0,193.0,0.0,193.0,0.0,0.0,0.0,179.0,193.0,0.0,179.0,1744420448.2282057,0.0,2025-04-11 21:14:08.228,LEFT,19
35.0,22227.289942179912,27157.794196342733,-32214.049364811108,-24666.915794243312,-36766.60797197914,-30430.111936344143,-13559.752829045396,-38531.457010681275,0.0,0.0,0.0,193.0,0.0,194.0,0.0,0.0,0.0,179.0,194.0,0.0,179.0,1744420448.2282467,0.0,2025-04-11 21:14:08.228,LEFT,19
36.0,22251.54158491392,27169.99824881533,-32207.656765896892,-24655.672866782294,-36761.93645738798,-30430.134288088597,-13373.763963432786,-38508.725286570225,0.0,0.0,0.0,193.0,0.0,193.0,0.0,0.0,0.0,179.0,193.0,0.0,179.0,1744420448.2282877,0.0,2025-04-11 21:14:08.228,LEFT,19
37.0,22259.297640239914,27160.208184743904,-32222.833600382044,-24674.73890480267,-36778.14147211808,-30445.713453973945,-12962.827141621965,-38524.84089432251,0.0,0.0,0.0,193.0,0.0,193.0,0.0,0.0,0.0,179.0,193.0,0.0,179.0,1744420448.2283285,0.0,2025-04-11 21:14:08.228,LEFT,19
38.0,22240.321009197356,27146.081882248152,-32214.496399700216,-24667.720457043702,-36769.78191969179,-30425.88745664209,-13202.37078694949,-38538.85543809598,0.0,0.0,0.0,193.0,0.0,194.0,0.0,0.0,0.0,179.0,194.0,0.0,179.0,1744420448.2283697,0.0,2025-04-11 21:14:08.228,LEFT,19
39.0,22226.798203801896,27160.476405677367,-32200.034821037632,-24648.16268064531,-36752.16874506101,-30405.59207267667,-13518.469157036443,-38501.393914388886,0.0,0.0,0.0,193.0,0.0,193.0,0.0,0.0,0.0,179.0,193.0,0.0,179.0,1744420448.2284243,0.0,2025-04-11 21:14:08.228,LEFT,19
40.0,22241.63976212022,27168.925365081475,-32188.70248659879,-24637.992636918145,-36737.46129720942,-30410.978843090397,-13420.769682022295,-38488.76517877164,0.0,0.0,0.0,193.0,0.0,193.0,0.0,0.0,0.0,179.0,193.0,0.0,179.0,1744420448.228466,0.0,2025-04-11 21:14:08.228,LEFT,19
41.0,22263.052733308403,27162.7115801229,-32209.713126386778,-24661.819596507503,-36764.506908000345,-30445.065253384742,-12955.406362462803,-38504.65726907936,0.0,0.0,0.0,193.0,0.0,194.0,0.0,0.0,0.0,179.0,194.0,0.0,179.0,1744420448.2285068,0.0,2025-04-11 21:14:08.228,LEFT,19
42.0,22250.245183735515,27154.17321374097,-32203.253472239194,-24659.83029125098,-36757.3767015191,-30431.430689267003,-13110.281599793625,-38527.880731568424,0.0,0.0,0.0,193.0,0.0,194.0,0.0,0.0,0.0,179.0,194.0,0.0,179.0,1744420448.2285488,0.0,2025-04-11 21:14:08.228,LEFT,19
43.0,22229.055729991884,27167.51720518079,-32190.065943010562,-24642.88766895386,-36741.95399784494,-30414.912750114534,-13447.256499201834,-38499.024629476626,0.0,0.0,0.0,193.0,0.0,193.0,0.0,0.0,0.0,179.0,193.0,0.0,179.0,1744420448.2285898,0.0,2025-04-11 21:14:08.228,LEFT,19
44.0,22232.58730561582,27167.606612158612,-32187.98723077622,-24641.948895686735,-36744.502096712844,-30429.419032266025,-13486.841438632184,-38516.01195526266,0.0,0.0,0.0,193.0,0.0,193.0,0.0,0.0,0.0,178.0,193.0,0.0,178.0,1744420448.2286305,0.0,2025-04-11 21:14:08.228,LEFT,19
45.0,22259.83408210684,27167.42779820297,-32204.169893761864,-24655.896384226846,-36765.55743998974,-30453.69302674449,-13025.7249505192,-38516.12371398493,0.0,0.0,0.0,193.0,0.0,193.0,0.0,0.0,0.0,179.0,193.0,0.0,179.0,1744420448.2286713,0.0,2025-04-11 21:14:08.228,LEFT,19
46.0,22251.251012236004,27146.61832411508,-32202.649975138902,-24666.915794243312,-36763.12109984411,-30443.54533476178,-13065.734573094198,-38530.4958856697,0.0,0.0,0.0,193.0,0.0,194.0,0.0,0.0,0.0,179.0,194.0,0.0,179.0,1744420448.2287276,0.0,2025-04-11 21:14:08.228,LEFT,19
47.0,22233.369616671756,27155.827242830666,-32192.390524433915,-24652.633029536373,-36752.056986338735,-30429.68725319949,-13406.039882426248,-38515.00612676217,0.0,0.0,0.0,193.0,0.0,193.0,0.0,0.0,0.0,179.0,193.0,0.0,179.0,1744420448.2287729,0.0,2025-04-11 21:14:08.228,LEFT,19
48.0,22239.493994652512,27170.62409766008,-32181.16994871735,-24639.98194217467,-36745.59733219115,-30424.993386863876,-13547.213500405967,-38525.28792921161,0.0,0.0,0.0,193.0,0.0,193.0,0.0,0.0,0.0,179.0,193.0,0.0,179.0,1744420448.2288141,0.0,2025-04-11 21:14:08.228,LEFT,19
49.0,22269.199463033612,27174.7144668954,-32195.631527379937,-24649.92846845728,-36765.73625394538,-30446.27224758533,-13112.516774239157,-38510.133446470914,0.0,0.0,0.0,193.0,0.0,193.0,0.0,0.0,0.0,179.0,193.0,0.0,179.0,1744420448.2288687,0.0,2025-04-11 21:14:08.228,LEFT,19
50.0,22267.634840921743,27151.848632317622,-32207.545007174613,-24671.542605345563,-36775.59337325017,-30456.486994801402,-13036.498491346658,-38565.81164190908,0.0,0.0,0.0,193.0,0.0,193.0,0.0,0.0,0.0,179.0,193.0,0.0,179.0,1744420448.22891,0.0,2025-04-11 21:14:08.228,LEFT,19
51.0,22245.148985999702,27159.00119054332,-32202.18058850534,-24657.93039297228,-36772.17355634851,-30436.72805270291,-13386.79503045023,-38555.239266781726,0.0,0.0,0.0,193.0,0.0,193.0,0.0,0.0,0.0,179.0,193.0,0.0,179.0,1744420448.2289505,0.0,2025-04-11 21:14:08.228,LEFT,19
52.0,22236.275343450947,27173.08278955016,-32196.547948902604,-24650.151985901834,-36762.338788788176,-30426.625064209114,-13589.793573593328,-38531.658176381374,0.0,0.0,0.0,193.0,0.0,193.0,0.0,0.0,0.0,179.0,193.0,0.0,179.0,1744420448.2289915,0.0,2025-04-11 21:14:08.228,LEFT,19
53.0,22262.65040190821,27175.787350629253,-32206.002736807197,-24656.45517783823,-36769.401940036056,-30446.02637839632,-13208.182240507871,-38520.95169078728,0.0,0.0,0.0,193.0,0.0,193.0,0.0,0.0,0.0,179.0,193.0,0.0,179.0,1744420448.2290325,0.0,2025-04-11 21:14:08.229,LEFT,19
54.0,22265.31025949839,27153.56971664068,-32221.04546082562,-24682.405553150842,-36783.99762916537,-30460.085625658707,-13005.563677020513,-38565.4540139978,0.0,0.0,0.0,193.0,0.0,193.0,0.0,0.0,0.0,179.0,193.0,0.0,179.0,1744420448.229087,0.0,2025-04-11 21:14:08.229,LEFT,19
55.0,22239.493994652512,27144.584315369644,-32217.357422990495,-24674.157759446833,-36773.96169590494,-30444.104128373165,-13322.757282585775,-38550.21012427928,0.0,0.0,0.0,193.0,0.0,193.0,0.0,0.0,0.0,179.0,193.0,0.0,179.0,1744420448.2291284,0.0,2025-04-11 21:14:08.229,LEFT,19
56.0,22232.900230038194,27159.068245776685,-32205.399239706905,-24660.053808695535,-36763.61283822213,-30429.508439243848,-13581.165800233579,-38530.98762404772,0.0,0.0,0.0,193.0,0.0,193.0,0.0,0.0,0.0,179.0,193.0,0.0,179.0,1744420448.2291694,0.0,2025-04-11 21:14:08.229,LEFT,19
57.0,22254.536718670934,27164.52207142378,-32209.37785021995,-24659.718532528703,-36773.022922637814,-30444.394701051082,-13300.718462552843,-38522.091629754505,0.0,0.0,0.0,193.0,0.0,193.0,0.0,0.0,0.0,179.0,193.0,0.0,179.0,1744420448.2292104,0.0,2025-04-11 21:14:08.229,LEFT,19
58.0,22270.36175374529,27157.48127192036,-32219.123210802463,-24676.16941644781,-36782.00832390885,-30453.22364011093,-12994.09723211494,-38555.48513597073,0.0,0.0,0.0,193.0,0.0,193.0,0.0,0.0,0.0,179.0,193.0,0.0,179.0,1744420448.2292511,0.0,2025-04-11 21:14:08.229,LEFT,19
59.0,22246.870070322762,27147.199469470917,-32217.42447822386,-24667.206366921233,-36777.225050595414,-30439.320855059726,-13263.905139434952,-38552.087670813526,0.0,0.0,0.0,193.0,0.0,193.0,0.0,0.0,0.0,179.0,193.0,0.0,179.0,1744420448.2292984,0.0,2025-04-11 21:14:08.229,LEFT,19
60.0,22227.759328813474,27162.08573127815,-32209.489608942225,-24656.231660393678,-36762.45054751045,-30432.972959634422,-13555.885977254628,-38542.25290325319,0.0,0.0,0.0,193.0,0.0,193.0,0.0,0.0,0.0,179.0,193.0,0.0,179.0,1744420448.2293403,0.0,2025-04-11 21:14:08.229,LEFT,19
61.0,22249.753445357495,27177.106103552116,-32204.03578329513,-24646.374541088884,-36760.34948353165,-30431.475392755914,-13379.933044902451,-38512.368620916444,0.0,0.0,0.0,193.0,0.0,193.0,0.0,0.0,0.0,179.0,193.0,0.0,179.0,1744420448.2293973,0.0,2025-04-11 21:14:08.229,LEFT,19
62.0,22266.606660676796,27161.057551033206,-32222.967710848778,-24668.256898910633,-36779.21435585193,-30447.389834808095,-12965.978737590163,-38521.041097765104,0.0,0.0,0.0,193.0,0.0,193.0,0.0,0.0,0.0,179.0,193.0,0.0,179.0,1744420448.2294395,0.0,2025-04-11 21:14:08.229,LEFT,19
63.0,22257.50950068349,27150.5075276503,-32211.791838621124,-24656.477529582684,-36760.304780042745,-30419.964244361432,-13179.192027949337,-38518.13537098591,0.0,0.0,0.0,193.0,0.0,193.0,0.0,0.0,0.0,179.0,193.0,0.0,179.0,1744420448.2294807,0.0,2025-04-11 21:14:08.229,LEFT,19
64.0,22237.77291032945,27164.90205107952,-32203.342879217016,-24642.194764875745,-36748.07837582569,-30404.563892431725,-13484.29333976428,-38496.94591724228,0.0,0.0,0.0,193.0,0.0,194.0,0.0,0.0,0.0,179.0,194.0,0.0,179.0,1744420448.2296731,0.0,2025-04-11 21:14:08.229,LEFT,19
65.0,22253.5532419149,27172.52399593878,-32194.17866399034,-24633.276418838075,-36743.451564723444,-30405.882645354588,-13439.008705497827,-38497.057675964556,0.0,0.0,0.0,193.0,0.0,194.0,0.0,0.0,0.0,180.0,194.0,0.0,180.0,1744420448.2297156,0.0,2025-04-11 21:14:08.229,LEFT,19
66.0,22275.61441369229,27166.243155746837,-32211.255396754193,-24652.49891906964,-36765.758605689836,-30431.475392755914,-12989.649234968334,-38505.70780106876,0.0,0.0,0.0,193.0,0.0,193.0,0.0,0.0,0.0,179.0,193.0,0.0,179.0,1744420448.2297568,0.0,2025-04-11 21:14:08.229,LEFT,19
67.0,22258.001239061505,27146.730082837355,-32210.406030464892,-24660.813768007014,-36763.434024266484,-30430.424860766514,-13123.290315066615,-38546.9467695888,0.0,0.0,0.0,193.0,0.0,193.0,0.0,0.0,0.0,179.0,193.0,0.0,179.0,1744420448.229798,0.0,2025-04-11 21:14:08.229,LEFT,19
68.0,22235.29186669491,27160.834033588653,-32199.74424835971,-24641.59126777545,-36756.01324510732,-30414.063383825232,-13457.337135951178,-38519.58823437551,0.0,0.0,0.0,193.0,0.0,194.0,0.0,0.0,0.0,179.0,194.0,0.0,179.0,1744420448.229839,0.0,2025-04-11 21:14:08.229,LEFT,19
69.0,22244.701951110597,27171.85344360512,-32187.42843716484,-24628.69431122474,-36743.85389612364,-30405.949700587953,-13503.493488251388,-38494.42017011883,0.0,0.0,0.0,193.0,0.0,194.0,0.0,0.0,0.0,179.0,194.0,0.0,179.0,1744420448.2298973,0.0,2025-04-11 21:14:08.229,LEFT,19
70.0,22269.802960133908,27172.389885472046,-32205.08631528453,-24642.150061386834,-36762.31643704372,-30431.855372411654,-13025.188508652273,-38486.775873515115,0.0,0.0,0.0,193.0,0.0,193.0,0.0,0.0,0.0,179.0,193.0,0.0,179.0,1744420448.2299383,0.0,2025-04-11 21:14:08.229,LEFT,19
71.0,22261.510462940987,27155.201393985917,-32209.42255370886,-24652.1189394139,-36767.25617256834,-30430.134288088597,-13045.662706573334,-38529.02067053565,0.0,0.0,0.0,193.0,0.0,194.0,0.0,0.0,0.0,180.0,194.0,0.0,180.0,1744420448.229979,0.0,2025-04-11 21:14:08.229,LEFT,19
72.0,22240.499823153,27168.52303368128,-32202.38175420544,-24636.807994462015,-36760.21537306492,-30416.186799548486,-13398.999082922826,-38523.544493144094,0.0,0.0,0.0,193.0,0.0,194.0,0.0,0.0,0.0,180.0,194.0,0.0,180.0,1744420448.706627,0.0,2025-04-11 21:14:08.706,LEFT,19
73.0,22241.528003397943,27187.365554257103,-32195.47506516875,-24627.82259319098,-36756.79555616326,-30409.615386678626,-13553.628451064642,-38519.364716930955,0.0,0.0,0.0,193.0,0.0,193.0,0.0,0.0,0.0,178.0,193.0,0.0,178.0,1744420448.7067454,0.0,2025-04-11 21:14:08.706,LEFT,19
74.0,22274.653288680707,27183.163426299507,-32204.03578329513,-24633.1646601158,-36771.16772784802,-30428.12263108762,-13142.870443209464,-38505.28311792411,0.0,0.0,0.0,193.0,0.0,193.0,0.0,0.0,0.0,179.0,193.0,0.0,179.0,1744420448.7067952,0.0,2025-04-11 21:14:08.706,LEFT,19
75.0,22273.043963079926,27158.196527742926,-32211.9035973434,-24653.772968503592,-36780.577812263706,-30435.96809339143,-13031.603459310945,-38536.01676655016,0.0,0.0,0.0,193.0,0.0,193.0,0.0,0.0,0.0,179.0,193.0,0.0,179.0,1744420448.7068436,0.0,2025-04-11 21:14:08.706,LEFT,19
76.0,22240.54452664191,27154.732007352355,-32210.406030464892,-24647.849756222935,-36776.68860872849,-30428.033224109797,-13351.456922466388,-38522.493961154694,0.0,0.0,0.0,193.0,0.0,194.0,0.0,0.0,0.0,180.0,194.0,0.0,180.0,1744420448.7069533,0.0,2025-04-11 21:14:08.706,LEFT,19
77.0,22229.21219220307,27162.75628361181,-32199.408972192883,-24639.870183452393,-36760.438890509475,-30420.768907161822,-13572.87330304066,-38527.23253097922,0.0,0.0,0.0,193.0,0.0,193.0,0.0,0.0,0.0,179.0,193.0,0.0,179.0,1744420448.7070029,0.0,2025-04-11 21:14:08.707,LEFT,19
78.0,22256.794244860917,27168.79125461474,-32204.70633562879,-24642.038302664558,-36762.338788788176,-30433.330587545704,-13226.018932583205,-38516.1907692183,0.0,0.0,0.0,193.0,0.0,193.0,0.0,0.0,0.0,179.0,193.0,0.0,179.0,1744420448.7070494,0.0,2025-04-11 21:14:08.707,LEFT,19
79.0,22261.085779796336,27146.528917137257,-32224.219408538273,-24673.353096646442,-36779.4825767854,-30451.16727962104,-13000.825107195988,-38554.68047317034,0.0,0.0,0.0,193.0,0.0,193.0,0.0,0.0,0.0,179.0,193.0,0.0,179.0,1744420448.7071145,0.0,2025-04-11 21:14:08.707,LEFT,19
80.0,22235.805956817385,27139.018731000273,-32225.649920183412,-24671.944936745756,-36780.22018435242,-30441.89130567209,-13307.692206822898,-38556.46861272676,0.0,0.0,0.0,193.0,0.0,193.0,0.0,0.0,0.0,179.0,193.0,0.0,179.0,1744420448.7071612,0.0,2025-04-11 21:14:08.707,LEFT,19
81.0,22222.461965377566,27161.303420222215,-32208.57318741956,-24654.488224326164,-36761.064739354224,-30421.417107751025,-13583.199808979012,-38531.36760370345,0.0,0.0,0.0,193.0,0.0,194.0,0.0,0.0,0.0,179.0,194.0,0.0,179.0,1744420448.7072067,0.0,2025-04-11 21:14:08.707,LEFT,19
82.0,22245.126634255248,27167.94188832544,-32208.439076952825,-24648.766177745605,-36761.26590505432,-30429.68725319949,-13306.10523296657,-38502.019763233635,0.0,0.0,0.0,193.0,0.0,193.0,0.0,0.0,0.0,179.0,193.0,0.0,179.0,1744420448.7072527,0.0,2025-04-11 21:14:08.707,LEFT,19
83.0,22263.589175175333,27158.241231231837,-32225.538161461136,-24672.41432337932,-36780.3319430747,-30452.97777092192,-12971.052583581519,-38539.369528218456,0.0,0.0,0.0,193.0,0.0,193.0,0.0,0.0,0.0,179.0,193.0,0.0,179.0,1744420448.7072997,0.0,2025-04-11 21:14:08.707,LEFT,19
84.0,22241.840927820318,27137.096480977118,-32223.28063527115,-24670.335611144976,-36778.052065140255,-30447.747462719377,-13249.488264261277,-38561.810679651586,0.0,0.0,0.0,193.0,0.0,194.0,0.0,0.0,0.0,179.0,194.0,0.0,179.0,1744420448.7073627,0.0,2025-04-11 21:14:08.707,LEFT,19
85.0,22232.475546893544,27158.57650739867,-32198.69371637031,-24642.708854998215,-36753.04046309477,-30413.54929370276,-13558.657593567086,-38515.47551339573,0.0,0.0,0.0,193.0,0.0,194.0,0.0,0.0,0.0,179.0,194.0,0.0,179.0,1744420448.70741,0.0,2025-04-11 21:14:08.707,LEFT,19
86.0,22245.238392977524,27162.80098710072,-32198.403143692394,-24640.004293919123,-36756.14735557406,-30421.260645539838,-13393.768774720285,-38494.4872253522,0.0,0.0,0.0,193.0,0.0,193.0,0.0,0.0,0.0,179.0,193.0,0.0,179.0,1744420448.7074564,0.0,2025-04-11 21:14:08.707,LEFT,19
87.0,22259.029419306447,27153.636771874044,-32220.71018465879,-24664.948840731246,-36779.4825767854,-30449.803823209266,-12956.613356663389,-38518.40359191938,0.0,0.0,0.0,193.0,0.0,193.0,0.0,0.0,0.0,179.0,193.0,0.0,179.0,1744420448.7075028,0.0,2025-04-11 21:14:08.707,LEFT,19
88.0,22248.054712778892,27146.32775143716,-32210.294271742616,-24657.59511680545,-36766.00447487885,-30431.900075900565,-13155.253309637703,-38533.15574325988,0.0,0.0,0.0,193.0,0.0,193.0,0.0,0.0,0.0,179.0,193.0,0.0,179.0,1744420448.7075484,0.0,2025-04-11 21:14:08.707,LEFT,19
89.0,22231.626180604242,27162.08573127815,-32190.51297789967,-24631.10829962591,-36744.83737287967,-30407.067287810718,-13495.62567420312,-38506.66892608034,0.0,0.0,0.0,193.0,0.0,194.0,0.0,0.0,0.0,179.0,194.0,0.0,179.0,1744420448.707594,0.0,2025-04-11 21:14:08.707,LEFT,19
90.0,22236.78943357342,27164.209147001406,-32188.255451709683,-24624.53688675605,-36744.166820546016,-30412.051726824255,-13453.336173693679,-38496.54358584208,0.0,0.0,0.0,193.0,0.0,193.0,0.0,0.0,0.0,179.0,193.0,0.0,179.0,1744420448.7076402,0.0,2025-04-11 21:14:08.707,LEFT,19
91.0,22262.628050163752,27162.577469656168,-32208.103800785997,-24641.613619519907,-36766.67502721251,-30435.476355013416,-12995.840668182454,-38515.20729246227,0.0,0.0,0.0,193.0,0.0,193.0,0.0,0.0,0.0,179.0,193.0,0.0,179.0,1744420448.7076995,0.0,2025-04-11 21:14:08.707,LEFT,19
92.0,22252.033323291937,27142.639713602035,-32206.874454840956,-24646.30748585552,-36763.098748099655,-30423.58522696319,-13098.189306043305,-38528.238359479714,0.0,0.0,0.0,193.0,0.0,194.0,0.0,2.0,0.0,180.0,194.0,2.0,180.0,1744420448.707743,0.0,2025-04-11 21:14:08.707,LEFT,19
93.0,22228.094604980302,27150.172251483473,-32201.577091405048,-24633.499936282627,-36760.014207364824,-30407.179046532998,-13429.464510615411,-38495.67186780833,0.0,0.0,0.0,193.0,0.0,194.0,0.0,3.0,0.0,179.0,194.0,3.0,179.0,1744420448.7077868,0.0,2025-04-11 21:14:08.707,LEFT,19
94.0,22230.55329687039,27159.828205088164,-32196.36913494696,-24627.62142749088,-36757.24259105237,-30412.834037880188,-13532.3942938321,-38519.00708901967,0.0,0.0,0.0,193.0,0.0,193.0,0.0,4.0,0.0,179.0,193.0,4.0,179.0,1744420448.7078438,0.0,2025-04-11 21:14:08.707,LEFT,19
95.0,22266.092570554327,27164.45501619041,-32204.885149584432,-24635.89157293935,-36769.871326669614,-30434.157602090552,-13078.028032544618,-38515.81078956256,0.0,0.0,0.0,193.0,0.0,194.0,0.0,5.0,0.0,179.0,194.0,5.0,179.0,1744420448.7078867,0.0,2025-04-11 21:14:08.707,LEFT,19
96.0,22267.724247899565,27154.79906258572,-32205.42159145136,-24648.87793646788,-36772.77705344881,-30431.65420671156,-13076.083430777006,-38549.360757989976,0.0,0.0,0.0,193.0,0.0,194.0,0.0,6.0,0.0,179.0,194.0,6.0,179.0,1744420448.707929,0.0,2025-04-11 21:14:08.707,LEFT,19
97.0,22245.59602088881,27160.163481254993,-32198.492550670217,-24635.846869450437,-36764.149280089056,-30418.578436205204,-13409.303237116723,-38536.597911906,0.0,0.0,0.0,193.0,0.0,194.0,0.0,7.0,0.0,180.0,194.0,7.0,180.0,1744420448.7079706,0.0,2025-04-11 21:14:08.707,LEFT,19
98.0,22245.5513173999,27170.981725571364,-32187.674306353845,-24625.565067000996,-36755.94618987396,-30413.325776258207,-13580.696413600019,-38535.88265608343,0.0,0.0,0.0,193.0,0.0,193.0,0.0,8.0,0.0,179.0,193.0,8.0,179.0,1744420448.7080128,0.0,2025-04-11 21:14:08.708,LEFT,19
99.0,22264.3044309979,27160.56581265519,-32212.440039210327,-24648.810881234513,-36780.17548086351,-30449.245029597885,-13153.420466592368,-38521.309318698564,0.0,0.0,0.0,193.0,0.0,194.0,0.0,9.0,0.0,180.0,194.0,9.0,180.0,1744420448.7080696,0.0,2025-04-11 21:14:08.708,LEFT,19
100.0,22264.7067623981,27139.644579845022,-32223.437097482336,-24672.07904721249,-36784.422312310024,-30459.21390762495,-13013.565601535513,-38564.06820584157,0.0,0.0,0.0,193.0,0.0,194.0,0.0,9.0,0.0,180.0,194.0,9.0,180.0,1744420448.7081115,0.0,2025-04-11 21:14:08.708,LEFT,19
101.0,22240.499823153,27141.253905445803,-32205.980385062743,-24649.660247523814,-36761.02003586532,-30429.441384010483,-13343.633811907031,-38533.93805431581,0.0,0.0,0.0,193.0,0.0,193.0,0.0,10.0,0.0,179.0,193.0,10.0,179.0,1744420448.7081537,0.0,2025-04-11 21:14:08.708,LEFT,19
102.0,22224.63008458973,27155.559021897203,-32197.46437042527,-24639.847831707935,-36749.59829444865,-30420.36657576163,-13571.621605351163,-38524.28210071112,0.0,0.0,0.0,193.0,0.0,194.0,0.0,11.0,0.0,180.0,194.0,11.0,180.0,1744420448.7081962,0.0,2025-04-11 21:14:08.708,LEFT,19
103.0,22237.057654506883,27151.245135217327,-32218.81028638009,-24656.03049469358,-36771.41359703703,-30451.301390087774,-13226.75654015023,-38528.238359479714,0.0,0.0,0.0,193.0,0.0,194.0,0.0,11.0,0.0,180.0,194.0,11.0,180.0,1744420448.7082381,0.0,2025-04-11 21:14:08.708,LEFT,19
104.0,22244.12080575476,27132.536725108235,-32230.701414430314,-24679.678640327293,-36782.50006228686,-30462.27609661533,-12992.733775703166,-38571.220764067264,0.0,0.0,0.0,193.0,0.0,193.0,0.0,12.0,0.0,179.0,193.0,12.0,179.0,1744420448.7082803,0.0,2025-04-11 21:14:08.708,LEFT,19
105.0,22225.524154367944,27131.016806485273,-32218.43030672435,-24661.998410463144,-36767.25617256834,-30432.235352067397,-13286.033366445705,-38548.95842658978,0.0,0.0,0.0,193.0,0.0,193.0,0.0,12.0,0.0,179.0,193.0,12.0,179.0,1744420448.7083275,0.0,2025-04-11 21:14:08.708,LEFT,19
106.0,22212.895418750697,27145.768957825778,-32207.299137985607,-24647.939163200757,-36758.38253001959,-30415.695061170467,-13569.92287277256,-38531.76993510365,0.0,0.0,0.0,193.0,0.0,194.0,0.0,12.0,0.0,180.0,194.0,12.0,180.0,1744420448.7083848,0.0,2025-04-11 21:14:08.708,LEFT,19
107.0,22237.012951017972,27157.861251576098,-32206.8521030965,-24643.714683498703,-36761.33296028769,-30422.199418806962,-13327.45114892139,-38506.55716735806,0.0,0.0,0.0,193.0,0.0,194.0,0.0,13.0,0.0,179.0,194.0,13.0,179.0,1744420448.7084284,0.0,2025-04-11 21:14:08.708,LEFT,19
108.0,22250.11107326878,27143.645542102524,-32231.461373741793,-24676.907024014836,-36784.26585009883,-30450.653189498567,-12961.687202654744,-38543.906932342885,0.0,0.0,0.0,193.0,0.0,193.0,0.0,13.0,0.0,179.0,193.0,13.0,179.0,1744420448.7084703,0.0,2025-04-11 21:14:08.708,LEFT,19
109.0,22230.68740733712,27127.686396561432,-32228.04155684013,-24673.956593746734,-36779.259059340846,-30441.55602950526,-13236.323086777102,-38569.47732799975,0.0,0.0,0.0,193.0,0.0,193.0,0.0,13.0,0.0,179.0,193.0,13.0,179.0,1744420448.7085245,0.0,2025-04-11 21:14:08.708,LEFT,19
110.0,22216.91873275265,27142.974989768863,-32212.127114787952,-24651.73895975816,-36759.7236346869,-30413.884569869588,-13548.308735884279,-38519.74469658669,0.0,0.0,0.0,193.0,0.0,194.0,0.0,13.0,0.0,180.0,194.0,13.0,180.0,1744420448.708567,0.0,2025-04-11 21:14:08.708,LEFT,19
111.0,22232.229677704538,27153.301495707216,-32208.57318741956,-24642.26182010911,-36757.019073607815,-30411.761154146334,-13409.683216772464,-38495.5377573416,0.0,0.0,0.0,193.0,0.0,194.0,0.0,14.0,0.0,180.0,194.0,14.0,180.0,1744420448.708609,0.0,2025-04-11 21:14:08.708,LEFT,19
112.0,22250.803977346895,27146.953600281908,-32223.28063527115,-24657.25984063862,-36774.11815811612,-30430.849543911165,-12970.7620109036,-38512.21215870525,0.0,0.0,0.0,193.0,0.0,194.0,0.0,14.0,0.0,180.0,194.0,14.0,180.0,1744420448.7086515,0.0,2025-04-11 21:14:08.708,LEFT,19
113.0,22242.35501794279,27141.03038800125,-32212.23887351023,-24644.139366643354,-36762.2270300659,-30410.800029134756,-13157.488484083235,-38525.46674316725,0.0,0.0,0.0,193.0,0.0,193.0,0.0,14.0,0.0,179.0,193.0,14.0,179.0,1744420448.7086945,0.0,2025-04-11 21:14:08.708,LEFT,19
114.0,22216.58345658582,27156.43073993096,-32207.813228108076,-24630.325988569974,-36758.18136431949,-30400.45117145195,-13493.569313713231,-38514.64849885088,0.0,0.0,0.0,193.0,0.0,194.0,0.0,14.0,0.0,180.0,194.0,14.0,180.0,1744420448.708774,0.0,2025-04-11 21:14:08.708,LEFT,19
115.0,22230.843869548306,27165.840824346644,-32200.347745460007,-24621.094718109933,-36750.84999213815,-30400.741744129868,-13492.071746834727,-38516.079010496025,0.0,0.0,0.0,193.0,0.0,194.0,0.0,14.0,0.0,180.0,194.0,14.0,180.0,1744420448.7088184,0.0,2025-04-11 21:14:08.708,LEFT,19
116.0,22256.54837567191,27156.631905631057,-32216.865684612476,-24636.562125273005,-36761.623532965605,-30424.144020574575,-13000.288665329059,-38496.45417886427,0.0,0.0,0.0,193.0,0.0,193.0,0.0,15.0,0.0,179.0,193.0,15.0,179.0,1744420448.7088604,0.0,2025-04-11 21:14:08.708,LEFT,19
117.0,22238.17524172965,27128.289893661728,-32220.061984069587,-24646.910982955815,-36767.636152224084,-30423.11584032963,-13089.986215828207,-38533.401612448884,0.0,0.0,0.0,193.0,0.0,194.0,0.0,15.0,0.0,179.0,194.0,15.0,179.0,1744420448.708903,0.0,2025-04-11 21:14:08.708,LEFT,19
118.0,22218.840982775808,27144.159632224993,-32210.406030464892,-24633.723453727183,-36759.4777654979,-30408.743668644867,-13433.174900194992,-38518.82827506403,0.0,0.0,0.0,193.0,0.0,194.0,0.0,15.0,0.0,180.0,194.0,15.0,180.0,1744420448.708945,0.0,2025-04-11 21:14:08.708,LEFT,19
119.0,22222.886648522217,27156.27427771977,-32204.549873417604,-24624.447479778228,-36753.50984972833,-30407.983709333388,-13511.093081366193,-38511.9886412607,0.0,0.0,0.0,193.0,0.0,194.0,0.0,15.0,0.0,180.0,194.0,15.0,180.0,1744420448.7089868,0.0,2025-04-11 21:14:08.708,LEFT,19
120.0,22254.492015182022,27169.19358601494,-32214.56345493358,-24630.884782181358,-36768.75373944685,-30426.379195020105,-13061.957128281252,-38504.81373129055,0.0,0.0,0.0,193.0,0.0,193.0,0.0,15.0,0.0,179.0,193.0,15.0,179.0,1744420448.7090497,0.0,2025-04-11 21:14:08.709,LEFT,19
121.0,22249.105244768292,27147.37828342656,-32222.364213748482,-24649.481433568173,-36777.98500990689,-30429.01670086583,-13038.733665792188,-38534.318033971555,0.0,0.0,0.0,193.0,0.0,193.0,0.0,15.0,0.0,179.0,193.0,15.0,179.0,1744420448.709092,0.0,2025-04-11 21:14:08.709,LEFT,19
122.0,22227.222886946547,27148.361760182594,-32214.250530511206,-24635.355131072418,-36768.08318711319,-30415.717412914924,-13381.609425736598,-38523.00805127717,0.0,0.0,0.0,193.0,0.0,194.0,0.0,15.0,0.0,180.0,194.0,15.0,180.0,1744420448.709134,0.0,2025-04-11 21:14:08.709,LEFT,19
123.0,22238.085834751826,27173.485120950358,-32194.42453317935,-24612.958683128203,-36751.60995144963,-30396.673726639,-13565.20665469249,-38509.507597626165,0.0,0.0,0.0,193.0,0.0,193.0,0.0,15.0,0.0,179.0,193.0,15.0,179.0,1744420448.709176,0.0,2025-04-11 21:14:08.709,LEFT,19
124.0,22271.07700956786,27179.073057064183,-32205.376887962448,-24615.68559595175,-36771.838280181684,-30417.907883871543,-13163.523455086168,-38500.81276903305,0.0,0.0,0.0,193.0,0.0,193.0,0.0,15.0,0.0,179.0,193.0,15.0,179.0,1744420448.7092311,0.0,2025-04-11 21:14:08.709,LEFT,19
125.0,22267.880710110752,27160.297591721726,-32218.18443753534,-24639.467852052196,-36782.388303564585,-30427.005043864854,-13016.203107381238,-38541.045909052606,0.0,0.0,0.0,193.0,0.0,193.0,0.0,15.0,0.0,179.0,193.0,15.0,179.0,1744420448.709273,0.0,2025-04-11 21:14:08.709,LEFT,19
126.0,22238.01877951846,27157.436568431447,-32214.854027611498,-24630.862430436904,-36771.92768715951,-30410.107125056642,-13325.484195409323,-38525.511446656164,0.0,0.0,0.0,193.0,0.0,194.0,0.0,16.0,0.0,180.0,194.0,16.0,180.0,1744420448.7093165,0.0,2025-04-11 21:14:08.709,LEFT,19
127.0,22226.977017757537,27173.663934906,-32201.241815238216,-24616.9596453857,-36753.21927705041,-30396.584319661182,-13572.44861989601,-38527.05371702358,0.0,0.0,0.0,193.0,0.0,193.0,0.0,16.0,0.0,179.0,193.0,16.0,179.0,1744420448.7093594,0.0,2025-04-11 21:14:08.709,LEFT,19
128.0,22249.08289302384,27176.837882618653,-32208.349669975007,-24619.463040764695,-36759.522468986805,-30407.760191888836,-13238.178281566892,-38492.54262358459,0.0,0.0,0.0,193.0,0.0,193.0,0.0,16.0,0.0,179.0,193.0,16.0,179.0,1744420448.7094016,0.0,2025-04-11 21:14:08.709,LEFT,19
129.0,22253.3520762148,27156.006056786307,-32226.879266128453,-24650.30844811302,-36772.93351565999,-30421.59592170667,-12958.580310175457,-38514.06735349505,0.0,0.0,0.0,193.0,0.0,194.0,0.0,16.0,0.0,180.0,194.0,16.0,180.0,1744420448.7094576,0.0,2025-04-11 21:14:08.709,LEFT,19
130.0,22235.761253328474,27151.200431728415,-32219.83846662503,-24640.071349152488,-36766.4291580235,-30409.01188957833,-13258.965403910328,-38523.410382677364,0.0,0.0,0.0,193.0,0.0,194.0,0.0,16.0,0.0,180.0,194.0,16.0,180.0,1744420448.7095,0.0,2025-04-11 21:14:08.709,LEFT,19
131.0,22226.753500312985,27169.350048226126,-32201.17476000485,-24621.653511721317,-36746.58080894718,-30387.844787579157,-13566.458352381987,-38509.86522553745,0.0,0.0,0.0,193.0,0.0,194.0,0.0,16.0,0.0,180.0,194.0,16.0,180.0,1744420448.709542,0.0,2025-04-11 21:14:08.709,LEFT,19
132.0,22246.98182904504,27175.38501922906,-32199.56543440407,-24616.669072707784,-36745.88790486907,-30392.717467870414,-13326.624134376543,-38482.238469390686,0.0,0.0,0.0,193.0,0.0,193.0,0.0,16.0,0.0,179.0,193.0,16.0,179.0,1744420448.7095838,0.0,2025-04-11 21:14:08.709,LEFT,19
133.0,22263.320954241866,27164.209147001406,-32216.66451891238,-24641.25599160862,-36763.9257626445,-30414.465715225426,-12941.727094856155,-38497.59411783148,0.0,0.0,0.0,193.0,0.0,194.0,0.0,16.0,0.0,179.0,194.0,16.0,179.0,1744420448.7096257,0.0,2025-04-11 21:14:08.709,LEFT,19
134.0,22236.700026595598,27140.449242645413,-32224.57703644956,-24650.979000446678,-36773.55936450474,-30421.148886817562,-13188.445650153835,-38526.67373736784,0.0,0.0,0.0,193.0,0.0,194.0,0.0,16.0,0.0,180.0,194.0,16.0,180.0,1744420448.7096677,0.0,2025-04-11 21:14:08.709,LEFT,19
135.0,22218.170430442147,27154.7096556079,-32214.854027611498,-24638.52907878507,-36761.95880913243,-30409.63773842308,-13517.53038376932,-38517.93420528581,0.0,0.0,0.0,193.0,0.0,193.0,0.0,16.0,0.0,179.0,193.0,16.0,179.0,1744420448.709723,0.0,2025-04-11 21:14:08.709,LEFT,19
136.0,22236.185936473124,27164.164443512494,-32208.483780441737,-24631.644741492837,-36754.47097473991,-30414.82334313671,-13399.17789687847,-38505.014896990644,0.0,0.0,0.0,193.0,0.0,193.0,0.0,16.0,0.0,179.0,193.0,16.0,179.0,1744420448.7097652,0.0,2025-04-11 21:14:08.709,LEFT,19
137.0,22259.699971640108,27152.13920499554,-32228.108612073498,-24657.773930761094,-36775.70513197245,-30445.713453973945,-12961.08370555445,-38527.612510634965,0.0,0.0,0.0,193.0,0.0,193.0,0.0,16.0,0.0,179.0,193.0,16.0,179.0,1744420448.7098076,0.0,2025-04-11 21:14:08.709,LEFT,19
138.0,22245.461910422076,27137.498812377315,-32222.207751537295,-24657.706875527725,-36766.54091674578,-30428.36850027663,-13148.234861878736,-38543.705766642786,0.0,0.0,0.0,193.0,0.0,194.0,0.0,16.0,0.0,180.0,194.0,16.0,180.0,1744420448.7098615,0.0,2025-04-11 21:14:08.709,LEFT,19
139.0,22227.379349157734,27154.687303863444,-32216.441001467825,-24647.179203889278,-36757.35434977464,-30409.68244191199,-13481.85699961865,-38520.59406287599,0.0,0.0,0.0,193.0,0.0,193.0,0.0,16.0,0.0,179.0,193.0,16.0,179.0,1744420448.709904,0.0,2025-04-11 21:14:08.709,LEFT,19
140.0,22242.958515043083,27173.462769205904,-32205.019260051165,-24632.672921737783,-36749.263018281825,-30400.96526157442,-13499.20195331597,-38511.00516450467,0.0,0.0,0.0,193.0,0.0,193.0,0.0,16.0,0.0,179.0,193.0,16.0,179.0,1744420448.7099469,0.0,2025-04-11 21:14:08.709,LEFT,19
141.0,22268.730076400054,27171.987554071853,-32223.23593178224,-24645.569878288494,-36773.157033104544,-30425.351014775162,-13029.43534009878,-38506.60187084697,0.0,0.0,0.0,193.0,0.0,194.0,0.0,16.0,0.0,180.0,194.0,16.0,180.0,1744420448.7099888,0.0,2025-04-11 21:14:08.709,LEFT,19
142.0,22251.54158491392,27146.17128922597,-32232.020167353174,-24658.913869728312,-36782.678876242506,-30426.245084553375,-13110.54982072709,-38543.37049047595,0.0,0.0,0.0,193.0,0.0,194.0,0.0,16.0,0.0,180.0,194.0,16.0,180.0,1744420448.7100306,0.0,2025-04-11 21:14:08.710,LEFT,19
143.0,22227.155831713182,27149.971085783374,-32227.192190550828,-24647.73799750066,-36776.08511162819,-30414.17514254751,-13459.035868529782,-38526.67373736784,0.0,0.0,0.0,193.0,0.0,193.0,0.0,16.0,0.0,179.0,193.0,16.0,179.0,1744420448.7100725,0.0,2025-04-11 21:14:08.710,LEFT,19
144.0,22238.711683596575,27168.23246100336,-32207.679117641346,-24628.850773435926,-36753.26398053932,-30402.328717986195,-13554.67898305404,-38508.34530691449,0.0,0.0,0.0,193.0,0.0,193.0,0.0,16.0,0.0,180.0,193.0,16.0,180.0,1744420448.710128,0.0,2025-04-11 21:14:08.710,LEFT,19
145.0,22265.64553566522,27172.971030827885,-32224.42057423837,-24643.468814309697,-36771.68181797049,-30427.899113643067,-13089.852105361475,-38492.654382306864,0.0,0.0,0.0,193.0,0.0,194.0,0.0,16.0,0.0,179.0,194.0,16.0,179.0,1744420448.7101705,0.0,2025-04-11 21:14:08.710,LEFT,19
146.0,22259.92348908466,27150.12754799456,-32227.03572833964,-24659.718532528703,-36774.073454627214,-30430.804840422257,-13050.15540720885,-38535.48032468323,0.0,0.0,0.0,193.0,0.0,193.0,0.0,16.0,0.0,179.0,193.0,16.0,179.0,1744420448.710212,0.0,2025-04-11 21:14:08.710,LEFT,19
147.0,22233.771948071953,27154.642600374533,-32217.84916136851,-24645.480471310675,-36763.36696903312,-30415.493895470372,-13390.997158407827,-38517.53187388562,0.0,0.0,0.0,193.0,0.0,193.0,0.0,16.0,0.0,179.0,193.0,16.0,179.0,1744420448.710261,0.0,2025-04-11 21:14:08.710,LEFT,19
148.0,22223.691311322607,27163.538594667745,-32208.79670486411,-24636.74093922865,-36752.43696599448,-30409.414220978528,-13574.125000730159,-38511.42984764932,0.0,0.0,0.0,193.0,0.0,194.0,0.0,17.0,0.0,180.0,194.0,17.0,180.0,1744420448.7103028,0.0,2025-04-11 21:14:08.710,LEFT,19
149.0,22245.528965655445,27159.627039388066,-32224.018242838174,-24648.58736378996,-36771.57005924822,-30433.911732901543,-13177.269777926182,-38500.47749286622,0.0,0.0,0.0,193.0,0.0,194.0,0.0,16.0,0.0,180.0,194.0,16.0,180.0,1744420448.7103486,0.0,2025-04-11 21:14:08.710,LEFT,19
150.0,22255.20727100459,27149.009960771797,-32225.404050994406,-24662.55720407453,-36775.70513197245,-30434.49287825738,-13031.603459310945,-38544.01869106516,0.0,0.0,0.0,193.0,0.0,193.0,0.0,17.0,0.0,179.0,193.0,17.0,179.0,1744420448.710405,0.0,2025-04-11 21:14:08.710,LEFT,19
151.0,22234.48720389452,27147.22182121537,-32217.17860903485,-24647.335666100465,-36766.89854465706,-30416.83500013769,-13346.87481485305,-38530.18296124732,0.0,0.0,0.0,193.0,0.0,194.0,0.0,17.0,0.0,180.0,194.0,17.0,180.0,1744420448.7104473,0.0,2025-04-11 21:14:08.710,LEFT,19
152.0,22224.294808422903,27158.37534169857,-32207.23208275224,-24636.852697950926,-36761.84705041016,-30408.45309596695,-13585.613797380185,-38519.632937864415,0.0,0.0,0.0,193.0,0.0,194.0,0.0,17.0,0.0,180.0,194.0,17.0,180.0,1744420448.7104893,0.0,2025-04-11 21:14:08.710,LEFT,19
153.0,22247.87589882325,27163.203318500917,-32209.400201964403,-24636.785642717557,-36767.4796900129,-30424.21107580794,-13287.642692046487,-38506.60187084697,0.0,0.0,0.0,193.0,0.0,194.0,0.0,17.0,0.0,179.0,194.0,17.0,179.0,1744420448.7105432,0.0,2025-04-11 21:14:08.710,LEFT,19
154.0,22254.335552970835,27149.680513105457,-32223.593559693523,-24661.59607906295,-36783.729408231906,-30443.768852206333,-13000.646293240345,-38549.494868456706,0.0,0.0,0.0,193.0,0.0,193.0,0.0,17.0,0.0,179.0,193.0,17.0,179.0,1744420448.7105854,0.0,2025-04-11 21:14:08.710,LEFT,19
155.0,22233.21315446057,27140.85157404561,-32219.123210802463,-24654.421169092795,-36779.37081806312,-30429.329625288206,-13301.903105008972,-38558.45791798329,0.0,0.0,0.0,193.0,0.0,193.0,0.0,17.0,0.0,179.0,193.0,17.0,179.0,1744420448.7106273,0.0,2025-04-11 21:14:08.710,LEFT,19
156.0,22216.359939141268,27156.810719586698,-32206.963861818775,-24640.16075613031,-36767.18911733498,-30413.7281076584,-13600.075376042769,-38533.826295593535,0.0,0.0,0.0,193.0,0.0,194.0,0.0,17.0,0.0,180.0,194.0,17.0,180.0,1744420448.7106693,0.0,2025-04-11 21:14:08.710,LEFT,19
157.0,22236.25299170649,27166.064341791196,-32204.527521673146,-24635.44453805024,-36766.250344067856,-30418.779601905302,-13381.877646670062,-38501.57272834453,0.0,0.0,0.0,193.0,0.0,193.0,0.0,17.0,0.0,179.0,193.0,17.0,179.0,1744420448.7107108,0.0,2025-04-11 21:14:08.710,LEFT,19
158.0,22261.532814685444,27161.973972555876,-32212.261225254682,-24650.979000446678,-36772.888812171084,-30433.86702941263,-13003.931999675275,-38528.52893215763,0.0,0.0,0.0,193.0,0.0,193.0,0.0,17.0,0.0,179.0,193.0,17.0,179.0,1744420448.7107663,0.0,2025-04-11 21:14:08.710,LEFT,19
159.0,22236.610619617775,27136.828260043654,-32214.630510166946,-24654.264706881608,-36770.49717551436,-30430.73778518889,-13232.120958819505,-38550.746566146205,0.0,0.0,0.0,193.0,0.0,194.0,0.0,17.0,0.0,179.0,194.0,17.0,179.0,1744420448.7108085,0.0,2025-04-11 21:14:08.710,LEFT,19
160.0,22214.90707575167,27150.574582883666,-32207.94733857481,-24641.747729986637,-36761.8246986657,-30415.851523381654,-13555.081314454237,-38531.97110080375,0.0,0.0,0.0,193.0,0.0,193.0,0.0,17.0,0.0,179.0,193.0,17.0,179.0,1744420448.7108505,0.0,2025-04-11 21:14:08.710,LEFT,19
161.0,22235.94006728412,27163.963277812396,-32200.57126290456,-24632.382349059862,-36756.57203871871,-30419.11487807213,-13473.452743703456,-38518.62710936393,0.0,0.0,0.0,193.0,0.0,193.0,0.0,17.0,0.0,179.0,193.0,17.0,179.0,1744420448.7108924,0.0,2025-04-11 21:14:08.710,LEFT,19
162.0,22255.69900938261,27152.250963717815,-32214.13877178893,-24646.17337538879,-36766.250344067856,-30440.93018066051,-13014.414967824814,-38526.226702478736,0.0,0.0,0.0,193.0,0.0,193.0,0.0,17.0,0.0,179.0,193.0,17.0,179.0,1744420448.7109344,0.0,2025-04-11 21:14:08.710,LEFT,19
163.0,22230.128613725738,27119.572713324156,-32219.436135224838,-24653.862375481414,-36764.61866672262,-30434.02349162382,-13156.393248604923,-38540.01772880766,0.0,0.0,0.0,193.0,0.0,193.0,0.0,17.0,0.0,180.0,193.0,17.0,180.0,1744420448.710976,0.0,2025-04-11 21:14:08.710,LEFT,19
164.0,22202.81478200135,27131.575600096658,-32211.23304500974,-24638.752596229628,-36753.01811135031,-30416.857351882143,-13496.899723637072,-38511.07221973804,0.0,0.0,0.0,193.0,0.0,194.0,0.0,17.0,0.0,180.0,194.0,17.0,180.0,1744420448.7110178,0.0,2025-04-11 21:14:08.711,LEFT,19
165.0,22212.336625139313,27143.93611478044,-32198.492550670217,-24623.77692744457,-36740.590541433165,-30409.45892446744,-13510.489584265899,-38493.39198987389,0.0,0.0,0.0,193.0,0.0,193.0,0.0,17.0,0.0,179.0,193.0,17.0,179.0,1744420448.7110732,0.0,2025-04-11 21:14:08.711,LEFT,19
166.0,22238.510517896477,27139.5551728672,-32218.385603235438,-24638.864354951904,-36769.31253305823,-30440.974884149422,-13046.86970077392,-38509.39583890389,0.0,0.0,0.0,193.0,0.0,193.0,0.0,17.0,0.0,180.0,193.0,17.0,180.0,1744420448.7111151,0.0,2025-04-11 21:14:08.711,LEFT,19
167.0,22230.285075936925,27127.485230861337,-32219.41378348038,-24647.15685214482,-36774.40873079404,-30437.97975039241,-13112.852050405985,-38547.259694011176,0.0,0.0,0.0,193.0,0.0,194.0,0.0,17.0,0.0,180.0,194.0,17.0,180.0,1744420448.7111568,0.0,2025-04-11 21:14:08.711,LEFT,19
168.0,22212.850715261786,27142.52795487976,-32205.443943195816,-24628.336683313453,-36753.46514623942,-30414.890398370077,-13441.266231687812,-38516.52604538513,0.0,0.0,0.0,193.0,0.0,194.0,0.0,17.0,0.0,180.0,194.0,17.0,180.0,1744420448.7112105,0.0,2025-04-11 21:14:08.711,LEFT,19
169.0,22211.911941994662,27147.065359004184,-32195.631527379937,-24621.362939043396,-36745.44086997997,-30413.34812800266,-13559.708125556484,-38520.34819368699,0.0,0.0,0.0,193.0,0.0,194.0,0.0,17.0,0.0,179.0,194.0,17.0,179.0,1744420448.7112527,0.0,2025-04-11 21:14:08.711,LEFT,19
170.0,22237.459985907077,27144.673722347467,-32213.579978177546,-24634.371654316386,-36770.34071330318,-30432.995311378876,-13092.936646096308,-38488.318143882534,0.0,0.0,0.0,193.0,0.0,193.0,0.0,17.0,0.0,179.0,193.0,17.0,179.0,1744420448.7112944,0.0,2025-04-11 21:14:08.711,LEFT,19
171.0,22243.673770865655,27136.001245498806,-32209.46725719777,-24640.87601195288,-36769.93838190298,-30425.999215364365,-13042.332296649492,-38522.24809196569,0.0,0.0,0.0,193.0,0.0,194.0,0.0,17.0,0.0,180.0,194.0,17.0,180.0,1744420448.7113361,0.0,2025-04-11 21:14:08.711,LEFT,19
172.0,22219.131555453725,27147.154765982006,-32202.56056816108,-24627.576724001974,-36766.250344067856,-30414.510418714337,-13392.338263075146,-38520.57171113154,0.0,0.0,0.0,193.0,0.0,194.0,0.0,17.0,0.0,179.0,194.0,17.0,179.0,1744420448.711378,0.0,2025-04-11 21:14:08.711,LEFT,19
173.0,22215.331758896322,27168.18775751445,-32186.243794708706,-24616.467907007685,-36743.451564723444,-30408.855427367143,-13591.380547449655,-38516.61545236295,0.0,0.0,0.0,193.0,0.0,194.0,0.0,17.0,0.0,180.0,194.0,17.0,180.0,1744420448.7114327,0.0,2025-04-11 21:14:08.711,LEFT,19
174.0,22245.26074472198,27173.596879672634,-32192.815207578566,-24618.077232608466,-36752.3252072722,-30425.239256052886,-13190.122030987983,-38499.69518181028,0.0,0.0,0.0,193.0,0.0,193.0,0.0,17.0,0.0,179.0,193.0,17.0,179.0,1744420448.711475,0.0,2025-04-11 21:14:08.711,LEFT,19
175.0,22251.385122702733,27148.339408438136,-32205.33218447354,-24639.57961077447,-36767.300876057256,-30435.386948035593,-13001.652121740834,-38541.939978830815,0.0,0.0,0.0,193.0,0.0,194.0,0.0,17.0,0.0,180.0,194.0,17.0,180.0,1744420448.7115169,0.0,2025-04-11 21:14:08.711,LEFT,19
176.0,22225.121822967747,27140.739815323333,-32205.89097808492,-24633.87991593837,-36766.876192912605,-30424.903979886054,-13327.361741943569,-38542.096441042,0.0,0.0,0.0,193.0,0.0,194.0,0.0,17.0,0.0,180.0,194.0,17.0,180.0,1744420448.7115588,0.0,2025-04-11 21:14:08.711,LEFT,19
177.0,22214.437689118113,27152.13920499554,-32195.586823891026,-24622.25700882161,-36754.26980903981,-30411.984671590886,-13598.331939975256,-38532.55224615958,0.0,0.0,0.0,193.0,0.0,194.0,0.0,17.0,0.0,180.0,194.0,17.0,180.0,1744420448.7116003,0.0,2025-04-11 21:14:08.711,LEFT,19
178.0,22239.851622563794,27156.43073993096,-32195.206844235283,-24618.859543664403,-36756.259114296336,-30421.998253106864,-13297.25394216227,-38504.16553070134,0.0,0.0,0.0,193.0,0.0,193.0,0.0,17.0,0.0,179.0,193.0,17.0,179.0,1744420448.7116425,0.0,2025-04-11 21:14:08.711,LEFT,19
179.0,22245.327799955347,27140.449242645413,-32211.165989776375,-24644.564049788005,-36770.94421040347,-30441.69013997199,-12979.255673796615,-38531.07703102553,0.0,0.0,0.0,193.0,0.0,193.0,0.0,17.0,0.0,179.0,193.0,17.0,179.0,1744420448.711697,0.0,2025-04-11 21:14:08.711,LEFT,19
180.0,22220.74088105451,27128.84868727311,-32209.668422897867,-24641.39010207535,-36768.23964932438,-30432.481221256403,-13253.824502685608,-38538.363699717964,0.0,0.0,0.0,193.0,0.0,194.0,0.0,17.0,0.0,180.0,194.0,17.0,180.0,1744420448.7117395,0.0,2025-04-11 21:14:08.711,LEFT,19
181.0,22212.984825728516,27152.586239884644,-32190.356515688483,-24622.033491377057,-36749.97827410439,-30411.24706402386,-13575.600215864208,-38525.35498444497,0.0,0.0,0.0,193.0,0.0,194.0,0.0,17.0,0.0,180.0,194.0,17.0,180.0,1744420448.7117815,0.0,2025-04-11 21:14:08.711,LEFT,19
182.0,22230.17331721465,27156.341332953136,-32191.07177151105,-24620.24535182063,-36754.51567822882,-30417.796125149267,-13391.734765974852,-38501.84094927799,0.0,0.0,0.0,193.0,0.0,193.0,0.0,17.0,0.0,179.0,193.0,17.0,179.0,1744420448.7118232,0.0,2025-04-11 21:14:08.711,LEFT,19
183.0,22248.12176801226,27141.745643823822,-32206.248605996207,-24643.468814309697,-36767.0773586127,-30437.331549803206,-12984.173057576783,-38517.77774307463,0.0,0.0,0.0,193.0,0.0,193.0,0.0,17.0,0.0,179.0,193.0,17.0,179.0,1744420448.7118769,0.0,2025-04-11 21:14:08.711,LEFT,19
184.0,22229.30159918089,27128.26754191727,-32201.04064953812,-24640.093700896945,-36756.884963141085,-30425.88745664209,-13196.5146299022,-38530.45118218079,0.0,0.0,0.0,193.0,0.0,193.0,0.0,17.0,0.0,179.0,193.0,17.0,179.0,1744420448.7119193,0.0,2025-04-11 21:14:08.711,LEFT,19
185.0,22204.222941902037,27139.510469378292,-32191.809379078077,-24627.286151324053,-36747.63134093658,-30410.48710471238,-13526.53813678481,-38515.11788548445,0.0,0.0,0.0,193.0,0.0,194.0,0.0,17.0,0.0,180.0,194.0,17.0,180.0,1744420448.7119613,0.0,2025-04-11 21:14:08.711,LEFT,19
186.0,22212.15781118367,27142.125623479562,-32190.8482540665,-24622.994616388634,-36747.94426535896,-30414.73393615889,-13457.180673739991,-38507.965327258746,0.0,0.0,0.0,193.0,0.0,193.0,0.0,17.0,0.0,179.0,193.0,17.0,179.0,1744420448.7120032,0.0,2025-04-11 21:14:08.712,LEFT,19
187.0,22240.768044086464,27138.61639960008,-32206.069792040566,-24638.73024448517,-36761.73529168788,-30438.091509114685,-13011.129261389884,-38520.30349019808,0.0,0.0,0.0,193.0,0.0,194.0,0.0,17.0,0.0,180.0,194.0,17.0,180.0,1744420448.7120447,0.0,2025-04-11 21:14:08.712,LEFT,19
188.0,22227.78168055793,27121.919646491962,-32206.449771696305,-24641.01012241961,-36754.87330614011,-30425.88745664209,-13142.401056575902,-38531.92639731483,0.0,0.0,0.0,193.0,0.0,194.0,0.0,17.0,0.0,180.0,194.0,17.0,180.0,1744420448.7121,0.0,2025-04-11 21:14:08.712,LEFT,19
189.0,22204.759383768964,27134.526030364756,-32200.28069022664,-24627.755537957615,-36743.76448914582,-30411.470581468417,-13468.356545967645,-38506.221891191235,0.0,0.0,0.0,193.0,0.0,193.0,0.0,17.0,0.0,179.0,193.0,17.0,179.0,1744420448.7121425,0.0,2025-04-11 21:14:08.712,LEFT,19
190.0,22211.666072805652,27147.646504360022,-32191.585861633524,-24616.020872118577,-36741.171686789,-30409.123648300607,-13510.10960461016,-38509.75346681517,0.0,0.0,0.0,193.0,0.0,193.0,0.0,17.0,0.0,179.0,193.0,17.0,179.0,1744420448.712184,0.0,2025-04-11 21:14:08.712,LEFT,19
191.0,22234.50955563898,27143.243210702327,-32210.450733953803,-24633.41052930481,-36761.779995176796,-30434.895209657578,-13039.20305242575,-38499.76223704365,0.0,0.0,0.0,193.0,0.0,193.0,0.0,17.0,0.0,180.0,193.0,17.0,180.0,1744420448.712226,0.0,2025-04-11 21:14:08.712,LEFT,19
192.0,22226.68644507962,27127.306416905692,-32210.38367872044,-24643.290000354053,-36758.80721316424,-30431.542447989283,-13084.957073325762,-38539.68245264083,0.0,0.0,0.0,193.0,0.0,194.0,0.0,17.0,0.0,180.0,194.0,17.0,180.0,1744420449.1858149,0.0,2025-04-11 21:14:09.185,LEFT,19
193.0,22207.642758803697,27134.950713509406,-32201.51003617168,-24626.39208154584,-36751.207620049434,-30415.40448849255,-13430.76091179382,-38521.97987103223,0.0,0.0,0.0,193.0,0.0,194.0,0.0,17.0,0.0,180.0,194.0,17.0,180.0,1744420449.185949,0.0,2025-04-11 21:14:09.185,LEFT,19
194.0,22212.67190130614,27149.568754383177,-32189.28363195463,-24612.86927615038,-36743.675082167996,-30403.982747075886,-13549.359267873677,-38502.4891498672,0.0,0.0,0.0,193.0,0.0,193.0,0.0,17.0,0.0,179.0,193.0,17.0,179.0,1744420449.1862533,0.0,2025-04-11 21:14:09.186,LEFT,19
195.0,22240.58923013082,27151.491004406336,-32201.75590536069,-24622.949912899723,-36762.85287891065,-30428.16733457653,-13113.477899250734,-38496.56593758654,0.0,0.0,0.0,193.0,0.0,194.0,0.0,17.0,0.0,180.0,194.0,17.0,180.0,1744420449.1863067,0.0,2025-04-11 21:14:09.186,LEFT,19
196.0,22239.985733030528,27129.18396343994,-32212.08241129904,-24642.485337553662,-36772.9782191489,-30436.59394223618,-13042.846386771964,-38543.21402826477,0.0,0.0,0.0,193.0,0.0,194.0,0.0,17.0,0.0,180.0,194.0,17.0,180.0,1744420449.186361,0.0,2025-04-11 21:14:09.186,LEFT,19
197.0,22212.91777049515,27129.966274495873,-32209.511960686683,-24631.331817070462,-36766.40680627904,-30423.87579964111,-13369.204207563902,-38530.04885078059,0.0,0.0,0.0,193.0,0.0,193.0,0.0,17.0,0.0,179.0,193.0,17.0,179.0,1744420449.186411,0.0,2025-04-11 21:14:09.186,LEFT,19
198.0,22206.72633728103,27145.456033403403,-32197.956108803286,-24619.01600587559,-36753.01811135031,-30411.91761635752,-13589.905332315604,-38523.76801058865,0.0,0.0,0.0,193.0,0.0,193.0,0.0,17.0,0.0,179.0,193.0,17.0,179.0,1744420449.1865225,0.0,2025-04-11 21:14:09.186,LEFT,19
199.0,22229.994503259004,27146.41715841498,-32207.656765896892,-24624.82745943397,-36764.5292597448,-30429.709604943946,-13215.647723155944,-38505.931318513314,0.0,0.0,0.0,193.0,0.0,194.0,0.0,17.0,0.0,180.0,194.0,17.0,180.0,1744420449.1865711,0.0,2025-04-11 21:14:09.186,LEFT,19
200.0,22237.571744629353,27128.803983784197,-32217.98327183524,-24646.329837599977,-36777.04623663977,-30441.48897427189,-13004.75901422012,-38546.23151376623,0.0,0.0,0.0,193.0,0.0,194.0,0.0,17.0,0.0,180.0,194.0,17.0,180.0,1744420449.1866212,0.0,2025-04-11 21:14:09.186,LEFT,19
201.0,22212.06840420585,27129.251018673305,-32211.18834152083,-24633.20936360471,-36767.72555920191,-30422.95937811844,-13321.706750596375,-38534.20627524928,0.0,0.0,0.0,193.0,0.0,194.0,0.0,17.0,0.0,179.0,194.0,17.0,179.0,1744420449.186669,0.0,2025-04-11 21:14:09.186,LEFT,19
202.0,22200.266683133446,27145.590143870133,-32198.8501785815,-24621.429994276765,-36753.733367172885,-30415.225674536905,-13579.154143232601,-38527.70191761279,0.0,0.0,0.0,193.0,0.0,193.0,0.0,17.0,0.0,179.0,193.0,17.0,179.0,1744420449.1867208,0.0,2025-04-11 21:14:09.186,LEFT,19
203.0,22225.322988667845,27151.491004406336,-32205.89097808492,-24622.949912899723,-36764.66337021153,-30430.938950888987,-13306.194639944391,-38521.37637393193,0.0,0.0,0.0,193.0,0.0,193.0,0.0,17.0,0.0,179.0,193.0,17.0,179.0,1744420449.1868331,0.0,2025-04-11 21:14:09.186,LEFT,19
204.0,22242.466776665067,27143.71259733589,-32218.832638124546,-24643.602924776427,-36775.4816145279,-30441.89130567209,-12988.352833789926,-38538.47545844024,0.0,0.0,0.0,193.0,0.0,194.0,0.0,17.0,0.0,179.0,194.0,17.0,179.0,1744420449.1868956,0.0,2025-04-11 21:14:09.186,LEFT,19
205.0,22223.95953225607,27129.74275705132,-32214.965786333778,-24634.550468272028,-36773.26879182682,-30424.524000230314,-13250.38233403949,-38531.25584498118,0.0,0.0,0.0,193.0,0.0,193.0,0.0,17.0,0.0,179.0,193.0,17.0,179.0,1744420449.1869526,0.0,2025-04-11 21:14:09.186,LEFT,19
206.0,22206.25695064747,27145.299571192216,-32201.75590536069,-24614.47860175116,-36762.964637632926,-30401.43464820798,-13564.87137852566,-38502.176225444826,0.0,0.0,0.0,193.0,0.0,193.0,0.0,17.0,0.0,179.0,193.0,17.0,179.0,1744420449.1870031,0.0,2025-04-11 21:14:09.187,LEFT,19
207.0,22221.702006066087,27148.071187504673,-32201.957071060788,-24610.567046471482,-36761.44471900997,-30411.67174716851,-13392.561780519698,-38495.22483291922,0.0,0.0,0.0,193.0,0.0,194.0,0.0,17.0,0.0,179.0,194.0,17.0,179.0,1744420449.187052,0.0,2025-04-11 21:14:09.187,LEFT,19
208.0,22242.64559062071,27136.671797832467,-32219.48083871375,-24632.807032204513,-36778.700265729465,-30436.236314324895,-12982.876656398375,-38524.72913560023,0.0,0.0,0.0,193.0,0.0,193.0,0.0,17.0,0.0,180.0,193.0,17.0,180.0,1744420449.1871035,0.0,2025-04-11 21:14:09.187,LEFT,19
209.0,22221.50084036599,27125.764146538277,-32217.692699157324,-24633.701101982726,-36775.258097083344,-30428.033224109797,-13204.650664883931,-38541.939978830815,0.0,0.0,0.0,193.0,0.0,193.0,0.0,17.0,0.0,180.0,193.0,17.0,180.0,1744420449.1871967,0.0,2025-04-11 21:14:09.187,LEFT,19
210.0,22199.73024126652,27142.28208569075,-32208.215559508273,-24620.379462287365,-36758.94132363097,-30412.141133802073,-13515.00463664587,-38503.76319930115,0.0,0.0,0.0,193.0,0.0,193.0,0.0,17.0,0.0,179.0,193.0,17.0,179.0,1744420449.187251,0.0,2025-04-11 21:14:09.187,LEFT,19
211.0,22212.2919216504,27152.31801895118,-32205.600405407004,-24614.657415706806,-36759.388358520075,-30415.87387512611,-13464.04265928777,-38504.880786523914,0.0,0.0,0.0,193.0,0.0,194.0,0.0,17.0,0.0,179.0,194.0,17.0,179.0,1744420449.1873229,0.0,2025-04-11 21:14:09.187,LEFT,19
212.0,22239.15871848568,27144.76312932529,-32223.481800971247,-24632.874087437882,-36779.19200410748,-30437.085680614196,-13008.894086944352,-38512.25686219417,0.0,0.0,0.0,193.0,0.0,194.0,0.0,17.0,0.0,180.0,194.0,17.0,180.0,1744420449.187393,0.0,2025-04-11 21:14:09.187,LEFT,19
213.0,22226.574686357344,27121.69612904741,-32224.71114691629,-24639.57961077447,-36774.58754474969,-30435.49870675787,-13140.635268763932,-38550.59010393502,0.0,0.0,0.0,193.0,0.0,193.0,0.0,17.0,0.0,179.0,193.0,17.0,179.0,1744420449.187444,0.0,2025-04-11 21:14:09.187,LEFT,19
214.0,22204.133534924214,27136.73885306583,-32216.105725300997,-24626.16856410129,-36758.494288741866,-30420.455982739448,-13480.471191462422,-38532.61930139295,0.0,0.0,0.0,193.0,0.0,193.0,0.0,17.0,0.0,179.0,193.0,17.0,179.0,1744420449.1874948,0.0,2025-04-11 21:14:09.187,LEFT,19
215.0,22206.815744258853,27153.32384745167,-32204.885149584432,-24612.981034872657,-36748.43600373698,-30408.698965155956,-13528.885069952616,-38511.29573718259,0.0,0.0,0.0,193.0,0.0,194.0,0.0,17.0,0.0,180.0,194.0,17.0,180.0,1744420449.1875625,0.0,2025-04-11 21:14:09.187,LEFT,19
216.0,22227.53581136892,27142.863231046587,-32226.81221089509,-24633.34347407144,-36774.69930347196,-30433.97878813491,-13053.910500277341,-38498.890519009896,0.0,0.0,0.0,193.0,0.0,193.0,0.0,17.0,0.0,179.0,193.0,17.0,179.0,1744420449.1876132,0.0,2025-04-11 21:14:09.187,LEFT,19
217.0,22223.758366555976,27118.343367379115,-32226.52163821717,-24643.73703524316,-36772.50883251534,-30430.670729955524,-13088.063965805051,-38533.692185126805,0.0,0.0,0.0,193.0,0.0,193.0,0.0,17.0,0.0,179.0,193.0,17.0,179.0,1744420449.187668,0.0,2025-04-11 21:14:09.187,LEFT,19
218.0,22196.511590064954,27128.580466339645,-32214.831675867044,-24624.693348967237,-36759.4777654979,-30410.39769773456,-13423.720112290397,-38510.200501704276,0.0,0.0,0.0,193.0,0.0,193.0,0.0,17.0,0.0,179.0,193.0,17.0,179.0,1744420449.1877635,0.0,2025-04-11 21:14:09.187,LEFT,19
219.0,22195.282244119913,27140.315132178683,-32204.013431550677,-24615.43972676274,-36751.207620049434,-30406.128514543598,-13569.297023927811,-38507.02655399162,0.0,0.0,0.0,193.0,0.0,194.0,0.0,17.0,0.0,180.0,194.0,17.0,180.0,1744420449.1878133,0.0,2025-04-11 21:14:09.187,LEFT,19
220.0,22228.608695102776,27144.047873502717,-32215.23400726724,-24624.514535011596,-36770.452472025456,-30429.910770644045,-13141.350524586502,-38500.14221669939,0.0,0.0,0.0,193.0,0.0,194.0,0.0,17.0,0.0,180.0,194.0,17.0,180.0,1744420449.1878614,0.0,2025-04-11 21:14:09.187,LEFT,19
221.0,22231.22384920405,27130.636826829534,-32220.643129425425,-24638.10439564042,-36780.711922730436,-30434.7834509353,-13047.137921707383,-38546.67854865534,0.0,0.0,0.0,193.0,0.0,193.0,0.0,17.0,0.0,179.0,193.0,17.0,179.0,1744420449.1879091,0.0,2025-04-11 21:14:09.187,LEFT,19
222.0,22203.127706423726,27129.251018673305,-32218.206789279797,-24627.68848272425,-36777.24740233987,-30424.16637231903,-13373.02635586576,-38533.401612448884,0.0,0.0,0.0,193.0,0.0,193.0,0.0,17.0,0.0,179.0,193.0,17.0,179.0,1744420449.1879637,0.0,2025-04-11 21:14:09.187,LEFT,19
223.0,22200.266683133446,27150.731045094853,-32198.783123348134,-24609.11418308189,-36757.175535819,-30407.067287810718,-13613.2629052714,-38526.226702478736,0.0,0.0,0.0,193.0,0.0,193.0,0.0,17.0,0.0,179.0,193.0,17.0,179.0,1744420449.1880195,0.0,2025-04-11 21:14:09.188,LEFT,19
224.0,22227.759328813474,27154.37437944107,-32208.260262997184,-24612.533999983552,-36771.503004014856,-30429.64254971058,-13248.86241541653,-38512.94976627228,0.0,0.0,0.0,193.0,0.0,194.0,0.0,17.0,0.0,179.0,194.0,17.0,179.0,1744420449.1883686,0.0,2025-04-11 21:14:09.188,LEFT,19
225.0,22233.81665156086,27130.882696018543,-32227.885094628942,-24644.854622465926,-36791.39605658007,-30456.241125612396,-13010.86104045642,-38571.220764067264,0.0,0.0,0.0,193.0,0.0,194.0,0.0,17.0,0.0,180.0,194.0,17.0,180.0,1744420449.1884162,0.0,2025-04-11 21:14:09.188,LEFT,19
226.0,22218.036319975417,27126.211181427385,-32214.496399700216,-24627.73318621316,-36775.03457963879,-30426.200381064464,-13322.73493084132,-38540.50946718567,0.0,0.0,0.0,193.0,0.0,194.0,0.0,17.0,0.0,180.0,194.0,17.0,180.0,1744420449.18846,0.0,2025-04-11 21:14:09.188,LEFT,19
227.0,22206.10048843628,27140.784518812245,-32204.125190272953,-24614.165677328787,-36766.250344067856,-30406.441438965972,-13603.249323755423,-38510.53577787111,0.0,0.0,0.0,193.0,0.0,194.0,0.0,17.0,0.0,179.0,194.0,17.0,179.0,1744420449.18852,0.0,2025-04-11 21:14:09.188,LEFT,19
228.0,22219.86916302075,27143.109100235597,-32216.686870656835,-24625.050976878523,-36777.627381995604,-30425.976863619908,-13336.369494959057,-38503.02559173413,0.0,0.0,0.0,193.0,0.0,193.0,0.0,17.0,0.0,179.0,193.0,17.0,179.0,1744420449.1885636,0.0,2025-04-11 21:14:09.188,LEFT,19
229.0,22239.40458767469,27134.436623386937,-32226.02989983915,-24645.949857944233,-36788.71384724544,-30443.098299872676,-13010.928095689786,-38539.86126659647,0.0,0.0,0.0,193.0,0.0,193.0,0.0,17.0,0.0,179.0,193.0,17.0,179.0,1744420449.1886072,0.0,2025-04-11 21:14:09.188,LEFT,19
230.0,22221.210267688068,27125.540629093724,-32216.642167167924,-24632.650569993326,-36770.96656214793,-30427.07209909822,-13260.395915555468,-38532.999281048695,0.0,0.0,0.0,193.0,0.0,193.0,0.0,17.0,0.0,179.0,193.0,17.0,179.0,1744420449.1886508,0.0,2025-04-11 21:14:09.188,LEFT,19
231.0,22204.893494235694,27141.745643823822,-32202.404105949892,-24613.562180228495,-36750.69352992696,-30405.904997099045,-13554.231948164934,-38507.18301620281,0.0,0.0,0.0,193.0,0.0,194.0,0.0,17.0,0.0,180.0,194.0,17.0,180.0,1744420449.1886945,0.0,2025-04-11 21:14:09.188,LEFT,19
232.0,22215.264703662957,27139.264600189283,-32210.718954887267,-24618.63602621985,-36758.91897188652,-30421.372404262118,-13399.17789687847,-38500.67865856632,0.0,0.0,0.0,193.0,0.0,194.0,0.0,17.0,0.0,180.0,194.0,17.0,180.0,1744420449.1887548,0.0,2025-04-11 21:14:09.188,LEFT,19
233.0,22232.855526549283,27137.94584726642,-32229.270902785174,-24640.473680552685,-36776.599201750665,-30442.338340561193,-12979.680356941266,-38522.53866464361,0.0,0.0,0.0,193.0,0.0,194.0,0.0,17.0,0.0,180.0,194.0,17.0,180.0,1744420449.188799,0.0,2025-04-11 21:14:09.188,LEFT,19
234.0,22222.573724099842,27128.401652384004,-32223.14652480442,-24632.78468046006,-36769.55840224724,-30425.775697919813,-13188.780926320664,-38533.87099908245,0.0,0.0,0.0,193.0,0.0,193.0,0.0,17.0,0.0,179.0,193.0,17.0,179.0,1744420449.1888428,0.0,2025-04-11 21:14:09.188,LEFT,19
235.0,22198.143267410192,27127.596989583613,-32222.31951025957,-24625.296846067533,-36768.552573746754,-30419.651319939057,-13526.180508873524,-38525.73496410072,0.0,0.0,0.0,193.0,0.0,193.0,0.0,17.0,0.0,179.0,193.0,17.0,179.0,1744420449.1888895,0.0,2025-04-11 21:14:09.188,LEFT,19
236.0,22215.756442040976,27137.878792033054,-32210.070754298064,-24614.0092151176,-36756.57203871871,-30412.230540779896,-13499.984264371904,-38509.015859248146,0.0,0.0,0.0,193.0,0.0,193.0,0.0,17.0,0.0,179.0,193.0,17.0,179.0,1744420449.1889343,0.0,2025-04-11 21:14:09.188,LEFT,19
237.0,22231.760291070976,27127.70874830589,-32234.590617965536,-24640.92071544179,-36785.048161154766,-30442.293637072282,-13018.013598682119,-38507.898272025384,0.0,0.0,0.0,193.0,0.0,194.0,0.0,17.0,0.0,180.0,194.0,17.0,180.0,1744420449.1889787,0.0,2025-04-11 21:14:09.188,LEFT,19
238.0,22216.136421696716,27116.823448756153,-32233.04834759812,-24648.006218434122,-36783.26002159835,-30437.39860503657,-13142.624574020456,-38550.36658649047,0.0,0.0,0.0,193.0,0.0,194.0,0.0,17.0,0.0,180.0,194.0,17.0,180.0,1744420449.1890235,0.0,2025-04-11 21:14:09.189,LEFT,19
239.0,22194.56698829734,27132.335559408137,-32219.078507313552,-24627.979055402167,-36764.66337021153,-30415.96328210393,-13486.416755487533,-38528.3948216909,0.0,0.0,0.0,193.0,0.0,193.0,0.0,17.0,0.0,179.0,193.0,17.0,179.0,1744420449.1890862,0.0,2025-04-11 21:14:09.189,LEFT,19
240.0,22192.98001444102,27137.454108888403,-32215.36811773397,-24621.92173265478,-36764.082224855694,-30418.086697827184,-13564.87137852566,-38531.70287987028,0.0,0.0,0.0,193.0,0.0,193.0,0.0,17.0,0.0,179.0,193.0,17.0,179.0,1744420449.189132,0.0,2025-04-11 21:14:09.189,LEFT,19
241.0,22222.909000266674,27136.224762943362,-32229.42736499636,-24630.996540903634,-36783.81881520973,-30439.052634126263,-13097.07171882054,-38510.9381092713,0.0,0.0,0.0,193.0,0.0,193.0,0.0,17.0,0.0,179.0,193.0,17.0,179.0,1744420449.1891773,0.0,2025-04-11 21:14:09.189,LEFT,19
242.0,22228.049901491395,27120.51148659128,-32223.481800971247,-24635.82451770598,-36777.47091978442,-30433.375291034616,-13094.903599608375,-38541.470592197256,0.0,0.0,0.0,193.0,0.0,193.0,0.0,17.0,0.0,179.0,193.0,17.0,179.0,1744420449.1892376,0.0,2025-04-11 21:14:09.189,LEFT,19
243.0,22205.5416948249,27130.502716362804,-32213.66938515537,-24615.9091133963,-36766.40680627904,-30414.59982569216,-13434.806577540228,-38522.940996043806,0.0,0.0,0.0,193.0,0.0,194.0,0.0,17.0,0.0,180.0,194.0,17.0,180.0,1744420449.189282,0.0,2025-04-11 21:14:09.189,LEFT,19
244.0,22200.512552322456,27141.388015912537,-32204.23694899523,-24609.91884588228,-36756.79555616326,-30410.755325645845,-13595.381509707155,-38526.02553677864,0.0,0.0,0.0,193.0,0.0,194.0,0.0,17.0,0.0,180.0,194.0,17.0,180.0,1744420449.1893268,0.0,2025-04-11 21:14:09.189,LEFT,19
245.0,22231.335607926325,27144.18198396945,-32215.61398692298,-24618.323101797476,-36773.46995752692,-30433.598808479168,-13164.752801031209,-38521.82340882104,0.0,0.0,0.0,193.0,0.0,193.0,0.0,17.0,0.0,179.0,193.0,17.0,179.0,1744420449.1893723,0.0,2025-04-11 21:14:09.189,LEFT,19
246.0,22240.745692342007,27125.965312238375,-32217.938568346333,-24628.806069947015,-36776.95682966195,-30425.239256052886,-13048.099046718962,-38535.3462142165,0.0,0.0,0.0,193.0,0.0,193.0,0.0,17.0,0.0,179.0,193.0,17.0,179.0,1744420449.1894207,0.0,2025-04-11 21:14:09.189,LEFT,19
247.0,22211.531962338922,27121.60672206959,-32215.435172967336,-24617.652549463815,-36770.2289545809,-30406.329680243696,-13363.482160983343,-38503.38321964541,0.0,0.0,0.0,193.0,0.0,194.0,0.0,17.0,0.0,180.0,194.0,17.0,180.0,1744420449.1895497,0.0,2025-04-11 21:14:09.189,LEFT,19
248.0,22206.30165413638,27141.70094033491,-32203.253472239194,-24604.085040579444,-36756.460279996434,-30399.422991207004,-13591.73817536094,-38502.511501611654,0.0,0.0,0.0,193.0,0.0,194.0,0.0,17.0,0.0,180.0,194.0,17.0,180.0,1744420449.18965,0.0,2025-04-11 21:14:09.189,LEFT,19
249.0,22233.526078882944,27147.914725293485,-32211.0542310541,-24607.86248539239,-36769.245477824865,-30420.098354828162,-13245.15202583695,-38490.57567007252,0.0,0.0,0.0,193.0,0.0,194.0,0.0,17.0,0.0,180.0,194.0,17.0,180.0,1744420449.1897109,0.0,2025-04-11 21:14:09.189,LEFT,19
250.0,22246.57949764484,27133.073166975162,-32218.67617591336,-24629.409567047307,-36775.57102150572,-30434.984616635396,-13020.04760742755,-38541.82822010854,0.0,0.0,0.0,193.0,0.0,194.0,0.0,17.0,0.0,179.0,194.0,17.0,179.0,1744420449.1897607,0.0,2025-04-11 21:14:09.189,LEFT,19
251.0,22222.238447933014,27127.50758260579,-32216.977443334752,-24622.368767543885,-36774.58754474969,-30423.048785096264,-13319.762148828764,-38539.90597008538,0.0,0.0,0.0,193.0,0.0,193.0,0.0,17.0,0.0,179.0,193.0,17.0,179.0,1744420449.1898077,0.0,2025-04-11 21:14:09.189,LEFT,19
252.0,22211.219037916548,27146.61832411508,-32203.544044917115,-24606.990767358635,-36760.595352720666,-30406.68730815498,-13615.542783205841,-38526.40551643437,0.0,0.0,0.0,193.0,0.0,193.0,0.0,17.0,0.0,179.0,193.0,17.0,179.0,1744420449.1898549,0.0,2025-04-11 21:14:09.189,LEFT,19
253.0,22224.87595377874,27141.119794979073,-32213.401164221905,-24613.606883717406,-36767.23382082389,-30428.636721210092,-13351.12164629956,-38513.26269069465,0.0,0.0,0.0,193.0,0.0,193.0,0.0,17.0,0.0,179.0,193.0,17.0,179.0,1744420449.1899736,0.0,2025-04-11 21:14:09.189,LEFT,19
254.0,22238.957552785585,27127.306416905692,-32226.968673106276,-24637.858526451415,-36781.29306808628,-30445.40052955157,-12991.303264058026,-38539.570693918555,0.0,0.0,0.0,193.0,0.0,193.0,0.0,17.0,0.0,179.0,193.0,17.0,179.0,1744420449.190023,0.0,2025-04-11 21:14:09.190,LEFT,19
255.0,22225.88178227923,27127.66404481698,-32213.33410898854,-24624.559238500507,-36766.6303237236,-30419.87483738361,-13254.942089908373,-38533.78159210463,0.0,0.0,0.0,193.0,0.0,194.0,0.0,17.0,0.0,180.0,194.0,17.0,180.0,1744420449.19007,0.0,2025-04-11 21:14:09.190,LEFT,19
0.0,22206.167543669646,27142.7067688354,-32209.04257405312,-24616.57966572996,-36763.12109984411,-30410.26358726783,-13566.659518082086,-38526.33846120101,0.0,0.0,0.0,193.0,0.0,194.0,0.0,17.0,0.0,180.0,194.0,17.0,180.0,1744420449.1901193,0.0,2025-04-11 21:14:09.190,LEFT,19
1.0,22222.30550316638,27141.767995568276,-32211.18834152083,-24617.004348874612,-36765.87036441211,-30418.89136062758,-13430.693856560452,-38510.200501704276,0.0,0.0,0.0,193.0,0.0,193.0,0.0,17.0,0.0,179.0,193.0,17.0,179.0,1744420449.1902003,0.0,2025-04-11 21:14:09.190,LEFT,19
2.0,22250.468701180067,27137.096480977118,-32219.99492883622,-24627.532020513063,-36772.62059123762,-30428.92729388801,-13002.076804885484,-38508.300603425574,0.0,0.0,0.0,193.0,0.0,193.0,0.0,17.0,0.0,179.0,193.0,17.0,179.0,1744420449.190254,0.0,2025-04-11 21:14:09.190,LEFT,19
3.0,22231.58147711533,27123.03723371473,-32212.596501421514,-24619.038357620044,-36763.299913799754,-30412.901093113556,-13198.861563070008,-38524.63972862241,0.0,0.0,0.0,193.0,0.0,194.0,0.0,17.0,0.0,180.0,194.0,17.0,180.0,1744420449.1903136,0.0,2025-04-11 21:14:09.190,LEFT,19
4.0,22210.77200302744,27139.197544955918,-32204.41576295087,-24601.939273111737,-36753.241628794865,-30396.8748923391,-13533.266011865857,-38502.98088824521,0.0,0.0,0.0,193.0,0.0,194.0,0.0,17.0,0.0,180.0,194.0,17.0,180.0,1744420449.190363,0.0,2025-04-11 21:14:09.190,LEFT,19
5.0,22216.136421696716,27144.27139094727,-32207.27678624115,-24603.39213650133,-36756.57203871871,-30404.273319753807,-13497.86084864865,-38498.532891098606,0.0,0.0,0.0,193.0,0.0,194.0,0.0,17.0,0.0,180.0,194.0,17.0,180.0,1744420449.1904216,0.0,2025-04-11 21:14:09.190,LEFT,19
6.0,22243.629067376743,27143.824356058165,-32220.866646869978,-24620.1112413539,-36770.51952725882,-30428.59201772118,-13034.285668645582,-38505.99837374668,0.0,0.0,0.0,193.0,0.0,193.0,0.0,17.0,0.0,179.0,193.0,17.0,179.0,1744420449.1905258,0.0,2025-04-11 21:14:09.190,LEFT,19
7.0,22237.147061484702,27128.98279773984,-32216.99979507921,-24623.419299533285,-36766.33975104568,-30424.345186274673,-13142.535167042633,-38546.81265912207,0.0,0.0,0.0,193.0,0.0,193.0,0.0,17.0,0.0,179.0,193.0,17.0,179.0,1744420449.190596,0.0,2025-04-11 21:14:09.190,LEFT,19
8.0,22204.133534924214,27130.837992529632,-32215.546931689612,-24615.171505829276,-36760.48359399839,-30415.940930359477,-13478.258368761346,-38534.85447583848,0.0,0.0,0.0,193.0,0.0,194.0,0.0,17.0,0.0,180.0,194.0,17.0,180.0,1744420449.1906557,0.0,2025-04-11 21:14:09.190,LEFT,19
9.0,22208.223904159535,27135.777728054254,-32205.198074006807,-24605.046165591022,-36749.48653572638,-30401.188779018972,-13567.330070415745,-38509.149969714876,0.0,0.0,0.0,193.0,0.0,194.0,0.0,17.0,0.0,180.0,194.0,17.0,180.0,1744420449.1907132,0.0,2025-04-11 21:14:09.190,LEFT,19
10.0,22233.81665156086,27129.474536117857,-32225.09112657203,-24620.982959387657,-36769.22312608041,-30425.999215364365,-13088.488648949702,-38490.821539261524,0.0,0.0,0.0,193.0,0.0,194.0,0.0,17.0,0.0,180.0,194.0,17.0,180.0,1744420449.1907628,0.0,2025-04-11 21:14:09.190,LEFT,19
11.0,22222.841945033306,27109.134448663528,-32232.24368479773,-24636.360959572907,-36769.91603015853,-30428.837886910187,-13085.202942514772,-38541.98468231972,0.0,0.0,0.0,193.0,0.0,193.0,0.0,17.0,0.0,179.0,193.0,17.0,179.0,1744420449.190811,0.0,2025-04-11 21:14:09.190,LEFT,19
12.0,22199.14909591068,27120.667948802467,-32222.028937581654,-24616.82553491897,-36758.58369571969,-30409.39186923407,-13438.338153164168,-38518.604757619476,0.0,0.0,0.0,193.0,0.0,193.0,0.0,17.0,0.0,179.0,193.0,17.0,179.0,1744420449.1909492,0.0,2025-04-11 21:14:09.190,LEFT,19
13.0,22204.848790746786,27136.023597243264,-32215.479876456247,-24607.415450503286,-36755.25328579584,-30401.993441819366,-13602.3105504883,-38510.982812760216,0.0,0.0,0.0,193.0,0.0,193.0,0.0,17.0,0.0,179.0,193.0,17.0,179.0,1744420449.191009,0.0,2025-04-11 21:14:09.191,LEFT,19
14.0,22235.403625417188,27142.013864757286,-32225.538161461136,-24612.533999983552,-36772.73234995989,-30420.858314139645,-13198.28041771417,-38504.81373129055,0.0,0.0,0.0,193.0,0.0,193.0,0.0,18.0,0.0,179.0,193.0,18.0,179.0,1744420449.1910708,0.0,2025-04-11 21:14:09.191,LEFT,19
15.0,22232.78847131592,27121.718480791867,-32230.90258013041,-24628.62725599137,-36782.410655309046,-30430.178991577508,-13069.310852207049,-38558.61438019447,0.0,0.0,0.0,193.0,0.0,194.0,0.0,17.0,0.0,180.0,194.0,17.0,180.0,1744420449.1911411,0.0,2025-04-11 21:14:09.191,LEFT,19
16.0,22211.10727919427,27128.044024472718,-32214.33993748903,-24607.236636547645,-36755.58856196267,-30405.659127910036,-13376.893207656529,-38520.32584194253,0.0,0.0,0.0,193.0,0.0,194.0,0.0,17.0,0.0,180.0,194.0,17.0,180.0,1744420449.1913052,0.0,2025-04-11 21:14:09.191,LEFT,19
17.0,22205.20641865807,27143.578486869155,-32204.594576906515,-24597.334813753943,-36746.111422313625,-30398.417162706515,-13592.185210250045,-38516.347231429485,0.0,0.0,0.0,193.0,0.0,193.0,0.0,17.0,0.0,179.0,193.0,17.0,179.0,1744420449.1914024,0.0,2025-04-11 21:14:09.191,LEFT,19
18.0,22230.910924781674,27140.248076945318,-32212.41768746587,-24601.24636903362,-36763.9257626445,-30418.39962224956,-13262.787552212187,-38507.22771969172,0.0,0.0,0.0,193.0,0.0,193.0,0.0,17.0,0.0,179.0,193.0,17.0,179.0,1744420449.1915064,0.0,2025-04-11 21:14:09.191,LEFT,19
19.0,22242.287962709423,27126.345291894115,-32216.70922240129,-24616.333796540952,-36768.66433246903,-30425.172200819517,-13016.136052147873,-38535.81560085006,0.0,0.0,0.0,193.0,0.0,193.0,0.0,17.0,0.0,179.0,193.0,17.0,179.0,1744420449.1916175,0.0,2025-04-11 21:14:09.191,LEFT,19
20.0,22222.417261888655,27123.50662034829,-32213.311757244082,-24608.086002836946,-36762.65171321055,-30405.904997099045,-13293.588256071598,-38511.22868194922,0.0,0.0,0.0,193.0,0.0,194.0,0.0,17.0,0.0,180.0,194.0,17.0,180.0,1744420449.1916933,0.0,2025-04-11 21:14:09.191,LEFT,19
21.0,22204.20059015758,27138.99637925582,-32208.394373463914,-24602.855694634403,-36757.98019861939,-30397.63485165058,-13585.63614912464,-38502.310335911556,0.0,0.0,0.0,193.0,0.0,194.0,0.0,17.0,0.0,180.0,194.0,17.0,180.0,1744420449.192104,0.0,2025-04-11 21:14:09.192,LEFT,19
22.0,22226.373520657246,27145.545440381225,-32207.723821130257,-24601.760459156092,-36760.03655910928,-30409.63773842308,-13366.790219162729,-38492.54262358459,0.0,0.0,0.0,193.0,0.0,193.0,0.0,17.0,0.0,179.0,193.0,17.0,179.0,1744420449.1922324,0.0,2025-04-11 21:14:09.192,LEFT,19
23.0,22247.49591916751,27132.872001275064,-32216.843332868022,-24620.781793687558,-36768.977256891405,-30426.334491531194,-12989.559827990512,-38512.010993005155,0.0,0.0,0.0,193.0,0.0,193.0,0.0,18.0,0.0,179.0,193.0,18.0,179.0,1744420449.192312,0.0,2025-04-11 21:14:09.192,LEFT,19
24.0,22225.412395645668,27118.07514644565,-32214.406992722394,-24613.83040116196,-36763.50107949985,-30414.577473947702,-13241.441636257368,-38522.04692626559,0.0,0.0,0.0,193.0,0.0,193.0,0.0,17.0,0.0,179.0,193.0,17.0,179.0,1744420449.1923964,0.0,2025-04-11 21:14:09.192,LEFT,19
25.0,22213.230694917525,27141.4550711459,-32200.526559415648,-24596.1054678089,-36753.174573561504,-30398.640680151067,-13564.804323292296,-38513.061524994555,0.0,0.0,0.0,193.0,0.0,194.0,0.0,17.0,0.0,180.0,194.0,17.0,180.0,1744420449.1924999,0.0,2025-04-11 21:14:09.192,LEFT,19
26.0,22223.311331666868,27145.388978170038,-32199.297213470607,-24590.91986309527,-36755.02976835129,-30407.134343044087,-13442.205004954936,-38505.99837374668,0.0,0.0,0.0,193.0,0.0,194.0,0.0,17.0,0.0,180.0,194.0,17.0,180.0,1744420449.192617,0.0,2025-04-11 21:14:09.192,LEFT,19
27.0,22236.320046939858,27132.98375999734,-32225.448754483314,-24617.78665993055,-36781.136605875094,-30435.45400326896,-13011.039854412062,-38521.91281579886,0.0,0.0,0.0,193.0,0.0,193.0,0.0,17.0,0.0,179.0,193.0,17.0,179.0,1744420449.1928,0.0,2025-04-11 21:14:09.192,LEFT,19
28.0,22219.39977638719,27118.991567968318,-32221.47014397027,-24617.071404107977,-36773.89464067157,-30418.01964259382,-13204.94123756185,-38537.96136831777,0.0,0.0,0.0,193.0,0.0,193.0,0.0,17.0,0.0,179.0,193.0,17.0,179.0,1744420449.1928751,0.0,2025-04-11 21:14:09.192,LEFT,19
29.0,22200.95958721156,27139.197544955918,-32209.42255370886,-24601.3581277559,-36759.388358520075,-30400.071191796207,-13545.403009105088,-38521.51048439866,0.0,0.0,0.0,193.0,0.0,193.0,0.0,17.0,0.0,179.0,193.0,17.0,179.0,1744420449.1929643,0.0,2025-04-11 21:14:09.192,LEFT,19
30.0,22211.375500127735,27142.013864757286,-32203.56639666157,-24595.658432919794,-36751.78876540527,-30399.73591562938,-13522.850098949684,-38501.259803922156,0.0,0.0,0.0,193.0,0.0,193.0,0.0,18.0,0.0,180.0,193.0,18.0,180.0,1744420449.1930923,0.0,2025-04-11 21:14:09.193,LEFT,19
31.0,22237.012951017972,27130.055681473696,-32219.95022534731,-24611.57287497197,-36766.60797197914,-30424.658110697048,-13038.711314047732,-38500.32103065503,0.0,0.0,0.0,193.0,0.0,194.0,0.0,17.0,0.0,180.0,194.0,17.0,180.0,1744420449.193196,0.0,2025-04-11 21:14:09.193,LEFT,19
32.0,22222.372558399744,27105.871093973055,-32224.57703644956,-24622.97226464418,-36768.977256891405,-30428.904942143556,-13127.760663957675,-38547.21499052227,0.0,0.0,0.0,193.0,0.0,194.0,0.0,17.0,0.0,180.0,194.0,17.0,180.0,1744420449.1932464,0.0,2025-04-11 21:14:09.193,LEFT,19
33.0,22199.216151144046,27117.35989062308,-32214.876379355956,-24605.940235369235,-36754.33686427318,-30407.246101766363,-13471.530493680299,-38524.14799024439,0.0,0.0,0.0,193.0,0.0,193.0,0.0,18.0,0.0,179.0,193.0,18.0,179.0,1744420449.1932924,0.0,2025-04-11 21:14:09.193,LEFT,19
34.0,22204.580569813323,27130.927399507455,-32205.153370517895,-24592.52918869605,-36746.84902988065,-30390.25877598033,-13547.437017850521,-38494.531928841105,0.0,0.0,0.0,193.0,0.0,193.0,0.0,18.0,0.0,179.0,193.0,18.0,179.0,1744420449.1933377,0.0,2025-04-11 21:14:09.193,LEFT,19
35.0,22239.22577371905,27137.409405399492,-32215.926911345356,-24597.178351542756,-36760.573000976205,-30402.842808108668,-13097.272884520637,-38478.03634143309,0.0,0.0,0.0,193.0,0.0,193.0,0.0,18.0,0.0,179.0,193.0,18.0,179.0,1744420449.1933825,0.0,2025-04-11 21:14:09.193,LEFT,19
36.0,22233.906058538683,27115.7505650223,-32222.453620726305,-24616.49025875214,-36761.08709109868,-30409.123648300607,-13072.037765030595,-38531.613472892466,0.0,0.0,0.0,193.0,0.0,194.0,0.0,17.0,0.0,180.0,194.0,17.0,180.0,1744420449.1934457,0.0,2025-04-11 21:14:09.193,LEFT,19
37.0,22207.083965192316,27119.12567843505,-32215.99396657872,-24602.945101612226,-36750.47001248241,-30396.62902315009,-13417.394568609545,-38518.56005413056,0.0,0.0,0.0,193.0,0.0,194.0,0.0,17.0,0.0,180.0,194.0,17.0,180.0,1744420449.19349,0.0,2025-04-11 21:14:09.193,LEFT,19
38.0,22188.509665549955,27121.450259858404,-32217.715050901777,-24602.609825445394,-36756.30381778524,-30401.16642727452,-13590.218256737979,-38517.37541167443,0.0,0.0,0.0,193.0,0.0,194.0,0.0,17.0,0.0,180.0,194.0,17.0,180.0,1744420449.193534,0.0,2025-04-11 21:14:09.193,LEFT,19
39.0,22221.97022699955,27127.93226575044,-32217.491533457225,-24600.084078321946,-36759.053082353246,-30409.548331445258,-13182.097754728527,-38483.065483935534,0.0,0.0,0.0,193.0,0.0,193.0,0.0,17.0,0.0,179.0,193.0,17.0,179.0,1744420449.1935837,0.0,2025-04-11 21:14:09.193,LEFT,19
40.0,22227.938142769115,27109.22385564135,-32221.403088736904,-24614.769174429082,-36761.89175389907,-30415.40448849255,-13026.909592975331,-38518.6941645973,0.0,0.0,0.0,193.0,0.0,193.0,0.0,17.0,0.0,179.0,193.0,17.0,179.0,1744420449.1936288,0.0,2025-04-11 21:14:09.193,LEFT,19
41.0,22207.262779147957,27114.007128954785,-32211.568321176568,-24597.781848643048,-36751.09586132716,-30394.840883593668,-13345.243137507814,-38504.65726907936,0.0,0.0,0.0,193.0,0.0,193.0,0.0,18.0,0.0,179.0,193.0,18.0,179.0,1744420449.1936722,0.0,2025-04-11 21:14:09.193,LEFT,19
42.0,22198.277377876926,27129.407480884493,-32201.286518727127,-24584.884892092337,-36745.977311846895,-30377.33946768516,-13581.456372911498,-38482.238469390686,0.0,0.0,0.0,193.0,0.0,194.0,0.0,17.0,0.0,180.0,194.0,17.0,180.0,1744420449.1937327,0.0,2025-04-11 21:14:09.193,LEFT,19
