Sample Index,EXG Channel 0,EXG Channel 1,EXG Channel 2,EXG Channel 3,EXG Channel 4,EXG Channel 5,EXG Channel 6,EXG Channel 7,Accel Channel 0,Accel Channel 1,Accel Channel 2,Not Used,Digital Channel 0 (D11),Digital Channel 1 (D12),Digital Channel 2 (D13),Digital Channel 3 (D17),Not Used,Digital Channel 4 (D18),Analog Channel 0,Analog Channel 1,Analog Channel 2,Timestamp,Marker Channel,Timestamp (Formatted),Stimulus_Direction,Stimulus_Number
247.0,14203.483069358239,2236.806122875944,-62379.62840552669,-59795.49852555973,-35689.41035144453,-33153.31437031202,-20392.74816426613,-21989.467381175447,0.0,0.0,0.0,193.0,1.0,155.0,0.0,10.0,3.0,252.0,411.0,10.0,1020.0,1744252726.017544,0.0,2025-04-09 22:38:46.017,LEFT,19
248.0,14324.249544650263,2254.2181318066278,-62377.84026597027,-59746.7046674138,-35731.74455544288,-33192.60873706445,-20116.5476580319,-22019.619884445656,0.0,0.0,0.0,193.0,1.0,155.0,0.0,9.0,3.0,252.0,411.0,9.0,1020.0,1744252726.0175612,0.0,2025-04-09 22:38:46.017,LEFT,19
249.0,14346.22130944983,2277.866277440343,-62336.35542826122,-59778.66766198489,-35646.42794685697,-33104.341698210446,-20627.68735023586,-21951.134139434595,0.0,0.0,0.0,193.0,1.0,154.0,0.0,8.0,3.0,249.0,410.0,8.0,1017.0,1744252726.0175788,0.0,2025-04-09 22:38:46.017,LEFT,19
250.0,14279.926035395389,2274.893495427787,-62345.989030121455,-59748.31399301458,-35652.06058645971,-33123.45243971973,-20321.624913409345,-21958.309049404746,0.0,0.0,0.0,193.0,1.0,155.0,0.0,8.0,3.0,252.0,411.0,8.0,1020.0,1744252726.0175965,0.0,2025-04-09 22:38:46.017,LEFT,19
251.0,14203.974807736256,2239.7789048884997,-62384.523437562406,-59811.97176122329,-35686.54932815425,-33159.349341314955,-20426.074615248992,-22007.34877673969,0.0,0.0,0.0,193.0,1.0,154.0,0.0,7.0,3.0,249.0,410.0,7.0,1017.0,1744252726.0176055,0.0,2025-04-09 22:38:46.017,LEFT,19
252.0,14291.884218678979,2240.4941607110695,-62387.809143997336,-59757.053525096606,-35742.22752359242,-33221.53189438962,-20153.249222427516,-22062.42347507757,0.0,0.0,0.0,193.0,1.0,154.0,0.0,7.0,3.0,249.0,410.0,7.0,1017.0,1744252726.0176144,0.0,2025-04-09 22:38:46.017,LEFT,19
253.0,14347.584765861604,2272.6806727267117,-62357.589585493755,-59798.06897617209,-35672.46772914741,-33131.02968109008,-20583.028564814158,-21980.325517693225,0.0,0.0,0.0,193.0,1.0,154.0,0.0,6.0,3.0,250.0,410.0,6.0,1018.0,1744252726.0176237,0.0,2025-04-09 22:38:46.017,LEFT,19
254.0,14293.582951257582,2281.509611786558,-62331.50509971441,-59731.05844629508,-35645.55622882322,-33105.101657521926,-20381.482885060657,-21934.683255515487,0.0,0.0,0.0,193.0,1.0,155.0,0.0,6.0,3.0,252.0,411.0,6.0,1020.0,1744252726.0176325,0.0,2025-04-09 22:38:46.017,LEFT,19
255.0,14217.251743942708,2253.368765517326,-62370.598300766746,-59801.846420985035,-35672.57948786968,-33134.9188846253,-20399.3642806249,-21976.54807288028,0.0,0.0,0.0,193.0,1.0,153.0,0.0,6.0,3.0,251.0,409.0,6.0,1019.0,1744252726.017674,0.0,2025-04-09 22:38:46.017,LEFT,19
0.0,14275.165113826408,2249.7254311711113,-62362.88694892966,-59733.271268996155,-35717.12651456911,-33180.42703633631,-20180.89833031873,-22020.11162282367,0.0,0.0,0.0,193.0,1.0,155.0,0.0,5.0,3.0,252.0,411.0,5.0,1020.0,1744252726.0176833,0.0,2025-04-09 22:38:46.017,LEFT,19
1.0,14347.875338539523,2269.2161523361387,-62370.39713506665,-59797.39842383843,-35692.8748718351,-33147.50291675364,-20473.75088617216,-22004.107773793672,0.0,0.0,0.0,193.0,1.0,154.0,0.0,5.0,3.0,250.0,410.0,5.0,1018.0,1744252726.017692,0.0,2025-04-09 22:38:46.017,LEFT,19
2.0,14307.865715964523,2285.287056599505,-62322.497346698925,-59727.63862939342,-35640.23651364285,-33097.88204406286,-20477.751848429663,-21947.893136488576,0.0,0.0,0.0,193.0,1.0,154.0,0.0,5.0,3.0,250.0,410.0,5.0,1018.0,1744252726.017701,0.0,2025-04-09 22:38:46.017,LEFT,19
3.0,14228.092340003532,2264.499934256069,-62364.27275708589,-59787.74247023374,-35662.83412728717,-33121.57489318548,-20363.377972051858,-21969.663735588045,0.0,0.0,0.0,193.0,1.0,155.0,0.0,5.0,3.0,252.0,411.0,5.0,1020.0,1744252726.0177095,0.0,2025-04-09 22:38:46.017,LEFT,19
4.0,14237.72594186377,2233.855692607843,-62372.63230951218,-59749.006897092695,-35717.86412213613,-33178.30362061306,-20248.15472938475,-22023.151460069592,0.0,0.0,0.0,193.0,1.0,154.0,0.0,5.0,3.0,249.0,410.0,5.0,1017.0,1744252726.0177183,0.0,2025-04-09 22:38:46.017,LEFT,19
5.0,14350.825768807623,2263.1364778442953,-62374.91218744662,-59784.61322601,-35713.88551162309,-33164.49024253967,-20352.31385854648,-22026.437166504522,0.0,0.0,0.0,193.0,1.0,154.0,0.0,5.0,3.0,249.0,410.0,5.0,1017.0,1744252726.017727,0.0,2025-04-09 22:38:46.017,LEFT,19
6.0,14307.977474686799,2273.865315182843,-62323.50317519942,-59738.501577198695,-35643.45516484442,-33097.323250451474,-20562.286145959635,-21950.687104545486,0.0,0.0,0.0,193.0,1.0,154.0,0.0,4.0,3.0,251.0,410.0,4.0,1019.0,1744252726.0177355,0.0,2025-04-09 22:38:46.017,LEFT,19
7.0,14224.404302168407,2254.106373084351,-62371.96175717852,-59788.94946443433,-35671.77482506929,-33134.18127705828,-20336.73469266113,-21987.053392774273,0.0,0.0,0.0,193.0,1.0,154.0,0.0,4.0,3.0,251.0,410.0,4.0,1019.0,1744252726.0177443,0.0,2025-04-09 22:38:46.017,LEFT,19
8.0,14210.14388920592,2226.434913448681,-62379.337832848774,-59775.44901078332,-35715.49483722387,-33177.61071653494,-20338.79105315102,-22031.64512296261,0.0,0.0,0.0,193.0,1.0,154.0,0.0,4.0,3.0,250.0,410.0,4.0,1018.0,1744252726.0177531,0.0,2025-04-09 22:38:46.017,LEFT,19
9.0,14337.057094223153,2255.1345533292956,-62385.551617807345,-59783.02625215367,-35736.39371828958,-33186.7302282727,-20248.71352299613,-22041.45753877849,0.0,0.0,0.0,193.0,1.0,155.0,0.0,4.0,3.0,251.0,411.0,4.0,1019.0,1744252726.017762,0.0,2025-04-09 22:38:46.017,LEFT,19
10.0,14313.721873011813,2273.373576804826,-62332.57798344827,-59760.96508037628,-35656.32976965067,-33103.469980176684,-20645.702856266842,-21969.39551465458,0.0,0.0,0.0,193.0,1.0,154.0,0.0,4.0,3.0,250.0,410.0,4.0,1018.0,1744252726.0177708,0.0,2025-04-09 22:38:46.017,LEFT,19
11.0,14254.422694971883,2275.0276058945187,-62356.42729478208,-59773.07972587106,-35664.64461858805,-33138.38340501588,-20338.299314773,-22000.68795689201,0.0,0.0,0.0,193.0,1.0,154.0,0.0,4.0,3.0,251.0,410.0,4.0,1019.0,1744252726.0177796,0.0,2025-04-09 22:38:46.017,LEFT,19
12.0,14191.614293052471,2227.306631482438,-62388.72556552,-59802.338159363055,-35710.7786191438,-33180.76231250314,-20399.3642806249,-22038.88708816613,0.0,0.0,0.0,193.0,1.0,155.0,0.0,4.0,3.0,251.0,411.0,4.0,1019.0,1744252726.0177886,0.0,2025-04-09 22:38:46.017,LEFT,19
13.0,14326.484719095793,2255.760402174044,-62378.6225770262,-59757.67937394135,-35732.72803219891,-33184.96444046074,-20165.94501327813,-22029.029968861338,0.0,0.0,0.0,193.0,1.0,154.0,0.0,4.0,3.0,249.0,410.0,4.0,1017.0,1744252726.0177975,0.0,2025-04-09 22:38:46.017,LEFT,19
14.0,14333.056131965654,2274.580571005413,-62319.770433875376,-59760.674507698364,-35634.31330136219,-33075.68676181874,-20638.326780596588,-21924.759080977332,0.0,0.0,0.0,193.0,1.0,155.0,0.0,4.0,3.0,251.0,411.0,4.0,1019.0,1744252726.0178115,0.0,2025-04-09 22:38:46.017,LEFT,19
15.0,14269.733639923768,2275.049957638974,-62336.198966050026,-59745.40826623539,-35645.39976661203,-33093.478750405164,-20300.48016315462,-21933.409206081535,0.0,0.0,0.0,193.0,1.0,154.0,0.0,4.0,3.0,249.0,410.0,4.0,1017.0,1744252726.0178208,0.0,2025-04-09 22:38:46.017,LEFT,19
16.0,14205.964112992779,2242.8634456233317,-62367.871387943196,-59793.956255192315,-35688.940964810965,-33135.27651253659,-20414.272894176593,-21983.320651450238,0.0,0.0,0.0,193.0,1.0,155.0,0.0,3.0,3.0,252.0,411.0,3.0,1020.0,1744252726.0178294,0.0,2025-04-09 22:38:46.017,LEFT,19
17.0,14318.30398062515,2257.705003941656,-62368.11725713221,-59742.39078073392,-35739.612369491144,-33182.75161775966,-20137.603001308802,-22027.73356768293,0.0,0.0,0.0,193.0,1.0,154.0,0.0,3.0,3.0,249.0,410.0,3.0,1017.0,1744252726.017838,0.0,2025-04-09 22:38:46.017,LEFT,19
18.0,14347.852986795067,2281.2413908530943,-62327.63824792365,-59779.271159085176,-35655.97214173939,-33094.35046843892,-20640.494899808753,-21961.818273284232,0.0,0.0,0.0,193.0,1.0,155.0,0.0,3.0,3.0,252.0,411.0,3.0,1020.0,1744252726.0178468,0.0,2025-04-09 22:38:46.017,LEFT,19
19.0,14273.511084736716,2273.7535564605664,-62340.736370174454,-59751.48794072723,-35660.710711563916,-33122.290149008055,-20351.64330621282,-21980.414924671048,0.0,0.0,0.0,193.0,1.0,155.0,0.0,3.0,3.0,251.0,411.0,3.0,1019.0,1744252726.017856,0.0,2025-04-09 22:38:46.017,LEFT,19
20.0,14199.012720467177,2246.305614269449,-62380.54482704936,-59821.40419738343,-35694.7747701138,-33157.60590524744,-20432.646028118852,-22019.93280886803,0.0,0.0,0.0,193.0,1.0,154.0,0.0,3.0,3.0,250.0,410.0,3.0,1018.0,1744252726.0178647,0.0,2025-04-09 22:38:46.017,LEFT,19
21.0,14284.35168079754,2244.249253779561,-62375.04629791335,-59752.67258318336,-35743.45686953746,-33199.42601912332,-20165.18505396665,-22045.100873124706,0.0,0.0,0.0,193.0,1.0,154.0,0.0,3.0,3.0,251.0,410.0,3.0,1019.0,1744252726.0178735,0.0,2025-04-09 22:38:46.017,LEFT,19
22.0,14354.737324087302,2281.30844608646,-62338.858823640214,-59788.83770571205,-35668.95850526792,-33111.941291325245,-20553.479558644245,-21976.458665902457,0.0,0.0,0.0,193.0,1.0,154.0,0.0,3.0,3.0,250.0,410.0,3.0,1018.0,1744252726.017882,0.0,2025-04-09 22:38:46.017,LEFT,19
23.0,14295.818125703112,2282.8060129649657,-62320.888021098144,-59735.841719608514,-35649.7136532919,-33104.475808677176,-20405.645120816844,-21961.39359013958,0.0,0.0,0.0,193.0,1.0,154.0,0.0,3.0,3.0,251.0,410.0,3.0,1019.0,1744252726.0178907,0.0,2025-04-09 22:38:46.017,LEFT,19
24.0,14213.519002618672,2256.2521405520606,-62369.01132691042,-59812.17292692339,-35678.83797631717,-33135.47767823669,-20390.647100287333,-21988.88623581961,0.0,0.0,0.0,193.0,1.0,154.0,0.0,3.0,3.0,249.0,410.0,3.0,1017.0,1744252726.0178995,0.0,2025-04-09 22:38:46.017,LEFT,19
25.0,14250.86876760349,2233.63217516329,-62374.12987639068,-59758.75225767521,-35737.176029345515,-33194.2851178986,-20198.95853983862,-22031.242791562414,0.0,0.0,0.0,193.0,1.0,154.0,0.0,3.0,3.0,251.0,410.0,3.0,1019.0,1744252726.0179083,0.0,2025-04-09 22:38:46.017,LEFT,19
26.0,14349.104684484564,2265.416355778737,-62365.18917860856,-59803.47809833028,-35707.49291270887,-33152.10737611144,-20434.94825779775,-22004.30893949377,0.0,0.0,0.0,193.0,1.0,154.0,0.0,3.0,3.0,250.0,410.0,3.0,1018.0,1744252726.0179172,0.0,2025-04-09 22:38:46.017,LEFT,19
27.0,14309.005654931743,2288.885687456809,-62303.58777088974,-59729.6502863944,-35628.07716465917,-33087.08615149095,-20484.122095599425,-21934.415034582024,0.0,0.0,0.0,193.0,1.0,154.0,0.0,3.0,3.0,251.0,410.0,3.0,1019.0,1744252726.017926,0.0,2025-04-09 22:38:46.017,LEFT,19
28.0,14229.746369093225,2268.5456000024797,-62350.83935866826,-59793.0621854141,-35662.5659063537,-33122.0666315635,-20334.477166471144,-21966.44508438648,0.0,0.0,0.0,193.0,1.0,154.0,0.0,3.0,3.0,249.0,410.0,3.0,1017.0,1744252726.0179348,0.0,2025-04-09 22:38:46.017,LEFT,19
29.0,14232.33917145004,2234.146265285762,-62362.88694892966,-59765.74835368972,-35721.39569776007,-33182.63985903739,-20277.05553496546,-22026.325407782246,0.0,0.0,0.0,193.0,1.0,154.0,0.0,3.0,3.0,252.0,410.0,3.0,1020.0,1744252726.0179484,0.0,2025-04-09 22:38:46.017,LEFT,19
30.0,14343.181472203909,2257.5485417304685,-62372.16292287862,-59798.87363897248,-35723.8320379057,-33183.668039282325,-20314.137079016815,-22039.84821317771,0.0,0.0,0.0,193.0,1.0,154.0,0.0,3.0,3.0,251.0,410.0,3.0,1019.0,1744252726.017957,0.0,2025-04-09 22:38:46.017,LEFT,19
31.0,14307.150460141953,2278.3356640739044,-62313.064910538786,-59754.99716460671,-35641.62232179908,-33107.202721500726,-20576.255986244203,-21971.183654211003,0.0,0.0,0.0,193.0,1.0,154.0,0.0,3.0,3.0,250.0,410.0,3.0,1018.0,1744252726.0179656,0.0,2025-04-09 22:38:46.017,LEFT,19
32.0,14238.15062500842,2273.932370416209,-62350.459379012515,-59787.76482197819,-35665.89631627755,-33134.82947764748,-20308.795012091996,-21991.702555620977,0.0,0.0,0.0,193.0,1.0,154.0,0.0,3.0,3.0,251.0,410.0,3.0,1019.0,1744252726.0179746,0.0,2025-04-09 22:38:46.017,LEFT,19
33.0,14207.19345893782,2227.4630936936255,-62369.547768777345,-59790.20116212382,-35714.62311919012,-33178.46008282424,-20339.5510124625,-22028.56058222778,0.0,0.0,0.0,193.0,1.0,154.0,0.0,3.0,3.0,249.0,410.0,3.0,1017.0,1744252726.0179837,0.0,2025-04-09 22:38:46.017,LEFT,19
34.0,14327.289381896184,2250.239521293583,-62376.65562351413,-59785.44024055484,-35737.77952644581,-33195.84974001047,-20211.833144644876,-22045.54790801381,0.0,0.0,0.0,193.0,1.0,154.0,0.0,3.0,3.0,250.0,410.0,3.0,1018.0,1744252726.0179925,0.0,2025-04-09 22:38:46.017,LEFT,19
35.0,14310.88320146599,2272.9041901712644,-62316.61883790718,-59768.922301402374,-35648.93134223596,-33105.88396857786,-20643.445330076855,-21978.5373781368,0.0,0.0,0.0,193.0,1.0,154.0,0.0,3.0,3.0,251.0,410.0,3.0,1019.0,1744252726.0180008,0.0,2025-04-09 22:38:46.018,LEFT,19
36.0,14252.165168781898,2275.698158228178,-62339.61878295169,-59770.73279270325,-35661.269505175296,-33135.432974747775,-20315.433480195225,-22005.94061683901,0.0,0.0,0.0,193.0,1.0,154.0,0.0,3.0,3.0,252.0,410.0,3.0,1020.0,1744252726.0180097,0.0,2025-04-09 22:38:46.018,LEFT,19
37.0,14188.328586617541,2221.852805835343,-62368.45253329904,-59805.64621754244,-35700.49681669436,-33172.71568449923,-20392.591702054942,-22018.63640768962,0.0,0.0,0.0,193.0,1.0,154.0,0.0,3.0,3.0,253.0,410.0,3.0,1021.0,1744252726.0180185,0.0,2025-04-09 22:38:46.018,LEFT,19
38.0,14313.699521267357,2245.858579380343,-62364.362164063714,-59762.82027516607,-35733.59975023267,-33200.54360634609,-20130.405739594193,-22039.937620155528,0.0,0.0,0.0,193.0,1.0,155.0,0.0,3.0,3.0,251.0,411.0,3.0,1019.0,1744252726.018027,0.0,2025-04-09 22:38:46.018,LEFT,19
39.0,14316.180564901897,2261.1248208433176,-62323.77139613288,-59790.78230747966,-35654.474574860884,-33119.1162012954,-20646.440463833867,-21977.77741882532,0.0,0.0,0.0,193.0,1.0,155.0,0.0,3.0,3.0,251.0,411.0,3.0,1019.0,1744252726.0180357,0.0,2025-04-09 22:38:46.018,LEFT,19
40.0,14248.074799546577,2248.6525474372565,-62348.89475690064,-59780.90283643042,-35673.65237160354,-33149.559277243534,-20326.743462889608,-21990.048526531285,0.0,0.0,0.0,193.0,1.0,154.0,0.0,3.0,3.0,251.0,410.0,3.0,1019.0,1744252726.0180445,0.0,2025-04-09 22:38:46.018,LEFT,19
41.0,14185.62402553845,2223.864462836321,-62377.63910027017,-59829.115549220514,-35699.33452598268,-33172.46981531022,-20414.94344651025,-22009.74041339641,0.0,0.0,0.0,193.0,1.0,154.0,0.0,3.0,3.0,251.0,410.0,3.0,1019.0,1744252726.0180533,0.0,2025-04-09 22:38:46.018,LEFT,19
42.0,14274.785134170668,2225.2726227370053,-62375.8733124582,-59769.548150247116,-35743.72509047092,-33218.0897257435,-20121.420338323158,-22049.347704571213,0.0,0.0,0.0,193.0,1.0,155.0,0.0,3.0,3.0,252.0,411.0,3.0,1020.0,1744252726.0180626,0.0,2025-04-09 22:38:46.018,LEFT,19
43.0,14315.64412303497,2252.2958817834715,-62333.561460204306,-59799.477136072775,-35660.666008075,-33123.00540483063,-20599.814724900094,-21975.832817057708,0.0,0.0,0.0,193.0,1.0,154.0,0.0,3.0,3.0,250.0,410.0,3.0,1018.0,1744252726.0180712,0.0,2025-04-09 22:38:46.018,LEFT,19
44.0,14244.163244266898,2244.53982645748,-62339.43996899605,-59762.52970248815,-35669.33848492366,-33140.1715445723,-20363.534434263045,-21988.282738719314,0.0,0.0,0.0,193.0,1.0,155.0,0.0,3.0,3.0,252.0,411.0,3.0,1020.0,1744252726.0180845,0.0,2025-04-09 22:38:46.018,LEFT,19
45.0,14169.396659063896,2222.9703930581086,-62377.795562481355,-59829.58493585407,-35694.14892126905,-33165.339608828974,-20423.43710940327,-22018.748166411897,0.0,0.0,0.0,193.0,1.0,154.0,0.0,3.0,3.0,249.0,410.0,3.0,1017.0,1744252726.018093,0.0,2025-04-09 22:38:46.018,LEFT,19
46.0,14252.858072860012,2226.4572651931367,-62362.48461752947,-59753.38783900593,-35729.24116006389,-33203.82931278102,-20163.016934754483,-22044.31856206877,0.0,0.0,0.0,193.0,1.0,154.0,0.0,3.0,3.0,250.0,410.0,3.0,1018.0,1744252726.0181062,0.0,2025-04-09 22:38:46.018,LEFT,19
47.0,14314.124204412008,2241.4552857226477,-62356.29318431535,-59812.46349960131,-35683.59889788615,-33141.98203587318,-20505.557418532066,-21994.742392866898,0.0,0.0,0.0,193.0,1.0,155.0,0.0,3.0,3.0,251.0,411.0,3.0,1019.0,1744252726.018115,0.0,2025-04-09 22:38:46.018,LEFT,19
48.0,14255.562633939104,2249.412506748737,-62333.78497764886,-59758.79696116412,-35652.0158829708,-33122.98305308617,-20423.504164636634,-21969.842549543686,0.0,0.0,0.0,193.0,1.0,154.0,0.0,2.0,3.0,249.0,410.0,2.0,1017.0,1744252726.0181236,0.0,2025-04-09 22:38:46.018,LEFT,19
49.0,14187.814496495068,2239.801256632955,-62372.38644032317,-59819.88427876047,-35676.80396757174,-33146.60884697543,-20375.93965243574,-22011.372090741646,0.0,0.0,0.0,193.0,1.0,155.0,0.0,2.0,3.0,252.0,411.0,2.0,1020.0,1744252726.018132,0.0,2025-04-09 22:38:46.018,LEFT,19
50.0,14221.163299222388,2217.4048086887374,-62374.12987639068,-59768.78819093564,-35730.24698856437,-33204.90219651487,-20232.307342565935,-22067.8102454913,0.0,0.0,0.0,193.0,1.0,154.0,0.0,2.0,3.0,251.0,410.0,2.0,1019.0,1744252726.0181408,0.0,2025-04-09 22:38:46.018,LEFT,19
51.0,14326.887050495989,2250.5524457159577,-62363.8704256857,-59801.13116516247,-35700.16154052753,-33156.28715232458,-20400.012481214104,-22019.93280886803,0.0,0.0,0.0,193.0,1.0,155.0,0.0,2.0,3.0,252.0,411.0,2.0,1020.0,1744252726.0181496,0.0,2025-04-09 22:38:46.018,LEFT,19
52.0,14279.210779572819,2261.4824487546025,-62319.12223328617,-59748.73867615923,-35644.93037997847,-33096.47388416217,-20511.033595923614,-21944.71918877592,0.0,0.0,0.0,193.0,1.0,154.0,0.0,2.0,3.0,252.0,410.0,2.0,1020.0,1744252726.0181584,0.0,2025-04-09 22:38:46.018,LEFT,19
53.0,14200.577342579048,2242.282300267494,-62370.10656238873,-59813.871659501994,-35681.00609552933,-33142.160849828826,-20340.4003787518,-21992.35075621018,0.0,0.0,0.0,193.0,1.0,154.0,0.0,2.0,3.0,250.0,410.0,2.0,1018.0,1744252726.018167,0.0,2025-04-09 22:38:46.018,LEFT,19
54.0,14195.1011651875,2208.888794051265,-62375.985071180476,-59788.79300222314,-35727.385965274094,-33188.67483004032,-20308.10210801388,-22033.097986352204,0.0,0.0,0.0,193.0,1.0,155.0,0.0,2.0,3.0,253.0,411.0,2.0,1021.0,1744252726.0181756,0.0,2025-04-09 22:38:46.018,LEFT,19
55.0,14312.850154978056,2237.141399042773,-62378.53317004838,-59803.366339608,-35732.25864556535,-33187.40078060637,-20288.365517659848,-22041.7034079675,0.0,0.0,0.0,193.0,1.0,154.0,0.0,2.0,3.0,250.0,410.0,2.0,1018.0,1744252726.0181847,0.0,2025-04-09 22:38:46.018,LEFT,19
56.0,14285.536323253671,2257.794410919477,-62324.97839033347,-59774.75610670521,-35654.29576090524,-33111.49425643614,-20617.60671348652,-21974.87169204613,0.0,0.0,0.0,193.0,1.0,155.0,0.0,2.0,3.0,252.0,411.0,2.0,1020.0,1744252726.0181932,0.0,2025-04-09 22:38:46.018,LEFT,19
57.0,14232.71915110578,2269.6184837363344,-62353.253347069425,-59790.89406620194,-35673.02652275879,-33133.331910768975,-20335.773567649554,-21992.797791099285,0.0,0.0,0.0,193.0,1.0,155.0,0.0,2.0,3.0,252.0,411.0,2.0,1020.0,1744252726.0182018,0.0,2025-04-09 22:38:46.018,LEFT,19
58.0,14184.774659249148,2219.930555812187,-62377.25912061443,-59804.93096171987,-35716.45596223545,-33180.82936773651,-20380.07472515997,-22027.152422327094,0.0,0.0,0.0,193.0,1.0,154.0,0.0,2.0,3.0,249.0,410.0,2.0,1017.0,1744252726.0182106,0.0,2025-04-09 22:38:46.018,LEFT,19
59.0,14308.11158515353,2241.2988235114603,-62381.17067589411,-59789.55296153462,-35743.65803523756,-33199.64953656787,-20193.99645256954,-22040.02702713335,0.0,0.0,0.0,193.0,1.0,155.0,0.0,2.0,3.0,252.0,411.0,2.0,1020.0,1744252726.018224,0.0,2025-04-09 22:38:46.018,LEFT,19
60.0,14303.082442651088,2271.0936988703847,-62321.71503564299,-59781.55103701962,-35647.09849919063,-33097.52441615157,-20643.73590275477,-21956.565613337232,0.0,0.0,0.0,193.0,1.0,154.0,0.0,2.0,3.0,250.0,410.0,2.0,1018.0,1744252726.0182326,0.0,2025-04-09 22:38:46.018,LEFT,19
61.0,14251.829892615067,2282.426033309225,-62335.97544860547,-59764.89898740042,-35654.98866498336,-33112.90241633683,-20291.338299672403,-21968.143816965083,0.0,0.0,0.0,193.0,1.0,154.0,0.0,2.0,3.0,249.0,410.0,2.0,1017.0,1744252726.0182412,0.0,2025-04-09 22:38:46.018,LEFT,19
62.0,14188.797973251103,2235.509721697536,-62369.7712862219,-59805.556810564616,-35700.78738937228,-33154.05197787905,-20391.027079943073,-22004.30893949377,0.0,0.0,0.0,193.0,1.0,155.0,0.0,2.0,3.0,252.0,411.0,2.0,1020.0,1744252726.01825,0.0,2025-04-09 22:38:46.018,LEFT,19
63.0,14304.714119996324,2245.5233032135134,-62377.035603169876,-59769.81637118058,-35749.000102162376,-33206.42211513783,-20134.250239640503,-22055.717951740975,0.0,0.0,0.0,193.0,1.0,154.0,0.0,2.0,3.0,249.0,410.0,2.0,1017.0,1744252726.0182583,0.0,2025-04-09 22:38:46.018,LEFT,19
64.0,14323.042550449676,2271.965416904142,-62334.36612300469,-59798.158383149916,-35664.622266843595,-33113.68472739276,-20649.56970805761,-21985.444067173492,0.0,0.0,0.0,193.0,1.0,155.0,0.0,2.0,3.0,251.0,411.0,2.0,1019.0,1744252726.0182672,0.0,2025-04-09 22:38:46.018,LEFT,19
65.0,14261.284680519662,2280.459079797158,-62343.73150393147,-59765.97187113427,-35672.40067391404,-33133.71189042472,-20351.06216085698,-21999.458610946967,0.0,0.0,0.0,193.0,1.0,154.0,0.0,2.0,3.0,249.0,410.0,2.0,1017.0,1744252726.018276,0.0,2025-04-09 22:38:46.018,LEFT,19
66.0,14187.546275561604,2239.10835255484,-62377.25912061443,-59828.623810842495,-35700.20624401644,-33164.62435300641,-20454.975420829705,-22028.91821013906,0.0,0.0,0.0,193.0,1.0,154.0,0.0,2.0,3.0,252.0,410.0,2.0,1020.0,1744252726.0182846,0.0,2025-04-09 22:38:46.018,LEFT,19
67.0,14278.853151661535,2236.1355705422843,-62375.60509152473,-59765.68129845635,-35748.37425331763,-33212.65825184086,-20149.494129359024,-22056.232041863448,0.0,0.0,0.0,193.0,1.0,154.0,0.0,2.0,3.0,250.0,410.0,2.0,1018.0,1744252726.0182931,0.0,2025-04-09 22:38:46.018,LEFT,19
68.0,14320.829727748602,2257.1909138191836,-62354.90737615912,-59817.4702903593,-35686.81754908771,-33138.025777104594,-20596.64077718744,-22002.49844819289,0.0,0.0,0.0,193.0,1.0,155.0,0.0,2.0,3.0,252.0,411.0,2.0,1020.0,1744252726.0183017,0.0,2025-04-09 22:38:46.018,LEFT,19
69.0,14258.49071246275,2261.3706900323264,-62341.943364375045,-59765.413077522884,-35671.23838320236,-33130.828515389985,-20408.059109218015,-21985.77934334032,0.0,0.0,0.0,193.0,1.0,155.0,0.0,2.0,3.0,252.0,411.0,2.0,1020.0,1744252726.0183103,0.0,2025-04-09 22:38:46.018,LEFT,19
70.0,14175.453981811284,2228.088942538374,-62391.854809743745,-59846.19228198437,-35706.95647084194,-33172.358056587946,-20434.121243252903,-22028.158250827582,0.0,0.0,0.0,193.0,1.0,154.0,0.0,2.0,3.0,249.0,410.0,2.0,1017.0,1744252726.0183191,0.0,2025-04-09 22:38:46.018,LEFT,19
71.0,14230.394569682428,2211.503948152536,-62395.65460630115,-59793.0621854141,-35764.55691630327,-33234.16063000687,-20217.331673780882,-22077.108571184704,0.0,0.0,0.0,193.0,1.0,155.0,0.0,2.0,3.0,252.0,411.0,2.0,1020.0,1744252726.0183277,0.0,2025-04-09 22:38:46.018,LEFT,19
72.0,14327.02116096272,2256.766230674533,-62374.04046941287,-59830.18843295437,-35716.12068606862,-33164.13261462839,-20520.175459405837,-22026.83949790472,0.0,0.0,0.0,193.0,1.0,154.0,0.0,2.0,3.0,251.0,410.0,2.0,1019.0,1744252726.0183368,0.0,2025-04-09 22:38:46.018,LEFT,19
73.0,14278.294358050152,2277.7768704625214,-62330.38751249165,-59759.33340303104,-35666.1198337221,-33118.40094547283,-20497.354328316967,-21979.118523492638,0.0,0.0,0.0,193.0,1.0,154.0,0.0,2.0,3.0,250.0,410.0,2.0,1018.0,1744252726.0183454,0.0,2025-04-09 22:38:46.018,LEFT,19
74.0,14197.0010634662,2255.089849840385,-62368.094905387756,-59819.28078166018,-35682.794235085756,-33139.59039921646,-20396.95029222373,-22001.850247603685,0.0,0.0,0.0,193.0,1.0,154.0,0.0,2.0,3.0,250.0,410.0,2.0,1018.0,1744252726.018359,0.0,2025-04-09 22:38:46.018,LEFT,19
75.0,14207.864011271478,2216.331924954882,-62380.41071658263,-59787.720118489284,-35742.20517184796,-33198.33078364501,-20273.00986921905,-22048.297172581813,0.0,0.0,0.0,193.0,1.0,154.0,0.0,2.0,3.0,250.0,410.0,2.0,1018.0,1744252726.0183675,0.0,2025-04-09 22:38:46.018,LEFT,19
76.0,14314.906515467945,2242.081134567396,-62386.043356185364,-59830.07667423209,-35733.9350263995,-33178.75065550216,-20380.342946093435,-22029.92403863955,0.0,0.0,0.0,193.0,1.0,154.0,0.0,2.0,3.0,251.0,410.0,2.0,1019.0,1744252726.0183764,0.0,2025-04-09 22:38:46.018,LEFT,19
77.0,14279.099020850543,2263.851733666865,-62328.12998630166,-59775.24784508322,-35655.90508650602,-33113.70707913722,-20570.802160597108,-21963.71817156293,0.0,0.0,0.0,193.0,1.0,154.0,0.0,2.0,3.0,249.0,410.0,2.0,1017.0,1744252726.0183852,0.0,2025-04-09 22:38:46.018,LEFT,19
78.0,14210.47916537275,2255.7156986851332,-62369.123085632695,-59821.22538342779,-35682.70482810793,-33149.38046328789,-20360.002858639105,-22002.990186570907,0.0,0.0,0.0,193.0,1.0,155.0,0.0,2.0,3.0,252.0,411.0,2.0,1020.0,1744252726.018394,0.0,2025-04-09 22:38:46.018,LEFT,19
79.0,14202.030205968644,2222.568061657913,-62373.90635894613,-59801.30997911811,-35725.77663967331,-33194.62039406543,-20353.274983558058,-22052.54400402832,0.0,0.0,0.0,193.0,1.0,154.0,0.0,2.0,3.0,251.0,410.0,2.0,1019.0,1744252726.0184026,0.0,2025-04-09 22:38:46.018,LEFT,19
80.0,14330.060998208643,2253.6593381952453,-62373.50402754594,-59803.5675053081,-35735.11966885563,-33188.361905617945,-20266.63962204929,-22038.395349788112,0.0,0.0,0.0,193.0,1.0,155.0,0.0,2.0,3.0,249.0,411.0,2.0,1017.0,1744252726.0184112,0.0,2025-04-09 22:38:46.018,LEFT,19
81.0,14310.391463087972,2286.605809522368,-62306.627608135655,-59765.435429267345,-35637.844876986135,-33086.84028230194,-20620.199515843335,-21936.20317413845,0.0,0.0,0.0,193.0,1.0,155.0,0.0,2.0,3.0,251.0,411.0,2.0,1019.0,1744252726.0184197,0.0,2025-04-09 22:38:46.018,LEFT,19
82.0,14241.190462254342,2281.420204808737,-62340.82577715228,-59781.81925795308,-35661.56007785322,-33123.81006763101,-20304.77169809004,-21970.58015711071,0.0,0.0,0.0,193.0,1.0,154.0,0.0,2.0,3.0,250.0,410.0,2.0,1018.0,1744252726.0184283,0.0,2025-04-09 22:38:46.018,LEFT,19
83.0,14184.126458659943,2226.032582048486,-62373.01228916792,-59812.70936879032,-35713.25966277834,-33177.56601304603,-20392.859922988406,-22029.231134561436,0.0,0.0,0.0,193.0,1.0,155.0,0.0,2.0,3.0,253.0,411.0,2.0,1021.0,1744252726.0184371,0.0,2025-04-09 22:38:46.018,LEFT,19
84.0,14303.149497884453,2240.762381644533,-62387.31740561932,-59794.73856624825,-35758.141965644594,-33212.546493118585,-20170.75063833602,-22063.09402741123,0.0,0.0,0.0,193.0,1.0,154.0,0.0,2.0,3.0,249.0,410.0,2.0,1017.0,1744252726.0184457,0.0,2025-04-09 22:38:46.018,LEFT,19
85.0,14312.626637533504,2275.184068105706,-62324.35254148872,-59794.20212438132,-35656.843859773144,-33102.93353830976,-20666.959365243838,-21970.557805366258,0.0,0.0,0.0,193.0,1.0,155.0,0.0,2.0,3.0,251.0,411.0,2.0,1019.0,1744252726.0184543,0.0,2025-04-09 22:38:46.018,LEFT,19
86.0,14248.477130946772,2271.8089546929546,-62344.75968417641,-59780.321691074576,-35672.087749491664,-33124.3688612424,-20316.10403252888,-21974.82698855722,0.0,0.0,0.0,193.0,1.0,154.0,0.0,2.0,3.0,249.0,410.0,2.0,1017.0,1744252726.018463,0.0,2025-04-09 22:38:46.018,LEFT,19
87.0,14182.13715340342,2229.7206198836116,-62376.25329211394,-59826.92507826389,-35707.93994759797,-33158.790547703575,-20424.554696626034,-22004.554808682777,0.0,0.0,0.0,193.0,1.0,155.0,0.0,2.0,3.0,252.0,411.0,2.0,1020.0,1744252726.0184717,0.0,2025-04-09 22:38:46.018,LEFT,19
88.0,14291.772459956701,2238.3930967322704,-62377.34852759225,-59776.49954277272,-35753.24693360888,-33206.55622560457,-20142.341571133325,-22047.22428884796,0.0,0.0,0.0,193.0,1.0,155.0,0.0,2.0,3.0,249.0,411.0,2.0,1017.0,1744252726.0184803,0.0,2025-04-09 22:38:46.018,LEFT,19
89.0,14321.053245193154,2263.404698777759,-62344.20089056503,-59818.83374677107,-35673.63001985908,-33128.3698234999,-20646.59692604505,-21993.60245389968,0.0,0.0,0.0,193.0,1.0,154.0,0.0,2.0,3.0,249.0,410.0,2.0,1017.0,1744252726.0184937,0.0,2025-04-09 22:38:46.018,LEFT,19
90.0,14264.25746253222,2270.691367470189,-62344.513814987404,-59776.968929406285,-35669.49494713485,-33133.17544855779,-20350.83864341243,-21978.82795081472,0.0,0.0,0.0,193.0,1.0,155.0,0.0,2.0,3.0,251.0,411.0,2.0,1019.0,1744252726.0185022,0.0,2025-04-09 22:38:46.018,LEFT,19
91.0,14198.230409411242,2248.8090096484434,-62372.49819904545,-59831.84246204406,-35693.88070033559,-33152.08502436698,-20427.460423405224,-21998.45278244648,0.0,0.0,0.0,193.0,1.0,154.0,0.0,2.0,3.0,251.0,410.0,2.0,1019.0,1744252726.0185108,0.0,2025-04-09 22:38:46.018,LEFT,19
92.0,14277.936730138867,2248.3619747593375,-62367.53611177637,-59762.44029551033,-35747.256666094865,-33198.86722551194,-20160.13355971975,-22040.429358533547,0.0,0.0,0.0,193.0,1.0,155.0,0.0,2.0,3.0,250.0,411.0,2.0,1018.0,1744252726.0185194,0.0,2025-04-09 22:38:46.018,LEFT,19
93.0,14335.26895466673,2277.7768704625214,-62339.59643120724,-59807.166136165404,-35680.38024668458,-33121.35137574093,-20569.17048325187,-21980.861959560152,0.0,0.0,0.0,193.0,1.0,154.0,0.0,2.0,3.0,249.0,410.0,2.0,1017.0,1744252726.0185285,0.0,2025-04-09 22:38:46.018,LEFT,19
94.0,14271.924110880389,2276.3910623062925,-62324.82192812228,-59757.54526347462,-35660.50954586382,-33117.77509662808,-20412.66356857581,-21969.6860873325,0.0,0.0,0.0,193.0,1.0,155.0,0.0,2.0,3.0,252.0,411.0,2.0,1020.0,1744252726.0185368,0.0,2025-04-09 22:38:46.018,LEFT,19
95.0,14195.302330887596,2252.2511782945608,-62364.317460574806,-59823.75113055124,-35687.130473510086,-33141.17737307279,-20405.667472561297,-21999.078631291228,0.0,0.0,0.0,193.0,1.0,154.0,0.0,2.0,3.0,250.0,410.0,2.0,1018.0,1744252726.0185456,0.0,2025-04-09 22:38:46.018,LEFT,19
96.0,14242.665677388391,2237.789599631977,-62363.57985300778,-59767.11181010149,-35739.18768634649,-33196.117960943935,-20210.961426611117,-22037.568335243268,0.0,0.0,0.0,193.0,1.0,154.0,0.0,2.0,3.0,252.0,410.0,2.0,1020.0,1744252726.0185542,0.0,2025-04-09 22:38:46.018,LEFT,19
97.0,14329.278687152708,2261.4153935212366,-62358.26013782742,-59819.683113060375,-35703.84957836266,-33164.13261462839,-20450.370961471912,-22025.476041492944,0.0,0.0,0.0,193.0,1.0,155.0,0.0,2.0,3.0,251.0,411.0,2.0,1019.0,1744252726.0185628,0.0,2025-04-09 22:38:46.018,LEFT,19
98.0,14282.049451118643,2274.982902405608,-62311.05325353781,-59754.930109373345,-35646.942036979446,-33111.29309073604,-20495.901464927374,-21971.11659897764,0.0,0.0,0.0,193.0,1.0,154.0,0.0,2.0,3.0,249.0,410.0,2.0,1017.0,1744252726.0185716,0.0,2025-04-09 22:38:46.018,LEFT,19
99.0,14209.361578149985,2259.8731231538204,-62354.97443139249,-59810.76476702271,-35674.188813470464,-33134.96358811422,-20357.6559254713,-21980.750200837876,0.0,0.0,0.0,193.0,1.0,154.0,0.0,2.0,3.0,250.0,410.0,2.0,1018.0,1744252726.0185804,0.0,2025-04-09 22:38:46.018,LEFT,19
100.0,14220.515098633183,2233.4310094631924,-62356.963736649006,-59769.81637118058,-35719.02641284781,-33181.54462355907,-20276.764962287543,-22019.530477467833,0.0,0.0,0.0,193.0,1.0,154.0,0.0,2.0,3.0,252.0,410.0,2.0,1020.0,1744252726.0185893,0.0,2025-04-09 22:38:46.018,LEFT,19
101.0,14335.805396533657,2265.729280201111,-62362.73048671848,-59797.55488604962,-35718.60172970316,-33176.336667100986,-20330.610314680376,-22027.01831186036,0.0,0.0,0.0,193.0,1.0,154.0,0.0,2.0,3.0,249.0,410.0,2.0,1017.0,1744252726.018598,0.0,2025-04-09 22:38:46.018,LEFT,19
102.0,14292.286550079174,2275.7875652059993,-62312.0590820383,-59754.05839133959,-35647.25496140182,-33104.92284356628,-20582.380364224955,-21952.564651079734,0.0,0.0,0.0,193.0,1.0,155.0,0.0,2.0,3.0,252.0,411.0,2.0,1020.0,1744252726.0186067,0.0,2025-04-09 22:38:46.018,LEFT,19
103.0,14220.895078288922,2265.5504662454687,-62356.29318431535,-59791.96694993579,-35677.00513327183,-33138.450460249245,-20336.421768238757,-21978.425619414524,0.0,0.0,0.0,193.0,1.0,154.0,0.0,2.0,3.0,250.0,410.0,2.0,1018.0,1744252726.0186152,0.0,2025-04-09 22:38:46.018,LEFT,19
104.0,14205.159450192386,2233.5874716743797,-62361.45643728453,-59771.67156597038,-35710.9797848439,-33167.68654199679,-20353.31968704697,-22003.25840750437,0.0,0.0,0.0,193.0,1.0,155.0,0.0,2.0,3.0,252.0,411.0,2.0,1020.0,1744252726.0186286,0.0,2025-04-09 22:38:46.018,LEFT,19
105.0,14330.172756930919,2252.429992250203,-62367.22318735399,-59765.636594967444,-35727.54242748528,-33182.975135204215,-20209.597970199346,-22011.26033201937,0.0,0.0,0.0,193.0,1.0,154.0,0.0,2.0,3.0,251.0,410.0,2.0,1019.0,1744252726.0186372,0.0,2025-04-09 22:38:46.018,LEFT,19
106.0,14308.871544465012,2278.9615129186527,-62312.930800072056,-59746.63761218043,-35640.504734576316,-33095.535110895056,-20623.08289087807,-21936.940781705474,0.0,0.0,0.0,193.0,1.0,154.0,0.0,2.0,3.0,250.0,410.0,2.0,1018.0,1744252726.0186455,0.0,2025-04-09 22:38:46.018,LEFT,19
107.0,14241.212813998798,2280.056748396963,-62346.36900977719,-59753.09726632801,-35664.04112148775,-33130.962625856715,-20310.381985948323,-21967.652078587067,0.0,0.0,0.0,193.0,1.0,155.0,0.0,2.0,3.0,252.0,411.0,2.0,1020.0,1744252726.054422,0.0,2025-04-09 22:38:46.054,LEFT,19
108.0,14198.56568557807,2244.964509602131,-62360.49531227295,-59765.77070543417,-35689.67857237799,-33156.24244883567,-20398.827838757974,-21984.192369483993,0.0,0.0,0.0,193.0,1.0,154.0,0.0,2.0,3.0,250.0,410.0,2.0,1018.0,1744252726.0544531,0.0,2025-04-09 22:38:46.054,LEFT,19
109.0,14324.294248139173,2262.577684232913,-62363.602204752235,-59727.258649737676,-35729.0846978527,-33190.23945215219,-20138.49707108701,-22008.82399187374,0.0,0.0,0.0,193.0,1.0,155.0,0.0,2.0,3.0,251.0,411.0,2.0,1019.0,1744252726.054465,0.0,2025-04-09 22:38:46.054,LEFT,19
110.0,14314.437128834383,2272.2336378376053,-62332.17565204807,-59757.031173352145,-35656.508583606315,-33107.60505290092,-20648.183899901378,-21941.366427107627,0.0,0.0,0.0,193.0,1.0,154.0,0.0,2.0,3.0,249.0,410.0,2.0,1017.0,1744252726.054475,0.0,2025-04-09 22:38:46.054,LEFT,19
111.0,14251.315802492596,2275.4299372947144,-62345.206719065514,-59727.1468910154,-35662.185926697966,-33119.02679431758,-20324.754157633088,-21941.96992420792,0.0,0.0,0.0,193.0,1.0,155.0,0.0,2.0,3.0,251.0,411.0,2.0,1019.0,1744252726.0544844,0.0,2025-04-09 22:38:46.054,LEFT,19
112.0,14183.9476447043,2244.0927915683737,-62371.06768740031,-59769.548150247116,-35689.38799970007,-33146.87706790889,-20419.637312845865,-21982.359526438657,0.0,0.0,0.0,193.0,1.0,154.0,0.0,2.0,3.0,250.0,410.0,2.0,1018.0,1744252726.0544937,0.0,2025-04-09 22:38:46.054,LEFT,19
113.0,14293.582951257582,2256.2521405520606,-62367.938443176565,-59710.763062329665,-35731.87866590961,-33195.73798128819,-20126.449480825602,-22025.40898625958,0.0,0.0,0.0,193.0,1.0,155.0,0.0,2.0,3.0,252.0,411.0,2.0,1020.0,1744252726.0545032,0.0,2025-04-09 22:38:46.054,LEFT,19
114.0,14337.727646556814,2287.0975479003846,-62324.464300210995,-59739.64151616592,-35643.96925496689,-33091.71296259319,-20600.37351851148,-21929.274133357303,0.0,0.0,0.0,193.0,1.0,155.0,0.0,2.0,3.0,250.0,411.0,2.0,1018.0,1744252726.5270133,0.0,2025-04-09 22:38:46.527,LEFT,19
115.0,14269.554825968127,2285.041187410496,-62322.18442227655,-59692.99342548769,-35640.72825202087,-33097.03267777356,-20342.367332263868,-21923.95441817694,0.0,0.0,0.0,193.0,1.0,154.0,0.0,2.0,3.0,251.0,410.0,2.0,1019.0,1744252726.527052,0.0,2025-04-09 22:38:46.527,LEFT,19
116.0,14193.357729119985,2253.4581724951477,-62362.3728588072,-59760.56274897609,-35669.62905760158,-33130.00150084514,-20396.65971954581,-21956.54326159278,0.0,0.0,0.0,193.0,1.0,155.0,0.0,2.0,3.0,251.0,411.0,2.0,1019.0,1744252726.5270724,0.0,2025-04-09 22:38:46.527,LEFT,19
117.0,14263.899834620934,2241.678803167201,-62366.10560013123,-59702.649379092385,-35728.235331563395,-33189.27832714061,-20143.861489756287,-22002.431392959523,0.0,0.0,0.0,193.0,1.0,154.0,0.0,2.0,3.0,249.0,410.0,2.0,1017.0,1744252726.5270925,0.0,2025-04-09 22:38:46.527,LEFT,19
118.0,14337.83940527909,2273.3288733159156,-62346.972506877486,-59752.694934927815,-35673.920592537,-33127.22988453268,-20517.135622159913,-21966.713305319943,0.0,0.0,0.0,193.0,1.0,155.0,0.0,2.0,3.0,252.0,411.0,2.0,1020.0,1744252726.527192,0.0,2025-04-09 22:38:46.527,LEFT,19
119.0,14282.898817407944,2286.0693676554406,-62316.909410585096,-59689.86418126395,-35636.48142057436,-33105.101657521926,-20422.43128090278,-21940.740578262878,0.0,0.0,0.0,193.0,1.0,154.0,0.0,2.0,3.0,250.0,410.0,2.0,1018.0,1744252726.5272024,0.0,2025-04-09 22:38:46.527,LEFT,19
120.0,14210.85914502849,2267.338605801893,-62361.232919839975,-59757.72407743026,-35664.73402556587,-33130.403832245334,-20374.84441695743,-21965.21573844144,0.0,0.0,0.0,193.0,1.0,155.0,0.0,2.0,3.0,250.0,411.0,2.0,1018.0,1744252726.527212,0.0,2025-04-09 22:38:46.527,LEFT,19
121.0,14238.687066875347,2241.2094165336393,-62369.34660307725,-59713.6464373644,-35720.54633147077,-33183.891556726885,-20210.983778355574,-21993.35658471067,0.0,0.0,0.0,193.0,1.0,155.0,0.0,2.0,3.0,251.0,411.0,2.0,1019.0,1744252726.5272207,0.0,2025-04-09 22:38:46.527,LEFT,19
122.0,14332.810262776646,2266.310425556949,-62372.02881241189,-59761.94855713232,-35704.11779929612,-33160.42222504881,-20394.26808288909,-21986.82987532972,0.0,0.0,0.0,193.0,1.0,154.0,0.0,2.0,3.0,250.0,410.0,2.0,1018.0,1744252726.52723,0.0,2025-04-09 22:38:46.527,LEFT,19
123.0,14287.279759321185,2278.6932919851893,-62322.6091054212,-59705.66686459385,-35640.75060376532,-33102.307689465015,-20513.961674447262,-21933.051578170252,0.0,0.0,0.0,193.0,1.0,155.0,0.0,2.0,3.0,251.0,411.0,2.0,1019.0,1744252726.5272439,0.0,2025-04-09 22:38:46.527,LEFT,19
124.0,14224.359598679495,2274.4688122831362,-62358.930690161076,-59754.527777973155,-35659.05668247422,-33124.59237868695,-20349.02815211155,-21964.14285470758,0.0,0.0,0.0,193.0,1.0,154.0,0.0,2.0,3.0,249.0,410.0,2.0,1017.0,1744252726.527253,0.0,2025-04-09 22:38:46.527,LEFT,19
125.0,14208.28869441613,2228.9383088276754,-62379.740164248964,-59741.49671095571,-35717.886473880586,-33184.98679220519,-20296.523904386035,-22018.189372800516,0.0,0.0,0.0,193.0,1.0,155.0,0.0,2.0,3.0,252.0,411.0,2.0,1020.0,1744252726.5272615,0.0,2025-04-09 22:38:46.527,LEFT,19
126.0,14330.664495308936,2255.8721608963206,-62381.75182124994,-59757.29939428561,-35720.345165770676,-33172.71568449923,-20287.29263392599,-22004.599512171688,0.0,0.0,0.0,193.0,1.0,154.0,0.0,2.0,3.0,249.0,410.0,2.0,1017.0,1744252726.5272703,0.0,2025-04-09 22:38:46.527,LEFT,19
127.0,14297.74037572627,2273.597094249379,-62323.95021008852,-59719.59200138951,-35639.163629908995,-33086.862634046396,-20591.96926259628,-21920.892229186564,0.0,0.0,0.0,193.0,1.0,155.0,0.0,2.0,3.0,252.0,411.0,2.0,1020.0,1744252726.5272791,0.0,2025-04-09 22:38:46.527,LEFT,19
128.0,14231.780377838657,2274.312350071949,-62356.36023954872,-59744.58125169054,-35655.10042370563,-33112.008346558614,-20306.582189390923,-21940.71822651842,0.0,0.0,0.0,193.0,1.0,154.0,0.0,2.0,3.0,250.0,410.0,2.0,1018.0,1744252726.527288,0.0,2025-04-09 22:38:46.527,LEFT,19
129.0,14195.771717521158,2231.6205181623122,-62374.57691127979,-59753.41019075039,-35699.33452598268,-33160.42222504881,-20349.497538745112,-21986.315785207247,0.0,0.0,0.0,193.0,1.0,154.0,0.0,2.0,3.0,250.0,410.0,2.0,1018.0,1744252726.5272965,0.0,2025-04-09 22:38:46.527,LEFT,19
130.0,14321.83555624909,2254.061669595441,-62377.28147235888,-59743.08368481204,-35727.07304085172,-33184.316239871536,-20183.46878093109,-22013.719023909453,0.0,0.0,0.0,193.0,1.0,155.0,0.0,2.0,3.0,251.0,411.0,2.0,1019.0,1744252726.5273056,0.0,2025-04-09 22:38:46.527,LEFT,19
131.0,14304.624713018504,2270.8478296813764,-62324.84427986673,-59742.25667026719,-35637.978987452865,-33095.512759150595,-20645.702856266842,-21943.288677130782,0.0,0.0,0.0,193.0,1.0,154.0,0.0,2.0,3.0,250.0,410.0,2.0,1018.0,1744252726.5273144,0.0,2025-04-09 22:38:46.527,LEFT,19
132.0,14234.10495926201,2269.394966291781,-62354.14741684764,-59743.06133306758,-35658.944923751944,-33119.5185326956,-20312.572456904945,-21948.742502777877,0.0,0.0,0.0,193.0,1.0,155.0,0.0,2.0,3.0,251.0,411.0,2.0,1019.0,1744252726.5273232,0.0,2025-04-09 22:38:46.527,LEFT,19
133.0,14174.537560288616,2230.257061750539,-62379.829571226786,-59776.745411961725,-35694.21597650242,-33150.34158829947,-20416.262199433113,-21971.720096077934,0.0,0.0,0.0,193.0,1.0,154.0,0.0,2.0,3.0,249.0,410.0,2.0,1017.0,1744252726.5273378,0.0,2025-04-09 22:38:46.527,LEFT,19
134.0,14292.554771012638,2237.834303120888,-62379.38253633768,-59733.271268996155,-35732.81743917673,-33188.920699229326,-20145.381408379246,-22005.560637183265,0.0,0.0,0.0,193.0,1.0,155.0,0.0,2.0,3.0,252.0,411.0,2.0,1020.0,1744252726.527347,0.0,2025-04-09 22:38:46.527,LEFT,19
135.0,14306.859887464034,2260.901303398765,-62337.78593990635,-59760.24982455371,-35647.92551373548,-33098.77611384107,-20656.0740656941,-21939.757101506842,0.0,0.0,0.0,193.0,1.0,154.0,0.0,2.0,3.0,250.0,410.0,2.0,1018.0,1744252726.527356,0.0,2025-04-09 22:38:46.527,LEFT,19
136.0,14240.765779109692,2258.375556275315,-62349.72177144549,-59731.1478532729,-35654.07224346069,-33117.819800116995,-20333.381930992837,-21944.339209120182,0.0,0.0,0.0,193.0,1.0,155.0,0.0,2.0,3.0,251.0,411.0,2.0,1019.0,1744252726.5273647,0.0,2025-04-09 22:38:46.527,LEFT,19
137.0,14163.696964227793,2214.8790615652874,-62391.854809743745,-59796.30318836012,-35693.903052080044,-33157.85177443645,-20437.921039810306,-21990.897892820587,0.0,0.0,0.0,193.0,1.0,154.0,0.0,2.0,3.0,249.0,410.0,2.0,1017.0,1744252726.5273738,0.0,2025-04-09 22:38:46.527,LEFT,19
138.0,14261.821122386591,2224.892643081265,-62388.09971667525,-59733.71830388526,-35743.88155268211,-33205.215120937246,-20160.33472541985,-22031.689826451522,0.0,0.0,0.0,193.0,1.0,155.0,0.0,2.0,3.0,252.0,411.0,2.0,1020.0,1744252726.5273824,0.0,2025-04-09 22:38:46.527,LEFT,19
139.0,14318.192221902875,2266.3327773014043,-62351.24169006845,-59771.984490392744,-35666.94684826695,-33115.49521869364,-20625.40747230142,-21965.21573844144,0.0,0.0,0.0,193.0,1.0,154.0,0.0,2.0,3.0,249.0,410.0,2.0,1017.0,1744252726.5273912,0.0,2025-04-09 22:38:46.527,LEFT,19
140.0,14258.356601996018,2269.797297691977,-62337.71888467299,-59718.67557986684,-35649.043100958246,-33109.4155442018,-20391.630577043365,-21942.05933118574,0.0,0.0,0.0,193.0,1.0,154.0,0.0,2.0,3.0,252.0,410.0,2.0,1020.0,1744252726.5274,0.0,2025-04-09 22:38:46.527,LEFT,19
141.0,14185.42285983835,2244.3610125018376,-62370.39713506665,-59780.56756026358,-35667.03625524476,-33129.82268688949,-20415.725757566186,-21960.34305815018,0.0,0.0,0.0,193.0,1.0,154.0,0.0,2.0,3.0,249.0,410.0,2.0,1017.0,1744252726.5274088,0.0,2025-04-09 22:38:46.527,LEFT,19
142.0,14246.979564068266,2233.185140274184,-62369.34660307725,-59720.419015934356,-35722.04389834928,-33185.79145500559,-20185.078106531873,-22001.15734352557,0.0,0.0,0.0,193.0,1.0,154.0,0.0,2.0,3.0,250.0,410.0,2.0,1018.0,1744252726.5274177,0.0,2025-04-09 22:38:46.527,LEFT,19
143.0,14318.482794580794,2252.5193992280247,-62367.379649565184,-59781.9086649309,-35687.890432821565,-33140.70798643923,-20497.264921339145,-21973.240014700892,0.0,0.0,0.0,193.0,1.0,155.0,0.0,2.0,3.0,252.0,411.0,2.0,1020.0,1744252726.5274265,0.0,2025-04-09 22:38:46.527,LEFT,19
144.0,14265.240939288253,2265.863390667843,-62328.174689790576,-59717.49093741071,-35640.30356887622,-33104.09582902143,-20465.57014770152,-21936.80667123874,0.0,0.0,0.0,193.0,1.0,154.0,0.0,2.0,3.0,250.0,410.0,2.0,1018.0,1744252726.5274353,0.0,2025-04-09 22:38:46.527,LEFT,19
145.0,14199.929141989845,2258.5543702309574,-62362.05993438482,-59772.23035958176,-35659.4143103855,-33129.912093867315,-20386.42262058528,-21981.465456660448,0.0,0.0,0.0,193.0,1.0,155.0,0.0,2.0,3.0,252.0,411.0,2.0,1020.0,1744252726.5274444,0.0,2025-04-09 22:38:46.527,LEFT,19
146.0,14210.881496772945,2220.3328872123825,-62378.10848690373,-59739.976792332745,-35723.206189060955,-33196.00620222166,-20259.95645045715,-22034.752015441896,0.0,0.0,0.0,193.0,1.0,154.0,0.0,2.0,3.0,249.0,410.0,2.0,1017.0,1744252726.5274532,0.0,2025-04-09 22:38:46.527,LEFT,19
147.0,14310.056186921143,2242.662279923234,-62378.10848690373,-59775.53841776114,-35704.475427207406,-33157.00240814715,-20374.64325125733,-21976.950404280473,0.0,0.0,0.0,193.0,1.0,155.0,0.0,2.0,3.0,252.0,411.0,2.0,1020.0,1744252726.527462,0.0,2025-04-09 22:38:46.527,LEFT,19
148.0,14270.58300621307,2259.381384775804,-62317.602314663214,-59715.233411220725,-35626.40078382502,-33085.70034333472,-20538.883869514928,-21902.96613013341,0.0,0.0,0.0,193.0,1.0,155.0,0.0,2.0,3.0,249.0,411.0,2.0,1017.0,1744252726.5274816,0.0,2025-04-09 22:38:46.527,LEFT,19
149.0,14188.552104062093,2234.9062245972427,-62371.29120484486,-59774.17496134937,-35665.29281917725,-33132.773117157594,-20334.521869960055,-21954.196328424972,0.0,0.0,0.0,193.0,1.0,155.0,0.0,2.0,3.0,249.0,411.0,2.0,1017.0,1744252726.5274906,0.0,2025-04-09 22:38:46.527,LEFT,19
150.0,14164.747496217191,2190.605067086824,-62387.13859166367,-59764.49665600022,-35719.60755820365,-33186.819635250526,-20335.63945718282,-22011.752070397386,0.0,0.0,0.0,193.0,1.0,155.0,0.0,2.0,3.0,251.0,411.0,2.0,1019.0,1744252726.5274994,0.0,2025-04-09 22:38:46.527,LEFT,19
151.0,14291.772459956701,2217.918898811209,-62387.518571319415,-59772.67739447086,-35730.22463681992,-33189.85947249645,-20286.465619381146,-22023.77730891434,0.0,0.0,0.0,193.0,1.0,154.0,0.0,2.0,3.0,249.0,410.0,2.0,1017.0,1744252726.527508,0.0,2025-04-09 22:38:46.527,LEFT,19
152.0,14272.68407019187,2243.645756679268,-62321.26800075389,-59738.32276324306,-35636.034385685256,-33096.47388416217,-20644.719379510807,-21937.991313694874,0.0,0.0,0.0,193.0,1.0,155.0,0.0,2.0,3.0,252.0,411.0,2.0,1020.0,1744252726.5275168,0.0,2025-04-09 22:38:46.527,LEFT,19
153.0,14197.403394866395,2233.9674513301197,-62362.126989618184,-59761.94855713232,-35668.44441514545,-33133.08604157997,-20336.600582194398,-21967.786189053797,0.0,0.0,0.0,193.0,1.0,154.0,0.0,2.0,3.0,250.0,410.0,2.0,1018.0,1744252726.5275257,0.0,2025-04-09 22:38:46.527,LEFT,19
154.0,14145.972030874735,2183.3631018833044,-62389.01613819792,-59782.24394109773,-35718.087639580684,-33182.61750729293,-20413.736452309662,-22015.104832065685,0.0,0.0,0.0,193.0,1.0,155.0,0.0,2.0,3.0,252.0,411.0,2.0,1020.0,1744252726.527535,0.0,2025-04-09 22:38:46.527,LEFT,19
155.0,14267.00672710022,2195.8800787782766,-62393.3747283667,-59762.08266759905,-35749.469488795934,-33211.361850662455,-20205.887580619765,-22042.776291701353,0.0,0.0,0.0,193.0,1.0,154.0,0.0,2.0,3.0,250.0,410.0,2.0,1018.0,1744252726.5275435,0.0,2025-04-09 22:38:46.527,LEFT,19
156.0,14268.325480023084,2224.2891459809716,-62331.303934014315,-59759.266347797675,-35647.836106757655,-33105.526340666576,-20685.04192650818,-21954.10692144715,0.0,0.0,0.0,193.0,1.0,155.0,0.0,2.0,3.0,252.0,411.0,2.0,1020.0,1744252726.5275528,0.0,2025-04-09 22:38:46.527,LEFT,19
157.0,14196.397566365906,2216.1531109992397,-62360.65177448413,-59756.36062101849,-35675.32875243769,-33139.36688177191,-20338.008742095084,-21981.30899444926,0.0,0.0,0.0,193.0,1.0,155.0,0.0,2.0,3.0,252.0,411.0,2.0,1020.0,1744252726.5275617,0.0,2025-04-09 22:38:46.527,LEFT,19
158.0,14123.262658508142,2164.3864708407486,-62397.085117946284,-59807.90374373243,-35720.8816076376,-33181.65638228135,-20455.377752229902,-22022.72677692494,0.0,0.0,0.0,193.0,1.0,154.0,0.0,2.0,3.0,249.0,410.0,2.0,1017.0,1744252726.5275707,0.0,2025-04-09 22:38:46.527,LEFT,19
159.0,14230.886308060446,2171.024938943975,-62397.04041445738,-59757.70172568581,-35762.61231453566,-33220.86134205596,-20171.75646683651,-22050.33118132725,0.0,0.0,0.0,193.0,1.0,155.0,0.0,2.0,3.0,252.0,411.0,2.0,1020.0,1744252726.5275795,0.0,2025-04-09 22:38:46.527,LEFT,19
160.0,14256.188482783853,2195.6342095892683,-62350.05704761232,-59786.98251092226,-35670.43372040197,-33120.189085029255,-20674.268385680723,-21967.428561142515,0.0,0.0,0.0,193.0,1.0,154.0,0.0,2.0,3.0,250.0,410.0,2.0,1018.0,1744252726.5275884,0.0,2025-04-09 22:38:46.527,LEFT,19
161.0,14203.28190365814,2204.1278724822846,-62343.329172531274,-59739.19448127681,-35659.77193829679,-33121.798410630036,-20358.058256871493,-21952.743465035375,0.0,0.0,0.0,193.0,1.0,154.0,0.0,2.0,3.0,252.0,410.0,2.0,1020.0,1744252726.5275967,0.0,2025-04-09 22:38:46.527,LEFT,19
162.0,14123.977914330711,2169.3038546209164,-62379.96368169352,-59801.444089584846,-35691.958450312435,-33152.822631934,-20429.159155983827,-21992.864846332654,0.0,0.0,0.0,193.0,1.0,153.0,0.0,2.0,3.0,251.0,409.0,2.0,1019.0,1744252726.5276055,0.0,2025-04-09 22:38:46.527,LEFT,19
163.0,14202.723110046758,2165.928741208165,-62382.84705672826,-59741.317897000066,-35752.486974297404,-33209.79722855058,-20160.200614953115,-22044.452672535503,0.0,0.0,0.0,193.0,1.0,154.0,0.0,2.0,3.0,252.0,410.0,2.0,1020.0,1744252726.5276184,0.0,2025-04-09 22:38:46.527,LEFT,19
164.0,14258.20013978483,2187.542878096447,-62365.85973094222,-59797.532534305166,-35696.6746683925,-33142.31731204001,-20597.333681265554,-21999.97270106944,0.0,0.0,0.0,193.0,1.0,154.0,0.0,2.0,3.0,250.0,410.0,2.0,1018.0,1744252726.5276272,0.0,2025-04-09 22:38:46.527,LEFT,19
165.0,14200.66674955687,2189.8227560308883,-62338.56825096229,-59732.15368177339,-35662.25298193133,-33116.1657710273,-20430.679074606785,-21958.666677316032,0.0,0.0,0.0,193.0,1.0,154.0,0.0,2.0,3.0,251.0,410.0,2.0,1019.0,1744252726.527636,0.0,2025-04-09 22:38:46.527,LEFT,19
166.0,14118.568792172528,2162.218351628584,-62380.83539972728,-59801.68995877385,-35684.71648510891,-33140.55152422804,-20421.98424601367,-21983.07478226123,0.0,0.0,0.0,193.0,1.0,155.0,0.0,2.0,3.0,251.0,411.0,2.0,1019.0,1744252726.5276449,0.0,2025-04-09 22:38:46.527,LEFT,19
167.0,14166.110952628966,2145.633357242746,-62377.728507247986,-59742.88251911194,-35733.15271534356,-33195.223891165726,-20216.683473191675,-22033.097986352204,0.0,0.0,0.0,193.0,1.0,154.0,0.0,2.0,3.0,250.0,410.0,2.0,1018.0,1744252726.5276537,0.0,2025-04-09 22:38:46.527,LEFT,19
168.0,14257.507235706717,2178.244552403039,-62368.25136759894,-59789.64236851244,-35696.58526141468,-33150.676864466295,-20478.04242110758,-22004.48775344941,0.0,0.0,0.0,193.0,1.0,155.0,0.0,2.0,3.0,252.0,411.0,2.0,1020.0,1744252726.5276625,0.0,2025-04-09 22:38:46.527,LEFT,19
169.0,14206.992293237721,2194.2260496885838,-62324.37489323317,-59724.732902614225,-35643.790441011246,-33100.899529564325,-20504.238665609202,-21940.6288195406,0.0,0.0,0.0,193.0,1.0,154.0,0.0,2.0,3.0,249.0,410.0,2.0,1017.0,1744252726.527671,0.0,2025-04-09 22:38:46.527,LEFT,19
170.0,14126.0342748206,2177.9092762362097,-62374.35339383524,-59789.955292934814,-35676.423987915994,-33135.5223817256,-20381.348774593924,-21975.318726935235,0.0,0.0,0.0,193.0,1.0,155.0,0.0,2.0,3.0,251.0,411.0,2.0,1019.0,1744252726.52768,0.0,2025-04-09 22:38:46.527,LEFT,19
171.0,14139.713542427247,2156.406898070204,-62376.5215130474,-59749.09630407051,-35724.90492163956,-33185.25501313865,-20297.4403259087,-22020.98334085743,0.0,0.0,0.0,193.0,1.0,154.0,0.0,2.0,3.0,251.0,410.0,2.0,1019.0,1744252726.5276887,0.0,2025-04-09 22:38:46.527,LEFT,19
172.0,14249.214738513798,2166.3534243528156,-62384.43403058458,-59785.149667876925,-35723.65322395006,-33179.15298690236,-20356.940669648728,-22022.5479629693,0.0,0.0,0.0,193.0,1.0,155.0,0.0,2.0,3.0,252.0,411.0,2.0,1020.0,1744252726.5276976,0.0,2025-04-09 22:38:46.527,LEFT,19
173.0,14211.775566551158,2178.803346014422,-62327.10180605672,-59739.01566732117,-35644.52804857827,-33102.82177958748,-20590.69521316233,-21946.95436322145,0.0,0.0,0.0,193.0,1.0,155.0,0.0,2.0,3.0,252.0,411.0,2.0,1020.0,1744252726.527706,0.0,2025-04-09 22:38:46.527,LEFT,19
174.0,14139.46767323824,2172.7460232670337,-62371.224149611495,-59780.34404281903,-35676.11106349362,-33135.81295440352,-20345.720093932163,-21971.496578633378,0.0,0.0,0.0,193.0,1.0,154.0,0.0,2.0,3.0,250.0,410.0,2.0,1018.0,1744252726.5277147,0.0,2025-04-09 22:38:46.527,LEFT,19
175.0,14111.12566126891,2128.6236797122574,-62393.68765278908,-59782.78038296466,-35733.331529299205,-33188.69718178477,-20368.429466298756,-22021.56448621327,0.0,0.0,0.0,193.0,1.0,155.0,0.0,2.0,3.0,252.0,411.0,2.0,1020.0,1744252726.5277233,0.0,2025-04-09 22:38:46.527,LEFT,19
176.0,14235.557822651605,2154.1046683913078,-62400.951969737056,-59784.07678414307,-35755.705625498966,-33206.131542459916,-20267.48898833859,-22050.040608649328,0.0,0.0,0.0,193.0,1.0,154.0,0.0,2.0,3.0,250.0,410.0,2.0,1018.0,1744252726.527732,0.0,2025-04-09 22:38:46.527,LEFT,19
177.0,14223.890212045933,2188.012264730008,-62337.13773931715,-59758.14876057491,-35660.911877264014,-33110.063744791005,-20676.458856637342,-21971.742447822387,0.0,0.0,0.0,193.0,1.0,155.0,0.0,2.0,3.0,251.0,411.0,2.0,1019.0,1744252726.5277407,0.0,2025-04-09 22:38:46.527,LEFT,19
178.0,14165.75332471768,2195.0754159778853,-62360.67412622859,-59758.97577511976,-35671.41719715801,-33131.74493691265,-20341.808538652487,-21983.410058428057,0.0,0.0,0.0,193.0,1.0,154.0,0.0,1.0,3.0,250.0,410.0,1.0,1018.0,1744252726.527754,0.0,2025-04-09 22:38:46.527,LEFT,19
179.0,14118.41232996134,2157.926816693165,-62379.6731090156,-59776.81246719509,-35705.95064234146,-33163.395007061365,-20417.580952355976,-22004.957140082974,0.0,0.0,0.0,193.0,1.0,155.0,0.0,2.0,3.0,252.0,411.0,2.0,1020.0,1744252726.527763,0.0,2025-04-09 22:38:46.527,LEFT,19
180.0,14247.58306116856,2180.7255960375783,-62384.523437562406,-59745.6541354244,-35746.49670678338,-33196.47558885522,-20185.122810020785,-22036.40604453159,0.0,0.0,0.0,193.0,1.0,155.0,0.0,2.0,3.0,252.0,411.0,2.0,1020.0,1744252726.5277717,0.0,2025-04-09 22:38:46.527,LEFT,19
181.0,14248.410075713406,2202.3620846703157,-62336.78011140587,-59761.725039687764,-35656.19565918394,-33098.105561507415,-20676.391801403977,-21942.506366074846,0.0,0.0,0.0,193.0,1.0,155.0,0.0,2.0,3.0,251.0,411.0,2.0,1019.0,1744252726.5277803,0.0,2025-04-09 22:38:46.527,LEFT,19
182.0,14190.42965059634,2207.525337639491,-62352.560442991315,-59740.71439989977,-35668.55617386773,-33119.60793967342,-20342.83671889743,-21960.700686061464,0.0,0.0,0.0,193.0,1.0,154.0,0.0,2.0,3.0,250.0,410.0,2.0,1018.0,1744252726.527789,0.0,2025-04-09 22:38:46.527,LEFT,19
183.0,14126.526013198616,2172.2319331445615,-62382.15415265014,-59789.28474060116,-35701.63675566158,-33154.18608834578,-20445.453577691744,-22004.68891914951,0.0,0.0,0.0,193.0,1.0,154.0,0.0,2.0,3.0,251.0,410.0,2.0,1019.0,1744252726.5277977,0.0,2025-04-09 22:38:46.527,LEFT,19
184.0,14237.0106860412,2186.1794216846733,-62375.44862931355,-59726.7445596152,-35743.36746255964,-33193.52515858712,-20149.42707412566,-22036.27193406486,0.0,0.0,0.0,193.0,1.0,154.0,0.0,2.0,3.0,249.0,410.0,2.0,1017.0,1744252726.5278063,0.0,2025-04-09 22:38:46.527,LEFT,19
185.0,14275.589796971059,2218.0083057890306,-62334.92491661607,-59763.51317924418,-35658.900220263036,-33103.98407029916,-20629.475489792287,-21964.76870355233,0.0,0.0,0.0,193.0,1.0,154.0,0.0,2.0,3.0,251.0,410.0,2.0,1019.0,1744252726.527815,0.0,2025-04-09 22:38:46.527,LEFT,19
186.0,14212.200249695808,2220.5564046569352,-62332.55563170381,-59720.64253337891,-35656.95561849542,-33112.723602381186,-20362.37214355137,-21965.43925588599,0.0,0.0,0.0,193.0,1.0,154.0,0.0,2.0,3.0,251.0,410.0,2.0,1019.0,1744252726.5278237,0.0,2025-04-09 22:38:46.527,LEFT,19
187.0,14136.114911569943,2186.313532151405,-62375.40392582464,-59794.91738020389,-35693.25485149084,-33144.64189346336,-20436.445824676255,-22005.180657527526,0.0,0.0,0.0,193.0,1.0,155.0,0.0,2.0,3.0,251.0,411.0,2.0,1019.0,1744252726.5278325,0.0,2025-04-09 22:38:46.527,LEFT,19
188.0,14210.322703161562,2180.0103402150085,-62378.64492877066,-59735.26057425268,-35748.284846339804,-33194.441580109786,-20175.824484327375,-22034.103814852693,0.0,0.0,0.0,193.0,1.0,154.0,0.0,2.0,3.0,249.0,410.0,2.0,1017.0,1744252726.527841,0.0,2025-04-09 22:38:46.527,LEFT,19
189.0,14275.142762081954,2200.3280759248823,-62373.68284150158,-59798.426604083375,-35700.139188783076,-33137.80225966004,-20556.83232031254,-21994.697689377987,0.0,0.0,0.0,193.0,1.0,155.0,0.0,2.0,3.0,252.0,411.0,2.0,1020.0,1744252726.52785,0.0,2025-04-09 22:38:46.527,LEFT,19
190.0,14227.287677203141,2216.3989801882485,-62336.33307651676,-59729.31501022757,-35656.32976965067,-33104.63227088836,-20450.57212717201,-21956.900889504064,0.0,0.0,0.0,193.0,1.0,155.0,0.0,2.0,3.0,251.0,411.0,2.0,1019.0,1744252726.5278585,0.0,2025-04-09 22:38:46.527,LEFT,19
191.0,14153.75043794518,2197.422349145693,-62376.76738223641,-59793.956255192315,-35683.75536009733,-33131.56612295701,-20410.115469707904,-21991.74725910989,0.0,0.0,0.0,193.0,1.0,155.0,0.0,2.0,3.0,252.0,411.0,2.0,1020.0,1744252726.5278673,0.0,2025-04-09 22:38:46.527,LEFT,19
192.0,14184.081755171032,2170.2649796324945,-62385.551617807345,-59748.42575173685,-35742.5851515037,-33193.323992887024,-20239.638714747278,-22044.98911440243,0.0,0.0,0.0,193.0,1.0,155.0,0.0,2.0,3.0,252.0,411.0,2.0,1020.0,1744252726.527876,0.0,2025-04-09 22:38:46.527,LEFT,19
193.0,14292.06303263462,2212.465073164114,-62371.82764671179,-59783.808563209604,-35709.571624943215,-33147.07823360899,-20445.61003990293,-22010.992111085907,0.0,0.0,0.0,193.0,1.0,154.0,0.0,2.0,3.0,251.0,410.0,2.0,1019.0,1744252726.5278888,0.0,2025-04-09 22:38:46.527,LEFT,19
194.0,14251.561671681604,2231.888739095776,-62316.350616973716,-59717.69210311081,-35641.555266565716,-33084.02396250057,-20529.719654288252,-21946.976714965906,0.0,0.0,0.0,193.0,1.0,154.0,0.0,2.0,3.0,249.0,410.0,2.0,1017.0,1744252726.5278976,0.0,2025-04-09 22:38:46.527,LEFT,19
195.0,14168.94962417479,2207.190061472662,-62373.92871069059,-59786.73664173325,-35683.420083930505,-33129.420355489296,-20370.709344233197,-21994.5412271668,0.0,0.0,0.0,193.0,1.0,154.0,0.0,2.0,3.0,251.0,410.0,2.0,1019.0,1744252726.5279064,0.0,2025-04-09 22:38:46.527,LEFT,19
196.0,14165.596862506494,2175.182363412662,-62387.42916434159,-59764.76487693368,-35739.81353519124,-33179.689428769285,-20331.839660625417,-22035.31080905328,0.0,0.0,0.0,193.0,1.0,154.0,0.0,2.0,3.0,251.0,410.0,2.0,1019.0,1744252726.5279148,0.0,2025-04-09 22:38:46.527,LEFT,19
197.0,14287.212704087819,2203.7478928265446,-62388.36793760872,-59783.85326669851,-35738.83005843521,-33170.391103075875,-20336.980561850138,-22034.595553230713,0.0,0.0,0.0,193.0,1.0,155.0,0.0,2.0,3.0,250.0,411.0,2.0,1018.0,1744252726.5279236,0.0,2025-04-09 22:38:46.527,LEFT,19
198.0,14261.016459586199,2228.7818466164886,-62323.63728566615,-59739.75327488819,-35645.93620847895,-33087.756703824605,-20626.07802463508,-21963.40524714056,0.0,0.0,0.0,193.0,1.0,154.0,0.0,2.0,3.0,249.0,410.0,2.0,1017.0,1744252726.5279324,0.0,2025-04-09 22:38:46.527,LEFT,19
199.0,14193.491839586717,2229.117122783318,-62363.62455649669,-59773.41500203789,-35671.64071460256,-33123.54184669755,-20352.045637613017,-22001.425564459034,0.0,0.0,0.0,193.0,1.0,155.0,0.0,2.0,3.0,252.0,411.0,2.0,1020.0,1744252726.527941,0.0,2025-04-09 22:38:46.527,LEFT,19
200.0,14151.17998733282,2174.2659418899943,-62390.40194635415,-59788.770650478684,-35726.24602630687,-33182.081065426,-20398.425507357777,-22055.628544763156,0.0,0.0,0.0,193.0,1.0,154.0,0.0,2.0,3.0,252.0,410.0,2.0,1020.0,1744252726.5279498,0.0,2025-04-09 22:38:46.527,LEFT,19
201.0,14286.318634309608,2208.48646265107,-62384.523437562406,-59768.2070455798,-35740.97582590292,-33189.56889981853,-20232.150880354748,-22052.298134839315,0.0,0.0,0.0,193.0,1.0,155.0,0.0,2.0,3.0,252.0,411.0,2.0,1020.0,1744252726.5279584,0.0,2025-04-09 22:38:46.527,LEFT,19
202.0,14279.233131317274,2239.3318699993933,-62321.49151819844,-59751.62205119396,-35644.93037997847,-33084.180424711754,-20664.835949520584,-21949.681276044998,0.0,0.0,0.0,193.0,1.0,154.0,0.0,2.0,3.0,249.0,410.0,2.0,1017.0,1744252726.5279672,0.0,2025-04-09 22:38:46.527,LEFT,19
203.0,14210.09918571701,2233.0286780629967,-62353.745085447445,-59761.76974317667,-35669.96433376841,-33123.40773623082,-20331.996122836605,-21981.554863638266,0.0,0.0,0.0,193.0,1.0,155.0,0.0,2.0,3.0,252.0,411.0,2.0,1020.0,1744252726.5279758,0.0,2025-04-09 22:38:46.527,LEFT,19
204.0,14141.792254661592,2181.373796626782,-62389.3737661092,-59808.149612921436,-35718.62408144761,-33178.12480665741,-20440.111510766925,-22040.541117255823,0.0,0.0,0.0,193.0,1.0,155.0,0.0,2.0,3.0,251.0,411.0,2.0,1019.0,1744252726.5279844,0.0,2025-04-09 22:38:46.527,LEFT,19
205.0,14263.676317176381,2201.4009596587375,-62386.55744630784,-59763.91551064438,-35756.331474343715,-33211.58536810701,-20182.261786730505,-22061.909384955095,0.0,0.0,0.0,193.0,1.0,154.0,0.0,2.0,3.0,250.0,410.0,2.0,1018.0,1744252726.5279932,0.0,2025-04-09 22:38:46.527,LEFT,19
206.0,14288.531457010682,2239.175407788206,-62330.76749214739,-59776.49954277272,-35660.37543539708,-33106.93450056726,-20681.867978795526,-21973.307069934257,0.0,0.0,0.0,193.0,1.0,154.0,0.0,2.0,3.0,251.0,410.0,2.0,1019.0,1744252726.5280018,0.0,2025-04-09 22:38:46.528,LEFT,19
207.0,14222.9067352899,2237.767247887522,-62348.850053411734,-59752.96315586128,-35676.0216565158,-33128.52628571109,-20356.247765570613,-21981.845436316187,0.0,0.0,0.0,193.0,1.0,154.0,0.0,2.0,3.0,250.0,410.0,2.0,1018.0,1744252726.5280104,0.0,2025-04-09 22:38:46.528,LEFT,19
208.0,14161.238272337709,2212.1297969972848,-62370.55359727784,-59798.5160110612,-35695.55708116974,-33147.92759989829,-20465.458388979245,-22005.11360229416,0.0,0.0,0.0,193.0,1.0,154.0,0.0,2.0,3.0,252.0,410.0,2.0,1020.0,1744252726.5280232,0.0,2025-04-09 22:38:46.528,LEFT,19
209.0,14261.731715408769,2218.7682651005107,-62368.787809465866,-59737.42869346484,-35744.41799454904,-33197.861397011446,-20168.716629590588,-22047.17958535905,0.0,0.0,0.0,193.0,1.0,154.0,0.0,2.0,3.0,250.0,410.0,2.0,1018.0,1744252726.528032,0.0,2025-04-09 22:38:46.528,LEFT,19
210.0,14309.609152032037,2247.892588125776,-62336.78011140587,-59781.28281608615,-35668.51147037881,-33112.924768081284,-20625.586286257065,-21979.565558381746,0.0,0.0,0.0,193.0,1.0,155.0,0.0,1.0,3.0,252.0,411.0,1.0,1020.0,1744252726.5280404,0.0,2025-04-09 22:38:46.528,LEFT,19
211.0,14245.571404167582,2247.1996840476613,-62329.694608413534,-59732.13133002893,-35657.96144699591,-33111.44955294723,-20395.542132323044,-21968.09911347617,0.0,0.0,0.0,193.0,1.0,155.0,0.0,2.0,3.0,252.0,411.0,2.0,1020.0,1744252726.5280492,0.0,2025-04-09 22:38:46.528,LEFT,19
212.0,14163.674612483337,2215.7731313434997,-62374.86748395771,-59805.08742393106,-35693.74658986885,-33145.53596324158,-20440.871470078408,-22010.612131430167,0.0,0.0,0.0,193.0,1.0,154.0,0.0,2.0,3.0,249.0,410.0,2.0,1017.0,1744252726.5280576,0.0,2025-04-09 22:38:46.528,LEFT,19
213.0,14220.58215386655,2200.059854991419,-62378.33200434828,-59748.15753080339,-35750.29650334078,-33205.95272850427,-20213.53187722348,-22068.19022514704,0.0,0.0,0.0,193.0,1.0,155.0,0.0,2.0,3.0,252.0,411.0,2.0,1020.0,1744252726.5280666,0.0,2025-04-09 22:38:46.528,LEFT,19
214.0,14298.656797248936,2228.2007012606505,-62365.81502745331,-59800.8182407401,-35702.374363228606,-33145.31244579702,-20541.45432012729,-22014.92601811004,0.0,0.0,0.0,193.0,1.0,155.0,0.0,1.0,3.0,251.0,411.0,1.0,1019.0,1744252726.5280752,0.0,2025-04-09 22:38:46.528,LEFT,19
215.0,14255.719096150291,2248.0266985925077,-62315.83652685124,-59725.00112354769,-35646.45029860143,-33093.67991610526,-20482.065735109536,-21951.82704351271,0.0,0.0,0.0,193.0,1.0,154.0,0.0,2.0,3.0,250.0,410.0,2.0,1018.0,1744252726.528084,0.0,2025-04-09 22:38:46.528,LEFT,19
216.0,14183.321795859552,2230.34646872836,-62357.99191689395,-59788.25656035621,-35673.96529602591,-33120.3678989849,-20398.224341657682,-21984.326479950727,0.0,0.0,0.0,193.0,1.0,154.0,0.0,2.0,3.0,251.0,410.0,2.0,1019.0,1744252726.5280929,0.0,2025-04-09 22:38:46.528,LEFT,19
217.0,14207.90871476039,2210.140491740762,-62366.35146932024,-59746.01176333568,-35731.8339624207,-33177.47660606821,-20266.080828437905,-22033.63442821913,0.0,0.0,0.0,193.0,1.0,154.0,0.0,2.0,3.0,249.0,410.0,2.0,1017.0,1744252726.5281012,0.0,2025-04-09 22:38:46.528,LEFT,19
218.0,14303.663588006924,2230.614689661824,-62373.30286184584,-59792.95042669182,-35722.982671616395,-33159.841079692975,-20410.5178011081,-22024.470212992455,0.0,0.0,0.0,193.0,1.0,155.0,0.0,2.0,3.0,251.0,411.0,2.0,1019.0,1744252726.52811,0.0,2025-04-09 22:38:46.528,LEFT,19
219.0,14262.268157275696,2245.702117169156,-62317.42350070757,-59735.46173995278,-35650.02657771428,-33093.81402657199,-20576.323041477568,-21964.8357587857,0.0,0.0,0.0,193.0,1.0,154.0,0.0,2.0,3.0,248.0,410.0,2.0,1016.0,1744252726.5281184,0.0,2025-04-09 22:38:46.528,LEFT,19
220.0,14191.860162241479,2234.570948430413,-62366.15030362014,-59788.48007780076,-35682.794235085756,-33130.962625856715,-20384.880350217863,-22004.39834647159,0.0,0.0,0.0,193.0,1.0,155.0,0.0,2.0,3.0,252.0,411.0,2.0,1020.0,1744252726.5281272,0.0,2025-04-09 22:38:46.528,LEFT,19
221.0,14178.069135912554,2199.2104887021173,-62373.50402754594,-59766.28479555665,-35721.26158729334,-33171.151062387355,-20352.73854169113,-22024.671378692554,0.0,0.0,0.0,193.0,1.0,155.0,0.0,2.0,3.0,252.0,411.0,2.0,1020.0,1744252726.5281358,0.0,2025-04-09 22:38:46.528,LEFT,19
222.0,14298.098003637553,2225.1385122702736,-62378.06378341482,-59776.94657766182,-35731.29752055377,-33172.71568449923,-20295.093392740895,-22035.51197475338,0.0,0.0,0.0,193.0,1.0,154.0,0.0,2.0,3.0,251.0,410.0,2.0,1019.0,1744252726.5281444,0.0,2025-04-09 22:38:46.528,LEFT,19
223.0,14278.070840605598,2250.6418526937787,-62314.27190473937,-59743.37425748995,-35641.19763865443,-33081.52056712157,-20648.675638279397,-21950.731808034398,0.0,0.0,0.0,193.0,1.0,154.0,0.0,2.0,3.0,250.0,410.0,2.0,1018.0,1744252726.5281572,0.0,2025-04-09 22:38:46.528,LEFT,19
224.0,14223.934915534845,2258.4873149975915,-62334.23201253796,-59750.83974013803,-35647.09849919063,-33096.67504986227,-20334.946553104706,-21953.458720857947,0.0,0.0,0.0,193.0,1.0,155.0,0.0,2.0,3.0,252.0,411.0,2.0,1020.0,1744252726.5281656,0.0,2025-04-09 22:38:46.528,LEFT,19
225.0,14176.728031245237,2210.989858030064,-62358.6177657387,-59768.18469383535,-35695.49002593637,-33144.64189346336,-20386.17675139627,-22002.87842784863,0.0,0.0,0.0,193.0,1.0,154.0,0.0,2.0,3.0,249.0,410.0,2.0,1017.0,1744252726.5281744,0.0,2025-04-09 22:38:46.528,LEFT,19
226.0,14292.085384379076,2223.2609657360276,-62377.43793457007,-59762.842626910526,-35743.76979395984,-33187.9819259622,-20195.80694387042,-22049.861794693687,0.0,0.0,0.0,193.0,1.0,155.0,0.0,2.0,3.0,252.0,411.0,2.0,1020.0,1744252726.5281832,0.0,2025-04-09 22:38:46.528,LEFT,19
227.0,14285.268102320208,2246.931463114198,-62322.69851239902,-59766.35185079001,-35649.33367363616,-33095.13277949486,-20682.784400318196,-21968.657907087556,0.0,0.0,0.0,193.0,1.0,154.0,0.0,2.0,3.0,249.0,410.0,2.0,1017.0,1744252726.5281916,0.0,2025-04-09 22:38:46.528,LEFT,19
228.0,14229.679313859859,2258.8225911644213,-62329.493442713436,-59743.463664467774,-35648.10432769112,-33104.98989879965,-20328.553954190487,-21957.079703459705,0.0,0.0,0.0,193.0,1.0,155.0,0.0,2.0,3.0,252.0,411.0,2.0,1020.0,1744252726.5282004,0.0,2025-04-09 22:38:46.528,LEFT,19
229.0,14156.410295535363,2208.374703928793,-62366.28441408687,-59793.08453715856,-35695.49002593637,-33152.576762745,-20432.936600796773,-22010.813297130266,0.0,0.0,0.0,193.0,1.0,154.0,0.0,2.0,3.0,251.0,410.0,2.0,1019.0,1744252726.5282092,0.0,2025-04-09 22:38:46.528,LEFT,19
230.0,14275.656852204425,2225.026753547997,-62366.463228042514,-59744.49184471272,-35741.13228811411,-33195.08978069899,-20161.072332986874,-22050.152367371604,0.0,0.0,0.0,193.0,1.0,155.0,0.0,2.0,3.0,252.0,411.0,2.0,1020.0,1744252726.528218,0.0,2025-04-09 22:38:46.528,LEFT,19
231.0,14298.679148993391,2249.121934070818,-62327.258268267906,-59777.77359220667,-35661.00128424183,-33103.02294528758,-20670.379182145498,-21973.61999435663,0.0,0.0,0.0,193.0,1.0,155.0,0.0,2.0,3.0,252.0,411.0,2.0,1020.0,1744252726.5282266,0.0,2025-04-09 22:38:46.528,LEFT,19
232.0,14234.239069728741,2249.0101753485415,-62331.90743111461,-59740.334420244035,-35663.370569154096,-33114.02000355959,-20368.74239072113,-21973.105904234162,0.0,0.0,0.0,193.0,1.0,154.0,0.0,2.0,3.0,250.0,410.0,2.0,1018.0,1744252726.5282352,0.0,2025-04-09 22:38:46.528,LEFT,19
233.0,14162.869949682947,2217.6506778777457,-62365.59151000876,-59802.628732040976,-35692.24902299035,-33142.96551262921,-20457.300002253058,-22006.633520917123,0.0,0.0,0.0,193.0,1.0,154.0,0.0,2.0,3.0,252.0,410.0,2.0,1020.0,1744252726.528244,0.0,2025-04-09 22:38:46.528,LEFT,19
234.0,14254.0650670606,2213.4261981756927,-62363.51279777441,-59738.658039409886,-35742.562799759246,-33195.44740861028,-20177.79143783944,-22043.446844035014,0.0,0.0,0.0,193.0,1.0,155.0,0.0,2.0,3.0,250.0,411.0,2.0,1018.0,1744252726.5719988,0.0,2025-04-09 22:38:46.571,LEFT,19
235.0,14305.54113454117,2232.693401896167,-62342.88213764217,-59795.02913892617,-35679.35206643964,-33127.22988453268,-20604.106259835513,-21994.049488788783,0.0,0.0,0.0,193.0,1.0,154.0,0.0,2.0,3.0,249.0,410.0,2.0,1017.0,1744252726.5720327,0.0,2025-04-09 22:38:46.572,LEFT,19
236.0,14256.769628139691,2254.709870184645,-62310.47210818197,-59725.4481584368,-35644.93037997847,-33100.07251501948,-20422.408929158322,-21956.20798542595,0.0,0.0,0.0,193.0,1.0,154.0,0.0,2.0,3.0,251.0,410.0,2.0,1019.0,1744252726.572044,0.0,2025-04-09 22:38:46.572,LEFT,19
237.0,14186.741612761214,2238.214282776628,-62344.513814987404,-59785.2614265992,-35668.69028433446,-33117.10454429442,-20428.55565888353,-21978.559729881257,0.0,0.0,0.0,193.0,1.0,154.0,0.0,2.0,3.0,250.0,410.0,2.0,1018.0,1744252726.572055,0.0,2025-04-09 22:38:46.572,LEFT,19
238.0,14233.210889483797,2223.6632971362233,-62348.87240515619,-59727.92920207134,-35730.045822864275,-33175.59905953396,-20215.00709235753,-22028.73939618342,0.0,0.0,0.0,193.0,1.0,154.0,0.0,2.0,3.0,250.0,410.0,2.0,1018.0,1744252726.5720954,0.0,2025-04-09 22:38:46.572,LEFT,19
239.0,14317.432262591394,2247.6467189367677,-62350.23586156796,-59788.18950512284,-35699.915671338524,-33141.06561435051,-20490.492342769187,-22010.858000619173,0.0,0.0,0.0,193.0,1.0,155.0,0.0,4.0,3.0,252.0,411.0,4.0,1020.0,1744252726.5721045,0.0,2025-04-09 22:38:46.572,LEFT,19
240.0,14268.414887000907,2257.5038382415582,-62307.02993953585,-59726.85631833748,-35644.57275206718,-33100.765419097595,-20498.06958413954,-21970.35663966616,0.0,0.0,0.0,193.0,1.0,154.0,0.0,13.0,3.0,250.0,410.0,13.0,1018.0,1744252726.5721138,0.0,2025-04-09 22:38:46.572,LEFT,19
241.0,14199.683272800838,2249.0995823263625,-62345.02790510988,-59782.892141686934,-35668.35500816763,-33120.1667332848,-20392.56935031049,-21992.59662539919,0.0,0.0,0.0,193.0,1.0,155.0,0.0,24.0,3.0,251.0,411.0,24.0,1019.0,1744252726.5721228,0.0,2025-04-09 22:38:46.572,LEFT,19
242.0,14204.62300832546,2219.4388174341702,-62360.249443083936,-59751.10796107149,-35734.3373577997,-33177.99069619068,-20303.676462611733,-22034.237925319427,0.0,0.0,0.0,193.0,1.0,155.0,0.0,34.0,3.0,250.0,411.0,34.0,1018.0,1744252726.572132,0.0,2025-04-09 22:38:46.572,LEFT,19
243.0,14312.380768344496,2246.1044485693515,-62363.42339079659,-59787.854228956014,-35727.07304085172,-33165.54077452907,-20393.530475322066,-22024.179640314538,0.0,0.0,0.0,193.0,1.0,155.0,0.0,39.0,3.0,251.0,411.0,39.0,1019.0,1744252727.0404484,0.0,2025-04-09 22:38:47.040,LEFT,19
244.0,14278.562578983616,2261.862428410343,-62301.665520866576,-59734.00887656318,-35641.95759796591,-33091.109465492904,-20598.227751043767,-21949.43540685599,0.0,0.0,0.0,193.0,1.0,155.0,0.0,39.0,3.0,250.0,411.0,39.0,1018.0,1744252727.0404863,0.0,2025-04-09 22:38:47.040,LEFT,19
245.0,14198.252761155696,2241.1647130447286,-62350.99582087944,-59784.12148763198,-35677.54157513876,-33130.89557062335,-20353.856128913896,-21986.718116607444,0.0,0.0,0.0,193.0,1.0,155.0,0.0,38.0,3.0,251.0,411.0,38.0,1019.0,1744252727.0405073,0.0,2025-04-09 22:38:47.040,LEFT,19
246.0,14166.848560195991,2196.0365409894634,-62367.20083560954,-59779.02528989617,-35725.30725303975,-33178.46008282424,-20367.22247209817,-22026.817146160265,0.0,0.0,0.0,193.0,1.0,155.0,0.0,38.0,3.0,252.0,411.0,38.0,1020.0,1744252727.040527,0.0,2025-04-09 22:38:47.040,LEFT,19
247.0,14301.942503683866,2228.4242187052037,-62363.602204752235,-59774.19731309382,-35732.45981126545,-33185.2326613942,-20264.24798539257,-22041.993980645417,0.0,0.0,0.0,193.0,1.0,154.0,0.0,38.0,3.0,250.0,410.0,38.0,1018.0,1744252727.040545,0.0,2025-04-09 22:38:47.040,LEFT,19
248.0,14281.289491807163,2246.216207291628,-62306.85112558021,-59756.69589718532,-35645.48917358985,-33104.27464297708,-20651.648420291953,-21975.765761824343,0.0,0.0,0.0,193.0,1.0,155.0,0.0,38.0,3.0,252.0,411.0,38.0,1020.0,1744252727.0405624,0.0,2025-04-09 22:38:47.040,LEFT,19
249.0,14215.24008694173,2241.63409967829,-62336.757759661414,-59766.15068508991,-35664.30934242122,-33125.82172463199,-20330.74442514711,-21981.130180493616,0.0,0.0,0.0,193.0,1.0,154.0,0.0,39.0,3.0,250.0,410.0,39.0,1018.0,1744252727.040583,0.0,2025-04-09 22:38:47.040,LEFT,19
250.0,14164.367516561451,2198.830509046377,-62363.64690824115,-59791.07288015758,-35711.47152322192,-33165.27255359561,-20415.882219777373,-22010.07568956324,0.0,0.0,0.0,193.0,1.0,155.0,0.0,39.0,3.0,252.0,411.0,39.0,1020.0,1744252727.0406003,0.0,2025-04-09 22:38:47.040,LEFT,19
251.0,14287.927959910388,2225.317326225916,-62366.91026293162,-59760.56274897609,-35749.134212629106,-33194.95567023226,-20191.09072579035,-22039.02119863286,0.0,0.0,0.0,193.0,1.0,154.0,0.0,39.0,3.0,249.0,410.0,39.0,1017.0,1744252727.0406132,0.0,2025-04-09 22:38:47.040,LEFT,19
252.0,14291.794811701157,2253.078192839407,-62312.39435820513,-59770.48692351424,-35652.88760100456,-33095.244538217135,-20677.08470548209,-21954.688066802988,0.0,0.0,0.0,193.0,1.0,154.0,0.0,39.0,3.0,250.0,410.0,39.0,1018.0,1744252727.040653,0.0,2025-04-09 22:38:47.040,LEFT,19
253.0,14224.404302168407,2247.0879253253847,-62334.92491661607,-59760.56274897609,-35667.59504885615,-33122.24544551915,-20338.209907795183,-21973.73175307891,0.0,0.0,0.0,193.0,1.0,155.0,0.0,40.0,3.0,252.0,411.0,40.0,1020.0,1744252727.040662,0.0,2025-04-09 22:38:47.040,LEFT,19
254.0,14153.862196667456,2210.095788251852,-62365.837379197765,-59809.37895886647,-35701.34618298366,-33152.95674240074,-20448.359304470934,-22012.847305875697,0.0,0.0,0.0,193.0,1.0,154.0,0.0,40.0,3.0,249.0,410.0,40.0,1017.0,1744252727.040671,0.0,2025-04-09 22:38:47.040,LEFT,19
255.0,14263.452799731827,2221.9869163020753,-62366.887911187165,-59757.09822858551,-35751.54820103028,-33205.684507570804,-20169.297774946426,-22068.346687358226,0.0,0.0,0.0,193.0,1.0,155.0,0.0,40.0,3.0,252.0,411.0,40.0,1020.0,1744252727.0406804,0.0,2025-04-09 22:38:47.040,LEFT,19
0.0,14289.716099466814,2237.9460618431644,-62338.94823061803,-59807.724929776785,-35675.77578732679,-33127.051070577036,-20667.249937921755,-21997.692823135,0.0,0.0,0.0,193.0,1.0,155.0,0.0,40.0,3.0,251.0,411.0,40.0,1019.0,1744252727.0406892,0.0,2025-04-09 22:38:47.040,LEFT,19
1.0,14236.876575574468,2239.465980466125,-62320.77626237587,-59747.330516258546,-35653.02171147129,-33107.58270115646,-20377.705440247708,-21951.849395257163,0.0,0.0,0.0,193.0,1.0,155.0,0.0,41.0,3.0,250.0,411.0,41.0,1018.0,1744252727.0406983,0.0,2025-04-09 22:38:47.040,LEFT,19
2.0,14160.880644426423,2212.9344597976756,-62357.99191689395,-59811.904705989924,-35680.894336807054,-33137.55639047103,-20436.33406595398,-21985.98050904042,0.0,0.0,0.0,193.0,1.0,155.0,0.0,41.0,3.0,251.0,411.0,41.0,1019.0,1744252727.040707,0.0,2025-04-09 22:38:47.040,LEFT,19
3.0,14238.575308153071,2210.2746022074944,-62354.99678313694,-59745.58708019103,-35729.17410483052,-33190.12769342991,-20175.109228504807,-22034.349684041703,0.0,0.0,0.0,193.0,1.0,154.0,0.0,41.0,3.0,249.0,410.0,41.0,1017.0,1744252727.0407162,0.0,2025-04-09 22:38:47.040,LEFT,19
4.0,14304.065919407121,2234.258024008039,-62339.23880329595,-59798.67247327238,-35677.3180576942,-33122.75953564162,-20561.68264885934,-21991.479038176425,0.0,0.0,0.0,193.0,1.0,155.0,0.0,41.0,3.0,252.0,411.0,41.0,1020.0,1744252727.040725,0.0,2025-04-09 22:38:47.040,LEFT,19
5.0,14245.124369278476,2242.9081491122424,-62316.708244885,-59740.15560628839,-35651.121813192585,-33103.09000052095,-20435.842327575963,-21953.90575574705,0.0,0.0,0.0,193.0,1.0,155.0,0.0,41.0,3.0,251.0,411.0,41.0,1019.0,1744252727.040734,0.0,2025-04-09 22:38:47.040,LEFT,19
6.0,14163.205225849775,2216.376628443793,-62365.211530353015,-59814.07282520209,-35687.77867409929,-33137.77990791558,-20413.490583120656,-21991.523741665333,0.0,0.0,0.0,193.0,1.0,154.0,0.0,42.0,3.0,250.0,410.0,42.0,1018.0,1744252727.0407429,0.0,2025-04-09 22:38:47.040,LEFT,19
7.0,14206.344092648518,2195.9024305227317,-62366.53028327588,-59761.68033619885,-35740.819363691735,-33192.45227485326,-20246.590107272878,-22042.038684134328,0.0,0.0,0.0,193.0,1.0,155.0,0.0,42.0,3.0,252.0,411.0,42.0,1020.0,1744252727.0407517,0.0,2025-04-09 22:38:47.040,LEFT,19
8.0,14303.529477540193,2226.5466721709577,-62361.34467856225,-59807.657874543416,-35708.945776098466,-33153.046149378555,-20457.18824353078,-22014.031948331827,0.0,0.0,0.0,193.0,1.0,155.0,0.0,42.0,3.0,250.0,411.0,42.0,1018.0,1744252727.0407605,0.0,2025-04-09 22:38:47.040,LEFT,19
9.0,14251.986354826255,2239.734201399589,-62315.68006464006,-59750.05742908209,-35652.0158829708,-33099.82664583047,-20528.602067065487,-21949.77068302282,0.0,0.0,0.0,193.0,1.0,155.0,0.0,42.0,3.0,250.0,411.0,42.0,1018.0,1744252727.0407696,0.0,2025-04-09 22:38:47.040,LEFT,19
10.0,14185.825191238546,2233.6545269077455,-62349.49825400094,-59798.69482501684,-35668.891450034556,-33121.97722458568,-20366.64132674233,-21973.530587378813,0.0,0.0,0.0,193.0,1.0,155.0,0.0,42.0,3.0,252.0,411.0,42.0,1020.0,1744252727.0407789,0.0,2025-04-09 22:38:47.040,LEFT,19
11.0,14190.317891874063,2203.345561426349,-62353.07453311379,-59767.60354847951,-35716.74653491337,-33174.99556243367,-20295.20515146317,-22027.89002989412,0.0,0.0,0.0,193.0,1.0,154.0,0.0,42.0,3.0,250.0,410.0,42.0,1018.0,1744252727.0407944,0.0,2025-04-09 22:38:47.040,LEFT,19
12.0,14302.54600078416,2225.697305881656,-62365.18917860856,-59798.53836280565,-35729.26351180834,-33175.71081825624,-20330.967942591662,-22040.31759981127,0.0,0.0,0.0,193.0,1.0,155.0,0.0,42.0,3.0,252.0,411.0,42.0,1020.0,1744252727.0408032,0.0,2025-04-09 22:38:47.040,LEFT,19
13.0,14273.220512058797,2247.1102770698403,-62304.392433690125,-59754.34896401751,-35643.365757866595,-33088.85193930291,-20614.298655307135,-21946.30616263225,0.0,0.0,0.0,193.0,1.0,154.0,0.0,42.0,3.0,249.0,410.0,42.0,1017.0,1744252727.0408123,0.0,2025-04-09 22:38:47.040,LEFT,19
14.0,14197.783374522136,2240.740029900078,-62345.7655126769,-59792.145763891436,-35667.3715314116,-33126.02289033209,-20332.845489125906,-21970.49075013289,0.0,0.0,0.0,193.0,1.0,154.0,0.0,42.0,3.0,250.0,410.0,42.0,1018.0,1744252727.0408213,0.0,2025-04-09 22:38:47.040,LEFT,19
15.0,14162.534673516117,2201.736235825567,-62355.80144593733,-59785.39553706593,-35706.73295339739,-33161.24923959366,-20371.201082611213,-22002.677262148532,0.0,0.0,0.0,193.0,1.0,155.0,0.0,42.0,3.0,252.0,411.0,42.0,1020.0,1744252727.0408304,0.0,2025-04-09 22:38:47.040,LEFT,19
16.0,14290.185486100376,2228.670087894212,-62356.606108737724,-59767.08945835703,-35727.341261785186,-33165.786643718086,-20214.649464446244,-22000.866770847653,0.0,0.0,0.0,193.0,1.0,154.0,0.0,43.0,3.0,249.0,410.0,43.0,1017.0,1744252727.0408392,0.0,2025-04-09 22:38:47.040,LEFT,19
17.0,14274.852189404035,2244.5845299463904,-62308.52750641436,-59764.094324600024,-35641.73408052136,-33087.08615149095,-20647.46864407881,-21936.650209027554,0.0,0.0,0.0,193.0,1.0,155.0,0.0,42.0,3.0,251.0,411.0,42.0,1019.0,1744252727.040848,0.0,2025-04-09 22:38:47.040,LEFT,19
18.0,14214.122499718966,2244.405715990748,-62332.30976251481,-59765.54718798962,-35656.17330743949,-33115.651680904826,-20321.222582009148,-21965.305145419257,0.0,0.0,0.0,193.0,1.0,154.0,0.0,43.0,3.0,250.0,410.0,43.0,1018.0,1744252727.0408566,0.0,2025-04-09 22:38:47.040,LEFT,19
19.0,14156.276185068631,2199.0987299798408,-62354.795617436845,-59793.28570285866,-35695.937060825476,-33147.458213264734,-20416.016330244103,-21996.508180678866,0.0,0.0,0.0,193.0,1.0,155.0,0.0,43.0,3.0,252.0,411.0,43.0,1020.0,1744252727.0408654,0.0,2025-04-09 22:38:47.040,LEFT,19
20.0,14272.035869602665,2211.05691326343,-62359.78005645038,-59758.238167552736,-35738.49478226838,-33190.57472831902,-20148.37654213626,-22027.398291516103,0.0,0.0,0.0,193.0,1.0,154.0,0.0,43.0,3.0,249.0,410.0,43.0,1017.0,1744252727.040874,0.0,2025-04-09 22:38:47.040,LEFT,19
21.0,14284.977529642289,2239.2201112771168,-62314.02603555036,-59780.36639456349,-35649.0654527027,-33105.436933688754,-20654.062408693124,-21966.333325664204,0.0,0.0,0.0,193.0,1.0,155.0,0.0,43.0,3.0,252.0,411.0,43.0,1020.0,1744252727.0408828,0.0,2025-04-09 22:38:47.040,LEFT,19
22.0,14222.19147946733,2246.663242180734,-62323.123195543674,-59746.548205202605,-35653.04406321574,-33117.35041348343,-20333.18076529274,-21967.339154164692,0.0,0.0,0.0,193.0,1.0,154.0,0.0,43.0,3.0,250.0,410.0,43.0,1018.0,1744252727.0408916,0.0,2025-04-09 22:38:47.040,LEFT,19
23.0,14153.929251900823,2214.8120063319216,-62353.119236602695,-59796.258484871214,-35683.08480776368,-33143.211381818226,-20438.211612488227,-21986.315785207247,0.0,0.0,0.0,193.0,1.0,154.0,0.0,43.0,3.0,248.0,410.0,43.0,1016.0,1744252727.0409005,0.0,2025-04-09 22:38:47.040,LEFT,19
24.0,14249.415904213894,2214.364971442815,-62364.42921929708,-59744.804769135095,-35743.90390442657,-33207.27148142713,-20151.975172993563,-22034.148518341604,0.0,0.0,0.0,193.0,1.0,155.0,0.0,43.0,3.0,252.0,411.0,43.0,1020.0,1744252727.0409093,0.0,2025-04-09 22:38:47.040,LEFT,19
25.0,14301.428413561394,2249.7254311711113,-62327.392378734636,-59776.745411961725,-35660.37543539708,-33114.08705879296,-20622.725262966786,-21956.00681972585,0.0,0.0,0.0,193.0,1.0,154.0,0.0,43.0,3.0,251.0,410.0,43.0,1019.0,1744252727.040918,0.0,2025-04-09 22:38:47.040,LEFT,19
26.0,14243.447988444328,2253.078192839407,-62312.014378549386,-59714.2946379536,-35641.80113575472,-33104.40875344381,-20381.41582982729,-21930.01174092433,0.0,0.0,0.0,193.0,1.0,154.0,0.0,43.0,3.0,250.0,410.0,43.0,1018.0,1744252727.0409312,0.0,2025-04-09 22:38:47.040,LEFT,19
27.0,14167.742629974204,2220.176425001195,-62357.5672337493,-59784.389708565446,-35674.457034403924,-33137.51168698212,-20431.41668217381,-21970.513101877346,0.0,0.0,0.0,193.0,1.0,155.0,0.0,43.0,3.0,252.0,411.0,43.0,1020.0,1744252727.0409403,0.0,2025-04-09 22:38:47.040,LEFT,19
28.0,14235.803691840612,2214.253212720539,-62352.828663924774,-59717.20036473279,-35722.714450682935,-33188.25014689567,-20186.910949577206,-22000.375032469634,0.0,0.0,0.0,193.0,1.0,154.0,0.0,43.0,3.0,250.0,410.0,43.0,1018.0,1744252727.0409489,0.0,2025-04-09 22:38:47.040,LEFT,19
29.0,14317.007579446743,2252.139419572284,-62329.09111131324,-59756.80765590759,-35665.2704674328,-33122.75953564162,-20518.38731984941,-21952.452892357458,0.0,0.0,0.0,193.0,1.0,155.0,0.0,43.0,3.0,252.0,411.0,43.0,1020.0,1744252727.0409577,0.0,2025-04-09 22:38:47.040,LEFT,19
30.0,14265.978546855278,2271.272512826027,-62290.8025730613,-59685.77381202863,-35623.31624309019,-33087.35437242441,-20451.19797601676,-21913.225580838392,0.0,0.0,0.0,193.0,1.0,154.0,0.0,43.0,3.0,249.0,410.0,43.0,1017.0,1744252727.0409665,0.0,2025-04-09 22:38:47.040,LEFT,19
31.0,14190.250836640696,2248.764306159533,-62340.177576563074,-59753.36548726148,-35655.72627255038,-33121.68665190776,-20393.84339974444,-21954.643363314077,0.0,0.0,0.0,193.0,1.0,155.0,0.0,43.0,3.0,252.0,411.0,43.0,1020.0,1744252727.040975,0.0,2025-04-09 22:38:47.040,LEFT,19
32.0,14211.060310728588,2214.8120063319216,-62353.02982962487,-59712.595905375,-35718.1323430696,-33185.32206837202,-20254.949659699163,-22015.507163465878,0.0,0.0,0.0,193.0,1.0,155.0,0.0,43.0,3.0,252.0,411.0,43.0,1020.0,1744252727.040984,0.0,2025-04-09 22:38:47.040,LEFT,19
33.0,14316.225268390808,2244.763343902033,-62352.001649379934,-59747.19640579181,-35697.56873817072,-33145.714777197216,-20417.17862095578,-21987.276910218825,0.0,0.0,0.0,193.0,1.0,154.0,0.0,43.0,3.0,249.0,410.0,43.0,1017.0,1744252727.0409925,0.0,2025-04-09 22:38:47.040,LEFT,19
34.0,14275.321576037595,2266.310425556949,-62295.36232893018,-59682.644567804884,-35623.67387100147,-33075.12796820736,-20559.089846502524,-21909.71635695891,0.0,0.0,0.0,193.0,1.0,155.0,0.0,43.0,3.0,251.0,411.0,43.0,1019.0,1744252727.041001,0.0,2025-04-09 22:38:47.041,LEFT,19
35.0,14201.650226312904,2255.335719029393,-62342.278640541874,-59734.83589110803,-35653.9157812495,-33107.87327383438,-20361.32161156197,-21937.81249973923,0.0,0.0,0.0,193.0,1.0,155.0,0.0,43.0,3.0,251.0,411.0,43.0,1019.0,1744252727.04101,0.0,2025-04-09 22:38:47.041,LEFT,19
36.0,14184.104106915487,2210.2746022074944,-62361.94817566255,-59721.804824090585,-35712.4773517224,-33164.40083556186,-20330.476204213646,-21992.149590510082,0.0,0.0,0.0,193.0,1.0,154.0,0.0,44.0,3.0,250.0,410.0,44.0,1018.0,1744252727.0410187,0.0,2025-04-09 22:38:47.041,LEFT,19
37.0,14309.005654931743,2243.1316665567956,-62359.15420760563,-59727.97390556025,-35712.76792440032,-33155.907172668834,-20297.708546842165,-21992.238997487904,0.0,0.0,0.0,193.0,1.0,154.0,0.0,43.0,3.0,252.0,410.0,43.0,1020.0,1744252727.0410273,0.0,2025-04-09 22:38:47.041,LEFT,19
38.0,14287.235055832274,2271.473678526125,-62293.66359635158,-59685.37148062843,-35622.53393203425,-33059.39234011082,-20622.099414122036,-21898.920464386996,0.0,0.0,0.0,193.0,1.0,155.0,0.0,43.0,3.0,252.0,411.0,43.0,1020.0,1744252727.041036,0.0,2025-04-09 22:38:47.041,LEFT,19
39.0,14211.462642128783,2255.670995196223,-62342.8150824088,-59721.29073396811,-35657.93909525145,-33103.53703541005,-20324.12830878834,-21934.079758415195,0.0,0.0,0.0,193.0,1.0,154.0,0.0,44.0,3.0,249.0,410.0,44.0,1017.0,1744252727.0410447,0.0,2025-04-09 22:38:47.041,LEFT,19
40.0,14171.587130020516,2216.1531109992397,-62361.74700996245,-59729.58323116103,-35700.58622367218,-33143.07727135149,-20395.60918755641,-21971.854206544664,0.0,0.0,0.0,193.0,1.0,155.0,0.0,44.0,3.0,252.0,411.0,44.0,1020.0,1744252727.0410535,0.0,2025-04-09 22:38:47.041,LEFT,19
41.0,14303.238904862274,2243.9139776127313,-62362.66343148511,-59706.78445181662,-35726.40248851806,-33163.529117528095,-20204.90410386373,-21993.177770755028,0.0,0.0,0.0,193.0,1.0,154.0,0.0,44.0,3.0,249.0,410.0,44.0,1017.0,1744252727.041067,0.0,2025-04-09 22:38:47.041,LEFT,19
42.0,14295.25933209173,2267.3162540574376,-62306.51584941338,-59702.649379092385,-35631.832257727656,-33066.58960182543,-20673.19550194687,-21917.181839606983,0.0,0.0,0.0,193.0,1.0,155.0,0.0,43.0,3.0,251.0,411.0,43.0,1019.0,1744252727.0410757,0.0,2025-04-09 22:38:47.041,LEFT,19
43.0,14233.344999950528,2269.7749459475217,-62327.30297175681,-59694.55804759957,-35646.69616779043,-33089.79071257004,-20337.27113452806,-21935.5773252937,0.0,0.0,0.0,193.0,1.0,155.0,0.0,43.0,3.0,251.0,411.0,43.0,1019.0,1744252727.0410843,0.0,2025-04-09 22:38:47.041,LEFT,19
44.0,14170.335432331018,2225.6302506482903,-62357.030791882375,-59737.741617887215,-35687.264583976816,-33130.78381190107,-20442.436092190277,-21975.899872291073,0.0,0.0,0.0,193.0,1.0,154.0,0.0,44.0,3.0,250.0,410.0,44.0,1018.0,1744252727.041093,0.0,2025-04-09 22:38:47.041,LEFT,19
45.0,14281.222436573797,2233.1627885297285,-62361.63525124017,-59695.87680052243,-35733.15271534356,-33177.94599270177,-20165.6097371113,-22017.317654766757,0.0,0.0,0.0,193.0,1.0,155.0,0.0,44.0,3.0,251.0,411.0,44.0,1019.0,1744252727.0411017,0.0,2025-04-09 22:38:47.041,LEFT,19
46.0,14302.16602112842,2259.4931434980804,-62318.36227397469,-59726.85631833748,-35645.19860091193,-33083.576927611466,-20675.98947000378,-21932.045749669764,0.0,0.0,0.0,193.0,1.0,155.0,0.0,44.0,3.0,251.0,411.0,44.0,1019.0,1744252727.0411105,0.0,2025-04-09 22:38:47.041,LEFT,19
47.0,14244.34205822254,2268.076213368918,-62315.68006464006,-59685.28207365061,-35640.12475492057,-33089.723657336675,-20363.288565074035,-21923.976769921395,0.0,0.0,0.0,193.0,1.0,154.0,0.0,44.0,3.0,250.0,410.0,44.0,1018.0,1744252727.041119,0.0,2025-04-09 22:38:47.041,LEFT,19
48.0,14161.417086293352,2223.730352369589,-62356.829626182276,-59752.60552795,-35674.255868703825,-33130.403832245334,-20447.91226958183,-21968.523796620822,0.0,0.0,0.0,193.0,1.0,155.0,0.0,44.0,3.0,252.0,411.0,44.0,1020.0,1744252727.041128,0.0,2025-04-09 22:38:47.041,LEFT,19
49.0,14251.986354826255,2222.769227358011,-62357.746047704946,-59693.95455049927,-35726.93893038499,-33183.64568753787,-20167.062600500896,-22013.428451231535,0.0,0.0,0.0,193.0,1.0,154.0,0.0,44.0,3.0,249.0,410.0,44.0,1017.0,1744252727.0411367,0.0,2025-04-09 22:38:47.041,LEFT,19
50.0,14309.430338076394,2254.799277162466,-62330.83454738076,-59740.58028943304,-35659.57077259669,-33104.051125532525,-20614.052786118125,-21955.693895303477,0.0,0.0,0.0,193.0,1.0,154.0,0.0,44.0,3.0,251.0,410.0,44.0,1019.0,1744252727.0411453,0.0,2025-04-09 22:38:47.041,LEFT,19
51.0,14249.304145491618,2259.917826642731,-62312.081433782754,-59683.493934094186,-35632.34634785013,-33093.07641900497,-20417.4691936337,-21932.559839792233,0.0,0.0,0.0,193.0,1.0,155.0,0.0,44.0,3.0,251.0,411.0,44.0,1019.0,1744252727.0411544,0.0,2025-04-09 22:38:47.041,LEFT,19
52.0,14172.905882943378,2235.1967972751618,-62349.25238481193,-59751.97967910525,-35654.765147538805,-33119.27266350659,-20430.634371117874,-21961.34888665067,0.0,0.0,0.0,193.0,1.0,154.0,0.0,44.0,3.0,249.0,410.0,44.0,1017.0,1744252727.041163,0.0,2025-04-09 22:38:47.041,LEFT,19
53.0,14217.698778831815,2209.9169742962094,-62362.64107974066,-59707.544411128096,-35723.764982672335,-33187.06550443954,-20215.454127246634,-22020.51395422387,0.0,0.0,0.0,193.0,1.0,155.0,0.0,44.0,3.0,251.0,411.0,44.0,1019.0,1744252727.0411716,0.0,2025-04-09 22:38:47.041,LEFT,19
54.0,14307.083404908588,2246.149152058262,-62348.648887711635,-59754.05839133959,-35679.240307717366,-33127.98984384416,-20515.593351792497,-21980.504331648866,0.0,0.0,0.0,193.0,1.0,154.0,0.0,44.0,3.0,250.0,410.0,44.0,1018.0,1744252727.0411804,0.0,2025-04-09 22:38:47.041,LEFT,19
55.0,14254.959136838812,2266.0645563679404,-62306.202924991005,-59687.897227751884,-35626.24432161383,-33081.051180488015,-20504.39512782039,-21928.00008392335,0.0,0.0,0.0,193.0,1.0,155.0,0.0,44.0,3.0,251.0,411.0,44.0,1019.0,1744252727.0411892,0.0,2025-04-09 22:38:47.041,LEFT,19
56.0,14177.912673701368,2243.9139776127313,-62353.23099532497,-59753.477245983755,-35656.55328709522,-33113.57296867049,-20399.967777725196,-21958.62197382712,0.0,0.0,0.0,193.0,1.0,154.0,0.0,44.0,3.0,250.0,410.0,44.0,1018.0,1744252727.0412028,0.0,2025-04-09 22:38:47.041,LEFT,19
57.0,14198.297464644607,2212.666238864212,-62354.661506970115,-59710.42778616283,-35705.83888361918,-33165.987809418184,-20289.863084538352,-22003.616035415656,0.0,0.0,0.0,193.0,1.0,154.0,0.0,44.0,3.0,249.0,410.0,44.0,1017.0,1744252727.0412116,0.0,2025-04-09 22:38:47.041,LEFT,19
58.0,14308.11158515353,2238.0354688209854,-62360.472960528496,-59747.97871684775,-35703.71546789593,-33155.54954475755,-20387.115524663393,-22007.907570351075,0.0,0.0,0.0,193.0,1.0,155.0,0.0,44.0,3.0,252.0,411.0,44.0,1020.0,1744252727.0412204,0.0,2025-04-09 22:38:47.041,LEFT,19
59.0,14264.838607888058,2254.8663323958317,-62305.24179997943,-59699.31896916855,-35628.8594757151,-33086.19208171273,-20597.35603301001,-21935.264400871325,0.0,0.0,0.0,193.0,1.0,154.0,0.0,44.0,3.0,249.0,410.0,44.0,1017.0,1744252727.0412288,0.0,2025-04-09 22:38:47.041,LEFT,19
60.0,14194.229447153743,2247.4679049811252,-62340.892832385645,-59734.76883587466,-35645.57858056767,-33100.51954990859,-20355.286640559036,-21934.079758415195,0.0,0.0,0.0,193.0,1.0,154.0,0.0,44.0,3.0,250.0,410.0,44.0,1018.0,1744252727.0412376,0.0,2025-04-09 22:38:47.041,LEFT,19
61.0,14182.494781314706,2213.9402882981644,-62346.413713266105,-59717.53564089962,-35684.78354034228,-33137.33287302648,-20349.4528352562,-21961.415941884035,0.0,0.0,0.0,193.0,1.0,155.0,0.0,44.0,3.0,251.0,411.0,44.0,1019.0,1744252727.0412464,0.0,2025-04-09 22:38:47.041,LEFT,19
62.0,14307.910419453434,2239.5777391884017,-62357.92486166059,-59728.28682998262,-35710.17512204351,-33156.354207557946,-20259.040028934483,-21985.377011940123,0.0,0.0,0.0,193.0,1.0,154.0,0.0,44.0,3.0,249.0,410.0,44.0,1017.0,1744252727.0412552,0.0,2025-04-09 22:38:47.041,LEFT,19
63.0,14281.602416229536,2257.5932452193792,-62300.43617492154,-59708.97492277324,-35622.109248889596,-33074.03273272905,-20648.85445223504,-21921.71924373141,0.0,0.0,0.0,193.0,1.0,155.0,0.0,44.0,3.0,251.0,411.0,44.0,1019.0,1744252727.041264,0.0,2025-04-09 22:38:47.041,LEFT,19
64.0,14211.015607239677,2252.340585272382,-62333.51675671539,-59724.01764679166,-35644.79626951173,-33101.815951086995,-20331.50438445859,-21947.759026021842,0.0,0.0,0.0,193.0,1.0,154.0,0.0,44.0,3.0,250.0,410.0,44.0,1018.0,1744252727.0412729,0.0,2025-04-09 22:38:47.041,LEFT,19
65.0,14160.344202559496,2207.502985895036,-62358.23778608296,-59744.82712087955,-35691.39965670105,-33141.55735272853,-20404.415774871803,-21980.861959560152,0.0,0.0,0.0,193.0,1.0,154.0,0.0,44.0,3.0,252.0,410.0,44.0,1020.0,1744252727.0412815,0.0,2025-04-09 22:38:47.041,LEFT,19
66.0,14286.028061631689,2229.8770820947984,-62359.17655935008,-59715.7475013432,-35727.520075740824,-33167.50772804114,-20192.14125777975,-22001.336157481215,0.0,0.0,0.0,193.0,1.0,154.0,0.0,44.0,3.0,250.0,410.0,44.0,1018.0,1744252727.04129,0.0,2025-04-09 22:38:47.041,LEFT,19
67.0,14295.907532680934,2264.2987685559715,-62294.892942296625,-59712.215925719254,-35622.5562837787,-33060.01818895557,-20685.46660965283,-21912.018586637805,0.0,0.0,0.0,193.0,1.0,154.0,0.0,44.0,3.0,252.0,410.0,44.0,1020.0,1744252727.0412989,0.0,2025-04-09 22:38:47.041,LEFT,19
68.0,14227.175918480865,2256.430954507703,-62319.25634375291,-59700.81653604705,-35637.75547000831,-33091.5117968931,-20330.74442514711,-21936.337284605183,0.0,0.0,0.0,193.0,1.0,154.0,0.0,44.0,3.0,251.0,410.0,44.0,1019.0,1744252727.0413077,0.0,2025-04-09 22:38:47.041,LEFT,19
69.0,14162.46761828275,2217.0024772885417,-62347.307783044314,-59745.296507513114,-35670.88075529108,-33126.87225662139,-20437.921039810306,-21975.519892635333,0.0,0.0,0.0,193.0,1.0,154.0,0.0,44.0,3.0,250.0,410.0,44.0,1018.0,1744252727.0413165,0.0,2025-04-09 22:38:47.041,LEFT,19
70.0,14268.325480023084,2222.0316197909856,-62355.13089360367,-59701.50944012516,-35726.15661932905,-33184.584460804996,-20153.405684638703,-22030.259314806382,0.0,0.0,0.0,193.0,1.0,155.0,0.0,44.0,3.0,252.0,411.0,44.0,1020.0,1744252727.041325,0.0,2025-04-09 22:38:47.041,LEFT,19
71.0,14299.64027400497,2251.9159021277314,-62315.68006464006,-59738.63568766543,-35644.4609933449,-33093.4116951718,-20658.286888395178,-21956.900889504064,0.0,0.0,0.0,193.0,1.0,154.0,0.0,44.0,3.0,250.0,410.0,44.0,1018.0,1744252727.041338,0.0,2025-04-09 22:38:47.041,LEFT,19
72.0,14242.553918666115,2259.761364431544,-62312.39435820513,-59692.43463187631,-35638.33661536415,-33092.87525330487,-20376.431390813756,-21935.174993893506,0.0,0.0,0.0,193.0,1.0,154.0,0.0,44.0,3.0,250.0,410.0,44.0,1018.0,1744252727.0413468,0.0,2025-04-09 22:38:47.041,LEFT,19
73.0,14169.329603830529,2227.798369860455,-62347.888928400156,-59757.813484408085,-35667.483290133874,-33123.67595716428,-20448.247545748658,-21979.096171748184,0.0,0.0,0.0,193.0,1.0,155.0,0.0,44.0,3.0,252.0,411.0,44.0,1020.0,1744252727.0413556,0.0,2025-04-09 22:38:47.041,LEFT,19
74.0,14246.979564068266,2230.5476344284575,-62348.60418422273,-59699.02839649063,-35723.966148372434,-33181.56697530353,-20182.552359408422,-22029.16407932807,0.0,0.0,0.0,193.0,1.0,154.0,0.0,44.0,3.0,248.0,410.0,44.0,1016.0,1744252727.0413647,0.0,2025-04-09 22:38:47.041,LEFT,19
75.0,14307.552791542148,2252.8099719059437,-62327.92882060156,-59748.984545348234,-35665.67279883299,-33102.4641516762,-20583.07326830307,-21960.901851761562,0.0,0.0,0.0,193.0,1.0,155.0,0.0,44.0,3.0,253.0,411.0,44.0,1021.0,1744252727.0413733,0.0,2025-04-09 22:38:47.041,LEFT,19
76.0,14256.30024150613,2257.995576619575,-62298.82684932076,-59682.57751257152,-35632.27929261676,-33072.91514550628,-20433.003656030138,-21917.025377395796,0.0,0.0,0.0,193.0,1.0,154.0,0.0,44.0,3.0,250.0,410.0,44.0,1018.0,1744252727.041382,0.0,2025-04-09 22:38:47.041,LEFT,19
77.0,14187.009833694678,2237.700192654156,-62336.44483523904,-59746.92818485835,-35653.13347019356,-33095.49040740614,-20411.03189123057,-21943.713360275433,0.0,0.0,0.0,193.0,1.0,154.0,0.0,44.0,3.0,251.0,410.0,44.0,1019.0,1744252727.0413904,0.0,2025-04-09 22:38:47.041,LEFT,19
78.0,14221.431520155851,2217.7400848555667,-62341.71984693049,-59694.111012710455,-35714.89134012358,-33151.88385866688,-20231.167403598716,-21998.96687256895,0.0,0.0,0.0,193.0,1.0,154.0,0.0,44.0,3.0,250.0,410.0,44.0,1018.0,1744252727.0413992,0.0,2025-04-09 22:38:47.041,LEFT,19
79.0,14302.9259804399,2238.147227543262,-62348.44772201154,-59755.19833030681,-35699.1780637715,-33131.096736323445,-20466.77714190211,-21996.955215567974,0.0,0.0,0.0,193.0,1.0,154.0,0.0,44.0,3.0,251.0,410.0,44.0,1019.0,1744252727.041408,0.0,2025-04-09 22:38:47.041,LEFT,19
80.0,14255.026192072177,2246.4173729917256,-62305.28650346834,-59702.17999245883,-35641.398804354525,-33090.32715443696,-20528.222087409747,-21960.231299427905,0.0,0.0,0.0,193.0,1.0,154.0,0.0,44.0,3.0,249.0,410.0,44.0,1017.0,1744252727.0414164,0.0,2025-04-09 22:38:47.041,LEFT,19
81.0,14189.133249417931,2242.706983412145,-62339.81994865179,-59754.036039595136,-35657.64852257354,-33113.46120994821,-20386.668489774285,-21987.098096263184,0.0,0.0,0.0,193.0,1.0,154.0,0.0,44.0,3.0,250.0,410.0,44.0,1018.0,1744252727.0414252,0.0,2025-04-09 22:38:47.041,LEFT,19
82.0,14190.317891874063,2209.8722708072987,-62349.67706795658,-59723.16828050236,-35711.13624705509,-33157.04711163606,-20301.798916077485,-22006.030023816827,0.0,0.0,0.0,193.0,1.0,155.0,0.0,44.0,3.0,249.0,411.0,44.0,1017.0,1744252727.0414336,0.0,2025-04-09 22:38:47.041,LEFT,19
83.0,14304.445899062861,2238.6389659212787,-62353.78978893635,-59750.258594782186,-35709.79514238777,-33149.80514643254,-20335.728864160643,-22008.68988140701,0.0,0.0,0.0,193.0,1.0,155.0,0.0,44.0,3.0,251.0,411.0,44.0,1019.0,1744252727.0414426,0.0,2025-04-09 22:38:47.041,LEFT,19
84.0,14256.456703717316,2245.29978576896,-62308.70632037,-59715.948667043296,-35645.176249167474,-33084.02396250057,-20605.49206799174,-21948.451930099956,0.0,0.0,0.0,193.0,1.0,155.0,0.0,44.0,3.0,252.0,411.0,44.0,1020.0,1744252727.0414512,0.0,2025-04-09 22:38:47.041,LEFT,19
85.0,14192.016624452666,2243.5787014459015,-62345.25142255443,-59744.514196457174,-35672.311266936216,-33109.907282579814,-20361.74629470662,-21971.362468166648,0.0,0.0,0.0,193.0,1.0,154.0,0.0,44.0,3.0,250.0,410.0,44.0,1018.0,1744252727.0414643,0.0,2025-04-09 22:38:47.041,LEFT,19
86.0,14157.304365313574,2204.1725759711953,-62362.43991404056,-59740.82615862205,-35717.7300116694,-33155.88482092438,-20391.69763227673,-22010.478020963434,0.0,0.0,0.0,193.0,1.0,155.0,0.0,44.0,3.0,252.0,411.0,44.0,1020.0,1744252727.0414732,0.0,2025-04-09 22:38:47.041,LEFT,19
87.0,14285.133991853476,2234.7050588971447,-62370.06185889982,-59738.792149876615,-35742.31693057024,-33176.04609442307,-20256.782502744496,-22034.148518341604,0.0,0.0,0.0,193.0,1.0,155.0,0.0,44.0,3.0,252.0,411.0,44.0,1020.0,1744252727.041482,0.0,2025-04-09 22:38:47.041,LEFT,19
88.0,14281.289491807163,2259.291977797983,-62306.73936685793,-59722.76594910216,-35645.98091196787,-33082.81696829999,-20684.52783638571,-21949.278944644804,0.0,0.0,0.0,193.0,1.0,155.0,0.0,44.0,3.0,251.0,411.0,44.0,1019.0,1744252727.0414908,0.0,2025-04-09 22:38:47.041,LEFT,19
89.0,14213.161374707386,2249.7254311711113,-62324.5090036999,-59720.01668453416,-35654.18400218296,-33101.8606545759,-20345.474224743157,-21957.25851741535,0.0,0.0,0.0,193.0,1.0,155.0,0.0,44.0,3.0,249.0,411.0,44.0,1017.0,1744252727.0414991,0.0,2025-04-09 22:38:47.041,LEFT,19
90.0,14144.94385062979,2193.823718288388,-62352.135759846664,-59753.901929128406,-35693.99245905787,-33146.78766093107,-20429.069749006005,-22001.514971436856,0.0,0.0,0.0,193.0,1.0,154.0,0.0,44.0,3.0,250.0,410.0,44.0,1018.0,1744252727.041508,0.0,2025-04-09 22:38:47.041,LEFT,19
91.0,14273.39932601444,2220.5564046569352,-62346.30195454383,-59710.58424837402,-35722.982671616395,-33170.54756528707,-20171.46589415859,-22015.753032654888,0.0,0.0,0.0,193.0,1.0,155.0,0.0,44.0,3.0,250.0,411.0,44.0,1018.0,1744252727.0415168,0.0,2025-04-09 22:38:47.041,LEFT,19
92.0,14290.45370703384,2253.9722626176194,-62290.91433178358,-59722.430672935334,-35628.94888269292,-33066.20962216969,-20671.966156001825,-21932.11280490313,0.0,0.0,0.0,193.0,1.0,154.0,0.0,44.0,3.0,249.0,410.0,44.0,1017.0,1744252727.0415254,0.0,2025-04-09 22:38:47.041,LEFT,19
93.0,14224.069026001576,2251.401812005259,-62308.70632037,-59701.93412326981,-35641.95759796591,-33088.1590352248,-20334.58892519342,-21943.847470742163,0.0,0.0,0.0,193.0,1.0,154.0,0.0,44.0,3.0,249.0,410.0,44.0,1017.0,1744252727.0415342,0.0,2025-04-09 22:38:47.041,LEFT,19
94.0,14143.423932006828,2206.0948259943516,-62349.274736556385,-59764.653118211405,-35681.16255774052,-33134.248332291645,-20440.983228800684,-21995.055317289272,0.0,0.0,0.0,193.0,1.0,154.0,0.0,44.0,3.0,251.0,410.0,44.0,1019.0,1744252727.0415432,0.0,2025-04-09 22:38:47.041,LEFT,19
95.0,14244.409113455906,2204.6866660936676,-62357.3660680492,-59714.607562375975,-35738.00304389036,-33189.412437607345,-20163.642783599233,-22048.297172581813,0.0,0.0,0.0,193.0,1.0,154.0,0.0,44.0,3.0,250.0,410.0,44.0,1018.0,1744252727.0415518,0.0,2025-04-09 22:38:47.041,LEFT,19
96.0,14281.133029595976,2224.1326837697848,-62327.83941362375,-59760.38393502044,-35659.83899353015,-33100.40779118631,-20636.851565462537,-21965.86393903064,0.0,0.0,0.0,193.0,1.0,155.0,0.0,44.0,3.0,252.0,411.0,44.0,1020.0,1744252727.0415604,0.0,2025-04-09 22:38:47.041,LEFT,19
97.0,14223.264363201186,2228.357163471838,-62315.434195451046,-59706.40447216087,-35638.44837408643,-33092.89760504933,-20372.45278030071,-21934.57149679321,0.0,0.0,0.0,193.0,1.0,154.0,0.0,44.0,3.0,249.0,410.0,44.0,1017.0,1744252727.0415692,0.0,2025-04-09 22:38:47.041,LEFT,19
98.0,14142.082827339511,2197.377645656782,-62361.18821635106,-59779.1594003629,-35674.85936580412,-33129.04037583356,-20419.07851923448,-21983.74533459489,0.0,0.0,0.0,193.0,1.0,155.0,0.0,44.0,3.0,251.0,411.0,44.0,1019.0,1744252727.041578,0.0,2025-04-09 22:38:47.041,LEFT,19
99.0,14210.546220606117,2189.3310176528717,-62362.46226578501,-59716.7980333326,-35733.39858453257,-33182.215175892736,-20180.875978574273,-22031.578067729246,0.0,0.0,0.0,193.0,1.0,154.0,0.0,44.0,3.0,249.0,410.0,44.0,1017.0,1744252727.0415869,0.0,2025-04-09 22:38:47.041,LEFT,19
100.0,14286.363337798517,2223.2833174804828,-62344.804387665325,-59768.296452557624,-35683.911822308524,-33118.04331756155,-20544.53886086212,-21984.237072972905,0.0,0.0,0.0,193.0,1.0,155.0,0.0,44.0,3.0,251.0,411.0,44.0,1019.0,1744252727.0416732,0.0,2025-04-09 22:38:47.041,LEFT,19
101.0,14234.976677295766,2235.1297420417955,-62307.81225059179,-59702.69408258129,-35639.18598165345,-33084.962735767695,-20457.165891786324,-21939.421825340014,0.0,0.0,0.0,193.0,1.0,154.0,0.0,44.0,3.0,249.0,410.0,44.0,1017.0,1744252727.0416825,0.0,2025-04-09 22:38:47.041,LEFT,19
102.0,14163.987536905712,2220.3328872123825,-62345.54199523235,-59762.79792342162,-35659.32490340769,-33105.369878455385,-20392.636405543853,-21952.29643014627,0.0,0.0,0.0,193.0,1.0,155.0,0.0,44.0,3.0,252.0,411.0,44.0,1020.0,1744252727.041692,0.0,2025-04-09 22:38:47.041,LEFT,19
103.0,14204.354787391996,2204.3960934157485,-62344.022076609384,-59708.01379776166,-35709.34810749866,-33155.10250986845,-20236.39771180126,-21998.005747557374,0.0,0.0,0.0,193.0,1.0,154.0,0.0,44.0,3.0,249.0,410.0,44.0,1017.0,1744252727.0417008,0.0,2025-04-09 22:38:47.041,LEFT,19
104.0,14295.505201280737,2224.3562012143375,-62354.48269301447,-59764.11667634448,-35702.95550858444,-33139.88097189438,-20414.76463255461,-22001.20204701448,0.0,0.0,0.0,193.0,1.0,155.0,0.0,44.0,3.0,252.0,411.0,44.0,1020.0,1744252727.0417097,0.0,2025-04-09 22:38:47.041,LEFT,19
105.0,14243.447988444328,2228.7147913831227,-62313.64605589463,-59716.64157112141,-35647.92551373548,-33090.282450948056,-20552.361971421476,-21949.994200467372,0.0,0.0,0.0,193.0,1.0,154.0,0.0,44.0,3.0,250.0,410.0,44.0,1018.0,1744252727.0417185,0.0,2025-04-09 22:38:47.041,LEFT,19
106.0,14176.124534144943,2223.2833174804828,-62352.24751856894,-59763.8037519221,-35668.15384246753,-33115.49521869364,-20382.823989727975,-21980.77255258233,0.0,0.0,0.0,193.0,1.0,154.0,0.0,44.0,3.0,251.0,410.0,44.0,1019.0,1744252727.0417273,0.0,2025-04-09 22:38:47.041,LEFT,19
107.0,14170.558949775572,2197.176479956684,-62358.52835876088,-59737.20517602029,-35710.465694721424,-33156.331855813485,-20336.89115487232,-22011.372090741646,0.0,0.0,0.0,193.0,1.0,155.0,0.0,44.0,3.0,252.0,411.0,44.0,1020.0,1744252727.5230265,0.0,2025-04-09 22:38:47.523,LEFT,19
108.0,14301.137840883475,2233.1404367852733,-62350.54878599034,-59743.28485051214,-35707.045877819764,-33143.3231405405,-20304.101145756384,-22004.755974382875,0.0,0.0,0.0,193.0,1.0,154.0,0.0,44.0,3.0,249.0,410.0,44.0,1017.0,1744252727.52308,0.0,2025-04-09 22:38:47.523,LEFT,19
109.0,14269.48777073476,2247.154980558751,-62292.367195173174,-59709.645475106896,-35624.81380996869,-33065.74023553613,-20616.109146608014,-21933.34215084817,0.0,0.0,0.0,193.0,1.0,155.0,0.0,44.0,3.0,252.0,411.0,44.0,1020.0,1744252727.5231092,0.0,2025-04-09 22:38:47.523,LEFT,19
110.0,14201.158487934887,2242.371707245315,-62332.220355536985,-59739.03801906562,-35656.55328709522,-33101.681840620266,-20331.012646080573,-21963.002915740362,0.0,0.0,0.0,193.0,1.0,155.0,0.0,44.0,3.0,250.0,411.0,44.0,1018.0,1744252727.5231383,0.0,2025-04-09 22:38:47.523,LEFT,19
111.0,14163.093467127499,2195.544802611447,-62357.187254093566,-59754.75129541771,-35711.091543566174,-33159.5281552706,-20395.117449178393,-22029.588762472722,0.0,0.0,0.0,193.0,1.0,155.0,0.0,44.0,3.0,252.0,411.0,44.0,1020.0,1744252727.5231647,0.0,2025-04-09 22:38:47.523,LEFT,19
112.0,14292.264198334718,2223.9091663252316,-62357.70134421603,-59736.892251597914,-35733.15271534356,-33178.79535899107,-20210.91672312221,-22038.574163743757,0.0,0.0,0.0,193.0,1.0,154.0,0.0,44.0,3.0,250.0,410.0,44.0,1018.0,1744252727.5231884,0.0,2025-04-09 22:38:47.523,LEFT,19
113.0,14285.268102320208,2248.607843948346,-62298.51392489838,-59732.511309684676,-35635.63205428506,-33077.765474053085,-20654.28592613768,-21941.56759280772,0.0,0.0,0.0,193.0,1.0,155.0,0.0,44.0,3.0,252.0,411.0,44.0,1020.0,1744252727.523204,0.0,2025-04-09 22:38:47.523,LEFT,19
114.0,14218.48108988775,2247.7361259145887,-62323.056140310306,-59730.276135239146,-35651.72531029288,-33107.38153545636,-20317.646302896297,-21969.037886743296,0.0,0.0,0.0,193.0,1.0,155.0,0.0,44.0,3.0,250.0,411.0,44.0,1018.0,1744252727.5232203,0.0,2025-04-09 22:38:47.523,LEFT,19
115.0,14160.366554303951,2213.359142942327,-62345.072608598784,-59760.54039723163,-35684.82824383119,-33135.857657892426,-20422.81126055852,-21997.424602201536,0.0,0.0,0.0,193.0,1.0,155.0,0.0,44.0,3.0,250.0,411.0,44.0,1018.0,1744252727.5233438,0.0,2025-04-09 22:38:47.523,LEFT,19
116.0,14269.755991668224,2222.501006424547,-62355.4661697705,-59722.90005956889,-35736.907808412056,-33187.24431839518,-20149.36001889229,-22041.32342831176,0.0,0.0,0.0,193.0,1.0,155.0,0.0,44.0,3.0,252.0,411.0,44.0,1020.0,1744252727.5233598,0.0,2025-04-09 22:38:47.523,LEFT,19
117.0,14284.843419175557,2251.2677015385275,-62310.829736093256,-59748.582213948044,-35644.77391776728,-33091.15416898181,-20654.330629626587,-21969.797846054775,0.0,0.0,0.0,193.0,1.0,154.0,0.0,44.0,3.0,250.0,410.0,44.0,1018.0,1744252727.5233753,0.0,2025-04-09 22:38:47.523,LEFT,19
118.0,14228.517023148182,2253.122896328318,-62310.829736093256,-59705.42099540484,-35638.82835374217,-33088.09197999143,-20338.478128728646,-21949.882441745096,0.0,0.0,0.0,193.0,1.0,154.0,0.0,44.0,3.0,252.0,410.0,44.0,1020.0,1744252727.5233908,0.0,2025-04-09 22:38:47.523,LEFT,19
119.0,14160.1430368594,2221.495177924058,-62337.808291650814,-59758.55109197511,-35665.181060454976,-33112.857712847916,-20425.784042571075,-21978.44797115898,0.0,0.0,0.0,193.0,1.0,154.0,0.0,44.0,3.0,251.0,410.0,44.0,1019.0,1744252727.523406,0.0,2025-04-09 22:38:47.523,LEFT,19
120.0,14243.224470999774,2214.253212720539,-62346.07843709928,-59710.15956522937,-35727.40831701855,-33180.53879505859,-20142.945068233617,-22039.736454455433,0.0,0.0,0.0,193.0,1.0,154.0,0.0,44.0,3.0,250.0,410.0,44.0,1018.0,1744252727.5234213,0.0,2025-04-09 22:38:47.523,LEFT,19
121.0,14290.699576222847,2239.6447944217675,-62325.715997900494,-59766.3071473011,-35663.504679620826,-33107.15801801181,-20598.54067546614,-21987.142799752095,0.0,0.0,0.0,193.0,1.0,154.0,0.0,44.0,3.0,251.0,410.0,44.0,1019.0,1744252727.5234368,0.0,2025-04-09 22:38:47.523,LEFT,19
122.0,14227.891174303435,2242.8187421344214,-62314.741291372935,-59714.38404493142,-35649.780708525264,-33102.79942784303,-20402.94055973775,-21977.173921725025,0.0,0.0,0.0,193.0,1.0,154.0,0.0,44.0,3.0,250.0,410.0,44.0,1018.0,1744252727.5234523,0.0,2025-04-09 22:38:47.523,LEFT,19
123.0,14149.503606498673,2215.795483087955,-62360.89764367315,-59789.10592664551,-35683.19656648595,-33132.929579368785,-20435.462347920224,-22012.6461401756,0.0,0.0,0.0,193.0,1.0,154.0,0.0,44.0,3.0,250.0,410.0,44.0,1018.0,1744252727.5234675,0.0,2025-04-09 22:38:47.523,LEFT,19
124.0,14211.820270040069,2207.413578917215,-62355.689687215054,-59723.838832836016,-35729.59878797517,-33179.86824272493,-20208.301569020936,-22044.31856206877,0.0,0.0,0.0,193.0,1.0,154.0,0.0,44.0,3.0,251.0,410.0,44.0,1019.0,1744252727.5234833,0.0,2025-04-09 22:38:47.523,LEFT,19
125.0,14294.25350359124,2233.63217516329,-62344.69262894305,-59775.20314159431,-35688.449226432946,-33126.201704287734,-20505.982101676716,-22004.48775344941,0.0,0.0,0.0,193.0,1.0,154.0,0.0,44.0,3.0,250.0,410.0,44.0,1018.0,1744252727.5234988,0.0,2025-04-09 22:38:47.523,LEFT,19
126.0,14237.949459308322,2242.7293351566,-62309.354520959205,-59717.28977171061,-35646.45029860143,-33092.852901560414,-20484.05504036606,-21967.316802420235,0.0,0.0,0.0,193.0,1.0,155.0,0.0,44.0,3.0,251.0,411.0,44.0,1019.0,1744252727.523514,0.0,2025-04-09 22:38:47.523,LEFT,19
127.0,14162.825246194036,2221.450474435148,-62356.98608839347,-59785.619054510484,-35675.75343558234,-33123.43008797528,-20393.105792177415,-21998.765706868853,0.0,0.0,0.0,193.0,1.0,154.0,0.0,44.0,3.0,249.0,410.0,44.0,1017.0,1744252727.5235298,0.0,2025-04-09 22:38:47.523,LEFT,19
128.0,14190.407298851884,2199.5681166134023,-62354.236823825464,-59735.014705063666,-35720.38986925958,-33165.69723674026,-20270.86410175134,-22029.052320605795,0.0,0.0,0.0,193.0,1.0,155.0,0.0,44.0,3.0,252.0,411.0,44.0,1020.0,1744252727.5235453,0.0,2025-04-09 22:38:47.523,LEFT,19
129.0,14303.21655311782,2233.118085040818,-62345.921974888086,-59764.76487693368,-35703.693116151466,-33137.4222800043,-20380.45470481571,-22017.719986166954,0.0,0.0,0.0,193.0,1.0,154.0,0.0,44.0,3.0,249.0,410.0,44.0,1017.0,1744252727.5235605,0.0,2025-04-09 22:38:47.523,LEFT,19
130.0,14255.316764750096,2244.3610125018376,-62294.49061089643,-59715.345169943,-35638.78365025326,-33075.68676181874,-20565.750666350206,-21960.25365117236,0.0,0.0,0.0,193.0,1.0,154.0,0.0,44.0,3.0,250.0,410.0,44.0,1018.0,1744252727.5236783,0.0,2025-04-09 22:38:47.523,LEFT,19
131.0,14180.728993502737,2229.117122783318,-62338.031809095366,-59761.50152224321,-35662.47649937588,-33102.75472435412,-20347.50823348859,-21965.528662863813,0.0,0.0,0.0,193.0,1.0,155.0,0.0,44.0,3.0,252.0,411.0,44.0,1020.0,1744252727.5236883,0.0,2025-04-09 22:38:47.523,LEFT,19
132.0,14178.247949868197,2208.4194074177035,-62337.20479455052,-59735.26057425268,-35697.43462770398,-33141.75851842863,-20337.159375805782,-21999.324500480237,0.0,0.0,0.0,193.0,1.0,154.0,0.0,45.0,3.0,249.0,410.0,45.0,1017.0,1744252727.5236971,0.0,2025-04-09 22:38:47.523,LEFT,19
133.0,14298.857962949034,2239.175407788206,-62343.329172531274,-59743.24014702322,-35712.58911044468,-33154.253143579146,-20257.877738222807,-22022.860887391675,0.0,0.0,0.0,193.0,1.0,155.0,0.0,44.0,3.0,252.0,411.0,44.0,1020.0,1744252727.5237064,0.0,2025-04-09 22:38:47.523,LEFT,19
134.0,14266.805561400124,2247.3561462588486,-62290.22142770546,-59722.11774851296,-35624.99262392433,-33071.35052339441,-20614.99155938525,-21942.841642241674,0.0,0.0,0.0,193.0,1.0,155.0,0.0,44.0,3.0,249.0,411.0,44.0,1017.0,1744252727.5237153,0.0,2025-04-09 22:38:47.523,LEFT,19
135.0,14192.977749464244,2229.407695461237,-62330.23105028046,-59745.788245891126,-35653.96048473841,-33105.25811973311,-20300.904846299272,-21965.036924485794,0.0,0.0,0.0,193.0,1.0,154.0,0.0,44.0,3.0,250.0,410.0,44.0,1018.0,1744252727.5237243,0.0,2025-04-09 22:38:47.523,LEFT,19
136.0,14144.250946551676,2186.648808318235,-62356.87432967119,-59767.73765894624,-35704.944813840964,-33155.929524413295,-20386.89200721884,-22022.83853564722,0.0,0.0,0.0,193.0,1.0,155.0,0.0,44.0,3.0,252.0,411.0,44.0,1020.0,1744252727.523733,0.0,2025-04-09 22:38:47.523,LEFT,19
137.0,14259.854168874523,2198.9199160241983,-62369.39130656616,-59749.31982151507,-35750.00593066287,-33191.69231554178,-20182.820580341886,-22053.728646484455,0.0,0.0,0.0,193.0,1.0,154.0,0.0,45.0,3.0,250.0,410.0,45.0,1018.0,1744252727.5237415,0.0,2025-04-09 22:38:47.523,LEFT,19
138.0,14267.654927689426,2230.8382071063766,-62304.19126799003,-59744.91652785737,-35643.701034033424,-33085.253308445615,-20673.57548160261,-21970.088418732696,0.0,0.0,0.0,193.0,1.0,155.0,0.0,44.0,3.0,252.0,411.0,44.0,1020.0,1744252727.5237505,0.0,2025-04-09 22:38:47.523,LEFT,19
139.0,14209.026301983155,2237.2308060205946,-62320.21746876449,-59727.37040845995,-35654.742795794344,-33104.185235999255,-20330.31974200246,-21981.040773515793,0.0,0.0,0.0,193.0,1.0,154.0,0.0,44.0,3.0,250.0,410.0,44.0,1018.0,1744252727.5237596,0.0,2025-04-09 22:38:47.523,LEFT,19
140.0,14143.759208173658,2197.422349145693,-62350.79465517934,-59771.78332469265,-35691.75728461234,-33136.95289337074,-20436.848156076452,-22012.959064597973,0.0,0.0,0.0,193.0,1.0,154.0,0.0,44.0,3.0,248.0,410.0,44.0,1016.0,1744252727.5237684,0.0,2025-04-09 22:38:47.523,LEFT,19
141.0,14258.289546762651,2218.7459133560556,-62346.45841675501,-59715.27811470963,-35733.59975023267,-33175.19672813377,-20150.119978203773,-22038.104777110195,0.0,0.0,0.0,193.0,1.0,155.0,0.0,44.0,3.0,252.0,411.0,44.0,1020.0,1744252727.5237775,0.0,2025-04-09 22:38:47.523,LEFT,19
142.0,14290.185486100376,2252.2511782945608,-62303.72188135647,-59749.900966870904,-35648.48430734686,-33084.403942156314,-20648.89915572395,-21965.595718097178,0.0,0.0,0.0,193.0,1.0,154.0,0.0,44.0,3.0,248.0,410.0,44.0,1016.0,1744252727.523786,0.0,2025-04-09 22:38:47.523,LEFT,19
143.0,14228.539374892638,2254.3298905289043,-62303.90069531211,-59708.01379776166,-35650.3171503922,-33096.83151207346,-20360.539300506032,-21977.6880118475,0.0,0.0,0.0,193.0,1.0,155.0,0.0,44.0,3.0,251.0,411.0,44.0,1019.0,1744252727.523795,0.0,2025-04-09 22:38:47.523,LEFT,19
144.0,14153.258699567165,2218.991782545064,-62342.72567543098,-59776.92422591737,-35685.25292697584,-33129.286245022566,-20450.326257983,-22011.46149771947,0.0,0.0,0.0,193.0,1.0,155.0,0.0,44.0,3.0,252.0,411.0,44.0,1020.0,1744252727.5238037,0.0,2025-04-09 22:38:47.523,LEFT,19
145.0,14250.131160036464,2230.4805791950917,-62323.6596374106,-59696.212076689255,-35719.40639250355,-33162.009198905136,-20172.829350570366,-22029.45465200599,0.0,0.0,0.0,193.0,1.0,154.0,0.0,45.0,3.0,250.0,410.0,45.0,1018.0,1744252727.5238192,0.0,2025-04-09 22:38:47.523,LEFT,19
146.0,14316.202916646353,2267.3609575463483,-62297.128116742155,-59744.22362377925,-35656.73210105087,-33087.93551778025,-20580.88279734645,-21978.7385438369,0.0,0.0,0.0,193.0,1.0,155.0,0.0,44.0,3.0,251.0,411.0,44.0,1019.0,1744252727.523828,0.0,2025-04-09 22:38:47.523,LEFT,19
147.0,14258.691878162846,2276.1675448617393,-62273.32350889725,-59683.493934094186,-35629.39591758203,-33070.36704663838,-20420.531382624078,-21945.43444459849,0.0,0.0,0.0,193.0,1.0,155.0,0.0,44.0,3.0,252.0,411.0,44.0,1020.0,1744252727.523838,0.0,2025-04-09 22:38:47.523,LEFT,19
148.0,14179.209074879775,2245.7691724025217,-62321.938553087544,-59758.864016397485,-35663.52703136528,-33100.67601211977,-20412.216533686704,-21975.765761824343,0.0,0.0,0.0,193.0,1.0,154.0,0.0,44.0,3.0,249.0,410.0,44.0,1017.0,1744252727.5238469,0.0,2025-04-09 22:38:47.523,LEFT,19
149.0,14211.596752595515,2217.96360230012,-62334.56728870479,-59710.338379185014,-35729.01764261933,-33161.51746052712,-20217.4210807587,-22022.88323913613,0.0,0.0,0.0,193.0,1.0,155.0,0.0,44.0,3.0,252.0,411.0,44.0,1020.0,1744252727.5238557,0.0,2025-04-09 22:38:47.523,LEFT,19
150.0,14298.276817593196,2242.416410734226,-62335.90839337211,-59766.21774032328,-35705.95064234146,-33125.866428120906,-20483.697412454774,-22008.935750596018,0.0,0.0,0.0,193.0,1.0,155.0,0.0,44.0,3.0,249.0,411.0,44.0,1017.0,1744252727.5238645,0.0,2025-04-09 22:38:47.523,LEFT,19
151.0,14253.372162982485,2258.308501041949,-62286.287520681326,-59701.53179186962,-35647.210257912906,-33077.966639753184,-20546.706980074287,-21958.19729068247,0.0,0.0,0.0,193.0,1.0,154.0,0.0,44.0,3.0,251.0,410.0,44.0,1019.0,1744252727.523873,0.0,2025-04-09 22:38:47.523,LEFT,19
152.0,14178.560874290572,2236.3590879868375,-62328.86759386869,-59762.52970248815,-35670.61253435761,-33114.84701810444,-20413.647045331843,-21994.652985889075,0.0,0.0,0.0,193.0,1.0,155.0,0.0,44.0,3.0,251.0,411.0,44.0,1019.0,1744252727.523882,0.0,2025-04-09 22:38:47.523,LEFT,19
153.0,14180.796048736102,2200.350427669338,-62337.71888467299,-59732.31014398458,-35719.920482626025,-33170.14523388687,-20320.3955674643,-22035.06493986427,0.0,0.0,0.0,193.0,1.0,154.0,0.0,45.0,3.0,250.0,410.0,45.0,1018.0,1744252727.5238907,0.0,2025-04-09 22:38:47.523,LEFT,19
154.0,14290.274893078196,2221.606936646335,-62346.45841675501,-59766.17303683437,-35722.982671616395,-33160.19870760426,-20369.859977943896,-22031.958047384986,0.0,0.0,0.0,193.0,1.0,155.0,0.0,44.0,3.0,252.0,411.0,44.0,1020.0,1744252727.5238998,0.0,2025-04-09 22:38:47.523,LEFT,19
155.0,14263.072820076088,2246.4397247361812,-62278.41970663306,-59712.05946350807,-35632.748679250326,-33075.68676181874,-20623.66403623391,-21950.843566756674,0.0,0.0,0.0,193.0,1.0,154.0,0.0,44.0,3.0,249.0,410.0,44.0,1017.0,1744252727.5239089,0.0,2025-04-09 22:38:47.523,LEFT,19
156.0,14193.871819242457,2245.053916579952,-62314.741291372935,-59746.05646682459,-35654.698092305436,-33101.72654410917,-20368.854149443407,-21969.55197686577,0.0,0.0,0.0,193.0,1.0,154.0,0.0,44.0,3.0,250.0,410.0,44.0,1018.0,1744252727.5239174,0.0,2025-04-09 22:38:47.523,LEFT,19
157.0,14161.841769438002,2203.904355037732,-62332.779149148366,-59744.15656854589,-35705.59301443017,-33150.69921621075,-20390.624748542876,-22018.859925134173,0.0,0.0,0.0,193.0,1.0,155.0,0.0,45.0,3.0,252.0,411.0,45.0,1020.0,1744252727.523926,0.0,2025-04-09 22:38:47.523,LEFT,19
158.0,14278.808448172624,2216.354276699338,-62349.900585401134,-59753.58900470603,-35737.75717470136,-33176.22490837871,-20267.5336918275,-22044.720893468966,0.0,0.0,0.0,193.0,1.0,154.0,0.0,44.0,3.0,250.0,410.0,44.0,1018.0,1744252727.5239348,0.0,2025-04-09 22:38:47.523,LEFT,19
159.0,14263.899834620934,2238.2366345210835,-62291.8531050507,-59736.266402753165,-35646.13737417905,-33082.88402353335,-20684.70665034135,-21963.248784929372,0.0,0.0,0.0,193.0,1.0,154.0,0.0,44.0,3.0,250.0,410.0,44.0,1018.0,1744252727.5239484,0.0,2025-04-09 22:38:47.523,LEFT,19
160.0,14207.28286591564,2246.4397247361812,-62313.131965772154,-59734.54531843011,-35656.24036267285,-33097.85969231841,-20364.249690085613,-21969.507273376857,0.0,0.0,0.0,193.0,1.0,155.0,0.0,44.0,3.0,251.0,411.0,44.0,1019.0,1744252727.5239568,0.0,2025-04-09 22:38:47.523,LEFT,19
161.0,14167.362650318462,2220.4893494235694,-62318.451680952516,-59742.79311213412,-35673.54061288126,-33119.02679431758,-20446.548813170055,-21995.3905934561,0.0,0.0,0.0,193.0,1.0,154.0,0.0,45.0,3.0,250.0,410.0,45.0,1018.0,1744252727.523966,0.0,2025-04-09 22:38:47.523,LEFT,19
162.0,14281.982395885278,2232.335773984882,-62330.678085169566,-59718.87674556694,-35720.14400007058,-33168.24533560817,-20194.108211291816,-22050.018256904874,0.0,0.0,0.0,193.0,1.0,155.0,0.0,44.0,3.0,252.0,411.0,44.0,1020.0,1744252727.523975,0.0,2025-04-09 22:38:47.523,LEFT,19
163.0,14287.995015143755,2252.407640505748,-62285.50520962539,-59740.78145513314,-35634.91679846249,-33070.29999140501,-20695.726060357818,-21961.840625028686,0.0,0.0,0.0,193.0,1.0,154.0,0.0,44.0,3.0,249.0,410.0,44.0,1017.0,1744252727.5239837,0.0,2025-04-09 22:38:47.523,LEFT,19
164.0,14215.105976474999,2246.1938555471725,-62305.46531742398,-59723.23533573572,-35647.92551373548,-33087.44377940223,-20353.29733530251,-21951.737636534886,0.0,0.0,0.0,193.0,1.0,155.0,0.0,44.0,3.0,251.0,411.0,44.0,1019.0,1744252727.5239923,0.0,2025-04-09 22:38:47.523,LEFT,19
165.0,14148.408371020363,2208.173538228695,-62338.43414049556,-59776.65600498391,-35682.1236827521,-33123.36303274191,-20466.732438413197,-21989.556788153266,0.0,0.0,0.0,193.0,1.0,155.0,0.0,44.0,3.0,250.0,411.0,44.0,1018.0,1744252727.5240011,0.0,2025-04-09 22:38:47.524,LEFT,19
