Sample Index,EXG Channel 0,EXG Channel 1,EXG Channel 2,EXG Channel 3,EXG Channel 4,EXG Channel 5,EXG Channel 6,EXG Channel 7,Accel Channel 0,Accel Channel 1,Accel Channel 2,Not Used,Digital Channel 0 (D11),Digital Channel 1 (D12),Digital Channel 2 (D13),Digital Channel 3 (D17),Not Used,Digital Channel 4 (D18),Analog Channel 0,Analog Channel 1,Analog Channel 2,Timestamp,Marker Channel,Timestamp (Formatted),Stimulus_Direction,Stimulus_Number
14.0,13121.010437132174,1601.3683797560193,-60716.25628665165,-57719.49085229527,-34815.501846730935,-32156.247753649684,-8528.375152155775,-21568.65108831538,0.0,0.0,0.0,193.0,1.0,155.0,0.0,10.0,3.0,251.0,411.0,10.0,1019.0,1744252773.8835807,0.0,2025-04-09 22:39:33.883,LEFT,25
15.0,13092.154335040372,1608.9456211263682,-60675.218483831704,-57723.04477966366,-34741.808145261784,-32081.92820333579,-8765.638919548861,-21511.251808554152,0.0,0.0,0.0,193.0,1.0,155.0,0.0,9.0,3.0,253.0,411.0,9.0,1021.0,1744252773.8835895,0.0,2025-04-09 22:39:33.883,LEFT,25
16.0,13035.559718079534,1610.957278127346,-60694.01630091862,-57722.28482035218,-34751.93348550004,-32102.402401256848,-8545.876568064281,-21526.227477339206,0.0,0.0,0.0,193.0,1.0,155.0,0.0,9.0,3.0,249.0,411.0,9.0,1017.0,1744252773.8835983,0.0,2025-04-09 22:39:33.883,LEFT,25
17.0,12993.605493736923,1576.9379230663685,-60707.47205108072,-57740.18856766088,-34781.14721550312,-32130.27502659262,-8615.65871425375,-21553.74247476369,0.0,0.0,0.0,193.0,1.0,155.0,0.0,8.0,3.0,252.0,411.0,8.0,1020.0,1744252773.8836071,0.0,2025-04-09 22:39:33.883,LEFT,25
18.0,13104.671311935344,1593.0758825631003,-60710.86951623792,-57704.850459677036,-34819.815733410804,-32172.56452710206,-8472.004052639491,-21592.902731049388,0.0,0.0,0.0,193.0,1.0,155.0,0.0,7.0,3.0,249.0,411.0,7.0,1017.0,1744252773.8836162,0.0,2025-04-09 22:39:33.883,LEFT,25
19.0,13104.514849724157,1608.5209379817175,-60674.5702832425,-57733.125416413,-34741.29405513931,-32082.263479502617,-8793.98093151819,-21511.989416121178,0.0,0.0,0.0,193.0,1.0,155.0,0.0,7.0,3.0,251.0,411.0,7.0,1019.0,1744252773.8836253,0.0,2025-04-09 22:39:33.883,LEFT,25
20.0,13050.311869420037,1614.9805921293012,-60679.10768736693,-57701.788270686666,-34739.21534290497,-32091.40534298484,-8527.302268421921,-21500.67943342679,0.0,0.0,0.0,193.0,1.0,154.0,0.0,6.0,3.0,250.0,410.0,6.0,1018.0,1744252773.883634,0.0,2025-04-09 22:39:33.883,LEFT,25
21.0,12979.680356941266,1573.3616439535194,-60713.68583603929,-57758.964033003336,-34775.648686367116,-32125.53645676809,-8630.053237682967,-21537.939791433786,0.0,0.0,0.0,193.0,1.0,155.0,0.0,6.0,3.0,252.0,411.0,6.0,1020.0,1744252773.8836427,0.0,2025-04-09 22:39:33.883,LEFT,25
22.0,13070.227273729715,1575.2391904877652,-60717.28446689659,-57705.677474221884,-34828.53291374838,-32175.492605625703,-8454.949671620092,-21585.61606235696,0.0,0.0,0.0,193.0,1.0,154.0,0.0,6.0,3.0,250.0,410.0,6.0,1018.0,1744252773.8836515,0.0,2025-04-09 22:39:33.883,LEFT,25
23.0,13113.299085295092,1607.4257025034074,-60685.54498977006,-57753.91253875644,-34751.50880235539,-32096.814465143023,-8798.831260064992,-21528.708520973745,0.0,0.0,0.0,193.0,1.0,155.0,0.0,6.0,3.0,251.0,411.0,6.0,1019.0,1744252773.8836603,0.0,2025-04-09 22:39:33.883,LEFT,25
24.0,13067.165084739338,1615.114702596033,-60667.127152338886,-57698.54726774064,-34730.0958311672,-32091.003011584642,-8560.293443237953,-21509.35191027545,0.0,0.0,0.0,193.0,1.0,155.0,0.0,5.0,3.0,249.0,411.0,5.0,1017.0,1744252773.883675,0.0,2025-04-09 22:39:33.883,LEFT,25
25.0,12998.008787394618,1590.438376717374,-60696.743213742164,-57759.634585337,-34751.12882269965,-32110.806657172045,-8634.747104018583,-21533.40238730936,0.0,0.0,0.0,193.0,1.0,154.0,0.0,5.0,3.0,250.0,410.0,5.0,1018.0,1744252773.8836842,0.0,2025-04-09 22:39:33.883,LEFT,25
26.0,13058.447904401768,1586.5491731821505,-60698.10667015394,-57698.346102040545,-34808.282233271864,-32170.79873929009,-8465.231474069533,-21585.392544912404,0.0,0.0,0.0,193.0,1.0,155.0,0.0,5.0,3.0,251.0,411.0,5.0,1019.0,1744252773.8836927,0.0,2025-04-09 22:39:33.883,LEFT,25
27.0,13120.608105731977,1612.2536793057538,-60689.25537934964,-57754.985422490296,-34762.97524726096,-32112.684203706292,-8749.947994941234,-21540.35377983496,0.0,0.0,0.0,193.0,1.0,155.0,0.0,5.0,3.0,252.0,411.0,5.0,1020.0,1744252773.883704,0.0,2025-04-09 22:39:33.883,LEFT,25
28.0,13072.820076086531,1625.0388771341893,-60653.78316089907,-57684.59977920053,-34720.66339500706,-32073.389836953862,-8614.630534008806,-21492.029308322588,0.0,0.0,0.0,193.0,1.0,154.0,0.0,5.0,3.0,251.0,410.0,5.0,1019.0,1744252773.883713,0.0,2025-04-09 22:39:33.883,LEFT,25
29.0,12993.203162336727,1593.053530818645,-60706.93560921379,-57759.165198703435,-34754.34747390121,-32108.996165871165,-8626.745179503581,-21531.72600647521,0.0,0.0,0.0,193.0,1.0,155.0,0.0,4.0,3.0,249.0,411.0,4.0,1017.0,1744252773.8837216,0.0,2025-04-09 22:39:33.883,LEFT,25
30.0,13026.663723786321,1574.143955009455,-60704.29810336806,-57704.40342478793,-34799.96738433449,-32158.03589320611,-8523.860099775804,-21577.16710295285,0.0,0.0,0.0,193.0,1.0,154.0,0.0,4.0,3.0,249.0,410.0,4.0,1017.0,1744252773.8837306,0.0,2025-04-09 22:39:33.883,LEFT,25
31.0,13125.413730789869,1608.4091792594409,-60696.92202769781,-57741.01558220573,-34773.279401454856,-32120.64142473238,-8690.157078523289,-21554.390675352894,0.0,0.0,0.0,193.0,1.0,155.0,0.0,4.0,3.0,249.0,411.0,4.0,1017.0,1744252773.8837392,0.0,2025-04-09 22:39:33.883,LEFT,25
32.0,13079.950282567774,1616.9475456413682,-60653.827864387975,-57692.065261848606,-34714.44961004849,-32074.999162554643,-8684.859715087381,-21509.888352142378,0.0,0.0,0.0,193.0,1.0,154.0,0.0,4.0,3.0,248.0,410.0,4.0,1016.0,1744252773.883748,0.0,2025-04-09 22:39:33.883,LEFT,25
33.0,13007.6200375104,1600.2284407887985,-60697.86080096493,-57745.597689819064,-34743.73039528494,-32104.7269826802,-8605.578077504406,-21533.469442542726,0.0,0.0,0.0,193.0,1.0,154.0,0.0,4.0,3.0,252.0,410.0,4.0,1020.0,1744252773.8837569,0.0,2025-04-09 22:39:33.883,LEFT,25
34.0,13007.508278788124,1575.2168387433098,-60696.743213742164,-57712.09242488056,-34786.04224753884,-32142.769651743136,-8576.40905099023,-21564.694829546792,0.0,0.0,0.0,193.0,1.0,154.0,0.0,4.0,3.0,251.0,410.0,4.0,1019.0,1744252773.8837657,0.0,2025-04-09 22:39:33.883,LEFT,25
35.0,13118.64115221991,1603.5364989681839,-60701.97352194471,-57728.49860531076,-34793.57478542028,-32145.228343633218,-8613.825871208415,-21572.920271506344,0.0,0.0,0.0,193.0,1.0,155.0,0.0,4.0,3.0,252.0,411.0,4.0,1020.0,1744252773.8837743,0.0,2025-04-09 22:39:33.883,LEFT,25
36.0,13076.798686599575,1611.627830461005,-60657.82882664548,-57706.03510213317,-34722.2950723523,-32077.077874788985,-8763.984890459167,-21509.7765934201,0.0,0.0,0.0,193.0,1.0,155.0,0.0,4.0,3.0,249.0,411.0,4.0,1017.0,1744252773.8837829,0.0,2025-04-09 22:39:33.883,LEFT,25
37.0,13010.548116034046,1606.1516530694548,-60699.33601609898,-57736.14290191447,-34749.40773837659,-32109.174979826807,-8594.446908765663,-21539.392654823383,0.0,0.0,0.0,193.0,1.0,155.0,0.0,4.0,3.0,251.0,411.0,4.0,1019.0,1744252773.883792,0.0,2025-04-09 22:39:33.883,LEFT,25
38.0,12985.76003143311,1574.6133416430166,-60707.449699336255,-57729.79500648916,-34785.32699171627,-32136.98054992921,-8628.80153999347,-21561.677344045325,0.0,0.0,0.0,193.0,1.0,154.0,0.0,4.0,3.0,251.0,410.0,4.0,1019.0,1744252773.8838007,0.0,2025-04-09 22:39:33.883,LEFT,25
39.0,13103.889000879408,1596.5404029536728,-60708.701397025754,-57711.89125918046,-34812.32789901828,-32153.02910244812,-8544.624870374784,-21577.949414008788,0.0,0.0,0.0,193.0,1.0,154.0,0.0,4.0,3.0,249.0,410.0,4.0,1017.0,1744252773.8838148,0.0,2025-04-09 22:39:33.883,LEFT,25
40.0,13088.086317549505,1608.051551348156,-60663.72968718168,-57720.34021858457,-34733.068613179756,-32069.81355784101,-8819.014885308134,-21506.826163152,0.0,0.0,0.0,193.0,1.0,155.0,0.0,3.0,3.0,252.0,411.0,3.0,1020.0,1744252773.8838232,0.0,2025-04-09 22:39:33.883,LEFT,25
41.0,13031.24583139966,1608.498586237262,-60686.95314967074,-57718.26150635022,-34750.055938965794,-32094.333421508483,-8589.261304052032,-21525.758090705647,0.0,0.0,0.0,193.0,1.0,154.0,0.0,3.0,3.0,248.0,410.0,3.0,1016.0,1744252773.883832,0.0,2025-04-09 22:39:33.883,LEFT,25
42.0,12977.623996451379,1574.0545480316339,-60710.10955692644,-57754.71720155683,-34787.20453825051,-32131.772593471123,-8687.251351744098,-21572.540291850604,0.0,0.0,0.0,193.0,1.0,154.0,0.0,3.0,3.0,252.0,410.0,3.0,1020.0,1744252773.8838403,0.0,2025-04-09 22:39:33.883,LEFT,25
43.0,13091.908465851364,1592.8076616296366,-60703.38168184539,-57700.51422125271,-34817.737021176465,-32157.141823427897,-8517.847480517326,-21586.152504223886,0.0,0.0,0.0,193.0,1.0,154.0,0.0,3.0,3.0,250.0,410.0,3.0,1018.0,1744252773.8838491,0.0,2025-04-09 22:39:33.883,LEFT,25
44.0,13099.105727565971,1605.6599146914382,-60673.78797218657,-57743.11664618453,-34741.20464816149,-32074.30625847653,-8842.215996052742,-21509.798945164555,0.0,0.0,0.0,193.0,1.0,154.0,0.0,3.0,3.0,252.0,410.0,3.0,1020.0,1744252773.883858,0.0,2025-04-09 22:39:33.883,LEFT,25
45.0,13044.232194928194,1610.2643740492315,-60679.33120481148,-57710.81837544661,-34742.00931096188,-32090.041886573064,-8581.549952214951,-21513.934017888787,0.0,0.0,0.0,193.0,1.0,154.0,0.0,3.0,3.0,250.0,410.0,3.0,1018.0,1744252773.8838663,0.0,2025-04-09 22:39:33.883,LEFT,25
46.0,12978.85334239642,1578.50254517824,-60709.59546680397,-57765.40133540647,-34771.20068922051,-32118.674471220314,-8678.869447573357,-21545.673495015322,0.0,0.0,0.0,193.0,1.0,155.0,0.0,3.0,3.0,252.0,411.0,3.0,1020.0,1744252773.883875,0.0,2025-04-09 22:39:33.883,LEFT,25
47.0,13075.97167205473,1585.856269104036,-60700.69947251076,-57696.110927595015,-34814.33955601926,-32162.774463030633,-8492.612361027284,-21579.80460879858,0.0,0.0,0.0,193.0,1.0,154.0,0.0,3.0,3.0,250.0,410.0,3.0,1018.0,1744252773.8838837,0.0,2025-04-09 22:39:33.883,LEFT,25
48.0,13119.870498164952,1618.467464264329,-60674.63733847587,-57745.888262496985,-34747.820764520264,-32084.297488248052,-8820.244231253175,-21523.20999183774,0.0,0.0,0.0,193.0,1.0,155.0,0.0,3.0,3.0,252.0,411.0,3.0,1020.0,1744252773.8838923,0.0,2025-04-09 22:39:33.883,LEFT,25
49.0,13068.39443068438,1631.7667522152367,-60653.22436728769,-57684.97975885627,-34723.7479357419,-32075.35679046593,-8608.908487428247,-21509.418965508816,0.0,0.0,0.0,193.0,1.0,155.0,0.0,3.0,3.0,252.0,411.0,3.0,1020.0,1744252773.883901,0.0,2025-04-09 22:39:33.883,LEFT,25
50.0,12987.347005289437,1596.607458187039,-60701.90646671134,-57763.34497491658,-34761.522383871365,-32120.328500310006,-8677.52834290604,-21567.8911290039,0.0,0.0,0.0,193.0,1.0,154.0,0.0,3.0,3.0,250.0,410.0,3.0,1018.0,1744252773.8839097,0.0,2025-04-09 22:39:33.883,LEFT,25
51.0,13037.86194775843,1578.055510289134,-60704.588676045976,-57705.36454979951,-34818.18405606557,-32178.264221938163,-8526.49760562153,-21602.335167209527,0.0,0.0,0.0,193.0,1.0,155.0,0.0,3.0,3.0,251.0,411.0,3.0,1019.0,1744252773.8839183,0.0,2025-04-09 22:39:33.883,LEFT,25
52.0,13118.64115221991,1608.185661814888,-60691.40114681735,-57753.577262589606,-34774.531099144355,-32116.484000263692,-8772.456201607729,-21539.906744945856,0.0,0.0,0.0,193.0,1.0,154.0,0.0,3.0,3.0,249.0,410.0,3.0,1017.0,1744252773.8839269,0.0,2025-04-09 22:39:33.883,LEFT,25
53.0,13065.466352160734,1613.058342106145,-60656.39831500034,-57695.03804386116,-34733.02390969085,-32084.431598714782,-8671.225150969643,-21508.279026541597,0.0,0.0,0.0,193.0,1.0,155.0,0.0,3.0,3.0,252.0,411.0,3.0,1020.0,1744252773.8839357,0.0,2025-04-09 22:39:33.883,LEFT,25
54.0,12996.846496682943,1601.144862311466,-60698.95603644324,-57758.04761148067,-34758.996636747914,-32114.293529307073,-8662.95500552118,-21544.39944558137,0.0,0.0,0.0,193.0,1.0,154.0,0.0,3.0,3.0,249.0,410.0,3.0,1017.0,1744252773.883949,0.0,2025-04-09 22:39:33.883,LEFT,25
55.0,13024.182680151784,1580.6259609014942,-60695.11153639693,-57707.55502075613,-34805.62237568168,-32162.75211128618,-8572.586902688374,-21586.733649579724,0.0,0.0,0.0,193.0,1.0,155.0,0.0,3.0,3.0,252.0,411.0,3.0,1020.0,1744252773.8839576,0.0,2025-04-09 22:39:33.883,LEFT,25
56.0,13120.40694003188,1602.441263489874,-60704.25339987915,-57754.31487015663,-34802.493131457944,-32154.414910604348,-8707.926715365258,-21589.03587925862,0.0,0.0,0.0,193.0,1.0,154.0,0.0,3.0,3.0,250.0,410.0,3.0,1018.0,1744252773.8839662,0.0,2025-04-09 22:39:33.883,LEFT,25
57.0,13081.425497701824,1623.496606766773,-60647.77054164059,-57701.27418056419,-34728.68767126652,-32083.939860336766,-8751.44556181974,-21514.805735922546,0.0,0.0,0.0,193.0,1.0,155.0,0.0,3.0,3.0,252.0,411.0,3.0,1020.0,1744252773.8839746,0.0,2025-04-09 22:39:33.883,LEFT,25
58.0,13020.069959172006,1616.8357869190918,-60684.49445778066,-57742.69196303988,-34749.4524418655,-32112.39363102837,-8638.524548831529,-21547.21576538274,0.0,0.0,0.0,193.0,1.0,154.0,0.0,3.0,3.0,249.0,410.0,3.0,1017.0,1744252773.8994477,0.0,2025-04-09 22:39:33.899,LEFT,25
59.0,13008.6705694998,1578.1225655224998,-60694.239818363174,-57723.514166297224,-34795.96642207699,-32158.952314728776,-8626.767531248037,-21592.27688220464,0.0,0.0,0.0,193.0,1.0,155.0,0.0,3.0,3.0,252.0,411.0,3.0,1020.0,1744252773.8994775,0.0,2025-04-09 22:39:33.899,LEFT,25
60.0,13123.089149366517,1601.0778070781002,-60697.816097476025,-57727.291611110166,-34809.198654794534,-32156.203050160773,-8627.37102834833,-21584.051440245086,0.0,0.0,0.0,193.0,1.0,154.0,0.0,3.0,3.0,250.0,410.0,3.0,1018.0,1744252773.9584577,0.0,2025-04-09 22:39:33.958,LEFT,25
61.0,13082.990119813696,1602.955353612346,-60659.48285573517,-57722.66480000792,-34745.13855518562,-32093.953441852744,-8822.0323708096,-21531.949523919764,0.0,0.0,0.0,193.0,1.0,155.0,0.0,3.0,3.0,251.0,411.0,3.0,1019.0,1744252773.9584837,0.0,2025-04-09 22:39:33.958,LEFT,25
62.0,13025.881412730387,1612.0972170945665,-60684.20388510274,-57734.690038524874,-34759.778947803854,-32118.205084586752,-8632.556633061962,-21550.434416584303,0.0,0.0,0.0,193.0,1.0,155.0,0.0,3.0,3.0,251.0,411.0,3.0,1019.0,1744252773.958494,0.0,2025-04-09 22:39:33.958,LEFT,25
63.0,12993.38197629237,1581.5870859130725,-60691.13292588388,-57738.15455891545,-34788.14331151763,-32145.630675033415,-8677.416584183764,-21572.093256961496,0.0,0.0,0.0,193.0,1.0,154.0,0.0,3.0,3.0,251.0,410.0,3.0,1019.0,1744252773.9585035,0.0,2025-04-09 22:39:33.958,LEFT,25
64.0,13115.176631829338,1601.0778070781002,-60696.29617885306,-57715.132262126484,-34819.771029921896,-32175.872585281442,-8560.047574048946,-21596.434306673327,0.0,0.0,0.0,193.0,1.0,155.0,0.0,3.0,3.0,252.0,411.0,3.0,1020.0,1744252773.9585125,0.0,2025-04-09 22:39:33.958,LEFT,25
65.0,13113.50025099519,1621.9990398882676,-60648.19522478524,-57725.14584364246,-34732.643930035105,-32083.604584169938,-8860.030336383621,-21518.203201079752,0.0,0.0,0.0,193.0,1.0,154.0,0.0,3.0,3.0,250.0,410.0,3.0,1018.0,1744252773.9585216,0.0,2025-04-09 22:39:33.958,LEFT,25
66.0,13054.670459588822,1622.2896125661866,-60663.17089357029,-57709.83489869058,-34740.84702025021,-32104.861093146934,-8614.876403197813,-21534.54232627658,0.0,0.0,0.0,193.0,1.0,155.0,0.0,3.0,3.0,251.0,411.0,3.0,1019.0,1744252773.958531,0.0,2025-04-09 22:39:33.958,LEFT,25
67.0,12992.197333836239,1581.7882516131701,-60690.35061482795,-57753.443152122876,-34773.59232587723,-32135.527686539615,-8709.848965388413,-21564.448960357782,0.0,0.0,0.0,193.0,1.0,154.0,0.0,3.0,3.0,250.0,410.0,3.0,1018.0,1744252773.95854,0.0,2025-04-09 22:39:33.958,LEFT,25
68.0,13102.25732353417,1597.3450657540639,-60690.48472529468,-57704.04579687665,-34818.25111129894,-32179.00182950519,-8535.50535863702,-21595.56258863957,0.0,0.0,0.0,193.0,1.0,154.0,0.0,3.0,3.0,249.0,410.0,3.0,1017.0,1744252773.9585488,0.0,2025-04-09 22:39:33.958,LEFT,25
69.0,13119.4458150203,1617.7745601862146,-60661.04747784704,-57749.06221020964,-34745.49618309691,-32096.009802342633,-8871.385022566918,-21532.374207064415,0.0,0.0,0.0,193.0,1.0,155.0,0.0,3.0,3.0,252.0,411.0,3.0,1020.0,1744252774.3938904,0.0,2025-04-09 22:39:34.393,LEFT,25
70.0,13044.299250161559,1606.375170514008,-60664.80257091553,-57711.55598301363,-34744.82563076325,-32110.98547112769,-8624.644115524783,-21534.475271043215,0.0,0.0,0.0,193.0,1.0,154.0,0.0,2.0,3.0,250.0,410.0,2.0,1018.0,1744252774.393926,0.0,2025-04-09 22:39:34.393,LEFT,25
71.0,12986.452935511224,1583.7775568696925,-60690.5741322725,-57765.37898366201,-34769.32314268627,-32137.941674940786,-8729.25027957562,-21579.625794842934,0.0,0.0,0.0,193.0,1.0,154.0,0.0,2.0,3.0,251.0,410.0,2.0,1019.0,1744252774.393946,0.0,2025-04-09 22:39:34.393,LEFT,25
72.0,13066.069849261028,1583.0399493026673,-60685.41087930332,-57696.17798282838,-34819.10047758824,-32181.37111441745,-8541.36151568431,-21600.70348986429,0.0,0.0,0.0,193.0,1.0,154.0,0.0,3.0,3.0,250.0,410.0,3.0,1018.0,1744252774.3939664,0.0,2025-04-09 22:39:34.393,LEFT,25
73.0,13109.58869571551,1600.0272750887007,-60676.31371931002,-57758.13701845849,-34765.724511828965,-32119.099154364965,-8840.472559985228,-21545.82995722651,0.0,0.0,0.0,193.0,1.0,154.0,0.0,2.0,3.0,251.0,410.0,2.0,1019.0,1744252774.393984,0.0,2025-04-09 22:39:34.393,LEFT,25
74.0,13065.06402076054,1617.729856697304,-60653.067905076496,-57697.854363662525,-34739.72943302744,-32102.894139634867,-8671.091040502912,-21528.84263144048,0.0,0.0,0.0,193.0,1.0,154.0,0.0,2.0,3.0,251.0,410.0,2.0,1019.0,1744252774.3940015,0.0,2025-04-09 22:39:34.394,LEFT,25
75.0,12996.198296093738,1603.4470919903627,-60683.22040834671,-57753.04082072268,-34756.38148264665,-32112.39363102837,-8706.92088686477,-21540.197317623773,0.0,0.0,0.0,193.0,1.0,154.0,0.0,2.0,3.0,249.0,410.0,2.0,1017.0,1744252774.394019,0.0,2025-04-09 22:39:34.394,LEFT,25
76.0,13041.706447804743,1585.118661537011,-60678.995928644654,-57691.484116492764,-34803.14133204715,-32165.568431087548,-8557.924158325692,-21584.677289089836,0.0,0.0,0.0,193.0,1.0,154.0,0.0,2.0,3.0,252.0,410.0,2.0,1020.0,1744252774.3940363,0.0,2025-04-09 22:39:34.394,LEFT,25
77.0,13125.100806367494,1613.1924525728766,-60679.286501322575,-57747.94462298687,-34773.63702936614,-32129.26919809213,-8779.36289064442,-21570.863911016455,0.0,0.0,0.0,193.0,1.0,154.0,0.0,2.0,3.0,250.0,410.0,2.0,1018.0,1744252774.394054,0.0,2025-04-09 22:39:34.394,LEFT,25
78.0,13069.713183607244,1616.500510752262,-60646.47414046218,-57697.027349117685,-34732.62157829065,-32091.271232518106,-8729.384390042353,-21532.7318349757,0.0,0.0,0.0,193.0,1.0,155.0,0.0,2.0,3.0,252.0,411.0,2.0,1020.0,1744252774.3940632,0.0,2025-04-09 22:39:34.394,LEFT,25
79.0,13004.848421197943,1605.9057838804465,-60686.707280481736,-57753.24198642278,-34754.83921227923,-32111.231340316695,-8690.849982601403,-21548.78038749461,0.0,0.0,0.0,193.0,1.0,154.0,0.0,2.0,3.0,250.0,410.0,2.0,1018.0,1744252774.3940723,0.0,2025-04-09 22:39:34.394,LEFT,25
80.0,13013.140918390862,1576.7814608551814,-60691.69171949527,-57714.88639293747,-34802.94016634705,-32154.79489026009,-8620.218470122632,-21570.99802148319,0.0,0.0,0.0,193.0,1.0,155.0,0.0,2.0,3.0,251.0,411.0,2.0,1019.0,1744252774.394081,0.0,2025-04-09 22:39:34.394,LEFT,25
81.0,13118.596448731,1598.730873910293,-60698.86662946542,-57747.788160775686,-34803.58836693625,-32142.8367069765,-8714.252259046109,-21570.193358682794,0.0,0.0,0.0,193.0,1.0,154.0,0.0,2.0,3.0,250.0,410.0,2.0,1018.0,1744252774.3940902,0.0,2025-04-09 22:39:34.394,LEFT,25
82.0,13074.138829009395,1604.408217001941,-60655.68305917777,-57714.908744681925,-34738.455383593486,-32084.900985348344,-8804.799175834558,-21520.796003436568,0.0,0.0,0.0,193.0,1.0,154.0,0.0,2.0,3.0,250.0,410.0,2.0,1018.0,1744252774.394099,0.0,2025-04-09 22:39:34.394,LEFT,25
83.0,13011.308075345527,1599.2673157772203,-60693.457507307234,-57751.92323349992,-34763.04230249432,-32115.0311368741,-8673.90736030428,-21551.820224740535,0.0,0.0,0.0,193.0,1.0,155.0,0.0,2.0,3.0,252.0,411.0,2.0,1020.0,1744252774.394108,0.0,2025-04-09 22:39:34.394,LEFT,25
84.0,12992.130278602872,1566.3878996834637,-60700.58771378848,-57740.05445719415,-34804.05775356982,-32155.37603561593,-8683.920941820257,-21589.147637980896,0.0,0.0,0.0,193.0,1.0,154.0,0.0,2.0,3.0,250.0,410.0,2.0,1018.0,1744252774.3941472,0.0,2025-04-09 22:39:34.394,LEFT,25
85.0,13107.599390458989,1589.566658683617,-60705.37098710192,-57737.57341355961,-34824.71076544652,-32167.334218899516,-8649.342793147898,-21597.46248691827,0.0,0.0,0.0,193.0,1.0,155.0,0.0,2.0,3.0,252.0,411.0,2.0,1020.0,1744252774.394156,0.0,2025-04-09 22:39:34.394,LEFT,25
86.0,13084.957073325762,1604.8552518910471,-60655.236024288664,-57729.50443381124,-34741.182296417035,-32087.762008638623,-8871.608540011472,-21528.239134340183,0.0,0.0,0.0,193.0,1.0,154.0,0.0,2.0,3.0,250.0,410.0,2.0,1018.0,1744252774.394165,0.0,2025-04-09 22:39:34.394,LEFT,25
87.0,13025.121453418906,1610.1302635824995,-60682.12517286839,-57735.00296294725,-34760.69536932652,-32110.31491879403,-8658.417601396752,-21543.281858358605,0.0,0.0,0.0,193.0,1.0,154.0,0.0,2.0,3.0,251.0,410.0,2.0,1019.0,1744252774.3941736,0.0,2025-04-09 22:39:34.394,LEFT,25
88.0,12983.301339543026,1579.2401527452653,-60692.51873404012,-57746.938794486385,-34787.65157313962,-32132.55490452706,-8728.82559643097,-21561.49853008968,0.0,0.0,0.0,193.0,1.0,154.0,0.0,2.0,3.0,251.0,410.0,2.0,1019.0,1744252774.3941855,0.0,2025-04-09 22:39:34.394,LEFT,25
89.0,13101.519715967146,1599.0437983326672,-60692.38462357338,-57710.438395790865,-34816.84295139825,-32160.852213007478,-8576.744327157061,-21577.524730864137,0.0,0.0,0.0,193.0,1.0,154.0,0.0,2.0,3.0,251.0,410.0,2.0,1019.0,1744252774.3941944,0.0,2025-04-09 22:39:34.394,LEFT,25
90.0,13104.179573557327,1617.6404497194828,-60650.31864050849,-57737.506358326245,-34733.560351557775,-32077.413150955817,-8902.677464804348,-21521.801831937057,0.0,0.0,0.0,193.0,1.0,155.0,0.0,2.0,3.0,251.0,411.0,2.0,1019.0,1744252774.3942032,0.0,2025-04-09 22:39:34.394,LEFT,25
91.0,13054.849273544463,1622.826054433114,-60656.17479755578,-57709.43256729038,-34733.96268295797,-32091.38299124038,-8646.23590066861,-21525.422814538815,0.0,0.0,0.0,193.0,1.0,154.0,0.0,2.0,3.0,251.0,410.0,2.0,1019.0,1744252774.3942125,0.0,2025-04-09 22:39:34.394,LEFT,25
92.0,12981.982586620163,1577.2731992331983,-60697.749042242656,-57770.25166395327,-34778.17443349057,-32133.9854161722,-8747.444599562241,-21567.578204581525,0.0,0.0,0.0,193.0,1.0,154.0,0.0,2.0,3.0,252.0,410.0,2.0,1020.0,1744252774.3942213,0.0,2025-04-09 22:39:34.394,LEFT,25
93.0,13081.000814557174,1587.7114638938265,-60698.33018759849,-57712.22653534729,-34824.33078579078,-32176.476082381738,-8567.580111930385,-21605.03972828862,0.0,0.0,0.0,193.0,1.0,155.0,0.0,2.0,3.0,251.0,411.0,2.0,1019.0,1744252774.3942301,0.0,2025-04-09 22:39:34.394,LEFT,25
94.0,13114.193155073304,1611.761940927737,-60672.2680535636,-57762.22738769381,-34753.02872097835,-32094.892215119868,-8911.931087008845,-21548.55687005006,0.0,0.0,0.0,193.0,1.0,154.0,0.0,2.0,3.0,250.0,410.0,2.0,1018.0,1744252774.3942387,0.0,2025-04-09 22:39:34.394,LEFT,25
95.0,13059.699602091267,1616.3216967966196,-60669.78700992907,-57718.01563716122,-34750.39121513262,-32106.492770492172,-8685.016177298568,-21553.49660557468,0.0,0.0,0.0,193.0,1.0,154.0,0.0,2.0,3.0,251.0,410.0,2.0,1019.0,1744252774.3942478,0.0,2025-04-09 22:39:34.394,LEFT,25
96.0,12981.848476153431,1580.8718300905027,-60717.41857736333,-57790.85997234106,-34790.75846561891,-32143.79783198808,-8776.613626076416,-21597.238969473718,0.0,0.0,0.0,193.0,1.0,154.0,0.0,2.0,3.0,250.0,410.0,2.0,1018.0,1744252774.3942564,0.0,2025-04-09 22:39:34.394,LEFT,25
97.0,13056.369192167425,1582.7493766247485,-60708.0308446921,-57717.38978831647,-34834.456126029036,-32186.042629008607,-8603.834641436892,-21635.08047283655,0.0,0.0,0.0,193.0,1.0,155.0,0.0,2.0,3.0,250.0,411.0,2.0,1018.0,1744252774.3942654,0.0,2025-04-09 22:39:34.394,LEFT,25
98.0,13122.910335410874,1611.8513479055582,-60694.9774259302,-57771.50336164277,-34787.606869650706,-32123.569503256025,-8908.511270107183,-21599.407088685883,0.0,0.0,0.0,193.0,1.0,154.0,0.0,2.0,3.0,252.0,410.0,2.0,1020.0,1744252774.394274,0.0,2025-04-09 22:39:34.394,LEFT,25
99.0,13070.271977218626,1622.826054433114,-60661.20394005823,-57702.92820965388,-34748.33485464274,-32087.11380804942,-8749.411553074307,-21529.244962840672,0.0,0.0,0.0,193.0,1.0,154.0,0.0,2.0,3.0,250.0,410.0,2.0,1018.0,1744252774.3942888,0.0,2025-04-09 22:39:34.394,LEFT,25
100.0,13007.53063053258,1612.9912868727788,-60693.748079985155,-57760.79687604868,-34762.75172981641,-32100.055468089042,-8747.332840839963,-21529.73670121869,0.0,0.0,0.0,193.0,1.0,154.0,0.0,2.0,3.0,251.0,410.0,2.0,1019.0,1744252774.3942974,0.0,2025-04-09 22:39:34.394,LEFT,25
101.0,13046.668535073823,1597.121548309511,-60690.73059448369,-57700.938904397364,-34813.44548624104,-32150.8386314915,-8628.846243482381,-21578.687021575814,0.0,0.0,0.0,193.0,1.0,154.0,0.0,2.0,3.0,250.0,410.0,2.0,1018.0,1744252774.3943064,0.0,2025-04-09 22:39:34.394,LEFT,25
102.0,13131.78397795963,1619.0262578757117,-60697.950207942755,-57754.538387601184,-34802.18020703557,-32122.943654411276,-8829.430798224306,-21568.762847037655,0.0,0.0,0.0,193.0,1.0,155.0,0.0,2.0,3.0,252.0,411.0,2.0,1020.0,1744252774.3943155,0.0,2025-04-09 22:39:34.394,LEFT,25
103.0,13085.895846592886,1630.1350748699995,-60651.01154458661,-57699.97777938578,-34742.45634585099,-32074.216851498706,-8806.07322526851,-21523.05352962655,0.0,0.0,0.0,193.0,1.0,154.0,0.0,2.0,3.0,250.0,410.0,2.0,1018.0,1744252774.3943243,0.0,2025-04-09 22:39:34.394,LEFT,25
104.0,13009.698749744744,1608.7221036818153,-60701.034748677586,-57761.758001060254,-34776.31923870078,-32111.36545078343,-8732.983020899657,-21561.833806256513,0.0,0.0,0.0,193.0,1.0,155.0,0.0,2.0,3.0,249.0,411.0,2.0,1017.0,1744252774.3943331,0.0,2025-04-09 22:39:34.394,LEFT,25
105.0,13007.95531367723,1578.7707661117038,-60702.353501600446,-57728.94564019986,-34818.27346304339,-32151.79975650308,-8690.849982601403,-21583.64910884489,0.0,0.0,0.0,193.0,1.0,154.0,0.0,2.0,3.0,250.0,410.0,2.0,1018.0,1744252774.394342,0.0,2025-04-09 22:39:34.394,LEFT,25
106.0,13119.714035953766,1603.6929611793712,-60702.219391133716,-57747.989326475785,-34818.854608399226,-32147.195297145285,-8741.789608215047,-21578.642318086902,0.0,0.0,0.0,193.0,1.0,154.0,0.0,2.0,3.0,250.0,410.0,2.0,1018.0,1744252774.3943508,0.0,2025-04-09 22:39:34.394,LEFT,25
107.0,13079.212675000748,1607.1351298254883,-60656.39831500034,-57725.749340742754,-34747.93252324254,-32089.237223772674,-8869.28395858812,-21528.17207910682,0.0,0.0,0.0,193.0,1.0,154.0,0.0,2.0,3.0,249.0,410.0,2.0,1017.0,1744252774.3943598,0.0,2025-04-09 22:39:34.394,LEFT,25
108.0,13015.33138934748,1600.3849029999858,-60687.51194328212,-57752.459675366845,-34763.489337383435,-32112.55009323956,-8700.684750161738,-21545.204108381764,0.0,0.0,0.0,193.0,1.0,154.0,0.0,2.0,3.0,252.0,410.0,2.0,1020.0,1744252774.394369,0.0,2025-04-09 22:39:34.394,LEFT,25
109.0,12986.989377378151,1569.2712747181984,-60695.58092303049,-57746.46940785282,-34802.80605588032,-32149.74339601319,-8731.910137165802,-21584.297309434096,0.0,0.0,0.0,193.0,1.0,154.0,0.0,2.0,3.0,250.0,410.0,2.0,1018.0,1744252774.3943777,0.0,2025-04-09 22:39:34.394,LEFT,25
110.0,13107.398224758892,1589.8795831059913,-60697.48082130919,-57736.20995714783,-34823.1684950791,-32172.899803268887,-8658.752877563582,-21606.447888189305,0.0,0.0,0.0,193.0,1.0,154.0,0.0,2.0,3.0,251.0,410.0,2.0,1019.0,1744252774.3943865,0.0,2025-04-09 22:39:34.394,LEFT,25
111.0,13091.953169340273,1607.3139437811308,-60646.67530616228,-57734.62298329151,-34733.82857249124,-32081.10118879094,-8904.33149389404,-21517.48794525718,0.0,0.0,0.0,193.0,1.0,155.0,0.0,2.0,3.0,252.0,411.0,2.0,1020.0,1744252774.3943954,0.0,2025-04-09 22:39:34.394,LEFT,25
112.0,13035.112683190428,1607.5598129701393,-60670.748134940644,-57731.493739067766,-34747.86546800917,-32099.340212266474,-8669.839342813415,-21524.26052382714,0.0,0.0,0.0,193.0,1.0,154.0,0.0,2.0,3.0,249.0,410.0,2.0,1017.0,1744252774.3944042,0.0,2025-04-09 22:39:34.394,LEFT,25
113.0,12980.864999397398,1569.0254055291898,-60693.904542196346,-57765.82601855112,-34781.12486375867,-32136.64527376238,-8761.816771247002,-21571.713277305756,0.0,0.0,0.0,193.0,1.0,154.0,0.0,2.0,3.0,252.0,410.0,2.0,1020.0,1744252774.394413,0.0,2025-04-09 22:39:34.394,LEFT,25
114.0,13091.774355384632,1586.1691935264105,-60697.27965560909,-57724.11766339751,-34822.98968112346,-32171.80456779058,-8612.12713862981,-21600.7481933532,0.0,0.0,0.0,193.0,1.0,154.0,0.0,2.0,3.0,250.0,410.0,2.0,1018.0,1744252774.3944266,0.0,2025-04-09 22:39:34.394,LEFT,25
115.0,13097.630512431922,1606.0622460916336,-60660.421629002296,-57758.15937020295,-34743.59628481821,-32082.95638358073,-8946.86686359249,-21523.478212771202,0.0,0.0,0.0,193.0,1.0,154.0,0.0,2.0,3.0,251.0,410.0,2.0,1019.0,1744252774.3944354,0.0,2025-04-09 22:39:34.394,LEFT,25
116.0,13043.159311194338,1615.3605717850414,-60664.109666837416,-57722.9777244303,-34741.38346211713,-32093.774627897103,-8691.587590168429,-21527.523878517615,0.0,0.0,0.0,193.0,1.0,154.0,0.0,2.0,3.0,250.0,410.0,2.0,1018.0,1744252774.3944445,0.0,2025-04-09 22:39:34.394,LEFT,25
117.0,12983.547208732034,1583.3528737250417,-60691.177629372796,-57772.0845069986,-34766.99856126292,-32117.199256086264,-8793.22097220671,-21555.418855597836,0.0,0.0,0.0,193.0,1.0,155.0,0.0,2.0,3.0,252.0,411.0,2.0,1020.0,1744252774.3944533,0.0,2025-04-09 22:39:34.394,LEFT,25
118.0,13078.184494755806,1586.1691935264105,-60687.69075723777,-57707.89029692296,-34812.976099607484,-32164.204974675773,-8602.426481536208,-21590.55579788158,0.0,0.0,0.0,193.0,1.0,154.0,0.0,2.0,3.0,249.0,410.0,2.0,1017.0,1744252774.3944623,0.0,2025-04-09 22:39:34.394,LEFT,25
119.0,13113.746120184198,1603.0447605901672,-60673.02801287509,-57769.379945919514,-34757.56612510278,-32100.167226811318,-8943.603508902015,-21549.138015405897,0.0,0.0,0.0,193.0,1.0,155.0,0.0,2.0,3.0,252.0,411.0,2.0,1020.0,1744252774.3944712,0.0,2025-04-09 22:39:34.394,LEFT,25
120.0,13058.671421846322,1612.8795281505024,-60657.5159022231,-57710.41604404641,-34743.149249929105,-32088.36550573892,-8735.709933723205,-21522.24886682616,0.0,0.0,0.0,193.0,1.0,154.0,0.0,2.0,3.0,249.0,410.0,2.0,1017.0,1744252774.39448,0.0,2025-04-09 22:39:34.394,LEFT,25
121.0,12987.391708778348,1585.4315859593853,-60697.883152709386,-57779.639396624494,-34773.99465727743,-32124.240055589686,-8811.370588704418,-21565.65595455837,0.0,0.0,0.0,193.0,1.0,155.0,0.0,2.0,3.0,252.0,411.0,2.0,1020.0,1744252774.3944888,0.0,2025-04-09 22:39:34.394,LEFT,25
122.0,13050.82595954251,1576.9379230663685,-60693.21163811823,-57713.92526792589,-34824.28608230187,-32173.145672457897,-8656.294185673498,-21611.141754524917,0.0,0.0,0.0,193.0,1.0,154.0,0.0,2.0,3.0,250.0,410.0,2.0,1018.0,1744252774.3944976,0.0,2025-04-09 22:39:34.394,LEFT,25
123.0,13114.461376006768,1596.5627546981282,-60689.59065551647,-57774.23027446631,-34785.081122527256,-32118.87563692041,-8916.692008577826,-21564.40425686887,0.0,0.0,0.0,193.0,1.0,155.0,0.0,2.0,3.0,252.0,411.0,2.0,1020.0,1744252774.3945105,0.0,2025-04-09 22:39:34.394,LEFT,25
124.0,13066.136904494395,1609.1020833375555,-60648.68696316326,-57706.102157366535,-34734.25325563589,-32077.45785444473,-8791.522239628106,-21512.83878241048,0.0,0.0,0.0,193.0,1.0,154.0,0.0,2.0,3.0,250.0,410.0,2.0,1018.0,1744252774.394519,0.0,2025-04-09 22:39:34.394,LEFT,25
125.0,12995.393633293348,1592.181812784888,-60687.02020490411,-57763.88141678351,-34754.258066923394,-32098.53554946608,-8774.758431286626,-21538.297419345072,0.0,0.0,0.0,193.0,1.0,155.0,0.0,2.0,3.0,252.0,411.0,2.0,1020.0,1744252774.394528,0.0,2025-04-09 22:39:34.394,LEFT,25
126.0,13017.968895193208,1572.9816642977792,-60685.18736185877,-57708.694959723354,-34803.186035536055,-32143.306093610063,-8677.729508606137,-21578.083524475518,0.0,0.0,0.0,193.0,1.0,154.0,0.0,2.0,3.0,250.0,410.0,2.0,1018.0,1744252774.3945365,0.0,2025-04-09 22:39:34.394,LEFT,25
127.0,13120.250477820693,1605.6599146914382,-60685.54498977006,-57749.017506720724,-34791.18314876356,-32119.948520654267,-8836.69511517228,-21570.12630344943,0.0,0.0,0.0,193.0,1.0,154.0,0.0,2.0,3.0,251.0,410.0,2.0,1019.0,1744252774.3945453,0.0,2025-04-09 22:39:34.394,LEFT,25
128.0,13070.003756285163,1606.7104466808375,-60644.95422183922,-57705.87863992198,-34734.2979591248,-32071.177014252786,-8865.953548664278,-21522.293570315072,0.0,0.0,0.0,193.0,1.0,154.0,0.0,2.0,3.0,249.0,410.0,2.0,1017.0,1744252774.3945537,0.0,2025-04-09 22:39:34.394,LEFT,25
129.0,13001.719176974198,1595.5569261976393,-60685.992024659165,-57755.544216101676,-34755.375654146155,-32102.223587301207,-8763.962538714712,-21543.661838014348,0.0,0.0,0.0,193.0,1.0,155.0,0.0,2.0,3.0,252.0,411.0,2.0,1020.0,1744252774.3945673,0.0,2025-04-09 22:39:34.394,LEFT,25
130.0,12983.591912220945,1556.9331117788688,-60701.05710042204,-57741.261451394734,-34811.14325656214,-32155.577201316024,-8746.59523327294,-21581.570396610547,0.0,0.0,0.0,193.0,1.0,154.0,0.0,2.0,3.0,250.0,410.0,2.0,1018.0,1744252774.394576,0.0,2025-04-09 22:39:34.394,LEFT,25
131.0,13110.415710260357,1595.311057008631,-60694.41863231881,-57744.413047362934,-34812.149085062636,-32150.995093702688,-8763.560207314516,-21586.46542864626,0.0,0.0,0.0,193.0,1.0,154.0,0.0,2.0,3.0,252.0,410.0,2.0,1020.0,1744252774.394585,0.0,2025-04-09 22:39:34.394,LEFT,25
132.0,13086.298177993081,1615.9417171408793,-60636.39350371284,-57715.266372593214,-34727.43597357702,-32064.337380449462,-8925.699761593314,-21505.529761973594,0.0,0.0,0.0,193.0,1.0,154.0,0.0,2.0,3.0,250.0,410.0,2.0,1018.0,1744252774.3945932,0.0,2025-04-09 22:39:34.394,LEFT,25
133.0,13024.272087129604,1612.2536793057538,-60668.647070961844,-57735.71821876982,-34749.58655233223,-32093.43935173027,-8737.587480257449,-21523.366454048926,0.0,0.0,0.0,193.0,1.0,155.0,0.0,2.0,3.0,251.0,411.0,2.0,1019.0,1744252774.394602,0.0,2025-04-09 22:39:34.394,LEFT,25
134.0,12990.498601257636,1577.7202341223044,-60678.81711468901,-57739.51801532722,-34784.6117358937,-32128.64334924738,-8788.795326804558,-21554.524785819627,0.0,0.0,0.0,193.0,1.0,154.0,0.0,2.0,3.0,249.0,410.0,2.0,1017.0,1744252774.394611,0.0,2025-04-09 22:39:34.394,LEFT,25
135.0,13115.243687062704,1604.9670106133237,-60677.20778908823,-57713.25471559224,-34810.65151818413,-32149.274009379627,-8690.179430267743,-21577.636489586414,0.0,0.0,0.0,193.0,1.0,155.0,0.0,2.0,3.0,252.0,411.0,2.0,1020.0,1744252774.3946197,0.0,2025-04-09 22:39:34.394,LEFT,25
136.0,13096.244704275692,1612.1419205834773,-60642.160253782306,-57734.913555969426,-34738.74595627141,-32073.92627882079,-8986.071823367098,-21524.573448249514,0.0,0.0,0.0,193.0,1.0,154.0,0.0,2.0,3.0,249.0,410.0,2.0,1017.0,1744252774.3946283,0.0,2025-04-09 22:39:34.394,LEFT,25
137.0,13036.207918668739,1614.1982810733655,-60660.60044295793,-57724.43058781989,-34747.10550869769,-32098.60260469945,-8745.477646050173,-21537.224535611218,0.0,0.0,0.0,193.0,1.0,154.0,0.0,2.0,3.0,253.0,410.0,2.0,1021.0,1744252774.3946369,0.0,2025-04-09 22:39:34.394,LEFT,25
138.0,12980.753240675122,1584.828088859092,-60678.41478328881,-57753.24198642278,-34772.51944214338,-32122.764840455635,-8827.709713901248,-21546.724027004722,0.0,0.0,0.0,193.0,1.0,154.0,0.0,2.0,3.0,250.0,410.0,2.0,1018.0,1744252774.3946455,0.0,2025-04-09 22:39:34.394,LEFT,25
139.0,13100.268018277648,1605.6599146914382,-60670.256396562625,-57693.27225604919,-34810.98679435096,-32157.946486228288,-8662.105639231879,-21578.664669831356,0.0,0.0,0.0,193.0,1.0,155.0,0.0,2.0,3.0,252.0,411.0,2.0,1020.0,1744252774.394654,0.0,2025-04-09 22:39:34.394,LEFT,25
140.0,13116.942419641307,1624.1895108448878,-60640.79679737053,-57733.57245130211,-34736.51078182588,-32080.698857390747,-9007.618905022015,-21515.811564423035,0.0,0.0,0.0,193.0,1.0,154.0,0.0,2.0,3.0,250.0,410.0,2.0,1018.0,1744252774.3946624,0.0,2025-04-09 22:39:34.394,LEFT,25
141.0,13066.271014961127,1631.789103959692,-60636.05822754601,-57682.1634390549,-34726.54190379881,-32075.647363143846,-8743.242471604643,-21486.06139255302,0.0,0.0,0.0,193.0,1.0,154.0,0.0,2.0,3.0,252.0,410.0,2.0,1020.0,1744252774.3946712,0.0,2025-04-09 22:39:34.394,LEFT,25
142.0,12999.416947295304,1599.7143506663265,-60669.697602951244,-57738.892166482474,-34752.4028721336,-32104.838741402476,-8834.661106426849,-21516.951503390253,0.0,0.0,0.0,193.0,1.0,153.0,0.0,2.0,3.0,250.0,409.0,2.0,1018.0,1744252774.39468,0.0,2025-04-09 22:39:34.394,LEFT,25
143.0,13083.951244825274,1602.8435948900694,-60665.87545464939,-57670.13820053795,-34796.81578836629,-32153.789061759602,-8644.33600238991,-21552.110797418452,0.0,0.0,0.0,193.0,1.0,154.0,0.0,2.0,3.0,252.0,410.0,2.0,1020.0,1744252774.394745,0.0,2025-04-09 22:39:34.394,LEFT,25
144.0,13128.6994372248,1623.3848480444967,-60654.744285910645,-57728.051570421645,-34743.19395341801,-32091.762970896125,-8974.180695316874,-21514.604570222447,0.0,0.0,0.0,193.0,1.0,153.0,0.0,2.0,3.0,249.0,409.0,2.0,1017.0,1744252774.3947537,0.0,2025-04-09 22:39:34.394,LEFT,25
145.0,13068.148561495373,1627.5199207687285,-60640.6626869038,-57668.81944761508,-34720.88691245162,-32085.549185937547,-8800.194716476764,-21503.49575322816,0.0,0.0,0.0,193.0,1.0,154.0,0.0,2.0,3.0,249.0,410.0,2.0,1017.0,1744252774.3947625,0.0,2025-04-09 22:39:34.394,LEFT,25
146.0,12999.349892061937,1605.9057838804465,-60680.605254245434,-57733.23717513528,-34743.32806388474,-32107.476247248203,-8869.306310332575,-21528.574410507015,0.0,0.0,0.0,193.0,1.0,154.0,0.0,2.0,3.0,252.0,410.0,2.0,1020.0,1744252774.394771,0.0,2025-04-09 22:39:34.394,LEFT,25
147.0,13055.788046811587,1591.9135918514244,-60673.29623380855,-57663.45502894581,-34791.27255574138,-32147.821145990034,-8724.958744640202,-21555.888242231398,0.0,0.0,0.0,193.0,1.0,154.0,0.0,2.0,3.0,249.0,410.0,2.0,1017.0,1744252774.39478,0.0,2025-04-09 22:39:34.394,LEFT,25
148.0,13131.024018648151,1614.1982810733655,-60672.15629484133,-57716.42866330489,-34760.94123851553,-32098.78141865509,-8965.239997534753,-21518.8290499245,0.0,0.0,0.0,193.0,1.0,154.0,0.0,2.0,3.0,250.0,410.0,2.0,1018.0,1744252774.3947887,0.0,2025-04-09 22:39:34.394,LEFT,25
149.0,13085.940550081796,1631.0067929037564,-60627.6092681419,-57648.47936016075,-34707.274700078335,-32049.29465643104,-8894.966112967268,-21465.52013939859,0.0,0.0,0.0,193.0,1.0,154.0,0.0,2.0,3.0,250.0,410.0,2.0,1018.0,1744252774.3947976,0.0,2025-04-09 22:39:34.394,LEFT,25
150.0,13013.789118980065,1619.0933131090776,-60672.93860589727,-57708.18086960088,-34734.744994013905,-32081.369409724404,-8861.416144539851,-21503.316939272518,0.0,0.0,0.0,193.0,1.0,153.0,0.0,2.0,3.0,251.0,409.0,2.0,1019.0,1744252774.3948061,0.0,2025-04-09 22:39:34.394,LEFT,25
151.0,13015.532555047579,1579.955408567835,-60689.076565393996,-57675.88259886296,-34797.01695406639,-32144.22251513273,-8790.35994891643,-21551.239079384697,0.0,0.0,0.0,193.0,1.0,155.0,0.0,2.0,3.0,252.0,411.0,2.0,1020.0,1744252774.3948152,0.0,2025-04-09 22:39:34.394,LEFT,25
152.0,13115.98129462973,1603.3800367569968,-60696.65380676435,-57712.33829406957,-34792.45719819751,-32129.69388123678,-8911.774624797657,-21541.717236246735,0.0,0.0,0.0,193.0,1.0,154.0,0.0,2.0,3.0,249.0,410.0,2.0,1017.0,1744252774.3948236,0.0,2025-04-09 22:39:34.394,LEFT,25
153.0,13087.415765215846,1626.9834789018012,-60637.57814616897,-57659.87874983296,-34710.73922046891,-32054.502612889126,-8974.135991827965,-21471.577462145982,0.0,0.0,0.0,193.0,1.0,155.0,0.0,2.0,3.0,252.0,411.0,2.0,1020.0,1744252774.3948324,0.0,2025-04-09 22:39:34.394,LEFT,25
154.0,13025.836709241476,1623.8318829336029,-60672.715088452715,-57694.12162233849,-34729.49233406691,-32078.374275967395,-8839.332621018008,-21496.58906419147,0.0,0.0,0.0,193.0,1.0,154.0,0.0,2.0,3.0,250.0,410.0,2.0,1018.0,1744252774.3948412,0.0,2025-04-09 22:39:34.394,LEFT,25
155.0,12995.214819337705,1576.4685364328072,-60692.071699151005,-57688.89131413595,-34782.3095062148,-32129.850343447968,-8843.333583275507,-21541.761939735647,0.0,0.0,0.0,193.0,1.0,154.0,0.0,2.0,3.0,251.0,410.0,2.0,1019.0,1744252774.3948498,0.0,2025-04-09 22:39:34.394,LEFT,25
156.0,13111.935628883319,1598.1273768099998,-60701.34767309996,-57696.31209329511,-34803.25309076942,-32143.306093610063,-8828.760245890648,-21555.888242231398,0.0,0.0,0.0,193.0,1.0,154.0,0.0,2.0,3.0,252.0,410.0,2.0,1020.0,1744252774.3948584,0.0,2025-04-09 22:39:34.394,LEFT,25
157.0,13088.086317549505,1614.310039795642,-60647.85994861841,-57681.157610554415,-34719.38934557311,-32058.861203057913,-9039.201919937363,-21478.35004071594,0.0,0.0,0.0,193.0,1.0,154.0,0.0,2.0,3.0,250.0,410.0,2.0,1018.0,1744252774.3948672,0.0,2025-04-09 22:39:34.394,LEFT,25
158.0,13022.640409784366,1616.8134351746364,-60677.63247223288,-57692.266427548704,-34739.5506190718,-32080.274174246097,-8835.935155860801,-21483.423886707293,0.0,0.0,0.0,193.0,1.0,154.0,0.0,2.0,3.0,249.0,410.0,2.0,1017.0,1744252774.3948812,0.0,2025-04-09 22:39:34.394,LEFT,25
159.0,12986.654101211323,1592.3829784849859,-60681.588731001466,-57696.13327933947,-34765.2551251954,-32100.994241356166,-8907.52779335115,-21507.899046885854,0.0,0.0,0.0,193.0,1.0,154.0,0.0,2.0,3.0,252.0,410.0,2.0,1020.0,1744252774.3948898,0.0,2025-04-09 22:39:34.394,LEFT,25
160.0,13115.511907996168,1616.276993307709,-60676.134905354374,-57658.31412772109,-34789.03738129585,-32123.748317211666,-8769.282253895075,-21522.897067415368,0.0,0.0,0.0,193.0,1.0,154.0,0.0,2.0,3.0,249.0,410.0,2.0,1017.0,1744252774.3948984,0.0,2025-04-09 22:39:34.394,LEFT,25
161.0,13112.02503586114,1631.8114557041474,-60638.62867815837,-57682.00697684372,-34706.939423911506,-32041.315083660495,-9075.456449443871,-21465.1178079984,0.0,0.0,0.0,193.0,1.0,154.0,0.0,2.0,3.0,251.0,410.0,2.0,1019.0,1744252774.3949072,0.0,2025-04-09 22:39:34.394,LEFT,25
162.0,13041.840558271475,1627.4528655353624,-60664.06496334851,-57670.1605522824,-34724.753764242385,-32068.517156662605,-8825.966277833733,-21482.507465184626,0.0,0.0,0.0,193.0,1.0,154.0,0.0,2.0,3.0,249.0,410.0,2.0,1017.0,1744252774.394916,0.0,2025-04-09 22:39:34.394,LEFT,25
163.0,12974.561807461001,1585.185716770377,-60698.59840853196,-57720.921363940404,-34764.606924606196,-32103.899968135356,-8933.925203552866,-21513.755203933146,0.0,0.0,0.0,193.0,1.0,154.0,0.0,2.0,3.0,251.0,410.0,2.0,1019.0,1744252774.3949249,0.0,2025-04-09 22:39:34.394,LEFT,25
164.0,13080.151448267872,1592.0253505737007,-60691.33409158398,-57659.968156810784,-34804.0130500809,-32142.61318953195,-8754.798323488036,-21544.377093836916,0.0,0.0,0.0,193.0,1.0,154.0,0.0,2.0,3.0,249.0,410.0,2.0,1017.0,1744252774.3949337,0.0,2025-04-09 22:39:34.394,LEFT,25
165.0,13110.058082349073,1617.953374141857,-60658.5664342125,-57702.07884336458,-34727.10069741019,-32058.861203057913,-9102.36794976806,-21484.9214535858,0.0,0.0,0.0,193.0,1.0,155.0,0.0,2.0,3.0,251.0,411.0,2.0,1019.0,1744252774.3949423,0.0,2025-04-09 22:39:34.394,LEFT,25
166.0,13054.53634912209,1629.7327434698038,-60649.7151434082,-57650.08868576154,-34716.61772926065,-32057.34128443495,-8860.94675790629,-21477.43361919327,0.0,0.0,0.0,193.0,1.0,154.0,0.0,2.0,3.0,252.0,410.0,2.0,1020.0,1744252774.3949509,0.0,2025-04-09 22:39:34.394,LEFT,25
167.0,12976.975795862174,1594.953429097346,-60690.99881541715,-57717.65800924993,-34751.240581421924,-32092.992316841166,-8949.906700838412,-21519.8795819139,0.0,0.0,0.0,193.0,1.0,154.0,0.0,2.0,3.0,249.0,410.0,2.0,1017.0,1744252774.3949597,0.0,2025-04-09 22:39:34.394,LEFT,25
168.0,13057.39737241237,1593.187641285377,-60685.18736185877,-57649.46283691679,-34799.1627215341,-32136.64527376238,-8769.863399250913,-21551.373189851427,0.0,0.0,0.0,193.0,1.0,154.0,0.0,2.0,3.0,250.0,410.0,2.0,1018.0,1744252774.394968,0.0,2025-04-09 22:39:34.394,LEFT,25
169.0,13110.974503871741,1606.4645774918292,-60673.94443439775,-57711.53363126918,-34748.62542732065,-32075.177976510287,-9073.668309887447,-21500.366509004416,0.0,0.0,0.0,193.0,1.0,154.0,0.0,2.0,3.0,251.0,410.0,2.0,1019.0,1744252774.3949769,0.0,2025-04-09 22:39:34.394,LEFT,25
170.0,13056.43624740079,1616.3664002855303,-60645.84829161743,-57651.228624728756,-34713.220264103446,-32056.760139079113,-8905.04674971661,-21476.316031970506,0.0,0.0,0.0,193.0,1.0,155.0,0.0,2.0,3.0,251.0,411.0,2.0,1019.0,1744252774.3949857,0.0,2025-04-09 22:39:34.394,LEFT,25
171.0,12990.699766957732,1599.9378681108794,-60681.11934436791,-57714.26054409272,-34733.80622074678,-32078.44133120076,-8933.142892496931,-21498.846590381454,0.0,0.0,0.0,193.0,1.0,154.0,0.0,2.0,3.0,249.0,410.0,2.0,1017.0,1744252774.3949945,0.0,2025-04-09 22:39:34.394,LEFT,25
172.0,13038.621907069912,1592.181812784888,-60669.74230644016,-57646.42299967087,-34777.88386081265,-32119.41207878734,-8801.200544977253,-21529.02144539612,0.0,0.0,0.0,193.0,1.0,155.0,0.0,2.0,3.0,252.0,411.0,2.0,1020.0,1744252774.395003,0.0,2025-04-09 22:39:34.395,LEFT,25
173.0,13116.853012663487,1615.6734962074156,-60674.9726146427,-57703.97874164328,-34757.767290802876,-32095.830988386988,-9007.283628855184,-21523.12058485992,0.0,0.0,0.0,193.0,1.0,155.0,0.0,2.0,3.0,252.0,411.0,2.0,1020.0,1744252774.3950164,0.0,2025-04-09 22:39:34.395,LEFT,25
174.0,13070.227273729715,1624.7259527118151,-60628.34687570893,-57645.26070895919,-34700.16684534155,-32040.465717371193,-8963.29539576714,-21444.867127521888,0.0,0.0,0.0,193.0,1.0,154.0,0.0,2.0,3.0,251.0,410.0,2.0,1019.0,1744252774.395025,0.0,2025-04-09 22:39:34.395,LEFT,25
175.0,13000.601589751433,1605.6599146914382,-60674.614986731416,-57707.309151567126,-34728.50885731087,-32077.144930022354,-8902.968037482267,-21479.825255849988,0.0,0.0,0.0,193.0,1.0,155.0,0.0,2.0,3.0,249.0,411.0,2.0,1017.0,1744252774.3950336,0.0,2025-04-09 22:39:34.395,LEFT,25
176.0,13007.95531367723,1576.2226672437987,-60676.6713472213,-57671.27813950517,-34776.11807300068,-32125.31293932354,-8850.664955456848,-21529.200259351765,0.0,0.0,0.0,193.0,1.0,154.0,0.0,2.0,3.0,250.0,410.0,2.0,1018.0,1744252774.3950424,0.0,2025-04-09 22:39:34.395,LEFT,25
177.0,13115.176631829338,1600.9436966113683,-60680.8734751789,-57698.23434331827,-34778.53206140186,-32119.076802620508,-8939.043753033133,-21536.151651877364,0.0,0.0,0.0,193.0,1.0,155.0,0.0,2.0,3.0,252.0,411.0,2.0,1020.0,1744252774.3950512,0.0,2025-04-09 22:39:34.395,LEFT,25
178.0,13084.487686692202,1622.9378131553906,-60621.7084076057,-57653.5085026632,-34700.32330755273,-32037.247066169628,-9048.79081830869,-21453.24903169263,0.0,0.0,0.0,193.0,1.0,154.0,0.0,2.0,3.0,251.0,410.0,2.0,1019.0,1744252774.3950598,0.0,2025-04-09 22:39:34.395,LEFT,25
179.0,13024.115624918417,1621.4625980213402,-60654.319602765994,-57682.833991388565,-34717.2435781054,-32067.086645017465,-8892.23920014372,-21480.78638086157,0.0,0.0,0.0,193.0,1.0,154.0,0.0,2.0,3.0,251.0,410.0,2.0,1019.0,1744252774.3950684,0.0,2025-04-09 22:39:34.395,LEFT,25
180.0,12994.007825137118,1580.4471469458517,-60672.983309386174,-57685.65031118993,-34762.25999143839,-32119.769706698622,-8910.18765094133,-21533.916477431834,0.0,0.0,0.0,193.0,1.0,154.0,0.0,2.0,3.0,250.0,410.0,2.0,1018.0,1744252774.395077,0.0,2025-04-09 22:39:34.395,LEFT,25
181.0,13117.657675463877,1608.476234492807,-60671.932777396774,-57671.45695346081,-34778.95674454651,-32120.999052643667,-8860.209150339264,-21529.64729424087,0.0,0.0,0.0,193.0,1.0,154.0,0.0,2.0,3.0,249.0,410.0,2.0,1017.0,1744252774.3950856,0.0,2025-04-09 22:39:34.395,LEFT,25
182.0,13103.285503779114,1630.5821097591056,-60615.15934648029,-57656.63774688694,-34690.10856033666,-32025.713566030692,-9100.222182300351,-21443.302505410018,0.0,0.0,0.0,193.0,1.0,154.0,0.0,2.0,3.0,250.0,410.0,2.0,1018.0,1744252774.3950942,0.0,2025-04-09 22:39:34.395,LEFT,25
183.0,13041.304116404548,1628.2575283357537,-60646.31767825099,-57665.980776069264,-34711.96856641395,-32057.855374557425,-8879.096374403998,-21470.10224701193,0.0,0.0,0.0,193.0,1.0,154.0,0.0,2.0,3.0,250.0,410.0,2.0,1018.0,1744252774.3951027,0.0,2025-04-09 22:39:34.395,LEFT,25
184.0,12988.643406467845,1585.990379570768,-60671.239873318664,-57696.98264562877,-34752.53698260033,-32098.133218065886,-8960.121448054488,-21514.582218477994,0.0,0.0,0.0,193.0,1.0,155.0,0.0,2.0,3.0,252.0,411.0,2.0,1020.0,1744252774.3951113,0.0,2025-04-09 22:39:34.395,LEFT,25
185.0,13107.197059058793,1617.0146008747342,-60663.88614939286,-57647.76410433819,-34782.75654110391,-32123.63655848939,-8810.007132292645,-21532.7318349757,0.0,0.0,0.0,193.0,1.0,154.0,0.0,2.0,3.0,249.0,410.0,2.0,1017.0,1744252774.39512,0.0,2025-04-09 22:39:34.395,LEFT,25
186.0,13104.671311935344,1629.3974673029743,-60632.54900366652,-57685.113869323,-34710.94038616901,-32050.05461574252,-9139.76241824179,-21477.81359884901,0.0,0.0,0.0,193.0,1.0,155.0,0.0,2.0,3.0,252.0,411.0,2.0,1020.0,1744252774.3951285,0.0,2025-04-09 22:39:34.395,LEFT,25
187.0,13050.557738609044,1630.0456678921782,-60640.75209388162,-57659.99050855524,-34713.75670597037,-32068.360694451418,-8893.446194344306,-21492.409287978327,0.0,0.0,0.0,193.0,1.0,154.0,0.0,2.0,3.0,250.0,410.0,2.0,1018.0,1744252774.3951373,0.0,2025-04-09 22:39:34.395,LEFT,25
188.0,12986.967025633696,1599.6249436885053,-60666.23308256067,-57705.5210120107,-34739.12593592715,-32091.517101707115,-8990.184544346876,-21515.25277081165,0.0,0.0,0.0,193.0,1.0,154.0,0.0,2.0,3.0,251.0,410.0,2.0,1019.0,1744252774.395151,0.0,2025-04-09 22:39:34.395,LEFT,25
189.0,13088.35453848297,1614.4888537512845,-60657.58295745647,-57636.74469432172,-34780.677828869564,-32124.30711082305,-8801.580524632995,-21531.010750652644,0.0,0.0,0.0,193.0,1.0,154.0,0.0,2.0,3.0,250.0,410.0,2.0,1018.0,1744252774.872888,0.0,2025-04-09 22:39:34.872,LEFT,25
190.0,13113.16497482836,1626.89407192398,-60644.84246311694,-57697.429680517875,-34727.145400899106,-32058.10124374643,-9146.803217745211,-21489.570616432502,0.0,0.0,0.0,193.0,1.0,154.0,0.0,2.0,3.0,249.0,410.0,2.0,1017.0,1744252774.8729272,0.0,2025-04-09 22:39:34.872,LEFT,25
191.0,13061.599500369966,1635.6336040060048,-60630.202070498715,-57642.53379613564,-34712.08032513622,-32053.16150822181,-8931.19829072932,-21474.706706369725,0.0,0.0,0.0,193.0,1.0,154.0,0.0,2.0,3.0,250.0,410.0,2.0,1018.0,1744252774.8729472,0.0,2025-04-09 22:39:34.872,LEFT,25
192.0,13000.199258351238,1616.6793247079045,-60660.2204633022,-57702.70469220933,-34734.85675273618,-32076.45202594424,-9007.194221877364,-21502.579331705492,0.0,0.0,0.0,193.0,1.0,154.0,0.0,2.0,3.0,249.0,410.0,2.0,1017.0,1744252774.872967,0.0,2025-04-09 22:39:34.872,LEFT,25
193.0,13065.689869605289,1613.1030455950554,-60653.425532987785,-57632.81078729758,-34781.95187830352,-32124.016538145133,-8831.956545347755,-21533.73766347619,0.0,0.0,0.0,193.0,1.0,155.0,0.0,2.0,3.0,252.0,411.0,2.0,1020.0,1744252774.872985,0.0,2025-04-09 22:39:34.872,LEFT,25
194.0,13124.564364500568,1631.9679179153345,-60651.12330330889,-57695.64154096146,-34741.13759292813,-32071.646400886348,-9108.291162048718,-21497.796058392058,0.0,0.0,0.0,193.0,1.0,154.0,0.0,2.0,3.0,249.0,410.0,2.0,1017.0,1744252774.8730023,0.0,2025-04-09 22:39:34.873,LEFT,25
195.0,13075.837561587998,1639.3439935855858,-60619.42852967126,-57635.26947918767,-34699.9880313859,-32044.556086606513,-8969.48682898126,-21471.353944701426,0.0,0.0,0.0,193.0,1.0,155.0,0.0,2.0,3.0,251.0,411.0,2.0,1019.0,1744252774.8730223,0.0,2025-04-09 22:39:34.873,LEFT,25
196.0,12996.555924005024,1612.9689351283237,-60668.8705884064,-57708.73966321226,-34734.36501435817,-32078.754255623135,-8979.500410497238,-21512.436451010282,0.0,0.0,0.0,193.0,1.0,154.0,0.0,2.0,3.0,249.0,410.0,2.0,1017.0,1744252774.8730395,0.0,2025-04-09 22:39:34.873,LEFT,25
197.0,13026.574316808501,1593.4558622188406,-60663.57322497049,-57651.34038345103,-34780.92369805857,-32118.45095377576,-8878.80580172608,-21536.39752106637,0.0,0.0,0.0,193.0,1.0,155.0,0.0,2.0,3.0,251.0,411.0,2.0,1019.0,1744252774.8730597,0.0,2025-04-09 22:39:34.873,LEFT,25
198.0,13121.658637721377,1619.0039061312564,-60658.67819293478,-57690.21006705881,-34758.32608441426,-32085.504482448636,-9044.096951973075,-21514.045776611063,0.0,0.0,0.0,193.0,1.0,154.0,0.0,1.0,3.0,251.0,410.0,1.0,1019.0,1744252774.8730686,0.0,2025-04-09 22:39:34.873,LEFT,25
199.0,13072.35068945297,1623.921289911424,-60618.668570359776,-57643.69608684732,-34705.57596749973,-32035.213057424196,-9052.009469510254,-21459.77574107358,0.0,0.0,0.0,193.0,1.0,155.0,0.0,2.0,3.0,251.0,411.0,2.0,1019.0,1744252774.8730774,0.0,2025-04-09 22:39:34.873,LEFT,25
200.0,13003.95435141973,1617.5063392527509,-60662.209768558714,-57696.82618341759,-34730.9451974565,-32067.176051995284,-8969.442125492349,-21495.35971824643,0.0,0.0,0.0,193.0,1.0,155.0,0.0,2.0,3.0,250.0,411.0,2.0,1018.0,1744252774.8730865,0.0,2025-04-09 22:39:34.873,LEFT,25
201.0,12995.594798993445,1578.055510289134,-60675.48670476517,-57678.31893900859,-34784.47762542697,-32122.6307299889,-8941.05541003411,-21549.495643317183,0.0,0.0,0.0,193.0,1.0,155.0,0.0,2.0,3.0,252.0,411.0,2.0,1020.0,1744252774.8730953,0.0,2025-04-09 22:39:34.873,LEFT,25
202.0,13114.64018996241,1610.4878914937844,-60673.38564078637,-57691.86409614851,-34787.29394522833,-32119.702651465257,-8980.215666319807,-21553.854233485967,0.0,0.0,0.0,193.0,1.0,154.0,0.0,2.0,3.0,250.0,410.0,2.0,1018.0,1744252774.873104,0.0,2025-04-09 22:39:34.873,LEFT,25
203.0,13085.560570426056,1623.6530689779604,-60616.6569133588,-57662.628014400965,-34704.72660121043,-32046.56774360749,-9123.535051767238,-21477.567729660004,0.0,0.0,0.0,193.0,1.0,154.0,0.0,1.0,3.0,250.0,410.0,1.0,1018.0,1744252774.8731432,0.0,2025-04-09 22:39:34.873,LEFT,25
204.0,13027.110758675428,1626.5587957571502,-60645.08833230595,-57681.26936927669,-34719.12112463965,-32066.05846477252,-8938.507311166204,-21483.513293685115,0.0,0.0,0.0,193.0,1.0,155.0,0.0,2.0,3.0,252.0,411.0,2.0,1020.0,1744252774.873152,0.0,2025-04-09 22:39:34.873,LEFT,25
205.0,12982.519028487091,1582.9058388359356,-60669.54114074006,-57691.439413003856,-34769.36784617518,-32113.01947987312,-8985.133050099976,-21530.586067507993,0.0,0.0,0.0,193.0,1.0,154.0,0.0,2.0,3.0,249.0,410.0,2.0,1017.0,1744252774.8731608,0.0,2025-04-09 22:39:34.873,LEFT,25
206.0,13097.898733365386,1602.1730425564103,-60674.79380068705,-57675.972005840784,-34795.564090676795,-32133.203105116263,-8911.707569564292,-21551.484948573703,0.0,0.0,0.0,193.0,1.0,155.0,0.0,2.0,3.0,252.0,411.0,2.0,1020.0,1744252774.87317,0.0,2025-04-09 22:39:34.873,LEFT,25
207.0,13082.185457013305,1617.3275252971084,-60626.022294285576,-57680.799982643126,-34707.87819717863,-32045.673673829282,-9183.05774725172,-21477.835950593468,0.0,0.0,0.0,193.0,1.0,154.0,0.0,2.0,3.0,250.0,410.0,2.0,1018.0,1744252774.8731785,0.0,2025-04-09 22:39:34.873,LEFT,25
208.0,13027.222517397704,1621.6414119769827,-60641.66851540429,-57670.13820053795,-34715.5448455268,-32061.7669298371,-8939.9601745558,-21483.289776240563,0.0,0.0,0.0,193.0,1.0,155.0,0.0,2.0,3.0,252.0,411.0,2.0,1020.0,1744252774.8731875,0.0,2025-04-09 22:39:34.873,LEFT,25
209.0,12973.488923727147,1583.5316876806842,-60665.651937204835,-57702.816450931605,-34752.849907022704,-32099.899005877855,-9028.808358765646,-21526.8309744395,0.0,0.0,0.0,193.0,1.0,154.0,0.0,2.0,3.0,250.0,410.0,2.0,1018.0,1744252774.8731964,0.0,2025-04-09 22:39:34.873,LEFT,25
210.0,13081.91723607984,1595.2663535197203,-60667.70829769472,-57659.766991110686,-34794.42415170958,-32143.440204076793,-8870.356842321973,-21565.141864435896,0.0,0.0,0.0,193.0,1.0,155.0,0.0,2.0,3.0,251.0,411.0,2.0,1019.0,1744252774.8732054,0.0,2025-04-09 22:39:34.873,LEFT,25
211.0,13091.282617006615,1613.7512461842593,-60635.18650951225,-57697.161459584415,-34719.3446420842,-32055.62020011189,-9211.980904576887,-21497.930168858788,0.0,0.0,0.0,193.0,1.0,154.0,0.0,2.0,3.0,250.0,410.0,2.0,1018.0,1744252774.8732142,0.0,2025-04-09 22:39:34.873,LEFT,25
212.0,13037.77254078061,1624.3236213116195,-60633.59953565592,-57652.212101484794,-34713.46613329245,-32055.173165222786,-8966.022308590687,-21486.664889653315,0.0,0.0,0.0,193.0,1.0,155.0,0.0,2.0,3.0,252.0,411.0,2.0,1020.0,1744252774.8732233,0.0,2025-04-09 22:39:34.873,LEFT,25
213.0,12969.80088589202,1586.862097604525,-60668.11062909492,-57710.90778242443,-34741.02583420585,-32091.003011584642,-9053.372925922027,-21532.910648931345,0.0,0.0,0.0,193.0,1.0,154.0,0.0,2.0,3.0,249.0,410.0,2.0,1017.0,1744252774.873232,0.0,2025-04-09 22:39:34.873,LEFT,25
214.0,13054.134017721894,1583.375225469497,-60665.62958546038,-57646.490054904236,-34789.50676792941,-32127.101078879965,-8854.46475201425,-21536.46457629974,0.0,0.0,0.0,193.0,1.0,155.0,0.0,2.0,3.0,252.0,411.0,2.0,1020.0,1744252774.873241,0.0,2025-04-09 22:39:34.873,LEFT,25
215.0,13094.367157741448,1603.6482576904605,-60651.01154458661,-57707.13033761148,-34733.51564806887,-32060.58228738097,-9184.600017619136,-21488.385973976372,0.0,0.0,0.0,193.0,1.0,154.0,0.0,2.0,3.0,251.0,410.0,2.0,1019.0,1744252774.8732495,0.0,2025-04-09 22:39:34.873,LEFT,25
216.0,13039.761846037132,1609.9067461379466,-60635.722951379175,-57652.16739799588,-34714.91899668205,-32055.44138615625,-8989.871619924501,-21479.847607594445,0.0,0.0,0.0,193.0,1.0,155.0,0.0,2.0,3.0,252.0,411.0,2.0,1020.0,1744252774.8732586,0.0,2025-04-09 22:39:34.873,LEFT,25
217.0,12970.94082485924,1591.8465366180583,-60669.004698873134,-57713.61234350352,-34733.001557946394,-32077.34609572245,-9047.516768874737,-21503.58516020598,0.0,0.0,0.0,193.0,1.0,154.0,0.0,2.0,3.0,249.0,410.0,2.0,1017.0,1744252774.8732674,0.0,2025-04-09 22:39:34.873,LEFT,25
218.0,13035.67147680181,1590.5277836951952,-60657.20297780073,-57644.07606650306,-34775.91690730058,-32120.507314265647,-8884.9972349402,-21534.922305932323,0.0,0.0,0.0,193.0,1.0,154.0,0.0,2.0,3.0,251.0,410.0,2.0,1019.0,1744252774.8732812,0.0,2025-04-09 22:39:34.873,LEFT,25
219.0,13107.085300336517,1609.4597112488404,-60658.29821327904,-57707.06328237811,-34745.719700541464,-32080.005953312633,-9140.969412442377,-21508.01080560813,0.0,0.0,0.0,193.0,1.0,154.0,0.0,2.0,3.0,251.0,410.0,2.0,1019.0,1744252774.8732903,0.0,2025-04-09 22:39:34.873,LEFT,25
220.0,13044.545119350567,1606.4422257473739,-60635.67824789027,-57660.28108123316,-34716.66243274957,-32060.984618781167,-9057.08331550161,-21482.887444840366,0.0,0.0,0.0,193.0,1.0,155.0,0.0,2.0,3.0,252.0,411.0,2.0,1020.0,1744252774.8732994,0.0,2025-04-09 22:39:34.873,LEFT,25
221.0,12989.023386123585,1603.2682780347202,-60664.78021917108,-57710.28193357968,-34729.581741044734,-32072.87574683139,-9035.558585591149,-21491.559921689026,0.0,0.0,0.0,193.0,1.0,154.0,0.0,2.0,3.0,250.0,410.0,2.0,1018.0,1744252774.8733084,0.0,2025-04-09 22:39:34.873,LEFT,25
222.0,13012.805642224032,1585.1410132814663,-60663.282652292575,-57661.73394462275,-34776.565107889786,-32124.530628267603,-8939.49078792224,-21536.062244899542,0.0,0.0,0.0,193.0,1.0,155.0,0.0,2.0,3.0,252.0,411.0,2.0,1020.0,1744252774.8733172,0.0,2025-04-09 22:39:34.873,LEFT,25
223.0,13112.02503586114,1612.8795281505024,-60667.90946339482,-57700.78244218617,-34765.992732762425,-32104.995203613664,-9075.903484332977,-21531.390730308383,0.0,0.0,0.0,193.0,1.0,154.0,0.0,2.0,3.0,249.0,410.0,2.0,1017.0,1744252774.873326,0.0,2025-04-09 22:39:34.873,LEFT,25
224.0,13070.674308618822,1621.7755224437146,-60620.03202677155,-57656.72715386476,-34703.094923865196,-32047.171240707787,-9124.697342478912,-21472.471531924195,0.0,0.0,0.0,193.0,1.0,154.0,0.0,2.0,3.0,251.0,410.0,2.0,1019.0,1744252774.873335,0.0,2025-04-09 22:39:34.873,LEFT,25
225.0,13009.676398000289,1618.0204293752229,-60657.873530134384,-57698.502564251736,-34727.16775264356,-32071.042903786052,-9013.273896369206,-21496.432601980283,0.0,0.0,0.0,193.0,1.0,154.0,0.0,2.0,3.0,249.0,410.0,2.0,1017.0,1744252774.8733432,0.0,2025-04-09 22:39:34.873,LEFT,25
226.0,13001.76388046311,1590.7065976508377,-60660.28751853556,-57673.22274127278,-34765.47864263995,-32106.090439091975,-9004.64612300946,-21533.40238730936,0.0,0.0,0.0,193.0,1.0,154.0,0.0,2.0,3.0,250.0,410.0,2.0,1018.0,1744252774.873352,0.0,2025-04-09 22:39:34.873,LEFT,25
227.0,13116.808309174576,1616.6122694745386,-60665.96486162721,-57679.72709890927,-34780.92369805857,-32112.505389750648,-8999.907553184934,-21540.13026239041,0.0,0.0,0.0,193.0,1.0,154.0,0.0,2.0,3.0,253.0,410.0,2.0,1021.0,1744252774.873361,0.0,2025-04-09 22:39:34.873,LEFT,25
228.0,13081.87253259093,1621.4849497657956,-60621.887221561345,-57670.249959260225,-34704.52543551033,-32038.901095259323,-9191.305540955727,-21472.225662735185,0.0,0.0,0.0,193.0,1.0,154.0,0.0,2.0,3.0,249.0,410.0,2.0,1017.0,1744252774.8733697,0.0,2025-04-09 22:39:34.873,LEFT,25
229.0,13020.964028950219,1617.8863189084911,-60652.576166698476,-57684.97975885627,-34724.15026714209,-32064.136214749364,-9001.248657852251,-21493.526875201092,0.0,0.0,0.0,193.0,1.0,155.0,0.0,2.0,3.0,252.0,411.0,2.0,1020.0,1744252774.8733788,0.0,2025-04-09 22:39:34.873,LEFT,25
230.0,12975.18765630575,1579.530725423184,-60672.715088452715,-57700.6706834639,-34764.07048273927,-32107.520950737115,-9061.777181837224,-21539.571468779024,0.0,0.0,0.0,193.0,1.0,154.0,0.0,2.0,3.0,250.0,410.0,2.0,1018.0,1744252774.8733876,0.0,2025-04-09 22:39:34.873,LEFT,25
231.0,13094.300102508081,1596.2274785312986,-60673.78797218657,-57678.52010470869,-34792.434846453056,-32143.239038376694,-8941.077761778566,-21576.451847130284,0.0,0.0,0.0,193.0,1.0,155.0,0.0,2.0,3.0,251.0,411.0,2.0,1019.0,1744252774.8733962,0.0,2025-04-09 22:39:34.873,LEFT,25
232.0,13076.73163136621,1605.1011210800555,-60638.98630606965,-57703.37524454299,-34720.32811884023,-32062.281019959573,-9239.697067701467,-21492.25282576714,0.0,0.0,0.0,193.0,1.0,154.0,0.0,2.0,3.0,250.0,410.0,2.0,1018.0,1744252774.873405,0.0,2025-04-09 22:39:34.873,LEFT,25
233.0,13019.354703349436,1610.5102432382398,-60653.850216132436,-57686.20910480132,-34729.26881662236,-32078.955421323233,-8993.313788570618,-21491.44816296675,0.0,0.0,0.0,193.0,1.0,154.0,0.0,2.0,3.0,251.0,410.0,2.0,1019.0,1744252774.8734183,0.0,2025-04-09 22:39:34.873,LEFT,25
234.0,12971.65608068181,1586.6609319044271,-60663.48381799267,-57712.15948011392,-34747.887819753625,-32094.467531975217,-9081.826696613634,-21513.06229985503,0.0,0.0,0.0,193.0,1.0,155.0,0.0,2.0,3.0,252.0,411.0,2.0,1020.0,1744252774.8734272,0.0,2025-04-09 22:39:34.873,LEFT,25
235.0,13076.552817410568,1597.9932663432678,-60660.95807086922,-57654.20140674131,-34790.37848596316,-32129.35860506995,-8892.32860712154,-21543.21480312524,0.0,0.0,0.0,193.0,1.0,154.0,0.0,2.0,3.0,251.0,410.0,2.0,1019.0,1744252774.873436,0.0,2025-04-09 22:39:34.873,LEFT,25
236.0,13094.747137397188,1616.7240281968152,-60632.861928088896,-57698.86019216302,-34717.19887461649,-32041.024510982577,-9238.802997923256,-21482.798037862547,0.0,0.0,0.0,193.0,1.0,155.0,0.0,2.0,3.0,250.0,411.0,2.0,1018.0,1744252774.8734448,0.0,2025-04-09 22:39:34.873,LEFT,25
237.0,13044.43336062829,1625.0388771341893,-60628.525689664566,-57649.82046482807,-34713.91316818156,-32036.665920813793,-8997.493564783761,-21473.38795344686,0.0,0.0,0.0,193.0,1.0,154.0,0.0,2.0,3.0,249.0,410.0,2.0,1017.0,1744252774.8734531,0.0,2025-04-09 22:39:34.873,LEFT,25
238.0,12976.886388884353,1591.533612195684,-60664.51199823761,-57714.99815165975,-34744.02096796286,-32075.714418377214,-9097.025882843243,-21513.911666144333,0.0,0.0,0.0,193.0,1.0,154.0,0.0,2.0,3.0,250.0,410.0,2.0,1018.0,1744252774.8734624,0.0,2025-04-09 22:39:34.873,LEFT,25
239.0,13062.493570148179,1597.2109552873321,-60652.151483553826,-57640.54449087912,-34783.40474169311,-32117.199256086264,-8913.965095754278,-21543.684189758802,0.0,0.0,0.0,193.0,1.0,154.0,0.0,2.0,3.0,249.0,410.0,2.0,1017.0,1744252774.8734713,0.0,2025-04-09 22:39:34.873,LEFT,25
240.0,13106.347692769492,1616.0981793520666,-60645.84829161743,-57707.711482967316,-34740.288226638826,-32067.064293273008,-9227.895346629066,-21506.602645707448,0.0,0.0,0.0,193.0,1.0,155.0,0.0,2.0,3.0,251.0,411.0,2.0,1019.0,1744252774.87348,0.0,2025-04-09 22:39:34.873,LEFT,25
241.0,13055.072790989017,1625.5529672566615,-60619.09325350443,-57647.22766247126,-34712.3932495586,-32054.63672335586,-9061.374850437029,-21488.095401298455,0.0,0.0,0.0,193.0,1.0,154.0,0.0,2.0,3.0,250.0,410.0,2.0,1018.0,1744252774.873489,0.0,2025-04-09 22:39:34.873,LEFT,25
242.0,12983.52485698758,1597.278010520698,-60660.06400109101,-57715.534593526674,-34737.203685903994,-32086.30914524903,-9098.635208444024,-21524.439337782784,0.0,0.0,0.0,193.0,1.0,155.0,0.0,2.0,3.0,251.0,411.0,2.0,1019.0,1744252774.873498,0.0,2025-04-09 22:39:34.873,LEFT,25
243.0,13028.317752876015,1578.4354899448742,-60655.34778301094,-57654.80490384161,-34786.82455859477,-32129.917398681333,-8952.119523539486,-21546.187585137795,0.0,0.0,0.0,193.0,1.0,155.0,0.0,2.0,3.0,251.0,411.0,2.0,1019.0,1744252774.8735068,0.0,2025-04-09 22:39:34.873,LEFT,25
244.0,13096.468221720246,1597.7250454098041,-60662.992079614654,-57717.81447146112,-34773.10058749921,-32095.07102907551,-9183.348319929639,-21525.53457326109,0.0,0.0,0.0,193.0,1.0,155.0,0.0,2.0,3.0,252.0,411.0,2.0,1020.0,1744252774.8735156,0.0,2025-04-09 22:39:34.873,LEFT,25
245.0,13051.809436298543,1614.7794264292033,-60617.5062796481,-57658.38118295446,-34712.68382223652,-32051.932162276767,-9130.397037315017,-21481.7698576176,0.0,0.0,0.0,193.0,1.0,154.0,0.0,2.0,3.0,250.0,410.0,2.0,1018.0,1744252774.8735247,0.0,2025-04-09 22:39:34.873,LEFT,25
246.0,12996.511220516113,1606.3975222584634,-60649.82690213048,-57704.649293976945,-34724.82081947575,-32071.24406948615,-9065.666385372448,-21501.461744482727,0.0,0.0,0.0,193.0,1.0,155.0,0.0,2.0,3.0,251.0,411.0,2.0,1019.0,1744252774.8735335,0.0,2025-04-09 22:39:34.873,LEFT,25
247.0,13006.345988076448,1577.7202341223044,-60655.168969055296,-57666.360755725,-34775.11224450019,-32121.289625321584,-9000.421643307405,-21550.479120073214,0.0,0.0,0.0,193.0,1.0,155.0,0.0,2.0,3.0,252.0,411.0,2.0,1020.0,1744252774.8735423,0.0,2025-04-09 22:39:34.873,LEFT,25
248.0,13113.41084401737,1609.3479525265639,-60657.65001268983,-57693.76399442721,-34768.83140430825,-32106.001032114153,-9091.057967073675,-21546.88048921591,0.0,0.0,0.0,193.0,1.0,154.0,0.0,2.0,3.0,250.0,410.0,2.0,1018.0,1744252774.8735557,0.0,2025-04-09 22:39:34.873,LEFT,25
249.0,13071.25545397466,1616.3216967966196,-60609.19143071073,-57658.47058993228,-34698.602223229675,-32038.14113594784,-9182.320139684694,-21481.59104366196,0.0,0.0,0.0,193.0,1.0,155.0,0.0,2.0,3.0,251.0,411.0,2.0,1019.0,1744252774.8735642,0.0,2025-04-09 22:39:34.873,LEFT,25
250.0,13008.223534610694,1615.4946822517732,-60645.62477417288,-57693.674587449386,-34723.077383408236,-32064.650304871837,-9048.857873542056,-21510.022462609108,0.0,0.0,0.0,193.0,1.0,154.0,0.0,2.0,3.0,250.0,410.0,2.0,1018.0,1744252774.8735745,0.0,2025-04-09 22:39:34.873,LEFT,25
251.0,12981.513199986603,1573.316940464609,-60658.70054467923,-57686.47732573478,-34769.61371536418,-32106.626880958902,-9065.420516183438,-21544.712370003745,0.0,0.0,0.0,193.0,1.0,155.0,0.0,1.0,3.0,252.0,411.0,1.0,1020.0,1744252774.873583,0.0,2025-04-09 22:39:34.873,LEFT,25
252.0,13095.171820541838,1591.7794813846924,-60670.72578319619,-57692.02055835969,-34793.70889588701,-32125.625863745914,-9032.228175667307,-21559.866852744442,0.0,0.0,0.0,193.0,1.0,154.0,0.0,2.0,3.0,249.0,410.0,2.0,1017.0,1744252774.8735917,0.0,2025-04-09 22:39:34.873,LEFT,25
253.0,13071.836599330498,1604.6540861909493,-60621.01550352759,-57682.1634390549,-34709.934557668515,-32037.112955702898,-9258.673698744024,-21483.803866363036,0.0,0.0,0.0,193.0,1.0,155.0,0.0,2.0,3.0,251.0,411.0,2.0,1019.0,1744252774.8736005,0.0,2025-04-09 22:39:34.873,LEFT,25
254.0,13020.986380694674,1609.5938217155722,-60642.83080611597,-57681.93992161035,-34723.94910144199,-32054.86024080041,-9035.513882102237,-21498.332500258985,0.0,0.0,0.0,193.0,1.0,155.0,0.0,2.0,3.0,252.0,411.0,2.0,1020.0,1744252774.873609,0.0,2025-04-09 22:39:34.873,LEFT,25
255.0,12981.826124408975,1584.0234260587008,-60654.40900974382,-57696.870886906494,-34755.62152333516,-32086.44325571576,-9113.856746418089,-21534.274105343116,0.0,0.0,0.0,193.0,1.0,155.0,0.0,2.0,3.0,250.0,411.0,2.0,1018.0,1744252774.8736176,0.0,2025-04-09 22:39:34.873,LEFT,25
0.0,13098.435175232313,1605.279935035698,-60652.41970448729,-57657.82238934308,-34786.82455859477,-32113.712383951235,-8968.39159350295,-21549.093311916986,0.0,0.0,0.0,193.0,1.0,155.0,0.0,2.0,3.0,251.0,411.0,2.0,1019.0,1744252774.8736267,0.0,2025-04-09 22:39:34.873,LEFT,25
1.0,13096.02118683114,1619.6744584649157,-60614.24292495763,-57683.6163024445,-34707.11823786715,-32024.19364740773,-9276.868018730644,-21461.742694585646,0.0,0.0,0.0,193.0,1.0,154.0,0.0,2.0,3.0,249.0,410.0,2.0,1017.0,1744252774.8736353,0.0,2025-04-09 22:39:34.873,LEFT,25
2.0,13036.610250068934,1623.6083654890497,-60624.837651829446,-57660.05756378861,-34712.370897814144,-32042.00798773861,-9026.997867464766,-21465.1178079984,0.0,0.0,0.0,193.0,1.0,155.0,0.0,2.0,3.0,251.0,411.0,2.0,1019.0,1744252774.873644,0.0,2025-04-09 22:39:34.873,LEFT,25
3.0,12973.243054538138,1585.0963097925558,-60653.850216132436,-57710.34898881304,-34745.16090693008,-32080.855319601935,-9125.300839579206,-21513.375224277406,0.0,0.0,0.0,193.0,1.0,155.0,0.0,10.0,3.0,252.0,411.0,10.0,1020.0,1744252774.8736525,0.0,2025-04-09 22:39:34.873,LEFT,25
4.0,13067.723878350722,1585.2527720037428,-60660.37692551338,-57660.392839955435,-34804.19186403655,-32138.299302852072,-8953.304165995618,-21566.617079569947,0.0,0.0,0.0,193.0,1.0,154.0,0.0,22.0,3.0,250.0,410.0,22.0,1018.0,1744252774.8736615,0.0,2025-04-09 22:39:34.873,LEFT,25
5.0,13092.288445507103,1602.4859669787845,-60640.8638526039,-57717.94858192785,-34743.30571214029,-32071.378179952884,-9315.692998849512,-21524.707558716247,0.0,0.0,0.0,193.0,1.0,155.0,0.0,31.0,3.0,252.0,411.0,31.0,1020.0,1744252774.8736703,0.0,2025-04-09 22:39:34.873,LEFT,25
6.0,13039.29245940357,1608.2080135593433,-60631.47611993267,-57667.43363945885,-34724.887874709115,-32074.574479409992,-9081.916103591455,-21513.978721377698,0.0,0.0,0.0,193.0,1.0,154.0,0.0,38.0,3.0,250.0,410.0,38.0,1018.0,1744252774.8736792,0.0,2025-04-09 22:39:34.873,LEFT,25
7.0,12970.80671439251,1582.3246934800975,-60665.29430929355,-57728.208032632836,-34746.278494152844,-32097.060334332033,-9146.736162511845,-21526.40629129485,0.0,0.0,0.0,193.0,1.0,155.0,0.0,39.0,3.0,252.0,411.0,39.0,1020.0,1744252774.8736928,0.0,2025-04-09 22:39:34.873,LEFT,25
8.0,13039.113645447927,1572.8028503421367,-60665.11549533791,-57663.23151150126,-34800.526177945874,-32147.32940761202,-8970.11267782601,-21561.587937067503,0.0,0.0,0.0,193.0,1.0,154.0,0.0,39.0,3.0,249.0,410.0,39.0,1017.0,1744252774.8737016,0.0,2025-04-09 22:39:34.873,LEFT,25
9.0,13106.638265447411,1603.0000571012565,-60648.95518409672,-57716.54042202717,-34746.59141857522,-32080.900023090846,-9265.558036036258,-21521.44420402577,0.0,0.0,0.0,193.0,1.0,155.0,0.0,38.0,3.0,251.0,411.0,38.0,1019.0,1744252774.8737104,0.0,2025-04-09 22:39:34.873,LEFT,25
10.0,13051.183587453794,1612.410141516941,-60618.37799768186,-57653.12852300746,-34710.11337162416,-32052.62506635488,-9111.75568243929,-21490.21881702171,0.0,0.0,0.0,193.0,1.0,155.0,0.0,39.0,3.0,252.0,411.0,39.0,1020.0,1744252774.8737192,0.0,2025-04-09 22:39:34.873,LEFT,25
11.0,12975.880560383865,1586.9515045823462,-60663.46146624821,-57722.955372685836,-34739.17063941606,-32077.144930022354,-9131.514624537782,-21513.978721377698,0.0,0.0,0.0,193.0,1.0,154.0,0.0,38.0,3.0,249.0,410.0,38.0,1017.0,1744252774.8737278,0.0,2025-04-09 22:39:34.873,LEFT,25
12.0,13010.503412545135,1567.9301700508797,-60662.433286003274,-57666.51721793619,-34787.5621661618,-32123.569503256025,-9005.920172443412,-21551.306134618062,0.0,0.0,0.0,193.0,1.0,154.0,0.0,39.0,3.0,252.0,410.0,39.0,1020.0,1744252774.8737369,0.0,2025-04-09 22:39:34.873,LEFT,25
13.0,13100.647997933389,1590.5054319507399,-60668.937643639765,-57720.8766604515,-34773.346456688225,-32095.518063964617,-9196.088814269164,-21542.678361258313,0.0,0.0,0.0,193.0,1.0,153.0,0.0,39.0,3.0,249.0,409.0,39.0,1017.0,1744252774.8737457,0.0,2025-04-09 22:39:34.873,LEFT,25
14.0,13052.97172701022,1598.3061907656422,-60626.67049487478,-57669.66881390438,-34719.00936591737,-32045.874839529377,-9189.33858744366,-21489.14593328785,0.0,0.0,0.0,193.0,1.0,154.0,0.0,39.0,3.0,252.0,410.0,39.0,1020.0,1744252774.873754,0.0,2025-04-09 22:39:34.873,LEFT,25
15.0,12997.04766238304,1597.568583198617,-60654.252547532626,-57708.694959723354,-34731.70515676799,-32063.040979271052,-9112.537993495225,-21508.21197130823,0.0,0.0,0.0,193.0,1.0,154.0,0.0,39.0,3.0,249.0,410.0,39.0,1017.0,1744252774.8737628,0.0,2025-04-09 22:39:34.873,LEFT,25
16.0,12992.309092558515,1565.6502921164385,-60661.11453308041,-57681.5152384657,-34782.17539574807,-32113.7794391846,-9065.286405716706,-21549.272125872627,0.0,0.0,0.0,193.0,1.0,154.0,0.0,40.0,3.0,249.0,410.0,40.0,1017.0,1744252774.8737717,0.0,2025-04-09 22:39:34.873,LEFT,25
17.0,13110.750986427187,1598.0603215766337,-60659.54991096853,-57697.34027354006,-34780.476663169466,-32102.223587301207,-9119.981124398842,-21548.10983516095,0.0,0.0,0.0,193.0,1.0,155.0,0.0,40.0,3.0,252.0,411.0,40.0,1020.0,1744252774.8737805,0.0,2025-04-09 22:39:34.873,LEFT,25
18.0,13075.457581932258,1612.2536793057538,-60607.068014987475,-57666.181941769355,-34702.26790932035,-32027.30053988702,-9247.16255034954,-21476.0701627815,0.0,0.0,0.0,193.0,1.0,155.0,0.0,40.0,3.0,250.0,411.0,40.0,1018.0,1744252774.8737893,0.0,2025-04-09 22:39:34.873,LEFT,25
19.0,13015.554906792035,1612.1866240723878,-60633.219556000186,-57686.23145654577,-34715.58954901571,-32045.271342429085,-9070.98610055281,-21483.133314029375,0.0,0.0,0.0,193.0,1.0,155.0,0.0,40.0,3.0,251.0,411.0,40.0,1019.0,1744252774.873798,0.0,2025-04-09 22:39:34.873,LEFT,25
20.0,12985.268293055093,1575.2615422322206,-60647.47996896267,-57687.97489261328,-34757.2532006804,-32093.975793597197,-9105.765414925268,-21528.97674190721,0.0,0.0,0.0,193.0,1.0,154.0,0.0,41.0,3.0,249.0,410.0,41.0,1017.0,1744252774.873807,0.0,2025-04-09 22:39:34.873,LEFT,25
21.0,13107.197059058793,1598.8426326325696,-60650.58686144196,-57674.005052328714,-34782.82359633727,-32113.26534906213,-9038.687829814891,-21546.88048921591,0.0,0.0,0.0,193.0,1.0,155.0,0.0,41.0,3.0,252.0,411.0,41.0,1020.0,1744252774.8738155,0.0,2025-04-09 22:39:34.873,LEFT,25
22.0,13086.991082071196,1609.9290978824017,-60610.08550048894,-57680.48705822076,-34708.951080912484,-32033.268455656584,-9307.087577234219,-21480.96519481721,0.0,0.0,0.0,193.0,1.0,154.0,0.0,41.0,3.0,249.0,410.0,41.0,1017.0,1744252774.8738291,0.0,2025-04-09 22:39:34.873,LEFT,25
23.0,13029.368284865413,1613.2818595506978,-60631.319657721484,-57677.290758763644,-34719.00936591737,-32053.876764044377,-9075.277635488228,-21490.554093188537,0.0,0.0,0.0,193.0,1.0,155.0,0.0,41.0,3.0,251.0,411.0,41.0,1019.0,1744252774.873838,0.0,2025-04-09 22:39:34.873,LEFT,25
24.0,12970.739659159144,1567.952521795335,-60658.521730723594,-57712.36064581402,-34757.767290802876,-32097.574424454502,-9165.064592965198,-21541.15844263535,0.0,0.0,0.0,193.0,1.0,154.0,0.0,41.0,3.0,250.0,410.0,41.0,1018.0,1744252774.8738463,0.0,2025-04-09 22:39:34.873,LEFT,25
25.0,13091.461430962258,1593.858193619036,-60647.748189896134,-57657.48711317624,-34781.30367771431,-32123.70361372276,-9001.025140407699,-21561.02914345612,0.0,0.0,0.0,193.0,1.0,154.0,0.0,41.0,3.0,251.0,410.0,41.0,1019.0,1744252774.8738554,0.0,2025-04-09 22:39:34.873,LEFT,25
26.0,13093.003701329673,1611.0913885940777,-60618.13212849285,-57693.56282872711,-34708.50404602338,-32031.502667844616,-9331.6521443906,-21479.378220960883,0.0,0.0,0.0,193.0,1.0,154.0,0.0,42.0,3.0,250.0,410.0,42.0,1018.0,1744252774.873864,0.0,2025-04-09 22:39:34.873,LEFT,25
27.0,13032.184604666783,1610.152615326955,-60634.13597752285,-57670.49582844923,-34721.87038920765,-32048.646455841837,-9084.285388503718,-21481.836912850966,0.0,0.0,0.0,193.0,1.0,154.0,0.0,42.0,3.0,251.0,410.0,42.0,1019.0,1744252774.873873,0.0,2025-04-09 22:39:34.873,LEFT,25
28.0,12958.42384796427,1568.5113154067178,-60672.82684717499,-57734.60063154705,-34758.795471047815,-32086.800883627046,-9188.82449732119,-21518.49377375767,0.0,0.0,0.0,193.0,1.0,155.0,0.0,42.0,3.0,250.0,411.0,42.0,1018.0,1744252774.8738816,0.0,2025-04-09 22:39:34.873,LEFT,25
29.0,13050.356572908948,1577.250847488743,-60665.227254060184,-57667.254825503216,-34798.91685234509,-32130.766764970635,-8995.548963016148,-21554.591841052992,0.0,0.0,0.0,193.0,1.0,155.0,0.0,42.0,3.0,251.0,411.0,42.0,1019.0,1744252774.8738906,0.0,2025-04-09 22:39:34.873,LEFT,25
30.0,13090.410898972857,1600.9436966113683,-60647.03293407356,-57726.97868668779,-34736.711947525975,-32066.885479317367,-9340.257566005894,-21518.96316039123,0.0,0.0,0.0,193.0,1.0,154.0,0.0,42.0,3.0,249.0,410.0,42.0,1017.0,1744252774.8738995,0.0,2025-04-09 22:39:34.873,LEFT,25
31.0,13043.315773405526,1611.180795571899,-60634.65006764532,-57672.775706383676,-34725.804296231785,-32061.9680955372,-9132.721618738367,-21496.007918835632,0.0,0.0,0.0,193.0,1.0,155.0,0.0,42.0,3.0,252.0,411.0,42.0,1020.0,1744252774.8739083,0.0,2025-04-09 22:39:34.873,LEFT,25
32.0,12961.977775332663,1569.7853648406704,-60679.66648097831,-57745.93296598589,-34758.77311930336,-32089.21487202822,-9208.896363842054,-21522.20416333725,0.0,0.0,0.0,193.0,1.0,154.0,0.0,42.0,3.0,249.0,410.0,42.0,1017.0,1744252774.8739169,0.0,2025-04-09 22:39:34.873,LEFT,25
33.0,13019.980552194185,1557.6483676014386,-60665.11549533791,-57670.49582844923,-34793.55243367582,-32126.184657357295,-9031.423512866917,-21544.712370003745,0.0,0.0,0.0,193.0,1.0,155.0,0.0,42.0,3.0,251.0,411.0,42.0,1019.0,1744252774.8739257,0.0,2025-04-09 22:39:34.873,LEFT,25
34.0,13091.349672239981,1583.1293562804885,-60656.063038833505,-57727.76099774373,-34749.78771803233,-32069.657095629824,-9292.670702060544,-21505.373299762407,0.0,0.0,0.0,193.0,1.0,153.0,0.0,43.0,3.0,249.0,409.0,43.0,1017.0,1744252774.8739343,0.0,2025-04-09 22:39:34.873,LEFT,25
35.0,13046.333258906992,1595.1992982863544,-60618.51210814859,-57664.70672663531,-34705.464208777455,-32039.079909214965,-9182.118973984596,-21476.427790692782,0.0,0.0,0.0,193.0,1.0,155.0,0.0,43.0,3.0,252.0,411.0,43.0,1020.0,1744252774.8739429,0.0,2025-04-09 22:39:34.873,LEFT,25
36.0,12965.7105166567,1568.9359985513686,-60672.849198919444,-57740.38973336098,-34739.95295047199,-32081.145892279852,-9176.709851826412,-21518.516125502127,0.0,0.0,0.0,193.0,1.0,154.0,0.0,43.0,3.0,249.0,410.0,43.0,1017.0,1744252774.8739517,0.0,2025-04-09 22:39:34.873,LEFT,25
37.0,12993.694900714745,1547.2324546852656,-60660.91336738031,-57680.71057566531,-34776.766273589885,-32120.127334609908,-9084.911237348466,-21549.942678206287,0.0,0.0,0.0,193.0,1.0,154.0,0.0,43.0,3.0,252.0,410.0,43.0,1020.0,1744252774.8739653,0.0,2025-04-09 22:39:34.873,LEFT,25
38.0,13091.014396073151,1573.1381265089665,-60669.697602951244,-57728.18568088838,-34770.1054537422,-32104.861093146934,-9230.39874200806,-21543.125396147418,0.0,0.0,0.0,193.0,1.0,154.0,0.0,43.0,3.0,250.0,410.0,43.0,1018.0,1744252774.8739738,0.0,2025-04-09 22:39:34.873,LEFT,25
39.0,13041.86291001593,1575.4180044434077,-60630.04560828753,-57688.60074145803,-34716.371860071646,-32050.322836675983,-9272.285911117306,-21483.736811129667,0.0,0.0,0.0,193.0,1.0,154.0,0.0,43.0,3.0,251.0,410.0,43.0,1019.0,1744252774.8739827,0.0,2025-04-09 22:39:34.873,LEFT,25
40.0,12985.871790155386,1582.7046731358378,-60658.29821327904,-57723.871794208506,-34733.068613179756,-32068.293639218053,-9177.045127993242,-21501.618206693915,0.0,0.0,0.0,193.0,1.0,154.0,0.0,43.0,3.0,251.0,410.0,43.0,1019.0,1744252774.8739913,0.0,2025-04-09 22:39:34.873,LEFT,25
41.0,12974.986490605652,1552.507466376718,-60665.67428894929,-57698.144936340446,-34781.08016026976,-32113.39945952886,-9157.979089972865,-21541.31490484654,0.0,0.0,0.0,193.0,1.0,155.0,0.0,43.0,3.0,251.0,411.0,43.0,1019.0,1744252774.874,0.0,2025-04-09 22:39:34.874,LEFT,25
42.0,13073.937663309296,1561.3811089254748,-60687.37783281539,-57725.21289887583,-34805.98000359297,-32135.281817350606,-9176.307520426217,-21569.12047494894,0.0,0.0,0.0,193.0,1.0,154.0,0.0,43.0,3.0,249.0,410.0,43.0,1017.0,1744252774.874009,0.0,2025-04-09 22:39:34.874,LEFT,25
43.0,13052.502340376657,1585.7221586373043,-60630.984381554656,-57698.502564251736,-34720.9986711739,-32055.24022045615,-9353.80272314581,-21501.01470959362,0.0,0.0,0.0,193.0,1.0,155.0,0.0,43.0,3.0,251.0,411.0,43.0,1019.0,1744252774.8740177,0.0,2025-04-09 22:39:34.874,LEFT,25
44.0,12999.416947295304,1593.2323447742874,-60655.303079522026,-57709.119642868005,-34733.87327598015,-32071.53464216407,-9160.52718884077,-21511.34121553197,0.0,0.0,0.0,193.0,1.0,154.0,0.0,43.0,3.0,249.0,410.0,43.0,1017.0,1744252774.8740263,0.0,2025-04-09 22:39:34.874,LEFT,25
45.0,12960.904891598808,1554.608530355517,-60674.458524520225,-57718.39561681695,-34777.34741894572,-32110.49373274967,-9217.121805801607,-21545.51703280414,0.0,0.0,0.0,193.0,1.0,154.0,0.0,43.0,3.0,250.0,410.0,43.0,1018.0,1744252774.8740356,0.0,2025-04-09 22:39:34.874,LEFT,25
46.0,13081.49255293519,1576.245018988254,-60679.6217774894,-57696.2673898062,-34809.98096585047,-32137.27112260713,-9118.438854031427,-21572.137960450407,0.0,0.0,0.0,193.0,1.0,155.0,0.0,43.0,3.0,252.0,411.0,43.0,1020.0,1744252774.8740444,0.0,2025-04-09 22:39:34.874,LEFT,25
47.0,13081.894884335386,1603.178871056899,-60625.84348032993,-57701.83297417557,-34721.22218861845,-32046.366577907396,-9409.995008706452,-21497.7737066476,0.0,0.0,0.0,193.0,1.0,154.0,0.0,43.0,3.0,250.0,410.0,43.0,1018.0,1744252774.8740537,0.0,2025-04-09 22:39:34.874,LEFT,25
48.0,13025.032046441085,1608.923269381913,-60645.177739283776,-57689.807735658615,-34736.26491263687,-32069.031246785078,-9161.264796407795,-21514.313997544527,0.0,0.0,0.0,193.0,1.0,154.0,0.0,43.0,3.0,253.0,410.0,43.0,1021.0,1744252774.8740623,0.0,2025-04-09 22:39:34.874,LEFT,25
49.0,12967.610414935401,1571.3946904414524,-60671.12811459639,-57726.75516924324,-34772.78766307684,-32097.261500032128,-9257.556111521259,-21540.532593790602,0.0,0.0,0.0,193.0,1.0,154.0,0.0,43.0,3.0,249.0,410.0,43.0,1017.0,1744252774.874071,0.0,2025-04-09 22:39:34.874,LEFT,25
50.0,13082.54308492459,1593.634676174483,-60662.56739647,-57669.37824122647,-34806.404686737624,-32131.437317304295,-9081.066737302153,-21572.875568017433,0.0,0.0,0.0,193.0,1.0,154.0,0.0,43.0,3.0,251.0,410.0,43.0,1019.0,1744252774.8740797,0.0,2025-04-09 22:39:34.874,LEFT,25
51.0,13097.630512431922,1614.600612473561,-60626.37992219686,-57707.35385505603,-34725.96075844297,-32046.34422616294,-9413.794805263855,-21498.22074153671,0.0,0.0,0.0,193.0,1.0,154.0,0.0,44.0,3.0,250.0,410.0,44.0,1018.0,1744252774.8740883,0.0,2025-04-09 22:39:34.874,LEFT,25
52.0,13032.028142455596,1605.9057838804465,-60635.11945427889,-57674.452087217825,-34733.62740679114,-32058.68238910227,-9166.025717976776,-21487.335441986972,0.0,0.0,0.0,193.0,1.0,154.0,0.0,43.0,3.0,249.0,410.0,43.0,1017.0,1744252774.8741016,0.0,2025-04-09 22:39:34.874,LEFT,25
53.0,12953.305298484005,1565.7844025831703,-60679.30885306703,-57743.60838456254,-34775.24635496693,-32094.91456686432,-9276.35392860817,-21532.396558808872,0.0,0.0,0.0,193.0,1.0,154.0,0.0,43.0,3.0,251.0,410.0,43.0,1019.0,1744252774.9038844,0.0,2025-04-09 22:39:34.903,LEFT,25
54.0,13044.567471095022,1574.121603265,-60665.517826738105,-57668.6629854039,-34812.68552692956,-32136.064128406542,-9091.907333362977,-21574.17196919584,0.0,0.0,0.0,193.0,1.0,154.0,0.0,43.0,3.0,248.0,410.0,43.0,1016.0,1744252774.9039147,0.0,2025-04-09 22:39:34.903,LEFT,25
55.0,13078.87739883392,1583.1964115138546,-60662.500341236635,-57739.607422305045,-34765.67980834005,-32081.056485302033,-9403.982389447974,-21532.55302102006,0.0,0.0,0.0,193.0,1.0,154.0,0.0,44.0,3.0,251.0,410.0,44.0,1019.0,1744252774.9039257,0.0,2025-04-09 22:39:34.903,LEFT,25
56.0,13026.306095875037,1590.080748806089,-60636.95229732422,-57678.45304947532,-34732.46511607947,-32059.755272836122,-9212.62910516609,-21496.879636869387,0.0,0.0,0.0,193.0,1.0,155.0,0.0,44.0,3.0,251.0,411.0,44.0,1019.0,1744252774.9039357,0.0,2025-04-09 22:39:34.903,LEFT,25
57.0,12961.553092188013,1574.5239346651954,-60668.15533258383,-57739.8309397496,-34750.5029738549,-32078.977773067687,-9256.952614420965,-21514.291645800073,0.0,0.0,0.0,193.0,1.0,154.0,0.0,43.0,3.0,251.0,410.0,43.0,1019.0,1744252774.9039454,0.0,2025-04-09 22:39:34.903,LEFT,25
58.0,13011.509241045624,1562.565751381606,-60663.6179284594,-57675.346156996035,-34802.24726226893,-32131.102041137463,-9113.432063273438,-21560.51505333365,0.0,0.0,0.0,193.0,1.0,155.0,0.0,43.0,3.0,252.0,411.0,43.0,1020.0,1744252774.9039547,0.0,2025-04-09 22:39:34.903,LEFT,25
59.0,13085.806439615064,1581.0506440461452,-60661.449809247235,-57735.20412864735,-34767.26678219638,-32096.97092735421,-9342.001002073408,-21545.092349659488,0.0,0.0,0.0,193.0,1.0,155.0,0.0,44.0,3.0,251.0,411.0,44.0,1019.0,1744252774.919882,0.0,2025-04-09 22:39:34.919,LEFT,25
60.0,13045.506244362146,1595.8922023644689,-60612.94652377922,-57667.74656388123,-34707.94525241199,-32046.411281396304,-9257.310242332249,-21481.456933195226,0.0,0.0,0.0,193.0,1.0,154.0,0.0,44.0,3.0,252.0,410.0,44.0,1020.0,1744252775.1114657,0.0,2025-04-09 22:39:35.111,LEFT,25
61.0,12970.069106825484,1573.696920120349,-60666.23308256067,-57736.76875075922,-34745.13855518562,-32080.631802157382,-9222.82150063771,-21515.20806732274,0.0,0.0,0.0,193.0,1.0,155.0,0.0,43.0,3.0,252.0,411.0,43.0,1020.0,1744252775.1115127,0.0,2025-04-09 22:39:35.111,LEFT,25
62.0,12983.055470354018,1553.8485710440364,-60666.61306221641,-57693.92045663839,-34792.18897726405,-32126.810506202044,-9158.873159751078,-21553.206032896764,0.0,0.0,0.0,193.0,1.0,155.0,0.0,44.0,3.0,252.0,411.0,44.0,1020.0,1744252775.111529,0.0,2025-04-09 22:39:35.111,LEFT,25
63.0,13100.871515377941,1594.1040628080443,-60659.6169662019,-57716.85334644954,-34776.140424745136,-32104.79403791357,-9265.26746335834,-21547.72985550521,0.0,0.0,0.0,193.0,1.0,155.0,0.0,44.0,3.0,252.0,411.0,44.0,1020.0,1744252775.1115391,0.0,2025-04-09 22:39:35.111,LEFT,25
64.0,13065.622814371922,1608.9456211263682,-60609.593762110926,-57672.775706383676,-34708.54874951229,-32041.315083660495,-9340.570490428268,-21492.476343211692,0.0,0.0,0.0,193.0,1.0,155.0,0.0,44.0,3.0,252.0,411.0,44.0,1020.0,1744252775.111549,0.0,2025-04-09 22:39:35.111,LEFT,25
65.0,12992.085575113962,1592.6288476739942,-60654.252547532626,-57717.23332610528,-34735.25908413638,-32075.334438721475,-9206.48237544088,-21520.281913314095,0.0,0.0,0.0,193.0,1.0,154.0,0.0,44.0,3.0,250.0,410.0,44.0,1018.0,1744252775.1115584,0.0,2025-04-09 22:39:35.111,LEFT,25
66.0,12968.57153994698,1555.7484693227375,-60664.08731509296,-57705.61041898852,-34779.3590759467,-32120.753183454657,-9204.426014950994,-21555.17298640883,0.0,0.0,0.0,193.0,1.0,154.0,0.0,44.0,3.0,250.0,410.0,44.0,1018.0,1744252775.1115675,0.0,2025-04-09 22:39:35.111,LEFT,25
67.0,13086.25347450417,1582.3470452245529,-60668.53531223957,-57708.069110878605,-34800.83910236825,-32132.420794060326,-9191.506706655826,-21568.36051563746,0.0,0.0,0.0,193.0,1.0,154.0,0.0,44.0,3.0,249.0,410.0,44.0,1017.0,1744252775.1116147,0.0,2025-04-09 22:39:35.111,LEFT,25
68.0,13067.656823117355,1599.2226122883096,-60613.68413134624,-57690.7688606702,-34717.556502527776,-32047.43946164125,-9405.792880748855,-21493.92920660129,0.0,0.0,0.0,193.0,1.0,154.0,0.0,44.0,3.0,250.0,410.0,44.0,1018.0,1744252775.111624,0.0,2025-04-09 22:39:35.111,LEFT,25
69.0,13009.966970678208,1602.2400977897762,-60641.400294470826,-57700.22364857479,-34734.744994013905,-32073.211022998217,-9186.589322875658,-21512.704671943746,0.0,0.0,0.0,193.0,1.0,154.0,0.0,44.0,3.0,250.0,410.0,44.0,1018.0,1744252775.111633,0.0,2025-04-09 22:39:35.111,LEFT,25
70.0,12962.827141621965,1561.4034606699302,-60666.411896516314,-57725.548175042655,-34779.96257304699,-32117.93686365329,-9254.7844952088,-21561.476178345227,0.0,0.0,0.0,193.0,1.0,155.0,0.0,44.0,3.0,251.0,411.0,44.0,1019.0,1744252775.111642,0.0,2025-04-09 22:39:35.111,LEFT,25
71.0,13088.332186738515,1589.9019348504467,-60664.06496334851,-57689.22659030278,-34811.18796005106,-32142.702596509767,-9138.04133391873,-21591.114591492962,0.0,0.0,0.0,193.0,1.0,155.0,0.0,44.0,3.0,249.0,411.0,44.0,1017.0,1744252775.1116507,0.0,2025-04-09 22:39:35.111,LEFT,25
72.0,13089.047442561085,1612.2536793057538,-60616.12047149187,-57705.476308521786,-34717.95883392797,-32055.284923945062,-9442.919128289119,-21526.11571861693,0.0,0.0,0.0,193.0,1.0,155.0,0.0,44.0,3.0,251.0,411.0,44.0,1019.0,1744252775.11166,0.0,2025-04-09 22:39:35.111,LEFT,25
73.0,13033.81628201202,1614.9358886403907,-60625.32939020746,-57682.69988092183,-34718.36116532817,-32068.517156662605,-9170.071383723187,-21516.705634201247,0.0,0.0,0.0,193.0,1.0,154.0,0.0,44.0,3.0,250.0,410.0,44.0,1018.0,1744252775.1116688,0.0,2025-04-09 22:39:35.111,LEFT,25
74.0,12958.110923541895,1560.5540943806286,-60670.21169307372,-57741.79789326166,-34770.57484037577,-32107.744468181667,-9270.296605860784,-21541.918401946834,0.0,0.0,0.0,193.0,1.0,155.0,0.0,44.0,3.0,252.0,411.0,44.0,1020.0,1744252775.111678,0.0,2025-04-09 22:39:35.111,LEFT,25
75.0,13052.815264799032,1563.2363037152654,-60666.38954477186,-57685.069165834095,-34811.88086412917,-32153.923172226332,-9096.288275276218,-21582.308004177572,0.0,0.0,0.0,193.0,1.0,154.0,0.0,44.0,3.0,250.0,410.0,44.0,1018.0,1744252775.1116867,0.0,2025-04-09 22:39:35.111,LEFT,25
76.0,13067.67917486181,1576.088556777067,-60637.42168395778,-57731.359628601036,-34737.38249985963,-32072.87574683139,-9436.280660185894,-21525.10989011644,0.0,0.0,0.0,193.0,1.0,154.0,0.0,44.0,3.0,249.0,410.0,44.0,1017.0,1744252775.1116955,0.0,2025-04-09 22:39:35.111,LEFT,25
77.0,13016.873659714898,1585.118661537011,-60626.24581173013,-57677.156648296914,-34723.81499097526,-32067.310162462018,-9192.467831667404,-21510.40244226485,0.0,0.0,0.0,193.0,1.0,154.0,0.0,44.0,3.0,250.0,410.0,44.0,1018.0,1744252775.1117046,0.0,2025-04-09 22:39:35.111,LEFT,25
78.0,12943.582289645945,1548.2606349302096,-60661.09218133595,-57737.707524026344,-34750.25710466589,-32087.337325493972,-9270.698937260979,-21525.55692500555,0.0,0.0,0.0,193.0,1.0,154.0,0.0,44.0,3.0,251.0,410.0,44.0,1019.0,1744252775.1117136,0.0,2025-04-09 22:39:35.111,LEFT,25
79.0,13014.727892247189,1540.3034139041204,-60656.420666744794,-57669.22177901528,-34800.07914305677,-32134.700671994768,-9090.946208351399,-21562.213785912252,0.0,0.0,0.0,193.0,1.0,155.0,0.0,44.0,3.0,252.0,411.0,44.0,1020.0,1744252775.1117225,0.0,2025-04-09 22:39:35.111,LEFT,25
80.0,13057.240910201182,1544.7514110507263,-60655.70541092222,-57741.46261709483,-34759.44367163702,-32091.092418562464,-9403.445947581047,-21540.063207157044,0.0,0.0,0.0,193.0,1.0,154.0,0.0,44.0,3.0,249.0,410.0,44.0,1017.0,1744252775.1117313,0.0,2025-04-09 22:39:35.111,LEFT,25
81.0,12995.661854226812,1539.9457859928355,-60628.43628268675,-57680.68822392085,-34727.32421485474,-32069.902964818833,-9243.608622981146,-21508.569599219514,0.0,0.0,0.0,193.0,1.0,155.0,0.0,44.0,3.0,252.0,411.0,44.0,1020.0,1744252775.11174,0.0,2025-04-09 22:39:35.111,LEFT,25
82.0,12913.675655564744,1504.4512157978077,-60668.04357386155,-57745.21771016333,-34752.69344481152,-32089.036058072576,-9271.6377105281,-21530.831936697,0.0,0.0,0.0,193.0,1.0,154.0,0.0,44.0,3.0,250.0,410.0,44.0,1018.0,1744252775.111755,0.0,2025-04-09 22:39:35.111,LEFT,25
83.0,12953.014725806086,1479.9984073637017,-60659.147579568344,-57681.1129070655,-34793.30656448681,-32132.465497549238,-9126.641944246525,-21558.056361443563,0.0,0.0,0.0,193.0,1.0,155.0,0.0,44.0,3.0,252.0,411.0,44.0,1020.0,1744252775.1117637,0.0,2025-04-09 22:39:35.111,LEFT,25
84.0,13019.779386494087,1489.989637135224,-60666.076620349486,-57738.199262404356,-34772.988828776935,-32101.821255901014,-9318.5987256287,-21538.386826322894,0.0,0.0,0.0,193.0,1.0,155.0,0.0,44.0,3.0,251.0,411.0,44.0,1019.0,1744252775.1117728,0.0,2025-04-09 22:39:35.111,LEFT,25
85.0,12955.294603740527,1479.4843172412297,-60626.73755010815,-57683.683357677866,-34718.607034517176,-32055.284923945062,-9291.463707859959,-21495.180904290784,0.0,0.0,0.0,193.0,1.0,155.0,0.0,44.0,3.0,250.0,411.0,44.0,1018.0,1744252775.1117816,0.0,2025-04-09 22:39:35.111,LEFT,25
86.0,12869.888588176798,1448.2365784927106,-60669.04940236204,-57741.79789326166,-34739.59532256071,-32087.225566771696,-9229.795244907767,-21531.144861119374,0.0,0.0,0.0,193.0,1.0,154.0,0.0,44.0,3.0,250.0,410.0,44.0,1018.0,1744252775.1117904,0.0,2025-04-09 22:39:35.111,LEFT,25
87.0,12868.525131765025,1404.5389180825853,-60674.79380068705,-57709.99136090176,-34787.048076039326,-32138.545172041082,-9170.473715123382,-21569.12047494894,0.0,0.0,0.0,193.0,1.0,154.0,0.0,44.0,3.0,252.0,410.0,44.0,1020.0,1744252775.1117997,0.0,2025-04-09 22:39:35.111,LEFT,25
88.0,12968.415077735792,1418.3075926670545,-60686.64022524837,-57738.7804077602,-34796.45816045501,-32135.59474177298,-9243.563919492235,-21570.50628310517,0.0,0.0,0.0,193.0,1.0,154.0,0.0,44.0,3.0,250.0,410.0,44.0,1018.0,1744252775.1118083,0.0,2025-04-09 22:39:35.111,LEFT,25
89.0,12932.048789507007,1428.1870637163001,-60628.302172220014,-57694.009863616215,-34710.51570302436,-32053.72030183319,-9361.447019749525,-21485.904930341832,0.0,0.0,0.0,193.0,1.0,155.0,0.0,44.0,3.0,251.0,411.0,44.0,1019.0,1744252775.111817,0.0,2025-04-09 22:39:35.111,LEFT,25
90.0,12859.897358405276,1408.450473362264,-60669.80936167352,-57726.33048609859,-34731.749860256896,-32088.030229572087,-9188.53392464327,-21503.026366594597,0.0,0.0,0.0,193.0,1.0,154.0,0.0,44.0,3.0,250.0,410.0,44.0,1018.0,1744252775.1118257,0.0,2025-04-09 22:39:35.111,LEFT,25
91.0,12815.976180550597,1356.2815018035772,-60695.06683290802,-57731.829015234594,-34784.76819810488,-32139.819221475034,-9218.418206980015,-21544.913535703843,0.0,0.0,0.0,193.0,1.0,154.0,0.0,44.0,3.0,251.0,410.0,44.0,1019.0,1744252775.1118343,0.0,2025-04-09 22:39:35.111,LEFT,25
92.0,12937.837891320933,1388.356255096943,-60692.6751962513,-57713.41117780342,-34802.426076224576,-32146.860020978456,-9172.731241313368,-21559.531576577614,0.0,0.0,0.0,193.0,1.0,154.0,0.0,44.0,3.0,250.0,410.0,44.0,1018.0,1744252775.1118433,0.0,2025-04-09 22:39:35.111,LEFT,25
93.0,12923.733940569633,1409.5680605850293,-60643.12137879388,-57703.576410243084,-34719.32229033975,-32057.49774664614,-9420.00859022243,-21487.469552453706,0.0,0.0,0.0,193.0,1.0,155.0,0.0,44.0,3.0,252.0,411.0,44.0,1020.0,1744252775.1118522,0.0,2025-04-09 22:39:35.111,LEFT,25
94.0,12860.053820616464,1404.807139016049,-60675.75492569863,-57708.11381436751,-34737.762479515375,-32087.136159793874,-9186.499915897837,-21501.55115146055,0.0,0.0,0.0,193.0,1.0,154.0,0.0,44.0,3.0,249.0,410.0,44.0,1017.0,1744252775.1118608,0.0,2025-04-09 22:39:35.111,LEFT,25
95.0,12817.853727084843,1377.3368450804765,-60691.57996077299,-57725.07878840909,-34765.724511828965,-32111.633671716892,-9263.434620313004,-21512.905837643844,0.0,0.0,0.0,193.0,1.0,154.0,0.0,44.0,3.0,251.0,410.0,44.0,1019.0,1744252775.1118693,0.0,2025-04-09 22:39:35.111,LEFT,25
96.0,12940.967135544675,1403.5554413265518,-60689.30008283855,-57679.257712275714,-34799.09566630074,-32145.474212822228,-9103.999627113299,-21541.069035657532,0.0,0.0,0.0,193.0,1.0,154.0,0.0,44.0,3.0,252.0,410.0,44.0,1020.0,1744252775.111883,0.0,2025-04-09 22:39:35.111,LEFT,25
97.0,12942.352943700904,1414.8430722764817,-60661.53921622506,-57718.485023794776,-34728.173581144045,-32071.73580786417,-9429.619840338211,-21486.128447786385,0.0,0.0,0.0,193.0,1.0,154.0,0.0,44.0,3.0,251.0,410.0,44.0,1019.0,1744252775.1118917,0.0,2025-04-09 22:39:35.111,LEFT,25
98.0,12888.731108752621,1423.0461624915795,-60670.278748307086,-57687.28198853517,-34731.41458409007,-32087.15851153833,-9188.623331621091,-21492.43163972278,0.0,0.0,0.0,193.0,1.0,155.0,0.0,44.0,3.0,252.0,411.0,44.0,1020.0,1744252775.1119006,0.0,2025-04-09 22:39:35.111,LEFT,25
99.0,12826.190927766673,1393.8324324884932,-60699.53718179908,-57731.829015234594,-34758.951933259006,-32109.040869360077,-9282.45595484447,-21510.87182889841,0.0,0.0,0.0,193.0,1.0,154.0,0.0,44.0,3.0,252.0,410.0,44.0,1020.0,1744252775.1119092,0.0,2025-04-09 22:39:35.111,LEFT,25
100.0,12918.213059689173,1398.191022657278,-60702.06292892253,-57671.635767416454,-34809.690393172554,-32155.398387360383,-9088.241647272307,-21547.34987584947,0.0,0.0,0.0,193.0,1.0,154.0,0.0,44.0,3.0,250.0,410.0,44.0,1018.0,1744252775.111918,0.0,2025-04-09 22:39:35.111,LEFT,25
101.0,12957.172150274773,1429.9081480393588,-60680.71701296771,-57724.072959908604,-34746.010273219385,-32083.917508592313,-9430.782131049888,-21501.72996541619,0.0,0.0,0.0,193.0,1.0,154.0,0.0,44.0,3.0,249.0,410.0,44.0,1017.0,1744252775.1119268,0.0,2025-04-09 22:39:35.111,LEFT,25
102.0,12908.445347362203,1446.38138370292,-60665.27195754909,-57665.153761524416,-34728.71002301097,-32079.581270167982,-9203.755462617333,-21491.761087389124,0.0,0.0,0.0,193.0,1.0,154.0,0.0,44.0,3.0,250.0,410.0,44.0,1018.0,1744252775.1119359,0.0,2025-04-09 22:39:35.111,LEFT,25
103.0,12848.989707111086,1428.0529532495682,-60697.54787654256,-57724.22942211979,-34750.547677343806,-32098.60260469945,-9273.202332639972,-21514.78338417809,0.0,0.0,0.0,193.0,1.0,154.0,0.0,44.0,3.0,250.0,410.0,44.0,1018.0,1744252775.1119447,0.0,2025-04-09 22:39:35.111,LEFT,25
104.0,12923.286905680527,1428.8129125610487,-60687.44488804876,-57651.429790428854,-34793.820654609284,-32143.306093610063,-9096.020054342755,-21550.568527051037,0.0,0.0,0.0,193.0,1.0,154.0,0.0,44.0,3.0,251.0,410.0,44.0,1019.0,1744252775.1119535,0.0,2025-04-09 22:39:35.111,LEFT,25
105.0,12993.001996636629,1462.1393635439115,-60681.365213556914,-57713.56764001461,-34752.13465120013,-32094.758104653134,-9375.908598412108,-21525.288704072085,0.0,0.0,0.0,193.0,1.0,154.0,0.0,44.0,3.0,249.0,410.0,44.0,1017.0,1744252775.111962,0.0,2025-04-09 22:39:35.111,LEFT,25
106.0,12953.484112439646,1489.6990644573052,-60646.38473348436,-57648.76993283867,-34712.527360025335,-32060.805804825523,-9253.219873096928,-21483.267424496105,0.0,0.0,0.0,193.0,1.0,154.0,0.0,44.0,3.0,252.0,410.0,44.0,1020.0,1744252775.111971,0.0,2025-04-09 22:39:35.111,LEFT,25
107.0,12886.183009884717,1476.288017784121,-60682.61691124641,-57706.34802655555,-34731.41458409007,-32075.96028756622,-9241.64166946908,-21494.175075790296,0.0,0.0,0.0,193.0,1.0,154.0,0.0,44.0,3.0,250.0,410.0,44.0,1018.0,1744252775.1119795,0.0,2025-04-09 22:39:35.111,LEFT,25
108.0,12915.977885243641,1453.958625073269,-60681.40991704583,-57655.25193873071,-34779.157910246606,-32129.112735880943,-9125.479653534849,-21539.146785634373,0.0,0.0,0.0,193.0,1.0,155.0,0.0,44.0,3.0,253.0,411.0,44.0,1021.0,1744252775.1119885,0.0,2025-04-09 22:39:35.111,LEFT,25
109.0,13014.280857358082,1486.1674888333666,-60685.32147232551,-57702.45882302032,-34767.177375218555,-32104.950500124756,-9291.329597393227,-21528.194430851276,0.0,0.0,0.0,193.0,1.0,155.0,0.0,44.0,3.0,251.0,411.0,44.0,1019.0,1744252775.1119974,0.0,2025-04-09 22:39:35.111,LEFT,25
110.0,12971.276101026071,1497.6562854833944,-60642.42847471577,-57656.2577672312,-34709.934557668515,-32052.848583799434,-9300.918495764554,-21470.43752317876,0.0,0.0,0.0,193.0,1.0,154.0,0.0,44.0,3.0,249.0,410.0,44.0,1017.0,1744252775.112006,0.0,2025-04-09 22:39:35.112,LEFT,25
111.0,12908.870030506854,1495.4211110378637,-60683.66744323581,-57707.778538200684,-34735.88493298113,-32080.34122947946,-9218.038227324276,-21499.427735737292,0.0,0.0,0.0,193.0,1.0,154.0,0.0,44.0,3.0,251.0,410.0,44.0,1019.0,1744252775.4184587,0.0,2025-04-09 22:39:35.418,LEFT,25
112.0,12921.163489957273,1479.9090003858805,-60678.43713503327,-57671.568712183085,-34774.35228518871,-32118.674471220314,-9186.25404670883,-21531.97187566422,0.0,0.0,0.0,193.0,1.0,154.0,0.0,44.0,3.0,249.0,410.0,44.0,1017.0,1744252775.418497,0.0,2025-04-09 22:39:35.418,LEFT,25
113.0,13047.495549618669,1519.4268845828635,-60674.05619312003,-57682.811639644104,-34773.39116017713,-32116.528703752603,-9208.382273719582,-21542.87952695841,0.0,0.0,0.0,193.0,1.0,154.0,0.0,44.0,3.0,249.0,410.0,44.0,1017.0,1744252775.4185195,0.0,2025-04-09 22:39:35.418,LEFT,25
114.0,13015.487851558668,1535.9001202464249,-60624.27885821806,-57659.49877017722,-34700.65858371957,-32048.959380264212,-9363.391621517138,-21478.26063373812,0.0,0.0,0.0,193.0,1.0,154.0,0.0,44.0,3.0,248.0,410.0,44.0,1016.0,1744252775.4185398,0.0,2025-04-09 22:39:35.418,LEFT,25
115.0,12964.90585385631,1548.5512076081286,-60651.63739343136,-57673.401555228425,-34717.73531648342,-32066.55020315054,-9184.778831574778,-21476.20427324823,0.0,0.0,0.0,193.0,1.0,155.0,0.0,44.0,3.0,252.0,411.0,44.0,1020.0,1744252775.4185538,0.0,2025-04-09 22:39:35.418,LEFT,25
116.0,12936.049751764507,1515.9847159367462,-60663.79674241504,-57675.770840140685,-34756.22502043546,-32107.319785037016,-9224.229660538394,-21518.605532479945,0.0,0.0,0.0,193.0,1.0,154.0,0.0,44.0,3.0,250.0,410.0,44.0,1018.0,1744252775.4185631,0.0,2025-04-09 22:39:35.418,LEFT,25
117.0,13053.262299688138,1533.73200103426,-60677.319547810504,-57668.864151104,-34795.854663354716,-32142.859058720955,-9145.506816566804,-21550.8367479845,0.0,0.0,0.0,193.0,1.0,154.0,0.0,44.0,3.0,251.0,410.0,44.0,1019.0,1744252775.4185722,0.0,2025-04-09 22:39:35.418,LEFT,25
118.0,13049.328392664003,1561.0234810141899,-60623.38478843985,-57668.03713655915,-34704.30191806578,-32048.087662230453,-9423.048427468351,-21461.38506667436,0.0,0.0,0.0,193.0,1.0,154.0,0.0,44.0,3.0,250.0,410.0,44.0,1018.0,1744252775.4185817,0.0,2025-04-09 22:39:35.418,LEFT,25
119.0,12988.486944256658,1564.6444636159497,-60644.820111372486,-57658.22472074327,-34715.58954901571,-32070.19353749675,-9166.651566821523,-21472.560938902014,0.0,0.0,0.0,193.0,1.0,154.0,0.0,44.0,3.0,251.0,410.0,44.0,1019.0,1744252775.4185908,0.0,2025-04-09 22:39:35.418,LEFT,25
120.0,12937.457911665191,1532.1897306668438,-60666.52365523859,-57690.65710194792,-34751.30763665529,-32101.106000078442,-9255.87973068711,-21508.703709686248,0.0,0.0,0.0,193.0,1.0,154.0,0.0,44.0,3.0,252.0,410.0,44.0,1020.0,1744252775.4186,0.0,2025-04-09 22:39:35.418,LEFT,25
121.0,13057.218558456727,1560.30822519162,-60659.080524334975,-57637.92933677785,-34783.53885215984,-32133.69484349428,-9088.308702505672,-21543.63948626989,0.0,0.0,0.0,193.0,1.0,154.0,0.0,44.0,3.0,249.0,410.0,44.0,1017.0,1744252775.4186087,0.0,2025-04-09 22:39:35.418,LEFT,25
122.0,13077.402183699869,1588.5384784386729,-60616.83572731444,-57667.12071503648,-34696.657621462065,-32038.185839436752,-9420.410921622626,-21470.146950500843,0.0,0.0,0.0,193.0,1.0,154.0,0.0,44.0,3.0,252.0,410.0,44.0,1020.0,1744252775.4186172,0.0,2025-04-09 22:39:35.418,LEFT,25
123.0,13024.987342952174,1591.8688883625136,-60620.36730293838,-57627.42401688386,-34696.657621462065,-32042.700891816723,-9156.280357394262,-21455.327743926973,0.0,0.0,0.0,193.0,1.0,155.0,0.0,44.0,3.0,251.0,411.0,44.0,1019.0,1744252775.418626,0.0,2025-04-09 22:39:35.418,LEFT,25
124.0,12957.485074697146,1560.1070594915223,-60656.979460356175,-57687.88548563546,-34729.224113133445,-32073.412188698316,-9261.7358877344,-21490.129410043886,0.0,0.0,0.0,193.0,1.0,154.0,0.0,44.0,3.0,250.0,410.0,44.0,1018.0,1744252775.418635,0.0,2025-04-09 22:39:35.418,LEFT,25
125.0,13046.601479840456,1567.8407630730585,-60653.73845741015,-57623.490109859726,-34780.00727653591,-32125.31293932354,-9086.632321671525,-21544.757073492656,0.0,0.0,0.0,193.0,1.0,154.0,0.0,44.0,3.0,250.0,410.0,44.0,1018.0,1744252775.418644,0.0,2025-04-09 22:39:35.418,LEFT,25
126.0,13088.30983499406,1585.2080685148321,-60639.209823514204,-57685.09151757855,-34724.15026714209,-32058.14594723534,-9429.48572987148,-21501.528799716092,0.0,0.0,0.0,193.0,1.0,154.0,0.0,44.0,3.0,252.0,410.0,44.0,1020.0,1744252775.4187732,0.0,2025-04-09 22:39:35.418,LEFT,25
127.0,13033.659819800832,1588.4043679719412,-60621.64135237233,-57628.63101108444,-34699.20572032997,-32041.00215923812,-9215.780701134288,-21459.798092818033,0.0,0.0,0.0,193.0,1.0,154.0,0.0,44.0,3.0,249.0,410.0,44.0,1017.0,1744252775.4187827,0.0,2025-04-09 22:39:35.418,LEFT,25
128.0,12958.80382762001,1562.9457310373464,-60664.176722070784,-57699.77661368569,-34727.145400899106,-32065.72318860569,-9268.217893626439,-21479.557034916525,0.0,0.0,0.0,193.0,1.0,154.0,0.0,44.0,3.0,250.0,410.0,44.0,1018.0,1744252775.418792,0.0,2025-04-09 22:39:35.418,LEFT,25
129.0,13022.372188850903,1564.8679810605029,-60653.67140217679,-57628.228679684245,-34770.21721246448,-32109.44320076027,-9115.287258063228,-21515.07395685601,0.0,0.0,0.0,193.0,1.0,154.0,0.0,44.0,3.0,250.0,410.0,44.0,1018.0,1744252775.418801,0.0,2025-04-09 22:39:35.418,LEFT,25
130.0,13105.587733458011,1597.0321413316897,-60642.98726832715,-57677.246055274736,-34729.715851511464,-32055.15081347833,-9366.654976207612,-21478.327688971483,0.0,0.0,0.0,193.0,1.0,155.0,0.0,44.0,3.0,252.0,411.0,44.0,1020.0,1744252775.4188137,0.0,2025-04-09 22:39:35.418,LEFT,25
131.0,13054.402238655359,1604.050589090656,-60606.26335218708,-57617.7010080458,-34682.35250501067,-32024.886551485844,-9267.100306403674,-21441.1120344534,0.0,0.0,0.0,193.0,1.0,154.0,0.0,44.0,3.0,250.0,410.0,44.0,1018.0,1744252775.4188225,0.0,2025-04-09 22:39:35.418,LEFT,25
132.0,12988.777516934577,1590.0583970616337,-60647.92700385178,-57678.02836633067,-34707.31940356724,-32054.68142684477,-9245.843797426676,-21474.639651136356,0.0,0.0,0.0,193.0,1.0,155.0,0.0,44.0,3.0,252.0,411.0,44.0,1020.0,1744252775.418831,0.0,2025-04-09 22:39:35.418,LEFT,25
133.0,13009.341121833459,1570.344158452053,-60649.648088174836,-57629.79330179612,-34759.98011350395,-32107.185674570286,-9166.316290654695,-21530.183736107796,0.0,0.0,0.0,193.0,1.0,154.0,0.0,44.0,3.0,249.0,410.0,44.0,1017.0,1744252775.4188404,0.0,2025-04-09 22:39:35.418,LEFT,25
134.0,13109.387530015414,1599.9602198553348,-60652.55381495402,-57665.39963071342,-34752.31346515578,-32092.58998544097,-9304.830051044233,-21539.280896101107,0.0,0.0,0.0,193.0,1.0,154.0,0.0,44.0,3.0,251.0,410.0,44.0,1019.0,1744252775.4188488,0.0,2025-04-09 22:39:35.418,LEFT,25
135.0,13068.30502370656,1615.6511444629605,-60596.920323004764,-57612.87303124345,-34677.993914841885,-32024.975958463667,-9348.483007965448,-21465.207214976217,0.0,0.0,0.0,193.0,1.0,154.0,0.0,45.0,3.0,249.0,410.0,45.0,1017.0,1744252775.4188576,0.0,2025-04-09 22:39:35.418,LEFT,25
136.0,13003.753185719632,1608.3197722816196,-60636.2593932461,-57655.74367710873,-34700.189197086,-32052.96034252171,-9223.693218671468,-21481.72515412869,0.0,0.0,0.0,193.0,1.0,155.0,0.0,44.0,3.0,252.0,411.0,44.0,1020.0,1744252775.4188664,0.0,2025-04-09 22:39:35.418,LEFT,25
137.0,12989.67158671279,1574.143955009455,-60640.19330027024,-57637.0576187441,-34741.36111037268,-32093.30524126354,-9209.075177797697,-21510.11186958693,0.0,0.0,0.0,193.0,1.0,154.0,0.0,44.0,3.0,250.0,410.0,44.0,1018.0,1744252775.4188752,0.0,2025-04-09 22:39:35.418,LEFT,25
138.0,13108.985198615217,1605.1905280578767,-60636.39350371284,-57637.035266999635,-34748.33485464274,-32093.282889519083,-9194.837116579667,-21519.298436558063,0.0,0.0,0.0,193.0,1.0,155.0,0.0,44.0,3.0,251.0,411.0,44.0,1019.0,1744252775.418884,0.0,2025-04-09 22:39:35.418,LEFT,25
139.0,13078.63152964491,1616.567565985628,-60590.773593279555,-57625.725284305256,-34676.98808634139,-32019.29861537202,-9394.080566654273,-21455.10422648242,0.0,0.0,0.0,193.0,1.0,155.0,0.0,44.0,3.0,250.0,411.0,44.0,1018.0,1744252775.4188929,0.0,2025-04-09 22:39:35.418,LEFT,25
140.0,13020.181717894284,1615.8746619075134,-60622.22249772817,-57642.422037413366,-34700.45741801947,-32045.29369417354,-9206.750596374344,-21477.835950593468,0.0,0.0,0.0,193.0,1.0,154.0,0.0,44.0,3.0,249.0,410.0,44.0,1017.0,1744252775.4189017,0.0,2025-04-09 22:39:35.418,LEFT,25
141.0,12966.872807368376,1561.7163850923046,-60651.23506203116,-57669.17707552637,-34751.464098866476,-32097.462665732226,-9275.21398964095,-21532.016579153133,0.0,0.0,0.0,193.0,1.0,155.0,0.0,44.0,3.0,252.0,411.0,44.0,1020.0,1744252775.4189167,0.0,2025-04-09 22:39:35.418,LEFT,25
142.0,13090.656768161865,1586.8173941156142,-60650.542157953045,-57640.92447053486,-34777.258011967904,-32119.702651465257,-9161.845941763633,-21555.55296606457,0.0,0.0,0.0,193.0,1.0,155.0,0.0,44.0,3.0,251.0,411.0,44.0,1019.0,1744252775.4189255,0.0,2025-04-09 22:39:35.418,LEFT,25
143.0,13088.01926231614,1616.6122694745386,-60604.09523297492,-57655.27429047517,-34691.337906281704,-32028.440478854238,-9437.331192175292,-21486.30726174203,0.0,0.0,0.0,193.0,1.0,155.0,0.0,44.0,3.0,250.0,411.0,44.0,1018.0,1744252775.4189343,0.0,2025-04-09 22:39:35.418,LEFT,25
144.0,13035.827939012997,1627.6763829799156,-60614.064111001986,-57632.4531593863,-34694.400095272074,-32035.324816146473,-9164.52815109827,-21481.52398842859,0.0,0.0,0.0,193.0,1.0,154.0,0.0,44.0,3.0,251.0,410.0,44.0,1019.0,1744252775.4189432,0.0,2025-04-09 22:39:35.418,LEFT,25
145.0,12970.42673473677,1583.4646324473183,-60644.23896601665,-57675.54732269613,-34729.40292708909,-32062.035150770564,-9239.987640379386,-21493.146895545353,0.0,0.0,0.0,193.0,1.0,154.0,0.0,44.0,3.0,250.0,410.0,44.0,1018.0,1744252775.418952,0.0,2025-04-09 22:39:35.418,LEFT,25
146.0,13074.317642965038,1592.8747168630025,-60640.19330027024,-57622.10430170349,-34766.21625020698,-32104.391706513372,-9050.154274720464,-21522.360625548437,0.0,0.0,0.0,193.0,1.0,154.0,0.0,44.0,3.0,250.0,410.0,44.0,1018.0,1744252775.4189606,0.0,2025-04-09 22:39:35.418,LEFT,25
147.0,13091.729651895721,1607.2021850588544,-60610.912515033786,-57669.534703437654,-34690.80146441478,-32029.826287010466,-9386.793897961843,-21471.018668534598,0.0,0.0,0.0,193.0,1.0,155.0,0.0,44.0,3.0,252.0,411.0,44.0,1020.0,1744252775.4189692,0.0,2025-04-09 22:39:35.418,LEFT,25
148.0,13040.253584415148,1614.4888537512845,-60611.51601213408,-57629.52508086265,-34690.53324348131,-32040.130441204365,-9156.414467860994,-21469.58815688946,0.0,0.0,0.0,193.0,1.0,154.0,0.0,44.0,3.0,250.0,410.0,44.0,1018.0,1744252775.418978,0.0,2025-04-09 22:39:35.418,LEFT,25
149.0,12975.90291212832,1585.990379570768,-60643.32254449398,-57689.65127344743,-34718.674089750544,-32068.293639218053,-9255.678564987013,-21504.658043939835,0.0,0.0,0.0,193.0,1.0,154.0,0.0,44.0,3.0,252.0,410.0,44.0,1020.0,1744252775.418987,0.0,2025-04-09 22:39:35.418,LEFT,25
150.0,13056.838578800987,1587.1303185379886,-60634.71712287869,-57618.46096735728,-34763.04230249432,-32114.137067095886,-9063.565321393648,-21539.571468779024,0.0,0.0,0.0,193.0,1.0,154.0,0.0,44.0,3.0,249.0,410.0,44.0,1017.0,1744252775.4189959,0.0,2025-04-09 22:39:35.418,LEFT,25
151.0,13108.180535814827,1607.2021850588544,-60624.4576721737,-57680.42000298739,-34713.2426158479,-32059.129423991377,-9383.530543271369,-21514.425756266806,0.0,0.0,0.0,193.0,1.0,155.0,0.0,44.0,3.0,252.0,411.0,44.0,1020.0,1744252775.4190047,0.0,2025-04-09 22:39:35.419,LEFT,25
152.0,13051.854139787452,1619.0933131090776,-60600.54130560652,-57622.707798803785,-34684.565327711745,-32045.114880217898,-9220.787491892277,-21494.06331706802,0.0,0.0,0.0,193.0,1.0,154.0,0.0,45.0,3.0,249.0,410.0,45.0,1017.0,1744252775.4190135,0.0,2025-04-09 22:39:35.419,LEFT,25
153.0,12976.439353995247,1599.6696471774158,-60643.769579383086,-57690.50063973673,-34711.454476291474,-32064.96322929421,-9250.15768410655,-21500.9253026158,0.0,0.0,0.0,193.0,1.0,155.0,0.0,44.0,3.0,252.0,411.0,44.0,1020.0,1744252775.419022,0.0,2025-04-09 22:39:35.419,LEFT,25
154.0,13022.372188850903,1579.4636701898182,-60644.52953869457,-57632.631973341944,-34767.49029964093,-32116.349889796962,-9117.544784253214,-21542.566602536037,0.0,0.0,0.0,193.0,1.0,154.0,0.0,44.0,3.0,249.0,410.0,44.0,1017.0,1744252775.4190311,0.0,2025-04-09 22:39:35.419,LEFT,25
155.0,13110.21454456026,1608.4091792594409,-60638.91925083629,-57677.64838667493,-34735.527305069845,-32069.277115974084,-9335.921327581564,-21508.88252364189,0.0,0.0,0.0,193.0,1.0,155.0,0.0,44.0,3.0,253.0,411.0,44.0,1021.0,1744252775.4190402,0.0,2025-04-09 22:39:35.419,LEFT,25
156.0,13064.169950982327,1620.5908799875833,-60599.736642806136,-57620.09264470251,-34687.62751670212,-32029.826287010466,-9283.55119032278,-21470.77279934559,0.0,0.0,0.0,193.0,1.0,154.0,0.0,45.0,3.0,248.0,410.0,45.0,1016.0,1744252775.4190536,0.0,2025-04-09 22:39:35.419,LEFT,25
157.0,13000.623941495889,1612.1642723279326,-60639.47804444767,-57672.6639476614,-34709.95690941297,-32050.635761098358,-9236.545471733269,-21487.938939087267,0.0,0.0,0.0,193.0,1.0,155.0,0.0,44.0,3.0,252.0,411.0,44.0,1020.0,1744252775.4190624,0.0,2025-04-09 22:39:35.419,LEFT,25
158.0,13017.834784726476,1590.6618941619272,-60635.812358357,-57626.26172617218,-34749.16186918758,-32087.73965689417,-9169.266720922795,-21513.64344521087,0.0,0.0,0.0,193.0,1.0,154.0,0.0,44.0,3.0,249.0,410.0,44.0,1017.0,1744252775.4190795,0.0,2025-04-09 22:39:35.419,LEFT,25
159.0,13120.719864454255,1615.4946822517732,-60639.232175258665,-57655.073124775074,-34746.47965985294,-32074.14979626534,-9249.174207350517,-21507.653177696848,0.0,0.0,0.0,193.0,1.0,155.0,0.0,44.0,3.0,251.0,411.0,44.0,1019.0,1744252775.4190884,0.0,2025-04-09 22:39:35.419,LEFT,25
160.0,13076.217541243737,1625.9776504013123,-60592.78525028053,-57620.49497610271,-34677.4351212305,-32011.363746090385,-9346.828978875754,-21448.219889190186,0.0,0.0,0.0,193.0,1.0,155.0,0.0,44.0,3.0,252.0,411.0,44.0,1020.0,1744252775.4190972,0.0,2025-04-09 22:39:35.419,LEFT,25
161.0,13009.788156722565,1621.1273218545107,-60633.778349611566,-57661.89040683394,-34703.229034331926,-32045.070176728987,-9206.281209740784,-21481.568691917502,0.0,0.0,0.0,193.0,1.0,154.0,0.0,44.0,3.0,249.0,410.0,44.0,1017.0,1744252775.419106,0.0,2025-04-09 22:39:35.419,LEFT,25
162.0,12992.95729314772,1593.567620941117,-60638.91925083629,-57650.51336890619,-34739.572970816254,-32085.39272372636,-9222.352114004148,-21521.421852281317,0.0,0.0,0.0,193.0,1.0,155.0,0.0,44.0,3.0,251.0,411.0,44.0,1019.0,1744252775.4191148,0.0,2025-04-09 22:39:35.419,LEFT,25
163.0,13107.957018370274,1613.2595078062425,-60644.127207294376,-57648.94874679432,-34758.393139647626,-32095.227491286696,-9179.392061161048,-21521.287741814584,0.0,0.0,0.0,193.0,1.0,154.0,0.0,44.0,3.0,249.0,410.0,44.0,1017.0,1744252775.4191234,0.0,2025-04-09 22:39:35.419,LEFT,25
164.0,13087.6392826604,1627.341106813086,-60593.9028375033,-57641.729133335255,-34674.082359562206,-32011.05082166801,-9407.312799371815,-21443.235450176653,0.0,0.0,0.0,193.0,1.0,155.0,0.0,44.0,3.0,251.0,411.0,44.0,1019.0,1744252775.4191322,0.0,2025-04-09 22:39:35.419,LEFT,25
165.0,13026.663723786321,1625.307098067653,-60626.24581173013,-57650.22279622827,-34696.5905662287,-32041.762118549603,-9188.19864847644,-21470.325764456484,0.0,0.0,0.0,193.0,1.0,154.0,0.0,44.0,3.0,250.0,410.0,44.0,1018.0,1744252775.419141,0.0,2025-04-09 22:39:35.419,LEFT,25
166.0,12979.680356941266,1589.9466383393574,-60645.2671462616,-57670.89815984943,-34731.883970723626,-32073.92627882079,-9269.648405271579,-21504.34511951746,0.0,0.0,0.0,193.0,1.0,154.0,0.0,44.0,3.0,250.0,410.0,44.0,1018.0,1744252775.4191496,0.0,2025-04-09 22:39:35.419,LEFT,25
167.0,13093.674253663332,1609.79498741567,-60646.09416080644,-57633.14606346442,-34768.74199733043,-32105.799866414058,-9126.507833779793,-21530.74252971918,0.0,0.0,0.0,193.0,1.0,155.0,0.0,44.0,3.0,249.0,411.0,44.0,1017.0,1744252775.4191587,0.0,2025-04-09 22:39:35.419,LEFT,25
168.0,13096.35646299797,1625.9776504013123,-60608.58793361043,-57664.55026442412,-34689.728580680916,-32025.333586374953,-9456.419581940125,-21473.410305191315,0.0,0.0,0.0,193.0,1.0,154.0,0.0,45.0,3.0,250.0,410.0,45.0,1018.0,1744252775.4191673,0.0,2025-04-09 22:39:35.419,LEFT,25
169.0,13040.968840237718,1631.4091243039518,-60616.34398893642,-57637.25878444419,-34691.606127215164,-32039.370481892885,-9199.598038148646,-21472.96327030221,0.0,0.0,0.0,193.0,1.0,155.0,0.0,44.0,3.0,252.0,411.0,44.0,1020.0,1744252775.419176,0.0,2025-04-09 22:39:35.419,LEFT,25
170.0,12973.488923727147,1591.2877430066758,-60649.33516375246,-57691.66293044841,-34729.2464648779,-32079.8718428459,-9301.544344609303,-21509.7765934201,0.0,0.0,0.0,193.0,1.0,154.0,0.0,44.0,3.0,249.0,410.0,44.0,1017.0,1744252775.4191847,0.0,2025-04-09 22:39:35.419,LEFT,25
171.0,13075.859913332453,1601.5248419672064,-60640.32741073697,-57628.161624450884,-34770.08310199775,-32123.748317211666,-9115.197851085408,-21545.092349659488,0.0,0.0,0.0,193.0,1.0,155.0,0.0,44.0,3.0,251.0,411.0,44.0,1019.0,1744252775.4191985,0.0,2025-04-09 22:39:35.419,LEFT,25
172.0,13102.50319272318,1618.8027404311588,-60618.28859070404,-57683.57159895559,-34704.81600818825,-32048.53469711956,-9454.318517961327,-21487.178979775785,0.0,0.0,0.0,193.0,1.0,154.0,0.0,44.0,3.0,250.0,410.0,44.0,1018.0,1744252775.419207,0.0,2025-04-09 22:39:35.419,LEFT,25
173.0,13056.637413100889,1629.956260914357,-60597.501468360606,-57624.71945580476,-34681.19021429899,-32039.459888870704,-9223.53675646028,-21474.237319736163,0.0,0.0,0.0,193.0,1.0,154.0,0.0,45.0,3.0,249.0,410.0,45.0,1017.0,1744252775.419216,0.0,2025-04-09 22:39:35.419,LEFT,25
174.0,12988.017557623096,1606.241060047276,-60630.31382922099,-57684.733889667266,-34706.80531344478,-32064.851470571935,-9292.782460782822,-21500.657081682337,0.0,0.0,0.0,193.0,1.0,154.0,0.0,44.0,3.0,250.0,410.0,44.0,1018.0,1744252775.4192247,0.0,2025-04-09 22:39:35.419,LEFT,25
175.0,13058.91729103533,1606.8222054031141,-60621.99898028362,-57613.610638810474,-34754.07925296775,-32107.364488525927,-9119.154109853996,-21532.016579153133,0.0,0.0,0.0,193.0,1.0,155.0,0.0,44.0,3.0,252.0,411.0,44.0,1020.0,1744252775.4192336,0.0,2025-04-09 22:39:35.419,LEFT,25
176.0,13119.557573742579,1625.2176910898318,-60613.773538324065,-57674.13916279545,-34707.60997624516,-32056.380159423374,-9407.581020305279,-21500.768840404613,0.0,0.0,0.0,193.0,1.0,154.0,0.0,45.0,3.0,250.0,410.0,45.0,1018.0,1744252775.419242,0.0,2025-04-09 22:39:35.419,LEFT,25
177.0,13068.819113829031,1633.1078568825553,-60584.29158738752,-57612.94008647682,-34675.22229852942,-32027.72522303167,-9271.816524483744,-21458.501691639627,0.0,0.0,0.0,193.0,1.0,154.0,0.0,45.0,3.0,251.0,410.0,45.0,1019.0,1744252775.4192507,0.0,2025-04-09 22:39:35.419,LEFT,25
178.0,13004.267275842105,1623.8095311891475,-60617.28276220355,-57669.42294471538,-34692.611955715656,-32040.689234815745,-9274.901065218577,-21466.883595810366,0.0,0.0,0.0,193.0,1.0,155.0,0.0,44.0,3.0,252.0,411.0,44.0,1020.0,1744252775.4192593,0.0,2025-04-09 22:39:35.419,LEFT,25
179.0,13034.308020390037,1602.6200774455165,-60618.08742500394,-57616.4493103563,-34742.12106968416,-32097.14974130985,-9142.712848509891,-21518.11379410193,0.0,0.0,0.0,193.0,1.0,154.0,0.0,44.0,3.0,251.0,410.0,44.0,1019.0,1744252775.419268,0.0,2025-04-09 22:39:35.419,LEFT,25
180.0,13128.02888489114,1630.17977835891,-60615.449919158214,-57659.342307966035,-34722.33977584121,-32060.872860058887,-9323.22553673095,-21503.898084628356,0.0,0.0,0.0,193.0,1.0,155.0,0.0,44.0,3.0,252.0,411.0,44.0,1020.0,1744252775.4192767,0.0,2025-04-09 22:39:35.419,LEFT,25
181.0,13085.784087870608,1640.4839325528067,-60569.60649128038,-57605.87693522894,-34666.01337981384,-32010.76024899009,-9324.432530931537,-21454.031342748563,0.0,0.0,0.0,193.0,1.0,154.0,0.0,45.0,3.0,251.0,410.0,45.0,1019.0,1744252775.4192853,0.0,2025-04-09 22:39:35.419,LEFT,25
182.0,13011.464537556712,1623.5636620001392,-60620.970800038674,-57666.85249410302,-34700.993859886396,-32046.098356973933,-9243.653326470057,-21471.6668691238,0.0,0.0,0.0,193.0,1.0,154.0,0.0,44.0,3.0,249.0,410.0,44.0,1017.0,1744252775.419294,0.0,2025-04-09 22:39:35.419,LEFT,25
183.0,12999.52870601758,1586.1468417819551,-60636.214689757195,-57645.81950257057,-34755.1521367016,-32102.49180823467,-9212.651456910546,-21526.093366872476,0.0,0.0,0.0,193.0,1.0,154.0,0.0,44.0,3.0,251.0,410.0,44.0,1019.0,1744252775.4193027,0.0,2025-04-09 22:39:35.419,LEFT,25
184.0,13120.45164352079,1621.529653254706,-60627.74337860863,-57652.99441254073,-34746.16673543057,-32086.91264234932,-9263.948710435476,-21529.02144539612,0.0,0.0,0.0,193.0,1.0,154.0,0.0,45.0,3.0,249.0,410.0,45.0,1017.0,1744252775.4193115,0.0,2025-04-09 22:39:35.419,LEFT,25
185.0,13087.460468704758,1637.0864673955998,-60572.46751457066,-57618.12569119045,-34666.035731558295,-32005.373478576363,-9400.450813824036,-21450.72328456918,0.0,0.0,0.0,193.0,1.0,155.0,0.0,45.0,3.0,252.0,411.0,45.0,1020.0,1744252775.41932,0.0,2025-04-09 22:39:35.419,LEFT,25
186.0,13019.399406838347,1631.632641748505,-60611.38190166735,-57648.23349097175,-34690.80146441478,-32040.175144693276,-9226.666000684023,-21477.187750004265,0.0,0.0,0.0,193.0,1.0,154.0,0.0,44.0,3.0,250.0,410.0,44.0,1018.0,1744252775.4193327,0.0,2025-04-09 22:39:35.419,LEFT,25
187.0,12981.244979053137,1587.4208912159077,-60628.57039315348,-57654.00024104121,-34733.292130624315,-32088.030229572087,-9259.59012026669,-21517.175020834806,0.0,0.0,0.0,193.0,1.0,155.0,0.0,44.0,3.0,250.0,411.0,44.0,1018.0,1744252775.8274734,0.0,2025-04-09 22:39:35.827,LEFT,25
188.0,13112.427367261334,1624.793007945181,-60617.43922441474,-57626.284077916636,-34745.92086624156,-32093.774627897103,-9175.86048553711,-21519.007863880142,0.0,0.0,0.0,193.0,1.0,154.0,0.0,44.0,3.0,251.0,410.0,44.0,1019.0,1744252775.827509,0.0,2025-04-09 22:39:35.827,LEFT,25
