Sample Index,EXG Channel 0,EXG Channel 1,EXG Channel 2,EXG Channel 3,EXG Channel 4,EXG Channel 5,EXG Channel 6,EXG Channel 7,Accel Channel 0,Accel Channel 1,Accel Channel 2,Not Used,Digital Channel 0 (D11),Digital Channel 1 (D12),Digital Channel 2 (D13),Digital Channel 3 (D17),Not Used,Digital Channel 4 (D18),Analog Channel 0,Analog Channel 1,Analog Channel 2,Timestamp,Marker Channel,Timestamp (Formatted),Stimulus_Direction,Stimulus_Number
77.0,2768.26355078978,-14778.347585004281,-30036.587123464004,-23629.97366547271,13559.30579415629,6275.162848849636,29938.217096116197,43935.14769496294,0.0,0.0,0.0,193.0,0.0,193.0,0.0,1.0,0.0,179.0,193.0,1.0,179.0,1744418621.5215397,0.0,2025-04-11 20:43:41.521,LEFT,12
78.0,2746.2470825013024,-14823.051073914896,-30009.943844073277,-23672.24081423769,13727.703836882572,6154.731649724442,30251.81207082416,43940.64622409895,0.0,0.0,0.0,193.0,0.0,193.0,0.0,1.0,0.0,178.0,193.0,1.0,178.0,1744418621.5215895,0.0,2025-04-11 20:43:41.521,LEFT,12
79.0,2747.2752627462464,-14832.751731008499,-30038.509373487163,-23686.657689411368,13669.075211176303,5964.361842198592,30386.63779337857,43800.14315845289,0.0,0.0,0.0,193.0,0.0,192.0,0.0,1.0,0.0,178.0,192.0,1.0,178.0,1744418621.521678,0.0,2025-04-11 20:43:41.521,LEFT,12
80.0,2754.6513384164978,-14811.651684242688,-30048.94763814779,-23641.663627822832,13586.910198558593,6142.97463214095,30187.953136915345,43829.602757644985,0.0,0.0,0.0,193.0,0.0,192.0,0.0,1.0,0.0,178.0,192.0,1.0,178.0,1744418621.5218616,0.0,2025-04-11 20:43:41.521,LEFT,12
81.0,2775.3714055265673,-14780.515704216446,-30013.27425399712,-23617.233171133183,13589.458297426498,6302.566087551843,29957.953686470235,43937.36051766402,0.0,0.0,0.0,193.0,0.0,192.0,0.0,1.0,0.0,179.0,192.0,1.0,179.0,1744418621.521922,0.0,2025-04-11 20:43:41.521,LEFT,12
82.0,2763.480277476344,-14805.750823706489,-29977.287945424076,-23652.34776167247,13748.848587137294,6211.728598085475,30189.11542762702,43951.97855853779,0.0,0.0,0.0,193.0,0.0,193.0,0.0,1.0,0.0,179.0,193.0,1.0,179.0,1744418621.5219772,0.0,2025-04-11 20:43:41.521,LEFT,12
83.0,2748.8175331136626,-14832.88584147523,-30013.341309230487,-23691.329204002526,13707.497859894975,5992.346226256636,30415.762116403836,43824.48420816472,0.0,0.0,0.0,193.0,0.0,193.0,0.0,1.0,0.0,178.0,193.0,1.0,178.0,1744418621.5220313,0.0,2025-04-11 20:43:41.522,LEFT,12
84.0,2753.869027360562,-14813.618637754756,-30037.078861842023,-23654.940564029286,13574.97436701946,6103.657913644066,30251.297980701685,43810.648478346884,0.0,0.0,0.0,193.0,0.0,192.0,0.0,1.0,0.0,178.0,192.0,1.0,178.0,1744418621.522145,0.0,2025-04-11 20:43:41.522,LEFT,12
85.0,2770.901056635506,-14791.870390399741,-30030.775669905626,-23628.565505572024,13532.327238598733,6298.878049716717,29992.867111309424,43925.53644484717,0.0,0.0,0.0,193.0,0.0,192.0,0.0,1.0,0.0,178.0,192.0,1.0,178.0,1744418621.522261,0.0,2025-04-11 20:43:41.522,LEFT,12
86.0,2765.000196099305,-14816.211440111572,-29989.13436998539,-23646.82688079201,13697.841906290283,6225.318458714301,30107.419801642875,43944.26720670071,0.0,0.0,0.0,193.0,0.0,192.0,0.0,1.0,0.0,178.0,192.0,1.0,178.0,1744418621.5223296,0.0,2025-04-11 20:43:41.522,LEFT,12
87.0,2742.849617344096,-14847.235661415538,-30016.828181365512,-23699.42053549535,13727.390912460198,6012.57455498869,30417.21497979343,43860.93990337133,0.0,0.0,0.0,193.0,0.0,192.0,0.0,1.0,0.0,178.0,192.0,1.0,178.0,1744418621.5223844,0.0,2025-04-11 20:43:41.522,LEFT,12
88.0,2739.4521521868887,-14833.131710664238,-30050.221687581743,-23676.01825905064,13585.613797380185,6049.320822873214,30300.382411525537,43819.72328659574,0.0,0.0,0.0,193.0,0.0,193.0,0.0,1.0,0.0,179.0,193.0,1.0,179.0,1744418621.522441,0.0,2025-04-11 20:43:41.522,LEFT,12
89.0,2761.9603588533832,-14790.417527010148,-30042.219763066743,-23639.137880699385,13503.985226629404,6265.551598733855,30024.18190529131,43926.05053496963,0.0,0.0,0.0,193.0,0.0,193.0,0.0,1.0,0.0,179.0,193.0,1.0,179.0,1744418621.5224988,0.0,2025-04-11 20:43:41.522,LEFT,12
90.0,2766.5648182111763,-14792.987977622508,-29996.622204377916,-23650.023180249118,13643.817739941805,6239.131836787682,30048.835879425515,43960.338110964076,0.0,0.0,0.0,193.0,0.0,192.0,0.0,1.0,0.0,178.0,192.0,1.0,178.0,1744418621.522538,0.0,2025-04-11 20:43:41.522,LEFT,12
91.0,2745.3753644675453,-14829.287210617926,-30007.529855672106,-23697.855913383475,13724.596944403285,6044.045811181762,30399.221825506906,43892.07588339757,0.0,0.0,0.0,193.0,0.0,192.0,0.0,1.0,0.0,178.0,192.0,1.0,178.0,1744418621.5225835,0.0,2025-04-11 20:43:41.522,LEFT,12
92.0,2744.25777724478,-14818.200745368094,-30042.28681830011,-23678.745171874187,13585.479686913453,5999.118804826594,30319.157876867997,43785.838042001495,0.0,0.0,0.0,193.0,0.0,193.0,0.0,1.0,0.0,179.0,193.0,1.0,179.0,1744418621.5226233,0.0,2025-04-11 20:43:41.522,LEFT,12
93.0,2767.324777522657,-14781.700346672576,-30033.837858896004,-23630.510107339636,13514.736415712407,6234.326211729791,30047.740643947203,43888.745473473726,0.0,0.0,0.0,193.0,0.0,193.0,0.0,1.0,0.0,179.0,193.0,1.0,179.0,1744418621.5226572,0.0,2025-04-11 20:43:41.522,LEFT,12
94.0,2776.6231032160645,-14784.181390307116,-29992.55418688705,-23635.11456669743,13613.531126204864,6257.348508518757,29995.45991366624,43958.34880570755,0.0,0.0,0.0,193.0,0.0,192.0,0.0,1.0,0.0,178.0,192.0,1.0,178.0,1744418621.5226924,0.0,2025-04-11 20:43:41.522,LEFT,12
95.0,2744.414239455967,-14828.057864672885,-30000.46670442423,-23697.185361049815,13726.742711870995,6079.696843587976,30368.510528625317,43915.858139498014,0.0,0.0,0.0,193.0,0.0,192.0,0.0,1.0,0.0,178.0,192.0,1.0,178.0,1744418621.522761,0.0,2025-04-11 20:43:41.522,LEFT,12
96.0,2753.1984750269025,-14815.496184289,-30017.163457532344,-23678.588709663,13642.946021908048,5988.412319232502,30342.537801568247,43777.52319306412,0.0,0.0,0.0,193.0,0.0,193.0,0.0,1.0,0.0,178.0,193.0,1.0,178.0,1744418621.5227947,0.0,2025-04-11 20:43:41.522,LEFT,12
97.0,2759.2781495187464,-14798.173582336138,-30031.826201895026,-23639.674322566312,13545.827692249739,6227.844205837751,30101.071906217567,43867.287798796635,0.0,0.0,0.0,193.0,0.0,193.0,0.0,1.0,0.0,179.0,193.0,1.0,179.0,1744418621.522827,0.0,2025-04-11 20:43:41.522,LEFT,12
98.0,2762.6532629314975,-14790.685747943611,-30004.802942848557,-23632.81233701853,13585.300872957812,6298.587477038798,29968.771930786603,43950.07866025909,0.0,0.0,0.0,193.0,0.0,192.0,0.0,1.0,0.0,178.0,192.0,1.0,178.0,1744418621.522859,0.0,2025-04-11 20:43:41.522,LEFT,12
99.0,2740.5920911541098,-14833.109358919784,-29997.31510845603,-23673.31369797155,13726.72036012654,6150.618928744666,30304.159856338487,43918.49564534374,0.0,0.0,0.0,193.0,0.0,192.0,0.0,1.0,0.0,178.0,192.0,1.0,178.0,1744418621.5229073,0.0,2025-04-11 20:43:41.522,LEFT,12
100.0,2740.569739409654,-14833.623449042256,-30038.2411525537,-23685.964785333254,13638.676838717085,5979.829249361665,30382.703886354437,43783.08877743349,0.0,0.0,0.0,193.0,0.0,193.0,0.0,1.0,0.0,179.0,193.0,1.0,179.0,1744418621.52294,0.0,2025-04-11 20:43:41.522,LEFT,12
101.0,2748.8175331136626,-14809.081233630328,-30061.218745853752,-23644.167023201826,13529.712084497463,6166.26514986338,30170.809348918123,43840.510408939175,0.0,0.0,0.0,193.0,0.0,192.0,0.0,1.0,0.0,178.0,192.0,1.0,178.0,1744418621.5229714,0.0,2025-04-11 20:43:41.522,LEFT,12
102.0,2773.3597485255896,-14779.867503627242,-30018.66102441085,-23623.379900858392,13536.261145622868,6268.211456324036,29961.30644813853,43916.863967998506,0.0,0.0,0.0,193.0,0.0,192.0,0.0,1.0,0.0,178.0,192.0,1.0,178.0,1744418621.5230029,0.0,2025-04-11 20:43:41.523,LEFT,12
103.0,2764.419050743467,-14797.883009658219,-29983.725247827202,-23663.523633900124,13692.209266687545,6145.478027519945,30241.060881741156,43913.60061330803,0.0,0.0,0.0,193.0,0.0,192.0,0.0,1.0,0.0,178.0,192.0,1.0,178.0,1744418621.5230348,0.0,2025-04-11 20:43:41.523,LEFT,12
104.0,2770.83400140214,-14812.41164355417,-30012.73781213019,-23670.743247359187,13648.712771977518,5959.422106673969,30395.287918482773,43787.581478069005,0.0,0.0,0.0,193.0,0.0,193.0,0.0,1.0,0.0,178.0,193.0,1.0,178.0,1744418621.523067,0.0,2025-04-11 20:43:41.523,LEFT,12
105.0,2760.9545303528944,-14809.394158052703,-30051.0934056155,-23644.25643017965,13549.828654507239,6124.892070876607,30212.36124186054,43812.28015569212,0.0,0.0,0.0,193.0,0.0,192.0,0.0,1.0,0.0,179.0,192.0,1.0,179.0,1744418621.5230987,0.0,2025-04-11 20:43:41.523,LEFT,12
106.0,2778.2994840502124,-14773.407849479658,-30023.734870402204,-23625.81624100402,13553.762561531374,6286.517535032933,29965.59798307395,43919.45677035532,0.0,0.0,0.0,193.0,0.0,192.0,0.0,1.0,0.0,178.0,192.0,1.0,178.0,1744418621.5231304,0.0,2025-04-11 20:43:41.523,LEFT,12
107.0,2747.8564081020845,-14815.987922667018,-30000.489056168684,-23662.808378077552,13709.643627362684,6194.897734510629,30165.579040715584,43943.64135785596,0.0,0.0,0.0,193.0,0.0,192.0,0.0,1.0,0.0,178.0,192.0,1.0,178.0,1744418621.5231626,0.0,2025-04-11 20:43:41.523,LEFT,12
108.0,2729.4609224153664,-14855.394048141725,-30032.85438213997,-23698.034727339116,13687.336586396288,5990.46867972239,30416.902055371054,43830.96621405676,0.0,0.0,0.0,193.0,0.0,193.0,0.0,1.0,0.0,179.0,193.0,1.0,179.0,1744418621.5231943,0.0,2025-04-11 20:43:41.523,LEFT,12
109.0,2734.646527128998,-14835.545699065413,-30054.42381553934,-23663.948317044775,13570.325204172756,6074.421831896524,30258.9422773054,43800.67960031982,0.0,0.0,0.0,193.0,0.0,193.0,0.0,1.0,0.0,179.0,193.0,1.0,179.0,1744418621.5232391,0.0,2025-04-11 20:43:41.523,LEFT,12
110.0,2751.678556403942,-14799.760556192465,-30043.13618458941,-23637.215630676226,13524.437072806011,6270.312520302835,29997.89625381187,43915.67932554237,0.0,0.0,0.0,193.0,0.0,193.0,0.0,1.0,0.0,178.0,193.0,1.0,178.0,1744418621.52329,0.0,2025-04-11 20:43:41.523,LEFT,12
111.0,2768.4647164898774,-14796.273684057438,-29981.490073381672,-23640.903668511353,13667.264719875422,6228.559461660321,30099.28376666114,43954.392546938965,0.0,0.0,0.0,193.0,0.0,192.0,0.0,1.0,0.0,178.0,192.0,1.0,178.0,1744418621.5233223,0.0,2025-04-11 20:43:41.523,LEFT,12
112.0,2766.7883356557295,-14793.747936933987,-29982.227680948698,-23669.35743920296,13728.888479338704,6024.353924316636,30408.63190992259,43858.5035632257,0.0,0.0,0.0,193.0,0.0,193.0,0.0,1.0,0.0,178.0,193.0,1.0,178.0,1744418621.523354,0.0,2025-04-11 20:43:41.523,LEFT,12
113.0,2767.1683153114695,-14786.774192663932,-30017.923416843823,-23651.49839538317,13613.285257015856,6023.0351713937725,30295.308565534186,43782.15000416637,0.0,0.0,0.0,193.0,0.0,193.0,0.0,1.0,0.0,179.0,193.0,1.0,179.0,1744418621.5233855,0.0,2025-04-11 20:43:41.523,LEFT,12
114.0,2776.153716582503,-14776.715907659043,-30022.61728317944,-23625.369206114916,13537.758712501372,6248.452514225544,30045.1925450793,43901.79889223562,0.0,0.0,0.0,193.0,0.0,192.0,0.0,0.0,0.0,178.0,192.0,0.0,178.0,1744418621.523636,0.0,2025-04-11 20:43:41.523,LEFT,12
115.0,2760.2616262747797,-14803.247428327493,-29992.777704331602,-23652.146595972372,13636.195795082545,6246.262043268925,30073.33339134853,43964.450831943854,0.0,0.0,0.0,193.0,0.0,192.0,0.0,1.0,0.0,178.0,192.0,1.0,178.0,1744418621.523668,0.0,2025-04-11 20:43:41.523,LEFT,12
116.0,2737.038163785716,-14849.582594583344,-30000.80198059106,-23702.05804134107,13707.341397683787,6047.845607739164,30433.174125334517,43896.099197399526,0.0,0.0,0.0,193.0,0.0,192.0,0.0,1.0,0.0,178.0,192.0,1.0,178.0,1744418621.5236995,0.0,2025-04-11 20:43:41.523,LEFT,12
117.0,2734.0430300287044,-14847.682696304644,-30037.548248475585,-23690.703355157777,13592.11815501668,5984.277246508271,30379.909918297522,43785.36865536793,0.0,0.0,0.0,193.0,0.0,192.0,0.0,1.0,0.0,178.0,192.0,1.0,178.0,1744418621.5237362,0.0,2025-04-11 20:43:41.523,LEFT,12
118.0,2743.229596999836,-14815.093852888805,-30048.52295500314,-23659.030933264607,13501.034796361304,6218.6799906110755,30132.58786589955,43890.60066826352,0.0,0.0,0.0,193.0,0.0,193.0,0.0,1.0,0.0,179.0,193.0,1.0,179.0,1744418621.5237677,0.0,2025-04-11 20:43:41.523,LEFT,12
119.0,2770.230504301847,-14791.825686910832,-29996.398686933364,-23647.072749981016,13586.865495069684,6258.108467830238,30030.820373394537,43938.1204769755,0.0,0.0,0.0,193.0,0.0,193.0,0.0,1.0,0.0,179.0,193.0,1.0,179.0,1744418621.5237987,0.0,2025-04-11 20:43:41.523,LEFT,12
120.0,2762.6532629314975,-14818.111338390272,-29987.010954262136,-23688.132904545415,13718.696083867084,6103.501451432879,30385.34139220016,43903.22940388077,0.0,0.0,0.0,193.0,0.0,192.0,0.0,1.0,0.0,178.0,192.0,1.0,178.0,1744418621.5238302,0.0,2025-04-11 20:43:41.523,LEFT,12
121.0,2768.30825427869,-14803.917980661152,-30009.832085351,-23662.24958446617,13634.966449137504,5980.678615650966,30391.868101581113,43778.88664947589,0.0,0.0,0.0,193.0,0.0,192.0,0.0,0.0,0.0,178.0,192.0,0.0,178.0,1744418621.5238614,0.0,2025-04-11 20:43:41.523,LEFT,12
122.0,2733.3724776950453,-14816.50201278949,-30041.616265966448,-23635.740415542175,13535.791758989306,6213.762606830908,30184.890947924967,43884.56569726059,0.0,0.0,0.0,193.0,0.0,192.0,0.0,0.0,0.0,178.0,192.0,0.0,178.0,1744418621.5238926,0.0,2025-04-11 20:43:41.523,LEFT,12
123.0,2744.9730330673497,-14804.990864395008,-30009.094477783976,-23631.091252695474,13558.232910422435,6293.334817091802,30035.067204841045,43980.61114318504,0.0,0.0,0.0,193.0,0.0,192.0,0.0,0.0,0.0,178.0,192.0,0.0,178.0,1744418621.5239234,0.0,2025-04-11 20:43:41.523,LEFT,12
124.0,2738.1110475195705,-14829.466024573569,-29981.378314659396,-23671.704372370765,13718.785490844904,6166.153391141104,30369.29283968125,43975.96198033834,0.0,0.0,0.0,193.0,0.0,193.0,0.0,0.0,0.0,179.0,193.0,0.0,179.0,1744418621.5239544,0.0,2025-04-11 20:43:41.523,LEFT,12
125.0,2727.002230525283,-14837.959687466586,-30030.976835605725,-23699.532294217624,13640.062646873313,5981.3044644957145,30475.709495032967,43842.052679306595,0.0,0.0,0.0,193.0,0.0,193.0,0.0,0.0,0.0,179.0,193.0,0.0,179.0,1744418621.5239851,0.0,2025-04-11 20:43:41.523,LEFT,12
126.0,2737.8875300750174,-14805.951989406585,-30051.115757359956,-23648.77148255962,13530.695561253497,6175.138792412137,30257.645876126993,43882.26346758169,0.0,0.0,0.0,193.0,0.0,192.0,0.0,0.0,0.0,178.0,192.0,0.0,178.0,1744418621.5240335,0.0,2025-04-11 20:43:41.524,LEFT,12
127.0,2753.578454682643,-14774.100753557774,-30016.80582962106,-23623.514011325125,13545.090084682713,6307.304657376369,30044.7902136791,43979.15827979545,0.0,0.0,0.0,193.0,0.0,192.0,0.0,0.0,0.0,178.0,192.0,0.0,178.0,1744418621.5240648,0.0,2025-04-11 20:43:41.524,LEFT,12
128.0,2733.5736433951433,-14801.571047493346,-29991.16837873082,-23662.24958446617,13697.774851056916,6179.206809903003,30310.865379675077,43986.400244998964,0.0,0.0,0.0,193.0,0.0,192.0,0.0,0.0,0.0,178.0,192.0,0.0,178.0,1744418621.5240955,0.0,2025-04-11 20:43:41.524,LEFT,12
129.0,2740.4132771984673,-14812.21047785407,-30002.120733513922,-23673.336049716003,13674.171408912112,5980.745670884332,30485.544262593303,43857.54243821412,0.0,0.0,0.0,193.0,0.0,192.0,0.0,0.0,0.0,178.0,192.0,0.0,178.0,1744418621.524228,0.0,2025-04-11 20:43:41.524,LEFT,12
130.0,2739.295689975702,-14807.896591174198,-30034.75428041867,-23645.642238335877,13557.361192388678,6119.147672551593,30307.199693584407,43866.05845285159,0.0,0.0,0.0,193.0,0.0,193.0,0.0,0.0,0.0,179.0,193.0,0.0,179.0,1744418621.52426,0.0,2025-04-11 20:43:41.524,LEFT,12
131.0,2759.6357774300313,-14778.414640237646,-30014.41419296434,-23617.121412410906,13516.43514829101,6288.19391586708,30043.9408473898,43962.26036098723,0.0,0.0,0.0,193.0,0.0,193.0,0.0,0.0,0.0,178.0,193.0,0.0,178.0,1744418621.5242906,0.0,2025-04-11 20:43:41.524,LEFT,12
132.0,2749.35397498059,-14799.961721892563,-29969.464834864717,-23638.646142321366,13676.004251957447,6219.171728989092,30216.02692795121,43986.132024065504,0.0,0.0,0.0,193.0,0.0,192.0,0.0,0.0,0.0,178.0,192.0,0.0,178.0,1744418621.5243216,0.0,2025-04-11 20:43:41.524,LEFT,12
133.0,2730.8914340605065,-14821.061768658374,-29997.248053222665,-23680.82388410853,13680.876932248704,6004.974961873885,30488.65115507259,43879.69301696933,0.0,0.0,0.0,193.0,0.0,192.0,0.0,0.0,0.0,178.0,192.0,0.0,178.0,1744418621.5243526,0.0,2025-04-11 20:43:41.524,LEFT,12
134.0,2729.4609224153664,-14810.534097019923,-30035.246018796686,-23657.287497197092,13559.417552878565,6072.432526640002,30347.58929581515,43841.78445837313,0.0,0.0,0.0,193.0,0.0,192.0,0.0,0.0,0.0,178.0,192.0,0.0,178.0,1744418621.5243833,0.0,2025-04-11 20:43:41.524,LEFT,12
135.0,2750.002175569794,-14780.560407705356,-30029.65808268286,-23631.426528862303,13502.2864940508,6277.889761673184,30082.00586819719,43950.3245294481,0.0,0.0,0.0,193.0,0.0,192.0,0.0,0.0,0.0,178.0,192.0,0.0,178.0,1744418621.5244143,0.0,2025-04-11 20:43:41.524,LEFT,12
136.0,2763.2120565428804,-14779.375765249226,-29972.21409943272,-23632.700578296255,13648.310440577323,6240.964679833017,30137.639360146448,43974.93380009339,0.0,0.0,0.0,193.0,0.0,193.0,0.0,0.0,0.0,179.0,193.0,0.0,179.0,1744418621.5244453,0.0,2025-04-11 20:43:41.524,LEFT,12
137.0,2738.513378919766,-14822.000541925496,-29987.480340895694,-23685.182474277317,13707.631970361706,6044.202273392949,30472.55789906477,43893.841671209535,0.0,0.0,0.0,193.0,0.0,193.0,0.0,0.0,0.0,179.0,193.0,0.0,179.0,1744418621.524476,0.0,2025-04-11 20:43:41.524,LEFT,12
138.0,2729.125646248537,-14815.451480800091,-30026.975873348223,-23673.91719507184,13586.910198558593,6024.130406872083,30372.24326994935,43811.38608591391,0.0,0.0,0.0,193.0,0.0,192.0,0.0,0.0,0.0,178.0,192.0,0.0,178.0,1744418621.5245123,0.0,2025-04-11 20:43:41.524,LEFT,12
139.0,2745.442419700911,-14784.986053107508,-30033.994321107188,-23640.277819666604,13507.695616208985,6255.493313728966,30109.409106899395,43919.724991288786,0.0,0.0,0.0,193.0,0.0,192.0,0.0,0.0,0.0,178.0,192.0,0.0,178.0,1744418621.5245433,0.0,2025-04-11 20:43:41.524,LEFT,12
140.0,2755.858332617084,-14784.091983329296,-29986.36275367293,-23646.268087180626,13605.305684245312,6261.304767287346,30088.57728106705,43975.31377974913,0.0,0.0,0.0,193.0,0.0,192.0,0.0,0.0,0.0,178.0,192.0,0.0,178.0,1744418621.524574,0.0,2025-04-11 20:43:41.524,LEFT,12
141.0,2737.2169777413583,-14820.301809346893,-29988.352058929453,-23691.17274179134,13706.357920927754,6088.235209969904,30460.286791358805,43931.86198852801,0.0,0.0,0.0,193.0,0.0,192.0,0.0,0.0,0.0,178.0,192.0,0.0,178.0,1744418621.5246205,0.0,2025-04-11 20:43:41.524,LEFT,12
142.0,2733.417181183956,-14816.323198833848,-30027.914646615347,-23687.6411661674,13595.605027151709,5993.039130334751,30413.34812800266,43807.18395795631,0.0,0.0,0.0,193.0,0.0,192.0,0.0,0.0,0.0,179.0,192.0,0.0,179.0,1744418621.5246515,0.0,2025-04-11 20:43:41.524,LEFT,12
143.0,2743.251948744291,-14772.156151790161,-30039.939885132302,-23657.01927626363,13511.785985444307,6208.621705606188,30167.568345972104,43898.73670324525,0.0,0.0,0.0,193.0,0.0,193.0,0.0,0.0,0.0,179.0,193.0,0.0,179.0,1744418621.5246823,0.0,2025-04-11 20:43:41.524,LEFT,12
144.0,2775.058481104193,-14751.436084680092,-29988.486169396183,-23632.83468876299,13592.855762583706,6250.263005526424,30037.99528336469,43953.967863794314,0.0,0.0,0.0,193.0,0.0,192.0,0.0,0.0,0.0,178.0,192.0,0.0,178.0,1744418621.524713,0.0,2025-04-11 20:43:41.524,LEFT,12
145.0,2747.9905185688162,-14807.158983607173,-29979.45606463624,-23675.817093350543,13729.469624694542,6108.955277079974,30394.81853184921,43933.15838970642,0.0,0.0,0.0,193.0,0.0,192.0,0.0,0.0,0.0,178.0,192.0,0.0,178.0,1744418621.5248363,0.0,2025-04-11 20:43:41.524,LEFT,12
146.0,2733.0819050171262,-14810.35528306428,-30022.99726283518,-23684.422514965834,13617.286219273356,5973.034319047251,30436.012796880343,43807.67569633433,0.0,0.0,0.0,193.0,0.0,192.0,0.0,0.0,0.0,178.0,192.0,0.0,178.0,1744418621.5248675,0.0,2025-04-11 20:43:41.524,LEFT,12
147.0,2727.4939689032994,-14809.349454563791,-30052.412158538362,-23656.34872392997,13501.370072528134,6193.042539720838,30224.475887355315,43885.21389784979,0.0,0.0,0.0,193.0,0.0,193.0,0.0,0.0,0.0,179.0,193.0,0.0,179.0,1744418621.5248983,0.0,2025-04-11 20:43:41.524,LEFT,12
148.0,2752.6843849044308,-14790.417527010148,-30006.300509727065,-23634.131089941395,13550.700372540996,6292.351340335767,30046.153670090876,43973.65975065944,0.0,0.0,0.0,193.0,0.0,193.0,0.0,0.0,0.0,179.0,193.0,0.0,179.0,1744418621.5249293,0.0,2025-04-11 20:43:41.524,LEFT,12
149.0,2739.5639109091653,-14821.844079714308,-29984.462855394228,-23675.012430550152,13705.016816260437,6164.722879495965,30346.7622812703,43966.618951156015,0.0,0.0,0.0,193.0,0.0,192.0,0.0,0.0,0.0,178.0,192.0,0.0,178.0,1744418621.5249605,0.0,2025-04-11 20:43:41.524,LEFT,12
150.0,2746.090620290115,-14818.98305642403,-30011.2849487406,-23690.72570690223,13648.958641166526,5974.822458603676,30463.192518137996,43830.161551256366,0.0,0.0,0.0,193.0,0.0,192.0,0.0,0.0,0.0,178.0,192.0,0.0,178.0,1744418622.0000353,0.0,2025-04-11 20:43:42.000,LEFT,12
151.0,2747.5658354241655,-14790.283416543416,-30029.032233838112,-23653.01831400613,13549.180453918036,6147.26616707637,30262.60796339607,43859.21881904827,0.0,0.0,0.0,193.0,0.0,192.0,0.0,0.0,0.0,178.0,192.0,0.0,178.0,1744418622.000198,0.0,2025-04-11 20:43:42.000,LEFT,12
152.0,2761.2003995419027,-14760.086209784295,-30013.430716208306,-23636.09804345346,13538.742189257408,6304.778910252919,30055.340237062006,43970.55285818015,0.0,0.0,0.0,193.0,0.0,192.0,0.0,0.0,0.0,178.0,192.0,0.0,178.0,1744418622.000239,0.0,2025-04-11 20:43:42.000,LEFT,12
153.0,2753.2431785158133,-14787.802372908876,-29977.80203554655,-23662.517805399635,13697.886609779192,6208.621705606188,30292.29108003272,43982.89102111948,0.0,0.0,0.0,193.0,0.0,193.0,0.0,0.0,0.0,179.0,193.0,0.0,179.0,1744418622.0002756,0.0,2025-04-11 20:43:42.000,LEFT,12
154.0,2738.625137642043,-14816.211440111572,-30012.246073752176,-23702.54977971909,13670.081039676792,5997.062444336706,30502.33042267924,43859.509391726184,0.0,0.0,0.0,193.0,0.0,192.0,0.0,0.0,0.0,178.0,192.0,0.0,178.0,1744418622.0003085,0.0,2025-04-11 20:43:42.000,LEFT,12
155.0,2742.4919894328104,-14793.278550300427,-30039.984588621213,-23671.525558415124,13541.312639869768,6109.312904991259,30332.255999118806,43859.308226026085,0.0,0.0,0.0,193.0,0.0,192.0,0.0,0.0,0.0,178.0,192.0,0.0,178.0,1744418622.0003407,0.0,2025-04-11 20:43:42.000,LEFT,12
156.0,2767.4365362449334,-14755.973488804519,-30022.61728317944,-23635.338084141982,13491.132973567603,6296.084081659804,30072.796949481602,43971.737500636285,0.0,0.0,0.0,193.0,0.0,193.0,0.0,0.0,0.0,179.0,193.0,0.0,179.0,1744418622.000435,0.0,2025-04-11 20:43:42.000,LEFT,12
157.0,2768.352957767601,-14782.59441645079,-29981.534776870583,-23652.236002950194,13648.399847555143,6239.109485043226,30212.629462794004,44001.55472773966,0.0,0.0,0.0,193.0,0.0,193.0,0.0,0.0,0.0,179.0,193.0,0.0,179.0,1744418622.0004685,0.0,2025-04-11 20:43:42.000,LEFT,12
158.0,2751.1421145370145,-14812.813974954364,-30001.561939902538,-23693.45261972578,13676.875969991204,6021.805825448731,30505.16909422506,43906.82803473807,0.0,0.0,0.0,193.0,0.0,193.0,0.0,0.0,0.0,178.0,193.0,0.0,178.0,1744418622.0005002,0.0,2025-04-11 20:43:42.000,LEFT,12
159.0,2745.822399356651,-14792.719756689045,-30029.769841405137,-23665.602346134467,13559.216387178469,6064.318843402725,30376.668915351504,43861.00695860469,0.0,0.0,0.0,193.0,0.0,192.0,0.0,0.0,0.0,178.0,192.0,0.0,178.0,1744418622.0005343,0.0,2025-04-11 20:43:42.000,LEFT,12
160.0,2758.2052657848917,-14752.464264925036,-30023.779573891115,-23644.144671457372,13493.636368946598,6285.8246309548185,30121.277883205163,43987.16020431044,0.0,0.0,0.0,193.0,0.0,192.0,0.0,0.0,0.0,178.0,192.0,0.0,178.0,1744418622.0007167,0.0,2025-04-11 20:43:42.000,LEFT,12
161.0,2765.156658310492,-14757.471055683025,-29978.293773924564,-23658.91917454233,13627.433911256065,6251.514703215922,30165.19906105984,44027.862730963556,0.0,0.0,0.0,193.0,0.0,193.0,0.0,0.0,0.0,178.0,193.0,0.0,178.0,1744418622.0007515,0.0,2025-04-11 20:43:42.000,LEFT,12
162.0,2754.2043035273914,-14792.138611333206,-29987.41328566233,-23693.899654614885,13697.439574890088,6051.19836940746,30492.719172563455,43941.7191078328,0.0,0.0,0.0,193.0,0.0,193.0,0.0,0.0,0.0,179.0,193.0,0.0,179.0,1744418622.000784,0.0,2025-04-11 20:43:42.000,LEFT,12
163.0,2755.858332617084,-14783.130858317716,-30017.65519591036,-23672.084352026504,13584.362099690688,6031.931165686985,30406.709659899436,43845.58425493053,0.0,0.0,0.0,193.0,0.0,193.0,0.0,0.0,0.0,179.0,193.0,0.0,179.0,1744418622.000818,0.0,2025-04-11 20:43:42.000,LEFT,12
164.0,2753.9807860828387,-14752.643078880677,-30036.475364741727,-23646.11162496944,13500.073671349726,6267.786773179385,30162.472148236295,43962.5285819207,0.0,0.0,0.0,193.0,0.0,193.0,0.0,0.0,0.0,178.0,193.0,0.0,178.0,1744418622.0008512,0.0,2025-04-11 20:43:42.000,LEFT,12
165.0,2765.8942658775172,-14760.220320251026,-29988.307355440542,-23645.798700547064,13593.816887595283,6261.729450431997,30106.65984233139,44014.00464940127,0.0,0.0,0.0,193.0,0.0,192.0,0.0,0.0,0.0,178.0,192.0,0.0,178.0,1744418622.000883,0.0,2025-04-11 20:43:42.000,LEFT,12
166.0,2744.548349922699,-14812.881030187731,-30000.64551837987,-23706.528390232135,13692.678653321107,6069.6385585830885,30467.081721673218,43965.18843951088,0.0,0.0,0.0,193.0,0.0,193.0,0.0,0.0,0.0,178.0,193.0,0.0,178.0,1744418622.0009146,0.0,2025-04-11 20:43:42.000,LEFT,12
167.0,2755.835980872629,-14792.004500866475,-30018.146934288376,-23688.02114582314,13587.491343914431,5977.392909216036,30446.115785374142,43849.83108637704,0.0,0.0,0.0,193.0,0.0,192.0,0.0,0.0,0.0,178.0,192.0,0.0,178.0,1744418622.0009472,0.0,2025-04-11 20:43:42.000,LEFT,12
168.0,2753.4219924714557,-14769.809218622355,-30033.23436179571,-23649.129110470905,13492.541133468287,6237.56721467581,30205.342794101573,43952.33618644907,0.0,0.0,0.0,193.0,0.0,193.0,0.0,0.0,0.0,179.0,193.0,0.0,179.0,1744418622.0009785,0.0,2025-04-11 20:43:42.000,LEFT,12
169.0,2767.1683153114695,-14762.075515040819,-29990.654288608348,-23643.697636568268,13563.217349435969,6304.667151530642,30065.979667422733,44022.274794849734,0.0,0.0,0.0,193.0,0.0,193.0,0.0,0.0,0.0,179.0,193.0,0.0,179.0,1744418622.0010095,0.0,2025-04-11 20:43:42.001,LEFT,12
170.0,2753.9137308494724,-14792.920922389141,-29973.175224444298,-23677.694639884787,13713.823403575827,6156.6315480031435,30401.322889485706,43998.5372422382,0.0,0.0,0.0,193.0,0.0,193.0,0.0,0.0,0.0,179.0,193.0,0.0,179.0,1744418622.0010405,0.0,2025-04-11 20:43:42.001,LEFT,12
171.0,2749.5998441695983,-14797.100698602284,-30010.27912024011,-23683.886073098907,13610.491288958943,5999.945819371441,30466.277058872827,43862.5045254832,0.0,0.0,0.0,193.0,0.0,193.0,0.0,0.0,0.0,179.0,193.0,0.0,179.0,1744418622.0010912,0.0,2025-04-11 20:43:42.001,LEFT,12
172.0,2742.939024321917,-14780.515704216446,-30035.76010891916,-23653.510052384147,13508.656741220564,6203.816080548297,30257.98115229382,43936.287633930166,0.0,0.0,0.0,193.0,0.0,192.0,0.0,0.0,0.0,178.0,192.0,0.0,178.0,1744418622.001123,0.0,2025-04-11 20:43:42.001,LEFT,12
173.0,2771.839829902629,-14749.267965467927,-29991.950689786758,-23624.497488081157,13540.10564566918,6314.077235946326,30038.46466999825,44014.3399255681,0.0,0.0,0.0,193.0,0.0,192.0,0.0,0.0,0.0,178.0,192.0,0.0,178.0,1744418622.0011544,0.0,2025-04-11 20:43:42.001,LEFT,12
174.0,2755.0983733056037,-14786.72948917502,-29963.36280862842,-23663.791854833587,13682.240388660479,6186.5605338288,30323.002376914308,44001.912355650944,0.0,0.0,0.0,193.0,0.0,192.0,0.0,0.0,0.0,178.0,192.0,0.0,178.0,1744418622.001186,0.0,2025-04-11 20:43:42.001,LEFT,12
175.0,2750.5609691811765,-14793.636178211711,-29996.733963100192,-23687.842331867498,13629.333809534766,5973.391946958536,30472.110864175662,43858.548266714606,0.0,0.0,0.0,193.0,0.0,192.0,0.0,0.0,0.0,178.0,192.0,0.0,178.0,1744418622.001312,0.0,2025-04-11 20:43:42.001,LEFT,12
176.0,2754.383117483034,-14770.613881422745,-30023.22078027973,-23658.67330535332,13538.898651468595,6121.986344097418,30269.64876289949,43867.01957786317,0.0,0.0,0.0,193.0,0.0,193.0,0.0,0.0,0.0,179.0,193.0,0.0,179.0,1744418622.0013533,0.0,2025-04-11 20:43:42.001,LEFT,12
177.0,2764.4861059768327,-14755.079419026306,-30001.04784978007,-23643.608229590445,13526.024046662336,6298.073386916326,30036.117736830445,43977.14662279447,0.0,0.0,0.0,193.0,0.0,193.0,0.0,0.0,0.0,179.0,193.0,0.0,179.0,1744418622.0013845,0.0,2025-04-11 20:43:42.001,LEFT,12
178.0,2763.2120565428804,-14770.703288400566,-29948.45419507673,-23659.880299553908,13686.263702662434,6225.251403480936,30244.480698642816,43997.15143408197,0.0,0.0,0.0,193.0,0.0,192.0,0.0,0.0,0.0,178.0,192.0,0.0,178.0,1744418622.001416,0.0,2025-04-11 20:43:42.001,LEFT,12
179.0,2750.672727903453,-14791.177486321627,-29979.03138149159,-23690.993927835694,13670.505722821443,6019.347133558647,30486.68420156052,43876.42966227885,0.0,0.0,0.0,193.0,0.0,192.0,0.0,0.0,0.0,179.0,192.0,0.0,179.0,1744418622.0014467,0.0,2025-04-11 20:43:42.001,LEFT,12
180.0,2751.9244255929502,-14789.188181065105,-30009.496809184173,-23661.98136353271,13538.87629972414,6111.011637569862,30324.455240303905,43845.94188284181,0.0,0.0,0.0,193.0,0.0,193.0,0.0,0.0,0.0,178.0,193.0,0.0,178.0,1744418622.0014777,0.0,2025-04-11 20:43:42.001,LEFT,12
181.0,2772.7115479363856,-14752.285450969393,-29990.11784674142,-23621.90468572434,13493.256389290857,6309.0704451883375,30067.56664127906,43957.678253373895,0.0,0.0,0.0,193.0,0.0,193.0,0.0,0.0,0.0,179.0,193.0,0.0,179.0,1744418622.0015087,0.0,2025-04-11 20:43:42.001,LEFT,12
182.0,2763.5026292207995,-14769.317480244337,-29952.16458465631,-23631.135956184382,13652.289051090367,6254.442781739567,30182.16403510142,43986.28848627669,0.0,0.0,0.0,193.0,0.0,193.0,0.0,0.0,0.0,178.0,193.0,0.0,178.0,1744418622.0015397,0.0,2025-04-11 20:43:42.001,LEFT,12
183.0,2743.0284312997383,-14815.31737033336,-29978.092608224466,-23684.623680665933,13699.00419700196,6044.515197815323,30492.8979865191,43888.477252540266,0.0,0.0,0.0,193.0,0.0,192.0,0.0,0.0,0.0,178.0,192.0,0.0,178.0,1744418622.0015705,0.0,2025-04-11 20:43:42.001,LEFT,12
184.0,2745.6212336565536,-14799.894666659196,-30005.160570759843,-23659.522671642622,13585.144410746625,6067.850419026664,30364.934249512466,43820.61735637395,0.0,0.0,0.0,193.0,0.0,193.0,0.0,0.0,0.0,179.0,193.0,0.0,179.0,1744418622.0016017,0.0,2025-04-11 20:43:42.001,LEFT,12
185.0,2761.133344308537,-14762.142570274184,-30007.909835327846,-23631.76180502913,13506.734491197407,6296.598171782276,30110.861970288992,43949.765735836714,0.0,0.0,0.0,193.0,0.0,193.0,0.0,0.0,0.0,179.0,193.0,0.0,179.0,1744418622.0016327,0.0,2025-04-11 20:43:42.001,LEFT,12
186.0,2768.911751378984,-14760.510892928945,-29965.240355162667,-23641.350703400458,13608.211411024502,6276.325139561312,30127.782240841658,44000.951230639366,0.0,0.0,0.0,193.0,0.0,193.0,0.0,0.0,0.0,178.0,193.0,0.0,178.0,1744418622.0016868,0.0,2025-04-11 20:43:42.001,LEFT,12
187.0,2744.6824603894306,-14804.320312061349,-29975.70097156775,-23694.905483115373,13702.871048792727,6073.997148751873,30484.560785837268,43936.913482774915,0.0,0.0,0.0,193.0,0.0,192.0,0.0,0.0,0.0,178.0,192.0,0.0,178.0,1744418622.0017185,0.0,2025-04-11 20:43:42.001,LEFT,12
188.0,2747.7222976353523,-14797.92771314713,-30009.921492328824,-23680.06392479705,13597.97431206397,6014.04977012274,30416.07504082621,43831.86028383497,0.0,0.0,0.0,193.0,0.0,192.0,0.0,0.0,0.0,178.0,192.0,0.0,178.0,1744418622.00175,0.0,2025-04-11 20:43:42.001,LEFT,12
189.0,2753.7125651493748,-14767.909320343653,-30025.210085536255,-23648.145633714874,13502.800584173274,6253.861636383729,30162.96388661431,43938.92513977589,0.0,0.0,0.0,193.0,0.0,192.0,0.0,0.0,0.0,178.0,192.0,0.0,178.0,1744418622.0017884,0.0,2025-04-11 20:43:42.001,LEFT,12
190.0,2768.3976612565116,-14754.67708762611,-29978.85256753595,-23635.4274911198,13580.137619988636,6298.8556979722625,30077.513167561672,43993.15047182447,0.0,0.0,0.0,193.0,0.0,193.0,0.0,0.0,0.0,179.0,193.0,0.0,179.0,1744418622.00184,0.0,2025-04-11 20:43:42.001,LEFT,12
191.0,2743.0060795552827,-14800.699329459589,-29969.844814520457,-23683.21552076525,13714.00221753147,6135.464446003967,30447.009855152355,43961.388642953476,0.0,0.0,0.0,193.0,0.0,193.0,0.0,0.0,0.0,179.0,193.0,0.0,179.0,1744418622.001876,0.0,2025-04-11 20:43:42.001,LEFT,12
192.0,2736.479370174333,-14812.746919721,-30004.199445748265,-23689.183436534815,13610.40188198112,6004.527926984779,30461.426730326028,43844.26550200766,0.0,0.0,0.0,193.0,0.0,192.0,0.0,0.0,0.0,178.0,192.0,0.0,178.0,1744418622.0019128,0.0,2025-04-11 20:43:42.001,LEFT,12
193.0,2737.641660886009,-14789.657567698667,-30037.972931620236,-23656.169909974327,13495.022177102826,6215.774263831886,30220.251407653264,43923.25656691272,0.0,0.0,0.0,193.0,0.0,192.0,0.0,0.0,0.0,178.0,192.0,0.0,178.0,1744418622.0019476,0.0,2025-04-11 20:43:42.001,LEFT,12
194.0,2752.036184315227,-14765.96471857604,-30006.524027171617,-23642.378883645404,13542.921965470548,6303.996599196983,30058.245963841196,44000.21362307234,0.0,0.0,0.0,193.0,0.0,193.0,0.0,0.0,0.0,179.0,193.0,0.0,179.0,1744418622.0019796,0.0,2025-04-11 20:43:42.001,LEFT,12
195.0,2740.279166731735,-14801.526344004435,-29978.874919280403,-23690.189265035304,13698.333644668299,6153.83757994623,30388.984726546376,43988.166032810936,0.0,0.0,0.0,193.0,0.0,193.0,0.0,0.0,0.0,179.0,193.0,0.0,179.0,1744418622.0020168,0.0,2025-04-11 20:43:42.002,LEFT,12
196.0,2733.417181183956,-14815.116204633261,-30019.0857075555,-23704.337919275513,13612.726463404473,5985.618351175589,30471.060332186265,43852.736813156225,0.0,0.0,0.0,193.0,0.0,193.0,0.0,0.0,0.0,178.0,193.0,0.0,178.0,1744418622.0020516,0.0,2025-04-11 20:43:42.002,LEFT,12
197.0,2730.7573235937743,-14802.733338205022,-30041.593914221994,-23668.39631419138,13514.669360479042,6198.764586301397,30254.717797603345,43907.74445626074,0.0,0.0,0.0,193.0,0.0,192.0,0.0,0.0,0.0,178.0,192.0,0.0,178.0,1744418622.00209,0.0,2025-04-11 20:43:42.002,LEFT,12
198.0,2755.232483772336,-14775.553616947367,-29999.438524179284,-23644.994037746674,13516.032816890815,6331.578651854832,30036.207143808264,44000.77241668373,0.0,0.0,0.0,193.0,0.0,192.0,0.0,0.0,0.0,178.0,192.0,0.0,178.0,1744418622.0021276,0.0,2025-04-11 20:43:42.002,LEFT,12
199.0,2755.88068436154,-14790.30576828787,-29958.06544519251,-23669.87152932543,13664.18017914059,6221.406903434623,30287.7983793972,43996.10090209257,0.0,0.0,0.0,193.0,0.0,193.0,0.0,0.0,0.0,178.0,193.0,0.0,178.0,1744418622.0021665,0.0,2025-04-11 20:43:42.002,LEFT,12
200.0,2753.6902134049196,-14805.393195795203,-29986.630974606393,-23685.741267888698,13636.039332871358,6027.706685984932,30462.097282659684,43859.86701963747,0.0,0.0,0.0,193.0,0.0,193.0,0.0,0.0,0.0,179.0,193.0,0.0,179.0,1744418622.002205,0.0,2025-04-11 20:43:42.002,LEFT,12
201.0,2743.251948744291,-14798.777079436431,-30024.338367502496,-23662.696619355276,13535.3447241002,6155.916292180574,30281.204614782884,43863.42094700586,0.0,0.0,0.0,193.0,0.0,193.0,0.0,0.0,0.0,179.0,193.0,0.0,179.0,1744418622.0022783,0.0,2025-04-11 20:43:42.002,LEFT,12
202.0,2766.050728088704,-14761.114390029239,-30000.958442802246,-23636.790947531576,13534.137729899614,6342.374544426745,30052.23334458272,43992.055236346154,0.0,0.0,0.0,193.0,0.0,192.0,0.0,0.0,0.0,178.0,192.0,0.0,178.0,1744418622.0023148,0.0,2025-04-11 20:43:42.002,LEFT,12
203.0,2755.6571669169866,-14788.294111286892,-29959.94299172676,-23664.618869378435,13683.08975494978,6264.590473722276,30235.69646307188,44012.551786011674,0.0,0.0,0.0,193.0,0.0,192.0,0.0,0.0,0.0,178.0,192.0,0.0,178.0,1744418622.0023506,0.0,2025-04-11 20:43:42.002,LEFT,12
204.0,2739.630966142531,-14820.346512835804,-29993.694125854272,-23702.527427974634,13657.407600570632,6041.028325680295,30491.869806274153,43895.7639212327,0.0,0.0,0.0,193.0,0.0,193.0,0.0,0.0,0.0,179.0,193.0,0.0,179.0,1744418622.0023837,0.0,2025-04-11 20:43:42.002,LEFT,12
205.0,2733.5289399062326,-14806.734300462522,-30024.338367502496,-23678.856930596463,13541.022067191849,6100.819242098241,30351.634961561558,43861.699862682806,0.0,0.0,0.0,193.0,0.0,193.0,0.0,0.0,0.0,179.0,193.0,0.0,179.0,1744418622.0024464,0.0,2025-04-11 20:43:42.002,LEFT,12
206.0,2756.797105884207,-14757.49340742748,-30008.111001027944,-23643.384712145893,13502.331197539712,6295.860564215251,30086.29740313261,43975.492593704774,0.0,0.0,0.0,193.0,0.0,192.0,0.0,0.0,0.0,178.0,192.0,0.0,178.0,1744418622.0024848,0.0,2025-04-11 20:43:42.002,LEFT,12
207.0,2755.54540819471,-14775.084230313807,-29957.529003325584,-23653.890032039886,13648.288088832867,6249.503046214944,30169.557651228628,44013.71407672335,0.0,0.0,0.0,193.0,0.0,192.0,0.0,0.0,0.0,178.0,192.0,0.0,178.0,1744418622.002519,0.0,2025-04-11 20:43:42.002,LEFT,12
208.0,2745.5318266787326,-14805.16967835065,-29967.02849471909,-23684.176645776828,13702.312255181343,6047.644442039066,30489.16524519506,43933.78423855117,0.0,0.0,0.0,193.0,0.0,193.0,0.0,0.0,0.0,179.0,193.0,0.0,179.0,1744418622.0025585,0.0,2025-04-11 20:43:42.002,LEFT,12
209.0,2746.9623383238722,-14796.877181157732,-30003.238320736687,-23661.377866432413,13589.592407893231,6068.968006249429,30386.928366056487,43860.91755162687,0.0,0.0,0.0,193.0,0.0,193.0,0.0,0.0,0.0,179.0,193.0,0.0,179.0,1744418622.0025923,0.0,2025-04-11 20:43:42.002,LEFT,12
210.0,2752.192646526414,-14775.64302392519,-30015.308262742554,-23643.652933079356,13500.990092872393,6307.617581798742,30127.178743741366,43971.08930004708,0.0,0.0,0.0,193.0,0.0,192.0,0.0,0.0,0.0,178.0,192.0,0.0,178.0,1744418622.0026276,0.0,2025-04-11 20:43:42.002,LEFT,12
211.0,2763.1673530539697,-14770.993861078485,-29965.754445285136,-23637.036816720585,13620.326056519278,6310.6574190446645,30103.731763807747,44012.2388615893,0.0,0.0,0.0,193.0,0.0,192.0,0.0,0.0,0.0,179.0,192.0,0.0,179.0,1744418622.0026655,0.0,2025-04-11 20:43:42.002,LEFT,12
212.0,2742.4249341994446,-14801.191067837604,-29972.16939594381,-23681.047401553085,13718.070235022335,6124.310925520769,30461.47143381494,43953.36436669402,0.0,0.0,0.0,193.0,0.0,193.0,0.0,0.0,0.0,179.0,193.0,0.0,179.0,1744418622.0027018,0.0,2025-04-11 20:43:42.002,LEFT,12
213.0,2747.4317249574337,-14790.059899098862,-29996.30927995554,-23666.25054672367,13606.892658101639,6055.959290976441,30416.49972397086,43840.75627812818,0.0,0.0,0.0,193.0,0.0,192.0,0.0,0.0,0.0,179.0,192.0,0.0,179.0,1744418622.0027423,0.0,2025-04-11 20:43:42.002,LEFT,12
214.0,2751.030355814738,-14767.462285454547,-30013.341309230487,-23642.69180806778,13505.214572574447,6285.511706532444,30169.35648552853,43939.1710089649,0.0,0.0,0.0,193.0,0.0,192.0,0.0,0.0,0.0,178.0,192.0,0.0,178.0,1744418622.0027764,0.0,2025-04-11 20:43:42.002,LEFT,12
215.0,2768.352957767601,-14746.58575613329,-29956.83609924747,-23634.62282831941,13589.503000915409,6314.814843513352,30071.72406574775,44005.89096616399,0.0,0.0,0.0,193.0,0.0,193.0,0.0,0.0,0.0,179.0,193.0,0.0,179.0,1744418622.0028167,0.0,2025-04-11 20:43:42.002,LEFT,12
216.0,2742.4696376883553,-14805.437899284114,-29943.335645596464,-23682.992003320694,13730.989543317502,6141.253547817892,30435.230485824406,43982.5333932082,0.0,0.0,0.0,193.0,0.0,193.0,0.0,0.0,0.0,179.0,193.0,0.0,179.0,1744418622.0028553,0.0,2025-04-11 20:43:42.002,LEFT,12
217.0,2744.458942944878,-14808.075405129839,-29982.048866993056,-23689.228140023726,13633.155957836623,6006.338418285659,30459.638590769602,43849.69697591031,0.0,0.0,0.0,193.0,0.0,193.0,0.0,0.0,0.0,179.0,193.0,0.0,179.0,1744418622.0029354,0.0,2025-04-11 20:43:42.002,LEFT,12
218.0,2741.128533021037,-14779.085192571307,-30011.0837830405,-23655.789930318588,13526.515785040354,6234.7061913855305,30237.953989261867,43934.16421820691,0.0,0.0,0.0,193.0,0.0,192.0,0.0,0.0,0.0,178.0,192.0,0.0,178.0,1744418622.002973,0.0,2025-04-11 20:43:42.002,LEFT,12
219.0,2759.2781495187464,-14756.353468460258,-29975.052770978546,-23639.40610163285,13548.956936473482,6334.5514338673875,30068.43835931282,44019.816102959645,0.0,0.0,0.0,193.0,0.0,192.0,0.0,0.0,0.0,178.0,192.0,0.0,178.0,1744418622.003013,0.0,2025-04-11 20:43:42.003,LEFT,12
220.0,2743.900149333495,-14788.539980475902,-29948.051863676534,-23675.615927650444,13682.598016571763,6209.627534106677,30368.555232114224,43999.61012597205,0.0,0.0,0.0,193.0,0.0,193.0,0.0,0.0,0.0,179.0,193.0,0.0,179.0,1744418622.0030465,0.0,2025-04-11 20:43:42.003,LEFT,12
221.0,2747.319966235157,-14789.858733398765,-29967.475529608197,-23677.96286081825,13637.179271838579,6031.126502886594,30464.779491994323,43858.324749270054,0.0,0.0,0.0,193.0,0.0,192.0,0.0,0.0,0.0,178.0,192.0,0.0,178.0,1744418622.003131,0.0,2025-04-11 20:43:42.003,LEFT,12
222.0,2735.093562018104,-14782.706175173065,-30004.735887615192,-23654.20295646226,13553.561395831275,6203.972542759484,30275.683733902424,43911.812473751605,0.0,0.0,0.0,193.0,0.0,192.0,0.0,0.0,0.0,178.0,192.0,0.0,178.0,1744418622.0031636,0.0,2025-04-11 20:43:42.003,LEFT,12
223.0,2753.4666959603665,-14759.438009195092,-29977.511462868628,-23641.64127607838,13554.58957607622,6332.942108266605,30057.933039418822,44016.820969202636,0.0,0.0,0.0,193.0,0.0,193.0,0.0,0.0,0.0,179.0,193.0,0.0,179.0,1744418622.0032012,0.0,2025-04-11 20:43:42.003,LEFT,12
224.0,2746.82822785714,-14775.888893114197,-29947.58247704297,-23669.469197925235,13715.835060576805,6242.261081011425,30295.979117867842,44019.95021342638,0.0,0.0,0.0,193.0,0.0,193.0,0.0,0.0,0.0,178.0,193.0,0.0,178.0,1744418622.00324,0.0,2025-04-11 20:43:42.003,LEFT,12
225.0,2736.680535874431,-14778.97343384903,-29996.68925961128,-23715.513791503166,13656.155902881135,6035.619203522111,30495.468437131458,43890.62302000797,0.0,0.0,0.0,193.0,0.0,193.0,0.0,0.0,0.0,179.0,193.0,0.0,179.0,1744418622.003278,0.0,2025-04-11 20:43:42.003,LEFT,12
226.0,2756.1489052950033,-14750.027924779408,-30017.252864510163,-23671.771427604133,13530.270878108846,6146.819132187264,30309.367812796572,43883.425758293364,0.0,0.0,0.0,193.0,0.0,193.0,0.0,0.0,0.0,179.0,193.0,0.0,179.0,1744418622.0033145,0.0,2025-04-11 20:43:42.003,LEFT,12
227.0,2770.5881322131318,-14750.58671839079,-29984.50755888314,-23637.10387195395,13514.557601756766,6330.751637309985,30051.585143993518,43996.972620126326,0.0,0.0,0.0,193.0,0.0,192.0,0.0,0.0,0.0,178.0,192.0,0.0,178.0,1744418622.003349,0.0,2025-04-11 20:43:42.003,LEFT,12
228.0,2745.777695867741,-14793.077384600329,-29940.005235672623,-23659.232098964705,13667.51058906443,6251.04531658236,30201.922977199913,44019.65964074846,0.0,0.0,0.0,193.0,0.0,193.0,0.0,0.0,0.0,178.0,193.0,0.0,178.0,1744418622.003389,0.0,2025-04-11 20:43:42.003,LEFT,12
229.0,2723.314192690157,-14835.03160894294,-29967.87786100839,-23707.914198388364,13666.281243119389,6038.994316934863,30483.51025384787,43914.1147034305,0.0,0.0,0.0,193.0,0.0,193.0,0.0,0.0,0.0,179.0,193.0,0.0,179.0,1744418622.003424,0.0,2025-04-11 20:43:42.003,LEFT,12
230.0,2739.675669631442,-14807.091928373806,-29983.41232340483,-23668.329258958016,13566.570111104264,6100.103986275672,30333.261827619295,43860.31405452658,0.0,0.0,0.0,193.0,0.0,192.0,0.0,0.0,0.0,178.0,192.0,0.0,178.0,1744418622.0034585,0.0,2025-04-11 20:43:42.003,LEFT,12
231.0,2763.0779460761487,-14772.916111101642,-29980.50659662564,-23636.25450566465,13508.969665642939,6322.369733139245,30074.696847760304,43977.19132628338,0.0,0.0,0.0,193.0,0.0,192.0,0.0,0.0,0.0,178.0,192.0,0.0,178.0,1744418622.003494,0.0,2025-04-11 20:43:42.003,LEFT,12
232.0,2767.5929984561203,-14780.582759449811,-29931.15394486832,-23646.849232536464,13652.199644112545,6294.564163036843,30130.9114850654,44015.14458836849,0.0,0.0,0.0,193.0,0.0,192.0,0.0,0.0,0.0,178.0,192.0,0.0,178.0,1744418622.0038729,0.0,2025-04-11 20:43:42.003,LEFT,12
233.0,2733.104256761582,-14827.923754206153,-29960.3229713825,-23703.421497752846,13719.992485045492,6093.957256550462,30482.66088755857,43950.615102126016,0.0,0.0,0.0,193.0,0.0,192.0,0.0,0.0,0.0,178.0,192.0,0.0,178.0,1744418622.0039105,0.0,2025-04-11 20:43:42.003,LEFT,12
234.0,2719.760265321763,-14832.148233908205,-30009.675623139814,-23695.30781451557,13579.422364166066,6065.43643062549,30405.480313954395,43869.00888311969,0.0,0.0,0.0,193.0,0.0,193.0,0.0,0.0,0.0,179.0,193.0,0.0,179.0,1744418622.003945,0.0,2025-04-11 20:43:42.003,LEFT,12
235.0,2732.2995939611906,-14801.347530048792,-30015.017690064633,-23660.30498269856,13464.422638943512,6277.286264572891,30142.0650055486,43969.61408491303,0.0,0.0,0.0,193.0,0.0,193.0,0.0,0.0,0.0,179.0,193.0,0.0,179.0,1744418622.003978,0.0,2025-04-11 20:43:42.003,LEFT,12
236.0,2752.97495758235,-14786.01423335245,-29952.186936400765,-23644.703465068756,13565.050192481303,6294.117128147737,30096.95918523779,44018.47499829233,0.0,0.0,0.0,193.0,0.0,192.0,0.0,0.0,0.0,178.0,192.0,0.0,178.0,1744418622.004044,0.0,2025-04-11 20:43:42.004,LEFT,12
237.0,2732.031373027727,-14815.607943011279,-29949.46002357722,-23693.050288325583,13701.57464761432,6123.863890631663,30454.765910478345,43970.9775413248,0.0,0.0,0.0,193.0,0.0,193.0,0.0,0.0,0.0,179.0,193.0,0.0,179.0,1744418622.0040777,0.0,2025-04-11 20:43:42.004,LEFT,12
238.0,2730.1091230045704,-14808.947123163596,-29982.898233282358,-23687.68586965631,13609.530163947364,6035.373334333102,30423.808744407746,43861.4539934938,0.0,0.0,0.0,193.0,0.0,193.0,0.0,0.0,0.0,179.0,193.0,0.0,179.0,1744418622.004122,0.0,2025-04-11 20:43:42.004,LEFT,12
239.0,2738.8263033421404,-14777.341756503793,-29994.543492143574,-23650.269049438128,13493.09992707967,6268.949063891061,30180.577061245094,43960.807497597634,0.0,0.0,0.0,193.0,0.0,192.0,0.0,0.0,0.0,178.0,192.0,0.0,178.0,1744418622.0041585,0.0,2025-04-11 20:43:42.004,LEFT,12
240.0,2763.770850154263,-14748.373895689714,-29950.845831733448,-23639.741377799677,13544.285421882323,6318.949916237583,30050.489908515206,44027.303937352175,0.0,0.0,0.0,193.0,0.0,192.0,0.0,0.0,0.0,179.0,192.0,0.0,179.0,1744418622.0041945,0.0,2025-04-11 20:43:42.004,LEFT,12
241.0,2740.905015576484,-14786.863599641752,-29948.342436354455,-23684.958956832765,13701.529944125408,6151.35653631169,30391.197549247452,44002.627611473516,0.0,0.0,0.0,193.0,0.0,193.0,0.0,0.0,0.0,179.0,193.0,0.0,179.0,1744418622.004233,0.0,2025-04-11 20:43:42.004,LEFT,12
242.0,2734.6018236400873,-14789.814029909854,-29987.681506595793,-23701.007509351675,13619.83431814126,5992.189764045449,30437.957398647955,43873.59099073303,0.0,0.0,0.0,193.0,0.0,193.0,0.0,0.0,0.0,178.0,193.0,0.0,178.0,1744418622.0042748,0.0,2025-04-11 20:43:42.004,LEFT,12
243.0,2726.912823547462,-14776.78296289241,-30031.80385015057,-23687.842331867498,13498.799621915774,6194.048368221327,30217.27862564071,43938.858084542524,0.0,0.0,0.0,193.0,0.0,192.0,0.0,0.0,0.0,178.0,192.0,0.0,178.0,1744418622.0043192,0.0,2025-04-11 20:43:42.004,LEFT,12
244.0,2757.445306473411,-14756.286413226893,-29985.31222168353,-23651.6325058499,13541.714971269963,6314.434863857611,30021.879675612414,44025.42639081793,0.0,0.0,0.0,193.0,0.0,192.0,0.0,0.0,0.0,178.0,192.0,0.0,178.0,1744418622.004366,0.0,2025-04-11 20:43:42.004,LEFT,12
245.0,2749.2422162583134,-14797.100698602284,-29951.069349178,-23678.789875363098,13712.86227856425,6189.488612352445,30316.229798344353,44027.99684143029,0.0,0.0,0.0,193.0,0.0,192.0,0.0,0.0,0.0,178.0,192.0,0.0,178.0,1744418622.0044038,0.0,2025-04-11 20:43:42.004,LEFT,12
246.0,2741.3073469766796,-14808.164812107661,-29979.053733236044,-23703.376794263935,13644.287126575367,5987.205325031916,30453.78243372231,43897.19443287783,0.0,0.0,0.0,193.0,0.0,193.0,0.0,0.0,0.0,179.0,193.0,0.0,179.0,1744418622.004438,0.0,2025-04-11 20:43:42.004,LEFT,12
247.0,2745.129495278537,-14776.268872769937,-29995.75048634416,-23667.34578220198,13527.923944941038,6175.116440667683,30260.909230817466,43930.85616002753,0.0,0.0,0.0,193.0,0.0,192.0,0.0,0.0,0.0,178.0,192.0,0.0,178.0,1744418622.004666,0.0,2025-04-11 20:43:42.004,LEFT,12
248.0,2768.7552891677965,-14752.7324858585,-29966.156776685333,-23642.468290623223,13528.192165874501,6348.185997985125,30042.778556678124,44041.31848112565,0.0,0.0,0.0,193.0,0.0,192.0,0.0,0.0,0.0,178.0,192.0,0.0,178.0,1744418622.0047023,0.0,2025-04-11 20:43:42.004,LEFT,12
249.0,2756.931216350939,-14784.673128685134,-29939.625256016883,-23665.043552523086,13680.698118293061,6239.936499588072,30253.622562125038,44039.64210029151,0.0,0.0,0.0,193.0,0.0,192.0,0.0,0.0,0.0,178.0,192.0,0.0,178.0,1744418622.0047345,0.0,2025-04-11 20:43:42.004,LEFT,12
250.0,2741.7096783768748,-14804.253256827982,-29970.31420115402,-23698.30294827258,13657.876987204194,6029.226604607893,30474.9942392104,43920.37319187799,0.0,0.0,0.0,193.0,0.0,192.0,0.0,0.0,0.0,178.0,192.0,0.0,178.0,1744418622.0047667,0.0,2025-04-11 20:43:42.004,LEFT,12
251.0,2738.1557510084813,-14784.516666473946,-29998.32093695652,-23669.87152932543,13539.636259035618,6130.859986646175,30314.03932738773,43898.87081371198,0.0,0.0,0.0,193.0,0.0,193.0,0.0,0.0,0.0,179.0,193.0,0.0,179.0,1744418622.0048308,0.0,2025-04-11 20:43:42.004,LEFT,12
252.0,2760.7533646527963,-14743.367104931725,-29980.26072743663,-23634.66753180832,13491.71411892344,6329.432884387123,30052.501565516184,43998.76075968275,0.0,0.0,0.0,193.0,0.0,192.0,0.0,0.0,0.0,178.0,192.0,0.0,178.0,1744418622.0048642,0.0,2025-04-11 20:43:42.004,LEFT,12
253.0,2767.4365362449334,-14749.737352101489,-29919.799258685027,-23641.753034800655,13643.303649819334,6275.207552338547,30176.464340265316,44024.644079761994,0.0,0.0,0.0,193.0,0.0,192.0,0.0,0.0,0.0,178.0,192.0,0.0,178.0,1744418622.0048983,0.0,2025-04-11 20:43:42.004,LEFT,12
254.0,2749.8233616141515,-14788.092945586795,-29945.235543875166,-23691.820942380542,13664.537807051875,6061.301357901259,30486.70655330498,43935.795895552146,0.0,0.0,0.0,193.0,0.0,192.0,0.0,0.0,0.0,179.0,192.0,0.0,179.0,1744418622.0049329,0.0,2025-04-11 20:43:42.004,LEFT,12
255.0,2747.811704613174,-14781.16390480565,-29976.08095122349,-23675.235947994704,13546.989982961415,6092.817317583242,30369.33754317016,43878.955409402304,0.0,0.0,0.0,193.0,0.0,192.0,0.0,0.0,0.0,178.0,192.0,0.0,178.0,1744418622.0049672,0.0,2025-04-11 20:43:42.004,LEFT,12
0.0,2743.743687122308,-14766.992898820985,-29991.83893106448,-23660.01441002064,13476.649043160563,6307.215250398547,30122.171952983375,44010.584832499604,0.0,0.0,0.0,193.0,0.0,193.0,0.0,0.0,0.0,178.0,193.0,0.0,178.0,1744418622.0050025,0.0,2025-04-11 20:43:42.005,LEFT,12
1.0,2743.9448528224057,-14774.033698324407,-29954.623276546394,-23672.374924704425,13626.472786244487,6269.9772441360055,30137.72876712427,44051.644987064006,0.0,0.0,0.0,193.0,0.0,193.0,0.0,0.0,0.0,178.0,193.0,0.0,178.0,1744418622.0050392,0.0,2025-04-11 20:43:42.005,LEFT,12
2.0,2737.8204748416515,-14798.68767245861,-29955.472642835695,-23711.222256567748,13712.66111286415,6079.026291254318,30470.41213159706,43976.69958790536,0.0,0.0,0.0,193.0,0.0,192.0,0.0,0.0,0.0,178.0,192.0,0.0,178.0,1744418622.005076,0.0,2025-04-11 20:43:42.005,LEFT,12
3.0,2745.196550511903,-14793.479716000524,-29979.679582080793,-23690.703355157777,13599.31541673129,6038.4131715790245,30397.791313861766,43880.296514069625,0.0,0.0,0.0,193.0,0.0,192.0,0.0,0.0,0.0,178.0,192.0,0.0,178.0,1744418622.0051143,0.0,2025-04-11 20:43:42.005,LEFT,12
4.0,2748.392849969012,-14769.7868668779,-29994.945823543767,-23657.153386730362,13504.901648152072,6277.465078528533,30146.82592711758,43990.71413167884,0.0,0.0,0.0,193.0,0.0,192.0,0.0,0.0,0.0,178.0,192.0,0.0,178.0,1744418622.0051532,0.0,2025-04-11 20:43:42.005,LEFT,12
5.0,2760.9098268639837,-14765.271814497926,-29955.316180624508,-23658.53919488659,13588.251303225912,6308.53400332141,30082.296440875107,44049.47686785184,0.0,0.0,0.0,193.0,0.0,192.0,0.0,0.0,0.0,178.0,192.0,0.0,178.0,1744418622.0051944,0.0,2025-04-11 20:43:42.005,LEFT,12
6.0,2749.3986784695007,-14792.205666566571,-29937.524192038083,-23698.34765176149,13696.053766733858,6128.133073822627,30428.279093298806,43994.67039044743,0.0,0.0,0.0,193.0,0.0,193.0,0.0,0.0,0.0,179.0,193.0,0.0,179.0,1744418622.0056753,0.0,2025-04-11 20:43:42.005,LEFT,12
7.0,2752.5949779266093,-14778.97343384903,-29959.9206399823,-23700.314605273557,13592.02874803886,6010.451139265435,30413.459886724937,43864.560885973086,0.0,0.0,0.0,193.0,0.0,193.0,0.0,0.0,0.0,179.0,193.0,0.0,179.0,1744418622.0057192,0.0,2025-04-11 20:43:42.005,LEFT,12
8.0,2747.074097046149,-14767.864616854742,-29987.569747873516,-23680.041573052597,13487.444935732477,6221.630420879176,30184.39920954695,43957.49943941825,0.0,0.0,0.0,193.0,0.0,193.0,0.0,0.0,0.0,179.0,193.0,0.0,179.0,1744418622.0057569,0.0,2025-04-11 20:43:42.005,LEFT,12
9.0,2773.829135159151,-14737.890927540175,-29939.53584903906,-23656.460482652248,13541.983192203426,6304.041302685893,30047.02538812463,44046.5487893282,0.0,0.0,0.0,193.0,0.0,193.0,0.0,0.0,0.0,179.0,193.0,0.0,179.0,1744418622.0058117,0.0,2025-04-11 20:43:42.005,LEFT,12
10.0,2750.024527314249,-14782.907340873164,-29924.515476765097,-23693.63143368142,13689.571760841818,6166.98040568595,30376.624211862592,44024.10763789507,0.0,0.0,0.0,193.0,0.0,192.0,0.0,0.0,0.0,178.0,192.0,0.0,178.0,1744418622.0059223,0.0,2025-04-11 20:43:42.005,LEFT,12
11.0,2741.35205046559,-14792.943274133597,-29977.31029716853,-23701.745116918697,13588.161896248092,6000.28109553827,30452.35192207717,43885.43741529434,0.0,0.0,0.0,193.0,0.0,192.0,0.0,0.0,0.0,178.0,192.0,0.0,178.0,1744418622.0059664,0.0,2025-04-11 20:43:42.005,LEFT,12
12.0,2742.871969088551,-14766.478808698514,-30000.243186979675,-23661.422569921324,13495.245694547379,6213.740255086453,30238.825707295622,43946.50238114624,0.0,0.0,0.0,193.0,0.0,193.0,0.0,0.0,0.0,179.0,193.0,0.0,179.0,1744418622.0060067,0.0,2025-04-11 20:43:42.006,LEFT,12
13.0,2756.26066401728,-14755.593509148779,-29961.79818651655,-23647.475081381213,13539.211575890968,6338.5970996137985,30054.446167283797,44049.320405640654,0.0,0.0,0.0,193.0,0.0,193.0,0.0,0.0,0.0,179.0,193.0,0.0,179.0,1744418622.006043,0.0,2025-04-11 20:43:42.006,LEFT,12
14.0,2748.124629035548,-14786.26010254146,-29921.855619174916,-23677.292308484593,13694.310330666343,6220.982220289972,30327.8080019722,44053.81310627617,0.0,0.0,0.0,193.0,0.0,193.0,0.0,0.0,0.0,179.0,193.0,0.0,179.0,1744418622.4798052,0.0,2025-04-11 20:43:42.479,LEFT,12
15.0,2740.2121114983693,-14788.942311876097,-29958.490128337162,-23713.815058924563,13628.17151882309,6021.939935915463,30488.80761728378,43925.89407275845,0.0,0.0,0.0,193.0,0.0,192.0,0.0,0.0,0.0,178.0,192.0,0.0,178.0,1744418622.47994,0.0,2025-04-11 20:43:42.479,LEFT,12
16.0,2741.35205046559,-14764.467151697536,-29991.771875831113,-23678.745171874187,13518.267991336346,6156.698603236509,30293.006335855287,43927.30223265913,0.0,0.0,0.0,193.0,0.0,192.0,0.0,0.0,0.0,178.0,192.0,0.0,178.0,1744418622.4799793,0.0,2025-04-11 20:43:42.479,LEFT,12
17.0,2747.834056357629,-14757.001669049463,-29984.59696586096,-23658.338029186492,13505.996883630381,6321.475663361033,30057.351894062984,44036.401097345486,0.0,0.0,0.0,193.0,0.0,193.0,0.0,0.0,0.0,179.0,193.0,0.0,179.0,1744418622.4800189,0.0,2025-04-11 20:43:42.480,LEFT,12
18.0,2758.227617529347,-14767.328174987815,-29931.511572779607,-23675.30300322807,13658.79340872686,6233.5886041627655,30230.108526958054,44046.21351316137,0.0,0.0,0.0,193.0,0.0,193.0,0.0,0.0,0.0,179.0,193.0,0.0,179.0,1744418622.4800556,0.0,2025-04-11 20:43:42.480,LEFT,12
19.0,2752.617329671065,-14782.527361217424,-29954.15388991283,-23699.711108173266,13654.904205191639,6031.52883428679,30470.635649041615,43933.22544493979,0.0,0.0,0.0,193.0,0.0,192.0,0.0,0.0,0.0,178.0,192.0,0.0,178.0,1744418622.480091,0.0,2025-04-11 20:43:42.480,LEFT,12
20.0,2747.6328906575313,-14769.049259310874,-29988.754390329646,-23666.407008934857,13556.310660399278,6117.4936434619,30315.805115199702,43906.224537637776,0.0,0.0,0.0,193.0,0.0,192.0,0.0,0.0,0.0,178.0,192.0,0.0,178.0,1744418622.4801235,0.0,2025-04-11 20:43:42.480,LEFT,12
21.0,2752.282053504235,-14749.670296868122,-29982.428846648796,-23649.64320059338,13518.156232614068,6323.017933728449,30061.33050457603,44028.10860015257,0.0,0.0,0.0,193.0,0.0,192.0,0.0,0.0,0.0,178.0,192.0,0.0,178.0,1744418622.480373,0.0,2025-04-11 20:43:42.480,LEFT,12
22.0,2745.218902256358,-14770.569177933834,-29938.48531704966,-23663.791854833587,13649.852710944739,6264.568121977821,30157.48770922276,44055.981225488336,0.0,0.0,0.0,193.0,0.0,193.0,0.0,0.0,0.0,178.0,193.0,0.0,178.0,1744418622.480406,0.0,2025-04-11 20:43:42.480,LEFT,12
23.0,2714.9769920083277,-14814.892687188709,-29972.549375599552,-23719.69356771631,13651.171463867602,6054.774648520309,30482.012686969363,43974.08443380409,0.0,0.0,0.0,193.0,0.0,193.0,0.0,0.0,0.0,179.0,193.0,0.0,179.0,1744418622.4804375,0.0,2025-04-11 20:43:42.480,LEFT,12
24.0,2722.084846745115,-14796.564256735357,-29997.73979160068,-23689.228140023726,13529.510918797365,6062.709517801943,30358.832223276167,43898.13320614496,0.0,0.0,0.0,193.0,0.0,192.0,0.0,0.0,0.0,178.0,192.0,0.0,178.0,1744418622.4804692,0.0,2025-04-11 20:43:42.480,LEFT,12
25.0,2742.9166725774617,-14747.77039858942,-29986.85449205095,-23650.514918627134,13481.298206007268,6295.681750259609,30100.28959516163,44012.2388615893,0.0,0.0,0.0,193.0,0.0,192.0,0.0,0.0,0.0,178.0,192.0,0.0,178.0,1744418622.4805205,0.0,2025-04-11 20:43:42.480,LEFT,12
26.0,2753.310233749179,-14738.226203707005,-29935.44547980374,-23657.667476852832,13602.77993712186,6270.960720892039,30102.077734718056,44058.350510400596,0.0,0.0,0.0,193.0,0.0,193.0,0.0,0.0,0.0,178.0,193.0,0.0,178.0,1744418622.4805532,0.0,2025-04-11 20:43:42.480,LEFT,12
27.0,2733.2607189727687,-14790.953968877075,-29938.082985649467,-23700.87339888494,13695.673787078118,6064.6541195695545,30444.41705279554,43987.78605315519,0.0,0.0,0.0,193.0,0.0,193.0,0.0,0.0,0.0,179.0,193.0,0.0,179.0,1744418622.4805849,0.0,2025-04-11 20:43:42.480,LEFT,12
28.0,2732.0090212832715,-14789.16582932065,-29974.73984655617,-23689.5410644461,13570.146390217113,6008.372427031091,30394.25973823783,43884.02925539366,0.0,0.0,0.0,193.0,0.0,193.0,0.0,0.0,0.0,179.0,193.0,0.0,179.0,1744418622.4806159,0.0,2025-04-11 20:43:42.480,LEFT,12
29.0,2737.373439952545,-14768.177541277117,-29987.860320551437,-23657.287497197092,13471.038755302281,6263.271720799413,30157.107729567022,43999.543070738684,0.0,0.0,0.0,193.0,0.0,193.0,0.0,0.0,0.0,178.0,193.0,0.0,178.0,1744418622.480647,0.0,2025-04-11 20:43:42.480,LEFT,12
30.0,2745.0847917896263,-14761.583776662801,-29944.1179566524,-23647.676247081312,13545.291250382812,6314.479567346521,30067.879565701434,44065.7042343264,0.0,0.0,0.0,193.0,0.0,192.0,0.0,0.0,0.0,178.0,192.0,0.0,178.0,1744418622.4806783,0.0,2025-04-11 20:43:42.480,LEFT,12
31.0,2723.5377101347103,-14798.106527102773,-29939.0664624055,-23690.815113880053,13675.75838276844,6147.98142289894,30415.248026281362,44026.65573676297,0.0,0.0,0.0,193.0,0.0,192.0,0.0,0.0,0.0,178.0,192.0,0.0,178.0,1744418622.4807093,0.0,2025-04-11 20:43:42.480,LEFT,12
32.0,2722.1966054673917,-14803.716814961055,-29976.50563436814,-23699.17466630634,13574.63909085263,6001.8457176501415,30425.88745664209,43894.44516830983,0.0,0.0,0.0,193.0,0.0,193.0,0.0,0.0,0.0,179.0,193.0,0.0,179.0,1744418622.4807405,0.0,2025-04-11 20:43:42.480,LEFT,12
33.0,2731.450227671889,-14778.839323382297,-29998.276233467608,-23665.892918812388,13453.202063226947,6196.171783944582,30183.795712446656,43960.60633189754,0.0,0.0,0.0,193.0,0.0,193.0,0.0,0.0,0.0,178.0,193.0,0.0,178.0,1744418622.4807725,0.0,2025-04-11 20:43:42.480,LEFT,12
34.0,2752.3044052486903,-14758.007497549952,-29946.17431714229,-23651.408988405346,13521.687808238008,6294.67592175912,30018.482210455208,44044.850056749594,0.0,0.0,0.0,193.0,0.0,193.0,0.0,0.0,0.0,179.0,193.0,0.0,179.0,1744418622.480803,0.0,2025-04-11 20:43:42.480,LEFT,12
35.0,2729.7291433488303,-14796.184277079616,-29927.152982610824,-23683.371982976438,13691.963397498537,6163.471181806467,30343.789499257746,44046.05705095018,0.0,0.0,0.0,193.0,0.0,192.0,0.0,0.0,0.0,178.0,192.0,0.0,178.0,1744418622.480834,0.0,2025-04-11 20:43:42.480,LEFT,12
36.0,2735.8982248184952,-14791.177486321627,-29945.101433408432,-23683.617852165444,13638.878004417182,5986.311255253703,30428.12263108762,43900.79306373514,0.0,0.0,0.0,193.0,0.0,192.0,0.0,0.0,0.0,178.0,192.0,0.0,178.0,1744418622.480867,0.0,2025-04-11 20:43:42.480,LEFT,12
37.0,2730.7573235937743,-14773.609015179756,-29979.65723033634,-23648.503261626156,13522.313657082756,6198.339903156746,30239.160983462454,43964.29436973266,0.0,0.0,0.0,193.0,0.0,193.0,0.0,0.0,0.0,179.0,193.0,0.0,179.0,1744418622.4810095,0.0,2025-04-11 20:43:42.481,LEFT,12
38.0,2753.265530260269,-14742.674200853611,-29957.08196843648,-23629.39252011687,13498.531400982309,6326.191881441103,30018.70572789976,44058.61873133406,0.0,0.0,0.0,193.0,0.0,192.0,0.0,0.0,0.0,179.0,192.0,0.0,179.0,1744418622.481042,0.0,2025-04-11 20:43:42.481,LEFT,12
39.0,2735.697059118397,-14773.96664309104,-29930.863372190404,-23671.279689226114,13652.713734235018,6204.285467181858,30255.23188772582,44043.35248987109,0.0,0.0,0.0,193.0,0.0,192.0,0.0,0.0,0.0,178.0,192.0,0.0,178.0,1744418622.481073,0.0,2025-04-11 20:43:42.481,LEFT,12
40.0,2727.53867239221,-14788.003538608973,-29959.294791137552,-23709.300006544592,13632.08307410277,6000.594019960645,30437.935046903498,43913.4665028413,0.0,0.0,0.0,193.0,0.0,192.0,0.0,0.0,0.0,178.0,192.0,0.0,178.0,1744418622.481104,0.0,2025-04-11 20:43:42.481,LEFT,12
41.0,2742.4249341994446,-14751.100808513262,-29975.052770978546,-23671.05617178156,13544.039552693315,6131.239966301914,30262.786777351714,43923.10010470154,0.0,0.0,0.0,193.0,0.0,192.0,0.0,0.0,0.0,178.0,192.0,0.0,178.0,1744418622.48115,0.0,2025-04-11 20:43:42.481,LEFT,12
42.0,2757.7805826402405,-14724.368122144715,-29965.039189462568,-23641.77538654511,13511.473061021932,6313.071407445837,30026.193562292287,44042.57017881515,0.0,0.0,0.0,193.0,0.0,192.0,0.0,0.0,0.0,179.0,192.0,0.0,179.0,1744418622.4811811,0.0,2025-04-11 20:43:42.481,LEFT,12
43.0,2746.5600069236766,-14749.759703845944,-29937.63595076036,-23678.07461954053,13640.621440484696,6251.537054960377,30204.180503389896,44075.49429839782,0.0,0.0,0.0,193.0,0.0,193.0,0.0,0.0,0.0,179.0,193.0,0.0,179.0,1744418622.481212,0.0,2025-04-11 20:43:42.481,LEFT,12
44.0,2737.261681230269,-14777.20764603706,-29963.58632607297,-23719.91708516086,13633.31242004781,6037.697915756455,30465.852375728176,43957.58884639607,0.0,0.0,0.0,193.0,0.0,192.0,0.0,0.0,0.0,178.0,192.0,0.0,178.0,1744418622.481243,0.0,2025-04-11 20:43:42.481,LEFT,12
45.0,2740.9497190653947,-14769.7868668779,-29984.55226237205,-23677.560529418057,13538.228099134934,6115.750207394387,30322.33182458065,43914.539386575154,0.0,0.0,0.0,193.0,0.0,192.0,0.0,1.0,0.0,178.0,192.0,1.0,178.0,1744418622.4812737,0.0,2025-04-11 20:43:42.481,LEFT,12
46.0,2739.1839312534253,-14752.285450969393,-29993.492960154173,-23659.34385768698,13479.845342617673,6336.96542226856,30070.606478524984,44033.83064673313,0.0,0.0,0.0,193.0,0.0,193.0,0.0,2.0,0.0,178.0,193.0,2.0,178.0,1744418622.4813051,0.0,2025-04-11 20:43:42.481,LEFT,12
47.0,2749.2645680027686,-14765.472980198025,-29937.837116460458,-23662.182529232807,13612.681759915562,6294.430052570111,30132.1631827549,44064.2513709368,0.0,0.0,0.0,193.0,0.0,192.0,0.0,3.0,0.0,178.0,192.0,3.0,178.0,1744418622.4813366,0.0,2025-04-11 20:43:42.481,LEFT,12
48.0,2736.8817015745285,-14802.88980041621,-29954.667980035305,-23704.06969834205,13656.312365092323,6086.670587858032,30448.46271854195,43971.80455586965,0.0,0.0,0.0,193.0,0.0,193.0,0.0,4.0,0.0,179.0,193.0,4.0,179.0,1744418622.481368,0.0,2025-04-11 20:43:42.481,LEFT,12
49.0,2737.7534196082856,-14783.35437576227,-29986.69802983976,-23679.68394514131,13521.15136637108,6076.232323197404,30355.993551730342,43887.694941484326,0.0,0.0,0.0,193.0,0.0,193.0,0.0,6.0,0.0,179.0,193.0,6.0,179.0,1744418622.4813993,0.0,2025-04-11 20:43:42.481,LEFT,12
50.0,2749.666899402964,-14745.758741588443,-29985.692201339272,-23646.066921480528,13457.113618506626,6303.370750352234,30105.76577255318,44000.28067830571,0.0,0.0,0.0,193.0,0.0,193.0,0.0,6.0,0.0,179.0,193.0,6.0,179.0,1744418622.4814308,0.0,2025-04-11 20:43:42.481,LEFT,12
51.0,2743.319003977657,-14755.593509148779,-29945.392006086353,-23659.72383734272,13583.713899101485,6297.224020627024,30078.13901640642,44051.95791148638,0.0,0.0,0.0,193.0,0.0,192.0,0.0,7.0,0.0,178.0,192.0,7.0,178.0,1744418622.481462,0.0,2025-04-11 20:43:42.481,LEFT,12
52.0,2727.203396225381,-14788.78584966491,-29945.101433408432,-23708.852971655488,13673.120876922712,6100.483965931412,30422.60175020716,43987.383721754995,0.0,0.0,0.0,193.0,0.0,192.0,0.0,8.0,0.0,178.0,192.0,8.0,178.0,1744418622.4815571,0.0,2025-04-11 20:43:42.481,LEFT,12
53.0,2732.5231114057437,-14779.286358271404,-29977.913794268825,-23698.191189550304,13562.569148846764,6007.053674108229,30381.96627878741,43864.02444410616,0.0,0.0,0.0,193.0,0.0,192.0,0.0,9.0,0.0,178.0,192.0,9.0,178.0,1744418622.4815903,0.0,2025-04-11 20:43:42.481,LEFT,12
54.0,2736.747591107797,-14755.034715537397,-29993.1800357318,-23667.703410113267,13471.843418102673,6247.37963049169,30142.892020093444,43959.913427819425,0.0,0.0,0.0,193.0,0.0,192.0,0.0,10.0,0.0,178.0,192.0,10.0,178.0,1744418622.4816222,0.0,2025-04-11 20:43:42.481,LEFT,12
55.0,2753.7796203827406,-14739.723770585511,-29940.36286358391,-23656.81811056353,13563.507922113888,6305.002427697472,30036.005978108165,44029.65087051998,0.0,0.0,0.0,193.0,0.0,193.0,0.0,10.0,0.0,179.0,193.0,10.0,179.0,1744418622.4816544,0.0,2025-04-11 20:43:42.481,LEFT,12
56.0,2723.2471374567913,-14783.801410651377,-29936.160735626312,-23707.131887332427,13689.61646433073,6134.749190181397,30382.54742414325,43997.2855445487,0.0,0.0,0.0,193.0,0.0,193.0,0.0,11.0,0.0,179.0,193.0,11.0,179.0,1744418622.4817014,0.0,2025-04-11 20:43:42.481,LEFT,12
57.0,2725.5940706245983,-14780.135724560705,-29976.192709945764,-23715.60319848099,13581.255207211401,5983.405528474514,30414.868046625623,43857.78830740313,0.0,0.0,0.0,193.0,0.0,192.0,0.0,11.0,0.0,178.0,192.0,11.0,178.0,1744418622.4817352,0.0,2025-04-11 20:43:42.481,LEFT,12
58.0,2737.999288797294,-14749.82675907931,-29996.957480544745,-23676.130017772917,13470.725830879908,6204.687798582054,30189.36129681603,43928.19630243735,0.0,0.0,0.0,193.0,0.0,192.0,0.0,12.0,0.0,178.0,192.0,12.0,178.0,1744418622.4817667,0.0,2025-04-11 20:43:42.481,LEFT,12
59.0,2768.285902534235,-14720.948305243053,-29940.988712428658,-23636.522726598112,13526.113453640159,6320.961573238561,29995.616375877427,44015.81514070215,0.0,0.0,0.0,193.0,0.0,192.0,0.0,12.0,0.0,179.0,192.0,12.0,179.0,1744418622.4817984,0.0,2025-04-11 20:43:42.481,LEFT,12
60.0,2739.608614398076,-14771.798523878877,-29918.748726695627,-23677.62758465142,13682.799182271861,6199.613952590698,30297.297870790706,44014.585794757106,0.0,0.0,0.0,193.0,0.0,193.0,0.0,12.0,0.0,179.0,193.0,12.0,179.0,1744418622.48183,0.0,2025-04-11 20:43:42.481,LEFT,12
61.0,2728.6786113594308,-14796.206628824071,-29962.289924894565,-23702.952111119284,13593.347500961721,6002.292752539248,30420.657148439546,43877.703711712806,0.0,0.0,0.0,193.0,0.0,193.0,0.0,13.0,0.0,179.0,193.0,13.0,179.0,1744418622.4818618,0.0,2025-04-11 20:43:42.481,LEFT,12
62.0,2727.0469340141935,-14782.21443679505,-29988.016782762625,-23664.26124146715,13468.825932601207,6177.731594768953,30227.292207156686,43923.52478784619,0.0,0.0,0.0,193.0,0.0,192.0,0.0,13.0,0.0,179.0,192.0,13.0,179.0,1744418622.4818933,0.0,2025-04-11 20:43:42.481,LEFT,12
63.0,2750.8291901146404,-14747.412770678136,-29954.712683524216,-23636.880354509398,13476.224360015913,6332.4950733774995,30002.83598933649,44035.395268845,0.0,0.0,0.0,193.0,0.0,192.0,0.0,13.0,0.0,178.0,192.0,13.0,178.0,1744418622.4819248,0.0,2025-04-11 20:43:42.481,LEFT,12
64.0,2729.8856055600177,-14779.800448393877,-29925.029566887566,-23684.869549854942,13637.31338230531,6230.079380283282,30237.730471817315,44055.15421094349,0.0,0.0,0.0,193.0,0.0,193.0,0.0,14.0,0.0,179.0,193.0,14.0,179.0,1744418622.4819565,0.0,2025-04-11 20:43:42.481,LEFT,12
65.0,2723.9847450238162,-14788.584683964811,-29954.39975910184,-23716.854896170487,13610.156012792113,6007.835985164164,30441.64543648308,43921.40137212293,0.0,0.0,0.0,193.0,0.0,193.0,0.0,14.0,0.0,179.0,193.0,14.0,179.0,1744418622.4819884,0.0,2025-04-11 20:43:42.481,LEFT,12
66.0,2732.9924980393052,-14755.280584726404,-29979.63487859188,-23676.711163128755,13509.416700532043,6131.843463402208,30277.114245547564,43912.438322596354,0.0,0.0,0.0,193.0,0.0,193.0,0.0,14.0,0.0,178.0,193.0,14.0,178.0,1744418622.48202,0.0,2025-04-11 20:43:42.482,LEFT,12
67.0,2746.3364894791234,-14735.63340135019,-29972.482320366184,-23646.603363347454,13460.846359830663,6332.450369888588,30035.89421938589,44027.88508270802,0.0,0.0,0.0,193.0,0.0,192.0,0.0,14.0,0.0,178.0,192.0,14.0,178.0,1744418622.482128,0.0,2025-04-11 20:43:42.482,LEFT,12
68.0,2734.6241753845425,-14770.21155002255,-29937.859468204915,-23673.425456693825,13574.125000730159,6262.7576306769415,30171.993991374256,44048.73926028481,0.0,0.0,0.0,193.0,0.0,192.0,0.0,14.0,0.0,178.0,192.0,14.0,178.0,1744418622.4821606,0.0,2025-04-11 20:43:42.482,LEFT,12
69.0,2718.3074019321684,-14799.291169558905,-29949.325913110486,-23716.989006637217,13611.720634903984,6038.010840178828,30448.328608075215,43940.93679677687,0.0,0.0,0.0,193.0,0.0,193.0,0.0,14.0,0.0,179.0,193.0,14.0,179.0,1744418622.4821925,0.0,2025-04-11 20:43:42.482,LEFT,12
70.0,2715.3122681751574,-14776.715907659043,-29979.858396036434,-23693.65378542588,13537.982229945927,6064.967043991929,30310.664213974982,43879.5589065026,0.0,0.0,0.0,193.0,0.0,193.0,0.0,15.0,0.0,179.0,193.0,15.0,179.0,1744418622.482224,0.0,2025-04-11 20:43:42.482,LEFT,12
71.0,2725.8846433025174,-14754.96766030403,-29972.482320366184,-23667.457540924257,13490.373014256122,6289.356206578756,30057.061321385067,43999.49836724978,0.0,0.0,0.0,193.0,0.0,192.0,0.0,15.0,0.0,178.0,192.0,15.0,178.0,1744418622.4822707,0.0,2025-04-11 20:43:42.482,LEFT,12
72.0,2745.777695867741,-14751.547843402368,-29919.754555196116,-23677.40406720687,13619.633152441163,6262.243540554469,30082.67642053085,44033.83064673313,0.0,0.0,0.0,193.0,0.0,192.0,0.0,15.0,0.0,178.0,192.0,15.0,178.0,1744418622.482303,0.0,2025-04-11 20:43:42.482,LEFT,12
73.0,2722.3083641896683,-14788.048242097884,-29939.669959505794,-23735.429195812845,13679.446420603565,6055.6687182985215,30408.475447711404,43954.79487833916,0.0,0.0,0.0,193.0,0.0,192.0,0.0,15.0,0.0,178.0,192.0,15.0,178.0,1744418622.4823349,0.0,2025-04-11 20:43:42.482,LEFT,12
74.0,2719.447340899389,-14779.845151882786,-29971.700009310247,-23714.530314747135,13539.3456863577,6015.8155579347085,30319.828429201658,43859.57644695955,0.0,0.0,0.0,193.0,0.0,193.0,0.0,15.0,0.0,179.0,193.0,15.0,179.0,1744418622.4823663,0.0,2025-04-11 20:43:42.482,LEFT,12
75.0,2730.0867712601153,-14747.949212545063,-29977.667925079815,-23672.777256104622,13461.963947053428,6260.455400998045,30074.56273729357,43981.25934377425,0.0,0.0,0.0,193.0,0.0,193.0,0.0,15.0,0.0,179.0,193.0,15.0,179.0,1744418622.4823983,0.0,2025-04-11 20:43:42.482,LEFT,12
76.0,2748.0128703132714,-14752.82189283632,-29928.24821808913,-23665.043552523086,13563.507922113888,6285.355244321257,30015.241207509185,44035.77524850074,0.0,0.0,0.0,193.0,0.0,192.0,0.0,15.0,0.0,178.0,192.0,15.0,178.0,1744418622.48243,0.0,2025-04-11 20:43:42.482,LEFT,12
77.0,2726.286974702713,-14801.92867540463,-29934.663168747804,-23711.535180990122,13664.806027985338,6119.013562084861,30373.696133338944,43996.480881748306,0.0,0.0,0.0,193.0,0.0,192.0,0.0,15.0,0.0,178.0,192.0,15.0,178.0,1744418622.4824617,0.0,2025-04-11 20:43:42.482,LEFT,12
78.0,2727.8515968145844,-14790.283416543416,-29965.575631329495,-23702.192151807805,13548.375791117644,6016.933145157474,30349.265676649295,43870.282932553644,0.0,0.0,0.0,193.0,0.0,193.0,0.0,15.0,0.0,179.0,193.0,15.0,179.0,1744418622.482494,0.0,2025-04-11 20:43:42.482,LEFT,12
79.0,2734.7582858512746,-14759.30389872836,-29976.237413434676,-23670.184453747806,13445.960098023426,6248.51956945891,30114.68411859085,43967.043634300666,0.0,0.0,0.0,193.0,0.0,193.0,0.0,15.0,0.0,179.0,193.0,15.0,179.0,1744418622.4825256,0.0,2025-04-11 20:43:42.482,LEFT,12
80.0,2758.5628936961766,-14730.29133442537,-29928.851715189427,-23656.415779163337,13517.91036342506,6314.68073304662,29997.449218922764,44057.90347551149,0.0,0.0,0.0,193.0,0.0,193.0,0.0,16.0,0.0,179.0,193.0,16.0,179.0,1744418622.4825573,0.0,2025-04-11 20:43:42.482,LEFT,12
81.0,2729.1479979929923,-14774.816009380344,-29930.93042742377,-23715.78201243663,13665.856559974738,6149.344879310713,30344.035368446755,44038.68097527993,0.0,0.0,0.0,193.0,0.0,193.0,0.0,16.0,0.0,178.0,193.0,16.0,178.0,1744418622.482589,0.0,2025-04-11 20:43:42.482,LEFT,12
82.0,2733.9312713064282,-14776.715907659043,-29953.617448045905,-23713.524486246646,13588.765393348383,5976.834115604654,30391.845749836655,43887.38201706195,0.0,0.0,0.0,193.0,0.0,192.0,0.0,16.0,0.0,178.0,192.0,16.0,178.0,1744418622.4826343,0.0,2025-04-11 20:43:42.482,LEFT,12
83.0,2728.611556126065,-14767.417581965636,-29978.070256480012,-23678.07461954053,13488.562522955242,6193.8472025212295,30185.941479914367,43951.91150330442,0.0,0.0,0.0,193.0,0.0,193.0,0.0,16.0,0.0,179.0,193.0,16.0,179.0,1744418622.4826665,0.0,2025-04-11 20:43:42.482,LEFT,12
84.0,2742.290823732713,-14757.649869638666,-29960.658247549327,-23671.30204097057,13475.263235004335,6316.982962725516,30001.1819602468,44059.33398715663,0.0,0.0,0.0,193.0,0.0,193.0,0.0,16.0,0.0,179.0,193.0,16.0,179.0,1744418622.4826982,0.0,2025-04-11 20:43:42.482,LEFT,12
85.0,2727.0916375031043,-14790.953968877075,-29930.416337301296,-23709.25530305568,13619.141414063146,6199.502193868422,30283.7974171397,44070.33104542864,0.0,0.0,0.0,193.0,0.0,193.0,0.0,16.0,0.0,179.0,193.0,16.0,179.0,1744418622.4827297,0.0,2025-04-11 20:43:42.482,LEFT,12
86.0,2716.0275239977273,-14800.386405037214,-29961.328799882987,-23738.6031435255,13582.909236301093,5991.250990778326,30428.189686320984,43932.33137516158,0.0,0.0,0.0,193.0,0.0,193.0,0.0,16.0,0.0,179.0,193.0,16.0,179.0,1744418622.4827733,0.0,2025-04-11 20:43:42.482,LEFT,12
87.0,2715.7145995753526,-14782.795582150888,-29988.307355440542,-23697.028898838627,13482.751069396863,6149.747210710909,30236.61288459455,43949.31870094761,0.0,0.0,0.0,193.0,0.0,192.0,0.0,16.0,0.0,178.0,192.0,16.0,178.0,1744418622.4828053,0.0,2025-04-11 20:43:42.482,LEFT,12
88.0,2733.5289399062326,-14758.879215583709,-29961.082930693978,-23674.096009027482,13502.174735328525,6325.878957018728,30013.073088297024,44061.0997749686,0.0,0.0,0.0,193.0,0.0,192.0,0.0,16.0,0.0,178.0,192.0,16.0,178.0,1744418622.4828367,0.0,2025-04-11 20:43:42.482,LEFT,12
89.0,2715.6028408530765,-14786.103640330273,-29934.84198270345,-23703.399146008393,13643.571870752798,6234.862653596718,30209.924901714912,44076.92481004296,0.0,0.0,0.0,193.0,0.0,193.0,0.0,16.0,0.0,179.0,193.0,16.0,179.0,1744418622.4828684,0.0,2025-04-11 20:43:42.482,LEFT,12
90.0,2714.7087710748638,-14793.390309022703,-29956.79139575856,-23730.355349821493,13616.07922507277,6017.983677146874,30432.972959634422,43951.799744582146,0.0,0.0,0.0,193.0,0.0,193.0,0.0,16.0,0.0,179.0,193.0,16.0,179.0,1744418622.4829,0.0,2025-04-11 20:43:42.482,LEFT,12
91.0,2727.2704514587467,-14766.612919165245,-29972.772893044104,-23691.418610980345,13509.327293554223,6116.107835305672,30265.111358775066,43921.35666863402,0.0,0.0,0.0,193.0,0.0,193.0,0.0,16.0,0.0,179.0,193.0,16.0,179.0,1744418622.4829319,0.0,2025-04-11 20:43:42.482,LEFT,12
92.0,2748.9069400914836,-14743.702381098556,-29959.94299172676,-23654.717046584734,13463.260348231835,6310.992695211494,30020.650329667373,44043.1960276599,0.0,0.0,0.0,193.0,0.0,192.0,0.0,16.0,0.0,178.0,192.0,16.0,178.0,1744418622.4829633,0.0,2025-04-11 20:43:42.482,LEFT,12
93.0,2743.251948744291,-14763.081343541306,-29911.752630681116,-23662.87543331092,13610.044254069837,6265.216322567025,30132.38670019945,44071.15805997349,0.0,0.0,0.0,193.0,0.0,192.0,0.0,16.0,0.0,178.0,192.0,16.0,178.0,1744418622.4829948,0.0,2025-04-11 20:43:42.482,LEFT,12
94.0,2697.0508929551715,-14809.684730730622,-29952.768081756603,-23737.64201851392,13656.647641259151,6058.350927633158,30449.64736099808,43976.58782918308,0.0,0.0,0.0,193.0,0.0,193.0,0.0,16.0,0.0,179.0,193.0,16.0,179.0,1744418622.4830265,0.0,2025-04-11 20:43:42.483,LEFT,12
95.0,2718.8885472880065,-14779.129896060216,-29971.901175010345,-23708.517695488656,13554.343706887212,6070.800849294764,30326.399842071518,43906.783331249164,0.0,0.0,0.0,193.0,0.0,193.0,0.0,16.0,0.0,179.0,193.0,16.0,179.0,1744418622.4830587,0.0,2025-04-11 20:43:42.483,LEFT,12
96.0,2739.832131842629,-14749.62559337921,-29963.54162258406,-23665.06590426754,13483.958063597449,6306.187070153603,30070.382961080428,44026.27575710723,0.0,0.0,0.0,193.0,0.0,192.0,0.0,16.0,0.0,179.0,192.0,16.0,179.0,1744418622.4830909,0.0,2025-04-11 20:43:42.483,LEFT,12
97.0,2745.934158078928,-14756.308764971349,-29918.905188906814,-23675.68298288381,13581.83635256724,6285.668168743631,30080.262432129675,44067.29120818272,0.0,0.0,0.0,193.0,0.0,192.0,0.0,16.0,0.0,178.0,192.0,16.0,178.0,1744418622.4831357,0.0,2025-04-11 20:43:42.483,LEFT,12
98.0,2733.193663739403,-14790.417527010148,-29914.993633627135,-23715.02205312515,13662.012059928426,6083.273122700825,30419.36074726114,43993.46339624684,0.0,0.0,0.0,193.0,0.0,193.0,0.0,16.0,0.0,179.0,193.0,16.0,179.0,1744418622.483168,0.0,2025-04-11 20:43:42.483,LEFT,12
99.0,2739.385096953523,-14780.672166427634,-29938.462965305207,-23691.59742493599,13547.369962617155,6025.270345839303,30354.67479880748,43885.54917401662,0.0,0.0,0.0,193.0,0.0,193.0,0.0,16.0,0.0,179.0,193.0,16.0,179.0,1744418622.4831998,0.0,2025-04-11 20:43:42.483,LEFT,12
100.0,2750.1809895254364,-14753.179520747606,-29948.1189189099,-23661.690790854787,13446.541243379264,6249.212473537025,30108.515037121182,43991.98818111279,0.0,0.0,0.0,193.0,0.0,192.0,0.0,16.0,0.0,178.0,192.0,16.0,178.0,1744418622.4832315,0.0,2025-04-11 20:43:42.483,LEFT,12
101.0,2766.676576933453,-14742.830663064799,-29898.833322385948,-23644.368188901924,13544.44188409351,6280.080232629804,30024.42777448032,44053.99192023181,0.0,0.0,0.0,193.0,0.0,193.0,0.0,16.0,0.0,179.0,193.0,16.0,179.0,1744418622.483277,0.0,2025-04-11 20:43:42.483,LEFT,12
102.0,2730.846730571596,-14796.050166612884,-29901.761400909592,-23694.771372648644,13671.04216468837,6126.367286010657,30376.937136284967,44016.86567269155,0.0,0.0,0.0,193.0,0.0,192.0,0.0,17.0,0.0,178.0,192.0,17.0,178.0,1744418622.48331,0.0,2025-04-11 20:43:42.483,LEFT,12
103.0,2719.5590996216656,-14796.050166612884,-29939.625256016883,-23705.07552684254,13583.177457234557,5999.6105432046115,30381.7204095984,43889.4607292963,0.0,0.0,0.0,193.0,0.0,192.0,0.0,17.0,0.0,178.0,192.0,17.0,178.0,1744418622.483343,0.0,2025-04-11 20:43:42.483,LEFT,12
104.0,2732.2995939611906,-14766.389401720691,-29946.219020631197,-23665.7364566012,13502.107680095158,6230.392304705657,30145.30600849462,43967.78124186769,0.0,0.0,0.0,193.0,0.0,193.0,0.0,17.0,0.0,179.0,193.0,17.0,179.0,1744418622.4833755,0.0,2025-04-11 20:43:42.483,LEFT,12
105.0,2747.5658354241655,-14749.20091023456,-29907.30463353451,-23654.515880884635,13549.403971362588,6321.028628471927,30006.054640538056,44055.265969665765,0.0,0.0,0.0,193.0,0.0,192.0,0.0,16.0,0.0,179.0,192.0,16.0,179.0,1744418622.4834075,0.0,2025-04-11 20:43:42.483,LEFT,12
106.0,2717.6368495985093,-14794.26202705646,-29904.667127688783,-23709.07648910004,13680.720470037517,6177.128097668659,30320.67779549096,44035.551731056185,0.0,0.0,0.0,193.0,0.0,192.0,0.0,17.0,0.0,178.0,192.0,17.0,178.0,1744418622.4834392,0.0,2025-04-11 20:43:42.483,LEFT,12
107.0,2716.0498757421824,-14797.234809069016,-29945.459061319718,-23724.9015241744,13579.176494977057,6010.719360198898,30405.234444765385,43906.87273822698,0.0,0.0,0.0,193.0,0.0,192.0,0.0,17.0,0.0,179.0,192.0,17.0,179.0,1744418622.4834719,0.0,2025-04-11 20:43:42.483,LEFT,12
108.0,2727.1363409920145,-14758.856863839253,-29959.02657020409,-23682.25439575367,13485.05329907576,6203.838432292751,30197.07264865311,43963.84733484356,0.0,0.0,0.0,193.0,0.0,192.0,0.0,17.0,0.0,179.0,192.0,17.0,179.0,1744418622.4835043,0.0,2025-04-11 20:43:42.483,LEFT,12
109.0,2736.2782044742353,-14757.024020793919,-29930.97513091268,-23662.96484028874,13518.849136692184,6333.411494900167,29994.923471799313,44065.19014420392,0.0,0.0,0.0,193.0,0.0,193.0,0.0,17.0,0.0,179.0,193.0,17.0,179.0,1744418622.4835415,0.0,2025-04-11 20:43:42.483,LEFT,12
110.0,2719.514396132755,-14810.578800508834,-29910.29976729152,-23704.092050086507,13659.575719782797,6199.971580501983,30253.823727825133,44071.47098439586,0.0,0.0,0.0,193.0,0.0,193.0,0.0,17.0,0.0,179.0,193.0,17.0,179.0,1744418622.4835737,0.0,2025-04-11 20:43:42.483,LEFT,12
111.0,2721.2354804558136,-14816.569068022856,-29933.322064080487,-23722.956922406785,13607.943190091037,5999.208211804415,30419.807782150245,43931.660822827915,0.0,0.0,0.0,193.0,0.0,192.0,0.0,17.0,0.0,178.0,192.0,17.0,178.0,1744418622.4836068,0.0,2025-04-11 20:43:42.483,LEFT,12
112.0,2716.385151909012,-14793.993806122997,-29958.0207417036,-23694.54785520409,13498.889028893595,6149.389582799624,30249.979227778822,43940.199189209845,0.0,0.0,0.0,193.0,0.0,192.0,0.0,17.0,0.0,179.0,192.0,17.0,179.0,1744418622.4836564,0.0,2025-04-11 20:43:42.483,LEFT,12
113.0,2739.608614398076,-14760.265023739938,-29940.74284323965,-23671.234985737203,13479.912397851038,6315.239526658002,30009.161533017344,44042.63723404852,0.0,0.0,0.0,193.0,0.0,192.0,0.0,17.0,0.0,178.0,192.0,17.0,178.0,1744418622.4836888,0.0,2025-04-11 20:43:42.483,LEFT,12
114.0,2734.937099806917,-14781.454477483569,-29907.885778890348,-23693.07264007004,13629.356161279222,6242.350487989246,30169.60235471754,44049.186295173924,0.0,0.0,0.0,193.0,0.0,193.0,0.0,17.0,0.0,179.0,193.0,17.0,179.0,1744418622.4837208,0.0,2025-04-11 20:43:42.483,LEFT,12
115.0,2720.833149055618,-14807.963646407563,-29944.87791596388,-23730.4000533104,13626.584544966763,6019.995334147851,30419.07017458322,43935.97470950779,0.0,0.0,0.0,193.0,0.0,193.0,0.0,17.0,0.0,179.0,193.0,17.0,179.0,1744418622.4837534,0.0,2025-04-11 20:43:42.483,LEFT,12
116.0,2739.4968556757995,-14779.621634438234,-29959.40654985983,-23683.461389954256,13527.923944941038,6088.011692525351,30268.106492532075,43899.34020034554,0.0,0.0,0.0,193.0,0.0,193.0,0.0,17.0,0.0,179.0,193.0,17.0,179.0,1744418622.4838,0.0,2025-04-11 20:43:42.483,LEFT,12
117.0,2752.572626182154,-14750.989049790986,-29948.476546821184,-23655.566412874035,13471.016403557827,6306.231773642514,30013.78834411959,44016.77626571373,0.0,0.0,0.0,193.0,0.0,192.0,0.0,17.0,0.0,178.0,192.0,17.0,178.0,1744418622.483833,0.0,2025-04-11 20:43:42.483,LEFT,12
118.0,2740.7485533652966,-14772.737297145999,-29914.43484001575,-23685.696564399786,13586.709032858496,6262.71292718803,30095.081638703545,44061.92678951345,0.0,0.0,0.0,193.0,0.0,193.0,0.0,17.0,0.0,179.0,193.0,17.0,179.0,1744418622.4838653,0.0,2025-04-11 20:43:42.483,LEFT,12
119.0,2720.721390333342,-14811.651684242688,-29932.36093906891,-23737.440852813823,13643.683629475074,6054.372317120114,30420.455982739448,43989.618896200525,0.0,0.0,0.0,193.0,0.0,193.0,0.0,17.0,0.0,179.0,193.0,17.0,179.0,1744418622.4838974,0.0,2025-04-11 20:43:42.483,LEFT,12
120.0,2732.701925361386,-14775.263044269448,-29953.773910257092,-23707.131887332427,13547.928756228537,6047.309165872236,30311.17830409745,43908.68322952786,0.0,0.0,0.0,193.0,0.0,193.0,0.0,17.0,0.0,179.0,193.0,17.0,179.0,1744418622.4839292,0.0,2025-04-11 20:43:42.483,LEFT,12
121.0,2755.187780283425,-14736.661581595134,-29946.39783458684,-23669.469197925235,13486.439107231989,6278.403851795656,30050.355798048473,44019.72669598183,0.0,0.0,0.0,193.0,0.0,193.0,0.0,17.0,0.0,179.0,193.0,17.0,179.0,1744418622.483961,0.0,2025-04-11 20:43:42.483,LEFT,12
122.0,2765.8495623886065,-14743.568270631824,-29900.44264798673,-23666.429360679314,13600.902390587617,6281.644854741676,30029.926303616325,44068.58760936113,0.0,0.0,0.0,193.0,0.0,192.0,0.0,17.0,0.0,178.0,192.0,17.0,178.0,1744418622.4839933,0.0,2025-04-11 20:43:42.483,LEFT,12
123.0,2730.2432334713026,-14806.779003951431,-29925.387194798852,-23721.59346599501,13671.46684783302,6094.583105395211,30389.521168413303,44018.72086748134,0.0,0.0,0.0,193.0,0.0,192.0,0.0,17.0,0.0,178.0,192.0,17.0,178.0,1744418622.4840257,0.0,2025-04-11 20:43:42.484,LEFT,12
124.0,2742.0896580326153,-14793.30090204488,-29952.276343378588,-23705.99194836521,13544.128959671136,6025.71738072841,30340.34733061163,43909.48789232825,0.0,0.0,0.0,193.0,0.0,193.0,0.0,17.0,0.0,179.0,193.0,17.0,179.0,1744418622.4840577,0.0,2025-04-11 20:43:42.484,LEFT,12
125.0,2756.350070995101,-14746.272831710916,-29955.45029109124,-23667.34578220198,13426.75994953632,6267.6303109681985,30103.15061845191,44018.16207386996,0.0,0.0,0.0,193.0,0.0,193.0,0.0,17.0,0.0,179.0,193.0,17.0,179.0,1744418622.4840896,0.0,2025-04-11 20:43:42.484,LEFT,12
126.0,2754.003137827294,-14750.363200946236,-29919.084002862455,-23666.384657190403,13487.891970621584,6298.319256105335,30005.719364371227,44083.652685124005,0.0,0.0,0.0,193.0,0.0,193.0,0.0,17.0,0.0,179.0,193.0,17.0,179.0,1744418622.484121,0.0,2025-04-11 20:43:42.484,LEFT,12
127.0,2747.9234633354504,-14782.370899006237,-29888.909147847793,-23697.96767210575,13697.059595234346,6131.619945957655,30342.180173656965,44044.023042204746,0.0,0.0,0.0,193.0,0.0,193.0,0.0,17.0,0.0,179.0,193.0,17.0,179.0,1744418622.484168,0.0,2025-04-11 20:43:42.484,LEFT,12
128.0,2743.609576655576,-14785.142515318694,-29932.293883835544,-23705.343747776,13629.065588601303,6006.025493863284,30367.661162336015,43908.0126771942,0.0,0.0,0.0,193.0,0.0,192.0,0.0,17.0,0.0,178.0,192.0,17.0,178.0,1744418622.4842005,0.0,2025-04-11 20:43:42.484,LEFT,12
129.0,2724.677649101931,-14783.935521118108,-29977.064427979523,-23694.01141333716,13500.632464961109,6211.415673663101,30157.44300573385,43984.299181020164,0.0,0.0,0.0,193.0,0.0,192.0,0.0,17.0,0.0,178.0,192.0,17.0,178.0,1744418622.4842327,0.0,2025-04-11 20:43:42.484,LEFT,12
130.0,2747.2752627462464,-14762.880177841209,-29936.406604815318,-23675.906500328365,13528.080407152225,6280.974302408016,29990.207253719243,44069.77225181726,0.0,0.0,0.0,193.0,0.0,193.0,0.0,17.0,0.0,179.0,193.0,17.0,179.0,1744418622.4842656,0.0,2025-04-11 20:43:42.484,LEFT,12
131.0,2746.8505796015957,-14778.034660581907,-29905.315328277986,-23711.199904823294,13691.024624231413,6139.107780350182,30284.400914239995,44052.36024288658,0.0,0.0,0.0,193.0,0.0,193.0,0.0,17.0,0.0,179.0,193.0,17.0,179.0,1744418622.4843123,0.0,2025-04-11 20:43:42.484,LEFT,12
132.0,2747.476428446344,-14770.122143044728,-29933.76909896959,-23724.87917242994,13629.55732697932,5970.396813201525,30393.16450275952,43907.07390392708,0.0,0.0,0.0,193.0,0.0,193.0,0.0,17.0,0.0,179.0,193.0,17.0,179.0,1744418622.4843454,0.0,2025-04-11 20:43:42.484,LEFT,12
133.0,2743.4307626999334,-14760.309727228849,-29958.8701079929,-23687.328241745025,13517.932715169516,6172.389527844135,30189.853035194046,43945.78712532367,0.0,0.0,0.0,193.0,0.0,193.0,0.0,17.0,0.0,179.0,193.0,17.0,179.0,1744418622.484378,0.0,2025-04-11 20:43:42.484,LEFT,12
134.0,2757.7805826402405,-14740.997820019464,-29926.549485510528,-23666.854043823965,13530.807319975773,6331.422189643645,29974.628087833895,44057.25527492229,0.0,0.0,0.0,193.0,0.0,192.0,0.0,17.0,0.0,178.0,192.0,17.0,178.0,1744418622.9618795,0.0,2025-04-11 20:43:42.961,LEFT,12
135.0,2749.6892511474193,-14765.942366831587,-29890.339659492933,-23691.105686557974,13683.46973460552,6234.393266963157,30220.02789020871,44070.643969851015,0.0,0.0,0.0,193.0,0.0,193.0,0.0,17.0,0.0,179.0,193.0,17.0,179.0,1744418622.962018,0.0,2025-04-11 20:43:42.962,LEFT,12
136.0,2741.508512676777,-14791.870390399741,-29926.661244232804,-23720.11825086096,13632.530108991876,6025.829139450686,30421.752383917858,43945.49655264575,0.0,0.0,0.0,193.0,0.0,193.0,0.0,17.0,0.0,179.0,193.0,17.0,179.0,1744418622.9620564,0.0,2025-04-11 20:43:42.962,LEFT,12
137.0,2743.3413557221124,-14784.918997874141,-29955.942029469257,-23691.753887147177,13510.333122054712,6145.746248453409,30250.918001045946,43939.46158164282,0.0,0.0,0.0,193.0,0.0,192.0,0.0,17.0,0.0,178.0,192.0,17.0,178.0,1744418622.9620929,0.0,2025-04-11 20:43:42.962,LEFT,12
138.0,2775.6619782044863,-14742.026000264408,-29920.82743892997,-23650.470215138223,13475.151476282059,6343.8274078163395,29998.589157889983,44052.42729811994,0.0,0.0,0.0,193.0,0.0,192.0,0.0,17.0,0.0,179.0,192.0,17.0,179.0,1744418622.962129,0.0,2025-04-11 20:43:42.962,LEFT,12
139.0,2759.0099285852825,-14768.401058721669,-29889.177368781257,-23678.186378262806,13619.879021630171,6279.700252974064,30148.25643876272,44083.98796129083,0.0,0.0,0.0,193.0,0.0,193.0,0.0,17.0,0.0,179.0,193.0,17.0,179.0,1744418622.962165,0.0,2025-04-11 20:43:42.962,LEFT,12
140.0,2739.385096953523,-14795.714890446056,-29916.98293888366,-23726.399091052903,13646.231728342978,6052.271253141314,30430.335453788695,43985.305009520656,0.0,0.0,0.0,193.0,0.0,193.0,0.0,17.0,0.0,179.0,193.0,17.0,179.0,1744418622.962201,0.0,2025-04-11 20:43:42.962,LEFT,12
141.0,2741.799085354696,-14778.995785593484,-29943.983846185667,-23697.7441546612,13542.340820114712,6095.790099595797,30294.123923078052,43929.80562803813,0.0,0.0,0.0,193.0,0.0,193.0,0.0,17.0,0.0,179.0,193.0,17.0,179.0,1744418622.962237,0.0,2025-04-11 20:43:42.962,LEFT,12
142.0,2766.006024599794,-14728.68200882459,-29931.623331501884,-23659.92500304282,13479.800639128762,6320.15691043817,30037.458841497762,44045.38649861652,0.0,0.0,0.0,193.0,0.0,193.0,0.0,17.0,0.0,178.0,193.0,17.0,178.0,1744418622.9623199,0.0,2025-04-11 20:43:42.962,LEFT,12
143.0,2772.9797688698495,-14721.797671532355,-29881.845996599914,-23667.144616501882,13599.06954754228,6280.817840196829,30094.299327647608,44088.14538575952,0.0,0.0,0.0,193.0,0.0,192.0,0.0,17.0,0.0,178.0,192.0,17.0,178.0,1744418622.9623568,0.0,2025-04-11 20:43:42.962,LEFT,12
144.0,2748.5046086912885,-14779.889855371697,-29903.63894744384,-23717.056061870582,13653.496045290953,6055.959290976441,30433.01766312333,44012.46237903385,0.0,0.0,0.0,193.0,0.0,193.0,0.0,17.0,0.0,179.0,193.0,17.0,179.0,1744418622.9623923,0.0,2025-04-11 20:43:42.962,LEFT,12
145.0,2743.2743004887466,-14790.506933987968,-29944.341474096953,-23708.897675144395,13535.210613633468,6021.962287659918,30344.840031247146,43918.875624999484,0.0,0.0,0.0,193.0,0.0,192.0,0.0,17.0,0.0,178.0,192.0,17.0,178.0,1744418622.9624393,0.0,2025-04-11 20:43:42.962,LEFT,12
146.0,2762.4968007203106,-14756.666392882633,-29944.430881074775,-23681.673250397835,13464.489694176877,6255.023927095405,30080.28478387413,44014.85401569057,0.0,0.0,0.0,193.0,0.0,192.0,0.0,17.0,0.0,178.0,192.0,17.0,178.0,1744418622.9624949,0.0,2025-04-11 20:43:42.962,LEFT,12
147.0,2782.0992806076147,-14739.276735696405,-29887.255118758098,-23674.051305538575,13589.279483470857,6269.709023202542,30031.22270479473,44063.96079825888,0.0,0.0,0.0,193.0,0.0,193.0,0.0,17.0,0.0,178.0,193.0,17.0,178.0,1744418622.9625313,0.0,2025-04-11 20:43:42.962,LEFT,12
148.0,2758.607597185087,-14769.138666288694,-29891.23372927114,-23715.98317813673,13705.396795916176,6098.49466067489,30395.10910452713,44029.31559435315,0.0,0.0,0.0,193.0,0.0,193.0,0.0,17.0,0.0,179.0,193.0,17.0,179.0,1744418622.962567,0.0,2025-04-11 20:43:42.962,LEFT,12
149.0,2741.843788843607,-14786.774192663932,-29947.046035176045,-23730.82473645505,13581.523428144865,6015.435578278969,30383.687363110468,43918.517997088195,0.0,0.0,0.0,193.0,0.0,193.0,0.0,17.0,0.0,179.0,193.0,17.0,179.0,1744418622.9626043,0.0,2025-04-11 20:43:42.962,LEFT,12
150.0,2747.767001124263,-14776.224169281028,-29975.611564589926,-23703.98029136423,13465.339060466178,6248.944252603562,30149.038749818654,44013.33409706761,0.0,0.0,0.0,193.0,0.0,192.0,0.0,17.0,0.0,182.0,192.0,17.0,182.0,1744418622.962642,0.0,2025-04-11 20:43:42.962,LEFT,12
151.0,2772.130402580548,-14749.223261979016,-29920.15688659631,-23678.54400617409,13536.663477023063,6312.423206856633,30025.724175658725,44090.73818811634,0.0,0.0,0.0,193.0,0.0,193.0,0.0,17.0,0.0,180.0,193.0,17.0,180.0,1744418622.9626787,0.0,2025-04-11 20:43:42.962,LEFT,12
152.0,2750.292748247713,-14781.901512372675,-29908.332813779452,-23715.98317813673,13673.70202227855,6154.664594491076,30360.15097619903,44063.4020046475,0.0,0.0,0.0,193.0,0.0,193.0,0.0,17.0,0.0,180.0,193.0,17.0,180.0,1744418622.9627156,0.0,2025-04-11 20:43:42.962,LEFT,12
153.0,2753.35493723809,-14779.554579204867,-29940.1169943949,-23722.375777050947,13578.863570554682,6000.750482171832,30402.35106973065,43917.44511335434,0.0,0.0,0.0,193.0,0.0,193.0,0.0,17.0,0.0,180.0,193.0,17.0,180.0,1744418622.9627519,0.0,2025-04-11 20:43:42.962,LEFT,12
154.0,2766.1177833220704,-14745.334058443792,-29952.54456431205,-23681.136808530904,13494.061052091249,6217.584755132765,30181.761703701224,43977.951285594856,0.0,0.0,0.0,193.0,0.0,193.0,0.0,17.0,0.0,179.0,193.0,17.0,179.0,1744418622.9627898,0.0,2025-04-11 20:43:42.962,LEFT,12
155.0,2782.7474811968186,-14729.129043713696,-29917.78760168405,-23668.262203724647,13541.513805569864,6328.650573331186,29999.773800346113,44068.565257616676,0.0,0.0,0.0,193.0,0.0,193.0,0.0,17.0,0.0,178.0,193.0,17.0,178.0,1744418622.962826,0.0,2025-04-11 20:43:42.962,LEFT,12
156.0,2759.255797774291,-14771.753820389966,-29900.86733113138,-23711.55753273458,13702.066385992335,6202.787900303352,30293.34161202212,44067.44767039391,0.0,0.0,0.0,193.0,0.0,193.0,0.0,17.0,0.0,179.0,193.0,17.0,179.0,1744418622.9628649,0.0,2025-04-11 20:43:42.962,LEFT,12
157.0,2759.769887896763,-14776.604148936767,-29927.957645411214,-23736.904410946896,13647.304612076834,5999.968171115896,30427.943817131978,43922.384848878966,0.0,0.0,0.0,193.0,0.0,193.0,0.0,17.0,0.0,179.0,193.0,17.0,179.0,1744418622.9629183,0.0,2025-04-11 20:43:42.962,LEFT,12
158.0,2756.1712570394584,-14763.01428830794,-29956.769044014105,-23702.88505588592,13522.827747205229,6161.88420795014,30237.75282356177,43956.38185219549,0.0,0.0,0.0,193.0,0.0,193.0,0.0,17.0,0.0,179.0,193.0,17.0,179.0,1744418622.962956,0.0,2025-04-11 20:43:42.962,LEFT,12
159.0,2785.519097509277,-14727.586773346278,-29924.940159909747,-23660.14852048737,13512.545944755788,6329.477587876033,30004.154742259354,44073.14736523001,0.0,0.0,0.0,193.0,0.0,192.0,0.0,17.0,0.0,178.0,192.0,17.0,178.0,1744418622.962992,0.0,2025-04-11 20:43:42.962,LEFT,12
160.0,2778.970036383872,-14744.507043898946,-29887.612746669383,-23680.06392479705,13680.51930433742,6244.943290346061,30220.854904753556,44093.42039745097,0.0,0.0,0.0,193.0,0.0,192.0,0.0,17.0,0.0,178.0,192.0,17.0,178.0,1744418622.9630277,0.0,2025-04-11 20:43:42.963,LEFT,12
161.0,2755.858332617084,-14775.531265202913,-29927.465907033195,-23727.40491955339,13638.520376505898,6035.239223866371,30457.023436668333,43975.850221616056,0.0,0.0,0.0,193.0,0.0,192.0,0.0,17.0,0.0,178.0,192.0,17.0,178.0,1744418622.9630773,0.0,2025-04-11 20:43:42.963,LEFT,12
162.0,2749.2198645138583,-14775.128933802716,-29961.038227205067,-23708.22712281074,13495.044528847282,6137.900786149596,30309.881902919045,43969.74819537976,0.0,0.0,0.0,193.0,0.0,192.0,0.0,17.0,0.0,178.0,192.0,17.0,178.0,1744418622.9631133,0.0,2025-04-11 20:43:42.963,LEFT,12
163.0,2761.9156553644725,-14748.463302667536,-29950.197631144245,-23681.44973295328,13455.146664994558,6320.045151715894,30061.151690620387,44090.17939450496,0.0,0.0,0.0,193.0,0.0,193.0,0.0,17.0,0.0,179.0,193.0,17.0,179.0,1744418622.9631495,0.0,2025-04-11 20:43:42.963,LEFT,12
164.0,2775.2149433153804,-14754.028887036908,-29892.48542696064,-23688.624642923434,13621.756568164417,6244.049220567849,30161.98040985828,44107.12201680208,0.0,0.0,0.0,193.0,0.0,193.0,0.0,17.0,0.0,179.0,193.0,17.0,179.0,1744418622.9631853,0.0,2025-04-11 20:43:42.963,LEFT,12
165.0,2755.92538785045,-14794.418489267648,-29928.181162855766,-23738.08905340303,13676.652452546652,6031.104151142139,30458.766872735843,44008.32730630962,0.0,0.0,0.0,193.0,0.0,192.0,0.0,17.0,0.0,178.0,192.0,17.0,178.0,1744418622.9632213,0.0,2025-04-11 20:43:42.963,LEFT,12
166.0,2760.6639576749753,-14773.854884368764,-29949.907058466324,-23706.573093721046,13562.435038380032,6058.350927633158,30335.519353809283,43948.089355002565,0.0,0.0,0.0,193.0,0.0,192.0,0.0,17.0,0.0,178.0,192.0,17.0,178.0,1744418622.9632576,0.0,2025-04-11 20:43:42.963,LEFT,12
167.0,2785.899077165017,-14725.642171578667,-29933.098546635934,-23672.844311337987,13496.676206192518,6288.0598054003485,30069.533594791126,44062.73145231384,0.0,0.0,0.0,193.0,0.0,193.0,0.0,17.0,0.0,179.0,193.0,17.0,179.0,1744418622.9632936,0.0,2025-04-11 20:43:42.963,LEFT,12
168.0,2795.8232517031734,-14733.621744349211,-29886.58456642444,-23683.819017865542,13622.605934453719,6274.000558137961,30087.929080477847,44099.8576998541,0.0,0.0,0.0,193.0,0.0,193.0,0.0,17.0,0.0,178.0,193.0,17.0,178.0,1744418622.9633293,0.0,2025-04-11 20:43:42.963,LEFT,12
169.0,2772.063347347182,-14773.07257331283,-29899.906206119802,-23727.11434687547,13686.442516618075,6076.388785408591,30436.21396258044,44031.48371356532,0.0,0.0,0.0,193.0,0.0,193.0,0.0,17.0,0.0,179.0,193.0,17.0,179.0,1744418622.9633653,0.0,2025-04-11 20:43:42.963,LEFT,12
170.0,2786.9496091544165,-14737.600354862256,-29930.25987509011,-23702.21450355226,13572.113343729181,6035.552148288745,30367.236479191364,43939.19336070935,0.0,0.0,0.0,193.0,0.0,193.0,0.0,17.0,0.0,179.0,193.0,17.0,179.0,1744418622.963401,0.0,2025-04-11 20:43:42.963,LEFT,12
171.0,2797.566687770687,-14705.503249824436,-29955.182070157778,-23678.25343349617,13486.774383398819,6284.014139653938,30128.92217980888,44061.45740287989,0.0,0.0,0.0,193.0,0.0,192.0,0.0,17.0,0.0,178.0,192.0,17.0,178.0,1744418622.9634452,0.0,2025-04-11 20:43:42.963,LEFT,12
172.0,2802.707588995408,-14708.252514392438,-29911.283244047554,-23675.705334628266,13562.122113957657,6329.879919276228,30058.648295241393,44123.12586583208,0.0,0.0,0.0,193.0,0.0,192.0,0.0,17.0,0.0,178.0,192.0,17.0,178.0,1744418622.9634812,0.0,2025-04-11 20:43:42.963,LEFT,12
173.0,2771.3480915246123,-14774.413677980147,-29907.416392256786,-23716.78784093712,13680.161676426134,6168.969710942472,30415.8291716372,44091.52049917227,0.0,0.0,0.0,193.0,0.0,192.0,0.0,17.0,0.0,178.0,192.0,17.0,178.0,1744418622.9635315,0.0,2025-04-11 20:43:42.963,LEFT,12
174.0,2774.83496365964,-14775.978300092018,-29936.183087370766,-23706.64014895441,13586.418460180577,6034.680430254988,30397.88072083959,43952.783221338184,0.0,0.0,0.0,193.0,0.0,193.0,0.0,17.0,0.0,179.0,193.0,17.0,179.0,1744418622.9635675,0.0,2025-04-11 20:43:42.963,LEFT,12
175.0,2782.479260263355,-14743.076532253806,-29956.612581802918,-23665.177662989816,13484.405098486555,6267.04916561236,30164.528508726184,44044.850056749594,0.0,0.0,0.0,193.0,0.0,193.0,0.0,17.0,0.0,179.0,193.0,17.0,179.0,1744418622.9636028,0.0,2025-04-11 20:43:42.963,LEFT,12
176.0,2797.6560947485086,-14729.263154180428,-29920.603921485417,-23652.213651205737,13526.068750151248,6355.003280043993,30023.444297724283,44136.62631948308,0.0,0.0,0.0,193.0,0.0,193.0,0.0,17.0,0.0,179.0,193.0,17.0,179.0,1744418622.963652,0.0,2025-04-11 20:43:42.963,LEFT,12
177.0,2769.872876390562,-14775.374802991726,-29903.951871866215,-23702.281558785628,13666.147132652657,6203.70432182602,30352.73019703987,44116.04036283975,0.0,0.0,0.0,193.0,0.0,193.0,0.0,17.0,0.0,179.0,193.0,17.0,179.0,1744418622.9636877,0.0,2025-04-11 20:43:42.963,LEFT,12
178.0,2778.5677049836763,-14757.336945216293,-29924.82840118747,-23703.041518097107,13609.97719883647,6024.599793505645,30411.69409891297,43958.05823302964,0.0,0.0,0.0,193.0,0.0,192.0,0.0,17.0,0.0,178.0,192.0,17.0,178.0,1744418622.963723,0.0,2025-04-11 20:43:42.963,LEFT,12
179.0,2782.8815916635504,-14746.697514855567,-29950.376445099886,-23674.16306426085,13506.980360386415,6224.647906380643,30201.16301788843,44014.295222079185,0.0,0.0,0.0,193.0,0.0,193.0,0.0,17.0,0.0,178.0,193.0,17.0,178.0,1744418622.9637587,0.0,2025-04-11 20:43:42.963,LEFT,12
180.0,2805.79212973024,-14731.095997225762,-29920.358052296408,-23654.7841018181,13511.517764510843,6355.964405055572,30003.484189925697,44115.325107017175,0.0,0.0,0.0,193.0,0.0,193.0,0.0,17.0,0.0,179.0,193.0,17.0,179.0,1744418622.9637945,0.0,2025-04-11 20:43:42.963,LEFT,12
181.0,2780.892286407028,-14772.379669234715,-29910.702098691716,-23707.534218732624,13643.683629475074,6238.6400984096645,30269.984039066323,44111.324144759674,0.0,0.0,0.0,193.0,0.0,193.0,0.0,17.0,0.0,179.0,193.0,17.0,179.0,1744418622.9638295,0.0,2025-04-11 20:43:42.963,LEFT,12
182.0,2783.6191992305758,-14767.39523022118,-29934.97609317018,-23724.946227663306,13605.88682960115,6041.76593324732,30427.29561654277,43980.6334949295,0.0,0.0,0.0,193.0,0.0,193.0,0.0,17.0,0.0,178.0,193.0,17.0,178.0,1744418622.9638648,0.0,2025-04-11 20:43:42.963,LEFT,12
183.0,2786.547277754221,-14732.861785037732,-29956.299657380543,-23689.36225049046,13516.971590157938,6187.923990240573,30235.36118690505,43991.3846840125,0.0,0.0,0.0,193.0,0.0,192.0,0.0,17.0,0.0,178.0,192.0,17.0,178.0,1744418622.9639,0.0,2025-04-11 20:43:42.963,LEFT,12
184.0,2811.3577140996117,-14695.936703197563,-29920.536866252052,-23655.946392529775,13544.061904437769,6364.569826670865,30007.17222776082,44108.73134240286,0.0,0.0,0.0,193.0,0.0,192.0,0.0,17.0,0.0,178.0,192.0,17.0,178.0,1744418622.9639359,0.0,2025-04-11 20:43:42.963,LEFT,12
185.0,2794.8174232026845,-14736.48276763949,-29891.166674037777,-23687.037669067107,13703.496897637475,6285.779927465907,30211.06484068213,44141.9683864079,0.0,0.0,0.0,193.0,0.0,193.0,0.0,17.0,0.0,179.0,193.0,17.0,179.0,1744418622.9639714,0.0,2025-04-11 20:43:42.963,LEFT,12
186.0,2775.6172747155756,-14780.538055960902,-29922.168543597287,-23724.40978579638,13670.505722821443,6066.464610870435,30466.724093761935,44023.124161139036,0.0,0.0,0.0,193.0,0.0,193.0,0.0,17.0,0.0,179.0,193.0,17.0,179.0,1744418622.9640129,0.0,2025-04-11 20:43:42.964,LEFT,12
187.0,2777.3383590386343,-14766.478808698514,-29955.472642835695,-23699.68875642881,13532.3942938321,6139.219539072459,30313.972272154366,43986.132024065504,0.0,0.0,0.0,193.0,0.0,193.0,0.0,17.0,0.0,179.0,193.0,17.0,179.0,1744418622.964048,0.0,2025-04-11 20:43:42.964,LEFT,12
188.0,2815.9174699684945,-14719.54014534237,-29928.672901233782,-23653.308886684048,13494.061052091249,6349.3482886968,30042.13035608892,44095.99084806333,0.0,0.0,0.0,193.0,0.0,192.0,0.0,17.0,0.0,178.0,192.0,17.0,178.0,1744418622.9640977,0.0,2025-04-11 20:43:42.964,LEFT,12
189.0,2825.8192927621953,-14726.424482634602,-29877.24153724212,-23667.12226475743,13636.218146827001,6310.769177766941,30131.626740887972,44129.40670602402,0.0,0.0,0.0,193.0,0.0,192.0,0.0,17.0,0.0,178.0,192.0,17.0,178.0,1744418622.9641337,0.0,2025-04-11 20:43:42.964,LEFT,12
190.0,2803.1769756289696,-14753.805369592354,-29900.085020075447,-23714.97734963624,13680.80987701534,6090.962122793451,30450.40732030956,44041.51964682575,0.0,0.0,0.0,193.0,0.0,192.0,0.0,17.0,0.0,179.0,192.0,17.0,179.0,1744418622.96417,0.0,2025-04-11 20:43:42.964,LEFT,12
191.0,2808.966077442894,-14725.239840178472,-29938.082985649467,-23686.121247544437,13563.44086688052,6091.431509427012,30333.75356599731,43958.84054408557,0.0,0.0,0.0,193.0,0.0,193.0,0.0,17.0,0.0,179.0,193.0,17.0,179.0,1744418622.9642236,0.0,2025-04-11 20:43:42.964,LEFT,12
192.0,2824.4558363504216,-14687.308929837816,-29945.660227019816,-23659.857947809454,13471.61990065812,6317.273535403435,30063.789196466114,44059.78102204574,0.0,0.0,0.0,193.0,0.0,193.0,0.0,17.0,0.0,179.0,193.0,17.0,179.0,1744418622.9642644,0.0,2025-04-11 20:43:42.964,LEFT,12
193.0,2823.8746909945835,-14719.830718020286,-29907.617557956884,-23675.079485783517,13552.466160352966,6318.592288326298,30068.05837965708,44112.97817384937,0.0,0.0,0.0,193.0,0.0,193.0,0.0,17.0,0.0,179.0,193.0,17.0,179.0,1744418622.9643,0.0,2025-04-11 20:43:42.964,LEFT,12
194.0,2806.5297372972655,-14763.081343541306,-29910.97031962518,-23713.300968802094,13654.658336002629,6125.897899377096,30418.779601905302,44056.49531561081,0.0,0.0,0.0,193.0,0.0,193.0,0.0,17.0,0.0,179.0,193.0,17.0,179.0,1744418622.9643338,0.0,2025-04-11 20:43:42.964,LEFT,12
195.0,2818.3091066252123,-14740.126101985707,-29937.993578671645,-23690.278672013126,13579.668233355074,6050.818389751719,30353.870136007088,43937.11464847501,0.0,0.0,0.0,193.0,0.0,193.0,0.0,17.0,0.0,179.0,193.0,17.0,179.0,1744418622.96437,0.0,2025-04-11 20:43:42.964,LEFT,12
196.0,2827.182749173969,-14708.699549281544,-29956.903154480835,-23669.87152932543,13491.267084034334,6284.729395476508,30107.419801642875,44036.80342874568,0.0,0.0,0.0,193.0,0.0,193.0,0.0,17.0,0.0,179.0,193.0,17.0,179.0,1744418622.9644074,0.0,2025-04-11 20:43:42.964,LEFT,12
197.0,2835.3634876446117,-14699.043595676852,-29916.893531905836,-23672.464331682248,13562.59150059122,6314.546622579887,30010.592044662484,44094.135653273544,0.0,0.0,0.0,193.0,0.0,192.0,0.0,17.0,0.0,178.0,192.0,17.0,178.0,1744418622.9644473,0.0,2025-04-11 20:43:42.964,LEFT,12
198.0,2820.5442810707427,-14736.48276763949,-29899.190950297234,-23707.98125362173,13697.797202801372,6151.445943289512,30367.035313491266,44064.02785349225,0.0,0.0,0.0,193.0,0.0,193.0,0.0,17.0,0.0,179.0,193.0,17.0,179.0,1744418622.9644842,0.0,2025-04-11 20:43:42.964,LEFT,12
199.0,2838.4703801238993,-14723.742273299966,-29918.078174361966,-23685.62950916642,13625.444605999543,6019.727113214388,30384.424970677494,43935.84059904106,0.0,0.0,0.0,193.0,0.0,193.0,0.0,17.0,0.0,179.0,193.0,17.0,179.0,1744418622.9645183,0.0,2025-04-11 20:43:42.964,LEFT,12
200.0,2832.100132954137,-14713.594581317257,-29953.34922711244,-23663.613040877946,13508.05324412027,6242.819874622807,30171.39049427396,44021.60424251607,0.0,0.0,0.0,193.0,0.0,193.0,0.0,17.0,0.0,179.0,193.0,17.0,179.0,1744418622.9645555,0.0,2025-04-11 20:43:42.964,LEFT,12
201.0,2863.99607229186,-14684.067926891796,-29899.146246808323,-23647.296267425572,13539.412741591066,6328.53881460891,30006.41226844934,44105.937374345944,0.0,0.0,0.0,193.0,0.0,193.0,0.0,17.0,0.0,179.0,193.0,17.0,179.0,1744418622.9645944,0.0,2025-04-11 20:43:42.964,LEFT,12
202.0,2839.967947002405,-14731.408921648137,-29881.82364485546,-23691.284500513615,13688.27535966341,6197.17761244507,30323.91879843698,44095.25324049631,0.0,0.0,0.0,193.0,0.0,192.0,0.0,17.0,0.0,178.0,192.0,17.0,178.0,1744418622.96463,0.0,2025-04-11 20:43:42.964,LEFT,12
203.0,2823.2041386609244,-14751.413732935636,-29924.761345954103,-23706.818962910053,13619.566097207797,6031.148854631049,30434.224657323917,43961.254532486746,0.0,0.0,0.0,193.0,0.0,192.0,0.0,17.0,0.0,178.0,192.0,17.0,178.0,1744418622.9646997,0.0,2025-04-11 20:43:42.964,LEFT,12
204.0,2825.7745892732846,-14721.440043621069,-29950.734073011172,-23672.30786947106,13520.14553787059,6230.861691339218,30243.7877945647,44016.08336163561,0.0,0.0,0.0,193.0,0.0,193.0,0.0,17.0,0.0,179.0,193.0,17.0,179.0,1744418622.9647427,0.0,2025-04-11 20:43:42.964,LEFT,12
205.0,2855.345947187656,-14690.348767083737,-29927.465907033195,-23651.945430272273,13520.950200670983,6369.30839649539,30024.42777448032,44105.959726090405,0.0,0.0,0.0,193.0,0.0,193.0,0.0,17.0,0.0,179.0,193.0,17.0,179.0,1744418622.9647815,0.0,2025-04-11 20:43:42.964,LEFT,12
206.0,2854.4518774094436,-14721.238877920972,-29889.669107159272,-23678.141674773895,13668.494065820465,6253.906339872639,30266.586573909113,44105.69150515694,0.0,0.0,0.0,193.0,0.0,192.0,0.0,17.0,0.0,178.0,192.0,17.0,178.0,1744418622.9648209,0.0,2025-04-11 20:43:42.964,LEFT,12
207.0,2841.890197025561,-14743.411808420637,-29921.095659863433,-23708.517695488656,13623.45530074302,6031.685296497977,30468.82515774073,43988.434253744395,0.0,0.0,0.0,193.0,0.0,192.0,0.0,17.0,0.0,178.0,192.0,17.0,178.0,1744418622.9648879,0.0,2025-04-11 20:43:42.964,LEFT,12
208.0,2844.1030197266364,-14720.590677331767,-29949.348264854943,-23683.59550042099,13505.348683041178,6151.289481078325,30295.017992856265,43997.35259978206,0.0,0.0,0.0,193.0,0.0,193.0,0.0,17.0,0.0,179.0,193.0,17.0,179.0,1744418622.964935,0.0,2025-04-11 20:43:42.964,LEFT,12
209.0,2878.1670782765245,-14662.364383025693,-29916.73706969465,-23650.514918627134,13488.62957818861,6334.8420065453065,30031.13329781691,44104.752731889814,0.0,0.0,0.0,193.0,0.0,193.0,0.0,17.0,0.0,179.0,193.0,17.0,179.0,1744418622.9649727,0.0,2025-04-11 20:43:42.964,LEFT,12
210.0,2874.2778747413013,-14680.938682668053,-29874.67108662976,-23660.327334443016,13652.624327257196,6264.590473722276,30180.040619378167,44123.61760421009,0.0,0.0,0.0,193.0,0.0,193.0,0.0,17.0,0.0,179.0,193.0,17.0,179.0,1744418622.9650085,0.0,2025-04-11 20:43:42.965,LEFT,12
211.0,2851.8814267970833,-14732.68297108209,-29915.73124119416,-23706.617797209954,13645.024734142391,6060.2508259118595,30439.58907599319,44009.46724527684,0.0,0.0,0.0,193.0,0.0,193.0,0.0,17.0,0.0,179.0,193.0,17.0,179.0,1744418622.965046,0.0,2025-04-11 20:43:42.965,LEFT,12
212.0,2854.4965808983543,-14721.171822687606,-29938.48531704966,-23679.996869563685,13530.829671720228,6104.954314822473,30274.521443190748,43948.379927680486,0.0,0.0,0.0,193.0,0.0,192.0,0.0,17.0,0.0,178.0,192.0,17.0,178.0,1744418622.9650803,0.0,2025-04-11 20:43:42.965,LEFT,12
213.0,2877.183601520491,-14680.201075101028,-29920.49216276314,-23642.311828412036,13473.89977859256,6314.859547002262,30009.094477783976,44062.23971393582,0.0,0.0,0.0,193.0,0.0,192.0,0.0,17.0,0.0,178.0,192.0,17.0,178.0,1744418622.965119,0.0,2025-04-11 20:43:42.965,LEFT,12
214.0,2878.636464910086,-14693.209790374016,-29877.420351197765,-23659.075636753518,13610.871268614683,6281.57779950831,30081.71529551927,44112.21821453789,0.0,0.0,0.0,193.0,0.0,193.0,0.0,17.0,0.0,179.0,193.0,17.0,179.0,1744418622.9651697,0.0,2025-04-11 20:43:42.965,LEFT,12
215.0,2865.2701217258123,-14726.893869268164,-29895.659374673294,-23705.16493382036,13669.723411765506,6061.703689301454,30400.58528191868,44029.248539119784,0.0,0.0,0.0,193.0,0.0,193.0,0.0,17.0,0.0,179.0,193.0,17.0,179.0,1744418622.9652078,0.0,2025-04-11 20:43:42.965,LEFT,12
216.0,2874.1661160190247,-14707.045520191852,-29928.605846000417,-23681.427381208825,13554.746038287407,6054.171151420016,30290.927623620944,43933.98540425127,0.0,0.0,0.0,193.0,0.0,192.0,0.0,17.0,0.0,178.0,192.0,17.0,178.0,1744418622.9652417,0.0,2025-04-11 20:43:42.965,LEFT,12
217.0,2893.8356511396946,-14670.969804640987,-29927.77883145557,-23650.023180249118,13488.517819466331,6307.327009120823,30036.676530441826,44049.00748121828,0.0,0.0,0.0,193.0,0.0,192.0,0.0,17.0,0.0,178.0,192.0,17.0,178.0,1744418622.9652758,0.0,2025-04-11 20:43:42.965,LEFT,12
218.0,2899.222421553424,-14674.501380264925,-29892.261909516088,-23662.942488544286,13599.471878942477,6314.5913260687985,30004.08768702599,44098.00250506431,0.0,0.0,0.0,193.0,0.0,192.0,0.0,17.0,0.0,178.0,192.0,17.0,178.0,1744418622.9655597,0.0,2025-04-11 20:43:42.965,LEFT,12
219.0,2881.5198399448204,-14708.878363237187,-29902.16373230979,-23712.943340890808,13693.371557399221,6119.929983607529,30362.922592511488,44047.1969899174,0.0,0.0,0.0,193.0,0.0,193.0,0.0,17.0,0.0,179.0,193.0,17.0,179.0,1744418622.9656026,0.0,2025-04-11 20:43:42.965,LEFT,12
220.0,2894.1709273065244,-14694.260322363416,-29931.01983440159,-23696.626567438434,13581.568131633776,6034.6580785105325,30324.678757748457,43931.92904376138,0.0,0.0,0.0,193.0,0.0,193.0,0.0,17.0,0.0,179.0,193.0,17.0,179.0,1744418622.9656496,0.0,2025-04-11 20:43:42.965,LEFT,12
221.0,2888.538287703787,-14693.880342707676,-29958.601887059438,-23679.59453816349,13477.386650727589,6267.272683056914,30085.224519398755,44030.47788506483,0.0,0.0,0.0,193.0,0.0,193.0,0.0,17.0,0.0,178.0,193.0,17.0,178.0,1744418622.9657085,0.0,2025-04-11 20:43:42.965,LEFT,12
222.0,2911.024142625826,-14680.446944290037,-29912.1102585924,-23662.696619355276,13538.473968323944,6309.562183566354,29965.50857609613,44094.64974339602,0.0,0.0,0.0,193.0,0.0,192.0,0.0,17.0,0.0,178.0,192.0,17.0,178.0,1744418622.9658833,0.0,2025-04-11 20:43:42.965,LEFT,12
223.0,2897.4119302525437,-14706.822002747298,-29904.600072455418,-23703.086221586018,13663.151998895646,6157.145638125616,30323.270597847775,44079.49526065532,0.0,0.0,0.0,193.0,0.0,193.0,0.0,17.0,0.0,179.0,193.0,17.0,179.0,1744418622.965937,0.0,2025-04-11 20:43:42.965,LEFT,12
224.0,2914.3992560385773,-14686.280749592872,-29925.476601776674,-23705.41080300937,13575.175532719557,6005.958438629918,30353.24428716234,43933.203093195334,0.0,0.0,0.0,193.0,0.0,193.0,0.0,17.0,0.0,179.0,193.0,17.0,179.0,1744418622.9659848,0.0,2025-04-11 20:43:42.965,LEFT,12
225.0,2922.5576427647643,-14660.41978125808,-29938.082985649467,-23658.11451174194,13496.184467814503,6234.9967640634495,30118.886246548445,43988.65777118895,0.0,0.0,0.0,193.0,0.0,193.0,0.0,17.0,0.0,179.0,193.0,17.0,179.0,1744418622.9660313,0.0,2025-04-11 20:43:42.966,LEFT,12
226.0,2935.3428405932,-14646.092313062229,-29908.086944590446,-23647.072749981016,13534.607116533176,6358.579559156842,29963.854547006435,44101.757598132805,0.0,0.0,0.0,193.0,0.0,193.0,0.0,17.0,0.0,179.0,193.0,17.0,179.0,1744418622.9660854,0.0,2025-04-11 20:43:42.966,LEFT,12
227.0,2909.951258891971,-14693.142735140651,-29881.19779601071,-23687.30589000057,13676.585397313285,6224.80436859183,30269.02291405474,44108.84310112514,0.0,0.0,0.0,193.0,0.0,192.0,0.0,18.0,0.0,178.0,192.0,18.0,178.0,1744418622.9661303,0.0,2025-04-11 20:43:42.966,LEFT,12
228.0,2899.758863420351,-14712.812270261322,-29916.9605871392,-23704.11440183096,13612.726463404473,6033.920470943507,30392.40454344804,43970.329340735596,0.0,0.0,0.0,193.0,0.0,192.0,0.0,17.0,0.0,179.0,192.0,17.0,179.0,1744418622.9661896,0.0,2025-04-11 20:43:42.966,LEFT,12
229.0,2913.840462427195,-14678.90467392262,-29946.464889820207,-23669.268032225136,13493.85988639115,6201.424443891578,30192.669354995414,43998.581945727106,0.0,0.0,0.0,193.0,0.0,193.0,0.0,17.0,0.0,180.0,193.0,17.0,180.0,1744418622.9662435,0.0,2025-04-11 20:43:42.966,LEFT,12
230.0,2939.3214511062447,-14648.573356696768,-29916.82647667247,-23642.602401089956,13498.2855317933,6361.909969080683,29972.236451177178,44115.392162250544,0.0,0.0,0.0,193.0,0.0,193.0,0.0,17.0,0.0,179.0,193.0,17.0,179.0,1744418622.966294,0.0,2025-04-11 20:43:42.966,LEFT,12
231.0,2927.698543989485,-14681.452772790524,-29885.19875826821,-23673.961898560752,13648.109274877224,6259.248406797458,30205.633366779493,44137.45333402793,0.0,0.0,0.0,193.0,0.0,193.0,0.0,17.0,0.0,179.0,193.0,17.0,179.0,1744418622.9663343,0.0,2025-04-11 20:43:42.966,LEFT,12
232.0,2921.574166008731,-14702.128136411684,-29916.78177318356,-23712.31749204606,13620.862498386205,6032.109979642628,30410.39769773456,44003.409922529456,0.0,0.0,0.0,193.0,0.0,193.0,0.0,17.0,0.0,179.0,193.0,17.0,179.0,1744418622.9663963,0.0,2025-04-11 20:43:42.966,LEFT,12
233.0,2926.536253277809,-14678.703508222523,-29935.87016294839,-23683.55079693208,13520.637276248608,6132.178739569037,30232.813088037146,43985.014436842735,0.0,0.0,0.0,193.0,0.0,192.0,0.0,17.0,0.0,178.0,192.0,17.0,178.0,1744418622.96668,0.0,2025-04-11 20:43:42.966,LEFT,12
234.0,2946.764582009862,-14644.840615372732,-29923.68846222025,-23655.566412874035,13489.52364796682,6328.695276820097,29981.288907681574,44104.23864176734,0.0,0.0,0.0,193.0,0.0,192.0,0.0,17.0,0.0,178.0,192.0,17.0,178.0,1744418622.966748,0.0,2025-04-11 20:43:42.966,LEFT,12
235.0,2946.2951953763004,-14662.297327792327,-29888.931499592247,-23686.367116733447,13633.088902603258,6273.262950570936,30120.29440644913,44134.03351712627,0.0,0.0,0.0,193.0,0.0,193.0,0.0,17.0,0.0,179.0,193.0,17.0,179.0,1744418622.9667883,0.0,2025-04-11 20:43:42.966,LEFT,12
236.0,2932.9065004475715,-14689.052365905329,-29917.29586330603,-23725.214448596773,13640.84495792925,6062.888331757586,30414.465715225426,44034.45649557788,0.0,0.0,0.0,193.0,0.0,193.0,0.0,17.0,0.0,179.0,193.0,17.0,179.0,1744418622.966838,0.0,2025-04-11 20:43:42.966,LEFT,12
237.0,2938.829712728228,-14678.6141012447,-29944.185011885766,-23685.62950916642,13514.825822690229,6091.833840827208,30275.974306580345,43971.62574191401,0.0,0.0,0.0,193.0,0.0,192.0,0.0,17.0,0.0,178.0,192.0,17.0,178.0,1744418622.9669182,0.0,2025-04-11 20:43:42.966,LEFT,12
238.0,2963.215465928968,-14649.84740613072,-29922.34735755293,-23646.022217991616,13466.501351177854,6322.459140117066,30016.671719154325,44090.514670671786,0.0,0.0,0.0,193.0,0.0,192.0,0.0,17.0,0.0,178.0,192.0,17.0,178.0,1744418622.966956,0.0,2025-04-11 20:43:42.966,LEFT,12
239.0,2970.6809485770405,-14654.071885832775,-29869.463130171673,-23652.97361051722,13589.681814871052,6310.143328922192,30057.32954231853,44136.33574680516,0.0,0.0,0.0,193.0,0.0,193.0,0.0,17.0,0.0,179.0,193.0,17.0,179.0,1744418622.9669907,0.0,2025-04-11 20:43:42.966,LEFT,12
240.0,2943.9259104640378,-14694.327377596783,-29898.274528774564,-23713.61389322447,13656.401772070143,6086.87175355813,30399.60180516265,44052.62846382004,0.0,0.0,0.0,193.0,0.0,193.0,0.0,17.0,0.0,179.0,193.0,17.0,179.0,1744418622.9670253,0.0,2025-04-11 20:43:42.967,LEFT,12
241.0,2946.317547120756,-14680.111668123207,-29943.20153512973,-23706.908369887875,13551.862663252672,6041.944747202962,30326.086917649143,43955.35367195054,0.0,0.0,0.0,193.0,0.0,193.0,0.0,17.0,0.0,179.0,193.0,17.0,179.0,1744418622.9670599,0.0,2025-04-11 20:43:42.967,LEFT,12
242.0,2969.20573344299,-14633.463577444982,-29953.72920676818,-23668.843349080485,13470.547016924265,6284.483526287499,30073.42279832635,44061.278588924244,0.0,0.0,0.0,193.0,0.0,193.0,0.0,17.0,0.0,179.0,193.0,17.0,179.0,1744418622.9670937,0.0,2025-04-11 20:43:42.967,LEFT,12
243.0,2997.883021579149,-14620.03017902734,-29903.236616043643,-23658.807415820054,13563.64203258062,6305.695331775586,30015.107097042455,44112.106455815614,0.0,0.0,0.0,193.0,0.0,192.0,0.0,17.0,0.0,178.0,192.0,17.0,178.0,1744418622.9671285,0.0,2025-04-11 20:43:42.967,LEFT,12
244.0,2971.3291491662444,-14672.489723263947,-29905.717659678183,-23714.619721724954,13679.692289792572,6122.098102819694,30385.900185811544,44064.18431570343,0.0,0.0,0.0,193.0,0.0,193.0,0.0,17.0,0.0,179.0,193.0,17.0,179.0,1744418622.967162,0.0,2025-04-11 20:43:42.967,LEFT,12
245.0,2970.412727643577,-14669.38283078466,-29927.39885179983,-23696.13482906042,13572.940358274027,6023.705723727432,30378.38999967456,43952.31383470462,0.0,0.0,0.0,193.0,0.0,193.0,0.0,17.0,0.0,179.0,193.0,17.0,179.0,1744418622.9671953,0.0,2025-04-11 20:43:42.967,LEFT,12
246.0,2977.431175402543,-14645.399408984114,-29943.536811296563,-23656.549889630067,13470.323499479711,6272.882970915195,30141.416804959394,44046.10175443909,0.0,0.0,0.0,193.0,0.0,193.0,0.0,17.0,0.0,179.0,193.0,17.0,179.0,1744418622.9672284,0.0,2025-04-11 20:43:42.967,LEFT,12
247.0,3004.1638617710905,-14629.395559954115,-29903.10250557691,-23645.619886591423,13529.01918041935,6339.558224625376,29991.526006642107,44110.564185448195,0.0,0.0,0.0,193.0,0.0,192.0,0.0,18.0,0.0,178.0,192.0,18.0,178.0,1744418622.967262,0.0,2025-04-11 20:43:42.967,LEFT,12
248.0,2987.2212394739677,-14668.42170577308,-29894.362973494884,-23704.293215786605,13676.80891475784,6185.934684984051,30327.450374060914,44093.88978408454,0.0,0.0,0.0,193.0,0.0,192.0,0.0,18.0,0.0,179.0,192.0,18.0,179.0,1744418622.967314,0.0,2025-04-11 20:43:42.967,LEFT,12
249.0,2991.1774982425572,-14666.387697027649,-29933.25500884712,-23721.92874216184,13592.319320716779,6024.152758616538,30395.511435927325,43967.1777447674,0.0,0.0,0.0,193.0,0.0,193.0,0.0,17.0,0.0,179.0,193.0,17.0,179.0,1744418622.9673464,0.0,2025-04-11 20:43:42.967,LEFT,12
250.0,2986.9977220294145,-14651.657897431602,-29968.034323219577,-23694.03376508162,13473.452743703456,6216.310705698813,30185.53914851417,44029.829684475626,0.0,0.0,0.0,193.0,0.0,193.0,0.0,17.0,0.0,179.0,193.0,17.0,179.0,1744418622.967379,0.0,2025-04-11 20:43:42.967,LEFT,12
251.0,2995.960771555993,-14631.586030910736,-29940.631084517372,-23687.21648302275,13487.064956076736,6339.334707180823,30003.998280048167,44138.325052061686,0.0,0.0,0.0,193.0,0.0,192.0,0.0,17.0,0.0,178.0,192.0,17.0,178.0,1744418622.9674113,0.0,2025-04-11 20:43:42.967,LEFT,12
252.0,3004.990876315937,-14645.242946772927,-29891.72546764916,-23705.254340798183,13656.759399981429,6225.117293014204,30276.778969380735,44144.24826434234,0.0,0.0,0.0,193.0,0.0,192.0,0.0,18.0,0.0,179.0,192.0,18.0,179.0,1744418622.9674668,0.0,2025-04-11 20:43:42.967,LEFT,12
253.0,3012.3222484972775,-14651.434379987048,-29919.665148218293,-23712.36219553497,13622.337713520255,6039.3519448461475,30434.425823024016,44024.82289371764,0.0,0.0,0.0,193.0,0.0,193.0,0.0,17.0,0.0,179.0,193.0,17.0,179.0,1744418622.9674988,0.0,2025-04-11 20:43:42.967,LEFT,12
254.0,3024.3251352697775,-14624.880507574144,-29953.282171879076,-23679.482779441212,13502.465308006444,6174.959978456495,30232.544867103683,44035.37291710054,0.0,0.0,0.0,193.0,0.0,193.0,0.0,17.0,0.0,179.0,193.0,17.0,179.0,1744418622.9675312,0.0,2025-04-11 20:43:42.967,LEFT,12
255.0,3041.0889436112575,-14599.667739828557,-29925.901284921325,-23660.59555537648,13472.133990780592,6340.094666492304,29988.68733509628,44140.80609569622,0.0,0.0,0.0,193.0,0.0,192.0,0.0,17.0,0.0,178.0,192.0,17.0,178.0,1744418623.4399924,0.0,2025-04-11 20:43:43.439,LEFT,12
