Sample Index,EXG Channel 0,EXG Channel 1,EXG Channel 2,EXG Channel 3,EXG Channel 4,EXG Channel 5,EXG Channel 6,EXG Channel 7,Accel Channel 0,Accel Channel 1,Accel Channel 2,Not Used,Digital Channel 0 (D11),Digital Channel 1 (D12),Digital Channel 2 (D13),Digital Channel 3 (D17),Not Used,Digital Channel 4 (D18),Analog Channel 0,Analog Channel 1,Analog Channel 2,Timestamp,Marker Channel,Timestamp (Formatted),Stimulus_Direction,Stimulus_Number
171.0,12700.730586139034,1406.1929471722779,-59909.40301530398,-56683.37573806951,-34311.42530577485,-31599.465799267986,-8820.467748697729,-21194.326423922354,0.0,0.0,0.0,193.0,1.0,155.0,0.0,9.0,3.0,251.0,411.0,9.0,1019.0,1744252798.1463242,0.0,2025-04-09 22:39:58.146,LEFT,28
172.0,12734.973458644565,1425.5942613594846,-59881.977424857316,-56731.499043881784,-34241.28553167409,-31524.43099313152,-9163.187046430952,-21139.18467035111,0.0,0.0,0.0,193.0,1.0,155.0,0.0,9.0,3.0,252.0,411.0,9.0,1020.0,1744252798.146333,0.0,2025-04-09 22:39:58.146,LEFT,28
173.0,12679.474077162038,1434.4008486748755,-59875.29425326518,-56681.60995025754,-34229.84143851297,-31525.615635587652,-8926.303258693608,-21131.3392080473,0.0,0.0,0.0,193.0,1.0,154.0,0.0,8.0,3.0,250.0,410.0,8.0,1018.0,1744252798.146344,0.0,2025-04-09 22:39:58.146,LEFT,28
174.0,12617.135061876186,1419.313421167543,-59899.74706169928,-56732.72838982682,-34245.48765963169,-31534.221057202943,-8998.812317706623,-21134.75902494896,0.0,0.0,0.0,193.0,1.0,155.0,0.0,7.0,3.0,252.0,411.0,7.0,1020.0,1744252798.1463528,0.0,2025-04-09 22:39:58.146,LEFT,28
175.0,12682.64802487469,1405.254173905155,-59904.70914896836,-56674.658557731935,-34302.48460799272,-31588.91577588508,-8805.223858979209,-21162.788112495913,0.0,0.0,0.0,193.0,1.0,155.0,0.0,7.0,3.0,252.0,411.0,7.0,1020.0,1744252798.1463616,0.0,2025-04-09 22:39:58.146,LEFT,28
176.0,12728.51380449698,1416.385342643898,-59905.96084665786,-56747.9946312898,-34265.20189824127,-31544.502859652384,-9120.875194177055,-21143.81148145336,0.0,0.0,0.0,193.0,1.0,154.0,0.0,7.0,3.0,251.0,410.0,7.0,1019.0,1744252798.146376,0.0,2025-04-09 22:39:58.146,LEFT,28
177.0,12671.114524735753,1422.219147946733,-59887.16302957095,-56694.171630641424,-34242.55958110805,-31536.81385955976,-8976.214704062308,-21137.28477207241,0.0,0.0,0.0,193.0,1.0,155.0,0.0,6.0,3.0,250.0,411.0,6.0,1018.0,1744252798.1463847,0.0,2025-04-09 22:39:58.146,LEFT,28
178.0,12599.812459923323,1395.575868556007,-59930.43600683642,-56762.90324484149,-34273.20382275627,-31557.198650503,-9009.339989345073,-21146.024304154435,0.0,0.0,0.0,193.0,1.0,154.0,0.0,6.0,3.0,250.0,410.0,6.0,1018.0,1744252798.1463933,0.0,2025-04-09 22:39:58.146,LEFT,28
179.0,12646.102922690265,1381.0248829156021,-59920.33301834262,-56698.19494464338,-34314.64395697641,-31602.77385744737,-8867.987557409711,-21174.567481823862,0.0,0.0,0.0,193.0,1.0,155.0,0.0,6.0,3.0,250.0,411.0,6.0,1018.0,1744252798.146402,0.0,2025-04-09 22:39:58.146,LEFT,28
180.0,12726.345685284816,1399.2415546466775,-59925.04923642269,-56757.09179128311,-34291.48754972071,-31577.91871761307,-9063.833542327111,-21168.91249047667,0.0,0.0,0.0,193.0,1.0,154.0,0.0,5.0,3.0,250.0,410.0,5.0,1018.0,1744252798.1464107,0.0,2025-04-09 22:39:58.146,LEFT,28
181.0,12679.809353328867,1409.679819307306,-59885.06196559215,-56701.21243014484,-34240.0338339846,-31532.76819381335,-9031.915251244933,-21126.913562645146,0.0,0.0,0.0,193.0,1.0,154.0,0.0,5.0,3.0,250.0,410.0,5.0,1018.0,1744252798.1464195,0.0,2025-04-09 22:39:58.146,LEFT,28
182.0,12610.0272071394,1402.5719645705183,-59930.57011730315,-56759.684593639926,-34269.69459887679,-31571.57082218776,-8980.170962830898,-21173.114618434265,0.0,0.0,0.0,193.0,1.0,155.0,0.0,5.0,3.0,252.0,411.0,5.0,1020.0,1744252798.146428,0.0,2025-04-09 22:39:58.146,LEFT,28
183.0,12614.274038585907,1375.2804845905882,-59929.653695780486,-56720.65844782096,-34313.07933486454,-31613.368584319185,-8932.248822718719,-21204.63057811625,0.0,0.0,0.0,193.0,1.0,154.0,0.0,5.0,3.0,250.0,410.0,5.0,1018.0,1744252798.1464384,0.0,2025-04-09 22:39:58.146,LEFT,28
184.0,12724.42343526166,1402.0802261925014,-59927.35146610159,-56742.00436377578,-34306.70908769478,-31600.58338649075,-8998.141765372964,-21196.516894878972,0.0,0.0,0.0,193.0,1.0,155.0,0.0,5.0,3.0,252.0,411.0,5.0,1020.0,1744252798.146447,0.0,2025-04-09 22:39:58.146,LEFT,28
185.0,12692.84042034631,1417.838206033493,-59873.88609336449,-56704.98987495779,-34233.19420018127,-31533.237580446912,-9103.284371290729,-21137.575344750327,0.0,0.0,0.0,193.0,1.0,154.0,0.0,4.0,3.0,249.0,410.0,4.0,1017.0,1744252798.1464555,0.0,2025-04-09 22:39:58.146,LEFT,28
186.0,12639.017419697931,1420.833339790504,-59898.09303260959,-56722.98302924431,-34244.39242415338,-31545.10635675268,-8952.298337495129,-21142.246859341485,0.0,0.0,0.0,193.0,1.0,154.0,0.0,4.0,3.0,251.0,410.0,4.0,1019.0,1744252798.1464643,0.0,2025-04-09 22:39:58.146,LEFT,28
187.0,12618.16324212113,1388.1327376523898,-59903.03276813421,-56713.37177912853,-34274.9919623127,-31582.120845570666,-8961.015517832699,-21176.109752191278,0.0,0.0,0.0,193.0,1.0,155.0,0.0,4.0,3.0,251.0,411.0,4.0,1019.0,1744252798.146473,0.0,2025-04-09 22:39:58.146,LEFT,28
188.0,12731.553641742903,1408.89750825137,-59909.358311815064,-56713.79646227318,-34296.85196838999,-31603.310299314297,-8908.712435807282,-21201.233112959042,0.0,0.0,0.0,193.0,1.0,154.0,0.0,4.0,3.0,249.0,410.0,4.0,1017.0,1744252798.1464818,0.0,2025-04-09 22:39:58.146,LEFT,28
189.0,12708.352530998294,1417.6817438223059,-59866.88999734998,-56716.74689254128,-34219.09024942997,-31526.420298388042,-9144.90331946651,-21133.350865048276,0.0,0.0,0.0,193.0,1.0,155.0,0.0,4.0,3.0,251.0,411.0,4.0,1019.0,1744252798.1464903,0.0,2025-04-09 22:39:58.146,LEFT,28
190.0,12643.174844166619,1414.0831129650014,-59896.99779713128,-56720.65844782096,-34237.82101128352,-31552.43772893402,-8921.229412702252,-21147.588926266304,0.0,0.0,0.0,193.0,1.0,154.0,0.0,4.0,3.0,249.0,410.0,4.0,1017.0,1744252798.1465824,0.0,2025-04-09 22:39:58.146,LEFT,28
191.0,12587.787221406368,1369.804307199038,-59925.71978875635,-56754.029602292736,-34284.804378128574,-31596.44831376652,-9009.675265511903,-21195.734583823036,0.0,0.0,0.0,193.0,1.0,155.0,0.0,4.0,3.0,252.0,411.0,4.0,1020.0,1744252798.146592,0.0,2025-04-09 22:39:58.146,LEFT,28
192.0,12704.910362352177,1393.966542955225,-59923.14933814399,-56713.17061342843,-34317.37086979996,-31625.170305391588,-8865.171237608343,-21220.500316679518,0.0,0.0,0.0,193.0,1.0,154.0,0.0,4.0,3.0,250.0,410.0,4.0,1018.0,1744252798.1466005,0.0,2025-04-09 22:39:58.146,LEFT,28
193.0,12719.461347992581,1422.3085549245543,-59876.27773002121,-56733.51070088276,-34228.902665245856,-31528.119030966645,-9182.633064107069,-21136.03307438291,0.0,0.0,0.0,193.0,1.0,155.0,0.0,4.0,3.0,251.0,411.0,4.0,1019.0,1744252798.1466093,0.0,2025-04-09 22:39:58.146,LEFT,28
194.0,12662.665565331647,1426.130703226412,-59881.91036962395,-56696.965598698334,-34228.54503733457,-31532.544676368798,-8917.608430100492,-21117.883457885204,0.0,0.0,0.0,193.0,1.0,155.0,0.0,4.0,3.0,252.0,411.0,4.0,1020.0,1744252798.146618,0.0,2025-04-09 22:39:58.146,LEFT,28
195.0,12596.213829066019,1386.769281240616,-59914.7897857177,-56751.16857900246,-34260.86565981694,-31563.993580817412,-9015.464367325827,-21150.695818745593,0.0,0.0,0.0,193.0,1.0,155.0,0.0,4.0,3.0,250.0,411.0,4.0,1018.0,1744252798.146627,0.0,2025-04-09 22:39:58.146,LEFT,28
196.0,12697.154307026185,1400.2920866360769,-59905.33499781311,-56685.83442995959,-34296.762561412164,-31603.153837103113,-8825.072208055522,-21186.212740685074,0.0,0.0,0.0,193.0,1.0,155.0,0.0,3.0,3.0,252.0,411.0,3.0,1020.0,1744252798.1466358,0.0,2025-04-09 22:39:58.146,LEFT,28
197.0,12723.864641650278,1414.3066304095544,-59892.99683487378,-56751.05682028017,-34241.06201422954,-31542.938237540515,-9159.588415573648,-21151.321667590342,0.0,0.0,0.0,193.0,1.0,154.0,0.0,3.0,3.0,250.0,410.0,3.0,1018.0,1744252798.1466446,0.0,2025-04-09 22:39:58.146,LEFT,28
198.0,12667.35943166726,1420.9227467683252,-59884.52552372522,-56702.44177608989,-34229.7296797907,-31544.145231741102,-8946.553939170115,-21145.107882631768,0.0,0.0,0.0,193.0,1.0,156.0,0.0,3.0,3.0,251.0,412.0,3.0,1019.0,1744252798.1466532,0.0,2025-04-09 22:39:58.146,LEFT,28
199.0,12602.002930879944,1401.7225982812165,-59916.06383515165,-56762.053878552186,-34252.997845768674,-31563.278324994844,-9017.677190026903,-21168.934842221122,0.0,0.0,0.0,193.0,1.0,155.0,0.0,3.0,3.0,250.0,411.0,3.0,1018.0,1744252798.1466618,0.0,2025-04-09 22:39:58.146,LEFT,28
200.0,12661.525626364426,1390.5690777980183,-59917.02496016324,-56698.84314523258,-34311.60411973049,-31616.676642498573,-8848.094504844488,-21208.318615951375,0.0,0.0,0.0,193.0,1.0,155.0,0.0,3.0,3.0,250.0,411.0,3.0,1018.0,1744252798.1466703,0.0,2025-04-09 22:39:58.146,LEFT,28
201.0,12728.960839386087,1411.2667931636327,-59911.61583800505,-56761.60684366308,-34272.086235533505,-31560.886688338127,-9137.907223451999,-21176.08740044682,0.0,0.0,0.0,193.0,1.0,156.0,0.0,3.0,3.0,252.0,412.0,3.0,1020.0,1744252798.1466792,0.0,2025-04-09 22:39:58.146,LEFT,28
202.0,12678.311786450362,1415.893604265881,-59881.35157601257,-56698.55257255466,-34233.976511237204,-31532.544676368798,-9007.887125955478,-21144.057350642368,0.0,0.0,0.0,193.0,1.0,155.0,0.0,3.0,3.0,251.0,411.0,3.0,1019.0,1744252798.1466877,0.0,2025-04-09 22:39:58.146,LEFT,28
203.0,12608.127308860698,1397.5875255569847,-59925.160995144965,-56765.29488149821,-34261.78208133961,-31558.070368536755,-9016.827823737602,-21162.76576075146,0.0,0.0,0.0,193.0,1.0,155.0,0.0,3.0,3.0,252.0,411.0,3.0,1020.0,1744252798.1466963,0.0,2025-04-09 22:39:58.146,LEFT,28
204.0,12638.436274342093,1377.9179904363145,-59919.640114264505,-56707.739139525795,-34306.73143943923,-31603.980851647957,-8894.206153655787,-21200.406098414194,0.0,0.0,0.0,193.0,1.0,154.0,0.0,3.0,3.0,249.0,410.0,3.0,1017.0,1744252798.146705,0.0,2025-04-09 22:39:58.146,LEFT,28
205.0,12726.055112606897,1398.5710023130182,-59921.80823347667,-56754.923672070945,-34294.952070111285,-31577.695200168517,-9064.280577216217,-21191.443048887617,0.0,0.0,0.0,193.0,1.0,155.0,0.0,3.0,3.0,251.0,411.0,3.0,1019.0,1744252798.1467187,0.0,2025-04-09 22:39:58.146,LEFT,28
206.0,12680.546960895892,1410.2162611742333,-59875.249549776265,-56702.79940400117,-34236.74812754967,-31525.34741465419,-9069.108554018565,-21143.833833197812,0.0,0.0,0.0,193.0,1.0,154.0,0.0,3.0,3.0,250.0,410.0,3.0,1018.0,1744252798.1467276,0.0,2025-04-09 22:39:58.146,LEFT,28
207.0,12621.136024133686,1412.5631943420403,-59904.10565186807,-56745.0442010217,-34248.661607344344,-31539.853696805683,-8975.141820328454,-21154.786187980913,0.0,0.0,0.0,193.0,1.0,154.0,0.0,3.0,3.0,250.0,410.0,3.0,1018.0,1744252798.1467361,0.0,2025-04-09 22:39:58.146,LEFT,28
208.0,12624.667599757624,1387.41748182982,-59898.49536400979,-56707.85089824807,-34282.94918333879,-31577.181110046044,-8922.749331325214,-21185.00574648449,0.0,0.0,0.0,193.0,1.0,155.0,0.0,3.0,3.0,253.0,411.0,3.0,1021.0,1744252798.1467447,0.0,2025-04-09 22:39:58.146,LEFT,28
209.0,12723.864641650278,1402.3037436370546,-59915.68385549592,-56739.7915410747,-34303.15516032638,-31598.01293587839,-8963.138933555952,-21218.82393584537,0.0,0.0,0.0,193.0,1.0,155.0,0.0,3.0,3.0,251.0,411.0,3.0,1019.0,1744252798.1467538,0.0,2025-04-09 22:39:58.146,LEFT,28
210.0,12686.000786542987,1409.5680605850293,-59873.55081719766,-56722.15601469947,-34238.11158396144,-31528.43195538902,-9118.684723220435,-21146.89602218819,0.0,0.0,0.0,193.0,1.0,155.0,0.0,3.0,3.0,252.0,411.0,3.0,1020.0,1744252798.1467624,0.0,2025-04-09 22:39:58.146,LEFT,28
211.0,12626.411035825138,1406.1035401944566,-59902.9880646453,-56741.55732888667,-34253.914267291344,-31547.16271724257,-8946.084552536555,-21161.826987484335,0.0,0.0,0.0,193.0,1.0,154.0,0.0,3.0,3.0,249.0,410.0,3.0,1017.0,1744252798.1467707,0.0,2025-04-09 22:39:58.146,LEFT,28
212.0,12599.521887245404,1369.6925484767614,-59911.50407928277,-56738.04810500719,-34286.65957291837,-31580.64563043662,-8980.550942486638,-21192.62769134375,0.0,0.0,0.0,193.0,1.0,155.0,0.0,3.0,3.0,251.0,411.0,3.0,1019.0,1744252798.1467795,0.0,2025-04-09 22:39:58.146,LEFT,28
213.0,12709.380711243239,1385.1152521509234,-59922.47878581033,-56727.56513685765,-34320.7012797238,-31606.327784815763,-8898.542392080117,-21215.8064503439,0.0,0.0,0.0,193.0,1.0,155.0,0.0,3.0,3.0,252.0,411.0,3.0,1020.0,1744252798.146788,0.0,2025-04-09 22:39:58.146,LEFT,28
214.0,12699.121260538252,1407.288182650588,-59877.17179979942,-56733.957735771866,-34239.67620607331,-31516.004385471868,-9166.204531932419,-21140.034036640413,0.0,0.0,0.0,193.0,1.0,155.0,0.0,3.0,3.0,253.0,411.0,3.0,1021.0,1744252798.1467967,0.0,2025-04-09 22:39:58.146,LEFT,28
215.0,12642.996030210976,1409.4563018627528,-59896.439003519896,-56724.21237518935,-34248.616903855436,-31539.697234594496,-8924.425712159362,-21153.75800773597,0.0,0.0,0.0,193.0,1.0,155.0,0.0,3.0,3.0,250.0,411.0,3.0,1018.0,1744252798.1468053,0.0,2025-04-09 22:39:58.146,LEFT,28
216.0,12577.72893640148,1363.098783862446,-59930.413655091965,-56770.9498728454,-34291.59930844299,-31590.078066596758,-9012.625695780003,-21207.178676984153,0.0,0.0,0.0,193.0,1.0,155.0,0.0,3.0,3.0,250.0,411.0,3.0,1018.0,1744252798.1468139,0.0,2025-04-09 22:39:58.146,LEFT,28
217.0,12690.359376711773,1383.1482986388564,-59921.249439865285,-56718.87030826454,-34321.32712856855,-31620.811715222804,-8843.221824553231,-21228.502241194517,0.0,0.0,0.0,193.0,1.0,155.0,0.0,3.0,3.0,252.0,411.0,3.0,1020.0,1744252798.1468225,0.0,2025-04-09 22:39:58.146,LEFT,28
218.0,12706.542039697415,1406.6176303169289,-59885.888980136995,-56754.25311973729,-34243.230133441706,-31536.85856304867,-9174.519380869791,-21163.548071807396,0.0,0.0,0.0,193.0,1.0,155.0,0.0,3.0,3.0,249.0,411.0,3.0,1017.0,1744252798.1468308,0.0,2025-04-09 22:39:58.146,LEFT,28
219.0,12651.713210548545,1409.903336751859,-59891.92395113993,-56718.98206698681,-34247.32050267702,-31549.062615521267,-8928.38197092795,-21163.078685173834,0.0,0.0,0.0,193.0,1.0,155.0,0.0,3.0,3.0,251.0,411.0,3.0,1019.0,1744252798.1468396,0.0,2025-04-09 22:39:58.146,LEFT,28
220.0,12589.284788284873,1377.7168247362167,-59920.31066659817,-56772.894474613015,-34276.288363491105,-31576.28704026783,-9028.026047709709,-21196.405136156696,0.0,0.0,0.0,193.0,1.0,155.0,0.0,3.0,3.0,249.0,411.0,3.0,1017.0,1744252798.1468525,0.0,2025-04-09 22:39:58.146,LEFT,28
221.0,12673.08147824782,1380.2425718596664,-59919.41659681995,-56708.54380232618,-34329.21729436127,-31622.331633845766,-8842.484216986206,-21228.993979572533,0.0,0.0,0.0,193.0,1.0,155.0,0.0,3.0,3.0,252.0,411.0,3.0,1020.0,1744252798.146861,0.0,2025-04-09 22:39:58.146,LEFT,28
222.0,12714.029874089942,1403.6224965599176,-59905.67027397994,-56770.12285830055,-34271.527441922124,-31560.350246471196,-9169.601997089625,-21182.65881331668,0.0,0.0,0.0,193.0,1.0,155.0,0.0,3.0,3.0,251.0,411.0,3.0,1019.0,1744252798.1468697,0.0,2025-04-09 22:39:58.146,LEFT,28
223.0,12655.758876294956,1405.8800227499037,-59892.75096568477,-56717.998590230774,-34253.131956235404,-31560.082025537733,-8963.027174833676,-21173.829874256837,0.0,0.0,0.0,193.0,1.0,155.0,0.0,3.0,3.0,251.0,411.0,3.0,1019.0,1744252798.1468785,0.0,2025-04-09 22:39:58.146,LEFT,28
224.0,12595.520924987904,1388.8926969638703,-59922.88111721053,-56777.163657803976,-34271.68390413331,-31579.57274670276,-9031.468216355826,-21195.511066378484,0.0,0.0,0.0,193.0,1.0,155.0,0.0,2.0,3.0,252.0,411.0,2.0,1020.0,1744252798.1468873,0.0,2025-04-09 22:39:58.146,LEFT,28
225.0,12657.926995507121,1388.7585864971384,-59915.43798630691,-56707.090938936584,-34317.86260817797,-31626.01967168089,-8864.724202719237,-21231.095043551333,0.0,0.0,0.0,193.0,1.0,155.0,0.0,3.0,3.0,249.0,411.0,3.0,1017.0,1744252798.146896,0.0,2025-04-09 22:39:58.146,LEFT,28
226.0,12724.982228873043,1407.1987756727667,-59915.728558984825,-56769.184085033434,-34286.9948490852,-31583.238432793434,-9118.774130198257,-21208.028043273454,0.0,0.0,0.0,193.0,1.0,155.0,0.0,3.0,3.0,251.0,411.0,3.0,1019.0,1744252798.1469047,0.0,2025-04-09 22:39:58.146,LEFT,28
227.0,12676.121315493741,1414.574851343018,-59871.29329100768,-56699.9830841998,-34232.90362750335,-31536.567990370753,-9016.336085359584,-21154.47326355854,0.0,0.0,0.0,193.0,1.0,154.0,0.0,2.0,3.0,250.0,410.0,2.0,1018.0,1744252798.1469133,0.0,2025-04-09 22:39:58.146,LEFT,28
228.0,12595.789145921368,1389.9208772088143,-59911.548782771686,-56757.158846516475,-34254.316598691534,-31554.09175802371,-8984.596608233049,-21164.106865418777,0.0,0.0,0.0,193.0,1.0,155.0,0.0,2.0,3.0,252.0,411.0,2.0,1020.0,1744252798.1469219,0.0,2025-04-09 22:39:58.146,LEFT,28
229.0,12618.63262875469,1369.7372519656722,-59909.00068390378,-56708.67791279291,-34301.85875914797,-31602.19271209153,-8893.066214688566,-21206.463421161585,0.0,0.0,0.0,193.0,1.0,155.0,0.0,2.0,3.0,252.0,411.0,2.0,1020.0,1744252798.1469305,0.0,2025-04-09 22:39:58.146,LEFT,28
230.0,12728.580859730348,1403.868365748926,-59904.86561117955,-56742.674916109434,-34285.76550314015,-31577.78460714634,-9018.101873171554,-21195.086383233833,0.0,0.0,0.0,193.0,1.0,154.0,0.0,2.0,3.0,249.0,410.0,2.0,1017.0,1744252798.146939,0.0,2025-04-09 22:39:58.146,LEFT,28
231.0,12684.480867920027,1414.0160577316353,-59857.97165131231,-56693.72459575231,-34220.09607793046,-31516.652586061075,-9054.69167884489,-21135.071949371333,0.0,0.0,0.0,193.0,1.0,155.0,0.0,2.0,3.0,252.0,411.0,2.0,1020.0,1744252798.1469476,0.0,2025-04-09 22:39:58.146,LEFT,28
232.0,12606.719148960014,1400.2026796582556,-59904.99972164628,-56739.813892819155,-34251.07559574552,-31546.827441075737,-8946.352773470018,-21159.167129894155,0.0,0.0,0.0,193.0,1.0,154.0,0.0,2.0,3.0,251.0,410.0,2.0,1019.0,1744252798.1469564,0.0,2025-04-09 22:39:58.146,LEFT,28
233.0,12591.83288715278,1367.2338565866778,-59911.83935544961,-56719.138529198,-34294.817959644555,-31587.57467121776,-8933.925203552866,-21196.87452279026,0.0,0.0,0.0,193.0,1.0,155.0,0.0,2.0,3.0,251.0,411.0,2.0,1019.0,1744252798.1469648,0.0,2025-04-09 22:39:58.146,LEFT,28
234.0,12718.589629958824,1401.7673017701272,-59909.2912565817,-56721.79838678818,-34301.63524170342,-31589.809845663294,-8934.23812797524,-21208.83270607385,0.0,0.0,0.0,193.0,1.0,154.0,0.0,2.0,3.0,249.0,410.0,2.0,1017.0,1744252798.1469734,0.0,2025-04-09 22:39:58.146,LEFT,28
235.0,12701.781118128434,1420.90039502387,-59857.41285770093,-56704.29697087967,-34221.77245876461,-31511.62344355863,-9125.680819234947,-21137.776510450425,0.0,0.0,0.0,193.0,1.0,155.0,0.0,2.0,3.0,251.0,411.0,2.0,1019.0,1744252798.1469862,0.0,2025-04-09 22:39:58.146,LEFT,28
236.0,12633.340076606284,1416.385342643898,-59895.723747697324,-56724.90527926747,-34245.800584054065,-31539.54077238331,-8926.638534860436,-21145.577269265326,0.0,0.0,0.0,193.0,1.0,155.0,0.0,2.0,3.0,250.0,411.0,2.0,1018.0,1744252798.1469948,0.0,2025-04-09 22:39:58.146,LEFT,28
237.0,12579.695889913546,1363.970501896203,-59923.506966055276,-56749.00045979029,-34289.922927608844,-31592.939089887037,-8979.388651774962,-21200.473153647563,0.0,0.0,0.0,193.0,1.0,154.0,0.0,2.0,3.0,249.0,410.0,2.0,1017.0,1744252798.1470037,0.0,2025-04-09 22:39:58.147,LEFT,28
238.0,12692.84042034631,1383.0588916610352,-59924.91512595596,-56723.117139711045,-34319.18136110084,-31617.078973898766,-8869.37336556594,-21221.215572502086,0.0,0.0,0.0,193.0,1.0,155.0,0.0,2.0,3.0,249.0,411.0,2.0,1017.0,1744252798.1470122,0.0,2025-04-09 22:39:58.147,LEFT,28
239.0,12702.675187906647,1417.6146885889398,-59870.62273867402,-56729.71090432536,-34227.53920883408,-31523.46986811994,-9159.52136034028,-21147.030132654923,0.0,0.0,0.0,193.0,1.0,155.0,0.0,2.0,3.0,251.0,411.0,2.0,1019.0,1744252798.1470208,0.0,2025-04-09 22:39:58.147,LEFT,28
240.0,12639.97854470951,1417.055894977557,-59894.42734651892,-56718.69149430889,-34245.68882533179,-31547.788566087314,-8912.66869457587,-21158.80950198287,0.0,0.0,0.0,193.0,1.0,155.0,0.0,2.0,3.0,252.0,411.0,2.0,1020.0,1744252798.1470294,0.0,2025-04-09 22:39:58.147,LEFT,28
241.0,12582.176933548086,1379.6390747593732,-59916.8908496965,-56755.01307904877,-34277.629468158426,-31569.96149658698,-9006.322503843607,-21173.069914945354,0.0,0.0,0.0,193.0,1.0,154.0,0.0,2.0,3.0,250.0,410.0,2.0,1018.0,1744252798.147038,0.0,2025-04-09 22:39:58.147,LEFT,28
242.0,12678.043565516899,1383.997664928158,-59921.6964747544,-56709.25905814875,-34327.250340849205,-31624.343290846744,-8836.359839005452,-21228.47988945006,0.0,0.0,0.0,193.0,1.0,155.0,0.0,2.0,3.0,251.0,411.0,2.0,1019.0,1744252798.1470466,0.0,2025-04-09 22:39:58.147,LEFT,28
243.0,12703.301036751394,1409.8586332629484,-59890.918122639436,-56752.822608092145,-34252.12612773492,-31538.71375783846,-9176.48633438186,-21165.939708464113,0.0,0.0,0.0,193.0,1.0,155.0,0.0,2.0,3.0,249.0,411.0,2.0,1017.0,1744252798.1470551,0.0,2025-04-09 22:39:58.147,LEFT,28
244.0,12654.976565239022,1422.0403339910906,-59879.11640156704,-56698.75373825476,-34238.469211872725,-31530.309501923264,-8925.744465082225,-21139.363484306752,0.0,0.0,0.0,193.0,1.0,154.0,0.0,2.0,3.0,249.0,410.0,2.0,1017.0,1744252798.1470635,0.0,2025-04-09 22:39:58.147,LEFT,28
245.0,12583.160410304119,1391.41844408732,-59916.66733225195,-56762.72443088585,-34270.1863372548,-31560.797281360305,-9008.78119573369,-21169.024249198945,0.0,0.0,0.0,193.0,1.0,155.0,0.0,2.0,3.0,251.0,411.0,2.0,1019.0,1744252798.1470723,0.0,2025-04-09 22:39:58.147,LEFT,28
246.0,12658.642251329691,1389.093862663968,-59917.337884585606,-56700.85480223356,-34322.8023437026,-31612.809790707804,-8833.610574437449,-21220.030930045956,0.0,0.0,0.0,193.0,1.0,154.0,0.0,2.0,3.0,250.0,410.0,2.0,1018.0,1744252798.147081,0.0,2025-04-09 22:39:58.147,LEFT,28
247.0,12713.918115367665,1413.4349123757975,-59898.85299192107,-56756.17536976044,-34262.11735750644,-31544.033473018822,-9142.33286885415,-21167.66079278717,0.0,0.0,0.0,193.0,1.0,155.0,0.0,2.0,3.0,251.0,411.0,2.0,1019.0,1744252798.5566995,0.0,2025-04-09 22:39:58.556,LEFT,28
248.0,12659.335155407805,1416.385342643898,-59880.0328230897,-56700.13954641099,-34240.2349996847,-31533.99753975839,-8961.350793999529,-21148.23712685551,0.0,0.0,0.0,193.0,1.0,155.0,0.0,2.0,3.0,251.0,411.0,2.0,1019.0,1744252798.556736,0.0,2025-04-09 22:39:58.556,LEFT,28
249.0,12588.033090595376,1394.5700400555183,-59920.80240497618,-56769.98874783382,-34269.11345352095,-31566.29581049631,-9006.344855588062,-21190.370165153763,0.0,0.0,0.0,193.0,1.0,155.0,0.0,2.0,3.0,249.0,411.0,2.0,1017.0,1744252798.5567563,0.0,2025-04-09 22:39:58.556,LEFT,28
250.0,12635.9328789631,1383.4388713167752,-59915.68385549592,-56708.27558139272,-34319.15900935639,-31617.704822743515,-8867.696984731792,-21238.359360499308,0.0,0.0,0.0,193.0,1.0,154.0,0.0,2.0,3.0,250.0,410.0,2.0,1018.0,1744252798.5568044,0.0,2025-04-09 22:39:58.556,LEFT,28
251.0,12723.99875211701,1413.9490024982695,-59908.039558892204,-56755.66127963797,-34287.28542176312,-31568.642743664117,-9084.218333270352,-21194.63934834473,0.0,0.0,0.0,193.0,1.0,154.0,0.0,2.0,3.0,251.0,410.0,2.0,1019.0,1744252798.556822,0.0,2025-04-09 22:39:58.556,LEFT,28
252.0,12674.98137652652,1420.609822345951,-59869.84042761808,-56700.47482257782,-34239.8326682845,-31532.81289730226,-9028.607193065547,-21162.274022373444,0.0,0.0,0.0,193.0,1.0,154.0,0.0,2.0,3.0,250.0,410.0,2.0,1018.0,1744252798.5568364,0.0,2025-04-09 22:39:58.556,LEFT,28
253.0,12613.49172752997,1415.4912728656857,-59902.76454720075,-56750.56508190216,-34256.12708999242,-31555.34345571321,-8984.037814621666,-21184.782229039934,0.0,0.0,0.0,193.0,1.0,155.0,0.0,2.0,3.0,252.0,411.0,2.0,1020.0,1744252798.5568457,0.0,2025-04-09 22:39:58.556,LEFT,28
254.0,12630.8813847162,1400.7614732696384,-59890.985177872804,-56695.155107397455,-34289.40883748637,-31585.987697361434,-8898.989426969221,-21200.316691436376,0.0,0.0,0.0,193.0,1.0,155.0,0.0,2.0,3.0,250.0,411.0,2.0,1018.0,1744252798.5568545,0.0,2025-04-09 22:39:58.556,LEFT,28
255.0,12736.158101100697,1424.700191581272,-59899.52354425473,-56729.57679385863,-34293.5439102106,-31576.3540955012,-8991.905628669934,-21197.81329605738,0.0,0.0,0.0,193.0,1.0,155.0,0.0,2.0,3.0,251.0,411.0,2.0,1019.0,1744252798.5568633,0.0,2025-04-09 22:39:58.556,LEFT,28
0.0,12700.440013461115,1438.1782934878224,-59852.71899136532,-56694.797479486166,-34227.96389197873,-31515.0879639492,-9087.7946123832,-21140.101091873777,0.0,0.0,0.0,193.0,1.0,155.0,0.0,2.0,3.0,250.0,411.0,2.0,1018.0,1744252798.5568724,0.0,2025-04-09 22:39:58.556,LEFT,28
1.0,12636.625783041214,1431.4280666623197,-59888.41472726044,-56729.30857292516,-34246.985226510194,-31540.457193905975,-8943.491750179739,-21161.93874620661,0.0,0.0,0.0,193.0,1.0,155.0,0.0,2.0,3.0,249.0,411.0,2.0,1017.0,1744252798.5568812,0.0,2025-04-09 22:39:58.556,LEFT,28
2.0,12613.648189741158,1395.6652755338282,-59900.30585531067,-56719.65261932047,-34292.13575030991,-31582.143197315123,-8941.457741434306,-21200.2049327141,0.0,0.0,0.0,193.0,1.0,155.0,0.0,2.0,3.0,252.0,411.0,2.0,1020.0,1744252798.55689,0.0,2025-04-09 22:39:58.556,LEFT,28
3.0,12730.927792898154,1420.1851392013002,-59903.368044301045,-56718.69149430889,-34309.86068366298,-31596.44831376652,-8909.450043374305,-21222.601380658314,0.0,0.0,0.0,193.0,1.0,155.0,0.0,2.0,3.0,249.0,411.0,2.0,1017.0,1744252798.5568993,0.0,2025-04-09 22:39:58.556,LEFT,28
4.0,12717.628504947246,1443.8556365794702,-59847.95806979634,-56703.961694712845,-34221.057202942044,-31506.37078361163,-9125.077322134654,-21139.31878081784,0.0,0.0,0.0,193.0,1.0,155.0,0.0,2.0,3.0,251.0,411.0,2.0,1019.0,1744252798.5569084,0.0,2025-04-09 22:39:58.556,LEFT,28
5.0,12655.758876294956,1442.089848767501,-59876.32243351012,-56710.80132851617,-34236.30109266056,-31529.974225756436,-8899.257647902687,-21148.259478599964,0.0,0.0,0.0,193.0,1.0,155.0,0.0,2.0,3.0,248.0,411.0,2.0,1016.0,1744252798.5569172,0.0,2025-04-09 22:39:58.556,LEFT,28
6.0,12608.97667515,1404.7177320382277,-59896.19313433089,-56733.30953518266,-34273.60615415647,-31569.33564774223,-8978.606340719025,-21192.046545987912,0.0,0.0,0.0,193.0,1.0,155.0,0.0,2.0,3.0,251.0,411.0,2.0,1019.0,1744252798.556926,0.0,2025-04-09 22:39:58.556,LEFT,28
7.0,12718.053188091897,1418.8216827895264,-59899.791765188194,-56698.91020046594,-34310.91121565238,-31602.19271209153,-8840.651373940871,-21214.91238056569,0.0,0.0,0.0,193.0,1.0,155.0,0.0,2.0,3.0,250.0,411.0,2.0,1018.0,1744252798.556935,0.0,2025-04-09 22:39:58.556,LEFT,28
8.0,12711.03474033293,1422.353258413465,-59874.489590464786,-56740.238575963805,-34246.515839876636,-31532.94700776899,-9164.036412720254,-21164.57625205234,0.0,0.0,0.0,193.0,1.0,155.0,0.0,2.0,3.0,250.0,411.0,2.0,1018.0,1744252798.556944,0.0,2025-04-09 22:39:58.556,LEFT,28
9.0,12658.55284435187,1440.2123022332553,-59877.507075966256,-56706.2862761362,-34243.230133441706,-31535.718624081448,-8917.47431963376,-21158.51892930495,0.0,0.0,0.0,193.0,1.0,155.0,0.0,2.0,3.0,252.0,411.0,2.0,1020.0,1744252798.5569575,0.0,2025-04-09 22:39:58.556,LEFT,28
10.0,12594.246875553952,1401.2979151365657,-59902.89865766748,-56750.54273015771,-34268.86758433194,-31560.640819149117,-8998.298227584151,-21185.251615673496,0.0,0.0,0.0,193.0,1.0,155.0,0.0,2.0,3.0,250.0,411.0,2.0,1018.0,1744252798.5569663,0.0,2025-04-09 22:39:58.556,LEFT,28
11.0,12689.934693567122,1403.8907174933813,-59906.3408263136,-56697.01030218724,-34320.5001140237,-31606.841874938236,-8809.582449147994,-21220.410909701695,0.0,0.0,0.0,193.0,1.0,155.0,0.0,2.0,3.0,251.0,411.0,2.0,1019.0,1744252798.5569751,0.0,2025-04-09 22:39:58.556,LEFT,28
12.0,12723.216441061073,1427.6953253382833,-59879.40697424495,-56745.357125444076,-34252.304941690556,-31523.581626842217,-9152.61467130359,-21151.52283329044,0.0,0.0,0.0,193.0,1.0,154.0,0.0,2.0,3.0,250.0,410.0,2.0,1018.0,1744252798.556984,0.0,2025-04-09 22:39:58.556,LEFT,28
13.0,12665.41482989965,1430.3104794395542,-59872.61204393054,-56696.473860320315,-34244.414775897836,-31524.833324531715,-8925.297430193119,-21143.766777964447,0.0,0.0,0.0,193.0,1.0,155.0,0.0,2.0,3.0,252.0,411.0,2.0,1020.0,1744252798.5569928,0.0,2025-04-09 22:39:58.556,LEFT,28
14.0,12591.721128430501,1395.2852958780882,-59912.82283220564,-56767.03831756572,-34273.40498845637,-31559.456176692987,-9001.49452704126,-21183.23995867252,0.0,0.0,0.0,193.0,1.0,154.0,0.0,2.0,3.0,249.0,410.0,2.0,1017.0,1744252798.5570016,0.0,2025-04-09 22:39:58.557,LEFT,28
15.0,12657.524664106926,1389.7197115087167,-59909.447718792886,-56702.03944468969,-34322.89175068042,-31612.228645351966,-8820.512452186638,-21229.061034805898,0.0,0.0,0.0,193.0,1.0,155.0,0.0,2.0,3.0,251.0,411.0,2.0,1019.0,1744252798.557011,0.0,2025-04-09 22:39:58.557,LEFT,28
16.0,12723.931696883643,1423.4261421473198,-59893.488573251794,-56758.11997152805,-34266.87827907542,-31550.560182399775,-9103.32907477964,-21185.229263929043,0.0,0.0,0.0,193.0,1.0,155.0,0.0,2.0,3.0,252.0,411.0,2.0,1020.0,1744252798.5570197,0.0,2025-04-09 22:39:58.557,LEFT,28
17.0,12673.50616139247,1429.349354427976,-59862.821979859116,-56694.48455506379,-34229.48381060169,-31520.452382618474,-8948.00680255971,-21134.826080182323,0.0,0.0,0.0,193.0,1.0,155.0,0.0,2.0,3.0,252.0,411.0,2.0,1020.0,1744252798.5570283,0.0,2025-04-09 22:39:58.557,LEFT,28
18.0,12602.092337857765,1404.3377523824875,-59905.67027397994,-56763.596148919605,-34259.21163072725,-31549.353188199188,-8975.991186617755,-21165.738542764015,0.0,0.0,0.0,193.0,1.0,154.0,0.0,2.0,3.0,250.0,410.0,2.0,1018.0,1744252798.557037,0.0,2025-04-09 22:39:58.557,LEFT,28
19.0,12637.653963286159,1393.4748045772083,-59898.47301226533,-56703.201735401366,-34306.55262548359,-31596.180092833056,-8848.049801355577,-21200.607264114293,0.0,0.0,0.0,193.0,1.0,155.0,0.0,2.0,3.0,249.0,411.0,2.0,1017.0,1744252798.5570471,0.0,2025-04-09 22:39:58.557,LEFT,28
20.0,12718.388464258727,1410.3727233854204,-59907.79368970319,-56764.51257044227,-34293.29804102159,-31574.945935600514,-9036.385600135995,-21193.76763031097,0.0,0.0,0.0,193.0,1.0,155.0,0.0,2.0,3.0,252.0,411.0,2.0,1020.0,1744252798.557056,0.0,2025-04-09 22:39:58.557,LEFT,28
21.0,12676.434239916116,1424.7225433257274,-59857.61402340103,-56704.40872960195,-34227.31569138953,-31518.418373873043,-9016.06786442612,-21133.775548192927,0.0,0.0,0.0,193.0,1.0,155.0,0.0,2.0,3.0,250.0,411.0,2.0,1018.0,1744252798.5570645,0.0,2025-04-09 22:39:58.557,LEFT,28
22.0,12601.913523902122,1407.1317204394009,-59905.55851525766,-56764.356108231084,-34259.52455514963,-31556.86337433617,-8945.145779269431,-21171.728810278037,0.0,0.0,0.0,193.0,1.0,155.0,0.0,2.0,3.0,250.0,411.0,2.0,1018.0,1744252798.557073,0.0,2025-04-09 22:39:58.557,LEFT,28
23.0,12614.519907774915,1383.640037016873,-59898.62947447652,-56723.22889843332,-34297.45546549028,-31593.475531753964,-8895.591961812015,-21200.897836792214,0.0,0.0,0.0,193.0,1.0,156.0,0.0,2.0,3.0,252.0,412.0,2.0,1020.0,1744252798.557082,0.0,2025-04-09 22:39:58.557,LEFT,28
24.0,12726.32333354036,1404.7624355271382,-59901.468146022344,-56746.69823011139,-34301.00939285867,-31590.368639274675,-8940.518968167182,-21202.86479030428,0.0,0.0,0.0,193.0,1.0,154.0,0.0,2.0,3.0,250.0,410.0,2.0,1018.0,1744252798.5570948,0.0,2025-04-09 22:39:58.557,LEFT,28
25.0,12687.476001677038,1418.4193513893308,-59853.25543323225,-56720.30081990967,-34227.67331930081,-31524.676862320528,-9069.734402863312,-21145.979600665523,0.0,0.0,0.0,193.0,1.0,155.0,0.0,2.0,3.0,251.0,411.0,2.0,1019.0,1744252798.5571036,0.0,2025-04-09 22:39:58.557,LEFT,28
26.0,12624.555841035348,1417.5029298666634,-59888.83941040509,-56746.85469232258,-34248.37103466642,-31550.470775421953,-8908.75713929619,-21164.151568907688,0.0,0.0,0.0,193.0,1.0,155.0,0.0,2.0,3.0,252.0,411.0,2.0,1020.0,1744252798.5571125,0.0,2025-04-09 22:39:58.557,LEFT,28
27.0,12591.497610985949,1376.5545340245408,-59908.35248331458,-56750.162750501964,-34296.53904396761,-31593.900214898615,-8946.15160776992,-21202.753031582004,0.0,0.0,0.0,193.0,1.0,154.0,0.0,2.0,3.0,250.0,410.0,2.0,1018.0,1744252798.5571215,0.0,2025-04-09 22:39:58.557,LEFT,28
28.0,12705.737376897023,1395.4864615781858,-59914.409806061965,-56741.624384120034,-34319.002547145195,-31613.949729675023,-8876.347109835997,-21225.574162670873,0.0,0.0,0.0,193.0,1.0,155.0,0.0,2.0,3.0,252.0,411.0,2.0,1020.0,1744252798.55713,0.0,2025-04-09 22:39:58.557,LEFT,28
29.0,12685.821972587344,1411.646772819373,-59867.96288108383,-56742.898433553986,-34234.691767059776,-31528.00727224437,-9116.963638897376,-21145.174937865133,0.0,0.0,0.0,193.0,1.0,154.0,0.0,2.0,3.0,250.0,410.0,2.0,1018.0,1744252798.5571387,0.0,2025-04-09 22:39:58.557,LEFT,28
30.0,12630.25553587145,1419.6263455899175,-59884.32435802512,-56732.683686337914,-34243.87833403091,-31541.843002062204,-8884.527848306638,-21153.936821691612,0.0,0.0,0.0,193.0,1.0,155.0,0.0,2.0,3.0,252.0,411.0,2.0,1020.0,1744252798.5571473,0.0,2025-04-09 22:39:58.557,LEFT,28
31.0,12579.092392813254,1379.4602608037308,-59906.05025363568,-56762.56796867466,-34282.7927211276,-31577.78460714634,-8965.77643940168,-21193.410002399683,0.0,0.0,0.0,193.0,1.0,154.0,0.0,2.0,3.0,252.0,410.0,2.0,1020.0,1744252798.557156,0.0,2025-04-09 22:39:58.557,LEFT,28
32.0,12695.187353514119,1394.6594470333396,-59902.60808498956,-56716.92570649692,-34317.236759333224,-31608.518255772386,-8809.068359025521,-21209.99499678552,0.0,0.0,0.0,193.0,1.0,154.0,0.0,2.0,3.0,249.0,410.0,2.0,1017.0,1744252798.5571644,0.0,2025-04-09 22:39:58.557,LEFT,28
33.0,12712.822879889356,1419.1793107008114,-59859.15629376844,-56744.73127659933,-34229.75203153516,-31515.870275005138,-9124.429121545449,-21125.013664366445,0.0,0.0,0.0,193.0,1.0,155.0,0.0,2.0,3.0,251.0,411.0,2.0,1019.0,1744252798.5571733,0.0,2025-04-09 22:39:58.557,LEFT,28
34.0,12648.986297724998,1419.2463659341772,-59871.1815322854,-56716.29985765217,-34238.603322339455,-31540.39013867261,-8872.36849932295,-21147.052484399377,0.0,0.0,0.0,193.0,1.0,155.0,0.0,2.0,3.0,252.0,411.0,2.0,1020.0,1744252798.5571816,0.0,2025-04-09 22:39:58.557,LEFT,28
35.0,12578.06421256831,1381.4942695491636,-59907.50311702528,-56774.25793102478,-34277.31654373605,-31574.364790244676,-8982.652006465436,-21191.554807609893,0.0,0.0,0.0,193.0,1.0,154.0,0.0,2.0,3.0,250.0,410.0,2.0,1018.0,1744252798.5571904,0.0,2025-04-09 22:39:58.557,LEFT,28
36.0,12675.674280604635,1394.5253365666076,-59897.95892214286,-56702.82175574562,-34320.678927979345,-31613.234473852455,-8793.824469307003,-21215.471174177073,0.0,0.0,0.0,193.0,1.0,155.0,0.0,2.0,3.0,251.0,411.0,2.0,1019.0,1744252798.5571992,0.0,2025-04-09 22:39:58.557,LEFT,28
37.0,12717.494394480515,1421.4368368907974,-59870.68979390738,-56752.88966332551,-34251.20970621225,-31535.875086292635,-9125.054970390198,-21160.932917706123,0.0,0.0,0.0,193.0,1.0,154.0,0.0,2.0,3.0,252.0,410.0,2.0,1020.0,1744252798.5572076,0.0,2025-04-09 22:39:58.557,LEFT,28
38.0,12664.721925821535,1433.126799240923,-59850.997907042256,-56689.16483988343,-34227.15922917834,-31522.2405221749,-8901.626932814948,-21138.51411801745,0.0,0.0,0.0,193.0,1.0,155.0,0.0,2.0,3.0,250.0,411.0,2.0,1018.0,1744252798.5572164,0.0,2025-04-09 22:39:58.557,LEFT,28
39.0,12589.86593364071,1400.225031402711,-59896.014320375245,-56762.21034076338,-34258.56343013805,-31555.47756617994,-8962.133105055465,-21167.52668232044,0.0,0.0,0.0,193.0,1.0,154.0,0.0,2.0,3.0,252.0,410.0,2.0,1020.0,1744252798.5572288,0.0,2025-04-09 22:39:58.557,LEFT,28
40.0,12657.301146662372,1394.257115633144,-59888.392375515985,-56692.04821491816,-34303.42338125985,-31597.25297656691,-8783.766184302114,-21196.740412323525,0.0,0.0,0.0,193.0,1.0,154.0,0.0,2.0,3.0,248.0,410.0,2.0,1016.0,1744252798.5572376,0.0,2025-04-09 22:39:58.557,LEFT,28
41.0,12724.08815909483,1416.9217845108253,-59882.62562544652,-56752.57673890314,-34267.839404087,-31545.598095130696,-9051.69654508788,-21165.582080552827,0.0,0.0,0.0,193.0,1.0,155.0,0.0,2.0,3.0,252.0,411.0,2.0,1020.0,1744252798.557246,0.0,2025-04-09 22:39:58.557,LEFT,28
42.0,12681.351623696282,1434.3337934415094,-59838.79385456966,-56682.16874386892,-34220.78898200858,-31509.56708306874,-8943.000011801721,-21129.148737090676,0.0,0.0,0.0,193.0,1.0,155.0,0.0,2.0,3.0,250.0,411.0,2.0,1018.0,1744252798.5572543,0.0,2025-04-09 22:39:58.557,LEFT,28
43.0,12610.54129726187,1409.903336751859,-59892.14746858448,-56759.90811108448,-34257.557601637556,-31554.069406279257,-8940.8095408451,-21182.882330761237,0.0,0.0,0.0,193.0,1.0,155.0,0.0,2.0,3.0,251.0,411.0,2.0,1019.0,1744252798.5572631,0.0,2025-04-09 22:39:58.557,LEFT,28
44.0,12629.875556215711,1386.411653329331,-59892.75096568477,-56710.041369204686,-34304.98800337172,-31601.432752780052,-8839.46673148474,-21212.90072356471,0.0,0.0,0.0,193.0,1.0,155.0,0.0,2.0,3.0,252.0,411.0,2.0,1020.0,1744252798.5572717,0.0,2025-04-09 22:39:58.557,LEFT,28
45.0,12714.700426423602,1401.8120052590377,-59901.110518111054,-56760.66807039596,-34298.662459690866,-31580.86914788117,-8987.390576289961,-21189.72196456456,0.0,0.0,0.0,193.0,1.0,154.0,0.0,2.0,3.0,249.0,410.0,2.0,1017.0,1744252798.5572803,0.0,2025-04-09 22:39:58.557,LEFT,28
46.0,12674.13201023722,1414.5301478541076,-59850.39440994197,-56708.499098837274,-34230.82491526901,-31522.776964041826,-9013.45271032485,-21137.50828951696,0.0,0.0,0.0,193.0,1.0,155.0,0.0,2.0,3.0,252.0,411.0,2.0,1020.0,1744252798.557289,0.0,2025-04-09 22:39:58.557,LEFT,28
47.0,12606.741500704467,1405.030656460602,-59884.8831516365,-56747.52524465624,-34246.20291545426,-31539.67488285004,-8902.85627875999,-21150.360542578765,0.0,0.0,0.0,193.0,1.0,155.0,0.0,2.0,3.0,249.0,411.0,2.0,1017.0,1744252798.5572972,0.0,2025-04-09 22:39:58.557,LEFT,28
48.0,12596.660863955125,1372.5982752559514,-59894.539105241194,-56724.97233450083,-34293.901538121885,-31584.40072350511,-8874.46956330175,-21186.61507208527,0.0,0.0,0.0,193.0,1.0,154.0,0.0,2.0,3.0,250.0,410.0,2.0,1018.0,1744252798.557306,0.0,2025-04-09 22:39:58.557,LEFT,28
49.0,12714.052225834397,1401.029694203102,-59891.65573020646,-56728.99564850279,-34299.24360504671,-31574.945935600514,-8903.459775860283,-21190.504275620497,0.0,0.0,0.0,193.0,1.0,154.0,0.0,2.0,3.0,249.0,410.0,2.0,1017.0,1744252798.5573144,0.0,2025-04-09 22:39:58.557,LEFT,28
50.0,12677.708289350068,1405.1200634384231,-59851.199072742354,-56714.13173844001,-34232.523647847614,-31510.61761505814,-9071.634301142014,-21138.603524995273,0.0,0.0,0.0,193.0,1.0,155.0,0.0,2.0,3.0,252.0,411.0,2.0,1020.0,1744252798.5573232,0.0,2025-04-09 22:39:58.557,LEFT,28
51.0,12617.515041531926,1406.0364849610908,-59882.71503242434,-56733.93538402741,-34247.32050267702,-31534.086946736214,-8886.807726241079,-21146.605449510273,0.0,0.0,0.0,193.0,1.0,155.0,0.0,2.0,3.0,251.0,411.0,2.0,1019.0,1744252798.5573316,0.0,2025-04-09 22:39:58.557,LEFT,28
52.0,12577.952453846032,1367.4797257756861,-59899.590599488096,-56742.92078529845,-34285.29611650659,-31574.767121644873,-8926.772645327168,-21180.42363887115,0.0,0.0,0.0,193.0,1.0,155.0,0.0,2.0,3.0,252.0,411.0,2.0,1020.0,1744252798.55734,0.0,2025-04-09 22:39:58.557,LEFT,28
53.0,12704.351568740794,1400.5156040806298,-59893.913256396445,-56714.04233146219,-34305.61385221647,-31592.648517209116,-8826.569774934027,-21204.742336838524,0.0,0.0,0.0,193.0,1.0,155.0,0.0,2.0,3.0,250.0,411.0,2.0,1018.0,1744252798.5573487,0.0,2025-04-09 22:39:58.557,LEFT,28
54.0,12693.220400002052,1413.9937059871802,-59853.54600591016,-56729.66620083645,-34229.528514090605,-31513.85861800416,-9107.08416784813,-21144.392626809196,0.0,0.0,0.0,193.0,1.0,155.0,0.0,2.0,3.0,249.0,411.0,2.0,1017.0,1744252798.5573616,0.0,2025-04-09 22:39:58.557,LEFT,28
55.0,12635.530547562903,1415.3348106544986,-59875.383660242995,-56719.87613676502,-34244.057147986554,-31534.95866476997,-8864.098353874488,-21146.69485648809,0.0,0.0,0.0,193.0,1.0,155.0,0.0,2.0,3.0,251.0,411.0,2.0,1019.0,1744252798.5573704,0.0,2025-04-09 22:39:58.557,LEFT,28
56.0,12576.38783173416,1376.8898101913703,-59907.61487574755,-56764.75843963128,-34288.447712474794,-31572.040208821323,-8964.77061090119,-21180.110714448776,0.0,0.0,0.0,193.0,1.0,154.0,0.0,2.0,3.0,249.0,410.0,2.0,1017.0,1744252798.5573792,0.0,2025-04-09 22:39:58.557,LEFT,28
57.0,12695.992016314509,1405.9247262388142,-59888.45943074935,-56697.814964987636,-34310.24066331871,-31593.38612477614,-8786.873076781401,-21195.28754893393,0.0,0.0,0.0,193.0,1.0,155.0,0.0,2.0,3.0,252.0,411.0,2.0,1020.0,1744252798.5573876,0.0,2025-04-09 22:39:58.557,LEFT,28
58.0,12716.555621213392,1431.8527498069705,-59853.70246812135,-56735.835282306114,-34236.16698219383,-31508.628309801617,-9117.321266808662,-21134.960190649057,0.0,0.0,0.0,193.0,1.0,154.0,0.0,2.0,3.0,250.0,410.0,2.0,1018.0,1744252798.5573962,0.0,2025-04-09 22:39:58.557,LEFT,28
59.0,12671.628614858224,1445.1073342689676,-59843.64418311646,-56681.81111595764,-34225.63931055538,-31506.773115011827,-8870.110973132965,-21126.354769033762,0.0,0.0,0.0,193.0,1.0,155.0,0.0,2.0,3.0,251.0,411.0,2.0,1019.0,1744252798.5574048,0.0,2025-04-09 22:39:58.557,LEFT,28
60.0,12594.716262187512,1403.287220393088,-59887.967692371334,-56751.012116791266,-34267.95116280927,-31552.974170800946,-8966.312881268606,-21184.15638019519,0.0,0.0,0.0,193.0,1.0,154.0,0.0,2.0,3.0,249.0,410.0,2.0,1017.0,1744252798.557413,0.0,2025-04-09 22:39:58.557,LEFT,28
61.0,12686.693690621101,1419.8945665233812,-59873.26024451974,-56675.84320018807,-34308.36311678447,-31591.195653819523,-8780.860457522924,-21214.35358695431,0.0,0.0,0.0,193.0,1.0,155.0,0.0,2.0,3.0,250.0,411.0,2.0,1018.0,1744252798.557422,0.0,2025-04-09 22:39:58.557,LEFT,28
62.0,12731.777159187455,1436.1442847423893,-59862.03966880318,-56740.01505851925,-34258.20580222676,-31527.023795488334,-9103.530240479737,-21164.263327629964,0.0,0.0,0.0,193.0,1.0,155.0,0.0,2.0,3.0,252.0,411.0,2.0,1020.0,1744252798.5574307,0.0,2025-04-09 22:39:58.557,LEFT,28
63.0,12679.518780650948,1440.1899504888,-59840.783159826184,-56682.302854335656,-34228.14270593437,-31512.85278950367,-8904.376197382951,-21129.171088835134,0.0,0.0,0.0,193.0,1.0,154.0,0.0,2.0,3.0,250.0,410.0,2.0,1018.0,1744252798.5574393,0.0,2025-04-09 22:39:58.557,LEFT,28
64.0,12594.760965676423,1405.1200634384231,-59887.02891910421,-56758.835227350624,-34257.15527023736,-31544.636970119118,-8947.716229881791,-21161.51406306196,0.0,0.0,0.0,193.0,1.0,155.0,0.0,2.0,3.0,251.0,411.0,2.0,1019.0,1744252798.557448,0.0,2025-04-09 22:39:58.557,LEFT,28
65.0,12650.685030303603,1396.4475865897641,-59878.959939355846,-56689.36600558353,-34305.21152081627,-31587.64172645113,-8797.668969353315,-21193.499409377506,0.0,0.0,0.0,193.0,1.0,155.0,0.0,2.0,3.0,251.0,411.0,2.0,1019.0,1744252798.5574565,0.0,2025-04-09 22:39:58.557,LEFT,28
66.0,12721.09302533782,1417.190005444289,-59879.96576785634,-56752.554387158685,-34277.71887513624,-31553.15298475659,-9036.31854490263,-21177.18263592513,0.0,0.0,0.0,193.0,1.0,154.0,0.0,2.0,3.0,250.0,410.0,2.0,1018.0,1744252798.5574653,0.0,2025-04-09 22:39:58.557,LEFT,28
67.0,12667.784114811911,1422.0850374800013,-59845.834654073085,-56695.24451437528,-34235.831706027,-31519.290091906798,-8961.261387021708,-21144.057350642368,0.0,0.0,0.0,193.0,1.0,155.0,0.0,2.0,3.0,250.0,411.0,2.0,1018.0,1744252798.557474,0.0,2025-04-09 22:39:58.557,LEFT,28
68.0,12602.449965769049,1409.5680605850293,-59885.263131292246,-56753.98489880382,-34257.78111908211,-31547.453289920486,-8933.120540752476,-21179.216644670563,0.0,0.0,0.0,193.0,1.0,155.0,0.0,2.0,3.0,250.0,411.0,2.0,1018.0,1744252798.5574825,0.0,2025-04-09 22:39:58.557,LEFT,28
69.0,12612.128271118198,1377.0239206581023,-59892.728613940315,-56717.573907086124,-34312.31937555306,-31599.689316712538,-8854.554158992072,-21224.121299281276,0.0,0.0,0.0,193.0,1.0,154.0,0.0,2.0,3.0,252.0,410.0,2.0,1020.0,1744252798.557495,0.0,2025-04-09 22:39:58.557,LEFT,28
70.0,12717.740263669522,1407.4893483506858,-59892.08041335111,-56749.93923305741,-34301.92581438134,-31572.040208821323,-8976.482924995771,-21204.742336838524,0.0,0.0,0.0,193.0,1.0,154.0,0.0,2.0,3.0,251.0,410.0,2.0,1019.0,1744252798.5575037,0.0,2025-04-09 22:39:58.557,LEFT,28
71.0,12676.166018982653,1416.2959356660767,-59846.50520640674,-56712.1871366724,-34232.21072342524,-31516.227902916424,-9027.377847120506,-21145.152586120676,0.0,0.0,0.0,193.0,1.0,155.0,0.0,2.0,3.0,250.0,411.0,2.0,1018.0,1744252798.557512,0.0,2025-04-09 22:39:58.557,LEFT,28
72.0,12614.385797308183,1411.5350140970963,-59877.99881434427,-56749.08986676811,-34240.59262759598,-31535.584513614718,-8886.85242972999,-21153.489786802507,0.0,0.0,0.0,193.0,1.0,154.0,0.0,2.0,3.0,252.0,410.0,2.0,1020.0,1744252798.5575209,0.0,2025-04-09 22:39:58.557,LEFT,28
73.0,12594.358634276228,1369.5360862655743,-59891.409861017455,-56735.9917445173,-34289.18532004182,-31579.19276704702,-8878.738746492714,-21189.252577930998,0.0,0.0,0.0,193.0,1.0,154.0,0.0,2.0,3.0,250.0,410.0,2.0,1018.0,1744252798.5575292,0.0,2025-04-09 22:39:58.557,LEFT,28
74.0,12717.829670647345,1400.0462174470686,-59892.99683487378,-56735.54470962819,-34301.814055659066,-31580.64563043662,-8868.144019620899,-21194.080554733344,0.0,0.0,0.0,193.0,1.0,155.0,0.0,2.0,3.0,251.0,411.0,2.0,1019.0,1744252798.5575376,0.0,2025-04-09 22:39:58.557,LEFT,28
75.0,12700.909400094677,1423.381438658409,-59837.586860369076,-56714.46701460684,-34217.5256273181,-31496.75953349585,-9069.242664485297,-21122.107937587254,0.0,0.0,0.0,193.0,1.0,154.0,0.0,2.0,3.0,250.0,410.0,2.0,1018.0,1744252798.5575464,0.0,2025-04-09 22:39:58.557,LEFT,28
76.0,12629.8308527268,1416.0053629881577,-59878.691718422386,-56734.583584616616,-34249.17569746682,-31534.66809209205,-8869.261606843664,-21150.271135600942,0.0,0.0,0.0,193.0,1.0,154.0,0.0,2.0,3.0,250.0,410.0,2.0,1018.0,1744252798.5575552,0.0,2025-04-09 22:39:58.557,LEFT,28
77.0,12584.792087649357,1374.2970078345547,-59896.66252096445,-56750.65448887998,-34290.72759040923,-31571.43671172103,-8943.134122268453,-21189.632557586738,0.0,0.0,0.0,193.0,1.0,154.0,0.0,2.0,3.0,251.0,410.0,2.0,1019.0,1744252798.5575635,0.0,2025-04-09 22:39:58.557,LEFT,28
78.0,12707.011426330975,1403.6672000488281,-59885.464296992344,-56708.25322964826,-34310.17360808535,-31586.72530492846,-8814.879812583902,-21205.81522057238,0.0,0.0,0.0,193.0,1.0,154.0,0.0,2.0,3.0,248.0,410.0,2.0,1016.0,1744252798.5575724,0.0,2025-04-09 22:39:58.557,LEFT,28
79.0,12704.03864431842,1421.0568572350571,-59847.488683162774,-56732.95190727138,-34233.976511237204,-31501.341641109186,-9111.107481850086,-21137.575344750327,0.0,0.0,0.0,193.0,1.0,155.0,0.0,2.0,3.0,251.0,411.0,2.0,1019.0,1744252798.5575807,0.0,2025-04-09 22:39:58.557,LEFT,28
80.0,12641.721980777023,1418.1734822003225,-59867.94052933938,-56718.155052441965,-34248.25927594415,-31521.078231463223,-8870.669766744348,-21140.65988548516,0.0,0.0,0.0,193.0,1.0,154.0,0.0,2.0,3.0,250.0,410.0,2.0,1018.0,1744252798.5575895,0.0,2025-04-09 22:39:58.557,LEFT,28
81.0,12583.942721360056,1382.8800777053928,-59887.11832608203,-56755.88479708252,-34273.9414303233,-31548.459118420975,-8962.781305644668,-21166.453798586583,0.0,0.0,0.0,193.0,1.0,155.0,0.0,2.0,3.0,251.0,411.0,2.0,1019.0,1744252798.557598,0.0,2025-04-09 22:39:58.557,LEFT,28
82.0,12690.962873812065,1394.70415052225,-59877.775296899716,-56696.07152892012,-34309.81598017406,-31589.519272985373,-8773.93141674178,-21196.762764067982,0.0,0.0,0.0,193.0,1.0,154.0,0.0,2.0,3.0,249.0,410.0,2.0,1017.0,1744252798.5576067,0.0,2025-04-09 22:39:58.557,LEFT,28
83.0,12717.114414824775,1417.6817438223059,-59852.249604731755,-56749.15692200148,-34241.57610435201,-31515.266777904842,-9114.70611270739,-21145.33140007632,0.0,0.0,0.0,193.0,1.0,155.0,0.0,2.0,3.0,252.0,411.0,2.0,1020.0,1744252798.5576153,0.0,2025-04-09 22:39:58.557,LEFT,28
84.0,12660.832722286312,1424.2755084366213,-59849.50034016375,-56704.11815692403,-34235.76465079363,-31519.13362969561,-8874.111935390465,-21137.351827305774,0.0,0.0,0.0,193.0,1.0,154.0,0.0,2.0,3.0,251.0,410.0,2.0,1019.0,1744252798.557628,0.0,2025-04-09 22:39:58.557,LEFT,28
85.0,12592.034052852876,1389.4738423197082,-59886.82775340411,-56767.373593732555,-34268.8899360764,-31546.983903286924,-8957.841570120045,-21164.41978984115,0.0,0.0,0.0,193.0,1.0,155.0,0.0,2.0,3.0,251.0,411.0,2.0,1019.0,1744252798.5576365,0.0,2025-04-09 22:39:58.557,LEFT,28
86.0,12676.233074216017,1396.224069145211,-59872.746154397275,-56689.07543290561,-34309.83833191852,-31584.981868860945,-8774.758431286626,-21196.136915223233,0.0,0.0,0.0,193.0,1.0,154.0,0.0,2.0,3.0,249.0,410.0,2.0,1017.0,1744252798.557645,0.0,2025-04-09 22:39:58.557,LEFT,28
87.0,12725.988057373532,1419.4251798898197,-59867.09116305008,-56757.13649477202,-34267.057093031064,-31539.227847960934,-9085.291217004207,-21183.396420883706,0.0,0.0,0.0,193.0,1.0,155.0,0.0,2.0,3.0,252.0,411.0,2.0,1020.0,1744252798.5576537,0.0,2025-04-09 22:39:58.557,LEFT,28
88.0,12669.706364835069,1425.1695782148336,-59842.23602321578,-56698.95490395486,-34235.85405777145,-31523.91690300905,-8921.72115108027,-21161.581118295326,0.0,0.0,0.0,193.0,1.0,154.0,0.0,2.0,3.0,249.0,410.0,2.0,1017.0,1744252798.557662,0.0,2025-04-09 22:39:58.557,LEFT,28
89.0,12603.567552991815,1407.0199617171243,-59877.61883468853,-56759.66224189547,-34257.22232547073,-31531.0918129792,-8946.039849047644,-21147.477167544028,0.0,0.0,0.0,193.0,1.0,155.0,0.0,2.0,3.0,250.0,411.0,2.0,1018.0,1744252798.5576708,0.0,2025-04-09 22:39:58.557,LEFT,28
90.0,12647.9357657356,1390.971409198214,-59872.27676776371,-56696.69737776487,-34303.35632602648,-31577.002296090403,-8804.776824090102,-21177.674374303147,0.0,0.0,0.0,193.0,1.0,154.0,0.0,2.0,3.0,249.0,410.0,2.0,1017.0,1744252798.5576792,0.0,2025-04-09 22:39:58.557,LEFT,28
91.0,12730.167833586675,1414.0384094760907,-59877.55177945516,-56754.18606450392,-34282.25627926067,-31549.62140913265,-9016.470195826316,-21166.65496428668,0.0,0.0,0.0,193.0,1.0,155.0,0.0,2.0,3.0,252.0,411.0,2.0,1020.0,1744252798.5576875,0.0,2025-04-09 22:39:58.557,LEFT,28
92.0,12676.36718468275,1421.772113057627,-59842.392485426964,-56703.62641854602,-34231.96485423623,-31508.024812701326,-8969.665642936903,-21122.622027709727,0.0,0.0,0.0,193.0,1.0,154.0,0.0,2.0,3.0,250.0,410.0,2.0,1018.0,1744252798.5576963,0.0,2025-04-09 22:39:58.557,LEFT,28
93.0,12608.551992005348,1411.2667931636327,-59882.49151497979,-56758.276433739244,-34252.81903181303,-31534.086946736214,-8913.920392265367,-21154.13798739171,0.0,0.0,0.0,193.0,1.0,155.0,0.0,2.0,3.0,252.0,411.0,2.0,1020.0,1744252798.5577047,0.0,2025-04-09 22:39:58.557,LEFT,28
94.0,12617.44798629856,1379.7284817371944,-59886.17955281491,-56722.625401333025,-34299.80239865809,-31585.38420026114,-8854.688269458804,-21197.634482101737,0.0,0.0,0.0,193.0,1.0,154.0,0.0,2.0,3.0,250.0,410.0,2.0,1018.0,1744252798.8796885,0.0,2025-04-09 22:39:58.879,LEFT,28
95.0,12726.882127151744,1410.5738890855182,-59884.27965453621,-56745.4465324219,-34289.63235493092,-31568.173357030555,-8932.00295352971,-21178.52374059245,0.0,0.0,0.0,193.0,1.0,155.0,0.0,2.0,3.0,251.0,411.0,2.0,1019.0,1744252798.8797276,0.0,2025-04-09 22:39:58.879,LEFT,28
96.0,12685.486696420516,1419.4698833787304,-59839.531462136685,-56709.72844478231,-34222.577121565,-31509.790600513294,-9024.36036161904,-21121.21386780904,0.0,0.0,0.0,193.0,1.0,155.0,0.0,2.0,3.0,251.0,411.0,2.0,1019.0,1744252798.8797479,0.0,2025-04-09 22:39:58.879,LEFT,28
97.0,12621.292486344873,1412.7643600421382,-59879.742250411786,-56742.9431370429,-34249.60038061147,-31539.92075203905,-8888.797031497603,-21149.75704547847,0.0,0.0,0.0,193.0,1.0,155.0,0.0,2.0,3.0,253.0,411.0,2.0,1021.0,1744252798.8797655,0.0,2025-04-09 22:39:58.879,LEFT,28
98.0,12596.236180810474,1376.9792171691915,-59889.46525924984,-56730.672029336936,-34289.90057586438,-31578.63397343564,-8901.224601414753,-21182.65881331668,0.0,0.0,0.0,193.0,1.0,154.0,0.0,2.0,3.0,249.0,410.0,2.0,1017.0,1744252798.879783,0.0,2025-04-09 22:39:58.879,LEFT,28
99.0,12715.594496201813,1403.577793071007,-59891.70043369537,-56720.01024723175,-34306.150294083396,-31586.39002876163,-8858.018679382645,-21189.073763975357,0.0,0.0,0.0,193.0,1.0,155.0,0.0,2.0,3.0,252.0,411.0,2.0,1020.0,1744252798.87982,0.0,2025-04-09 22:39:58.879,LEFT,28
100.0,12695.634388403225,1418.1511304558671,-59844.359438939035,-56710.44370060488,-34226.935711733786,-31502.459228331954,-9089.22512402834,-21115.245952039477,0.0,0.0,0.0,193.0,1.0,155.0,0.0,2.0,3.0,250.0,411.0,2.0,1018.0,1744252798.8798292,0.0,2025-04-09 22:39:58.879,LEFT,28
101.0,12628.64621027067,1415.3124589100432,-59878.17762829991,-56715.40578787396,-34248.77336606662,-31531.76236531286,-8874.067231901554,-21133.99906563748,0.0,0.0,0.0,193.0,1.0,154.0,0.0,2.0,3.0,250.0,410.0,2.0,1018.0,1744252798.879838,0.0,2025-04-09 22:39:58.879,LEFT,28
102.0,12592.570494719803,1387.9762754412027,-59889.174686571925,-56724.793520545194,-34276.17660476883,-31555.432862691032,-8951.404267716916,-21158.764798493958,0.0,0.0,0.0,193.0,1.0,155.0,0.0,2.0,3.0,252.0,411.0,2.0,1020.0,1744252798.879847,0.0,2025-04-09 22:39:58.879,LEFT,28
103.0,12715.482737479537,1417.7264473112164,-59873.41670673093,-56666.38841228347,-34287.330125252025,-31569.559165186784,-8788.750623315647,-21161.670525273148,0.0,0.0,0.0,193.0,1.0,154.0,0.0,2.0,3.0,249.0,410.0,2.0,1017.0,1744252798.879856,0.0,2025-04-09 22:39:58.879,LEFT,28
104.0,12707.950199598099,1425.773075315127,-59843.018334271714,-56699.334883610594,-34211.758877248634,-31496.71483000694,-9094.298970019696,-21104.78533563439,0.0,0.0,0.0,193.0,1.0,155.0,0.0,2.0,3.0,251.0,411.0,2.0,1019.0,1744252798.8798647,0.0,2025-04-09 22:39:58.879,LEFT,28
105.0,12639.911489476144,1414.7313135542051,-59864.90069209346,-56681.40878455744,-34227.11452568943,-31523.402812886576,-8848.496836244683,-21122.152641076165,0.0,0.0,0.0,193.0,1.0,154.0,0.0,2.0,3.0,250.0,410.0,2.0,1018.0,1744252798.8798735,0.0,2025-04-09 22:39:58.879,LEFT,28
106.0,12580.254683524929,1384.444699817264,-59896.34959654207,-56727.9898200023,-34261.44680517278,-31555.05288303529,-8954.086477051555,-21156.060237414866,0.0,0.0,0.0,193.0,1.0,155.0,0.0,2.0,3.0,252.0,411.0,2.0,1020.0,1744252798.8798823,0.0,2025-04-09 22:39:58.879,LEFT,28
107.0,12684.70438536458,1403.3989791153645,-59883.385584758,-56655.659574944926,-34298.55070096859,-31595.129560843656,-8764.87896023738,-21189.43139188664,0.0,0.0,0.0,193.0,1.0,154.0,0.0,2.0,3.0,249.0,410.0,2.0,1017.0,1744252798.8798916,0.0,2025-04-09 22:39:58.879,LEFT,28
108.0,12719.394292759216,1422.733238069205,-59862.28553799219,-56707.314456381144,-34236.435203127294,-31510.75172552487,-9105.273676547251,-21112.56374270484,0.0,0.0,0.0,193.0,1.0,155.0,0.0,2.0,3.0,252.0,411.0,2.0,1020.0,1744252798.8799005,0.0,2025-04-09 22:39:58.879,LEFT,28
109.0,12660.340983908294,1422.3756101579202,-59859.871549591015,-56657.85004590155,-34233.95415949275,-31508.27068189033,-8882.717357005758,-21091.821323850316,0.0,0.0,0.0,193.0,1.0,154.0,0.0,2.0,3.0,249.0,410.0,2.0,1017.0,1744252798.8799093,0.0,2025-04-09 22:39:58.879,LEFT,28
110.0,12585.999081849943,1395.5535168115518,-59896.59546573109,-56722.11131121055,-34257.71406384875,-31537.931446782524,-8957.841570120045,-21123.89607714368,0.0,0.0,0.0,193.0,1.0,155.0,0.0,2.0,3.0,252.0,411.0,2.0,1020.0,1744252798.879918,0.0,2025-04-09 22:39:58.879,LEFT,28
111.0,12658.239919929496,1395.0394266890796,-59881.75390741276,-56644.66251667291,-34294.08035207753,-31582.92550837106,-8763.247282892142,-21165.38091485273,0.0,0.0,0.0,193.0,1.0,154.0,0.0,2.0,3.0,250.0,410.0,2.0,1018.0,1744252798.8799267,0.0,2025-04-09 22:39:58.879,LEFT,28
112.0,12715.32627526835,1408.4281216178085,-59878.91523586694,-56710.44370060488,-34256.81999407053,-31534.33281592522,-9049.014335753243,-21137.955324406066,0.0,0.0,0.0,193.0,1.0,155.0,0.0,2.0,3.0,253.0,411.0,2.0,1021.0,1744252798.8799355,0.0,2025-04-09 22:39:58.879,LEFT,28
113.0,12668.879350290223,1420.5204153681298,-59840.55964238163,-56641.44386547135,-34214.39638309436,-31496.08898116219,-8903.727996793747,-21083.64058537967,0.0,0.0,0.0,193.0,1.0,154.0,0.0,2.0,3.0,250.0,410.0,2.0,1018.0,1744252798.8799448,0.0,2025-04-09 22:39:58.879,LEFT,28
114.0,12605.06511987032,1408.5398803400851,-59876.36713699903,-56702.82175574562,-34235.09409845997,-31520.22886517392,-8912.221659686764,-21111.93789386009,0.0,0.0,0.0,193.0,1.0,154.0,0.0,2.0,3.0,252.0,410.0,2.0,1020.0,1744252798.8799584,0.0,2025-04-09 22:39:58.879,LEFT,28
115.0,12634.748236506968,1388.6915312637725,-59875.09308756508,-56648.19409229686,-34283.46327346126,-31573.135444299634,-8792.55041987305,-21159.815330483358,0.0,0.0,0.0,193.0,1.0,154.0,0.0,2.0,3.0,250.0,410.0,2.0,1018.0,1744252798.8799672,0.0,2025-04-09 22:39:58.879,LEFT,28
116.0,12718.835499147834,1406.639982061384,-59884.52552372522,-56703.62641854602,-34271.90742157787,-31546.91684805356,-8979.947445386344,-21150.517004789952,0.0,0.0,0.0,193.0,1.0,155.0,0.0,2.0,3.0,252.0,411.0,2.0,1020.0,1744252798.879976,0.0,2025-04-09 22:39:58.879,LEFT,28
117.0,12675.98720502701,1419.9169182678365,-59839.57616562559,-56650.25045278674,-34213.90464471634,-31497.743010251885,-8975.67826219538,-21104.56181818984,0.0,0.0,0.0,193.0,1.0,154.0,0.0,2.0,3.0,250.0,410.0,2.0,1018.0,1744252798.8799849,0.0,2025-04-09 22:39:58.879,LEFT,28
118.0,12609.8260414393,1411.9149937528366,-59875.65188117646,-56695.87036322003,-34233.708290303744,-31521.838190774703,-8898.698854291302,-21129.41695802414,0.0,0.0,0.0,193.0,1.0,154.0,0.0,2.0,3.0,250.0,410.0,2.0,1018.0,1744252798.8799937,0.0,2025-04-09 22:39:58.879,LEFT,28
119.0,12611.480070528993,1383.1482986388564,-59881.23981729029,-56664.68967970487,-34281.13869203791,-31567.01106631888,-8860.924406161834,-21165.917356719656,0.0,0.0,0.0,193.0,1.0,154.0,0.0,2.0,3.0,250.0,410.0,2.0,1018.0,1744252798.8800025,0.0,2025-04-09 22:39:58.880,LEFT,28
120.0,12723.305848038895,1417.0782467220124,-59883.787916158195,-56681.587598513084,-34284.24558451719,-31558.562106914775,-8911.305238164095,-21163.9951066965,0.0,0.0,0.0,193.0,1.0,155.0,0.0,2.0,3.0,252.0,411.0,2.0,1020.0,1744252798.880011,0.0,2025-04-09 22:39:58.880,LEFT,28
121.0,12681.888065563211,1418.7099240672499,-59841.073732504105,-56661.58278722558,-34216.56450230652,-31496.42425732902,-9048.299079930674,-21107.89222811368,0.0,0.0,0.0,193.0,1.0,154.0,0.0,2.0,3.0,251.0,410.0,2.0,1019.0,1744252798.88002,0.0,2025-04-09 22:39:58.880,LEFT,28
122.0,12616.956247920543,1413.3902088868867,-59876.031860832205,-56691.26590386223,-34235.4293746268,-31525.637987332106,-8882.829115728035,-21134.17787959312,0.0,0.0,0.0,193.0,1.0,155.0,0.0,2.0,3.0,252.0,411.0,2.0,1020.0,1744252798.8800285,0.0,2025-04-09 22:39:58.880,LEFT,28
123.0,12593.553971475838,1385.6740457623062,-59883.854971391556,-56687.17553462691,-34270.52161342163,-31559.791452859816,-8911.037017230632,-21163.81629274086,0.0,0.0,0.0,193.0,1.0,154.0,0.0,2.0,3.0,250.0,410.0,2.0,1018.0,1744252798.8800395,0.0,2025-04-09 22:39:58.880,LEFT,28
124.0,12717.337932269327,1412.317325153032,-59877.86470387754,-56667.64010997297,-34282.88212810542,-31569.559165186784,-8832.22476628122,-21162.9445747071,0.0,0.0,0.0,193.0,1.0,155.0,0.0,2.0,3.0,252.0,411.0,2.0,1020.0,1744252798.8800483,0.0,2025-04-09 22:39:58.880,LEFT,28
125.0,12695.544981425403,1421.928575268814,-59837.989191769266,-56673.38450829798,-34206.662679512825,-31490.769265981828,-9076.909312833466,-21089.519094171417,0.0,0.0,0.0,193.0,1.0,154.0,0.0,2.0,3.0,249.0,410.0,2.0,1017.0,1744252798.8800569,0.0,2025-04-09 22:39:58.880,LEFT,28
126.0,12629.987314937987,1415.3571623989537,-59866.71118339434,-56674.63620598748,-34227.695671045265,-31513.47863834842,-8854.665917714348,-21100.583207676795,0.0,0.0,0.0,193.0,1.0,155.0,0.0,2.0,3.0,251.0,411.0,2.0,1019.0,1744252798.880066,0.0,2025-04-09 22:39:58.880,LEFT,28
127.0,12576.499590456438,1379.124984636901,-59888.28061679371,-56706.822718003124,-34260.99977028368,-31553.823537090248,-8945.212834502798,-21141.442196541095,0.0,0.0,0.0,193.0,1.0,154.0,0.0,2.0,3.0,249.0,410.0,2.0,1017.0,1744252798.8800747,0.0,2025-04-09 22:39:58.880,LEFT,28
128.0,12691.566370912358,1403.7119035377389,-59881.0833550791,-56657.06773484561,-34292.82865438803,-31589.407514263097,-8787.275408181597,-21185.81040928488,0.0,0.0,0.0,193.0,1.0,155.0,0.0,2.0,3.0,251.0,411.0,2.0,1019.0,1744252798.8800836,0.0,2025-04-09 22:39:58.880,LEFT,28
129.0,12705.580914685836,1424.5884328589957,-59846.08052326209,-56692.78582248519,-34216.98918545117,-31503.420353343532,-9121.09871162161,-21120.78918466439,0.0,0.0,0.0,193.0,1.0,154.0,0.0,2.0,3.0,250.0,410.0,2.0,1018.0,1744252798.8800964,0.0,2025-04-09 22:39:58.880,LEFT,28
130.0,12649.656850058658,1428.2317672052106,-59849.679154119396,-56656.39718251195,-34214.19521739426,-31502.302766120767,-8861.952586406778,-21093.36359421773,0.0,0.0,0.0,193.0,1.0,155.0,0.0,1.0,3.0,252.0,411.0,1.0,1020.0,1744252798.880105,0.0,2025-04-09 22:39:58.880,LEFT,28
131.0,12574.10795379972,1387.9539236967473,-59889.24174180529,-56720.50198560977,-34252.081424246004,-31544.05582476328,-8956.366354985996,-21137.955324406066,0.0,0.0,0.0,193.0,1.0,154.0,0.0,2.0,3.0,249.0,410.0,2.0,1017.0,1744252798.8801138,0.0,2025-04-09 22:39:58.880,LEFT,28
132.0,12668.924053779132,1395.3970546003645,-59882.379756257506,-56655.369002267005,-34298.729514924235,-31588.602851462707,-8773.663195808316,-21179.082534203833,0.0,0.0,0.0,193.0,1.0,155.0,0.0,2.0,3.0,252.0,411.0,2.0,1020.0,1744252798.8801224,0.0,2025-04-09 22:39:58.880,LEFT,28
133.0,12717.8520223918,1422.576775858018,-59858.061058290135,-56706.37568311402,-34234.71411880423,-31512.00342321437,-9104.51371723577,-21126.51123124495,0.0,0.0,0.0,193.0,1.0,154.0,0.0,2.0,3.0,249.0,410.0,2.0,1017.0,1744252798.8801312,0.0,2025-04-09 22:39:58.880,LEFT,28
134.0,12664.118428721242,1430.1316654839118,-59840.783159826184,-56649.870473131,-34211.71417375972,-31502.593338798684,-8888.528810564138,-21101.27611175491,0.0,0.0,0.0,193.0,1.0,154.0,0.0,2.0,3.0,250.0,410.0,2.0,1018.0,1744252798.88014,0.0,2025-04-09 22:39:58.880,LEFT,28
135.0,12589.86593364071,1401.7002465367611,-59881.75390741276,-56719.674971064924,-34238.02217698362,-31534.735147325417,-8953.013593317699,-21135.071949371333,0.0,0.0,0.0,193.0,1.0,154.0,0.0,2.0,3.0,250.0,410.0,2.0,1018.0,1744252798.8801486,0.0,2025-04-09 22:39:58.880,LEFT,28
136.0,12651.400286126172,1391.351388853954,-59876.724764910316,-56652.35151676554,-34287.91127060787,-31586.56884271727,-8785.64373083636,-21178.791961525912,0.0,0.0,0.0,193.0,1.0,155.0,0.0,2.0,3.0,252.0,411.0,2.0,1020.0,1744252798.8801572,0.0,2025-04-09 22:39:58.880,LEFT,28
137.0,12722.255316049495,1413.1666914423338,-59871.87443636351,-56713.66235180645,-34251.79085156809,-31537.52911538233,-9057.195074223886,-21149.84645245629,0.0,0.0,0.0,193.0,1.0,154.0,0.0,1.0,3.0,250.0,410.0,1.0,1018.0,1744252798.8801856,0.0,2025-04-09 22:39:58.880,LEFT,28
138.0,12667.091210733797,1422.576775858018,-59834.74818882325,-56649.53519696417,-34206.05918241253,-31502.727449265418,-8941.323630967574,-21110.306216514855,0.0,0.0,0.0,193.0,1.0,155.0,0.0,2.0,3.0,252.0,411.0,2.0,1020.0,1744252798.8801944,0.0,2025-04-09 22:39:58.880,LEFT,28
139.0,12597.465526755515,1405.61180181644,-59875.02603233171,-56712.94709598388,-34226.30986288904,-31528.81193504476,-8935.422770431373,-21142.693894230593,0.0,0.0,0.0,193.0,1.0,154.0,0.0,2.0,3.0,250.0,410.0,2.0,1018.0,1744252798.8802035,0.0,2025-04-09 22:39:58.880,LEFT,28
140.0,12628.64621027067,1387.3057231075434,-59866.442962460875,-56656.50894123423,-34266.7888720976,-31573.44836872201,-8822.054722554056,-21176.690897547116,0.0,0.0,0.0,193.0,1.0,155.0,0.0,2.0,3.0,252.0,411.0,2.0,1020.0,1744252798.880212,0.0,2025-04-09 22:39:58.880,LEFT,28
141.0,12708.106661809286,1402.2143366592334,-59886.26895979273,-56715.763415785244,-34271.97447681123,-31562.652476150095,-8973.82306740559,-21169.113656176767,0.0,0.0,0.0,193.0,1.0,154.0,0.0,2.0,3.0,249.0,410.0,2.0,1017.0,1744252798.880221,0.0,2025-04-09 22:39:58.880,LEFT,28
142.0,12670.756896824467,1416.9441362552807,-59839.397351669955,-56666.23195007229,-34211.11067665943,-31504.38147835511,-9010.323466101107,-21109.769774647924,0.0,0.0,0.0,193.0,1.0,154.0,0.0,2.0,3.0,251.0,410.0,2.0,1019.0,1744252798.8802292,0.0,2025-04-09 22:39:58.880,LEFT,28
143.0,12604.215753581018,1402.2590401481439,-59878.22233178882,-56712.23184016131,-34232.74716529217,-31535.42805140353,-8913.205136442797,-21133.57438249283,0.0,0.0,0.0,193.0,1.0,154.0,0.0,2.0,3.0,249.0,410.0,2.0,1017.0,1744252798.880238,0.0,2025-04-09 22:39:58.880,LEFT,28
144.0,12592.503439486438,1366.4291937862868,-59883.25147429127,-56687.3319968381,-34271.527441922124,-31574.81182513378,-8880.593941282505,-21162.0952084178,0.0,0.0,0.0,193.0,1.0,154.0,0.0,2.0,3.0,251.0,410.0,2.0,1019.0,1744252798.8802507,0.0,2025-04-09 22:39:58.880,LEFT,28
145.0,12710.364187999272,1402.6837232927946,-59881.03865159019,-56692.51760155173,-34274.76844486815,-31571.459063465485,-8899.302351391596,-21176.981470225033,0.0,0.0,0.0,193.0,1.0,154.0,0.0,2.0,3.0,249.0,410.0,2.0,1017.0,1744252798.8802595,0.0,2025-04-09 22:39:58.880,LEFT,28
146.0,12672.947367781087,1407.8469762619707,-59837.89978479145,-56675.66438623243,-34203.55578703353,-31500.313460864243,-9066.22517898383,-21111.580265948807,0.0,0.0,0.0,193.0,1.0,154.0,0.0,2.0,3.0,251.0,410.0,2.0,1019.0,1744252798.880268,0.0,2025-04-09 22:39:58.880,LEFT,28
147.0,12608.619047238713,1402.1025779369568,-59871.13682879649,-56695.848011475566,-34224.342909376974,-31521.1899901855,-8888.126479163942,-21122.532620731905,0.0,0.0,0.0,193.0,1.0,155.0,0.0,2.0,3.0,251.0,411.0,2.0,1019.0,1744252798.880277,0.0,2025-04-09 22:39:58.880,LEFT,28
148.0,12567.938872330054,1361.4000512838427,-59885.37489001452,-56701.12302316702,-34265.04543603009,-31553.376502201143,-8935.221604731274,-21157.311935104364,0.0,0.0,0.0,193.0,1.0,155.0,0.0,1.0,3.0,252.0,411.0,1.0,1020.0,1744252798.8802853,0.0,2025-04-09 22:39:58.880,LEFT,28
149.0,12681.396327185194,1374.095842134457,-59886.47012549283,-56681.18526711289,-34293.78977939961,-31576.890537368126,-8842.886548386401,-21177.294394647408,0.0,0.0,0.0,193.0,1.0,155.0,0.0,2.0,3.0,252.0,411.0,2.0,1020.0,1744252798.8802936,0.0,2025-04-09 22:39:58.880,LEFT,28
150.0,12665.347774666283,1386.1657841403228,-59845.85700581754,-56695.848011475566,-34216.43039183979,-31497.340678851688,-9120.405807543493,-21113.502515971963,0.0,0.0,0.0,193.0,1.0,155.0,0.0,2.0,3.0,250.0,411.0,2.0,1018.0,1744252798.8803024,0.0,2025-04-09 22:39:58.880,LEFT,28
151.0,12606.048596626353,1384.578810283996,-59864.766581626725,-56686.63909275998,-34226.35456637795,-31521.05587971877,-8875.006005168678,-21129.48401325751,0.0,0.0,0.0,193.0,1.0,154.0,0.0,2.0,3.0,250.0,410.0,2.0,1018.0,1744252798.8803108,0.0,2025-04-09 22:39:58.880,LEFT,28
152.0,12558.90876757011,1356.8402954149599,-59876.47889572131,-56714.89169775149,-34250.22622945622,-31544.10052825219,-8955.941671841345,-21158.161301393666,0.0,0.0,0.0,193.0,1.0,155.0,0.0,2.0,3.0,252.0,411.0,2.0,1020.0,1744252798.880319,0.0,2025-04-09 22:39:58.880,LEFT,28
153.0,12657.435257129104,1362.4729350176974,-59877.30591026616,-56666.008432627736,-34294.058000333076,-31581.24912753691,-8782.492134868162,-21188.42556338615,0.0,0.0,0.0,193.0,1.0,155.0,0.0,2.0,3.0,250.0,411.0,2.0,1018.0,1744252798.880328,0.0,2025-04-09 22:39:58.880,LEFT,28
154.0,12661.704440320069,1364.484592018675,-59858.15046526796,-56718.87030826454,-34231.69663330277,-31508.47184759043,-9129.346505325617,-21135.362522049254,0.0,0.0,0.0,193.0,1.0,154.0,0.0,2.0,3.0,250.0,410.0,2.0,1018.0,1744252798.8803363,0.0,2025-04-09 22:39:58.880,LEFT,28
155.0,12601.06415761282,1365.1104408634235,-59858.01635480123,-56675.35146181005,-34226.26515940013,-31509.075344690722,-8876.816496469557,-21115.04478633938,0.0,0.0,0.0,193.0,1.0,154.0,0.0,10.0,3.0,250.0,410.0,10.0,1018.0,1744252798.880345,0.0,2025-04-09 22:39:58.880,LEFT,28
156.0,12519.703807795502,1320.3846002083542,-59895.76845118624,-56740.37268643054,-34258.45167141577,-31543.877010807635,-8951.940709583845,-21158.071894415843,0.0,0.0,0.0,193.0,1.0,154.0,0.0,21.0,3.0,251.0,410.0,21.0,1019.0,1744252798.8803537,0.0,2025-04-09 22:39:58.880,LEFT,28
157.0,12591.497610985949,1305.1407104898346,-59899.52354425473,-56685.61091251504,-34315.96270989927,-31603.511465014395,-8751.199692630731,-21215.940560810635,0.0,0.0,0.0,193.0,1.0,155.0,0.0,31.0,3.0,252.0,411.0,31.0,1020.0,1744252798.8803625,0.0,2025-04-09 22:39:58.880,LEFT,28
158.0,12640.269117387428,1331.068734057991,-59877.350613755065,-56740.26092770827,-34250.47209864522,-31528.454307133474,-9032.921079745422,-21153.914469947158,0.0,0.0,0.0,193.0,1.0,154.0,0.0,38.0,3.0,251.0,410.0,38.0,1019.0,1744252798.880371,0.0,2025-04-09 22:39:58.880,LEFT,28
159.0,12584.166238804608,1339.1153620619014,-59855.535311166685,-56680.15708686794,-34219.649043041354,-31517.99369072839,-8771.808001018524,-21130.75806269146,0.0,0.0,0.0,193.0,1.0,155.0,0.0,39.0,3.0,252.0,411.0,39.0,1020.0,1744252798.8803847,0.0,2025-04-09 22:39:58.880,LEFT,28
160.0,12494.75926098338,1297.2058412082006,-59908.888925181505,-56759.97516631785,-34260.32921795001,-31558.4503481925,-8776.50186735414,-21180.2001214266,0.0,0.0,0.0,193.0,1.0,155.0,0.0,39.0,3.0,251.0,411.0,39.0,1019.0,1744252798.8803935,0.0,2025-04-09 22:39:58.880,LEFT,28
161.0,12549.878662810168,1289.3156754154772,-59899.590599488096,-56689.32130209462,-34308.430172017834,-31593.78845617634,-8596.905600655748,-21194.348775666807,0.0,0.0,0.0,193.0,1.0,155.0,0.0,39.0,3.0,252.0,411.0,39.0,1020.0,1744252798.880402,0.0,2025-04-09 22:39:58.880,LEFT,28
162.0,12635.239974884984,1324.2067485102116,-59885.732517925804,-56734.293011938695,-34267.481776175715,-31537.126783982134,-8803.256905467142,-21153.065103657857,0.0,0.0,0.0,193.0,1.0,154.0,0.0,39.0,3.0,250.0,410.0,39.0,1018.0,1744252798.880411,0.0,2025-04-09 22:39:58.880,LEFT,28
163.0,12575.292596255851,1322.8879955873485,-59857.88224433449,-56679.53123802319,-34229.953197235256,-31509.678841791017,-8693.174564024755,-21126.153603333667,0.0,0.0,0.0,193.0,1.0,155.0,0.0,38.0,3.0,252.0,411.0,38.0,1020.0,1744252798.8804195,0.0,2025-04-09 22:39:58.880,LEFT,28
164.0,12502.537668053827,1302.100873243913,-59903.636265234505,-56744.46305566586,-34258.5857818825,-31540.18897297251,-8653.23199668312,-21155.635554270215,0.0,0.0,0.0,193.0,1.0,155.0,0.0,39.0,3.0,252.0,411.0,39.0,1020.0,1744252798.8804283,0.0,2025-04-09 22:39:58.880,LEFT,28
165.0,12526.498738109916,1283.392463134821,-59893.220352318334,-56691.444717817874,-34294.92971836683,-31581.29383102582,-8551.531559411475,-21192.784153554938,0.0,0.0,0.0,193.0,1.0,154.0,0.0,39.0,3.0,250.0,410.0,39.0,1018.0,1744252798.880437,0.0,2025-04-09 22:39:58.880,LEFT,28
166.0,12632.535413805892,1314.2602222276,-59890.80636391716,-56723.16184319995,-34277.83063385852,-31560.640819149117,-8639.508025587562,-21178.43433361463,0.0,0.0,0.0,193.0,1.0,155.0,0.0,39.0,3.0,252.0,411.0,39.0,1020.0,1744252798.8804457,0.0,2025-04-09 22:39:58.880,LEFT,28
167.0,12590.022395851898,1323.290326987544,-59849.18741574138,-56684.78389797019,-34218.86673198542,-31501.453399831466,-8685.172639509754,-21116.251780539966,0.0,0.0,0.0,193.0,1.0,154.0,0.0,39.0,3.0,250.0,410.0,39.0,1018.0,1744252798.8804545,0.0,2025-04-09 22:39:58.880,LEFT,28
168.0,12525.381150887151,1317.970611807181,-59891.65573020646,-56729.532090369714,-34247.99105501069,-31534.310464180766,-8573.279806766488,-21150.874632701234,0.0,0.0,0.0,193.0,1.0,155.0,0.0,40.0,3.0,251.0,411.0,40.0,1019.0,1744252798.8804631,0.0,2025-04-09 22:39:58.880,LEFT,28
169.0,12517.893316494623,1293.9201347732705,-59892.37098602903,-56704.27461913522,-34281.63043041592,-31570.564993687272,-8558.12532402579,-21185.20691218459,0.0,0.0,0.0,193.0,1.0,155.0,0.0,40.0,3.0,251.0,411.0,40.0,1019.0,1744252798.880472,0.0,2025-04-09 22:39:58.880,LEFT,28
170.0,12632.334248105795,1317.9259083182703,-59896.68487270891,-56707.96265697035,-34292.8957096214,-31577.67284842406,-8529.44803588963,-21188.71613606407,0.0,0.0,0.0,193.0,1.0,154.0,0.0,40.0,3.0,250.0,410.0,40.0,1018.0,1744252798.8804808,0.0,2025-04-09 22:39:58.880,LEFT,28
171.0,12602.8746489137,1331.068734057991,-59852.20490124285,-56699.02195918822,-34216.81037149553,-31502.034545187304,-8717.716779436681,-21113.927199116613,0.0,0.0,0.0,193.0,1.0,155.0,0.0,40.0,3.0,251.0,411.0,40.0,1019.0,1744252798.880489,0.0,2025-04-09 22:39:58.880,LEFT,28
172.0,12546.324735441773,1331.6051759249183,-59881.530389968204,-56709.549630826674,-34233.01538622563,-31527.515533866354,-8513.801814770915,-21136.23424008301,0.0,0.0,0.0,193.0,1.0,154.0,0.0,41.0,3.0,250.0,410.0,41.0,1018.0,1744252798.8804977,0.0,2025-04-09 22:39:58.880,LEFT,28
173.0,12506.538630311326,1289.002750993103,-59900.641131477496,-56728.81683454715,-34275.30488673507,-31569.469758208965,-8582.64518769326,-21190.90660702069,0.0,0.0,0.0,193.0,1.0,155.0,0.0,41.0,3.0,252.0,411.0,41.0,1020.0,1744252798.8805065,0.0,2025-04-09 22:39:58.880,LEFT,28
174.0,12626.433387569594,1314.8190158389828,-59897.690701209394,-56696.69737776487,-34304.876244649444,-31594.21313932099,-8465.075011858346,-21211.157287497197,0.0,0.0,0.0,193.0,1.0,154.0,0.0,41.0,3.0,250.0,410.0,41.0,1018.0,1744252799.350126,0.0,2025-04-09 22:39:59.350,LEFT,28
175.0,12630.277887615906,1344.032745842069,-59849.29917446365,-56707.64973254797,-34219.55963606353,-31494.546710794773,-8762.420268347296,-21112.697853171572,0.0,0.0,0.0,193.0,1.0,154.0,0.0,41.0,3.0,249.0,410.0,41.0,1017.0,1744252799.3501654,0.0,2025-04-09 22:39:59.350,LEFT,28
176.0,12569.63760490866,1347.832542399471,-59870.17570378491,-56698.03848243219,-34234.423546126316,-31523.04518497529,-8514.047683959923,-21135.40722553816,0.0,0.0,0.0,193.0,1.0,155.0,0.0,41.0,3.0,251.0,411.0,41.0,1019.0,1744252799.3501856,0.0,2025-04-09 22:39:59.350,LEFT,28
177.0,12511.366607113672,1312.2038617377118,-59892.885076151506,-56740.32798294163,-34258.943409793785,-31553.48826092342,-8597.777318689505,-21168.91249047667,0.0,0.0,0.0,193.0,1.0,154.0,0.0,41.0,3.0,250.0,410.0,41.0,1018.0,1744252799.3502057,0.0,2025-04-09 22:39:59.350,LEFT,28
178.0,12624.980524179999,1335.3826207378652,-59878.78112540021,-56670.70229896335,-34289.87822411993,-31581.606755448196,-8398.891496526181,-21183.932862750633,0.0,0.0,0.0,193.0,1.0,154.0,0.0,42.0,3.0,250.0,410.0,42.0,1018.0,1744252799.3502233,0.0,2025-04-09 22:39:59.350,LEFT,28
179.0,12646.192329668085,1351.252359301133,-59860.430343202395,-56725.419369389936,-34227.986243723186,-31513.99272847089,-8737.699238979727,-21142.872708186234,0.0,0.0,0.0,193.0,1.0,154.0,0.0,42.0,3.0,250.0,410.0,42.0,1018.0,1744252799.3502407,0.0,2025-04-09 22:39:59.350,LEFT,28
180.0,12589.44125049606,1355.9909291256583,-59858.44103794588,-56679.08420313409,-34223.53824657658,-31512.80808601476,-8504.034102443946,-21129.349902790775,0.0,0.0,0.0,193.0,1.0,154.0,0.0,42.0,3.0,250.0,410.0,42.0,1018.0,1744252799.350258,0.0,2025-04-09 22:39:59.350,LEFT,28
181.0,12509.779633257347,1315.064885027991,-59904.48563152381,-56754.20841624837,-34262.92202030683,-31555.745787113407,-8598.671388467716,-21180.71421154907,0.0,0.0,0.0,193.0,1.0,155.0,0.0,42.0,3.0,252.0,411.0,42.0,1020.0,1744252799.3502755,0.0,2025-04-09 22:39:59.350,LEFT,28
182.0,12595.96795987701,1323.5361961765525,-59891.58867497309,-56681.721708979814,-34302.37284927045,-31595.82246492177,-8415.23062172301,-21208.653892118204,0.0,0.0,0.0,193.0,1.0,154.0,0.0,42.0,3.0,250.0,410.0,42.0,1018.0,1744252799.3502932,0.0,2025-04-09 22:39:59.350,LEFT,28
183.0,12657.032925728909,1349.8441994004488,-59879.876360878516,-56742.473750409335,-34253.17665972432,-31534.33281592522,-8718.588497470439,-21162.43048458463,0.0,0.0,0.0,193.0,1.0,154.0,0.0,42.0,3.0,251.0,410.0,42.0,1019.0,1744252799.350302,0.0,2025-04-09 22:39:59.350,LEFT,28
184.0,12607.792032693867,1365.0433856300576,-59851.24377623127,-56681.654653746446,-34221.3254238755,-31519.20068492898,-8559.64524264875,-21146.739559977003,0.0,0.0,0.0,193.0,1.0,155.0,0.0,42.0,3.0,251.0,411.0,42.0,1019.0,1744252799.3503113,0.0,2025-04-09 22:39:59.350,LEFT,28
185.0,12537.67461033757,1343.2057312972227,-59893.42151801843,-56752.17440750294,-34247.36520616594,-31547.05095852029,-8584.925065627702,-21177.674374303147,0.0,0.0,0.0,193.0,1.0,154.0,0.0,42.0,3.0,250.0,410.0,42.0,1018.0,1744252799.35032,0.0,2025-04-09 22:39:59.350,LEFT,28
186.0,12586.289654527862,1334.1979782817339,-59883.027956846716,-56684.8286014591,-34287.21836652975,-31581.182072303545,-8441.896252858192,-21189.610205842284,0.0,0.0,0.0,193.0,1.0,154.0,0.0,42.0,3.0,252.0,410.0,42.0,1020.0,1744252799.3503287,0.0,2025-04-09 22:39:59.350,LEFT,28
187.0,12665.928920022121,1353.845161657949,-59889.24174180529,-56744.28424171022,-34269.38167445442,-31553.66707487906,-8648.985165236612,-21176.28856614692,0.0,0.0,0.0,193.0,1.0,154.0,0.0,43.0,3.0,250.0,410.0,43.0,1018.0,1744252799.350338,0.0,2025-04-09 22:39:59.350,LEFT,28
188.0,12618.610277010237,1358.1366965933678,-59856.04940128916,-56700.22895338881,-34223.11356343193,-31525.056841976268,-8616.508080543052,-21149.958211178568,0.0,0.0,0.0,193.0,1.0,154.0,0.0,43.0,3.0,249.0,410.0,43.0,1017.0,1744252799.3503468,0.0,2025-04-09 22:39:59.350,LEFT,28
189.0,12562.730915871969,1363.8587431739263,-59883.20677080235,-56741.66908760895,-34232.23307516969,-31537.998502015893,-8552.31387046741,-21162.117560162256,0.0,0.0,0.0,193.0,1.0,155.0,0.0,43.0,3.0,252.0,411.0,43.0,1020.0,1744252799.3503864,0.0,2025-04-09 22:39:59.350,LEFT,28
190.0,12577.10308755673,1347.9890046106584,-59882.245645790776,-56698.59727604357,-34277.338895480505,-31579.081008324745,-8489.684282503638,-21200.897836792214,0.0,0.0,0.0,193.0,1.0,154.0,0.0,43.0,3.0,250.0,410.0,43.0,1018.0,1744252799.3503954,0.0,2025-04-09 22:39:59.350,LEFT,28
191.0,12687.69951912159,1377.448603802753,-59886.783049915204,-56727.07339847963,-34282.34568623849,-31568.3521709862,-8580.0747370809,-21201.523685636963,0.0,0.0,0.0,193.0,1.0,154.0,0.0,43.0,3.0,251.0,410.0,43.0,1019.0,1744252799.3504043,0.0,2025-04-09 22:39:59.350,LEFT,28
192.0,12646.237033156996,1387.998627185658,-59845.186453483875,-56697.27852312071,-34222.7782872651,-31508.449495845976,-8689.263008745076,-21140.95045816308,0.0,0.0,0.0,193.0,1.0,154.0,0.0,43.0,3.0,249.0,410.0,43.0,1017.0,1744252799.3504128,0.0,2025-04-09 22:39:59.350,LEFT,28
193.0,12586.691985928057,1387.6857027632836,-59881.41863124593,-56730.13558747001,-34242.73839506369,-31535.584513614718,-8544.31194595241,-21161.871690973247,0.0,0.0,0.0,193.0,1.0,155.0,0.0,43.0,3.0,252.0,411.0,43.0,1020.0,1744252799.3504217,0.0,2025-04-09 22:39:59.350,LEFT,28
194.0,12568.430610708072,1352.548760479541,-59887.11832608203,-56719.94319199839,-34280.73636063771,-31576.465854223476,-8567.93773984167,-21208.475078162563,0.0,0.0,0.0,193.0,1.0,155.0,0.0,43.0,3.0,252.0,411.0,43.0,1020.0,1744252799.3504303,0.0,2025-04-09 22:39:59.350,LEFT,28
195.0,12692.482792435027,1381.2484003601553,-59882.06683183514,-56706.01805520273,-34292.87335787694,-31577.29286876832,-8511.63369555875,-21196.695708834613,0.0,0.0,0.0,193.0,1.0,154.0,0.0,43.0,3.0,250.0,410.0,43.0,1018.0,1744252799.3504393,0.0,2025-04-09 22:39:59.350,LEFT,28
196.0,12679.541132395403,1402.9742959707137,-59827.372113153,-56695.020996930725,-34208.0261359246,-31490.32223109272,-8737.25220409062,-21119.1351555747,0.0,0.0,0.0,193.0,1.0,155.0,0.0,43.0,3.0,252.0,411.0,43.0,1020.0,1744252799.350448,0.0,2025-04-09 22:39:59.350,LEFT,28
197.0,12616.68802698708,1404.9859529716914,-59853.21072974333,-56697.256171376255,-34228.09800244546,-31517.32313839473,-8522.675457319672,-21144.929068676123,0.0,0.0,0.0,193.0,1.0,154.0,0.0,43.0,3.0,248.0,410.0,43.0,1016.0,1744252799.3504567,0.0,2025-04-09 22:39:59.350,LEFT,28
198.0,12557.567662902793,1354.64982445834,-59883.1844190579,-56734.98591601681,-34274.746093123686,-31571.57082218776,-8600.526583257506,-21194.259368688985,0.0,0.0,0.0,193.0,1.0,154.0,0.0,43.0,3.0,250.0,410.0,43.0,1018.0,1744252799.3504655,0.0,2025-04-09 22:39:59.350,LEFT,28
199.0,12675.316652693351,1377.8732869474038,-59882.20094230187,-56696.29504636468,-34309.61481447396,-31604.763162703894,-8458.81652341086,-21222.444918447127,0.0,0.0,0.0,193.0,1.0,154.0,0.0,43.0,3.0,252.0,410.0,43.0,1020.0,1744252799.3504744,0.0,2025-04-09 22:39:59.350,LEFT,28
200.0,12680.010519028965,1397.0063802011466,-59845.02999127269,-56726.35814265706,-34230.53434259109,-31527.269664677344,-8784.280274424586,-21173.159321923176,0.0,0.0,0.0,193.0,1.0,154.0,0.0,43.0,3.0,249.0,410.0,43.0,1017.0,1744252799.3504832,0.0,2025-04-09 22:39:59.350,LEFT,28
201.0,12633.407131839649,1411.4009036303644,-59843.80064532765,-56685.49915379276,-34225.9298832333,-31522.084059963712,-8533.717219080594,-21151.56753677935,0.0,0.0,0.0,193.0,1.0,155.0,0.0,43.0,3.0,251.0,411.0,43.0,1019.0,1744252799.350492,0.0,2025-04-09 22:39:59.350,LEFT,28
202.0,12565.837808351256,1369.3349205654765,-59875.65188117646,-56735.67882009492,-34258.608133626956,-31549.196725988,-8630.276755127521,-21171.929975978135,0.0,0.0,0.0,193.0,1.0,154.0,0.0,43.0,3.0,249.0,410.0,43.0,1017.0,1744252799.3505008,0.0,2025-04-09 22:39:59.350,LEFT,28
203.0,12660.27392867493,1373.8276212009932,-59868.409915972945,-56671.41755478592,-34294.37092475545,-31589.988659618935,-8432.62027890924,-21194.125258222255,0.0,0.0,0.0,193.0,1.0,155.0,0.0,43.0,3.0,252.0,411.0,43.0,1020.0,1744252799.3505096,0.0,2025-04-09 22:39:59.350,LEFT,28
204.0,12690.113507522763,1395.2629441336328,-59849.74620935276,-56730.00147700328,-34231.78604028059,-31521.927597752525,-8767.382355616373,-21148.594754766793,0.0,0.0,0.0,193.0,1.0,154.0,0.0,43.0,3.0,251.0,410.0,43.0,1019.0,1744252799.3505235,0.0,2025-04-09 22:39:59.350,LEFT,28
205.0,12635.016457440432,1400.9849907141913,-59837.76567432471,-56675.84320018807,-34220.58781630848,-31519.67007156254,-8555.800742602438,-21143.18563260861,0.0,0.0,0.0,193.0,1.0,154.0,0.0,43.0,3.0,249.0,410.0,43.0,1017.0,1744252799.350532,0.0,2025-04-09 22:39:59.350,LEFT,28
206.0,12563.401468205628,1374.5875805124738,-59876.68006142141,-56739.88094805252,-34253.355473679956,-31547.229772475934,-8646.414714624252,-21181.787095282925,0.0,0.0,0.0,193.0,1.0,154.0,0.0,43.0,3.0,252.0,410.0,43.0,1020.0,1744252799.350541,0.0,2025-04-09 22:39:59.350,LEFT,28
207.0,12632.535413805892,1373.9393799232698,-59868.85695086205,-56670.59054024107,-34298.863625390964,-31595.01780212138,-8468.181904337634,-21220.0085783015,0.0,0.0,0.0,193.0,1.0,154.0,0.0,44.0,3.0,250.0,410.0,44.0,1018.0,1744252799.3505497,0.0,2025-04-09 22:39:59.350,LEFT,28
208.0,12705.737376897023,1405.7906157720824,-59850.59557564206,-56723.966506000346,-34243.565409608535,-31532.298807179788,-8746.036439661555,-21177.227339414043,0.0,0.0,0.0,193.0,1.0,155.0,0.0,43.0,3.0,252.0,411.0,43.0,1020.0,1744252799.3505583,0.0,2025-04-09 22:39:59.350,LEFT,28
209.0,12652.562576837849,1408.89750825137,-59818.476118859784,-56660.71106919183,-34204.628670767386,-31504.470885332932,-8597.352635544854,-21131.89800165868,0.0,0.0,0.0,193.0,1.0,155.0,0.0,43.0,3.0,251.0,411.0,43.0,1019.0,1744252799.350567,0.0,2025-04-09 22:39:59.350,LEFT,28
210.0,12574.644395666648,1381.807193971538,-59864.38660197099,-56730.98495375931,-34236.01051998264,-31529.86246703416,-8611.590696762883,-21155.859071714767,0.0,0.0,0.0,193.0,1.0,154.0,0.0,43.0,3.0,250.0,410.0,43.0,1018.0,1744252799.3505757,0.0,2025-04-09 22:39:59.350,LEFT,28
211.0,12611.144794362164,1371.3018740775435,-59857.39050595648,-56671.14933385245,-34282.703314149774,-31574.38714198913,-8510.069073446879,-21198.126220479753,0.0,0.0,0.0,193.0,1.0,155.0,0.0,44.0,3.0,252.0,411.0,44.0,1020.0,1744252799.3505845,0.0,2025-04-09 22:39:59.350,LEFT,28
212.0,12701.80346987289,1396.6264005454066,-59860.430343202395,-56718.33386639761,-34267.66059013135,-31543.944066041004,-8693.465136702674,-21185.296319162408,0.0,0.0,0.0,193.0,1.0,154.0,0.0,44.0,3.0,249.0,410.0,44.0,1017.0,1744252799.350593,0.0,2025-04-09 22:39:59.350,LEFT,28
213.0,12653.300184404872,1401.6331913033953,-59817.514993848206,-56665.092011105065,-34205.9250719458,-31487.52826303581,-8680.612883640872,-21114.955379361556,0.0,0.0,0.0,193.0,1.0,155.0,0.0,43.0,3.0,252.0,411.0,43.0,1020.0,1744252799.350602,0.0,2025-04-09 22:39:59.350,LEFT,28
214.0,12577.639529423659,1389.2503248751552,-59864.99009907128,-56722.64775307748,-34232.523647847614,-31521.90524600807,-8591.474126753108,-21148.013609410955,0.0,0.0,0.0,193.0,1.0,154.0,0.0,44.0,3.0,251.0,410.0,44.0,1019.0,1744252799.3506105,0.0,2025-04-09 22:39:59.350,LEFT,28
215.0,12597.018491866409,1377.2697898471106,-59854.46242743283,-56679.30772057864,-34267.6382383869,-31553.018874289857,-8559.354669970831,-21180.66950806016,0.0,0.0,0.0,193.0,1.0,155.0,0.0,44.0,3.0,251.0,411.0,44.0,1019.0,1744252799.3506193,0.0,2025-04-09 22:39:59.350,LEFT,28
216.0,12710.408891488183,1403.1084064374456,-59861.72674438081,-56699.35723535505,-34277.85298560298,-31557.57863015874,-8598.51492625653,-21192.873560532757,0.0,0.0,0.0,193.0,1.0,154.0,0.0,44.0,3.0,250.0,410.0,44.0,1018.0,1744252799.350628,0.0,2025-04-09 22:39:59.350,LEFT,28
217.0,12669.639309601702,1405.2765256496104,-59821.85123227254,-56682.41461305793,-34213.61407203842,-31500.782847497805,-8753.747791498638,-21147.1418913772,0.0,0.0,0.0,193.0,1.0,155.0,0.0,43.0,3.0,251.0,411.0,43.0,1019.0,1744252799.3506367,0.0,2025-04-09 22:39:59.350,LEFT,28
218.0,12603.992236136466,1399.8897552358812,-59860.87737809151,-56711.40482561646,-34239.855020028954,-31527.739051310906,-8591.764699431027,-21153.95917343607,0.0,0.0,0.0,193.0,1.0,154.0,0.0,44.0,3.0,250.0,410.0,44.0,1018.0,1744252799.3506503,0.0,2025-04-09 22:39:59.350,LEFT,28
219.0,12578.466543968505,1370.608969999429,-59866.55472118315,-56706.755662769756,-34271.68390413331,-31555.34345571321,-8626.387551592297,-21172.064086444865,0.0,0.0,0.0,193.0,1.0,154.0,0.0,44.0,3.0,249.0,410.0,44.0,1017.0,1744252799.3506591,0.0,2025-04-09 22:39:59.350,LEFT,28
220.0,12696.640216903714,1399.3980168578646,-59862.30788973664,-56687.44375556037,-34291.733418909724,-31573.090740810723,-8541.294460450943,-21197.47801989055,0.0,0.0,0.0,193.0,1.0,155.0,0.0,44.0,3.0,251.0,411.0,44.0,1019.0,1744252799.350668,0.0,2025-04-09 22:39:59.350,LEFT,28
221.0,12678.602359128281,1410.0821507075013,-59820.39836888294,-56695.69154926438,-34214.01640343862,-31490.18812062599,-8805.067396768021,-21130.959228391555,0.0,0.0,0.0,193.0,1.0,155.0,0.0,44.0,3.0,250.0,411.0,44.0,1018.0,1744252799.3506768,0.0,2025-04-09 22:39:59.350,LEFT,28
222.0,12626.96982943652,1416.0500664770684,-59837.60921211353,-56685.61091251504,-34220.431354097294,-31507.398963856576,-8575.067946322912,-21139.363484306752,0.0,0.0,0.0,193.0,1.0,154.0,0.0,44.0,3.0,249.0,410.0,44.0,1017.0,1744252799.3506854,0.0,2025-04-09 22:39:59.350,LEFT,28
223.0,12575.761982889413,1377.7838799695826,-59860.162122268935,-56718.69149430889,-34254.048377758074,-31545.374577686143,-8656.47299962914,-21178.590795825818,0.0,0.0,0.0,193.0,1.0,154.0,0.0,44.0,3.0,249.0,410.0,44.0,1017.0,1744252799.350694,0.0,2025-04-09 22:39:59.350,LEFT,28
224.0,12680.50225740698,1388.3339033524876,-59864.25249150425,-56676.22317984381,-34297.88014863493,-31583.73017117145,-8502.514183820986,-21208.96681654058,0.0,0.0,0.0,193.0,1.0,154.0,0.0,44.0,3.0,249.0,410.0,44.0,1017.0,1744252799.3507028,0.0,2025-04-09 22:39:59.350,LEFT,28
225.0,12684.905551064678,1399.0850924354902,-59838.65974410293,-56722.960677499854,-34226.578083822504,-31508.002460956868,-8827.285030756597,-21148.773568722438,0.0,0.0,0.0,193.0,1.0,154.0,0.0,44.0,3.0,250.0,410.0,44.0,1018.0,1744252799.3507113,0.0,2025-04-09 22:39:59.350,LEFT,28
226.0,12621.873631700711,1397.967505212725,-59846.259337217736,-56693.00933992975,-34227.94154023428,-31524.3415861537,-8581.102917325845,-21158.206004882577,0.0,0.0,0.0,193.0,1.0,154.0,0.0,44.0,3.0,249.0,410.0,44.0,1017.0,1744252799.35072,0.0,2025-04-09 22:39:59.350,LEFT,28
227.0,12558.774657103379,1372.4641647892195,-59871.87443636351,-56741.75849458677,-34252.97549402422,-31547.497993409397,-8680.657587129783,-21190.86190353178,0.0,0.0,0.0,193.0,1.0,154.0,0.0,44.0,3.0,251.0,410.0,44.0,1019.0,1744252799.3507288,0.0,2025-04-09 22:39:59.350,LEFT,28
228.0,12647.824007013323,1376.12985087989,-59866.04063106068,-56673.339804809075,-34296.78491315662,-31585.697124683516,-8489.237247614534,-21207.513953150985,0.0,0.0,0.0,193.0,1.0,154.0,0.0,44.0,3.0,249.0,410.0,44.0,1017.0,1744252799.3507373,0.0,2025-04-09 22:39:59.350,LEFT,28
229.0,12688.057147032876,1398.3027813795545,-59850.10383726405,-56731.96843051534,-34238.9833019952,-31514.775039526827,-8821.026542309111,-21153.33332459132,0.0,0.0,0.0,193.0,1.0,154.0,0.0,44.0,3.0,251.0,410.0,44.0,1019.0,1744252799.350746,0.0,2025-04-09 22:39:59.350,LEFT,28
230.0,12640.604393554258,1409.4115983738423,-59827.77444455319,-56668.869455918015,-34214.977528450196,-31501.743972509383,-8621.157243389755,-21136.8377371833,0.0,0.0,0.0,193.0,1.0,154.0,0.0,44.0,3.0,250.0,410.0,44.0,1018.0,1744252799.3507547,0.0,2025-04-09 22:39:59.350,LEFT,28
231.0,12556.9641658025,1371.0336531440798,-59877.70824166635,-56747.25702372278,-34253.19901146877,-31540.703063094985,-8682.66924413076,-21174.2992608904,0.0,0.0,0.0,193.0,1.0,155.0,0.0,44.0,3.0,250.0,411.0,44.0,1018.0,1744252799.350763,0.0,2025-04-09 22:39:59.350,LEFT,28
232.0,12613.581134507793,1362.2270658286889,-59870.84625611857,-56680.11238337903,-34298.77421841314,-31587.328802028755,-8524.35183815382,-21208.542133395928,0.0,0.0,0.0,193.0,1.0,154.0,0.0,44.0,3.0,252.0,410.0,44.0,1020.0,1744252799.350772,0.0,2025-04-09 22:39:59.350,LEFT,28
233.0,12689.107679022274,1387.8198132300156,-59863.872511848516,-56738.38338117402,-34259.68101736081,-31538.512592138362,-8775.83131502048,-21170.544167821907,0.0,0.0,0.0,193.0,1.0,155.0,0.0,44.0,3.0,252.0,411.0,44.0,1020.0,1744252799.3507853,0.0,2025-04-09 22:39:59.350,LEFT,28
234.0,12634.211794640041,1394.4359295887864,-59832.13303472198,-56678.9277409229,-34219.6266912969,-31507.66718479004,-8674.309691704475,-21139.47524302903,0.0,0.0,0.0,193.0,1.0,154.0,0.0,44.0,3.0,250.0,410.0,44.0,1018.0,1744252799.350794,0.0,2025-04-09 22:39:59.350,LEFT,28
235.0,12567.402430463128,1384.7352724951832,-59869.25928226225,-56737.154035228974,-34240.279703173605,-31527.493182121896,-8663.133819476821,-21163.726885763037,0.0,0.0,0.0,193.0,1.0,155.0,0.0,44.0,3.0,250.0,411.0,44.0,1018.0,1744252799.3508024,0.0,2025-04-09 22:39:59.350,LEFT,28
236.0,12586.043785338854,1359.1201733494013,-59875.22719803181,-56692.31643585163,-34294.57209045554,-31576.3540955012,-8565.590806673861,-21197.880351290747,0.0,0.0,0.0,193.0,1.0,154.0,0.0,44.0,3.0,249.0,410.0,44.0,1017.0,1744252799.350811,0.0,2025-04-09 22:39:59.350,LEFT,28
237.0,12686.090193520808,1382.4106910718313,-59882.312701024144,-56736.93051778442,-34289.297078764095,-31559.2997144818,-8714.811052657491,-21194.706403578093,0.0,0.0,0.0,193.0,1.0,154.0,0.0,44.0,3.0,251.0,410.0,44.0,1019.0,1744252799.3508196,0.0,2025-04-09 22:39:59.350,LEFT,28
238.0,12638.637440042192,1391.351388853954,-59842.75011333825,-56699.26782837723,-34229.953197235256,-31508.89653073508,-8753.032535676068,-21144.8396616983,0.0,0.0,0.0,193.0,1.0,155.0,0.0,44.0,3.0,252.0,411.0,44.0,1020.0,1744252799.3508284,0.0,2025-04-09 22:39:59.350,LEFT,28
239.0,12576.72310790099,1392.223106887711,-59872.589692186084,-56738.070456751644,-34237.59749383897,-31527.828458288728,-8633.026019695524,-21158.496577560494,0.0,0.0,0.0,193.0,1.0,154.0,0.0,44.0,3.0,251.0,410.0,44.0,1019.0,1744252799.3508375,0.0,2025-04-09 22:39:59.350,LEFT,28
240.0,12575.694927656046,1364.8645716744152,-59866.55472118315,-56704.654598790956,-34269.26991573214,-31560.640819149117,-8609.534336272996,-21186.77153429646,0.0,0.0,0.0,193.0,1.0,155.0,0.0,44.0,3.0,252.0,411.0,44.0,1020.0,1744252799.3508463,0.0,2025-04-09 22:39:59.350,LEFT,28
241.0,12694.248580246995,1396.738159267683,-59865.7277066383,-56708.52145058173,-34276.24366000219,-31560.573763915752,-8610.093129884379,-21186.61507208527,0.0,0.0,0.0,193.0,1.0,154.0,0.0,44.0,3.0,249.0,410.0,44.0,1017.0,1744252799.350855,0.0,2025-04-09 22:39:59.350,LEFT,28
242.0,12662.173826953629,1408.4728251067193,-59820.733645049775,-56692.04821491816,-34202.61701376641,-31488.75760898085,-8787.78949830407,-21125.036016110902,0.0,0.0,0.0,193.0,1.0,155.0,0.0,44.0,3.0,251.0,411.0,44.0,1019.0,1744252799.3508637,0.0,2025-04-09 22:39:59.350,LEFT,28
243.0,12594.515096487416,1398.3027813795545,-59859.89390133547,-56714.019979717734,-34230.556694335544,-31521.14528669659,-8608.237935094588,-21150.204080367577,0.0,0.0,0.0,193.0,1.0,154.0,0.0,44.0,3.0,250.0,410.0,44.0,1018.0,1744252799.3508725,0.0,2025-04-09 22:39:59.350,LEFT,28
244.0,12555.600709390726,1363.3670047959097,-59875.607177687554,-56724.48059612282,-34272.510918678156,-31560.372598215654,-8663.75966832157,-21188.783191297436,0.0,0.0,0.0,193.0,1.0,154.0,0.0,44.0,3.0,251.0,410.0,44.0,1019.0,1744252799.350881,0.0,2025-04-09 22:39:59.350,LEFT,28
245.0,12676.635405616213,1388.1774411413005,-59876.50124746576,-56698.97725569931,-34304.4962649937,-31585.898290383615,-8560.405201960231,-21211.604322386305,0.0,0.0,0.0,193.0,1.0,154.0,0.0,44.0,3.0,250.0,410.0,44.0,1018.0,1744252799.35089,0.0,2025-04-09 22:39:59.350,LEFT,28
246.0,12671.159228224664,1402.2366884036885,-59832.0212759997,-56716.29985765217,-34221.95127272025,-31501.05106843127,-8848.988574622701,-21142.313914574854,0.0,0.0,0.0,193.0,1.0,154.0,0.0,44.0,3.0,249.0,410.0,44.0,1017.0,1744252799.3508987,0.0,2025-04-09 22:39:59.350,LEFT,28
247.0,12601.265323312919,1393.4971563216636,-59855.51295942223,-56708.20852615935,-34235.183505437795,-31525.48152512092,-8599.252533823554,-21147.477167544028,0.0,0.0,0.0,193.0,1.0,155.0,0.0,44.0,3.0,252.0,411.0,44.0,1020.0,1744252799.3509076,0.0,2025-04-09 22:39:59.350,LEFT,28
248.0,12544.737761585446,1357.8461239154487,-59883.74321266928,-56751.9955935473,-34274.3884652124,-31562.987752316923,-8704.082215318944,-21194.751107067004,0.0,0.0,0.0,193.0,1.0,154.0,0.0,44.0,3.0,249.0,410.0,44.0,1017.0,1744252799.350921,0.0,2025-04-09 22:39:59.350,LEFT,28
249.0,12658.977527496521,1381.673083504806,-59870.10864855155,-56687.68962474938,-34306.5973289725,-31593.117903842678,-8533.985440014058,-21218.48865967854,0.0,0.0,0.0,193.0,1.0,155.0,0.0,44.0,3.0,252.0,411.0,44.0,1020.0,1744252799.3509295,0.0,2025-04-09 22:39:59.350,LEFT,28
250.0,12676.501295149481,1395.8440894894707,-59844.761770339224,-56737.77988407372,-34236.54696184957,-31519.80418202927,-8858.979804394223,-21155.18851938111,0.0,0.0,0.0,193.0,1.0,154.0,0.0,44.0,3.0,250.0,410.0,44.0,1018.0,1744252799.3509383,0.0,2025-04-09 22:39:59.350,LEFT,28
251.0,12625.472262558016,1403.0413512040795,-59836.312810935124,-56687.48845904928,-34222.3759558649,-31515.155019182566,-8612.998856663567,-21137.865917428247,0.0,0.0,0.0,193.0,1.0,155.0,0.0,44.0,3.0,252.0,411.0,44.0,1020.0,1744252799.350947,0.0,2025-04-09 22:39:59.350,LEFT,28
252.0,12561.8144943493,1374.7440427236609,-59865.70535489385,-56740.70796259737,-34246.87346778792,-31539.741938083404,-8698.360168738385,-21168.353696865284,0.0,0.0,0.0,193.0,1.0,154.0,0.0,44.0,3.0,249.0,410.0,44.0,1017.0,1744252799.3509555,0.0,2025-04-09 22:39:59.350,LEFT,28
253.0,12639.375047609217,1371.2795223330884,-59864.65482290445,-56674.90442692095,-34301.27761379214,-31587.21704330648,-8522.071960219379,-21200.651967603204,0.0,0.0,0.0,193.0,1.0,154.0,0.0,44.0,3.0,251.0,410.0,44.0,1019.0,1744252799.3509643,0.0,2025-04-09 22:39:59.350,LEFT,28
254.0,12691.409908701171,1392.7595487546384,-59852.875453576504,-56740.12681724153,-34253.10960449095,-31527.13555421061,-8849.592071722993,-21165.962060208567,0.0,0.0,0.0,193.0,1.0,155.0,0.0,44.0,3.0,252.0,411.0,44.0,1020.0,1744252799.3509731,0.0,2025-04-09 22:39:59.350,LEFT,28
255.0,12636.916355719133,1399.42036860232,-59829.674342831895,-56679.95592116784,-34224.07468844351,-31511.869312747636,-8662.060935742968,-21139.251725584476,0.0,0.0,0.0,193.0,1.0,154.0,0.0,44.0,3.0,248.0,410.0,44.0,1016.0,1744252799.3509817,0.0,2025-04-09 22:39:59.350,LEFT,28
0.0,12559.288747225852,1370.676025232795,-59875.674232920916,-56752.33086971413,-34256.93175279281,-31542.535906140318,-8707.904363620803,-21168.554862565383,0.0,0.0,0.0,193.0,1.0,155.0,0.0,44.0,3.0,251.0,411.0,44.0,1019.0,1744252799.3509903,0.0,2025-04-09 22:39:59.350,LEFT,28
1.0,12619.772567721911,1368.8878856763704,-59857.54696816766,-56676.87138043301,-34290.92875610933,-31581.159720559088,-8559.578187415384,-21194.885217533734,0.0,0.0,0.0,193.0,1.0,154.0,0.0,44.0,3.0,249.0,410.0,44.0,1017.0,1744252799.350999,0.0,2025-04-09 22:39:59.350,LEFT,28
2.0,12704.172754785151,1397.2746011346105,-59850.5285204087,-56728.213337446854,-34257.423491170826,-31538.62435086064,-8774.065527208511,-21171.505292833484,0.0,0.0,0.0,193.0,1.0,154.0,0.0,44.0,3.0,251.0,410.0,44.0,1019.0,1744252799.3510077,0.0,2025-04-09 22:39:59.351,LEFT,28
3.0,12650.997954725975,1400.3591418694427,-59818.09613920405,-56677.676043233405,-34214.552845305545,-31502.436876587497,-8711.368884011375,-21129.305199301863,0.0,0.0,0.0,193.0,1.0,155.0,0.0,44.0,3.0,252.0,411.0,44.0,1020.0,1744252799.3510163,0.0,2025-04-09 22:39:59.351,LEFT,28
4.0,12583.450982982038,1390.479670820197,-59859.89390133547,-56734.38241891652,-34242.76074680814,-31526.62146408814,-8682.62454064185,-21157.17782463763,0.0,0.0,0.0,193.0,1.0,154.0,0.0,44.0,3.0,249.0,410.0,44.0,1017.0,1744252799.351025,0.0,2025-04-09 22:39:59.351,LEFT,28
5.0,12589.128326073685,1361.5565134950298,-59867.11351479453,-56695.848011475566,-34293.633317188425,-31581.785569403837,-8614.563478775439,-21210.397328185718,0.0,0.0,0.0,193.0,1.0,155.0,0.0,44.0,3.0,252.0,411.0,44.0,1020.0,1744252799.351034,0.0,2025-04-09 22:39:59.351,LEFT,28
6.0,12698.115432037763,1396.6040488009512,-59867.85112236156,-56724.32413391163,-34284.37969498392,-31565.558202929285,-8714.0063898571,-21214.308883465397,0.0,0.0,0.0,193.0,1.0,154.0,0.0,44.0,3.0,249.0,410.0,44.0,1017.0,1744252799.3510425,0.0,2025-04-09 22:39:59.351,LEFT,28
7.0,12663.805504298867,1411.8702902639259,-59815.3692263805,-56677.85485718905,-34209.88133071439,-31486.90241419106,-8775.630149320383,-21121.28092304241,0.0,0.0,0.0,193.0,1.0,155.0,0.0,44.0,3.0,252.0,411.0,44.0,1020.0,1744252799.3510556,0.0,2025-04-09 22:39:59.351,LEFT,28
8.0,12596.482049999482,1399.867403491426,-59853.18837799888,-56717.529203597216,-34234.51295310414,-31515.132667438113,-8648.202854180678,-21139.296429073387,0.0,0.0,0.0,193.0,1.0,155.0,0.0,44.0,3.0,252.0,411.0,44.0,1020.0,1744252799.351064,0.0,2025-04-09 22:39:59.351,LEFT,28
9.0,12567.290671740851,1355.4321355142756,-59868.78989562868,-56715.80811927416,-34286.16783454035,-31574.096569311212,-8664.832552055424,-21202.39540367072,0.0,0.0,0.0,193.0,1.0,154.0,0.0,44.0,3.0,251.0,410.0,44.0,1019.0,1744252799.3510728,0.0,2025-04-09 22:39:59.351,LEFT,28
10.0,12690.158211011674,1386.7245777517055,-59862.57611067011,-56707.672084292426,-34293.87918637743,-31573.269554766364,-8637.1387406753,-21205.591703127826,0.0,0.0,0.0,193.0,1.0,155.0,0.0,44.0,3.0,251.0,411.0,44.0,1019.0,1744252799.3510814,0.0,2025-04-09 22:39:59.351,LEFT,28
11.0,12677.149495738686,1408.6516390623617,-59803.47809833028,-56688.24841836077,-34202.68406899978,-31480.442760043476,-8843.065362342044,-21111.535562459896,0.0,0.0,0.0,193.0,1.0,154.0,0.0,44.0,3.0,249.0,410.0,44.0,1017.0,1744252799.3510902,0.0,2025-04-09 22:39:59.351,LEFT,28
12.0,12619.63845725518,1412.0044007306578,-59828.26618293121,-56696.473860320315,-34215.759839506136,-31508.114219679144,-8636.0882086859,-21129.551068490873,0.0,0.0,0.0,193.0,1.0,155.0,0.0,44.0,3.0,251.0,411.0,44.0,1019.0,1744252799.3510993,0.0,2025-04-09 22:39:59.351,LEFT,28
13.0,12559.132285014664,1354.9627488807141,-59864.833636860094,-56731.65550609297,-34269.716950621245,-31566.116996540666,-8701.221192028665,-21189.81137154238,0.0,0.0,0.0,193.0,1.0,154.0,0.0,44.0,3.0,250.0,410.0,44.0,1018.0,1744252799.3511078,0.0,2025-04-09 22:39:59.351,LEFT,28
14.0,12671.852132302778,1374.028786901091,-59867.5829014281,-56699.04431093268,-34303.66925044885,-31597.029459122357,-8579.158315558234,-21221.886124835746,0.0,0.0,0.0,193.0,1.0,154.0,0.0,44.0,3.0,251.0,410.0,44.0,1019.0,1744252799.3511164,0.0,2025-04-09 22:39:59.351,LEFT,28
15.0,12664.07372523233,1387.0375021740797,-59831.68599983287,-56725.776997301225,-34227.15922917834,-31509.94706272448,-8883.90199946189,-21145.84549019879,0.0,0.0,0.0,193.0,1.0,155.0,0.0,44.0,3.0,251.0,411.0,44.0,1019.0,1744252799.3511248,0.0,2025-04-09 22:39:59.351,LEFT,28
16.0,12603.433442525084,1385.1152521509234,-59847.712200607326,-56705.571020313626,-34237.552790350055,-31530.220094945445,-8639.865653498848,-21152.506310046472,0.0,0.0,0.0,193.0,1.0,154.0,0.0,44.0,3.0,249.0,410.0,44.0,1017.0,1744252799.3511336,0.0,2025-04-09 22:39:59.351,LEFT,28
17.0,12546.347087186228,1349.7994959115383,-59874.60134918706,-56750.49802666879,-34271.16981401084,-31557.600981903197,-8743.980079171668,-21183.91051100618,0.0,0.0,0.0,193.0,1.0,155.0,0.0,44.0,3.0,251.0,411.0,44.0,1019.0,1744252799.3511424,0.0,2025-04-09 22:39:59.351,LEFT,28
18.0,12654.149550694174,1370.1395833658676,-59861.74909612526,-56682.12404038001,-34306.82084641705,-31582.701990926504,-8565.300233995942,-21205.703461850102,0.0,0.0,0.0,193.0,1.0,154.0,0.0,44.0,3.0,249.0,410.0,44.0,1017.0,1744252799.3511508,0.0,2025-04-09 22:39:59.351,LEFT,28
19.0,12688.437126688616,1396.8946214788702,-59830.38959865447,-56727.31926766864,-34227.71802278972,-31500.179350397513,-8889.221714642254,-21138.916449417648,0.0,0.0,0.0,193.0,1.0,155.0,0.0,44.0,3.0,251.0,411.0,44.0,1019.0,1744252799.3511596,0.0,2025-04-09 22:39:59.351,LEFT,28
20.0,12629.428521326605,1399.5097755801412,-59828.26618293121,-56683.465145047325,-34221.481886086694,-31506.840170245192,-8645.006554723568,-21129.439309768597,0.0,0.0,0.0,193.0,1.0,155.0,0.0,44.0,3.0,251.0,411.0,44.0,1019.0,1744252799.3511684,0.0,2025-04-09 22:39:59.351,LEFT,28
21.0,12558.0146977919,1368.3290920649877,-59867.985232828294,-56752.062648780666,-34250.717967834236,-31537.10443223768,-8727.730360952659,-21160.597641539294,0.0,0.0,0.0,193.0,1.0,154.0,0.0,44.0,3.0,249.0,410.0,44.0,1017.0,1744252799.351177,0.0,2025-04-09 22:39:59.351,LEFT,28
22.0,12635.418788840627,1367.5244292645966,-59859.02218330171,-56676.87138043301,-34294.50503522218,-31579.99742984741,-8552.626794889784,-21194.684051833636,0.0,0.0,0.0,193.0,1.0,155.0,0.0,44.0,3.0,251.0,411.0,44.0,1019.0,1744252799.35119,0.0,2025-04-09 22:39:59.351,LEFT,28
23.0,12690.202914500585,1387.0151504296246,-59853.83657858808,-56741.17734923093,-34255.031854514105,-31526.867333277147,-8856.23053982622,-21160.865862472758,0.0,0.0,0.0,193.0,1.0,154.0,0.0,44.0,3.0,250.0,410.0,44.0,1018.0,1744252799.3511984,0.0,2025-04-09 22:39:59.351,LEFT,28
24.0,12637.922184219622,1400.7614732696384,-59822.27591541719,-56675.88790367698,-34219.380822107894,-31503.040373687792,-8706.272686275564,-21133.820251681835,0.0,0.0,0.0,193.0,1.0,155.0,0.0,44.0,3.0,252.0,411.0,44.0,1020.0,1744252799.3512073,0.0,2025-04-09 22:39:59.351,LEFT,28
25.0,12570.419915964594,1383.2824091055882,-59859.20099725736,-56741.11029399757,-34238.044528728075,-31530.085984478712,-8725.696352207226,-21164.03981018541,0.0,0.0,0.0,193.0,1.0,154.0,0.0,44.0,3.0,250.0,410.0,44.0,1018.0,1744252799.351216,0.0,2025-04-09 22:39:59.351,LEFT,28
26.0,12607.9261431606,1360.349519294443,-59854.23890998828,-56683.487496791786,-34285.76550314015,-31580.64563043662,-8597.017359378024,-21200.67431934766,0.0,0.0,0.0,193.0,1.0,154.0,0.0,44.0,3.0,250.0,410.0,44.0,1018.0,1744252799.351225,0.0,2025-04-09 22:39:59.351,LEFT,28
27.0,12688.392423199704,1379.41555731482,-59860.07271529111,-56741.4455701644,-34269.06875003204,-31556.036359791324,-8788.907085526835,-21187.710307563582,0.0,0.0,0.0,193.0,1.0,155.0,0.0,44.0,3.0,252.0,411.0,44.0,1020.0,1744252799.3512335,0.0,2025-04-09 22:39:59.351,LEFT,28
28.0,12632.825986483811,1381.382510826887,-59827.05918873062,-56695.95977019784,-34221.66070004233,-31512.919844737036,-8764.655442792826,-21132.546202247882,0.0,0.0,0.0,193.0,1.0,155.0,0.0,44.0,3.0,251.0,411.0,44.0,1019.0,1744252799.3512423,0.0,2025-04-09 22:39:59.351,LEFT,28
29.0,12570.241102008951,1372.933551422781,-59866.19709327187,-56747.90522431198,-34244.79475555358,-31532.924656024537,-8709.893668877325,-21146.85131869928,0.0,0.0,0.0,193.0,1.0,154.0,0.0,44.0,3.0,250.0,410.0,44.0,1018.0,1744252799.3512511,0.0,2025-04-09 22:39:59.351,LEFT,28
30.0,12583.138058559663,1354.9180453918036,-59859.69273563537,-56701.234781889296,-34284.22323277274,-31570.29677275381,-8656.562406606961,-21185.318670906865,0.0,0.0,0.0,193.0,1.0,155.0,0.0,44.0,3.0,248.0,411.0,44.0,1016.0,1744252799.35126,0.0,2025-04-09 22:39:59.351,LEFT,28
31.0,12683.519742908447,1377.1356793803786,-59873.774334642214,-56732.75074157128,-34298.34953526849,-31577.829310635247,-8723.148253339321,-21210.844363074822,0.0,0.0,0.0,193.0,1.0,154.0,0.0,44.0,3.0,251.0,410.0,44.0,1019.0,1744252799.3512685,0.0,2025-04-09 22:39:59.351,LEFT,28
32.0,12644.784169767401,1387.7751097411049,-59822.49943286174,-56700.34071211109,-34222.64417679837,-31497.161864896047,-8839.042048340089,-21121.996178864978,0.0,0.0,0.0,193.0,1.0,155.0,0.0,44.0,3.0,252.0,411.0,44.0,1020.0,1744252799.3512776,0.0,2025-04-09 22:39:59.351,LEFT,28
33.0,12587.742517917457,1390.993760942669,-59848.29334596317,-56720.881965265515,-34232.166019936325,-31514.99855697138,-8671.225150969643,-21134.870783671235,0.0,0.0,0.0,193.0,1.0,154.0,0.0,44.0,3.0,250.0,410.0,44.0,1018.0,1744252799.3512864,0.0,2025-04-09 22:39:59.351,LEFT,28
34.0,12560.629851893169,1354.7168796917058,-59862.866683348024,-56720.97137224334,-34278.50118619218,-31562.943048828012,-8692.392252968819,-21186.413906385173,0.0,0.0,0.0,193.0,1.0,154.0,0.0,44.0,3.0,249.0,410.0,44.0,1017.0,1744252799.351295,0.0,2025-04-09 22:39:59.351,LEFT,28
35.0,12674.154361981675,1375.481650290686,-59868.476971206306,-56712.38830237249,-34305.7479626832,-31579.59509844722,-8637.183444164211,-21197.366261168274,0.0,0.0,0.0,193.0,1.0,154.0,0.0,45.0,3.0,250.0,410.0,45.0,1018.0,1744252799.3513036,0.0,2025-04-09 22:39:59.351,LEFT,28
36.0,12663.783152554412,1395.1064819224457,-59817.35853163702,-56708.96848547083,-34218.66556628532,-31493.406771827555,-8885.578380296038,-21119.112803830245,0.0,0.0,0.0,193.0,1.0,154.0,0.0,44.0,3.0,249.0,410.0,44.0,1017.0,1744252799.3513124,0.0,2025-04-09 22:39:59.351,LEFT,28
37.0,12607.479108271493,1397.2075459012444,-59837.76567432471,-56702.64294178998,-34228.92501699031,-31513.791562770795,-8655.511874617563,-21136.748330205482,0.0,0.0,0.0,193.0,1.0,155.0,0.0,44.0,3.0,252.0,411.0,44.0,1020.0,1744252799.3513255,0.0,2025-04-09 22:39:59.351,LEFT,28
38.0,12558.618194892191,1364.9763303966918,-59854.194206499364,-56723.83239553362,-34261.49150866169,-31541.038339261813,-8730.881956920857,-21159.994144439002,0.0,0.0,0.0,193.0,1.0,155.0,0.0,44.0,3.0,249.0,411.0,44.0,1017.0,1744252799.8301268,0.0,2025-04-09 22:39:59.830,LEFT,28
39.0,12673.014423014454,1391.0161126871244,-59847.8239593296,-56677.92191242241,-34290.50407296468,-31574.565955944774,-8572.542199199463,-21183.888159261725,0.0,0.0,0.0,193.0,1.0,155.0,0.0,44.0,3.0,251.0,411.0,44.0,1019.0,1744252799.830166,0.0,2025-04-09 22:39:59.830,LEFT,28
40.0,12690.962873812065,1420.5874706014956,-59805.2662378867,-56701.54770631167,-34208.272005113606,-31481.537995521787,-8893.066214688566,-21113.323702016318,0.0,0.0,0.0,193.0,1.0,154.0,0.0,44.0,3.0,249.0,410.0,44.0,1017.0,1744252799.8301857,0.0,2025-04-09 22:39:59.830,LEFT,28
41.0,12632.22248938352,1418.9781450007135,-59820.15249969393,-56676.96078741083,-34218.08442092948,-31501.431048087008,-8647.129970446822,-21125.728920189016,0.0,0.0,0.0,193.0,1.0,155.0,0.0,44.0,3.0,252.0,411.0,44.0,1020.0,1744252799.8302062,0.0,2025-04-09 22:39:59.830,LEFT,28
42.0,12560.093410026242,1372.575923511496,-59857.479912934294,-56737.53401488472,-34254.69657834728,-31542.893534051604,-8748.741000740649,-21173.695763790103,0.0,0.0,0.0,193.0,1.0,154.0,0.0,44.0,3.0,251.0,410.0,44.0,1019.0,1744252799.830224,0.0,2025-04-09 22:39:59.830,LEFT,28
43.0,12655.133027450209,1379.3932055703647,-59848.38275294099,-56671.70812746384,-34294.92971836683,-31585.54066247233,-8568.183609030677,-21218.511011422994,0.0,0.0,0.0,193.0,1.0,155.0,0.0,44.0,3.0,252.0,411.0,44.0,1020.0,1744252799.8302417,0.0,2025-04-09 22:39:59.830,LEFT,28
44.0,12691.119336023252,1401.9237639813143,-59826.92507826389,-56723.385360644505,-34236.21168568274,-31500.559330053253,-8897.268342646163,-21130.534545246905,0.0,0.0,0.0,193.0,1.0,154.0,0.0,44.0,3.0,250.0,410.0,44.0,1018.0,1744252799.830259,0.0,2025-04-09 22:39:59.830,LEFT,28
45.0,12629.629687026703,1404.963601227236,-59820.33131364958,-56673.272749575706,-34228.455630356744,-31498.637080030094,-8683.831534842437,-21106.84169612428,0.0,0.0,0.0,193.0,1.0,154.0,0.0,44.0,3.0,252.0,410.0,44.0,1020.0,1744252799.830277,0.0,2025-04-09 22:39:59.830,LEFT,28
46.0,12554.639584379147,1375.9286851797922,-59860.05036354666,-56741.11029399757,-34255.031854514105,-31531.33768216821,-8761.30268112453,-21149.60058326728,0.0,0.0,0.0,193.0,1.0,154.0,0.0,44.0,3.0,249.0,410.0,44.0,1017.0,1744252799.8302948,0.0,2025-04-09 22:39:59.830,LEFT,28
47.0,12627.014532925432,1371.4583362887308,-59847.3769244405,-56665.851970416545,-34291.28638402061,-31575.571784445263,-8589.261304052032,-21179.37310688175,0.0,0.0,0.0,193.0,1.0,155.0,0.0,44.0,3.0,251.0,411.0,44.0,1019.0,1744252799.830308,0.0,2025-04-09 22:39:59.830,LEFT,28
48.0,12698.830687860333,1399.286258135588,-59838.59268886956,-56721.08313096561,-34246.91817127683,-31525.034490231814,-8855.783504937113,-21139.966981407044,0.0,0.0,0.0,193.0,1.0,154.0,0.0,45.0,3.0,251.0,410.0,45.0,1019.0,1744252799.83032,0.0,2025-04-09 22:39:59.830,LEFT,28
49.0,12650.662678559147,1411.222089674722,-59805.37799660898,-56655.01137435572,-34206.237996368174,-31495.37372533962,-8736.089913378944,-21095.710527385538,0.0,0.0,0.0,193.0,1.0,154.0,0.0,44.0,3.0,249.0,410.0,44.0,1017.0,1744252799.8303297,0.0,2025-04-09 22:39:59.830,LEFT,28
50.0,12575.784334633869,1394.2794673775993,-59848.44980817435,-56714.77993902921,-34227.33804313398,-31519.67007156254,-8737.118093623889,-21121.303274786864,0.0,0.0,0.0,193.0,1.0,154.0,0.0,44.0,3.0,251.0,410.0,44.0,1019.0,1744252799.8303385,0.0,2025-04-09 22:39:59.830,LEFT,28
51.0,12608.373178049706,1378.9908741701693,-59841.43136041539,-56649.95988010882,-34269.06875003204,-31561.043150549314,-8626.745179503581,-21153.556842035872,0.0,0.0,0.0,193.0,1.0,154.0,0.0,44.0,3.0,250.0,410.0,44.0,1018.0,1744252799.8303473,0.0,2025-04-09 22:39:59.830,LEFT,28
52.0,12703.569257684858,1401.7225982812165,-59847.6227936295,-56693.45637481885,-34256.864697559446,-31539.183144472023,-8791.49988788365,-21146.024304154435,0.0,0.0,0.0,193.0,1.0,154.0,0.0,44.0,3.0,252.0,410.0,44.0,1020.0,1744252799.830392,0.0,2025-04-09 22:39:59.830,LEFT,28
53.0,12661.88325427571,1416.6312118329063,-59802.58402855206,-56641.466217215806,-34193.25163283964,-31487.50591129135,-8809.113062514432,-21098.191571020077,0.0,0.0,0.0,193.0,1.0,154.0,0.0,44.0,3.0,250.0,410.0,44.0,1018.0,1744252799.8304038,0.0,2025-04-09 22:39:59.830,LEFT,28
54.0,12589.642416196159,1402.9742959707137,-59847.60044188505,-56689.902447450455,-34219.89491223037,-31519.55831284026,-8711.860622389391,-21126.332417289308,0.0,0.0,0.0,193.0,1.0,154.0,0.0,44.0,3.0,250.0,410.0,44.0,1018.0,1744252799.8304129,0.0,2025-04-09 22:39:59.830,LEFT,28
55.0,12578.421840479594,1365.5574757525296,-59857.45756118984,-56663.25916805973,-34268.44290118729,-31560.30554298229,-8686.871372088359,-21149.578231522828,0.0,0.0,0.0,193.0,1.0,155.0,0.0,44.0,3.0,252.0,411.0,44.0,1020.0,1744252799.8304217,0.0,2025-04-09 22:39:59.830,LEFT,28
56.0,12693.13099302423,1394.7935575000713,-59860.20682575784,-56671.55166525265,-34274.96961056824,-31553.1976882455,-8720.667209704783,-21142.80565295287,0.0,0.0,0.0,193.0,1.0,154.0,0.0,45.0,3.0,250.0,410.0,45.0,1018.0,1744252799.8304305,0.0,2025-04-09 22:39:59.830,LEFT,28
57.0,12660.206873441562,1405.0530082050573,-59813.871659501994,-56647.16591205191,-34202.460551555225,-31481.448588543964,-8885.243104129207,-21083.528826657395,0.0,0.0,0.0,193.0,1.0,154.0,0.0,44.0,3.0,251.0,410.0,44.0,1019.0,1744252799.8304393,0.0,2025-04-09 22:39:59.830,LEFT,28
58.0,12600.43830876807,1402.7507785261607,-59845.477026161796,-56665.226121571795,-34222.577121565,-31508.158923168055,-8714.922811379769,-21111.982597349,0.0,0.0,0.0,193.0,1.0,154.0,0.0,44.0,3.0,252.0,410.0,44.0,1020.0,1744252799.8304484,0.0,2025-04-09 22:39:59.830,LEFT,28
59.0,12565.323718228785,1364.1716675963007,-59857.88224433449,-56668.19890358435,-34262.25146797317,-31542.82647881824,-8760.319204368498,-21141.464548285552,0.0,0.0,0.0,193.0,1.0,154.0,0.0,44.0,3.0,251.0,410.0,44.0,1019.0,1744252799.8304574,0.0,2025-04-09 22:39:59.830,LEFT,28
60.0,12683.117411508252,1385.5175835511188,-59856.116456522526,-56643.29906026114,-34280.468139704244,-31556.43869119152,-8662.642081098806,-21155.166167636653,0.0,0.0,0.0,193.0,1.0,154.0,0.0,45.0,3.0,250.0,410.0,45.0,1018.0,1744252799.8304663,0.0,2025-04-09 22:39:59.830,LEFT,28
61.0,12674.690803848602,1405.8576710054483,-59813.42462461289,-56652.999717354745,-34200.33713583197,-31471.993800639368,-8934.0593140196,-21087.46273368153,0.0,0.0,0.0,193.0,1.0,154.0,0.0,44.0,3.0,251.0,410.0,44.0,1019.0,1744252799.8304749,0.0,2025-04-09 22:39:59.830,LEFT,28
62.0,12614.519907774915,1410.3280198965097,-59834.03293300068,-56641.37681023798,-34212.96587144922,-31487.841187458183,-8689.821802356459,-21085.27226272491,0.0,0.0,0.0,193.0,1.0,154.0,0.0,44.0,3.0,252.0,410.0,44.0,1020.0,1744252799.830484,0.0,2025-04-09 22:39:59.830,LEFT,28
63.0,12548.9622412875,1361.8470861729488,-59868.32050899512,-56686.39322357097,-34256.55177313707,-31532.96935951345,-8783.475611624195,-21132.70266445907,0.0,0.0,0.0,193.0,1.0,153.0,0.0,44.0,3.0,250.0,409.0,44.0,1018.0,1744252799.8304925,0.0,2025-04-09 22:39:59.830,LEFT,28
64.0,12655.513007105948,1373.1347171228788,-59863.73840138179,-56638.09110380305,-34293.23098578823,-31572.934278599536,-8629.293278371488,-21173.0475632009,0.0,0.0,0.0,193.0,1.0,155.0,0.0,44.0,3.0,251.0,411.0,44.0,1019.0,1744252799.830501,0.0,2025-04-09 22:39:59.830,LEFT,28
65.0,12673.014423014454,1397.6992842792613,-59826.14276720796,-56675.95495891035,-34211.44595282626,-31487.550614780263,-8963.317747511595,-21101.8796088552,0.0,0.0,0.0,193.0,1.0,153.0,0.0,45.0,3.0,250.0,409.0,45.0,1018.0,1744252799.83051,0.0,2025-04-09 22:39:59.830,LEFT,28
66.0,12628.64621027067,1410.6185925744287,-59817.53734559266,-56629.95506882132,-34198.19136836426,-31487.595318269174,-8707.882011876347,-21086.36749820322,0.0,0.0,0.0,193.0,1.0,155.0,0.0,44.0,3.0,252.0,411.0,44.0,1020.0,1744252799.8305185,0.0,2025-04-09 22:39:59.830,LEFT,28
67.0,12557.522959413882,1371.547743266552,-59854.283613477186,-56695.22216263082,-34231.24959841366,-31529.795411800795,-8804.150975245355,-21141.57630700783,0.0,0.0,0.0,193.0,1.0,154.0,0.0,44.0,3.0,250.0,410.0,44.0,1018.0,1744252799.8305323,0.0,2025-04-09 22:39:59.830,LEFT,28
68.0,12648.583966324803,1381.9636561827251,-59840.76080808173,-56623.428359440375,-34268.44290118729,-31568.642743664117,-8612.194193863177,-21167.48197883153,0.0,0.0,0.0,193.0,1.0,154.0,0.0,45.0,3.0,251.0,410.0,45.0,1019.0,1744252799.8305647,0.0,2025-04-09 22:39:59.830,LEFT,28
69.0,12696.483754692526,1406.6846855502947,-59824.17581369589,-56682.52637178021,-34214.843417983466,-31501.14047540909,-8937.09915126552,-21112.697853171572,0.0,0.0,0.0,193.0,1.0,154.0,0.0,44.0,3.0,252.0,410.0,44.0,1020.0,1744252799.8305736,0.0,2025-04-09 22:39:59.830,LEFT,28
70.0,12641.766684265935,1413.7254850537165,-59810.34008387806,-56630.31269673261,-34200.851225954444,-31497.720658507427,-8753.390163587352,-21097.342204730776,0.0,0.0,0.0,193.0,1.0,154.0,0.0,44.0,3.0,250.0,410.0,44.0,1018.0,1744252799.8305824,0.0,2025-04-09 22:39:59.830,LEFT,28
71.0,12560.67455538208,1384.0647201615238,-59859.49156993527,-56706.86742149203,-34235.518781604624,-31530.376557156633,-8814.119853272421,-21130.020455124435,0.0,0.0,0.0,193.0,1.0,154.0,0.0,44.0,3.0,252.0,410.0,44.0,1020.0,1744252799.8305912,0.0,2025-04-09 22:39:59.830,LEFT,28
72.0,12608.708454216536,1370.0054728991358,-59852.65193613195,-56639.700429403834,-34279.88699434841,-31573.224851277457,-8647.197025680189,-21155.52379554794,0.0,0.0,0.0,193.0,1.0,154.0,0.0,44.0,3.0,250.0,410.0,44.0,1018.0,1744252799.8306,0.0,2025-04-09 22:39:59.830,LEFT,28
73.0,12684.972606298043,1393.5642115550295,-59848.338049452075,-56697.233819631794,-34243.87833403091,-31531.158868212566,-8893.110918177475,-21134.13317610421,0.0,0.0,0.0,193.0,1.0,154.0,0.0,45.0,3.0,251.0,410.0,45.0,1019.0,1744252799.8306086,0.0,2025-04-09 22:39:59.830,LEFT,28
74.0,12646.482902346004,1413.0325809756018,-59800.75118550673,-56627.09404553104,-34187.12725485888,-31485.315440334733,-8807.727254358204,-21089.005004048944,0.0,0.0,0.0,193.0,1.0,155.0,0.0,44.0,3.0,252.0,411.0,44.0,1020.0,1744252799.8306177,0.0,2025-04-09 22:39:59.830,LEFT,28
75.0,12567.96122407451,1389.093862663968,-59855.44590418886,-56700.40776734445,-34227.270987900614,-31530.197743200988,-8790.806983805536,-21138.51411801745,0.0,0.0,0.0,193.0,1.0,154.0,0.0,44.0,3.0,249.0,410.0,44.0,1017.0,1744252799.830626,0.0,2025-04-09 22:39:59.830,LEFT,28
76.0,12587.943683617556,1363.7246327071946,-59857.36815421202,-56655.436057500374,-34276.10954953546,-31575.325915256253,-8707.792604898525,-21166.47615033104,0.0,0.0,0.0,193.0,1.0,155.0,0.0,44.0,3.0,251.0,411.0,44.0,1019.0,1744252799.8306348,0.0,2025-04-09 22:39:59.830,LEFT,28
77.0,12697.042548303909,1396.4475865897641,-59851.28847972018,-56684.113345636535,-34258.742244093686,-31543.832307318728,-8824.89339409988,-21139.452891284574,0.0,0.0,0.0,193.0,1.0,154.0,0.0,45.0,3.0,249.0,410.0,45.0,1017.0,1744252799.8306434,0.0,2025-04-09 22:39:59.830,LEFT,28
78.0,12660.162169952651,1416.6312118329063,-59803.05341518563,-56638.13580729197,-34194.30216482904,-31484.734294978894,-8877.263531358663,-21088.401506948652,0.0,0.0,0.0,193.0,1.0,155.0,0.0,44.0,3.0,252.0,411.0,44.0,1020.0,1744252799.830652,0.0,2025-04-09 22:39:59.830,LEFT,28
79.0,12584.434459738071,1402.1249296814121,-59847.73455235178,-56685.722671237316,-34222.35360412045,-31519.893589007093,-8760.45331483523,-21119.023396852423,0.0,0.0,0.0,193.0,1.0,154.0,0.0,44.0,3.0,250.0,410.0,44.0,1018.0,1744252799.8306608,0.0,2025-04-09 22:39:59.830,LEFT,28
80.0,12575.784334633869,1375.1240223794011,-59846.90753780694,-56660.465200002815,-34259.45749991626,-31556.706912124984,-8760.87799797988,-21155.74731299249,0.0,0.0,0.0,193.0,1.0,155.0,0.0,44.0,3.0,251.0,411.0,44.0,1019.0,1744252799.8306696,0.0,2025-04-09 22:39:59.830,LEFT,28
81.0,12697.266065748461,1403.1978134152669,-59847.3769244405,-56662.20863607033,-34272.15329076687,-31562.58542091673,-8755.781800244069,-21167.794903253904,0.0,0.0,0.0,193.0,1.0,154.0,0.0,45.0,3.0,252.0,410.0,45.0,1020.0,1744252799.8306832,0.0,2025-04-09 22:39:59.830,LEFT,28
82.0,12669.952234024076,1414.865424020937,-59794.73856624825,-56644.01431608371,-34186.63551648087,-31478.766379209326,-8937.076799521064,-21089.16146626013,0.0,0.0,0.0,193.0,1.0,154.0,0.0,44.0,3.0,250.0,410.0,44.0,1018.0,1744252799.830692,0.0,2025-04-09 22:39:59.830,LEFT,28
83.0,12598.851334911746,1404.8518425049594,-59834.16704346741,-56663.88501690448,-34208.83079872499,-31507.42131560103,-8732.938317410746,-21109.903885114658,0.0,0.0,0.0,193.0,1.0,155.0,0.0,44.0,3.0,251.0,411.0,44.0,1019.0,1744252799.8307006,0.0,2025-04-09 22:39:59.830,LEFT,28
84.0,12558.707601870014,1363.836391429471,-59851.914328564926,-56679.17361011191,-34247.901648032865,-31538.020853760347,-8794.293855940563,-21128.724053946025,0.0,0.0,0.0,193.0,1.0,154.0,0.0,45.0,3.0,249.0,410.0,45.0,1017.0,1744252799.8307097,0.0,2025-04-09 22:39:59.830,LEFT,28
85.0,12673.684975348113,1384.3329410949875,-59855.535311166685,-56652.999717354745,-34282.65861066087,-31569.067426808768,-8686.491392432617,-21163.838644485313,0.0,0.0,0.0,193.0,1.0,155.0,0.0,44.0,3.0,251.0,411.0,44.0,1019.0,1744252799.830718,0.0,2025-04-09 22:39:59.830,LEFT,28
86.0,12672.679146847624,1407.0199617171243,-59809.0660344441,-56667.08131636159,-34199.28660384257,-31480.643925743574,-8990.25159958024,-21094.592940162773,0.0,0.0,0.0,193.0,1.0,155.0,0.0,44.0,3.0,250.0,411.0,44.0,1018.0,1744252799.8307269,0.0,2025-04-09 22:39:59.830,LEFT,28
87.0,12620.666637500124,1416.675915321817,-59816.866793259,-56641.75678989373,-34200.44889455425,-31491.86450146014,-8743.711858238205,-21098.191571020077,0.0,0.0,0.0,193.0,1.0,154.0,0.0,44.0,3.0,249.0,410.0,44.0,1017.0,1744252799.8307376,0.0,2025-04-09 22:39:59.830,LEFT,28
88.0,12564.943738573043,1379.907295692837,-59839.30794469213,-56681.69935723536,-34229.32734839051,-31523.156943697566,-8829.60961217995,-21129.46166151305,0.0,0.0,0.0,193.0,1.0,154.0,0.0,44.0,3.0,250.0,410.0,44.0,1018.0,1744252799.8307498,0.0,2025-04-09 22:39:59.830,LEFT,28
89.0,12662.486751376004,1383.5729817835072,-59840.47023540381,-56630.98324906627,-34273.293229734096,-31568.86626110867,-8648.471075114141,-21160.10590316128,0.0,0.0,0.0,193.0,1.0,154.0,0.0,45.0,3.0,250.0,410.0,45.0,1018.0,1744252799.8307607,0.0,2025-04-09 22:39:59.830,LEFT,28
