Sample Index,EXG Channel 0,EXG Channel 1,EXG Channel 2,EXG Channel 3,EXG Channel 4,EXG Channel 5,EXG Channel 6,EXG Channel 7,Accel Channel 0,Accel Channel 1,Accel Channel 2,Not Used,Digital Channel 0 (D11),Digital Channel 1 (D12),Digital Channel 2 (D13),Digital Channel 3 (D17),Not Used,Digital Channel 4 (D18),Analog Channel 0,Analog Channel 1,Analog Channel 2,Timestamp,Marker Channel,Timestamp (Formatted),Stimulus_Direction,Stimulus_Number
229.0,7998.504698098266,-12376.920864215,-20401.733565537164,-23298.94433008961,19399.12371624991,6191.7908420313415,6792.717491712272,39991.83058641322,0.0,0.0,0.0,193.0,0.0,193.0,0.0,1.0,0.0,179.0,193.0,1.0,179.0,1744418750.0604372,0.0,2025-04-11 20:45:50.060,LEFT,28
230.0,8007.467747624844,-12370.550617045239,-20375.000879168616,-23310.120202317263,19415.88752459139,6242.574005433799,6728.389171169898,40131.23841658097,0.0,0.0,0.0,193.0,0.0,193.0,0.0,1.0,0.0,178.0,193.0,1.0,178.0,1744418750.0604727,0.0,2025-04-11 20:45:50.060,LEFT,28
231.0,8000.449299865878,-12407.699216329958,-20359.242899327626,-23349.593383025334,19538.95622956231,6006.874860152586,7122.137501494587,40180.76988229393,0.0,0.0,0.0,193.0,0.0,193.0,0.0,1.0,0.0,179.0,193.0,1.0,179.0,1744418750.060508,0.0,2025-04-11 20:45:50.060,LEFT,28
232.0,7997.141241686492,-12404.189992450476,-20378.13012339236,-23338.596324753325,19410.992492555677,5811.7217793133,7140.845911603679,40085.08206428076,0.0,0.0,0.0,193.0,0.0,193.0,0.0,1.0,0.0,178.0,193.0,1.0,178.0,1744418750.0605974,0.0,2025-04-11 20:45:50.060,LEFT,28
233.0,7968.106325639049,-12411.633123354093,-20405.063975461006,-23339.89272593173,19410.724271622214,5992.726205912377,6932.5723567691275,40212.57641465383,0.0,0.0,0.0,193.0,0.0,193.0,0.0,1.0,0.0,178.0,193.0,1.0,178.0,1744418750.060632,0.0,2025-04-11 20:45:50.060,LEFT,28
234.0,7963.993604659272,-12413.68948384398,-20376.94548093623,-23340.29505733193,19463.452036792285,6066.777535292809,6799.579477260051,40366.49052697307,0.0,0.0,0.0,193.0,0.0,193.0,0.0,1.0,0.0,179.0,193.0,1.0,179.0,1744418750.0606637,0.0,2025-04-11 20:45:50.060,LEFT,28
235.0,7946.693354450865,-12444.981926081411,-20344.758968920585,-23345.637124256747,19636.476890620816,6032.467607553913,7151.2841762643075,40399.90638493376,0.0,0.0,0.0,193.0,0.0,193.0,0.0,1.0,0.0,178.0,193.0,1.0,178.0,1744418750.0606952,0.0,2025-04-11 20:45:50.060,LEFT,28
236.0,7979.662177522443,-12425.64766712757,-20346.055370098995,-23344.407778311706,19553.462511713806,5844.44473319587,7264.674575886081,40262.84548793382,0.0,0.0,0.0,193.0,0.0,193.0,0.0,1.0,0.0,179.0,193.0,1.0,179.0,1744418750.060743,0.0,2025-04-11 20:45:50.060,LEFT,28
237.0,7950.604909730543,-12432.93433582,-20390.848265987428,-23331.91315316119,19454.980725643723,6054.707593286943,7067.5768932791825,40315.70736357062,0.0,0.0,0.0,193.0,0.0,193.0,0.0,1.0,0.0,179.0,193.0,1.0,179.0,1744418750.0607748,0.0,2025-04-11 20:45:50.060,LEFT,28
238.0,7967.86045645004,-12394.221114423408,-20377.057239658505,-23329.99090313803,19394.2286842142,6212.443853908045,6877.944693320357,40448.18615295722,0.0,0.0,0.0,193.0,0.0,192.0,0.0,1.0,0.0,178.0,192.0,1.0,178.0,1744418750.0608063,0.0,2025-04-11 20:45:50.060,LEFT,28
239.0,7963.457162792345,-12434.27544048732,-20348.670524200264,-23365.172548910687,19513.989331005734,6054.171151420016,7144.377487227618,40481.53495568454,0.0,0.0,0.0,193.0,0.0,193.0,0.0,1.0,0.0,179.0,193.0,1.0,179.0,1744418750.0608375,0.0,2025-04-11 20:45:50.060,LEFT,28
240.0,7930.041304831661,-12474.687394462515,-20396.03387070106,-23388.843046288854,19361.282212887076,5801.954066986331,7378.176734230129,40373.26310554303,0.0,0.0,0.0,193.0,0.0,192.0,0.0,1.0,0.0,178.0,192.0,1.0,178.0,1744418750.060869,0.0,2025-04-11 20:45:50.060,LEFT,28
241.0,7903.867412074496,-12479.604778242681,-20416.329254666478,-23370.358153624315,19561.35267750653,5963.199551486916,7255.555064148315,40414.16679789624,0.0,0.0,0.0,193.0,0.0,193.0,0.0,1.0,0.0,179.0,193.0,1.0,179.0,1744418750.0609004,0.0,2025-04-11 20:45:50.060,LEFT,28
242.0,7925.325086751591,-12443.0373243138,-20384.053335673016,-23336.159984607697,19541.8619563415,6164.097030651215,7014.893831598024,40564.72814854719,0.0,0.0,0.0,193.0,0.0,193.0,0.0,1.0,0.0,178.0,193.0,1.0,178.0,1744418750.0609317,0.0,2025-04-11 20:45:50.060,LEFT,28
243.0,7915.937354080362,-12455.956632608966,-20375.17969312426,-23346.33002833486,19549.0145145672,6184.258304149903,7186.80109820379,40624.92139636534,0.0,0.0,0.0,193.0,0.0,193.0,0.0,1.0,0.0,179.0,193.0,1.0,179.0,1744418750.060963,0.0,2025-04-11 20:45:50.060,LEFT,28
244.0,7906.4378626868565,-12476.60964448567,-20401.286530648056,-23390.00533700053,19515.039862995134,5915.232707885827,7502.273619445994,40568.84086952697,0.0,0.0,0.0,193.0,0.0,192.0,0.0,1.0,0.0,178.0,192.0,1.0,178.0,1744418750.060994,0.0,2025-04-11 20:45:50.060,LEFT,28
245.0,7901.878106817974,-12465.61258621366,-20437.42930143229,-23351.739150493046,19311.616636707382,5889.528201762224,7419.080426583341,40533.167485376296,0.0,0.0,0.0,193.0,0.0,193.0,0.0,1.0,0.0,179.0,193.0,1.0,179.0,1744418750.0610251,0.0,2025-04-11 20:45:50.061,LEFT,28
246.0,7870.205684924804,-12483.203409099986,-20448.09108353747,-23350.107473147807,19337.29879108653,6173.171838900071,7256.62794788217,40681.851289493,0.0,0.0,0.0,193.0,0.0,192.0,0.0,1.0,0.0,178.0,192.0,1.0,178.0,1744418750.0610564,0.0,2025-04-11 20:45:50.061,LEFT,28
247.0,7909.410644699413,-12458.638841943604,-20388.791905497543,-23344.85481320081,19524.427595666362,6210.678066096076,7361.50233286647,40743.00566232272,0.0,0.0,0.0,193.0,0.0,193.0,0.0,1.0,0.0,179.0,193.0,1.0,179.0,1744418750.0611007,0.0,2025-04-11 20:45:50.061,LEFT,28
248.0,7889.361129923002,-12498.559057540782,-20407.299149906536,-23402.14233423976,19619.757785768245,5970.776792857265,7739.24681416116,40712.3614206745,0.0,0.0,0.0,193.0,0.0,193.0,0.0,1.0,0.0,179.0,193.0,1.0,179.0,1744418750.0611324,0.0,2025-04-11 20:45:50.061,LEFT,28
249.0,7868.685766301843,-12506.113947166676,-20444.55950791353,-23394.699203336146,19610.973550197312,5879.447565012881,7669.688185416244,40659.499545037695,0.0,0.0,0.0,193.0,0.0,192.0,0.0,1.0,0.0,178.0,192.0,1.0,178.0,1744418750.061164,0.0,2025-04-11 20:45:50.061,LEFT,28
250.0,7878.386423395446,-12485.03625214532,-20444.157176513338,-23359.070522674385,19423.50946945065,6141.275899562347,7506.855727059332,40821.10265744956,0.0,0.0,0.0,193.0,0.0,193.0,0.0,1.0,0.0,179.0,193.0,1.0,179.0,1744418750.061195,0.0,2025-04-11 20:45:50.061,LEFT,28
251.0,7885.5613333656,-12475.022670629343,-20427.058092005027,-23342.262010843995,19372.614547325917,6255.493313728966,7610.366655631859,40931.34146110314,0.0,0.0,0.0,193.0,0.0,192.0,0.0,1.0,0.0,178.0,192.0,1.0,178.0,1744418750.0612392,0.0,2025-04-11 20:45:50.061,LEFT,28
252.0,7854.514760317178,-12516.57456357176,-20440.737359611674,-23405.360985441326,19494.677423796347,6030.992392419862,8081.832001427651,40939.67866178497,0.0,0.0,0.0,193.0,0.0,193.0,0.0,1.0,0.0,179.0,193.0,1.0,179.0,1744418750.0612707,0.0,2025-04-11 20:45:50.061,LEFT,28
253.0,7859.499199330712,-12526.454034621005,-20463.022048833616,-23426.05870080694,19467.452999049783,5844.087105284585,8146.160321970025,40887.688504181926,0.0,0.0,0.0,193.0,0.0,193.0,0.0,1.0,0.0,179.0,193.0,1.0,179.0,1744418750.0613017,0.0,2025-04-11 20:45:50.061,LEFT,28
254.0,7874.340757649035,-12495.273351105852,-20461.09979881046,-23381.779895040978,19459.093446623498,6130.703524434987,7987.306474126158,41043.860142691155,0.0,0.0,0.0,193.0,0.0,192.0,0.0,1.0,0.0,178.0,192.0,1.0,178.0,1744418750.0613332,0.0,2025-04-11 20:45:50.061,LEFT,28
255.0,7870.138629691438,-12488.411365558073,-20435.171775242303,-23359.00346744102,19471.27514735164,6271.38540403669,7926.062694318616,41155.57416147878,0.0,0.0,0.0,193.0,0.0,193.0,0.0,1.0,0.0,179.0,193.0,1.0,179.0,1744418750.0613644,0.0,2025-04-11 20:45:50.061,LEFT,28
0.0,7839.136760131927,-12539.216880704986,-20446.99584805916,-23403.706956351634,19499.86302850998,6122.16515805306,8331.612745715707,41171.39919655314,0.0,0.0,0.0,193.0,0.0,192.0,0.0,1.0,0.0,178.0,192.0,1.0,178.0,1744418750.0613952,0.0,2025-04-11 20:45:50.061,LEFT,28
1.0,7850.245577126215,-12529.851499778211,-20477.61773796293,-23424.605837417348,19274.266871722564,5806.335008899571,8419.544508402885,41070.145794170596,0.0,0.0,0.0,193.0,0.0,193.0,0.0,1.0,0.0,179.0,193.0,1.0,179.0,1744418750.0614262,0.0,2025-04-11 20:45:50.061,LEFT,28
2.0,7870.65271981391,-12497.575580784749,-20474.287328039092,-23380.081162462375,19264.543862884508,5989.440499477447,8263.842256527216,41199.85296724474,0.0,0.0,0.0,193.0,0.0,192.0,0.0,1.0,0.0,178.0,192.0,1.0,178.0,1744418750.061457,0.0,2025-04-11 20:45:50.061,LEFT,28
3.0,7865.60122556701,-12490.020691158854,-20452.360266728436,-23370.7157815356,19470.224615362244,6260.745973675964,8141.287641678768,41353.94589351963,0.0,0.0,0.0,193.0,0.0,193.0,0.0,1.0,0.0,179.0,193.0,1.0,179.0,1744418750.061488,0.0,2025-04-11 20:45:50.061,LEFT,28
4.0,7875.503048360712,-12512.752415269902,-20397.576141068475,-23394.29687193595,19802.930331579486,6206.6994555830315,8498.222648885567,41421.67167921921,0.0,0.0,0.0,193.0,0.0,192.0,0.0,1.0,0.0,178.0,192.0,1.0,178.0,1744418750.0615191,0.0,2025-04-11 20:45:50.061,LEFT,28
5.0,7840.0531816545945,-12556.181854746565,-20449.81216786053,-23461.486215768604,19625.301018393162,5877.413556267447,8652.494389116096,41329.224864152064,0.0,0.0,0.0,193.0,0.0,193.0,0.0,1.0,0.0,179.0,193.0,1.0,179.0,1744418750.0615504,0.0,2025-04-11 20:45:50.061,LEFT,28
6.0,7850.245577126215,-12514.786424015336,-20467.76061865814,-23398.9236830382,19417.362739725442,6016.5755172461895,8511.477233347563,41428.556016511444,0.0,0.0,0.0,193.0,0.0,193.0,0.0,1.0,0.0,179.0,193.0,1.0,179.0,1744418750.061586,0.0,2025-04-11 20:45:50.061,LEFT,28
7.0,7847.965699191774,-12509.913743724079,-20462.887938366883,-23350.37569408127,19289.510761441084,6308.86927948824,8347.437780790066,41607.83935878746,0.0,0.0,0.0,193.0,0.0,192.0,0.0,1.0,0.0,178.0,192.0,1.0,178.0,1744418750.061631,0.0,2025-04-11 20:45:50.061,LEFT,28
8.0,7859.521551075167,-12513.914705981579,-20434.85885081993,-23367.85475824532,19430.103234064965,6276.392194794678,8622.207775379155,41683.85764167996,0.0,0.0,0.0,193.0,0.0,193.0,0.0,1.0,0.0,179.0,193.0,1.0,179.0,1744418750.0616624,0.0,2025-04-11 20:45:50.061,LEFT,28
9.0,7841.014306666173,-12539.239232449441,-20461.90446161085,-23420.6272269043,19566.515930475703,5957.27633920626,8908.935953251834,41638.014213802126,0.0,0.0,0.0,193.0,0.0,193.0,0.0,1.0,0.0,178.0,193.0,1.0,178.0,1744418750.061693,0.0,2025-04-11 20:45:50.061,LEFT,28
10.0,7824.049332624595,-12536.601726603714,-20483.652708965863,-23395.302700436438,19393.1781522248,5929.336658637126,8810.185946248288,41701.64963026639,0.0,0.0,0.0,193.0,0.0,193.0,0.0,1.0,0.0,179.0,193.0,1.0,179.0,1744418750.061724,0.0,2025-04-11 20:45:50.061,LEFT,28
11.0,7855.677051028854,-12496.56975228426,-20434.612981630922,-23338.95395266461,19344.853680712426,6193.8472025212295,8630.924955716724,41895.4392546939,0.0,0.0,0.0,193.0,0.0,192.0,0.0,1.0,0.0,178.0,192.0,1.0,178.0,1744418750.0617683,0.0,2025-04-11 20:45:50.061,LEFT,28
12.0,7866.785868023142,-12502.470612820462,-20409.131992951872,-23345.547717278925,19498.43251686484,6239.735333887975,8807.347274702463,41993.429302385965,0.0,0.0,0.0,193.0,0.0,193.0,0.0,0.0,0.0,178.0,193.0,0.0,178.0,1744418750.0617995,0.0,2025-04-11 20:45:50.061,LEFT,28
13.0,7829.301992571592,-12538.412217904595,-20454.48368245169,-23404.48926740757,19468.458827550272,6011.322857299192,9149.686592779946,41967.34481660662,0.0,0.0,0.0,193.0,0.0,193.0,0.0,1.0,0.0,179.0,193.0,1.0,179.0,1744418750.0618303,0.0,2025-04-11 20:45:50.061,LEFT,28
14.0,7826.284507070126,-12513.534726325837,-20471.09102858198,-23364.77021751049,19449.348086040984,6009.512365998312,9056.390411423494,41972.97745620936,0.0,0.0,0.0,193.0,0.0,193.0,0.0,0.0,0.0,179.0,193.0,0.0,179.0,1744418750.0618615,0.0,2025-04-11 20:45:50.061,LEFT,28
15.0,7853.017193438673,-12468.361850781663,-20442.927830568296,-23316.602208209304,19515.621008350972,6325.96836399655,8843.490045486695,42175.08192957425,0.0,0.0,0.0,193.0,0.0,193.0,0.0,1.0,0.0,179.0,193.0,1.0,179.0,1744418750.0618923,0.0,2025-04-11 20:45:50.061,LEFT,28
16.0,7858.538074319134,-12495.563923783771,-20428.13097573888,-23353.080255160363,19542.86778484199,6313.563145823854,8888.014720441666,42273.16138424414,0.0,0.0,0.0,193.0,0.0,192.0,0.0,0.0,0.0,178.0,192.0,0.0,178.0,1744418750.0619233,0.0,2025-04-11 20:45:50.061,LEFT,28
17.0,7833.705286229288,-12529.96325850049,-20444.738321869176,-23393.514560880016,19551.853186113025,6049.410229851035,9252.526969018814,42275.7765383454,0.0,0.0,0.0,193.0,0.0,193.0,0.0,0.0,0.0,179.0,193.0,0.0,179.0,1744418750.061954,0.0,2025-04-11 20:45:50.061,LEFT,28
18.0,7845.104675901494,-12504.057586676787,-20430.969647284706,-23359.38344709676,19573.06499160111,5950.79433331422,9161.175389429975,42230.35779361222,0.0,0.0,0.0,193.0,0.0,192.0,0.0,0.0,0.0,178.0,192.0,0.0,178.0,1744418750.0619848,0.0,2025-04-11 20:45:50.061,LEFT,28
19.0,7859.8344754975415,-12489.774821969846,-20454.014295818128,-23340.987961410043,19409.561980910537,6221.18338599007,8917.988409756234,42399.761664838996,0.0,0.0,0.0,193.0,0.0,193.0,0.0,0.0,0.0,179.0,193.0,0.0,179.0,1744418750.0620153,0.0,2025-04-11 20:45:50.062,LEFT,28
20.0,7864.327176133058,-12485.03625214532,-20446.302943981045,-23359.092874418842,19481.288728867617,6266.8703516567175,8865.215941097253,42516.46012264015,0.0,0.0,0.0,193.0,0.0,192.0,0.0,0.0,0.0,178.0,192.0,0.0,178.0,1744418750.062046,0.0,2025-04-11 20:45:50.062,LEFT,28
21.0,7865.310652889091,-12487.226723101941,-20430.097929250947,-23372.682735047667,19632.140652196485,6148.69667872151,9257.533759776803,42561.454184228685,0.0,0.0,0.0,193.0,0.0,193.0,0.0,0.0,0.0,179.0,193.0,0.0,179.0,1744418750.0620763,0.0,2025-04-11 20:45:50.062,LEFT,28
22.0,7865.5565220781,-12488.411365558073,-20464.072580823016,-23358.82465348538,19437.03227484611,5991.787432645254,9242.580442736202,42476.94223844317,0.0,0.0,0.0,193.0,0.0,193.0,0.0,0.0,0.0,178.0,193.0,0.0,178.0,1744418750.06227,0.0,2025-04-11 20:45:50.062,LEFT,28
23.0,7855.498237073212,-12490.959464425978,-20495.14150561589,-23360.836310486357,19229.250458389575,6212.332095185769,9020.247640639263,42621.40156285782,0.0,0.0,0.0,193.0,0.0,193.0,0.0,0.0,0.0,178.0,193.0,0.0,178.0,1744418750.062302,0.0,2025-04-11 20:45:50.062,LEFT,28
24.0,7870.8091820250975,-12476.430830530027,-20434.545926397554,-23331.801394438913,19383.678660831294,6320.089855204804,8886.360691351974,42764.251561671685,0.0,0.0,0.0,193.0,0.0,193.0,0.0,0.0,0.0,179.0,193.0,0.0,179.0,1744418750.062333,0.0,2025-04-11 20:45:50.062,LEFT,28
25.0,7839.069704898561,-12520.083787451244,-20456.584746430486,-23366.87128148929,19472.482141552227,6196.41765313359,9213.009084821831,42796.63923938743,0.0,0.0,0.0,193.0,0.0,192.0,0.0,0.0,0.0,178.0,192.0,0.0,178.0,1744418750.062364,0.0,2025-04-11 20:45:50.062,LEFT,28
26.0,7829.3690478049575,-12528.823319533269,-20467.80532214705,-23388.597177099848,19643.383579657508,5967.08875502214,9260.014803411343,42692.68127592579,0.0,0.0,0.0,193.0,0.0,193.0,0.0,0.0,0.0,179.0,193.0,0.0,179.0,1744418750.0624115,0.0,2025-04-11 20:45:50.062,LEFT,28
27.0,7843.629460767444,-12496.793269728812,-20481.81986592053,-23352.320295848884,19553.73073264727,6196.305894411314,9045.728629318313,42801.78014061214,0.0,0.0,0.0,193.0,0.0,192.0,0.0,0.0,0.0,178.0,192.0,0.0,178.0,1744418750.0624428,0.0,2025-04-11 20:45:50.062,LEFT,28
28.0,7860.862655742486,-12485.483287034427,-20466.419513990822,-23341.725568977068,19441.234402803708,6368.749602884007,8867.674632987337,42945.72537490432,0.0,0.0,0.0,193.0,0.0,193.0,0.0,0.0,0.0,179.0,193.0,0.0,179.0,1744418750.0624733,0.0,2025-04-11 20:45:50.062,LEFT,28
29.0,7851.229053882248,-12509.466708834972,-20454.10370279595,-23359.115226163296,19562.559671707117,6265.328081289302,9164.885779009555,42992.10524464909,0.0,0.0,0.0,193.0,0.0,193.0,0.0,0.0,0.0,178.0,193.0,0.0,178.0,1744418750.0625043,0.0,2025-04-11 20:45:50.062,LEFT,28
30.0,7854.425353339358,-12523.838880519734,-20478.645918207876,-23393.49220913556,19465.55310077108,5980.008063317307,9349.980574843952,42909.44849365336,0.0,0.0,0.0,193.0,0.0,192.0,0.0,0.0,0.0,178.0,192.0,0.0,178.0,1744418750.0625353,0.0,2025-04-11 20:45:50.062,LEFT,28
31.0,7815.935649387318,-12559.847540837234,-20508.753717989173,-23416.91683732472,19513.89992402791,6010.540546243256,9205.007160306832,42967.339511792605,0.0,0.0,0.0,193.0,0.0,193.0,0.0,0.0,0.0,179.0,193.0,0.0,179.0,1744418750.0625656,0.0,2025-04-11 20:45:50.062,LEFT,28
32.0,7859.387440608435,-12489.394842314106,-20457.81409237553,-23338.886897431243,19528.361502690495,6314.613677813253,9029.389504121484,43129.63552828259,0.0,0.0,0.0,193.0,0.0,192.0,0.0,0.0,0.0,178.0,192.0,0.0,178.0,1744418750.0625963,0.0,2025-04-11 20:45:50.062,LEFT,28
33.0,7863.611920310488,-12502.560019798282,-20453.880185351394,-23348.274630102474,19543.87361334248,6401.181984088658,9267.435582570504,43193.136834280114,0.0,0.0,0.0,193.0,0.0,193.0,0.0,0.0,0.0,179.0,193.0,0.0,179.0,1744418750.0626273,0.0,2025-04-11 20:45:50.062,LEFT,28
34.0,7837.50508278669,-12559.758133859414,-20494.560360260053,-23438.195698046173,19515.218676950775,6097.4664804299455,9541.669135292666,43116.35859207614,0.0,0.0,0.0,193.0,0.0,192.0,0.0,0.0,0.0,178.0,192.0,0.0,178.0,1744418750.0626583,0.0,2025-04-11 20:45:50.062,LEFT,28
35.0,7856.3699551069685,-12515.613438560182,-20481.238720564692,-23365.39606635524,19369.038268213066,6099.3440269641915,9400.00377893493,43127.86974047062,0.0,0.0,0.0,193.0,0.0,193.0,0.0,0.0,0.0,179.0,193.0,0.0,179.0,1744418750.0626888,0.0,2025-04-11 20:45:50.062,LEFT,28
36.0,7868.953987235307,-12485.505638778883,-20466.128941312905,-23339.400987553716,19354.30846861702,6305.7847387534075,9176.754555315323,43284.600172591236,0.0,0.0,0.0,193.0,0.0,192.0,0.0,0.0,0.0,178.0,192.0,0.0,178.0,1744418750.0627196,0.0,2025-04-11 20:45:50.062,LEFT,28
37.0,7875.905379760908,-12496.994435428911,-20437.13872875437,-23346.419435312684,19601.988148926277,6382.339463512834,9318.375208184149,43372.71074923405,0.0,0.0,0.0,193.0,0.0,193.0,0.0,0.0,0.0,178.0,193.0,0.0,178.0,1744418750.0629706,0.0,2025-04-11 20:45:50.062,LEFT,28
38.0,7843.964736934274,-12561.926253071577,-20467.850025635962,-23414.614607645824,19623.557582325648,6153.971690412962,9628.460959012624,43319.35713521924,0.0,0.0,0.0,193.0,0.0,193.0,0.0,0.0,0.0,179.0,193.0,0.0,179.0,1744418750.0630028,0.0,2025-04-11 20:45:50.063,LEFT,28
39.0,7849.955004448296,-12526.230517176453,-20490.38058404691,-23383.50097936404,19463.18381585882,6063.380070135602,9528.950992697597,43290.00929474942,0.0,0.0,0.0,193.0,0.0,192.0,0.0,0.0,0.0,178.0,192.0,0.0,178.0,1744418750.0630336,0.0,2025-04-11 20:45:50.063,LEFT,28
40.0,7856.213492895782,-12506.784499500334,-20496.840238194494,-23349.302810347417,19353.280288372076,6315.194823169091,9300.739681808911,43454.94281708513,0.0,0.0,0.0,193.0,0.0,193.0,0.0,0.0,0.0,179.0,193.0,0.0,179.0,1744418750.0630648,0.0,2025-04-11 20:45:50.063,LEFT,28
41.0,7851.273757371159,-12522.900107252612,-20456.51769119712,-23355.985981939553,19628.8325940171,6376.125678554258,9317.727007594945,43532.637480811776,0.0,0.0,0.0,193.0,0.0,192.0,0.0,0.0,0.0,178.0,192.0,0.0,178.0,1744418750.063112,0.0,2025-04-11 20:45:50.063,LEFT,28
42.0,7855.878216728952,-12532.690171324037,-20464.787836645584,-23395.973252770098,19709.634150223035,6159.559626526789,9708.63666637381,43524.300280129944,0.0,0.0,0.0,193.0,0.0,193.0,0.0,0.0,0.0,179.0,193.0,0.0,179.0,1744418750.063143,0.0,2025-04-11 20:45:50.063,LEFT,28
43.0,7867.434068612346,-12517.245115905418,-20487.318395056536,-23365.261955888505,19534.10590101551,6044.090514670672,9667.218883898126,43441.26354947848,0.0,0.0,0.0,193.0,0.0,192.0,0.0,0.0,0.0,178.0,192.0,0.0,178.0,1744418750.063174,0.0,2025-04-11 20:45:50.063,LEFT,28
44.0,7882.745013564231,-12468.294795548296,-20500.036537651606,-23318.32329253236,19356.990677951657,6371.610626174286,9451.971584793519,43585.14172853729,0.0,0.0,0.0,193.0,0.0,193.0,0.0,0.0,0.0,179.0,193.0,0.0,179.0,1744418750.0632043,0.0,2025-04-11 20:45:50.063,LEFT,28
45.0,7901.676941117877,-12469.077106604233,-20464.34080175648,-23345.23479285655,19482.696888768303,6377.8691146217725,9358.630699948157,43654.43213634875,0.0,0.0,0.0,193.0,0.0,193.0,0.0,0.0,0.0,179.0,193.0,0.0,179.0,1744418750.0632353,0.0,2025-04-11 20:45:50.063,LEFT,28
46.0,7842.713039244776,-12564.966090317499,-20482.57982523201,-23411.172438999707,19575.881311402478,6207.459414894512,9753.206044817693,43656.376738116356,0.0,0.0,0.0,193.0,0.0,192.0,0.0,0.0,0.0,178.0,192.0,0.0,178.0,1744418750.063266,0.0,2025-04-11 20:45:50.063,LEFT,28
47.0,7855.051202184106,-12545.542424385838,-20474.220272805724,-23384.797380542444,19542.376046463974,6015.055598623228,9796.389615105345,43557.49262064608,0.0,0.0,0.0,193.0,0.0,193.0,0.0,0.0,0.0,179.0,193.0,0.0,179.0,1744418750.0632963,0.0,2025-04-11 20:45:50.063,LEFT,28
48.0,7849.575024792555,-12527.258697421395,-20503.545761531088,-23357.43884532915,19506.456793124296,6269.463154013533,9638.876871928796,43666.39031963233,0.0,0.0,0.0,193.0,0.0,192.0,0.0,0.0,0.0,179.0,192.0,0.0,179.0,1744418750.0633273,0.0,2025-04-11 20:45:50.063,LEFT,28
49.0,7878.408775139902,-12495.698034250503,-20470.219310548226,-23341.256182343506,19542.48780518625,6399.192678832135,9614.37936000578,43778.75253900916,0.0,0.0,0.0,193.0,0.0,193.0,0.0,0.0,0.0,179.0,193.0,0.0,179.0,1744418750.063358,0.0,2025-04-11 20:45:50.063,LEFT,28
50.0,7857.3087283740915,-12536.154691714608,-20463.71495291173,-23376.8178077719,19735.76333949129,6286.562238521843,10117.852403861572,43816.25876620517,0.0,0.0,0.0,193.0,0.0,192.0,0.0,0.0,0.0,178.0,192.0,0.0,178.0,1744418750.0633888,0.0,2025-04-11 20:45:50.063,LEFT,28
51.0,7852.9054347163965,-12553.209072734007,-20487.072525867527,-23402.187037728672,19616.02504444421,6062.016613723828,10366.649671393594,43733.17733206479,0.0,0.0,0.0,193.0,0.0,193.0,0.0,0.0,0.0,179.0,193.0,0.0,179.0,1744418750.0634193,0.0,2025-04-11 20:45:50.063,LEFT,28
52.0,7849.485617814734,-12544.044857507331,-20523.617628051954,-23376.05784846042,19438.306324280064,6253.302842772347,10294.94527518097,43804.211175943754,0.0,0.0,0.0,193.0,0.0,193.0,0.0,0.0,0.0,178.0,193.0,0.0,178.0,1744418750.06345,0.0,2025-04-11 20:45:50.063,LEFT,28
53.0,7890.545772379133,-12492.121755137654,-20487.810133434552,-23332.583705494846,19396.46385865973,6442.331545630878,10205.359483404098,43940.4227066544,0.0,0.0,0.0,193.0,0.0,193.0,0.0,0.0,0.0,179.0,193.0,0.0,179.0,1744418750.0634928,0.0,2025-04-11 20:45:50.063,LEFT,28
54.0,7873.916074504385,-12528.175118944064,-20454.23781326268,-23360.277516874972,19605.676186761404,6328.248241930991,10600.001883507,44008.86374817655,0.0,0.0,0.0,193.0,0.0,193.0,0.0,0.0,0.0,178.0,193.0,0.0,178.0,1744418750.0635235,0.0,2025-04-11 20:45:50.063,LEFT,28
55.0,7847.764533491676,-12565.837808351256,-20491.654633480863,-23406.09859300835,19689.0481935797,6034.725133743898,10867.418154170295,43896.38977007744,0.0,0.0,0.0,193.0,0.0,192.0,0.0,0.0,0.0,178.0,192.0,0.0,178.0,1744418750.0635543,0.0,2025-04-11 20:45:50.063,LEFT,28
56.0,7865.355356378002,-12524.174156686564,-20527.238610653712,-23363.742037265547,19471.632775262926,6175.31760636778,10767.930539599722,43917.22159590979,0.0,0.0,0.0,193.0,0.0,193.0,0.0,0.0,0.0,179.0,193.0,0.0,179.0,1744418750.0635896,0.0,2025-04-11 20:45:50.063,LEFT,28
57.0,7858.403963852402,-12531.505528867905,-20518.990816949703,-23385.445581131647,19474.292632853107,6421.119740142792,10605.969799276567,44064.40783314798,0.0,0.0,0.0,193.0,0.0,193.0,0.0,0.0,0.0,179.0,193.0,0.0,179.0,1744418750.0636344,0.0,2025-04-11 20:45:50.063,LEFT,28
58.0,7868.596359324022,-12551.644450622136,-20475.024935606114,-23401.650595861745,19666.60704214657,6324.068465717848,10831.163624663786,44116.219176795385,0.0,0.0,0.0,193.0,0.0,193.0,0.0,0.0,0.0,179.0,193.0,0.0,179.0,1744418750.0636656,0.0,2025-04-11 20:45:50.063,LEFT,28
59.0,7854.380649850446,-12561.658032138113,-20505.847991209983,-23407.35029069785,19603.195143126864,6116.465463216957,11113.287343178672,44024.53232103972,0.0,0.0,0.0,193.0,0.0,192.0,0.0,0.0,0.0,178.0,192.0,0.0,178.0,1744418750.0636964,0.0,2025-04-11 20:45:50.063,LEFT,28
60.0,7852.123123660461,-12551.219767477485,-20517.090918671005,-23374.314412392905,19511.932970515845,6125.294402276802,10990.486859141214,44019.88315819301,0.0,0.0,0.0,193.0,0.0,193.0,0.0,0.0,0.0,178.0,193.0,0.0,178.0,1744418750.0637271,0.0,2025-04-11 20:45:50.063,LEFT,28
61.0,7888.958798522806,-12512.104214680698,-20508.641959266897,-23343.5584120224,19529.90377305791,6362.938149325628,10785.208438063675,44195.27729693381,0.0,0.0,0.0,193.0,0.0,192.0,0.0,0.0,0.0,178.0,192.0,0.0,178.0,1744418750.063758,0.0,2025-04-11 20:45:50.063,LEFT,28
62.0,7875.078365216061,-12530.030313733854,-20504.19396212029,-23367.608889056315,19639.94141101139,6416.045894151437,10900.63284643088,44272.36846356016,0.0,0.0,0.0,193.0,0.0,193.0,0.0,0.0,0.0,179.0,193.0,0.0,179.0,1744418750.0637884,0.0,2025-04-11 20:45:50.063,LEFT,28
63.0,7869.2222081687705,-12559.288747225852,-20514.587523292008,-23418.39205245877,19648.055094248666,6164.700527751509,11250.884682045542,44228.916672339044,0.0,0.0,0.0,193.0,0.0,193.0,0.0,0.0,0.0,178.0,193.0,0.0,178.0,1744418750.0638192,0.0,2025-04-11 20:45:50.063,LEFT,28
64.0,7883.147344964426,-12538.792197560335,-20514.87809596993,-23384.77502879799,19605.31855885012,6072.588988851188,11153.721648898321,44141.811924196714,0.0,0.0,0.0,193.0,0.0,192.0,0.0,0.0,0.0,178.0,192.0,0.0,178.0,1744418750.06385,0.0,2025-04-11 20:45:50.063,LEFT,28
65.0,7903.889763818952,-12484.85743818968,-20508.641959266897,-23323.24067631253,19491.637586550427,6436.0954089278475,10940.575413772514,44296.70951327199,0.0,0.0,0.0,193.0,0.0,193.0,0.0,0.0,0.0,179.0,193.0,0.0,179.0,1744418750.0638807,0.0,2025-04-11 20:45:50.063,LEFT,28
66.0,7900.715816106298,-12510.159612913087,-20495.432078293812,-23348.431092313658,19474.963185186767,6461.017603995515,10944.710486496746,44397.180604598594,0.0,0.0,0.0,193.0,0.0,192.0,0.0,0.0,0.0,178.0,192.0,0.0,178.0,1744418750.0639117,0.0,2025-04-11 20:45:50.063,LEFT,28
67.0,7850.3796875929465,-12588.904808629133,-20510.72067150124,-23430.149070042262,19763.14422644904,6225.921955814595,11312.91077290902,44388.038741116376,0.0,0.0,0.0,193.0,0.0,193.0,0.0,0.0,0.0,179.0,193.0,0.0,179.0,1744418750.0639422,0.0,2025-04-11 20:45:50.063,LEFT,28
68.0,7861.533208076145,-12566.754229873924,-20530.904296744382,-23410.01014828803,19723.38047306305,6097.980570552418,11276.477429446868,44288.215850378976,0.0,0.0,0.0,193.0,0.0,192.0,0.0,0.0,0.0,178.0,192.0,0.0,178.0,1744418750.0639849,0.0,2025-04-11 20:45:50.063,LEFT,28
69.0,7878.140554206438,-12532.064322479288,-20545.321171918058,-23370.067580946397,19585.380802795986,6363.988681315027,11076.697537505333,44428.1377706692,0.0,0.0,0.0,193.0,0.0,193.0,0.0,0.0,0.0,179.0,193.0,0.0,179.0,1744418750.064016,0.0,2025-04-11 20:45:50.064,LEFT,28
70.0,7919.4689297043005,-12507.56681055627,-20492.191075347793,-23351.828557470868,19526.282790456153,6428.719333257596,10978.528675857626,44546.445554071135,0.0,0.0,0.0,193.0,0.0,192.0,0.0,0.0,0.0,178.0,192.0,0.0,178.0,1744418750.0640469,0.0,2025-04-11 20:45:50.064,LEFT,28
71.0,7887.438879899845,-12558.595843147737,-20499.768316718142,-23395.660328347723,19689.495228468804,6250.240653781969,11354.976755973907,44566.517420592005,0.0,0.0,0.0,193.0,0.0,193.0,0.0,0.0,0.0,179.0,193.0,0.0,179.0,1744418750.0640774,0.0,2025-04-11 20:45:50.064,LEFT,28
72.0,7900.8052230841195,-12546.861177308701,-20520.06370068356,-23384.842084031356,19542.0631220416,6085.6647593575435,11396.05926228276,44471.67896886814,0.0,0.0,0.0,193.0,0.0,192.0,0.0,0.0,0.0,178.0,192.0,0.0,178.0,1744418750.0641212,0.0,2025-04-11 20:45:50.064,LEFT,28
73.0,7892.266856702192,-12532.310191668295,-20544.87413702895,-23367.921813478686,19445.637696461403,6305.6729800311305,11167.356213016059,44572.08300496137,0.0,0.0,0.0,193.0,0.0,193.0,0.0,0.0,0.0,179.0,193.0,0.0,179.0,1744418750.064152,0.0,2025-04-11 20:45:50.064,LEFT,28
74.0,7913.880993590474,-12505.130470410642,-20519.84018323901,-23360.836310486357,19608.000768184756,6427.110007656814,11001.03688252412,44700.605535579394,0.0,0.0,0.0,193.0,0.0,193.0,0.0,0.0,0.0,179.0,193.0,0.0,179.0,1744418750.0641828,0.0,2025-04-11 20:45:50.064,LEFT,28
75.0,7896.156060237416,-12556.919462313588,-20528.311494387566,-23393.603967857835,19779.706869090423,6329.432884387123,11317.515232266813,44733.84257958443,0.0,0.0,0.0,193.0,0.0,192.0,0.0,0.0,0.0,178.0,192.0,0.0,178.0,1744418750.0642135,0.0,2025-04-11 20:45:50.064,LEFT,28
76.0,7875.726565805265,-12591.475259241493,-20554.843015056016,-23423.890581594776,19652.905422795466,6067.805715537753,11425.988248108417,44621.07802880741,0.0,0.0,0.0,193.0,0.0,192.0,0.0,0.0,0.0,178.0,192.0,0.0,178.0,1744418750.064244,0.0,2025-04-11 20:45:50.064,LEFT,28
77.0,7895.776080581675,-12555.600709390726,-20552.227860954747,-23376.638993816257,19549.126273289476,6282.918904175628,11252.672821601966,44702.773654791556,0.0,0.0,0.0,193.0,0.0,192.0,0.0,0.0,0.0,178.0,192.0,0.0,178.0,1744418750.0642745,0.0,2025-04-11 20:45:50.064,LEFT,28
78.0,7941.373639270501,-12501.263618619874,-20518.499078571687,-23337.501089275014,19479.38883058892,6534.107808364369,11058.6596797299,44859.48173516771,0.0,0.0,0.0,193.0,0.0,192.0,0.0,0.0,0.0,178.0,192.0,0.0,178.0,1744418750.0643053,0.0,2025-04-11 20:45:50.064,LEFT,28
79.0,7912.651647645432,-12553.991383789944,-20506.339729588002,-23404.511619152025,19761.62430782608,6382.004187346004,11307.412243773013,44916.45633178429,0.0,0.0,0.0,193.0,0.0,192.0,0.0,0.0,0.0,178.0,192.0,0.0,178.0,1744418750.064336,0.0,2025-04-11 20:45:50.064,LEFT,28
80.0,7895.396100925935,-12570.77754387588,-20529.563192077065,-23430.484346209094,19779.595110368147,6061.4801718569015,11491.836487273751,44829.68685980879,0.0,0.0,0.0,193.0,0.0,193.0,0.0,0.0,0.0,179.0,193.0,0.0,179.0,1744418750.0643668,0.0,2025-04-11 20:45:50.064,LEFT,28
81.0,7893.295036947136,-12554.594880890238,-20557.21229996828,-23390.184150956175,19630.151346939965,6184.951208228017,11332.580308029688,44861.82866833552,0.0,0.0,0.0,193.0,0.0,193.0,0.0,0.0,0.0,178.0,193.0,0.0,178.0,1744418750.064397,0.0,2025-04-11 20:45:50.064,LEFT,28
82.0,7903.219211485292,-12553.276127967374,-20552.92076503286,-23387.52429336599,19547.33813373305,6418.281068596968,11099.742186038755,45024.772885414706,0.0,0.0,0.0,193.0,0.0,192.0,0.0,0.0,0.0,178.0,192.0,0.0,178.0,1744418750.54019,0.0,2025-04-11 20:45:50.540,LEFT,28
83.0,7905.655551630921,-12568.743535130447,-20503.545761531088,-23390.29590967845,19738.91493545949,6405.093539368337,11240.044085984719,45109.7989213227,0.0,0.0,0.0,193.0,0.0,192.0,0.0,0.0,0.0,178.0,192.0,0.0,178.0,1744418750.5403752,0.0,2025-04-11 20:45:50.540,LEFT,28
84.0,7914.730359879775,-12566.038974051355,-20517.605008793475,-23403.5728458849,19751.76718852129,6184.7500425279195,11498.94434201054,45046.90111242546,0.0,0.0,0.0,193.0,0.0,193.0,0.0,0.0,0.0,179.0,193.0,0.0,179.0,1744418750.5404272,0.0,2025-04-11 20:45:50.540,LEFT,28
85.0,7925.5709559406,-12540.759151072401,-20541.78959629412,-23370.626374557778,19629.011407972743,6184.303007638813,11355.53554958529,45041.64845247847,0.0,0.0,0.0,193.0,0.0,192.0,0.0,0.0,0.0,179.0,192.0,0.0,179.0,1744418750.5404615,0.0,2025-04-11 20:45:50.540,LEFT,28
86.0,7936.366848512513,-12519.659104306593,-20541.364913149468,-23360.38927559725,19581.089267860567,6466.627891853797,11098.736357538266,45180.27397159028,0.0,0.0,0.0,193.0,0.0,193.0,0.0,0.0,0.0,179.0,193.0,0.0,179.0,1744418750.540494,0.0,2025-04-11 20:45:50.540,LEFT,28
87.0,7961.311395324636,-12517.982723472443,-20498.471915539732,-23364.52434832148,19625.92686723791,6461.978729007093,11147.06082905064,45245.51871365532,0.0,0.0,0.0,193.0,0.0,193.0,0.0,0.0,0.0,178.0,193.0,0.0,178.0,1744418750.5405524,0.0,2025-04-11 20:45:50.540,LEFT,28
88.0,7932.432941488379,-12564.183779261564,-20540.940230004817,-23430.05966306444,19583.10092486154,6229.453531438534,11516.557516641322,45241.09306825317,0.0,0.0,0.0,193.0,0.0,192.0,0.0,0.0,0.0,179.0,192.0,0.0,179.0,1744418750.5405838,0.0,2025-04-11 20:45:50.540,LEFT,28
89.0,7917.792548870153,-12563.736744372458,-20546.528166118642,-23424.985817073088,19662.784893844713,6056.67454679901,11412.30898050177,45166.70646270591,0.0,0.0,0.0,193.0,0.0,193.0,0.0,0.0,0.0,179.0,193.0,0.0,179.0,1744418750.5406146,0.0,2025-04-11 20:45:50.540,LEFT,28
90.0,7924.9898105847615,-12541.452055150516,-20524.53404957462,-23365.351362866328,19756.215185667897,6376.148030298714,11171.871265396032,45327.460208828474,0.0,0.0,0.0,193.0,0.0,192.0,0.0,0.0,0.0,178.0,192.0,0.0,178.0,1744418750.5406458,0.0,2025-04-11 20:45:50.540,LEFT,28
91.0,7941.887729392974,-12539.127473727165,-20493.66629048184,-23355.606002283814,19839.6318959751,6497.652113157763,11128.911212552932,45430.18882634507,0.0,0.0,0.0,193.0,0.0,193.0,0.0,0.0,0.0,179.0,193.0,0.0,179.0,1744418750.5406816,0.0,2025-04-11 20:45:50.540,LEFT,28
92.0,7940.814845659119,-12559.087581525753,-20508.038462166605,-23400.73417433908,19819.381215498594,6335.11022747877,11507.303894436824,45430.65821297863,0.0,0.0,0.0,193.0,0.0,193.0,0.0,0.0,0.0,179.0,193.0,0.0,179.0,1744418750.540713,0.0,2025-04-11 20:45:50.540,LEFT,28
93.0,7937.015049101717,-12563.15559901662,-20543.82360503955,-23422.884753094288,19724.118080630076,6097.108852518661,11474.111553920693,45323.72746750444,0.0,0.0,0.0,193.0,0.0,192.0,0.0,0.0,0.0,178.0,192.0,0.0,178.0,1744418750.5407436,0.0,2025-04-11 20:45:50.540,LEFT,28
94.0,7954.605871988043,-12529.96325850049,-20539.55442184859,-23380.796418284943,19690.389298247017,6302.767253251941,11237.495987116812,45419.549395984344,0.0,0.0,0.0,193.0,0.0,193.0,0.0,0.0,0.0,179.0,193.0,0.0,179.0,1744418750.5407743,0.0,2025-04-11 20:45:50.540,LEFT,28
95.0,7976.018843176227,-12519.793214773325,-20515.459241325767,-23356.030685428464,19678.56522543016,6496.512174190542,11143.05986679314,45528.08946705931,0.0,0.0,0.0,193.0,0.0,192.0,0.0,0.0,0.0,178.0,192.0,0.0,178.0,1744418750.540805,0.0,2025-04-11 20:45:50.540,LEFT,28
96.0,7981.249151378769,-12530.499700367416,-20509.15604938937,-23383.612738086314,19729.840127210635,6334.73024782303,11498.206734443515,45544.56270272288,0.0,0.0,0.0,193.0,0.0,193.0,0.0,0.0,0.0,178.0,193.0,0.0,178.0,1744418750.5408356,0.0,2025-04-11 20:45:50.540,LEFT,28
97.0,7970.877941951507,-12542.234366206452,-20525.36106411947,-23407.171476742205,19684.533141199725,6094.426643184023,11544.631307677188,45427.41721003261,0.0,0.0,0.0,193.0,0.0,192.0,0.0,0.0,0.0,179.0,192.0,0.0,179.0,1744418750.5408666,0.0,2025-04-11 20:45:50.540,LEFT,28
98.0,7964.865322693029,-12531.080845723254,-20536.358122391477,-23362.870319231788,19673.089048038608,6313.607849312765,11337.29652610976,45512.756170362976,0.0,0.0,0.0,193.0,0.0,192.0,0.0,0.0,0.0,178.0,192.0,0.0,178.0,1744418750.5409117,0.0,2025-04-11 20:45:50.540,LEFT,28
99.0,7983.618436291032,-12510.80781350229,-20515.459241325767,-23351.560336537405,19662.51667291125,6466.672595342708,11144.892709838476,45637.70242186814,0.0,0.0,0.0,193.0,0.0,193.0,0.0,0.0,0.0,179.0,193.0,0.0,179.0,1744418750.5409424,0.0,2025-04-11 20:45:50.540,LEFT,28
100.0,7961.110229624538,-12550.39275293264,-20507.278502855122,-23394.63214810278,19851.21009960295,6346.107285750782,11446.663611729577,45671.87823914031,0.0,0.0,0.0,193.0,0.0,192.0,0.0,0.0,0.0,178.0,192.0,0.0,178.0,1744418750.5409737,0.0,2025-04-11 20:45:50.540,LEFT,28
101.0,7942.871206149007,-12571.828075865278,-20550.037389998128,-23428.6291514193,19817.928352109,6119.237079529415,11581.511686028443,45555.515057505974,0.0,0.0,0.0,193.0,0.0,193.0,0.0,0.0,0.0,179.0,193.0,0.0,179.0,1744418750.5410044,0.0,2025-04-11 20:45:50.541,LEFT,28
102.0,7957.310433067136,-12553.700811112025,-20579.27347174567,-23410.703052366145,19638.39914064397,6307.125843420726,11372.053488737762,45595.16705216969,0.0,0.0,0.0,193.0,0.0,192.0,0.0,0.0,0.0,178.0,192.0,0.0,178.0,1744418750.5410497,0.0,2025-04-11 20:45:50.541,LEFT,28
103.0,8015.179099461926,-12481.124696865643,-20542.951887005795,-23364.8149209994,19601.49641054826,6502.90477310476,11173.54764623018,45765.040310030025,0.0,0.0,0.0,193.0,0.0,193.0,0.0,0.0,0.0,179.0,193.0,0.0,179.0,1744418750.5410807,0.0,2025-04-11 20:45:50.541,LEFT,28
104.0,7989.407538104956,-12519.14501418412,-20504.01514816465,-23393.134581224273,19907.93882703052,6381.780669901451,11376.367375417636,45788.75551089711,0.0,0.0,0.0,193.0,0.0,193.0,0.0,0.0,0.0,179.0,193.0,0.0,179.0,1744418750.541112,0.0,2025-04-11 20:45:50.541,LEFT,28
105.0,7966.854627949551,-12556.7630001024,-20525.070491441547,-23414.704014623647,19957.336182276747,6144.36044029718,11616.626276567731,45689.62552423782,0.0,0.0,0.0,193.0,0.0,193.0,0.0,0.0,0.0,178.0,193.0,0.0,178.0,1744418750.5411427,0.0,2025-04-11 20:45:50.541,LEFT,28
106.0,7979.975101944817,-12532.667819579581,-20554.239517955724,-23381.48932236306,19784.221921470395,6208.554650372822,11435.331277290736,45665.10566057035,0.0,0.0,0.0,193.0,0.0,193.0,0.0,0.0,0.0,179.0,193.0,0.0,179.0,1744418750.5411732,0.0,2025-04-11 20:45:50.541,LEFT,28
107.0,8012.720407571842,-12484.9468451675,-20540.895526515906,-23351.985019682055,19672.99964106079,6479.971883293615,11173.368832274537,45788.599048685915,0.0,0.0,0.0,193.0,0.0,193.0,0.0,0.0,0.0,178.0,193.0,0.0,178.0,1744418750.5412045,0.0,2025-04-11 20:45:50.541,LEFT,28
108.0,8019.15770997497,-12486.37735681264,-20509.4913255562,-23364.14436866574,19767.256947428818,6492.533563677498,11327.28294459378,45861.95747398824,0.0,0.0,0.0,193.0,0.0,193.0,0.0,0.0,0.0,179.0,193.0,0.0,179.0,1744418750.5412357,0.0,2025-04-11 20:45:50.541,LEFT,28
109.0,7995.688378296898,-12516.28399089384,-20544.181232950836,-23427.511564196535,19819.560029454235,6203.838432292751,11637.905137289184,45794.27639177757,0.0,0.0,0.0,193.0,0.0,192.0,0.0,0.0,0.0,179.0,192.0,0.0,179.0,1744418750.5412664,0.0,2025-04-11 20:45:50.541,LEFT,28
110.0,7975.415346075934,-12534.567717858281,-20567.27058497317,-23428.897372352767,19803.377366468594,6128.267184289359,11491.501211106923,45727.712896789664,0.0,0.0,0.0,193.0,0.0,193.0,0.0,0.0,0.0,179.0,193.0,0.0,179.0,1744418750.541297,0.0,2025-04-11 20:45:50.541,LEFT,28
111.0,7974.364814086535,-12525.67172356507,-20563.761361093686,-23386.652575332235,19800.561046667226,6419.823338964384,11233.450321370403,45871.233447937186,0.0,0.0,0.0,193.0,0.0,193.0,0.0,0.0,0.0,178.0,193.0,0.0,178.0,1744418750.5413277,0.0,2025-04-11 20:45:50.541,LEFT,28
112.0,8006.752491802275,-12500.928342453044,-20518.700244271786,-23373.219176914594,19831.808785415746,6474.115726246325,11273.728164878865,45946.804695940584,0.0,0.0,0.0,193.0,0.0,192.0,0.0,0.0,0.0,178.0,192.0,0.0,178.0,1744418750.5413587,0.0,2025-04-11 20:45:50.541,LEFT,28
113.0,7996.716558541842,-12532.310191668295,-20530.233744410725,-23419.844915848367,19935.252658754907,6282.181296608603,11655.272442730957,45902.972925063725,0.0,0.0,0.0,193.0,0.0,193.0,0.0,0.0,0.0,179.0,193.0,0.0,179.0,1744418750.5414016,0.0,2025-04-11 20:45:50.541,LEFT,28
114.0,8017.637791352009,-12507.119775667165,-20558.955736035794,-23400.95769178363,19775.169464965995,6154.038745646328,11573.263892324436,45802.12185408138,0.0,0.0,0.0,193.0,0.0,193.0,0.0,0.0,0.0,179.0,193.0,0.0,179.0,1744418750.541433,0.0,2025-04-11 20:45:50.541,LEFT,28
115.0,8027.629021123532,-12474.687394462515,-20573.350259465013,-23366.37954311127,19619.757785768245,6415.12947262877,11323.863127692119,45924.31884101854,0.0,0.0,0.0,193.0,0.0,192.0,0.0,0.0,0.0,178.0,192.0,0.0,178.0,1744418750.541464,0.0,2025-04-11 20:45:50.541,LEFT,28
116.0,8025.349143189091,-12492.23351385993,-20532.58067757853,-23379.902348506734,19853.959364170954,6501.027226570514,11249.409466911491,46006.4615018918,0.0,0.0,0.0,193.0,0.0,193.0,0.0,0.0,0.0,179.0,193.0,0.0,179.0,1744418750.5414956,0.0,2025-04-11 20:45:50.541,LEFT,28
117.0,8004.092634212093,-12527.012828232388,-20531.418386866855,-23420.716633882123,20004.721880522,6318.01114297046,11606.165660162647,45991.99992322921,0.0,0.0,0.0,193.0,0.0,193.0,0.0,0.0,0.0,178.0,193.0,0.0,178.0,1744418750.541541,0.0,2025-04-11 20:45:50.541,LEFT,28
118.0,8017.4366256519115,-12512.774767014358,-20559.089846502524,-23422.504773438548,19913.45970791098,6073.2818929293035,11573.979148147006,45866.29371241257,0.0,0.0,0.0,193.0,0.0,193.0,0.0,0.0,0.0,179.0,193.0,0.0,179.0,1744418750.5415723,0.0,2025-04-11 20:45:50.541,LEFT,28
119.0,8042.716448630864,-12470.395859527096,-20562.129683748448,-23376.460179860616,19733.61757202358,6256.90147362965,11333.38497083008,45969.33525435153,0.0,0.0,0.0,193.0,0.0,193.0,0.0,0.0,0.0,179.0,193.0,0.0,179.0,1744418750.541603,0.0,2025-04-11 20:45:50.541,LEFT,28
120.0,8068.040975098726,-12436.55531842176,-20505.468011554243,-23340.786795709944,19790.59216864016,6439.269356640501,11189.462088282358,46064.77720317569,0.0,0.0,0.0,193.0,0.0,192.0,0.0,0.0,0.0,178.0,192.0,0.0,178.0,1744418750.541634,0.0,2025-04-11 20:45:50.541,LEFT,28
121.0,8041.017716052261,-12495.206295872485,-20503.29989234208,-23387.837217788365,20009.706319535533,6381.646559434719,11534.416560461112,46084.245572596265,0.0,0.0,0.0,193.0,0.0,193.0,0.0,0.0,0.0,178.0,193.0,0.0,178.0,1744418750.5416648,0.0,2025-04-11 20:45:50.541,LEFT,28
122.0,8045.823341110152,-12505.19752564401,-20534.704093301785,-23416.849782091354,19954.206938053005,6156.8103619587855,11571.565159745833,45938.71336444776,0.0,0.0,0.0,193.0,0.0,192.0,0.0,0.0,0.0,178.0,192.0,0.0,178.0,1744418750.5416954,0.0,2025-04-11 20:45:50.541,LEFT,28
123.0,8045.242195754314,-12491.85353420419,-20561.526186648152,-23383.657441575222,19841.040055875786,6382.361815257289,11340.917508711518,45983.70742603629,0.0,0.0,0.0,193.0,0.0,193.0,0.0,0.0,0.0,179.0,193.0,0.0,179.0,1744418750.5417268,0.0,2025-04-11 20:45:50.541,LEFT,28
124.0,8042.895262586506,-12492.881714449135,-20538.5485933481,-23372.325107136385,19961.247737556427,6561.7122127666735,11124.597325873057,46077.29418007066,0.0,0.0,0.0,193.0,0.0,192.0,0.0,0.0,0.0,178.0,192.0,0.0,178.0,1744418750.5417576,0.0,2025-04-11 20:45:50.541,LEFT,28
125.0,8029.171291490948,-12503.074109920753,-20518.432023338322,-23396.666156848212,20083.46707623805,6428.317001857401,11427.105835331182,46113.951040977365,0.0,0.0,0.0,193.0,0.0,193.0,0.0,0.0,0.0,178.0,193.0,0.0,178.0,1744418750.5417893,0.0,2025-04-11 20:45:50.541,LEFT,28
126.0,8040.414218951967,-12494.982778427933,-20552.943116777315,-23436.564020700935,19934.023312809863,6086.20120122447,11601.315331615846,46003.220498945775,0.0,0.0,0.0,193.0,0.0,192.0,0.0,0.0,0.0,179.0,192.0,0.0,179.0,1744418750.5418203,0.0,2025-04-11 20:45:50.541,LEFT,28
127.0,8062.3412802626235,-12454.503769219371,-20560.16273023638,-23381.176397940686,19805.456078702937,6189.957998986006,11416.980495092928,46016.788007830146,0.0,0.0,0.0,193.0,0.0,192.0,0.0,0.0,0.0,178.0,192.0,0.0,178.0,1744418750.541851,0.0,2025-04-11 20:45:50.541,LEFT,28
128.0,8083.798954939718,-12425.915888061034,-20530.09963394399,-23339.49039453154,19768.665107329503,6425.098350655837,11190.669082482944,46140.32609943463,0.0,0.0,0.0,193.0,0.0,192.0,0.0,0.0,0.0,178.0,192.0,0.0,178.0,1744418750.5418816,0.0,2025-04-11 20:45:50.541,LEFT,28
129.0,8062.810666896185,-12472.742792694902,-20519.1919826498,-23373.710915292613,19998.642206030156,6472.28288320099,11401.82601235223,46181.565067954674,0.0,0.0,0.0,193.0,0.0,192.0,0.0,0.0,0.0,178.0,192.0,0.0,178.0,1744418750.5419312,0.0,2025-04-11 20:45:50.541,LEFT,28
130.0,8056.64158542652,-12491.361795826173,-20541.186099193823,-23424.35996822834,20069.54193944239,6222.300973212836,11653.573710152354,46084.111462129535,0.0,0.0,0.0,193.0,0.0,193.0,0.0,0.0,0.0,179.0,193.0,0.0,179.0,1744418750.541962,0.0,2025-04-11 20:45:50.541,LEFT,28
131.0,8074.768850179774,-12455.263728530852,-20546.908145774385,-23382.38339214127,19914.242018966917,6260.343642275768,11493.602275085721,46037.463371451304,0.0,0.0,0.0,193.0,0.0,192.0,0.0,0.0,0.0,178.0,192.0,0.0,178.0,1744418750.541993,0.0,2025-04-11 20:45:50.541,LEFT,28
132.0,8061.469562228866,-12454.213196541454,-20539.085035215026,-23372.59332806985,19850.874823436123,6515.555860466464,11256.539673392734,46160.75559386678,0.0,0.0,0.0,193.0,0.0,193.0,0.0,0.0,0.0,178.0,193.0,0.0,178.0,1744418750.5420232,0.0,2025-04-11 20:45:50.542,LEFT,28
133.0,8045.979803321338,-12473.167475839553,-20523.282351885122,-23390.67588933419,20011.025072458397,6471.813496567428,11369.997128247873,46220.94884168492,0.0,0.0,0.0,193.0,0.0,192.0,0.0,0.0,0.0,178.0,192.0,0.0,178.0,1744418750.5420685,0.0,2025-04-11 20:45:50.542,LEFT,28
134.0,8059.9943470948165,-12482.935188166522,-20521.24834313969,-23409.16078199873,20091.334890286314,6197.6022955897215,11698.880696163262,46153.98301529682,0.0,0.0,0.0,193.0,0.0,193.0,0.0,0.0,0.0,179.0,193.0,0.0,179.0,1744418750.5420997,0.0,2025-04-11 20:45:50.542,LEFT,28
135.0,8078.680405459453,-12469.23356881542,-20549.16567196437,-23391.34644166785,19980.179665110074,6164.0299754178495,11579.38827030519,46073.24851432425,0.0,0.0,0.0,193.0,0.0,193.0,0.0,0.0,0.0,178.0,193.0,0.0,178.0,1744418750.5421305,0.0,2025-04-11 20:45:50.542,LEFT,28
136.0,8093.499612033322,-12448.021763327333,-20566.980012295247,-23376.996621727543,19815.894343363565,6415.911783684705,11328.042903905261,46198.418283273975,0.0,0.0,0.0,193.0,0.0,192.0,0.0,0.0,0.0,178.0,192.0,0.0,178.0,1744418750.5421612,0.0,2025-04-11 20:45:50.542,LEFT,28
137.0,8093.834888200151,-12449.340516250197,-20528.311494387566,-23366.491301833546,19893.052565223286,6513.097168576381,11339.5764040442,46264.333577672674,0.0,0.0,0.0,193.0,0.0,193.0,0.0,0.0,0.0,179.0,193.0,0.0,179.0,1744418750.5421927,0.0,2025-04-11 20:45:50.542,LEFT,28
138.0,8060.016698839271,-12493.708728993981,-20540.224974182245,-23420.560171670935,20004.319549121803,6311.685599289608,11715.4656905491,46237.53383607076,0.0,0.0,0.0,193.0,0.0,193.0,0.0,0.0,0.0,179.0,193.0,0.0,179.0,1744418750.542224,0.0,2025-04-11 20:45:50.542,LEFT,28
139.0,8067.593940209621,-12492.14410688211,-20572.366782708978,-23431.02078807602,19909.99518752041,6113.023294570839,11644.141273992214,46128.12204696203,0.0,0.0,0.0,193.0,0.0,193.0,0.0,0.0,0.0,179.0,193.0,0.0,179.0,1744418750.5422547,0.0,2025-04-11 20:45:50.542,LEFT,28
140.0,8084.089527617637,-12458.504731476873,-20565.3036314611,-23384.260938675518,19992.00373792693,6383.0323675909485,11380.502448141868,46244.48522859636,0.0,0.0,0.0,193.0,0.0,193.0,0.0,0.0,0.0,179.0,193.0,0.0,179.0,1744418750.5422857,0.0,2025-04-11 20:45:50.542,LEFT,28
141.0,8104.541373794244,-12432.979039308912,-20518.901409971884,-23355.427188328173,20109.417451550657,6539.315764822455,11296.102261078628,46327.49960750337,0.0,0.0,0.0,193.0,0.0,193.0,0.0,0.0,0.0,178.0,193.0,0.0,178.0,1744418750.5423162,0.0,2025-04-11 20:45:50.542,LEFT,28
142.0,8091.577362010165,-12467.84776065919,-20518.610837293963,-23397.604930115336,20143.526213589455,6395.526992741465,11645.951765293094,46300.25283101235,0.0,0.0,0.0,193.0,0.0,193.0,0.0,0.0,0.0,179.0,193.0,0.0,179.0,1744418750.542347,0.0,2025-04-11 20:45:50.542,LEFT,28
143.0,8103.915524949494,-12458.281214032319,-20550.327962676045,-23406.7244418531,19886.190579675505,6127.082541833227,11645.840006570817,46166.20941951388,0.0,0.0,0.0,193.0,0.0,193.0,0.0,0.0,0.0,178.0,193.0,0.0,178.0,1744418750.5423777,0.0,2025-04-11 20:45:50.542,LEFT,28
144.0,8078.635701970542,-12464.98673736891,-20585.26373925969,-23406.63503487528,19940.75118789091,6321.542718594399,11422.702541673487,46255.594045590646,0.0,0.0,0.0,193.0,0.0,193.0,0.0,0.0,0.0,179.0,193.0,0.0,179.0,1744418750.5424204,0.0,2025-04-11 20:45:50.542,LEFT,28
145.0,8096.450042301422,-12444.110208047654,-20558.285183702134,-23376.996621727543,20004.654825288635,6510.459662730654,11257.009060026296,46349.761944980855,0.0,0.0,0.0,193.0,0.0,192.0,0.0,0.0,0.0,178.0,192.0,0.0,178.0,1744418750.5424511,0.0,2025-04-11 20:45:50.542,LEFT,28
146.0,8096.740614979341,-12456.22485354243,-20524.57875306353,-23396.733212081577,20162.32403067637,6352.54458815391,11584.082136640804,46363.530619565325,0.0,0.0,0.0,193.0,0.0,193.0,0.0,0.0,0.0,179.0,193.0,0.0,179.0,1744418750.542482,0.0,2025-04-11 20:45:50.542,LEFT,28
147.0,8108.1847081404585,-12444.333725492208,-20538.92857300384,-23386.406706143225,20024.793747042866,6165.013452173884,11662.559111423387,46234.04696393573,0.0,0.0,0.0,193.0,0.0,193.0,0.0,0.0,0.0,179.0,193.0,0.0,179.0,1744418750.542513,0.0,2025-04-11 20:45:50.542,LEFT,28
148.0,8086.928199163462,-12468.56301648176,-20568.835207085038,-23386.7196305656,19989.008604169918,6333.6126606002645,11438.12524534765,46262.41132764952,0.0,0.0,0.0,193.0,0.0,193.0,0.0,0.0,0.0,179.0,193.0,0.0,179.0,1744418750.5426495,0.0,2025-04-11 20:45:50.542,LEFT,28
149.0,8107.60356278462,-12447.217100526941,-20557.547576135108,-23375.09672344884,20062.00940156095,6562.449820333698,11216.060664184173,46348.82317171373,0.0,0.0,0.0,193.0,0.0,193.0,0.0,0.0,0.0,179.0,193.0,0.0,179.0,1744418750.5426807,0.0,2025-04-11 20:45:50.542,LEFT,28
150.0,8122.89215599205,-12419.657399613548,-20546.841090541016,-23381.24345317405,20054.141587512684,6501.161337037246,11501.13481296716,46368.17978241203,0.0,0.0,0.0,193.0,0.0,193.0,0.0,0.0,0.0,178.0,193.0,0.0,178.0,1744418750.5427117,0.0,2025-04-11 20:45:50.542,LEFT,28
151.0,8135.207967186924,-12418.048074012766,-20560.028619769648,-23424.49407869507,19989.27682510338,6202.698493325531,11729.837862233862,46258.58917934766,0.0,0.0,0.0,193.0,0.0,193.0,0.0,0.0,0.0,179.0,193.0,0.0,179.0,1744418750.5427425,0.0,2025-04-11 20:45:50.542,LEFT,28
152.0,8120.567574568699,-12441.003315568367,-20562.911994804384,-23373.509749592515,19990.14854313714,6314.144291179692,11594.989787934994,46272.96135103242,0.0,0.0,0.0,193.0,0.0,192.0,0.0,0.0,0.0,178.0,192.0,0.0,178.0,1744418750.5427735,0.0,2025-04-11 20:45:50.542,LEFT,28
153.0,8107.514155806799,-12451.665097673547,-20544.404750395388,-23358.109397662807,20005.504191577937,6545.708363736673,11361.928148499508,46389.57040185576,0.0,0.0,0.0,193.0,0.0,193.0,0.0,0.0,0.0,179.0,193.0,0.0,179.0,1744418750.542804,0.0,2025-04-11 20:45:50.542,LEFT,28
154.0,8113.325609365179,-12460.248167544385,-20515.079261670027,-23388.127790466286,20157.83133004085,6452.814513780417,11538.216357018515,46419.90171908161,0.0,0.0,0.0,193.0,0.0,192.0,0.0,0.0,0.0,178.0,192.0,0.0,178.0,1744418750.5428348,0.0,2025-04-11 20:45:50.542,LEFT,28
155.0,8100.138080136548,-12493.798135971801,-20529.563192077065,-23426.975122329608,20210.76026091102,6175.7646412568865,11792.422746708722,46304.14203454758,0.0,0.0,0.0,193.0,0.0,193.0,0.0,0.0,0.0,179.0,193.0,0.0,179.0,1744418750.5428655,0.0,2025-04-11 20:45:50.542,LEFT,28
156.0,8084.201286339914,-12507.23153438944,-20550.149148720404,-23415.665139635224,20113.731338230533,6191.209696675503,11614.145232933191,46248.06150770921,0.0,0.0,0.0,193.0,0.0,192.0,0.0,0.0,0.0,178.0,192.0,0.0,178.0,1744418750.542897,0.0,2025-04-11 20:45:50.542,LEFT,28
157.0,8107.782376740262,-12471.289929305307,-20556.78761682363,-23389.223025944597,19958.632583455157,6444.3208508874,11350.193482660472,46372.15839292508,0.0,0.0,0.0,193.0,0.0,193.0,0.0,0.0,0.0,179.0,193.0,0.0,179.0,1744418750.5429277,0.0,2025-04-11 20:45:50.542,LEFT,28
158.0,8115.963115210905,-12480.632958487626,-20531.016055466658,-23405.785668585977,20080.807218647864,6427.333525101367,11414.834727625219,46428.484788952446,0.0,0.0,0.0,193.0,0.0,192.0,0.0,0.0,0.0,178.0,192.0,0.0,178.0,1744418750.5429585,0.0,2025-04-11 20:45:50.542,LEFT,28
159.0,8093.4549085444105,-12510.293723379818,-20533.720616545754,-23450.9361923857,20193.012975813508,6217.0930167547485,11729.32377211139,46365.31875912175,0.0,0.0,0.0,193.0,0.0,192.0,0.0,0.0,0.0,178.0,192.0,0.0,178.0,1744418750.5430024,0.0,2025-04-11 20:45:50.543,LEFT,28
160.0,8102.976751682371,-12484.656272489581,-20544.404750395388,-23404.221046474107,20052.15228225616,6199.725711312975,11590.586494277299,46265.920551529,0.0,0.0,0.0,193.0,0.0,192.0,0.0,0.0,0.0,178.0,192.0,0.0,178.0,1744418750.5430336,0.0,2025-04-11 20:45:50.543,LEFT,28
161.0,8136.794941043251,-12449.720495905936,-20534.480575857233,-23377.309546149918,20004.945397966552,6460.838790039872,11309.960342640918,46376.06994820475,0.0,0.0,0.0,193.0,0.0,193.0,0.0,0.0,0.0,178.0,193.0,0.0,178.0,1744418750.543064,0.0,2025-04-11 20:45:50.543,LEFT,28
162.0,8131.966964240905,-12467.512484492361,-20531.10546244448,-23397.962558026622,19996.697604262543,6437.883548484272,11263.424010684968,46425.46730345098,0.0,0.0,0.0,193.0,0.0,193.0,0.0,0.0,0.0,179.0,193.0,0.0,179.0,1744418750.543095,0.0,2025-04-11 20:45:50.543,LEFT,28
163.0,8085.922370662973,-12527.437511377038,-20540.627305582442,-23445.616477205334,20164.313335932893,6283.678863487108,11652.232605485035,46396.387683914625,0.0,0.0,0.0,193.0,0.0,192.0,0.0,0.0,0.0,178.0,192.0,0.0,178.0,1744418750.5432012,0.0,2025-04-11 20:45:50.543,LEFT,28
164.0,8085.765908451785,-12503.610551787682,-20553.25604119969,-23411.910046566732,20199.13735379426,6196.998798489428,11621.454253370077,46269.429775408484,0.0,0.0,0.0,193.0,0.0,193.0,0.0,0.0,0.0,179.0,193.0,0.0,179.0,1744418750.543233,0.0,2025-04-11 20:45:50.543,LEFT,28
165.0,8107.491804062343,-12463.064487345755,-20561.839111070527,-23377.95774673912,20013.260246903927,6439.5599293184205,11356.831950763697,46342.40822105506,0.0,0.0,0.0,193.0,0.0,193.0,0.0,0.0,0.0,179.0,193.0,0.0,179.0,1744418750.5432634,0.0,2025-04-11 20:45:50.543,LEFT,28
166.0,8115.873708233084,-12464.27148154634,-20533.452395612287,-23390.117095722806,20051.369971200227,6514.170052310235,11225.113120688573,46389.77156755586,0.0,0.0,0.0,193.0,0.0,193.0,0.0,0.0,0.0,179.0,193.0,0.0,179.0,1744418750.5432942,0.0,2025-04-11 20:45:50.543,LEFT,28
167.0,8098.416995813489,-12510.964275713477,-20513.4922878137,-23436.07228232292,20318.473317441145,6303.258991629958,11588.016043664938,46366.10107017768,0.0,0.0,0.0,193.0,0.0,193.0,0.0,0.0,0.0,179.0,193.0,0.0,179.0,1744418750.5433247,0.0,2025-04-11 20:45:50.543,LEFT,28
168.0,8109.190536640947,-12502.515316309371,-20536.82750902504,-23431.847802620865,20258.81651148993,6053.567654319722,11610.032511953415,46215.56207127119,0.0,0.0,0.0,193.0,0.0,193.0,0.0,0.0,0.0,178.0,193.0,0.0,178.0,1744418750.5433557,0.0,2025-04-11 20:45:50.543,LEFT,28
169.0,8100.003969669816,-12495.60862727268,-20577.105352533505,-23395.839142303364,20043.658619363145,6299.906229961662,11388.079689512217,46256.53281885777,0.0,0.0,0.0,193.0,0.0,193.0,0.0,0.0,0.0,178.0,193.0,0.0,178.0,1744418750.5433865,0.0,2025-04-11 20:45:50.543,LEFT,28
170.0,8113.146795409536,-12477.548417752794,-20556.318230190067,-23374.38146762627,20027.364197655224,6467.253740698546,11201.487326799313,46315.295555030774,0.0,0.0,0.0,193.0,0.0,193.0,0.0,0.0,0.0,179.0,193.0,0.0,179.0,1744418750.543417,0.0,2025-04-11 20:45:50.543,LEFT,28
171.0,8097.902905691017,-12513.847650748212,-20542.30368641659,-23412.44648843366,20236.82239494591,6356.389088200222,11506.409824658613,46310.758150906346,0.0,0.0,0.0,193.0,0.0,192.0,0.0,0.0,0.0,178.0,192.0,0.0,178.0,1744418750.5434477,0.0,2025-04-11 20:45:50.543,LEFT,28
172.0,8107.17887963997,-12513.668836792569,-20564.40956168289,-23433.948866599665,20083.82470414933,6094.448994928479,11598.990750192494,46168.824573615144,0.0,0.0,0.0,193.0,0.0,193.0,0.0,0.0,0.0,179.0,193.0,0.0,179.0,1744418750.5434852,0.0,2025-04-11 20:45:50.543,LEFT,28
173.0,8112.029208186771,-12481.683490477026,-20573.08203853155,-23401.896465050755,20003.53723806587,6213.784958575364,11363.515122355833,46170.97034108286,0.0,0.0,0.0,193.0,0.0,193.0,0.0,0.0,0.0,178.0,193.0,0.0,178.0,1744418750.543516,0.0,2025-04-11 20:45:50.543,LEFT,28
174.0,8117.907716978517,-12456.493074475895,-20546.952849263293,-23367.787703011956,20096.02875662193,6466.337319175878,11094.064842947108,46244.686394296456,0.0,0.0,0.0,193.0,0.0,192.0,0.0,0.0,0.0,178.0,192.0,0.0,178.0,1744418750.5435605,0.0,2025-04-11 20:45:50.543,LEFT,28
175.0,8086.257646829802,-12517.513336838883,-20539.55442184859,-23414.569904156913,20291.69592758369,6422.4161413212,11301.62314195909,46237.489132581846,0.0,0.0,0.0,193.0,0.0,193.0,0.0,0.0,0.0,179.0,193.0,0.0,179.0,1744418750.5435915,0.0,2025-04-11 20:45:50.543,LEFT,28
176.0,8090.951513165416,-12526.185813687542,-20556.765265079175,-23427.220991518618,20304.01173877856,6176.368138357179,11509.60612411572,46119.38251488001,0.0,0.0,0.0,193.0,0.0,192.0,0.0,0.0,0.0,178.0,192.0,0.0,178.0,1744418750.5436223,0.0,2025-04-11 20:45:50.543,LEFT,28
177.0,8096.2712283457795,-12503.47644132095,-20583.87793110346,-23395.59327311436,20177.254995972515,6240.942328088561,11341.923337212007,46109.8830234865,0.0,0.0,0.0,193.0,0.0,193.0,0.0,0.0,0.0,179.0,193.0,0.0,179.0,1744418750.5436528,0.0,2025-04-11 20:45:50.543,LEFT,28
178.0,8123.428597858978,-12466.685469947513,-20565.661259372388,-23364.747865766036,20037.7801105714,6427.780559990473,11073.121258392484,46211.02466714677,0.0,0.0,0.0,193.0,0.0,192.0,0.0,0.0,0.0,178.0,192.0,0.0,178.0,1744418750.5437562,0.0,2025-04-11 20:45:50.543,LEFT,28
179.0,8122.109844936114,-12495.765089483868,-20543.1977561948,-23400.35419468334,20152.422207882668,6382.965312357583,11202.493155299802,46226.04503942073,0.0,0.0,0.0,193.0,0.0,192.0,0.0,0.0,0.0,178.0,192.0,0.0,178.0,1744418750.5437877,0.0,2025-04-11 20:45:50.543,LEFT,28
180.0,8108.944667451939,-12535.260621936397,-20553.323096433058,-23451.137358085794,20286.44326763669,6142.88522516313,11476.41378359959,46116.92382298992,0.0,0.0,0.0,193.0,0.0,193.0,0.0,0.0,0.0,179.0,193.0,0.0,179.0,1744418750.5438185,0.0,2025-04-11 20:45:50.543,LEFT,28
181.0,8100.808632470207,-12534.590069602737,-20563.53784364913,-23418.280293736494,20241.985647915084,6191.74613854243,11340.157549400039,46057.55758971663,0.0,0.0,0.0,193.0,0.0,192.0,0.0,0.0,0.0,178.0,192.0,0.0,178.0,1744418750.5438492,0.0,2025-04-11 20:45:50.543,LEFT,28
182.0,8118.89119373455,-12501.978874442444,-20563.850768071505,-23392.799305057444,20182.641766386245,6432.005039692526,11081.346700352038,46170.70212014939,0.0,0.0,0.0,193.0,0.0,193.0,0.0,0.0,0.0,179.0,193.0,0.0,179.0,1744418750.54388,0.0,2025-04-11 20:45:50.543,LEFT,28
183.0,8140.907662023028,-12498.603761029693,-20517.761471004662,-23396.554398125936,20289.19253220469,6423.578432032876,11113.287343178672,46201.79339668672,0.0,0.0,0.0,193.0,0.0,192.0,0.0,0.0,0.0,178.0,192.0,0.0,178.0,1744418750.5439153,0.0,2025-04-11 20:45:50.543,LEFT,28
184.0,8123.5627083257095,-12534.746531813924,-20519.862534983462,-23426.729253140602,20320.127346530837,6253.459304983534,11460.834617714241,46135.9898610103,0.0,0.0,0.0,193.0,0.0,193.0,0.0,0.0,0.0,178.0,193.0,0.0,178.0,1744418750.543946,0.0,2025-04-11 20:45:50.543,LEFT,28
185.0,8121.595754813642,-12531.304363167807,-20552.049046999105,-23413.944055312164,20202.42306022919,6122.947469108995,11361.257596165848,46039.81030461911,0.0,0.0,0.0,193.0,0.0,193.0,0.0,0.0,0.0,179.0,193.0,0.0,179.0,1744418750.5439768,0.0,2025-04-11 20:45:50.543,LEFT,28
186.0,8117.684199533964,-12512.126566425153,-20566.532977406143,-23383.90331076423,20143.973248478564,6434.307269371423,11104.43605237437,46154.96649205285,0.0,0.0,0.0,193.0,0.0,192.0,0.0,0.0,0.0,178.0,192.0,0.0,178.0,1744418750.5440075,0.0,2025-04-11 20:45:50.544,LEFT,28
187.0,8141.935842267972,-12488.970159169456,-20529.384378121424,-23362.400932598226,20142.386274622237,6524.988296626604,11024.7520833912,46211.18112935795,0.0,0.0,0.0,193.0,0.0,193.0,0.0,0.0,0.0,179.0,193.0,0.0,179.0,1744418750.5440383,0.0,2025-04-11 20:45:50.544,LEFT,28
188.0,8112.230373886869,-12540.043895249832,-20541.901355016395,-23429.523221197513,20194.689356647654,6325.163701196158,11357.368392630624,46161.202628755884,0.0,0.0,0.0,193.0,0.0,192.0,0.0,0.0,0.0,178.0,192.0,0.0,178.0,1744418750.5440688,0.0,2025-04-11 20:45:50.544,LEFT,28
189.0,8092.292617832735,-12564.67551763958,-20559.69334360282,-23447.628134206312,20357.722980704664,6176.5916558017325,11313.156642098027,46026.01927829019,0.0,0.0,0.0,193.0,0.0,193.0,0.0,1.0,0.0,179.0,193.0,1.0,179.0,1744418750.5441132,0.0,2025-04-11 20:45:50.544,LEFT,28
190.0,8106.664789517497,-12546.861177308701,-20570.5562914081,-23423.331787983392,20251.10515965285,6348.878902063239,11027.926031103854,46097.880136714004,0.0,0.0,0.0,193.0,0.0,192.0,0.0,2.0,0.0,178.0,192.0,2.0,178.0,1744418750.544145,0.0,2025-04-11 20:45:50.544,LEFT,28
191.0,8133.777455541785,-12527.057531721299,-20540.73906430472,-23410.881866321786,20181.635937885756,6419.845690708839,10863.238377957152,46165.09183229111,0.0,0.0,0.0,193.0,0.0,193.0,0.0,3.0,0.0,179.0,193.0,3.0,179.0,1744418750.5441768,0.0,2025-04-11 20:45:50.544,LEFT,28
192.0,8120.835795502162,-12546.123569741676,-20515.92862795933,-23428.427985719205,20438.122205510404,6345.25791946148,11197.128736630528,46160.867352589055,0.0,0.0,0.0,193.0,0.0,192.0,0.0,5.0,0.0,178.0,192.0,5.0,178.0,1744418750.544208,0.0,2025-04-11 20:45:50.544,LEFT,28
193.0,8133.643345075053,-12538.032238248854,-20538.794462537106,-23439.760320158046,20310.896076070796,6138.079600105239,11212.484385071324,46009.74720832673,0.0,0.0,0.0,193.0,0.0,193.0,0.0,6.0,0.0,179.0,193.0,6.0,179.0,1744418750.544311,0.0,2025-04-11 20:45:50.544,LEFT,28
194.0,8130.938783995961,-12518.228592661453,-20569.394000696422,-23401.896465050755,20061.338849227293,6316.91590749215,10960.334355871006,46049.153333801434,0.0,0.0,0.0,193.0,0.0,193.0,0.0,7.0,0.0,179.0,193.0,7.0,179.0,1744418750.5443428,0.0,2025-04-11 20:45:50.544,LEFT,28
195.0,8135.4761881203885,-12520.709636295991,-20555.312401689578,-23388.01603174401,20133.400873351202,6530.978564140626,10729.396132158772,46127.138570206,0.0,0.0,0.0,193.0,0.0,192.0,0.0,8.0,0.0,178.0,192.0,8.0,178.0,1744418750.544374,0.0,2025-04-11 20:45:50.544,LEFT,28
196.0,8127.116635694103,-12562.216825749496,-20533.899430501395,-23433.278314266005,20390.401231098323,6439.157597918224,10978.618082835446,46108.720732774826,0.0,0.0,0.0,193.0,0.0,193.0,0.0,9.0,0.0,179.0,193.0,9.0,179.0,1744418750.5444052,0.0,2025-04-11 20:45:50.544,LEFT,28
197.0,8142.89696727955,-12557.165331502598,-20555.312401689578,-23438.01688409053,20303.229427722625,6154.239911346425,11084.967682953797,45946.245902329196,0.0,0.0,0.0,193.0,0.0,192.0,0.0,9.0,0.0,178.0,192.0,9.0,178.0,1744418750.5444365,0.0,2025-04-11 20:45:50.544,LEFT,28
198.0,8135.409132887022,-12541.653220850614,-20588.4600387168,-23430.998436331563,20208.05569983193,6249.257177025936,10876.604721141424,45956.68416698983,0.0,0.0,0.0,193.0,0.0,193.0,0.0,10.0,0.0,179.0,193.0,10.0,179.0,1744418750.5444677,0.0,2025-04-11 20:45:50.544,LEFT,28
199.0,8150.071877249704,-12518.161537428086,-20557.368762179467,-23412.67000587821,20245.58427877239,6450.0652492124145,10640.525596204472,46055.54593271565,0.0,0.0,0.0,193.0,0.0,193.0,0.0,11.0,0.0,179.0,193.0,11.0,179.0,1744418750.5444992,0.0,2025-04-11 20:45:50.544,LEFT,28
200.0,8134.269193919801,-12552.896148311633,-20534.97231423525,-23423.5776571724,20434.90355430884,6450.914615501716,10859.662098844303,46062.989063619265,0.0,0.0,0.0,193.0,0.0,193.0,0.0,11.0,0.0,179.0,193.0,11.0,179.0,1744418750.5445306,0.0,2025-04-11 20:45:50.544,LEFT,28
201.0,8126.446083360444,-12571.045764809343,-20558.151073235404,-23445.951753372166,20366.909547675794,6197.959923501006,11066.035755400153,45918.59679443798,0.0,0.0,0.0,193.0,0.0,193.0,0.0,12.0,0.0,179.0,193.0,12.0,179.0,1744418750.5445616,0.0,2025-04-11 20:45:50.544,LEFT,28
202.0,8116.030170444271,-12565.39077346215,-20587.007175327206,-23436.16168930074,20267.19841566067,6226.3689907037015,10858.320994176984,45848.25585463713,0.0,0.0,0.0,193.0,0.0,193.0,0.0,12.0,0.0,179.0,193.0,12.0,179.0,1744418751.0194705,0.0,2025-04-11 20:45:51.019,LEFT,28
203.0,8131.497577607343,-12537.115816726187,-20579.944024079326,-23406.88090406429,20201.305473006425,6437.101237428336,10583.193371676609,45945.552998251085,0.0,0.0,0.0,193.0,0.0,192.0,0.0,12.0,0.0,178.0,192.0,12.0,178.0,1744418751.0196843,0.0,2025-04-11 20:45:51.019,LEFT,28
204.0,8138.672487577497,-12555.220729734985,-20542.43779688332,-23399.72834583859,20338.008742095084,6470.338281433378,10677.227160600087,45955.14189662241,0.0,0.0,0.0,193.0,0.0,193.0,0.0,13.0,0.0,179.0,193.0,13.0,179.0,1744418751.0198128,0.0,2025-04-11 20:45:51.019,LEFT,28
205.0,8128.502443850332,-12595.699738943547,-20559.26866045817,-23447.918706884233,20329.49272745761,6276.705119217053,10968.22452166373,45847.29472962555,0.0,0.0,0.0,193.0,0.0,192.0,0.0,13.0,0.0,178.0,192.0,13.0,178.0,1744418751.0198824,0.0,2025-04-11 20:45:51.019,LEFT,28
206.0,8136.3032026652345,-12576.901921856634,-20567.047067528616,-23426.282218251494,20299.027299765028,6220.490481911956,10827.09560717292,45763.27452221805,0.0,0.0,0.0,193.0,0.0,193.0,0.0,13.0,0.0,179.0,193.0,13.0,179.0,1744418751.0199497,0.0,2025-04-11 20:45:51.019,LEFT,28
207.0,8149.289566193768,-12547.86700580919,-20559.179253480346,-23395.14623822525,20197.28215900447,6444.209092165124,10543.89900492418,45846.31125286952,0.0,0.0,0.0,193.0,0.0,193.0,0.0,13.0,0.0,179.0,193.0,13.0,179.0,1744418751.020017,0.0,2025-04-11 20:45:51.020,LEFT,28
208.0,8142.718153323907,-12563.624985650182,-20535.039369468614,-23403.103459251342,20346.92708813275,6481.581208894398,10538.758103699458,45850.98276746068,0.0,0.0,0.0,193.0,0.0,193.0,0.0,14.0,0.0,179.0,193.0,14.0,179.0,1744418751.0202608,0.0,2025-04-11 20:45:51.020,LEFT,28
209.0,8098.528754535766,-12627.886250959189,-20557.83814881303,-23474.807855463965,20409.154344696326,6255.225092795503,10882.639692144357,45753.372699424355,0.0,0.0,0.0,193.0,0.0,193.0,0.0,14.0,0.0,179.0,193.0,14.0,179.0,1744418751.0203185,0.0,2025-04-11 20:45:51.020,LEFT,28
210.0,8130.916432251505,-12594.626855209692,-20565.750666350206,-23439.849727135865,20243.058531648938,6115.504338205378,10795.80316493549,45610.79092154395,0.0,0.0,0.0,193.0,0.0,193.0,0.0,14.0,0.0,179.0,193.0,14.0,179.0,1744418751.0203748,0.0,2025-04-11 20:45:51.020,LEFT,28
211.0,8130.424693873489,-12577.527770701381,-20572.545596664622,-23412.87117157831,20160.066504486385,6343.022745015949,10534.690086208593,45658.33308200039,0.0,0.0,0.0,193.0,0.0,193.0,0.0,14.0,0.0,178.0,193.0,14.0,178.0,1744418751.0204701,0.0,2025-04-11 20:45:51.020,LEFT,28
212.0,8119.919373979495,-12599.25366631194,-20523.237648396214,-23411.284197721983,20338.88046012884,6446.220749166102,10451.429838112574,45644.162076015724,0.0,0.0,0.0,193.0,0.0,193.0,0.0,14.0,0.0,179.0,193.0,14.0,179.0,1744418751.0205262,0.0,2025-04-11 20:45:51.020,LEFT,28
213.0,8098.461699302399,-12642.772512766423,-20508.4407935668,-23442.241363792582,20530.390206621913,6381.8030216459065,10833.063522942486,45578.179726383656,0.0,0.0,0.0,193.0,0.0,193.0,0.0,15.0,0.0,178.0,193.0,15.0,178.0,1744418751.0205765,0.0,2025-04-11 20:45:51.020,LEFT,28
214.0,8099.109899891603,-12628.64621027067,-20533.810023523572,-23441.43670099219,20406.114507450406,6177.5304290688555,10811.561144776482,45375.44940417402,0.0,0.0,0.0,193.0,0.0,193.0,0.0,15.0,0.0,178.0,193.0,15.0,178.0,1744418751.0206258,0.0,2025-04-11 20:45:51.020,LEFT,28
215.0,8103.535545293755,-12615.235163597485,-20545.142357962413,-23408.91491280972,20315.63464589532,6409.139205114747,10580.444107108606,45385.55239266782,0.0,0.0,0.0,193.0,0.0,192.0,0.0,15.0,0.0,178.0,192.0,15.0,178.0,1744418751.0206745,0.0,2025-04-11 20:45:51.020,LEFT,28
216.0,8135.3644293981115,-12597.130250588687,-20509.603084278475,-23399.39306967176,20307.29744521349,6504.111767305347,10428.742817490438,45375.62821812966,0.0,0.0,0.0,193.0,0.0,192.0,0.0,15.0,0.0,179.0,192.0,15.0,179.0,1744418751.0207233,0.0,2025-04-11 20:45:51.020,LEFT,28
217.0,8115.426673343978,-12648.047524457876,-20493.442773037288,-23436.16168930074,20403.07467020448,6360.859437091284,10751.949042314178,45285.394225763586,0.0,0.0,0.0,193.0,0.0,193.0,0.0,15.0,0.0,179.0,193.0,15.0,179.0,1744418751.0207713,0.0,2025-04-11 20:45:51.020,LEFT,28
218.0,8114.867879732595,-12650.8861960037,-20495.074450382526,-23429.16559328623,20385.573254295978,6134.950355881496,10810.152984875796,45075.39958660598,0.0,0.0,0.0,193.0,0.0,192.0,0.0,15.0,0.0,178.0,192.0,15.0,178.0,1744418751.0208187,0.0,2025-04-11 20:45:51.020,LEFT,28
219.0,8126.602545571631,-12617.269172342918,-20507.85964821096,-23393.805133557933,20262.415142347236,6315.194823169091,10570.832856992825,45052.15377237246,0.0,0.0,0.0,193.0,0.0,192.0,0.0,15.0,0.0,179.0,192.0,15.0,179.0,1744418751.020872,0.0,2025-04-11 20:45:51.020,LEFT,28
220.0,8139.2983364222455,-12597.532581988882,-20486.513732256142,-23385.043249731454,20285.4374391362,6494.992255567581,10336.47481637893,45074.68433078341,0.0,0.0,0.0,193.0,0.0,192.0,0.0,15.0,0.0,178.0,192.0,15.0,178.0,1744418751.0209568,0.0,2025-04-11 20:45:51.020,LEFT,28
221.0,8117.214812900403,-12640.783207509901,-20470.889862881882,-23392.195807957152,20413.93761800976,6492.041825299481,10590.9494270026,44992.87694607698,0.0,0.0,0.0,193.0,0.0,193.0,0.0,15.0,0.0,179.0,193.0,15.0,179.0,1744418751.0210135,0.0,2025-04-11 20:45:51.021,LEFT,28
222.0,8102.306199348713,-12668.611129356757,-20509.15604938937,-23438.68743642419,20361.232204584147,6218.054141766327,10735.207585717153,44756.82017288449,0.0,0.0,0.0,193.0,0.0,193.0,0.0,15.0,0.0,179.0,193.0,15.0,179.0,1744418751.0210693,0.0,2025-04-11 20:45:51.021,LEFT,28
223.0,8101.79210922624,-12663.35846940976,-20509.647787767386,-23417.118003024818,20410.562504597012,6314.054884201871,10527.626934960716,44667.48025029663,0.0,0.0,0.0,193.0,0.0,192.0,0.0,16.0,0.0,178.0,192.0,16.0,178.0,1744418751.0214663,0.0,2025-04-11 20:45:51.021,LEFT,28
224.0,8117.684199533964,-12644.471245345027,-20498.024880650628,-23402.701127851145,20353.230280069147,6472.752269834551,10252.991050838358,44692.22363140865,0.0,0.0,0.0,193.0,0.0,193.0,0.0,16.0,0.0,179.0,193.0,16.0,179.0,1744418751.0215368,0.0,2025-04-11 20:45:51.021,LEFT,28
225.0,8108.832908729662,-12659.670431574636,-20474.95788037275,-23395.749735325546,20471.314546026533,6460.2799964284895,10443.360858364209,44642.35688952886,0.0,0.0,0.0,193.0,0.0,193.0,0.0,16.0,0.0,179.0,193.0,16.0,179.0,1744418751.0215995,0.0,2025-04-11 20:45:51.021,LEFT,28
226.0,8104.094338905137,-12663.090248476297,-20484.949110144273,-23392.28521493497,20488.637147979396,6287.791584466885,10713.280524406497,44449.975425002034,0.0,0.0,0.0,193.0,0.0,193.0,0.0,16.0,0.0,179.0,193.0,16.0,179.0,1744418751.0216527,0.0,2025-04-11 20:45:51.021,LEFT,28
227.0,8101.635647015053,-12649.545091336382,-20516.97915994873,-23369.553490823924,20328.375140234846,6290.652607757164,10551.543301527894,44305.605507565204,0.0,0.0,0.0,193.0,0.0,193.0,0.0,16.0,0.0,179.0,193.0,16.0,179.0,1744418751.0217187,0.0,2025-04-11 20:45:51.021,LEFT,28
228.0,8098.886382447051,-12638.212756897541,-20533.184174678823,-23361.551566308925,20181.747696608032,6556.772477242051,10289.647911745062,44325.319746174784,0.0,0.0,0.0,193.0,0.0,193.0,0.0,16.0,0.0,179.0,193.0,16.0,179.0,1744418751.0217752,0.0,2025-04-11 20:45:51.021,LEFT,28
229.0,8092.918466677484,-12664.967795010543,-20490.82761893602,-23378.5165403505,20407.81324002901,6571.703442538195,10364.235682992421,44244.67465218004,0.0,0.0,0.0,193.0,0.0,193.0,0.0,16.0,0.0,179.0,193.0,16.0,179.0,1744418751.0218272,0.0,2025-04-11 20:45:51.021,LEFT,28
230.0,8093.074928888671,-12673.237940459006,-20489.598272990977,-23409.272540721005,20521.225991395237,6309.539831821899,10684.335015336874,44072.29799894071,0.0,0.0,0.0,193.0,0.0,193.0,0.0,16.0,0.0,179.0,193.0,16.0,179.0,1744418751.0218785,0.0,2025-04-11 20:45:51.021,LEFT,28
231.0,8103.289676104746,-12663.202007198573,-20516.710939015262,-23387.5689968549,20339.88628862933,6234.907357085629,10559.366412087253,43894.15459563191,0.0,0.0,0.0,193.0,0.0,193.0,0.0,16.0,0.0,179.0,193.0,16.0,179.0,1744418751.0219288,0.0,2025-04-11 20:45:51.021,LEFT,28
232.0,8098.12642313557,-12658.821065285334,-20519.482555327722,-23363.652630287725,20341.517965974566,6485.649226385263,10265.217455055412,43896.68034275536,0.0,0.0,0.0,193.0,0.0,193.0,0.0,16.0,0.0,179.0,193.0,16.0,179.0,1744418751.021979,0.0,2025-04-11 20:45:51.021,LEFT,28
233.0,8106.754196495319,-12657.591719340291,-20479.696450197276,-23335.489432274037,20450.236851005182,6562.986262200626,10230.795768594238,43869.74649068672,0.0,0.0,0.0,193.0,0.0,193.0,0.0,16.0,0.0,179.0,193.0,16.0,179.0,1744418751.0220337,0.0,2025-04-11 20:45:51.022,LEFT,28
234.0,8084.581265995654,-12702.496373951004,-20509.2901598561,-23381.39991538524,20485.083220611003,6410.904992926717,10574.52089482795,43741.00044262415,0.0,0.0,0.0,193.0,0.0,193.0,0.0,16.0,0.0,179.0,193.0,16.0,179.0,1744418751.022094,0.0,2025-04-11 20:45:51.022,LEFT,28
235.0,8090.057443387204,-12689.286492977917,-20533.184174678823,-23381.846950274343,20358.92997490525,6244.451551968044,10483.258722216931,43540.21472218212,0.0,0.0,0.0,193.0,0.0,193.0,0.0,16.0,0.0,178.0,193.0,16.0,178.0,1744418751.022222,0.0,2025-04-11 20:45:51.022,LEFT,28
236.0,8094.259571344802,-12663.827856043323,-20540.649657326896,-23343.267839344484,20180.920682063184,6447.159522433224,10234.416751195999,43568.422623684724,0.0,0.0,0.0,193.0,0.0,193.0,0.0,16.0,0.0,178.0,193.0,16.0,178.0,1744418751.0222845,0.0,2025-04-11 20:45:51.022,LEFT,28
237.0,8083.754251450808,-12673.193236970095,-20512.084127913015,-23336.47290903007,20279.87185476683,6544.523721280542,10152.519959511752,43589.00858032806,0.0,0.0,0.0,193.0,0.0,193.0,0.0,16.0,0.0,179.0,193.0,16.0,179.0,1744418751.0223432,0.0,2025-04-11 20:45:51.022,LEFT,28
238.0,8069.158562321492,-12715.795661901911,-20511.324168601535,-23393.000470757543,20411.054242975028,6379.0984605668145,10511.958362097546,43530.46936159961,0.0,0.0,0.0,193.0,0.0,192.0,0.0,16.0,0.0,179.0,192.0,16.0,179.0,1744418751.0229032,0.0,2025-04-11 20:45:51.022,LEFT,28
239.0,8039.7436666183075,-12752.206653619607,-20525.182250163823,-23388.95480501113,20566.197701239314,6223.3738569466905,10483.705757106038,43330.06362081333,0.0,0.0,0.0,193.0,0.0,192.0,0.0,16.0,0.0,178.0,192.0,16.0,178.0,1744418751.0229652,0.0,2025-04-11 20:45:51.022,LEFT,28
240.0,8031.719390358853,-12738.214461590584,-20554.574794122553,-23363.362057609804,20476.567205973533,6486.252723485556,10211.081529984658,43341.30654827435,0.0,0.0,0.0,193.0,0.0,193.0,0.0,16.0,0.0,179.0,193.0,16.0,179.0,1744418751.023022,0.0,2025-04-11 20:45:51.023,LEFT,28
241.0,8060.329623261646,-12705.89383910821,-20535.084072957525,-23360.00929594151,20344.915431131772,6623.470082696686,10014.810861922606,43378.477499303524,0.0,0.0,0.0,193.0,0.0,193.0,0.0,16.0,0.0,178.0,193.0,16.0,178.0,1744418751.0230775,0.0,2025-04-11 20:45:51.023,LEFT,28
242.0,8049.176102778448,-12729.363170786282,-20524.422290852344,-23387.34547941035,20415.3681296549,6461.2187696956125,10316.492356835884,43365.58054275281,0.0,0.0,0.0,193.0,0.0,193.0,0.0,16.0,0.0,178.0,193.0,16.0,178.0,1744418751.0231333,0.0,2025-04-11 20:45:51.023,LEFT,28
243.0,8047.812646366674,-12736.359266800793,-20539.934401504328,-23385.49028462056,20425.29230419306,6235.577909419288,10388.129697815144,43185.246668487394,0.0,0.0,0.0,193.0,0.0,193.0,0.0,16.0,0.0,179.0,193.0,16.0,179.0,1744418751.0231867,0.0,2025-04-11 20:45:51.023,LEFT,28
244.0,8023.91863154395,-12751.826673963866,-20569.12577976296,-23369.06175244591,20428.95799028373,6454.13326670328,10144.138055341013,43164.81717405524,0.0,0.0,0.0,193.0,0.0,193.0,0.0,16.0,0.0,179.0,193.0,16.0,179.0,1744418751.0232413,0.0,2025-04-11 20:45:51.023,LEFT,28
245.0,8046.538596932722,-12735.599307489314,-20544.583564351033,-23345.23479285655,20364.070876129972,6654.851931911938,9893.53029650811,43226.955023641,0.0,0.0,0.0,193.0,0.0,193.0,0.0,16.0,0.0,179.0,193.0,16.0,179.0,1744418751.023314,0.0,2025-04-11 20:45:51.023,LEFT,28
246.0,8035.362724705068,-12762.153179902218,-20517.605008793475,-23373.15212168123,20503.322244086536,6586.902628767804,10127.262488277256,43209.18538679903,0.0,0.0,0.0,193.0,0.0,193.0,0.0,17.0,0.0,179.0,193.0,17.0,179.0,1744418751.0233767,0.0,2025-04-11 20:45:51.023,LEFT,28
247.0,8042.627041653042,-12756.788761232945,-20548.36100916398,-23393.33574692437,20377.07959140296,6309.316314377345,10319.42043535953,43051.024443033275,0.0,0.0,0.0,193.0,0.0,193.0,0.0,17.0,0.0,179.0,193.0,17.0,179.0,1744418751.0234427,0.0,2025-04-11 20:45:51.023,LEFT,28
248.0,8030.668858369453,-12766.690584026646,-20583.855579359006,-23385.49028462056,20253.116816653826,6339.938204281117,10114.365531726544,42986.74082597981,0.0,0.0,0.0,193.0,0.0,193.0,0.0,17.0,0.0,178.0,193.0,17.0,178.0,1744418751.0235062,0.0,2025-04-11 20:45:51.023,LEFT,28
249.0,8020.878794298029,-12764.924796214676,-20577.664146144885,-23374.62733681528,20358.684105716242,6581.225285676156,9860.226197269702,43050.0633180217,0.0,0.0,0.0,193.0,0.0,193.0,0.0,17.0,0.0,179.0,193.0,17.0,179.0,1744418751.0235703,0.0,2025-04-11 20:45:51.023,LEFT,28
250.0,8035.742704360808,-12767.651709038224,-20546.036427740626,-23367.72064777859,20404.929864994272,6537.169997354746,9999.49991697072,43008.51142507928,0.0,0.0,0.0,193.0,0.0,193.0,0.0,17.0,0.0,178.0,193.0,17.0,178.0,1744418751.023693,0.0,2025-04-11 20:45:51.023,LEFT,28
251.0,8008.3394656586015,-12821.92174457571,-20575.339564721533,-23413.653482634247,20440.983228800684,6322.034456972416,10279.455516273441,42851.93745516986,0.0,0.0,0.0,193.0,0.0,193.0,0.0,17.0,0.0,179.0,193.0,17.0,179.0,1744418751.0237565,0.0,2025-04-11 20:45:51.023,LEFT,28
252.0,8002.2374394223025,-12824.447491699158,-20595.724355664774,-23382.42809563018,20423.258295447624,6365.530951682443,10111.839784603095,42729.584006021505,0.0,0.0,0.0,193.0,0.0,193.0,0.0,17.0,0.0,179.0,193.0,17.0,179.0,1744418751.0238185,0.0,2025-04-11 20:45:51.023,LEFT,28
253.0,8021.616401865054,-12793.8703052843,-20579.429933956853,-23349.660438258703,20325.53646868902,6629.125074043879,9836.108665002426,42779.428396156836,0.0,0.0,0.0,193.0,0.0,193.0,0.0,17.0,0.0,179.0,193.0,17.0,179.0,1744418751.0238814,0.0,2025-04-11 20:45:51.023,LEFT,28
254.0,8025.460901911367,-12798.810040808921,-20539.822642782052,-23344.296019589427,20410.808373786018,6596.245657950122,9878.62168295642,42749.36529986445,0.0,0.0,0.0,193.0,0.0,193.0,0.0,17.0,0.0,179.0,193.0,17.0,179.0,1744418751.0241272,0.0,2025-04-11 20:45:51.024,LEFT,28
255.0,7993.654369551465,-12849.146169322274,-20569.34929720751,-23410.613645388323,20432.4225106743,6370.269521506968,10212.489689885342,42606.51530105058,0.0,0.0,0.0,193.0,0.0,193.0,0.0,17.0,0.0,179.0,193.0,17.0,179.0,1744418751.0241868,0.0,2025-04-11 20:45:51.024,LEFT,28
0.0,8004.472613867833,-12833.589355181379,-20581.55334968011,-23396.934377781676,20385.394440340333,6289.132689134203,10064.297624146655,42414.290298734944,0.0,0.0,0.0,193.0,0.0,193.0,0.0,17.0,0.0,179.0,193.0,17.0,179.0,1744418751.024246,0.0,2025-04-11 20:45:51.024,LEFT,28
1.0,8029.417160679956,-12794.049119239942,-20565.907128561394,-23350.018066169985,20374.106809390403,6574.497410595109,9801.396405863334,42452.668243964705,0.0,0.0,0.0,193.0,0.0,193.0,0.0,17.0,0.0,179.0,193.0,17.0,179.0,1744418751.0243044,0.0,2025-04-11 20:45:51.024,LEFT,28
2.0,8028.903070557484,-12810.142375247762,-20536.69339855831,-23355.695409261636,20439.41860668881,6618.597402405429,9793.886219726352,42439.48071473607,0.0,0.0,0.0,193.0,0.0,193.0,0.0,17.0,0.0,178.0,193.0,17.0,178.0,1744418751.0243635,0.0,2025-04-11 20:45:51.024,LEFT,28
3.0,8007.713616813853,-12854.979974625108,-20558.776922080153,-23401.002395272542,20439.686827622274,6431.580356547875,10186.338148872632,42336.34976581929,0.0,0.0,0.0,193.0,0.0,193.0,0.0,17.0,0.0,179.0,193.0,17.0,179.0,1744418751.0244215,0.0,2025-04-11 20:45:51.024,LEFT,28
4.0,7976.443526320878,-12876.92938768022,-20580.83809385754,-23393.089877735365,20383.829818228463,6258.779020163896,10159.158427614979,42157.647568899105,0.0,0.0,0.0,193.0,0.0,192.0,0.0,17.0,0.0,178.0,192.0,17.0,178.0,1744418751.024479,0.0,2025-04-11 20:45:51.024,LEFT,28
5.0,7957.399840044956,-12878.873989447831,-20596.439611487345,-23389.42419164469,20415.345777910446,6504.670560916729,9944.849901777496,42205.4132468001,0.0,0.0,0.0,193.0,0.0,193.0,0.0,17.0,0.0,179.0,193.0,17.0,179.0,1744418751.0245492,0.0,2025-04-11 20:45:51.024,LEFT,28
6.0,8004.696131312387,-12826.995590567065,-20551.914936532372,-23345.6594760012,20379.001841426118,6650.001603365136,9784.654949266309,42177.76413890888,0.0,0.0,0.0,193.0,0.0,193.0,0.0,17.0,0.0,179.0,193.0,17.0,179.0,1744418751.0246177,0.0,2025-04-11 20:45:51.024,LEFT,28
7.0,7989.876924738518,-12862.959547395652,-20531.97718047824,-23383.29981366394,20499.991834162694,6527.24582281659,10119.439377717898,42085.160861630546,0.0,0.0,0.0,193.0,0.0,192.0,0.0,17.0,0.0,178.0,192.0,17.0,178.0,1744418751.024685,0.0,2025-04-11 20:45:51.024,LEFT,28
8.0,7990.122793927526,-12869.486256776603,-20548.383360908432,-23398.074316748898,20442.70431312374,6247.7372584029745,10158.219654347857,41876.4849753958,0.0,0.0,0.0,193.0,0.0,193.0,0.0,17.0,0.0,179.0,193.0,17.0,179.0,1744418751.0247517,0.0,2025-04-11 20:45:51.024,LEFT,28
9.0,7987.261770637247,-12861.283166561505,-20564.297802960613,-23364.054961687918,20346.345942776912,6475.56858963592,9947.375648900945,41878.45192890787,0.0,0.0,0.0,193.0,0.0,193.0,0.0,17.0,0.0,179.0,193.0,17.0,179.0,1744418751.0248573,0.0,2025-04-11 20:45:51.024,LEFT,28
10.0,7969.022747161716,-12888.373480841337,-20554.127759233448,-23365.15019716623,20421.51485938011,6705.031598214102,9765.164228101281,41904.2905454982,0.0,0.0,0.0,193.0,0.0,192.0,0.0,17.0,0.0,178.0,192.0,17.0,178.0,1744418751.0249145,0.0,2025-04-11 20:45:51.024,LEFT,28
11.0,7968.352194828057,-12907.03718746152,-20524.15406991888,-23387.680755577177,20558.598108124508,6572.932788483237,10039.04015291216,41828.24991086125,0.0,0.0,0.0,193.0,0.0,193.0,0.0,17.0,0.0,179.0,193.0,17.0,179.0,1744418751.0249708,0.0,2025-04-11 20:45:51.024,LEFT,28
12.0,7959.389145301479,-12923.242202191615,-20553.16663422187,-23412.133564011285,20436.37876944289,6286.71870073303,10136.76197967076,41607.83935878746,0.0,0.0,0.0,193.0,0.0,192.0,0.0,17.0,0.0,178.0,192.0,17.0,178.0,1744418751.0250263,0.0,2025-04-11 20:45:51.025,LEFT,28
13.0,7965.62528200451,-12901.896286236799,-20576.948890322317,-23378.29302290595,20245.67368575021,6429.613403035808,9952.762419314673,41555.08924187294,0.0,0.0,0.0,193.0,0.0,193.0,0.0,17.0,0.0,179.0,193.0,17.0,179.0,1744418751.02521,0.0,2025-04-11 20:45:51.025,LEFT,28
14.0,7972.554322785655,-12894.766079755555,-20556.87702380145,-23356.611830784303,20325.625875666843,6637.618736936896,9732.061294562971,41566.913314689795,0.0,0.0,0.0,193.0,0.0,192.0,0.0,17.0,0.0,179.0,192.0,17.0,179.0,1744418751.0252583,0.0,2025-04-11 20:45:51.025,LEFT,28
15.0,7939.2502235472475,-12947.046810036518,-20531.999532222693,-23382.182226441175,20561.615593625975,6585.561524100486,9954.30468968209,41483.809528804966,0.0,0.0,0.0,193.0,0.0,193.0,0.0,17.0,0.0,178.0,193.0,17.0,178.0,1744418751.025306,0.0,2025-04-11 20:45:51.025,LEFT,28
16.0,7913.545717423644,-12990.275083813081,-20562.710829104286,-23433.188907288186,20557.726390090753,6298.140442149693,10152.34114555611,41267.8916773667,0.0,0.0,0.0,193.0,0.0,193.0,0.0,17.0,0.0,179.0,193.0,17.0,179.0,1744418751.0253549,0.0,2025-04-11 20:45:51.025,LEFT,28
17.0,7924.721589651298,-12966.492827712635,-20577.73120137825,-23405.092764507863,20443.061941035026,6308.511651576955,9960.965509529771,41159.15044059163,0.0,0.0,0.0,193.0,0.0,192.0,0.0,17.0,0.0,178.0,192.0,17.0,178.0,1744418751.0254033,0.0,2025-04-11 20:45:51.025,LEFT,28
18.0,7941.038363103672,-12936.787359331533,-20570.243366985724,-23340.585630009846,20322.183707020726,6618.642105894341,9708.21198322916,41214.24749067396,0.0,0.0,0.0,193.0,0.0,193.0,0.0,17.0,0.0,179.0,193.0,17.0,179.0,1744418751.025452,0.0,2025-04-11 20:45:51.025,LEFT,28
19.0,7942.044191604161,-12950.690144382734,-20532.223049667246,-23344.76540622299,20450.683885894287,6630.108550799912,9825.402179408335,41194.53325206438,0.0,0.0,0.0,193.0,0.0,193.0,0.0,17.0,0.0,179.0,193.0,17.0,179.0,1744418751.025499,0.0,2025-04-11 20:45:51.025,LEFT,28
20.0,7896.714853848798,-13003.976703164186,-20556.944079034816,-23405.830372074888,20498.20369460627,6364.994509815516,10123.462691719853,41058.76875624285,0.0,0.0,0.0,193.0,0.0,193.0,0.0,17.0,0.0,178.0,193.0,17.0,178.0,1744418751.0255468,0.0,2025-04-11 20:45:51.025,LEFT,28
21.0,7863.656623799399,-13033.01161921163,-20579.094657790025,-23406.165648241717,20552.227860954747,6334.171454211647,9996.191858791335,40935.856513483115,0.0,0.0,0.0,193.0,0.0,193.0,0.0,17.0,0.0,179.0,193.0,17.0,179.0,1744418751.0255983,0.0,2025-04-11 20:45:51.025,LEFT,28
22.0,7875.145420449427,-13026.507261575134,-20576.16657926638,-23362.870319231788,20438.390426443868,6604.06876850948,9745.651155191797,40991.89233683256,0.0,0.0,0.0,193.0,0.0,192.0,0.0,17.0,0.0,178.0,192.0,17.0,178.0,1744418751.025654,0.0,2025-04-11 20:45:51.025,LEFT,28
23.0,7889.741109578742,-13031.536404077578,-20539.822642782052,-23367.094798933842,20470.688697181788,6595.888030038837,9777.860018951897,40994.95452582294,0.0,0.0,0.0,193.0,0.0,193.0,0.0,17.0,0.0,179.0,193.0,17.0,179.0,1744418751.0257096,0.0,2025-04-11 20:45:51.025,LEFT,28
24.0,7881.426260641368,-13048.926061263808,-20552.853709799496,-23386.96549975461,20410.338987152456,6403.148937600725,10134.303287780678,40900.16077758799,0.0,0.0,0.0,193.0,0.0,193.0,0.0,17.0,0.0,179.0,193.0,17.0,179.0,1744418751.0257874,0.0,2025-04-11 20:45:51.025,LEFT,28
25.0,7869.333966891047,-13047.495549618669,-20578.848788601015,-23366.714819278102,20193.303548491425,6269.2172848245245,10042.258804113722,40735.45077269683,0.0,0.0,0.0,193.0,0.0,193.0,0.0,17.0,0.0,178.0,193.0,17.0,178.0,1744418751.025844,0.0,2025-04-11 20:45:51.025,LEFT,28
26.0,7841.88602469993,-13069.556721396057,-20577.194759511323,-23335.37767355176,20409.64608307434,6618.016257049591,9796.881353483363,40772.77818593719,0.0,0.0,0.0,193.0,0.0,192.0,0.0,17.0,0.0,178.0,192.0,17.0,178.0,1744418751.0259,0.0,2025-04-11 20:45:51.025,LEFT,28
27.0,7834.845225196508,-13084.688852392299,-20538.079206714538,-23357.77412149598,20691.255711466758,6698.393130110876,9708.055521017972,40744.27971175667,0.0,0.0,0.0,193.0,0.0,192.0,0.0,17.0,0.0,179.0,192.0,17.0,179.0,1744418751.025956,0.0,2025-04-11 20:45:51.025,LEFT,28
28.0,7773.243817477682,-13166.093905698528,-20542.527203861144,-23401.985872028577,20736.830918411128,6474.048671012959,10034.279231343178,40638.33244303852,0.0,0.0,0.0,193.0,0.0,193.0,0.0,17.0,0.0,179.0,193.0,17.0,179.0,1744418751.0261335,0.0,2025-04-11 20:45:51.026,LEFT,28
29.0,7752.054363734051,-13186.098716986027,-20585.822532871072,-23406.67973836419,20543.667142828363,6237.90249084264,9998.248219281224,40447.247379690096,0.0,0.0,0.0,193.0,0.0,192.0,0.0,17.0,0.0,179.0,192.0,17.0,179.0,1744418751.0261896,0.0,2025-04-11 20:45:51.026,LEFT,28
30.0,7756.435305647291,-13153.755742759198,-20612.577570984075,-23366.20072915563,20265.29851738197,6485.47041242962,9760.000975132105,40477.53399342704,0.0,0.0,0.0,193.0,0.0,193.0,0.0,17.0,0.0,179.0,193.0,17.0,179.0,1744418751.02624,0.0,2025-04-11 20:45:51.026,LEFT,28
31.0,7739.470331605713,-13175.03460348065,-20586.44838171582,-23369.73230477957,20311.857201082374,6637.283460770066,9606.80211863543,40486.63115342035,0.0,0.0,0.0,193.0,0.0,193.0,0.0,17.0,0.0,179.0,193.0,17.0,179.0,1744418751.026288,0.0,2025-04-11 20:45:51.026,LEFT,28
32.0,7710.48011904718,-13222.107377303528,-20550.3503144205,-23415.799250101954,20547.578698108042,6477.289673958979,9932.958773727272,40442.709975565675,0.0,0.0,0.0,193.0,0.0,192.0,0.0,17.0,0.0,179.0,192.0,17.0,179.0,1744418751.0263357,0.0,2025-04-11 20:45:51.026,LEFT,28
33.0,7695.437395028758,-13242.201595568848,-20576.948890322317,-23435.714654411633,20434.23300197518,6209.18049921757,9961.412544418878,40253.72597619605,0.0,0.0,0.0,193.0,0.0,193.0,0.0,17.0,0.0,179.0,193.0,17.0,179.0,1744418751.026384,0.0,2025-04-11 20:45:51.026,LEFT,28
34.0,7654.064316041985,-13268.710764492842,-20594.919692864383,-23400.06362200542,20418.385615156367,6467.298444187456,9699.807727313964,40236.0457463319,0.0,0.0,0.0,193.0,0.0,193.0,0.0,17.0,0.0,179.0,193.0,17.0,179.0,1744418751.0264318,0.0,2025-04-11 20:45:51.026,LEFT,28
35.0,7677.779516909065,-13252.438694529379,-20575.987765310736,-23382.159874696717,20356.918317904274,6646.492379485653,9481.699404919078,40293.802654004416,0.0,0.0,0.0,193.0,0.0,193.0,0.0,17.0,0.0,179.0,193.0,17.0,179.0,1744418751.0264802,0.0,2025-04-11 20:45:51.026,LEFT,28
36.0,7634.730057088144,-13315.224744704336,-20551.82552955455,-23436.16168930074,20634.75050148374,6514.259459288056,9806.738472788153,40296.0601801944,0.0,0.0,0.0,193.0,0.0,193.0,0.0,17.0,0.0,179.0,193.0,17.0,179.0,1744418751.026533,0.0,2025-04-11 20:45:51.026,LEFT,28
37.0,7634.864167554876,-13309.569753357144,-20556.184119723337,-23434.46295672214,20637.18684162937,6236.539034430866,9959.870274051462,40136.69224222806,0.0,0.0,0.0,193.0,0.0,193.0,0.0,17.0,0.0,178.0,193.0,17.0,178.0,1744418751.0265825,0.0,2025-04-11 20:45:51.026,LEFT,28
38.0,7638.149873989806,-13285.452221089867,-20573.149093764914,-23390.7205928231,20490.090011368993,6401.941943400138,9767.287643824535,40103.20932903401,0.0,0.0,0.0,193.0,0.0,193.0,0.0,17.0,0.0,179.0,193.0,17.0,179.0,1744418751.0266385,0.0,2025-04-11 20:45:51.026,LEFT,28
39.0,7639.5356821460355,-13272.622319772521,-20551.803177810096,-23382.9198340082,20418.02798724508,6630.823806622482,9549.067562707372,40169.079919943804,0.0,0.0,0.0,193.0,0.0,192.0,0.0,17.0,0.0,178.0,192.0,17.0,178.0,1744418751.0267165,0.0,2025-04-11 20:45:51.026,LEFT,28
40.0,7626.549318617502,-13302.506602109266,-20532.245401411703,-23433.725349155113,20559.35806743599,6495.394586967777,9771.825047948963,40157.88169597169,0.0,0.0,0.0,193.0,0.0,193.0,0.0,17.0,0.0,179.0,193.0,17.0,179.0,1744418751.0267725,0.0,2025-04-11 20:45:51.026,LEFT,28
41.0,7635.51236814408,-13320.20918371787,-20561.235613970235,-23476.618346764844,20431.260219962624,6215.483691153967,10025.897327172439,40010.58370001122,0.0,0.0,0.0,193.0,0.0,193.0,0.0,17.0,0.0,179.0,193.0,17.0,179.0,1744418751.0268283,0.0,2025-04-11 20:45:51.026,LEFT,28
42.0,7619.441463880714,-13316.16351797146,-20572.679707131352,-23433.21125903264,20354.034942869537,6338.865320547262,9875.42538349931,39953.81026909474,0.0,0.0,0.0,193.0,0.0,192.0,0.0,17.0,0.0,178.0,192.0,17.0,178.0,1744418751.0268843,0.0,2025-04-11 20:45:51.026,LEFT,28
43.0,7586.159716386762,-13329.038122777716,-20562.59907038201,-23423.711767639135,20422.00659775813,6580.532381598042,9628.617421223811,40025.8499414742,0.0,0.0,0.0,193.0,0.0,193.0,0.0,17.0,0.0,179.0,193.0,17.0,179.0,1744418751.0270464,0.0,2025-04-11 20:45:51.027,LEFT,28
44.0,7600.263667138061,-13331.452111178889,-20515.660407025865,-23416.939189069177,20593.958567852806,6536.499445021087,9741.761951656576,40020.77609548284,0.0,0.0,0.0,193.0,0.0,193.0,0.0,17.0,0.0,179.0,193.0,17.0,179.0,1744418751.0271025,0.0,2025-04-11 20:45:51.027,LEFT,28
45.0,7592.418204834248,-13362.521035971766,-20540.672009071353,-23461.93325065771,20533.050064212093,6289.915000190139,10046.572690793597,39895.29340211074,0.0,0.0,0.0,193.0,0.0,193.0,0.0,17.0,0.0,179.0,193.0,17.0,179.0,1744418751.0271585,0.0,2025-04-11 20:45:51.027,LEFT,28
46.0,7586.4726408091365,-13358.005983591795,-20558.955736035794,-23452.858442408855,20447.576993414998,6204.240763692947,9916.262020619157,39781.3889123665,0.0,0.0,0.0,193.0,0.0,193.0,0.0,17.0,0.0,179.0,193.0,17.0,179.0,1744418751.0272143,0.0,2025-04-11 20:45:51.027,LEFT,28
47.0,7594.899248468787,-13335.006038547283,-20580.63692815744,-23428.20446827465,20300.591921876898,6469.623025610808,9644.95654642064,39853.62975044605,0.0,0.0,0.0,193.0,0.0,193.0,0.0,17.0,0.0,178.0,193.0,17.0,178.0,1744418751.0272691,0.0,2025-04-11 20:45:51.027,LEFT,28
48.0,7608.310295141971,-13323.427834919434,-20522.030654195627,-23426.326921740405,20468.900557625362,6514.505328477065,9648.555177277944,39855.64140744703,0.0,0.0,0.0,193.0,0.0,193.0,0.0,17.0,0.0,179.0,193.0,17.0,179.0,1744418751.027316,0.0,2025-04-11 20:45:51.027,LEFT,28
49.0,7565.059669620952,-13382.615254237087,-20533.34063689001,-23509.207190180685,20610.297693049633,6301.24733462898,9993.64375992343,39750.319987573625,0.0,0.0,0.0,193.0,0.0,193.0,0.0,17.0,0.0,179.0,193.0,17.0,179.0,1744418751.0273683,0.0,2025-04-11 20:45:51.027,LEFT,28
50.0,7545.703058922656,-13400.116670145593,-20559.961564536283,-23493.002175450587,20539.91204975987,6152.228254345448,9922.989895700204,39597.25524154368,0.0,0.0,0.0,193.0,0.0,193.0,0.0,17.0,0.0,179.0,193.0,17.0,179.0,1744418751.0274189,0.0,2025-04-11 20:45:51.027,LEFT,28
51.0,7562.913902153243,-13365.538521473232,-20560.92268954786,-23421.72246238261,20442.99488580166,6472.819325067917,9719.566669412456,39673.80996630311,0.0,0.0,0.0,193.0,0.0,193.0,0.0,17.0,0.0,179.0,193.0,17.0,179.0,1744418751.0274682,0.0,2025-04-11 20:45:51.027,LEFT,28
52.0,7568.837114433899,-13364.17506506146,-20542.01311373867,-23428.182116530195,20500.640034751897,6556.526608053042,9670.214017655137,39697.055780536626,0.0,0.0,0.0,193.0,0.0,192.0,0.0,17.0,0.0,178.0,192.0,17.0,178.0,1744418751.0275197,0.0,2025-04-11 20:45:51.027,LEFT,28
53.0,7547.915881623731,-13403.201210880425,-20523.841145496506,-23471.87977694032,20637.969152685306,6362.982852814538,10018.565954991098,39617.46121853128,0.0,0.0,0.0,193.0,0.0,193.0,0.0,17.0,0.0,179.0,193.0,17.0,179.0,1744418751.027574,0.0,2025-04-11 20:45:51.027,LEFT,28
54.0,7545.859521133843,-13398.328530589168,-20537.185136936325,-23484.106181157375,20571.964451308784,6109.357608480169,9968.073364266558,39426.82319007197,0.0,0.0,0.0,193.0,0.0,193.0,0.0,17.0,0.0,179.0,193.0,17.0,179.0,1744418751.0276556,0.0,2025-04-11 20:45:51.027,LEFT,28
55.0,7538.483445463592,-13384.135172860048,-20563.314326204578,-23459.094579111887,20397.777306768574,6326.638916330209,9746.411114503278,39483.14958609934,0.0,0.0,0.0,193.0,0.0,192.0,0.0,17.0,0.0,179.0,192.0,17.0,179.0,1744418751.0277052,0.0,2025-04-11 20:45:51.027,LEFT,28
56.0,7534.169558783718,-13391.734765974852,-20539.666180570865,-23456.747645944077,20480.210540319746,6473.646339612764,9643.302517330947,39536.83847628099,0.0,0.0,0.0,193.0,0.0,193.0,0.0,17.0,0.0,179.0,193.0,17.0,179.0,1744418751.027758,0.0,2025-04-11 20:45:51.027,LEFT,28
57.0,7503.659427602223,-13436.594717096654,-20539.10738695948,-23502.41225986627,20625.116899623503,6342.508654893477,10010.184050820357,39508.787036989575,0.0,0.0,0.0,193.0,0.0,192.0,0.0,17.0,0.0,179.0,192.0,17.0,179.0,1744418751.027812,0.0,2025-04-11 20:45:51.027,LEFT,28
58.0,7506.63220961478,-13442.18265321048,-20564.02958202715,-23501.987576721618,20482.95980488775,6064.564712591733,10114.924325337926,39340.4336977522,0.0,0.0,0.0,193.0,0.0,193.0,0.0,17.0,0.0,179.0,193.0,17.0,179.0,1744418751.027989,0.0,2025-04-11 20:45:51.027,LEFT,28
59.0,7489.711939062112,-13445.80363581224,-20588.907073605904,-23475.344297330892,20446.973496314706,6291.859601957751,9948.962622757272,39364.55123001948,0.0,0.0,0.0,193.0,0.0,193.0,0.0,17.0,0.0,179.0,193.0,17.0,179.0,1744418751.0280442,0.0,2025-04-11 20:45:51.028,LEFT,28
60.0,7491.7906512964555,-13441.981487510382,-20579.564044423587,-23468.884643183308,20447.219365503715,6463.811572052428,9757.855207664395,39437.88730357734,0.0,0.0,0.0,193.0,0.0,193.0,0.0,17.0,0.0,178.0,193.0,17.0,178.0,1744418751.0280995,0.0,2025-04-11 20:45:51.028,LEFT,28
61.0,7482.067642458397,-13462.433333686988,-20547.01990449666,-23493.8962452288,20653.816539504118,6335.4455036456,10008.775890919673,39414.50737887709,0.0,0.0,0.0,193.0,0.0,193.0,0.0,17.0,0.0,179.0,193.0,17.0,179.0,1744418751.0281484,0.0,2025-04-11 20:45:51.028,LEFT,28
62.0,7473.8869039877545,-13465.026136043803,-20575.473675188266,-23521.27713218655,20612.398757028433,6047.532683316789,10229.633477882562,39258.46985083459,0.0,0.0,0.0,193.0,0.0,193.0,0.0,17.0,0.0,179.0,193.0,17.0,179.0,1744418751.0282004,0.0,2025-04-11 20:45:51.028,LEFT,28
63.0,7446.461313541093,-13466.501351177854,-20604.374480768976,-23477.154788631775,20550.372666164956,6188.728653040964,10125.966087098848,39241.23665585955,0.0,0.0,0.0,193.0,0.0,193.0,0.0,17.0,0.0,179.0,193.0,17.0,179.0,1744418751.0282547,0.0,2025-04-11 20:45:51.028,LEFT,28
64.0,7461.481685815059,-13449.290507947268,-20580.391058968435,-23438.77684340201,20557.88285230194,6495.819270112428,9924.085131178515,39312.67283113871,0.0,0.0,0.0,193.0,0.0,193.0,0.0,17.0,0.0,179.0,193.0,17.0,179.0,1744418751.028309,0.0,2025-04-11 20:45:51.028,LEFT,28
65.0,7444.85198794031,-13489.635406689098,-20554.843015056016,-23453.573698231423,20674.536606614187,6467.410202909733,10164.031107906236,39332.38706974829,0.0,0.0,0.0,193.0,0.0,193.0,0.0,17.0,0.0,178.0,193.0,17.0,178.0,1744418751.0283608,0.0,2025-04-11 20:45:51.028,LEFT,28
66.0,7431.396237778215,-13514.356436056667,-20589.73408815075,-23490.387021349314,20611.392928527945,6175.742289512431,10465.712602819516,39216.225053814065,0.0,0.0,0.0,193.0,0.0,193.0,0.0,17.0,0.0,179.0,193.0,17.0,179.0,1744418751.4999964,0.0,2025-04-11 20:45:51.499,LEFT,28
67.0,7421.874394640255,-13517.686845980508,-20637.678580007385,-23485.000250935587,20452.270859750613,6134.995059370406,10347.114246739657,39149.99683499299,0.0,0.0,0.0,193.0,0.0,193.0,0.0,17.0,0.0,179.0,193.0,17.0,179.0,1744418751.5001788,0.0,2025-04-11 20:45:51.500,LEFT,28
68.0,7423.975458619054,-13509.640217976597,-20638.527946296686,-23459.87689016782,20426.342836182455,6356.076163777848,10115.483118949309,39249.59620828584,0.0,0.0,0.0,193.0,0.0,193.0,0.0,17.0,0.0,179.0,193.0,17.0,179.0,1744418751.5002167,0.0,2025-04-11 20:45:51.500,LEFT,28
69.0,7425.025990608453,-13523.140671627603,-20583.74382063673,-23447.65048595077,20621.115937366,6376.237437276535,10199.190401934435,39279.43578713367,0.0,0.0,0.0,193.0,0.0,193.0,0.0,17.0,0.0,179.0,193.0,17.0,179.0,1744418751.5002992,0.0,2025-04-11 20:45:51.500,LEFT,28
70.0,7413.112510813775,-13543.190186404014,-20586.73895439374,-23467.342372815892,20716.401423978976,6148.249643832403,10507.711530651037,39174.31553296036,0.0,0.0,0.0,193.0,0.0,193.0,0.0,17.0,0.0,178.0,193.0,17.0,178.0,1744418751.5003445,0.0,2025-04-11 20:45:51.500,LEFT,28
71.0,7400.193202518607,-13547.63818355062,-20617.629065230976,-23456.948811644175,20623.731091467274,6107.860041601663,10386.766241403371,39068.435319475575,0.0,0.0,0.0,193.0,0.0,193.0,0.0,17.0,0.0,179.0,193.0,17.0,179.0,1744418751.5003808,0.0,2025-04-11 20:45:51.500,LEFT,28
72.0,7406.965781088565,-13531.991962431905,-20629.36373107001,-23439.06741607993,20529.4961368437,6340.496997892499,10127.061322577158,39173.53322190443,0.0,0.0,0.0,193.0,0.0,193.0,0.0,17.0,0.0,178.0,193.0,17.0,178.0,1744418751.5004225,0.0,2025-04-11 20:45:51.500,LEFT,28
73.0,7417.89578412721,-13533.91421245506,-20596.819591143085,-23426.081052551395,20491.609929991955,6376.528009954454,10099.546325152674,39219.17548408217,0.0,0.0,0.0,193.0,0.0,192.0,0.0,17.0,0.0,178.0,192.0,17.0,178.0,1744418751.5004764,0.0,2025-04-11 20:45:51.500,LEFT,28
74.0,7386.26806572295,-13586.999605536415,-20604.30742553561,-23467.230614093616,20600.12764932247,6223.642077880154,10398.97029387597,39126.48279982601,0.0,0.0,0.0,193.0,0.0,193.0,0.0,17.0,0.0,179.0,193.0,17.0,179.0,1744418751.5005128,0.0,2025-04-11 20:45:51.500,LEFT,28
75.0,7375.405117917671,-13599.941265576037,-20619.059576876116,-23467.632945493813,20643.154757398934,6072.879561529107,10281.869504674614,38962.97978913543,0.0,0.0,0.0,193.0,0.0,192.0,0.0,17.0,0.0,179.0,192.0,17.0,179.0,1744418751.5005488,0.0,2025-04-11 20:45:51.500,LEFT,28
76.0,7379.137859241708,-13582.395146178622,-20640.94193469786,-23429.25500026405,20492.459296281257,6356.120867266759,10006.518364729687,39042.61905462969,0.0,0.0,0.0,193.0,0.0,193.0,0.0,17.0,0.0,179.0,193.0,17.0,179.0,1744418751.5005844,0.0,2025-04-11 20:45:51.500,LEFT,28
77.0,7395.253466993984,-13572.44861989601,-20607.771945926186,-23414.949883812653,20492.369889303434,6448.947661989649,9865.791781639075,39077.89010738017,0.0,0.0,0.0,193.0,0.0,193.0,0.0,17.0,0.0,179.0,193.0,17.0,179.0,1744418751.50062,0.0,2025-04-11 20:45:51.500,LEFT,28
78.0,7362.061126477854,-13625.042274599347,-20588.59414918353,-23460.949773901677,20706.946636074383,6283.991787909483,10199.369215890076,39010.477246102964,0.0,0.0,0.0,193.0,0.0,193.0,0.0,17.0,0.0,178.0,193.0,17.0,178.0,1744418751.500656,0.0,2025-04-11 20:45:51.500,LEFT,28
79.0,7338.435332588593,-13637.93923115006,-20615.773870441186,-23467.655297238267,20658.398647117454,6092.303227460769,10231.64513488354,38839.37464229759,0.0,0.0,0.0,193.0,0.0,193.0,0.0,17.0,0.0,179.0,193.0,17.0,179.0,1744418751.500692,0.0,2025-04-11 20:45:51.500,LEFT,28
80.0,7318.005838156443,-13633.625344470185,-20640.763120742216,-23438.821546890922,20568.857558829495,6345.347326439301,10033.765141220707,38827.90819739201,0.0,0.0,0.0,193.0,0.0,192.0,0.0,17.0,0.0,178.0,192.0,17.0,178.0,1744418751.500727,0.0,2025-04-11 20:45:51.500,LEFT,28
81.0,7318.4528730455495,-13626.74100717795,-20605.73793718075,-23432.607761932348,20634.772853228194,6476.060328013937,9874.576017210009,38838.97231089739,0.0,0.0,0.0,193.0,0.0,193.0,0.0,17.0,0.0,179.0,193.0,17.0,179.0,1744418751.5007627,0.0,2025-04-11 20:45:51.500,LEFT,28
82.0,7301.756119937435,-13656.379420325688,-20586.940120093837,-23459.31809655644,20739.088444601115,6324.716666307052,10213.316704430188,38784.523461404264,0.0,0.0,0.0,193.0,0.0,193.0,0.0,17.0,0.0,179.0,193.0,17.0,179.0,1744418751.5007987,0.0,2025-04-11 20:45:51.500,LEFT,28
83.0,7299.699759447546,-13661.117990150213,-20623.529925767176,-23474.807855463965,20544.404750395388,6028.712514485421,10328.092912208189,38544.55513293209,0.0,0.0,0.0,193.0,0.0,192.0,0.0,17.0,0.0,179.0,192.0,17.0,179.0,1744418751.5008342,0.0,2025-04-11 20:45:51.500,LEFT,28
84.0,7278.264436514907,-13658.838112215772,-20646.999257445248,-23448.65631445126,20468.788798903086,6207.101786983227,10144.026296618737,38486.10532118146,0.0,0.0,0.0,193.0,0.0,193.0,0.0,17.0,0.0,179.0,193.0,17.0,179.0,1744418751.50087,0.0,2025-04-11 20:45:51.500,LEFT,28
85.0,7281.281922016374,-13650.769132467405,-20630.32485608159,-23436.228744534106,20494.001566648672,6428.540519301953,9962.351317686,38539.61539740746,0.0,0.0,0.0,193.0,0.0,193.0,0.0,17.0,0.0,178.0,193.0,17.0,178.0,1744418751.500919,0.0,2025-04-11 20:45:51.500,LEFT,28
86.0,7259.041936283343,-13695.159696955645,-20603.63687320195,-23470.806893206467,20763.183625123933,6310.165680666648,10212.668503840983,38468.78271922859,0.0,0.0,0.0,193.0,0.0,193.0,0.0,17.0,0.0,179.0,193.0,17.0,179.0,1744418751.500955,0.0,2025-04-11 20:45:51.500,LEFT,28
87.0,7237.6289650951585,-13722.04884553538,-20638.639705018963,-23518.550219363,20734.685150943416,6053.00886070834,10509.142042296176,38186.8154629249,0.0,0.0,0.0,193.0,0.0,193.0,0.0,17.0,0.0,179.0,193.0,17.0,179.0,1744418751.500991,0.0,2025-04-11 20:45:51.500,LEFT,28
88.0,7244.133322731653,-13696.813726045339,-20676.86118803754,-23472.617384507346,20543.913012017372,6141.655879218088,10516.294600521875,38028.118077292216,0.0,0.0,0.0,193.0,0.0,192.0,0.0,17.0,0.0,179.0,192.0,17.0,179.0,1744418751.5010395,0.0,2025-04-11 20:45:51.501,LEFT,28
89.0,7236.846654039223,-13698.557162112853,-20674.067219980625,-23436.564020700935,20495.499133527177,6403.975952145571,10471.792277311359,37933.83841917973,0.0,0.0,0.0,193.0,0.0,193.0,0.0,17.0,0.0,179.0,193.0,17.0,179.0,1744418751.5010755,0.0,2025-04-11 20:45:51.501,LEFT,28
90.0,7213.71259852798,-13736.778645131428,-20642.640667276464,-23448.07516909542,20645.27817312219,6404.802966690418,10786.929522386734,37651.513534964746,0.0,0.0,0.0,193.0,0.0,193.0,0.0,17.0,0.0,179.0,193.0,17.0,179.0,1744418751.5011115,0.0,2025-04-11 20:45:51.501,LEFT,28
91.0,7187.650464493092,-13769.434543780631,-20668.121655955514,-23495.617329551857,20646.999257445248,6129.496530234401,11277.304443991714,37248.265713246554,0.0,0.0,0.0,193.0,0.0,193.0,0.0,17.0,0.0,179.0,193.0,17.0,179.0,1744418751.5011463,0.0,2025-04-11 20:45:51.501,LEFT,28
92.0,7166.997452616389,-13763.421924522154,-20686.561845131142,-23460.189814590194,20687.612377120542,6178.5586093138,11429.139844076615,37060.354597610785,0.0,0.0,0.0,193.0,0.0,193.0,0.0,17.0,0.0,179.0,193.0,17.0,179.0,1744418751.5011823,0.0,2025-04-11 20:45:51.501,LEFT,28
93.0,7156.425077489028,-13756.135255829724,-20701.09047902709,-23447.695189439677,20601.446402245332,6476.261493714034,11494.541048352845,37162.010331393525,0.0,0.0,0.0,193.0,0.0,192.0,0.0,17.0,0.0,179.0,192.0,17.0,179.0,1744418751.5012174,0.0,2025-04-11 20:45:51.501,LEFT,28
94.0,7132.911042322045,-13783.58319802084,-20680.415115405933,-23466.78357920451,20717.72017690184,6435.424856594188,11823.648133712786,37138.384537504266,0.0,0.0,0.0,193.0,0.0,193.0,0.0,17.0,0.0,179.0,193.0,17.0,179.0,1744418751.501253,0.0,2025-04-11 20:45:51.501,LEFT,28
95.0,7104.054940230244,-13826.409140397209,-20701.582217405106,-23521.098318230906,20815.35259668262,6210.923935285085,12349.58468074616,36983.1293205177,0.0,0.0,0.0,193.0,0.0,193.0,0.0,17.0,0.0,179.0,193.0,17.0,179.0,1744418751.5012887,0.0,2025-04-11 20:45:51.501,LEFT,28
96.0,7100.5680680952155,-13828.040817742447,-20732.494679986798,-23512.336434404428,20689.869903310526,6076.142916219583,12393.796431278757,36883.284078035846,0.0,0.0,0.0,193.0,0.0,193.0,0.0,17.0,0.0,178.0,193.0,17.0,178.0,1744418751.5013247,0.0,2025-04-11 20:45:51.501,LEFT,28
97.0,7093.303751147241,-13821.804681039415,-20766.223462369857,-23482.899186956787,20474.890825139384,6339.379410669734,12313.777186128758,37147.749918431036,0.0,0.0,0.0,193.0,0.0,193.0,0.0,17.0,0.0,179.0,193.0,17.0,179.0,1744418751.5013604,0.0,2025-04-11 20:45:51.501,LEFT,28
98.0,7062.4136403100065,-13863.378925726287,-20745.145767348502,-23502.814591266466,20641.254859120236,6436.385981605767,12440.489225445894,37460.093195449495,0.0,0.0,0.0,193.0,0.0,192.0,0.0,17.0,0.0,178.0,192.0,17.0,178.0,1744418751.5013957,0.0,2025-04-11 20:45:51.501,LEFT,28
99.0,7041.738276688848,-13899.789917443983,-20743.268220814254,-23526.79801306701,20747.671514471953,6292.843078713784,12945.795112347021,37664.47754674882,0.0,0.0,0.0,193.0,0.0,193.0,0.0,17.0,0.0,179.0,193.0,17.0,179.0,1744418751.501432,0.0,2025-04-11 20:45:51.501,LEFT,28
100.0,7053.405887294518,-13885.08246959239,-20758.53446227723,-23509.87774251434,20600.060594089104,6078.646311598577,13041.639392571378,37359.04095876705,0.0,0.0,0.0,193.0,0.0,193.0,0.0,17.0,0.0,179.0,193.0,17.0,179.0,1744418751.5014808,0.0,2025-04-11 20:45:51.501,LEFT,28
101.0,7044.018154623289,-13876.544103210463,-20774.180683395945,-23489.045916681996,20508.73136624472,6318.01114297046,13004.75901422012,37159.350473803344,0.0,0.0,0.0,193.0,0.0,193.0,0.0,17.0,0.0,178.0,193.0,17.0,178.0,1744418751.5015173,0.0,2025-04-11 20:45:51.501,LEFT,28
102.0,7028.528395715761,-13895.118402852822,-20745.749264448794,-23495.349108618393,20682.42677240691,6509.81146214145,13073.244759231182,36898.97500264347,0.0,0.0,0.0,193.0,0.0,193.0,0.0,17.0,0.0,179.0,193.0,17.0,179.0,1744418751.5015528,0.0,2025-04-11 20:45:51.501,LEFT,28
103.0,7014.379741475552,-13931.931725970713,-20729.074863085138,-23525.9039432888,20867.856844408136,6334.8420065453065,13552.577919075242,36614.325537005134,0.0,0.0,0.0,193.0,0.0,193.0,0.0,17.0,0.0,179.0,193.0,17.0,179.0,1744418751.501588,0.0,2025-04-11 20:45:51.501,LEFT,28
104.0,7034.161035318499,-13906.27192333602,-20741.56948823565,-23513.275207671548,20656.834025005584,6045.252805382348,13705.553258127364,36210.36245946437,0.0,0.0,0.0,193.0,0.0,193.0,0.0,17.0,0.0,179.0,193.0,17.0,179.0,1744418751.5016377,0.0,2025-04-11 20:45:51.501,LEFT,28
105.0,7031.434122494951,-13889.865742905826,-20756.746322720806,-23505.250931412094,20566.39886693941,6210.588659118254,13649.249213844445,36069.881745562765,0.0,0.0,0.0,193.0,0.0,193.0,0.0,17.0,0.0,179.0,193.0,17.0,179.0,1744418751.5016732,0.0,2025-04-11 20:45:51.501,LEFT,28
106.0,7023.700418913415,-13906.94247566968,-20747.224479582845,-23515.26451292807,20703.280949983713,6322.101512205782,13646.27643183189,35974.819776394346,0.0,0.0,0.0,193.0,0.0,193.0,0.0,17.0,0.0,178.0,193.0,17.0,178.0,1744418751.5017087,0.0,2025-04-11 20:45:51.501,LEFT,28
107.0,6996.274828466753,-13963.045354252501,-20723.688092671408,-23486.855445725378,20876.059934623234,6358.937187068127,14067.852684003436,35684.58237464218,0.0,0.0,0.0,193.0,0.0,193.0,0.0,17.0,0.0,179.0,193.0,17.0,179.0,1744418751.5017493,0.0,2025-04-11 20:45:51.501,LEFT,28
108.0,6978.348729413597,-13994.896590101313,-20748.029142383235,-23501.987576721618,20778.53927356473,6139.107780350182,14254.623860671982,35254.08777643296,0.0,0.0,0.0,193.0,0.0,192.0,0.0,17.0,0.0,178.0,192.0,17.0,178.0,1744418751.5017853,0.0,2025-04-11 20:45:51.501,LEFT,28
109.0,6963.909502495469,-13993.779002878548,-20767.944546692914,-23488.33066085943,20675.18480720339,6243.736296145475,14193.111859930976,35094.74219021108,0.0,0.0,0.0,193.0,0.0,192.0,0.0,17.0,0.0,178.0,192.0,17.0,178.0,1744418751.501821,0.0,2025-04-11 20:45:51.501,LEFT,28
110.0,6977.275845679742,-13981.485543428129,-20744.586973737118,-23461.93325065771,20590.11406780649,6414.190699361647,14148.386019275908,35100.151312369264,0.0,0.0,0.0,193.0,0.0,193.0,0.0,17.0,0.0,179.0,193.0,17.0,179.0,1744418751.501857,0.0,2025-04-11 20:45:51.501,LEFT,28
111.0,6963.306005395175,-14012.979151365656,-20709.181810519913,-23464.6378117368,20704.33148197311,6405.250001579524,14495.687424622469,35001.62482281027,0.0,0.0,0.0,193.0,0.0,192.0,0.0,17.0,0.0,179.0,192.0,17.0,179.0,1744418751.5018926,0.0,2025-04-11 20:45:51.501,LEFT,28
112.0,6935.723952737326,-14046.886747704357,-20737.657932955975,-23510.905922759288,20781.10972417709,6116.241945772404,14762.075515040819,34686.26406029035,0.0,0.0,0.0,193.0,0.0,193.0,0.0,17.0,0.0,179.0,193.0,17.0,179.0,1744418751.5019271,0.0,2025-04-11 20:45:51.501,LEFT,28
113.0,6940.484874306307,-14032.738093464148,-20753.39356105251,-23466.98474490461,20649.36854235751,6160.900731194107,14655.792970155833,34447.502726018756,0.0,0.0,0.0,193.0,0.0,193.0,0.0,17.0,0.0,178.0,193.0,17.0,178.0,1744418751.5019624,0.0,2025-04-11 20:45:51.501,LEFT,28
114.0,6939.791970228192,-14020.332875291453,-20743.11175860307,-23455.294782554483,20767.855139715095,6460.347051661855,14482.34343318265,34364.53305060066,0.0,0.0,0.0,193.0,0.0,193.0,0.0,17.0,0.0,178.0,193.0,17.0,178.0,1744418751.501998,0.0,2025-04-11 20:45:51.501,LEFT,28
115.0,6941.84833071808,-14023.43976777074,-20721.452918225878,-23461.93325065771,20744.743435948305,6434.642545538252,14645.04178107283,34194.771551462596,0.0,0.0,0.0,193.0,0.0,193.0,0.0,17.0,0.0,179.0,193.0,17.0,179.0,1744418751.502048,0.0,2025-04-11 20:45:51.502,LEFT,28
116.0,6910.131205336,-14064.857550246425,-20717.206086779366,-23501.540541832514,20902.56910354723,6122.746303408898,14914.29089478146,33903.81889388787,0.0,0.0,0.0,193.0,0.0,192.0,0.0,17.0,0.0,179.0,192.0,17.0,179.0,1744418751.502084,0.0,2025-04-11 20:45:51.502,LEFT,28
117.0,6912.634600714994,-14045.25507035912,-20728.761938662763,-23478.294727598994,20861.531300727285,6049.611395551133,14786.036585096906,33694.60656578619,0.0,0.0,0.0,193.0,0.0,193.0,0.0,17.0,0.0,179.0,193.0,17.0,179.0,1744418751.5021203,0.0,2025-04-11 20:45:51.502,LEFT,28
118.0,6932.929984680412,-14007.480622229652,-20720.938828103404,-23427.466860707627,20741.614191724562,6386.0275013479595,14564.575501033725,33723.037984733346,0.0,0.0,0.0,193.0,0.0,192.0,0.0,17.0,0.0,178.0,192.0,17.0,178.0,1744418751.502156,0.0,2025-04-11 20:45:51.502,LEFT,28
119.0,6907.940734379379,-14040.181224367765,-20718.278970513224,-23451.29382029698,20742.977648136337,6398.097443353826,14620.879545316642,33691.54437679581,0.0,0.0,0.0,193.0,0.0,193.0,0.0,17.0,0.0,179.0,193.0,17.0,179.0,1744418751.502206,0.0,2025-04-11 20:45:51.502,LEFT,28
120.0,6877.877638086991,-14088.952730769246,-20737.143842833502,-23503.88747500032,20805.182552955455,6111.056341058772,14977.144000189783,33549.25317159333,0.0,0.0,0.0,193.0,0.0,193.0,0.0,17.0,0.0,179.0,193.0,17.0,179.0,1744418751.502242,0.0,2025-04-11 20:45:51.502,LEFT,28
121.0,6867.886408315469,-14101.469707664217,-20752.05245638519,-23498.076021441942,20787.368212624577,6015.8155579347085,14914.581467459378,33363.64428563646,0.0,0.0,0.0,193.0,0.0,193.0,0.0,17.0,0.0,179.0,193.0,17.0,179.0,1744418751.5022779,0.0,2025-04-11 20:45:51.502,LEFT,28
122.0,6851.323765674087,-14103.548419898561,-20752.655953485486,-23470.136340872807,20830.574134656687,6400.98081838856,14716.634418563179,33467.69165607591,0.0,0.0,0.0,193.0,0.0,193.0,0.0,17.0,0.0,179.0,193.0,17.0,179.0,1744418751.5023139,0.0,2025-04-11 20:45:51.502,LEFT,28
123.0,6856.285852943165,-14109.136356012388,-20718.658950168963,-23462.84967218038,20845.438044719464,6498.56853468043,14691.846333962243,33564.25119212284,0.0,0.0,0.0,193.0,0.0,192.0,0.0,18.0,0.0,178.0,192.0,18.0,178.0,1744418751.50235,0.0,2025-04-11 20:45:51.502,LEFT,28
124.0,6844.417076637397,-14135.243193536186,-20711.39463322099,-23487.28012887003,20841.615896417607,6269.6866714580865,15050.077742347448,33554.63994200706,0.0,0.0,0.0,193.0,0.0,193.0,0.0,17.0,0.0,179.0,193.0,17.0,179.0,1744418751.5023868,0.0,2025-04-11 20:45:51.502,LEFT,28
125.0,6830.111960186,-14151.425856521828,-20746.464520271365,-23486.78839049201,20769.509168804787,6074.86886678563,15039.103035819893,33482.957897538894,0.0,0.0,0.0,193.0,0.0,192.0,0.0,17.0,0.0,179.0,192.0,17.0,179.0,1744418751.5024233,0.0,2025-04-11 20:45:51.502,LEFT,28
126.0,6830.000201463724,-14139.311211027052,-20755.58403200913,-23465.73304721511,20751.158386606978,6298.542773549888,14821.307637847382,33652.071196087745,0.0,0.0,0.0,193.0,0.0,193.0,0.0,17.0,0.0,179.0,193.0,17.0,179.0,1744418751.5024593,0.0,2025-04-11 20:45:51.502,LEFT,28
127.0,6839.1644166904,-14140.562908716549,-20723.442223482398,-23479.859349710867,20885.51472252783,6370.314224995879,14703.759813756922,33784.50528198544,0.0,0.0,0.0,193.0,0.0,193.0,0.0,17.0,0.0,179.0,193.0,17.0,179.0,1744418751.5024953,0.0,2025-04-11 20:45:51.502,LEFT,28
128.0,6815.002180934212,-14189.066194184566,-20708.980644819814,-23505.74266979011,20944.009237767368,6262.914092888128,14997.39468066629,33789.75794193243,0.0,0.0,0.0,193.0,0.0,192.0,0.0,17.0,0.0,178.0,192.0,17.0,178.0,1744418751.5025308,0.0,2025-04-11 20:45:51.502,LEFT,28
129.0,6804.563916273584,-14204.175973436353,-20717.988397835303,-23515.286864672526,20932.76631030635,6042.592947792166,15026.362541480368,33677.66394348907,0.0,0.0,0.0,193.0,0.0,193.0,0.0,17.0,0.0,179.0,193.0,17.0,179.0,1744418751.5025654,0.0,2025-04-11 20:45:51.502,LEFT,28
130.0,6798.864221437481,-14187.456868583784,-20743.335276047623,-23480.149922388784,20797.091221462637,6289.356206578756,14828.88487921773,33779.94552611656,0.0,0.0,0.0,193.0,0.0,193.0,0.0,17.0,0.0,179.0,193.0,17.0,179.0,1744418751.502613,0.0,2025-04-11 20:45:51.502,LEFT,28
131.0,6797.880744681447,-14193.178915164342,-20732.315866031156,-23504.17804767824,20771.610232783587,6451.316946901911,14658.922214379576,33939.894609438736,0.0,0.0,0.0,193.0,0.0,193.0,0.0,17.0,0.0,179.0,193.0,17.0,179.0,1744418751.5026455,0.0,2025-04-11 20:45:51.502,LEFT,28
132.0,6799.467718537774,-14210.769738050669,-20696.843647580583,-23507.307291901983,20831.84818409064,6327.130654708226,14920.504679740034,33974.65157206674,0.0,0.0,0.0,193.0,0.0,193.0,0.0,17.0,0.0,179.0,193.0,17.0,179.0,1744418751.5026777,0.0,2025-04-11 20:45:51.502,LEFT,28
133.0,6798.193669103822,-14215.463604386283,-20699.995243548783,-23510.28007391454,20845.84037611966,6056.831009010197,15084.231207875158,33845.05615771486,0.0,0.0,0.0,193.0,0.0,192.0,0.0,17.0,0.0,178.0,192.0,17.0,178.0,1744418751.5027096,0.0,2025-04-11 20:45:51.502,LEFT,28
134.0,6770.0975263235005,-14223.689046345837,-20736.987380622315,-23512.35878614888,20815.039672260245,6174.17766740056,14944.018714907017,33856.88023053172,0.0,0.0,0.0,193.0,0.0,193.0,0.0,17.0,0.0,179.0,193.0,17.0,179.0,1744418751.5027575,0.0,2025-04-11 20:45:51.502,LEFT,28
135.0,6776.333663026531,-14204.041862969621,-20717.362548990553,-23490.78935274951,20760.34495357811,6377.846762877317,14836.953858966097,33978.473720368595,0.0,0.0,0.0,193.0,0.0,193.0,0.0,17.0,0.0,179.0,193.0,17.0,179.0,1744418751.5027907,0.0,2025-04-11 20:45:51.502,LEFT,28
136.0,6755.568892427551,-14249.43825595835,-20693.89321731248,-23501.27232089905,20904.670167526026,6288.573895522821,15197.934531919305,34010.88374982879,0.0,0.0,0.0,193.0,0.0,193.0,0.0,17.0,0.0,179.0,193.0,17.0,179.0,1744418751.5028229,0.0,2025-04-11 20:45:51.502,LEFT,28
137.0,6723.941174023292,-14294.857000691534,-20726.459708983864,-23542.354827207902,20909.364033861642,6079.62978835461,15569.241710810866,33883.14353026671,0.0,0.0,0.0,193.0,0.0,193.0,0.0,17.0,0.0,179.0,193.0,17.0,179.0,1744418751.5028565,0.0,2025-04-11 20:45:51.502,LEFT,28
138.0,6720.499005377174,-14278.808448172624,-20733.612267209563,-23493.806838250977,20887.928710929,6199.479842123967,15558.401114750042,33899.683821163635,0.0,0.0,0.0,193.0,0.0,193.0,0.0,17.0,0.0,179.0,193.0,17.0,179.0,1744418751.5029693,0.0,2025-04-11 20:45:51.502,LEFT,28
139.0,6726.601031613473,-14266.693802677848,-20725.275066527734,-23468.482311783115,20804.579055855163,6446.153693932735,15458.86879669056,34113.27709117855,0.0,0.0,0.0,193.0,0.0,193.0,0.0,17.0,0.0,179.0,193.0,17.0,179.0,1744418751.5030212,0.0,2025-04-11 20:45:51.503,LEFT,28
140.0,6716.1851186973,-14289.246712833252,-20691.769801589227,-23507.284940157526,20928.00538873737,6351.248186975502,15690.34346226972,34222.599473309456,0.0,0.0,0.0,193.0,0.0,193.0,0.0,17.0,0.0,179.0,193.0,17.0,179.0,1744418751.5030584,0.0,2025-04-11 20:45:51.503,LEFT,28
141.0,6696.202659154255,-14322.483756838294,-20717.116679801547,-23544.590001653436,21011.66796823358,6144.628661230643,16125.643685536825,34176.97956287617,0.0,0.0,0.0,193.0,0.0,193.0,0.0,17.0,0.0,179.0,193.0,17.0,179.0,1744418751.503095,0.0,2025-04-11 20:45:51.503,LEFT,28
142.0,6680.556438035541,-14334.754864544257,-20745.458691770877,-23541.95249580771,20932.47573762843,6111.838652114708,16133.891479240834,34121.07784999345,0.0,0.0,0.0,193.0,0.0,193.0,0.0,17.0,0.0,179.0,193.0,17.0,179.0,1744418751.5031312,0.0,2025-04-11 20:45:51.503,LEFT,28
143.0,6674.163839121323,-14321.656742293448,-20753.86294768607,-23514.951588505697,20744.743435948305,6384.820507147373,16077.967414613655,34303.0434016041,0.0,0.0,0.0,193.0,0.0,193.0,0.0,17.0,0.0,179.0,193.0,17.0,179.0,1744418751.503174,0.0,2025-04-11 20:45:51.503,LEFT,28
144.0,6680.690548502273,-14314.861811979034,-20704.130316273015,-23505.60855932338,20826.416710187998,6382.898257124217,16280.049536234086,34399.35706846203,0.0,0.0,0.0,193.0,0.0,193.0,0.0,17.0,0.0,179.0,193.0,17.0,179.0,1744418751.5032218,0.0,2025-04-11 20:45:51.503,LEFT,28
145.0,6630.846158366938,-14375.546798175194,-20719.508316458265,-23560.012705327597,21028.78940448635,6181.777260515364,16790.339862148747,34369.89746926993,0.0,0.0,0.0,193.0,0.0,193.0,0.0,17.0,0.0,179.0,193.0,17.0,179.0,1744418751.5032866,0.0,2025-04-11 20:45:51.503,LEFT,28
146.0,6638.110475314913,-14363.007469535765,-20737.3450085336,-23555.452949458715,20887.70519348445,6013.826252678186,16873.018964888928,34274.187299512305,0.0,0.0,0.0,193.0,0.0,193.0,0.0,17.0,0.0,179.0,193.0,17.0,179.0,1744418751.5033188,0.0,2025-04-11 20:45:51.503,LEFT,28
147.0,6624.45355945272,-14369.914158572456,-20744.072883614648,-23525.188687466227,20849.394303488054,6356.366736455767,16841.033618573383,34419.78656289417,0.0,0.0,0.0,193.0,0.0,193.0,0.0,17.0,0.0,179.0,193.0,17.0,179.0,1744418751.503351,0.0,2025-04-11 20:45:51.503,LEFT,28
148.0,6636.1435218028455,-14374.764487119257,-20696.553074902666,-23492.443381839203,20958.694333874504,6497.160374779746,16954.893404828716,34508.657098848475,0.0,0.0,0.0,193.0,0.0,193.0,0.0,18.0,0.0,179.0,193.0,18.0,179.0,1744418751.5033827,0.0,2025-04-11 20:45:51.503,LEFT,28
149.0,6613.009466291603,-14422.776034209257,-20698.207103992358,-23536.6551323718,21014.64075024614,6306.34353236479,17501.058280594145,34454.968208666825,0.0,0.0,0.0,193.0,0.0,193.0,0.0,18.0,0.0,178.0,193.0,18.0,178.0,1744418751.50343,0.0,2025-04-11 20:45:51.503,LEFT,28
150.0,6605.320466198978,-14437.751702994312,-20733.00877010927,-23552.949554079718,20816.44783216093,6069.929131261008,17721.89351581258,34247.67813058831,0.0,0.0,0.0,193.0,0.0,193.0,0.0,17.0,0.0,179.0,193.0,17.0,179.0,1744418751.5034623,0.0,2025-04-11 20:45:51.503,LEFT,28
151.0,6609.723759856673,-14422.686627231435,-20723.933961860414,-23528.586152623433,20791.570340582173,6286.204610610558,17695.093774210665,34318.68962272282,0.0,0.0,0.0,193.0,0.0,193.0,0.0,17.0,0.0,179.0,193.0,17.0,179.0,1744418751.503494,0.0,2025-04-11 20:45:51.503,LEFT,28
152.0,6614.97641980367,-14423.84891794311,-20696.128391758015,-23536.40926318279,20872.662469466028,6360.345346968812,17649.675029477483,34401.59224290756,0.0,0.0,0.0,193.0,0.0,193.0,0.0,18.0,0.0,178.0,193.0,18.0,178.0,1744418751.5035257,0.0,2025-04-11 20:45:51.503,LEFT,28
153.0,6598.570239373475,-14456.929499736965,-20669.149836200457,-23559.90094660532,21027.001264929924,6177.88805698014,17984.057126528875,34379.91105078591,0.0,0.0,0.0,193.0,0.0,193.0,0.0,17.0,0.0,179.0,193.0,17.0,179.0,1744418751.5035577,0.0,2025-04-11 20:45:51.503,LEFT,28
