Sample Index,EXG Channel 0,EXG Channel 1,EXG Channel 2,EXG Channel 3,EXG Channel 4,EXG Channel 5,EXG Channel 6,EXG Channel 7,Accel Channel 0,Accel Channel 1,Accel Channel 2,Not Used,Digital Channel 0 (D11),Digital Channel 1 (D12),Digital Channel 2 (D13),Digital Channel 3 (D17),Not Used,Digital Channel 4 (D18),Analog Channel 0,Analog Channel 1,Analog Channel 2,Timestamp,Marker Channel,Timestamp (Formatted),Stimulus_Direction,Stimulus_Number
147.0,5895.809041954165,-14406.347502034605,-21663.66835399489,-24089.458476240456,22313.880600199773,6124.6462016875985,22608.14131595389,48178.89460073646,0.0,0.0,0.0,193.0,0.0,192.0,0.0,1.0,0.0,178.0,192.0,1.0,178.0,1744418765.9080162,0.0,2025-04-11 20:46:05.908,LEFT,30
148.0,5905.6438095145,-14387.795554136701,-21684.746049016245,-24071.80059812076,22169.689496718587,6027.952555173941,22556.55348975104,48082.37976817844,0.0,0.0,0.0,193.0,0.0,193.0,0.0,1.0,0.0,179.0,193.0,1.0,179.0,1744418765.908048,0.0,2025-04-11 20:46:05.908,LEFT,30
149.0,5902.805137968676,-14365.622623637037,-21695.787810777165,-24042.028074506292,22061.08237041025,6215.550746387333,22213.25304666198,48130.03368735715,0.0,0.0,0.0,193.0,0.0,193.0,0.0,1.0,0.0,178.0,193.0,1.0,178.0,1744418765.9080799,0.0,2025-04-11 20:46:05.908,LEFT,30
150.0,5911.611725284068,-14346.780103061212,-21668.898662197433,-24044.486766396378,22168.370743795724,6290.764366479441,22108.132792488672,48178.91695248091,0.0,0.0,0.0,193.0,0.0,193.0,0.0,1.0,0.0,179.0,193.0,1.0,179.0,1744418765.908111,0.0,2025-04-11 20:46:05.908,LEFT,30
151.0,5906.001437425785,-14364.907367814467,-21669.502159297725,-24088.273833784322,22313.098289143836,6179.5867895587435,22528.502050459632,48184.90721999493,0.0,0.0,0.0,193.0,0.0,193.0,0.0,1.0,0.0,179.0,193.0,1.0,179.0,1744418765.9081426,0.0,2025-04-11 20:46:05.908,LEFT,30
152.0,5887.985931394807,-14393.718766417358,-21712.462212140825,-24095.135819332103,22165.80029318336,6010.138214843061,22566.812940456028,48067.87348602695,0.0,0.0,0.0,193.0,0.0,192.0,0.0,1.0,0.0,178.0,192.0,1.0,178.0,1744418765.9081738,0.0,2025-04-11 20:46:05.908,LEFT,30
153.0,5889.684663973411,-14378.452524954382,-21707.030738238187,-24040.3740454166,22066.044457679327,6159.939606182529,22251.56393665838,48091.81220433858,0.0,0.0,0.0,193.0,0.0,193.0,0.0,1.0,0.0,179.0,193.0,1.0,179.0,1744418765.9082053,0.0,2025-04-11 20:46:05.908,LEFT,30
154.0,5911.83524272862,-14357.777161333224,-21666.52937728517,-24027.924123754994,22113.47485941349,6273.933502904595,22087.055097467317,48156.25228360323,0.0,0.0,0.0,193.0,0.0,193.0,0.0,1.0,0.0,179.0,193.0,1.0,179.0,1744418765.9082367,0.0,2025-04-11 20:46:05.908,LEFT,30
155.0,5890.3775680515255,-14399.485516486826,-21661.321420827084,-24073.432275466,22284.666870196685,6228.961793060517,22501.92582630227,48196.10544396704,0.0,0.0,0.0,193.0,0.0,193.0,0.0,1.0,0.0,179.0,193.0,1.0,179.0,1744418765.9082682,0.0,2025-04-11 20:46:05.908,LEFT,30
156.0,5878.709957445855,-14417.881002173544,-21705.309653915127,-24106.490505515398,22190.00723242846,6036.602680278144,22649.089711796012,48098.58478290854,0.0,0.0,0.0,193.0,0.0,193.0,0.0,1.0,0.0,178.0,193.0,1.0,178.0,1744418765.9082997,0.0,2025-04-11 20:46:05.908,LEFT,30
157.0,5892.188059352406,-14390.544818704704,-21722.25227621225,-24070.548900431266,22006.477058705936,6131.485835490923,22360.975725767104,48090.11347175998,0.0,0.0,0.0,193.0,0.0,193.0,0.0,1.0,0.0,179.0,193.0,1.0,179.0,1744418765.908331,0.0,2025-04-11 20:46:05.908,LEFT,30
158.0,5905.554402536679,-14372.529312673727,-21691.965662475308,-24047.168975731012,22002.140820281606,6289.7585379789525,22114.43598442507,48149.52440852218,0.0,0.0,0.0,193.0,0.0,193.0,0.0,1.0,0.0,179.0,193.0,1.0,179.0,1744418765.9083736,0.0,2025-04-11 20:46:05.908,LEFT,30
159.0,5881.056890613662,-14411.08607185913,-21665.8141214626,-24081.233034280904,22232.20732596008,6259.561331219832,22445.688837252717,48188.75172004125,0.0,0.0,0.0,193.0,0.0,193.0,0.0,1.0,0.0,179.0,193.0,1.0,179.0,1744418765.9084048,0.0,2025-04-11 20:46:05.908,LEFT,30
160.0,5871.378585264514,-14422.396054553516,-21703.5215143587,-24120.3932905666,22177.19968285557,6021.537604515267,22684.181950590846,48102.384579465936,0.0,0.0,0.0,193.0,0.0,193.0,0.0,1.0,0.0,178.0,193.0,1.0,178.0,1744418765.9084365,0.0,2025-04-11 20:46:05.908,LEFT,30
161.0,5878.35232953457,-14394.121097817553,-21727.504936159246,-24088.162075062046,21990.383802698114,6048.739677517376,22436.368159814854,48093.53328866164,0.0,0.0,0.0,193.0,0.0,193.0,0.0,1.0,0.0,179.0,193.0,1.0,179.0,1744418765.9084685,0.0,2025-04-11 20:46:05.908,LEFT,30
162.0,5893.730329719821,-14370.98704230631,-21703.029775980685,-24053.047484522758,22019.26225653437,6273.1511918486585,22118.124022260192,48176.48061233528,0.0,0.0,0.0,193.0,0.0,192.0,0.0,1.0,0.0,179.0,192.0,1.0,179.0,1744418765.9085107,0.0,2025-04-11 20:46:05.908,LEFT,30
163.0,5884.610817982057,-14397.473859485848,-21662.550766772125,-24067.844339352174,22282.07406783987,6307.885802732206,22329.884449229772,48220.84882507907,0.0,0.0,0.0,193.0,0.0,193.0,0.0,1.0,0.0,179.0,193.0,1.0,179.0,1744418765.9085424,0.0,2025-04-11 20:46:05.908,LEFT,30
164.0,5864.7848206501985,-14428.319266834173,-21700.504028857235,-24121.01913941135,22273.423942735666,6121.0028673413835,22664.512415470173,48186.0248072177,0.0,0.0,0.0,193.0,0.0,192.0,0.0,1.0,0.0,178.0,192.0,1.0,178.0,1744418765.9085736,0.0,2025-04-11 20:46:05.908,LEFT,30
165.0,5870.618625953034,-14402.435946754927,-21733.092872273075,-24098.890912400595,22103.170705219592,6107.5918206682,22488.224206951167,48147.199827098826,0.0,0.0,0.0,193.0,0.0,192.0,0.0,1.0,0.0,179.0,192.0,1.0,179.0,1744418765.9086034,0.0,2025-04-11 20:46:05.908,LEFT,30
166.0,5879.82754466862,-14381.93939708941,-21734.501032173757,-24085.18929304949,21978.49267464789,6297.8051659828625,22170.471807774524,48227.35318271556,0.0,0.0,0.0,193.0,0.0,193.0,0.0,1.0,0.0,178.0,193.0,1.0,178.0,1744418765.9086325,0.0,2025-04-11 20:46:05.908,LEFT,30
167.0,5880.229876068816,-14397.071528085653,-21694.71492704331,-24099.3379472897,22113.94424604705,6309.964514966549,22285.739753930542,48290.07217765715,0.0,0.0,0.0,193.0,0.0,192.0,0.0,1.0,0.0,178.0,192.0,1.0,178.0,1744418765.9086604,0.0,2025-04-11 20:46:05.908,LEFT,30
168.0,5853.184265277894,-14439.338676850639,-21717.178430220894,-24146.276610645844,22238.35405568529,6137.0290681158385,22701.750421732715,48276.07998562813,0.0,0.0,0.0,193.0,0.0,193.0,0.0,1.0,0.0,178.0,193.0,1.0,178.0,1744418765.908688,0.0,2025-04-11 20:46:05.908,LEFT,30
169.0,5864.717765416833,-14414.639999227526,-21731.86352632803,-24111.318482317743,22100.555551118323,6074.310073174247,22601.52519959512,48182.94026648287,0.0,0.0,0.0,193.0,0.0,192.0,0.0,1.0,0.0,178.0,192.0,1.0,178.0,1744418765.908716,0.0,2025-04-11 20:46:05.908,LEFT,30
170.0,5890.31051281816,-14373.8927690855,-21725.940314047377,-24056.824929335708,21957.862014515642,6299.77211949493,22281.962309117593,48252.968281861344,0.0,0.0,0.0,193.0,0.0,193.0,0.0,1.0,0.0,179.0,193.0,1.0,179.0,1744418765.9087439,0.0,2025-04-11 20:46:05.908,LEFT,30
171.0,5909.935344449919,-14362.26986196874,-21668.026944163674,-24049.00181877635,22134.53020269039,6338.954727525083,22260.3034687404,48303.21500339687,0.0,0.0,0.0,193.0,0.0,192.0,0.0,1.0,0.0,178.0,192.0,1.0,178.0,1744418765.9087715,0.0,2025-04-11 20:46:05.908,LEFT,30
172.0,5872.026785853718,-14415.779938194746,-21696.637177066466,-24117.2416945984,22257.375390216755,6168.768545242375,22699.135267631445,48312.98271572384,0.0,0.0,0.0,193.0,0.0,192.0,0.0,1.0,0.0,178.0,192.0,1.0,178.0,1744418765.9087992,0.0,2025-04-11 20:46:05.908,LEFT,30
173.0,5872.54087597619,-14416.092862617119,-21747.219174768827,-24127.29997960329,22104.914141287107,6003.991485117851,22665.808816648583,48205.359066171535,0.0,0.0,0.0,193.0,0.0,193.0,0.0,1.0,0.0,179.0,193.0,1.0,179.0,1744418765.9088376,0.0,2025-04-11 20:46:05.908,LEFT,30
174.0,5895.049082642685,-14375.457391197371,-21743.128805533506,-24084.518740715834,22033.813242174776,6222.23391797947,22350.962144251127,48251.40365974947,0.0,0.0,0.0,193.0,0.0,192.0,0.0,1.0,0.0,178.0,192.0,1.0,178.0,1744418765.9088657,0.0,2025-04-11 20:46:05.908,LEFT,30
175.0,5913.042236929207,-14356.480760154816,-21693.351470631536,-24056.66846712452,22126.461222942024,6383.2111815465905,22262.985678075038,48311.30633488969,0.0,0.0,0.0,193.0,0.0,193.0,0.0,1.0,0.0,179.0,193.0,1.0,179.0,1744418765.9088936,0.0,2025-04-11 20:46:05.908,LEFT,30
176.0,5887.8518209280755,-14399.239647297818,-21688.367031618003,-24105.596435737185,22262.4045327192,6299.593305539287,22697.034203652645,48329.031268242754,0.0,0.0,0.0,193.0,0.0,192.0,0.0,1.0,0.0,178.0,192.0,1.0,178.0,1744418765.9089217,0.0,2025-04-11 20:46:05.908,LEFT,30
177.0,5879.156992334962,-14405.967522378865,-21726.677921614402,-24123.321369090245,22142.82269988331,6090.470384415435,22757.18274798188,48211.729313341304,0.0,0.0,0.0,193.0,0.0,192.0,0.0,0.0,0.0,178.0,192.0,0.0,178.0,1744418765.9089608,0.0,2025-04-11 20:46:05.908,LEFT,30
178.0,5890.779899451721,-14375.345632475095,-21742.078273544106,-24086.06101108325,21985.4887706624,6235.354391974734,22458.630497292343,48233.14228452949,0.0,0.0,0.0,193.0,0.0,193.0,0.0,1.0,0.0,178.0,193.0,1.0,178.0,1744418765.9089885,0.0,2025-04-11 20:46:05.908,LEFT,30
179.0,5897.93245767742,-14367.634280638014,-21718.832459310586,-24083.937595359996,21955.380970881102,6381.221876290068,22276.128503814758,48305.204308653396,0.0,0.0,0.0,193.0,0.0,192.0,0.0,1.0,0.0,178.0,192.0,1.0,178.0,1744418765.9090164,0.0,2025-04-11 20:46:05.909,LEFT,30
180.0,5868.942245118886,-14414.796461438711,-21701.95689224683,-24118.985130665915,22176.23855784399,6293.334817091802,22648.039179806612,48335.28975669024,0.0,0.0,0.0,193.0,0.0,193.0,0.0,0.0,0.0,179.0,193.0,0.0,179.0,1744418765.9090443,0.0,2025-04-11 20:46:05.909,LEFT,30
181.0,5863.331957260604,-14424.47476678786,-21733.875183329008,-24138.520555319854,22174.606880498755,6057.166285177027,22809.75405094076,48225.65445013696,0.0,0.0,0.0,193.0,0.0,192.0,0.0,0.0,0.0,178.0,192.0,0.0,178.0,1744418765.9090717,0.0,2025-04-11 20:46:05.909,LEFT,30
182.0,5876.787707422699,-14394.99281585131,-21751.510709704246,-24099.181485078512,21998.139858024104,6145.634489731132,22549.624448969895,48227.97903156031,0.0,0.0,0.0,193.0,0.0,193.0,0.0,0.0,0.0,179.0,193.0,0.0,179.0,1744418765.9090989,0.0,2025-04-11 20:46:05.909,LEFT,30
183.0,5894.892620431498,-14371.36702196205,-21722.96753203482,-24073.789903377285,21994.20595099997,6321.095683705293,22289.517198743488,48303.77379700825,0.0,0.0,0.0,193.0,0.0,192.0,0.0,0.0,0.0,178.0,192.0,0.0,178.0,1744418765.9091263,0.0,2025-04-11 20:46:05.909,LEFT,30
184.0,5893.998550653285,-14391.327129760639,-21682.82379899309,-24089.123200073624,22209.565008826856,6301.716721262542,22583.04030693058,48353.88640807705,0.0,0.0,0.0,193.0,0.0,193.0,0.0,0.0,0.0,179.0,193.0,0.0,179.0,1744418765.9091537,0.0,2025-04-11 20:46:05.909,LEFT,30
185.0,5883.761451692754,-14413.500060260303,-21715.68086334239,-24138.07352043075,22208.53682858191,6067.6492533265655,22857.989115475313,48294.922506203955,0.0,0.0,0.0,193.0,0.0,193.0,0.0,0.0,0.0,179.0,193.0,0.0,179.0,1744418765.909181,0.0,2025-04-11 20:46:05.909,LEFT,30
186.0,5883.984969137307,-14397.60796995258,-21739.48547118729,-24113.263084085356,22062.132902399648,6099.433433942013,22654.58824093202,48275.2976745722,0.0,0.0,0.0,193.0,0.0,192.0,0.0,0.0,0.0,179.0,192.0,0.0,179.0,1744418765.9092083,0.0,2025-04-11 20:46:05.909,LEFT,30
187.0,5905.710864747866,-14365.17558874793,-21712.283398185184,-24061.00470554885,21986.695764862987,6332.986811755516,22358.315868176924,48342.68818410495,0.0,0.0,0.0,193.0,0.0,193.0,0.0,0.0,0.0,179.0,193.0,0.0,179.0,1744418765.9092357,0.0,2025-04-11 20:46:05.909,LEFT,30
188.0,5890.824602940632,-14396.08805132962,-21679.851016980534,-24079.62370868012,22159.161825080137,6348.498922407499,22560.12976886389,48384.44124274746,0.0,0.0,0.0,193.0,0.0,193.0,0.0,0.0,0.0,179.0,193.0,0.0,179.0,1744418765.9092731,0.0,2025-04-11 20:46:05.909,LEFT,30
189.0,5868.763431163244,-14428.028694156254,-21711.411680151425,-24136.35243610769,22167.968412395527,6133.698658191998,22910.783935878746,48335.37916366806,0.0,0.0,0.0,193.0,0.0,193.0,0.0,0.0,0.0,179.0,193.0,0.0,179.0,1744418765.9093008,0.0,2025-04-11 20:46:05.909,LEFT,30
190.0,5881.191001080394,-14402.525353732748,-21732.623485639513,-24109.329177061223,22029.901686895097,6081.999073266873,22732.573477336584,48264.591188978105,0.0,0.0,0.0,193.0,0.0,193.0,0.0,0.0,0.0,179.0,193.0,0.0,179.0,1744418765.909328,0.0,2025-04-11 20:46:05.909,LEFT,30
191.0,5897.530126277224,-14371.03174579522,-21716.083194742587,-24072.71701964343,21985.645232873587,6310.523308577933,22401.3876797423,48339.82716081467,0.0,0.0,0.0,193.0,0.0,193.0,0.0,0.0,0.0,179.0,193.0,0.0,179.0,1744418765.9093556,0.0,2025-04-11 20:46:05.909,LEFT,30
192.0,5903.810966469165,-14371.054097539676,-21664.629479006468,-24067.978449818904,22158.647734957663,6357.283157978435,22482.099828970415,48388.28574279377,0.0,0.0,0.0,193.0,0.0,193.0,0.0,0.0,0.0,178.0,193.0,0.0,178.0,1744418765.9093945,0.0,2025-04-11 20:46:05.909,LEFT,30
193.0,5870.819791653132,-14417.99276089582,-21688.59054906256,-24117.219342853947,22243.91964005466,6176.03286219035,22910.403956223006,48374.94175135395,0.0,0.0,0.0,193.0,0.0,193.0,0.0,0.0,0.0,179.0,193.0,0.0,179.0,1744418765.9094224,0.0,2025-04-11 20:46:05.909,LEFT,30
194.0,5868.383451507503,-14416.56224925068,-21727.616694881523,-24100.120258345636,22084.261129410403,6072.231360939903,22817.398347544473,48287.21115436687,0.0,0.0,0.0,193.0,0.0,192.0,0.0,0.0,0.0,178.0,192.0,0.0,178.0,1744418765.90945,0.0,2025-04-11 20:46:05.909,LEFT,30
195.0,5892.568039008145,-14381.626472667036,-21729.047206526662,-24058.814234592228,21929.207078123938,6275.609883738743,22491.39815466382,48350.488942919845,0.0,0.0,0.0,193.0,0.0,193.0,0.0,0.0,0.0,179.0,193.0,0.0,179.0,1744418765.9094775,0.0,2025-04-11 20:46:05.909,LEFT,30
196.0,5906.582582781623,-14377.93843483191,-21686.265967639207,-24053.740388600876,22049.28064933785,6362.424059203156,22477.338907401434,48405.85421393564,0.0,0.0,0.0,193.0,0.0,193.0,0.0,0.0,0.0,178.0,193.0,0.0,178.0,1744418765.909505,0.0,2025-04-11 20:46:05.909,LEFT,30
197.0,5871.758564920255,-14434.175423881463,-21696.257197410727,-24119.879200444127,22241.773872586953,6216.042484765349,22902.513790430283,48403.7755017013,0.0,0.0,0.0,193.0,0.0,192.0,0.0,0.0,0.0,178.0,192.0,0.0,178.0,1744418765.9095323,0.0,2025-04-11 20:46:05.909,LEFT,30
198.0,5866.841181140087,-14430.308572090695,-21732.31056121714,-24130.406872082578,22098.99092900645,6037.4743983119015,22870.930775514935,48282.42788105344,0.0,0.0,0.0,193.0,0.0,193.0,0.0,0.0,0.0,179.0,193.0,0.0,179.0,1744418765.90956,0.0,2025-04-11 20:46:05.909,LEFT,30
199.0,5875.7371754333,-14401.586580465626,-21740.714817132335,-24092.163037319548,21996.195256256495,6244.339793245768,22568.377562567897,48330.439428143436,0.0,0.0,0.0,193.0,0.0,193.0,0.0,0.0,0.0,179.0,193.0,0.0,179.0,1744418765.9095876,0.0,2025-04-11 20:46:05.909,LEFT,30
200.0,5894.289123331204,-14388.108478559076,-21694.15613343193,-24068.604298663653,22063.45165532251,6352.410477687178,22463.413770605777,48400.53449875528,0.0,0.0,0.0,193.0,0.0,193.0,0.0,0.0,0.0,178.0,193.0,0.0,178.0,1744418765.9096155,0.0,2025-04-11 20:46:05.909,LEFT,30
201.0,5873.814925410143,-14425.61470575508,-21690.937482230365,-24110.692633472998,22203.910017479662,6245.926767102095,22902.759659619293,48437.325470128715,0.0,0.0,0.0,193.0,0.0,193.0,0.0,0.0,0.0,179.0,193.0,0.0,179.0,1744418765.9096427,0.0,2025-04-11 20:46:05.909,LEFT,30
202.0,5863.644881682978,-14433.437816314437,-21742.81588111113,-24136.464194829965,22098.901522028627,6044.8728257266075,22996.25700667584,48326.863149030585,0.0,0.0,0.0,193.0,0.0,192.0,0.0,0.0,0.0,179.0,192.0,0.0,179.0,1744418765.90967,0.0,2025-04-11 20:46:05.909,LEFT,30
203.0,5858.369869991526,-14423.647752243014,-21778.39985828398,-24127.76936623685,21984.30412820627,6178.335091869247,22734.048692470635,48341.4588381599,0.0,0.0,0.0,193.0,0.0,193.0,0.0,0.0,0.0,179.0,193.0,0.0,179.0,1744418765.9097111,0.0,2025-04-11 20:46:05.909,LEFT,30
204.0,5883.001492381274,-14398.792612408712,-21730.85769782754,-24095.91813038804,22017.496468722402,6319.911041249161,22551.099664103946,48405.451882535446,0.0,0.0,0.0,193.0,0.0,193.0,0.0,0.0,0.0,178.0,193.0,0.0,178.0,1744418765.9097388,0.0,2025-04-11 20:46:05.909,LEFT,30
205.0,5856.917006601931,-14436.947040193922,-21695.76545903271,-24111.072613128737,22237.16941322916,6273.262950570936,22932.822755911682,48437.63839455109,0.0,0.0,0.0,193.0,0.0,193.0,0.0,0.0,0.0,178.0,193.0,0.0,178.0,1744418765.9097664,0.0,2025-04-11 20:46:05.909,LEFT,30
206.0,5839.214424993328,-14456.81774101469,-21737.54086941968,-24142.186241410524,22157.44074075708,6070.5326283613,23134.279028687364,48337.30141369122,0.0,0.0,0.0,193.0,0.0,193.0,0.0,0.0,0.0,179.0,193.0,0.0,179.0,1744418765.9097936,0.0,2025-04-11 20:46:05.909,LEFT,30
207.0,5860.269768270227,-14419.959714407887,-21753.790587638687,-24107.608092738163,22010.63448317462,6159.760792226886,22886.24172046682,48321.4540268724,0.0,0.0,0.0,193.0,0.0,192.0,0.0,0.0,0.0,178.0,192.0,0.0,178.0,1744418765.909833,0.0,2025-04-11 20:46:05.909,LEFT,30
208.0,5879.872248157531,-14392.332958261128,-21725.806203580643,-24077.835569123694,21983.834741572708,6367.989643572527,22636.28216222312,48402.83672843417,0.0,0.0,0.0,193.0,0.0,193.0,0.0,0.0,0.0,179.0,193.0,0.0,179.0,1744418765.9098604,0.0,2025-04-11 20:46:05.909,LEFT,30
209.0,5853.117210044528,-14438.377551839061,-21703.96854924781,-24113.77717420783,22157.083112845794,6333.590308855809,22920.10461331661,48445.39444987708,0.0,0.0,0.0,193.0,0.0,193.0,0.0,0.0,0.0,179.0,193.0,0.0,179.0,1744418765.909888,0.0,2025-04-11 20:46:05.909,LEFT,30
210.0,5834.878186568998,-14466.876026019578,-21735.77508160771,-24154.07736946075,22136.161880035626,6090.693901859988,23190.69483169256,48361.84362910314,0.0,0.0,0.0,193.0,0.0,192.0,0.0,0.0,0.0,178.0,192.0,0.0,178.0,1744418766.3862,0.0,2025-04-11 20:46:06.386,LEFT,30
211.0,5846.054058796652,-14438.42225532797,-21750.750750392766,-24117.599322509686,22009.673358163043,6105.155480522571,22966.328020850186,48306.21013715388,0.0,0.0,0.0,193.0,0.0,193.0,0.0,0.0,0.0,179.0,193.0,0.0,179.0,1744418766.3863604,0.0,2025-04-11 20:46:06.386,LEFT,30
212.0,5870.506867230758,-14402.123022332553,-21733.226982739805,-24081.791827892284,21971.228357699914,6311.998523711983,22641.937153570314,48369.97966408487,0.0,0.0,0.0,193.0,0.0,193.0,0.0,0.0,0.0,178.0,193.0,0.0,178.0,1744418766.3864164,0.0,2025-04-11 20:46:06.386,LEFT,30
213.0,5859.979195592308,-14430.263868601784,-21705.37670914849,-24105.48467701491,22130.86451659972,6309.293962632891,22799.13697232449,48404.93779241297,0.0,0.0,0.0,193.0,0.0,192.0,0.0,0.0,0.0,178.0,192.0,0.0,178.0,1744418766.386462,0.0,2025-04-11 20:46:06.386,LEFT,30
214.0,5841.270785483216,-14461.28808990575,-21731.97528505031,-24148.91411649157,22168.974240896016,6107.6812276460205,23151.892203318144,48340.69887884842,0.0,0.0,0.0,193.0,0.0,193.0,0.0,0.0,0.0,179.0,193.0,0.0,179.0,1744418766.386518,0.0,2025-04-11 20:46:06.386,LEFT,30
215.0,5855.330032745604,-14434.913031448488,-21758.082122574106,-24121.309712089267,21993.423639944034,6039.731924501887,22990.06557346172,48247.805028892166,0.0,0.0,0.0,193.0,0.0,193.0,0.0,0.0,0.0,179.0,193.0,0.0,179.0,1744418766.3866196,0.0,2025-04-11 20:46:06.386,LEFT,30
216.0,5865.008338094752,-14408.806193924689,-21757.277459773715,-24093.14651407558,21878.356859488114,6256.387383507179,22670.05564809509,48322.63866932853,0.0,0.0,0.0,193.0,0.0,192.0,0.0,0.0,0.0,178.0,192.0,0.0,178.0,1744418766.386717,0.0,2025-04-11 20:46:06.386,LEFT,30
217.0,5863.086088071595,-14419.467976029871,-21715.971436020307,-24095.24757805438,22049.012428404385,6301.806128240362,22703.449154311318,48366.89512335004,0.0,0.0,0.0,193.0,0.0,193.0,0.0,0.0,0.0,179.0,193.0,0.0,179.0,1744418766.3868046,0.0,2025-04-11 20:46:06.386,LEFT,30
218.0,5840.041439538174,-14456.571871825681,-21726.186183236383,-24143.057959444282,22171.164711852638,6128.133073822627,23085.41811530806,48318.52594834876,0.0,0.0,0.0,193.0,0.0,193.0,0.0,0.0,0.0,179.0,193.0,0.0,179.0,1744418766.3871286,0.0,2025-04-11 20:46:06.387,LEFT,30
219.0,5842.164855261428,-14449.441665344439,-21749.946087592376,-24131.703273260984,22055.762655229886,6003.276229295281,22994.290053163775,48205.06849349362,0.0,0.0,0.0,193.0,0.0,193.0,0.0,0.0,0.0,178.0,193.0,0.0,178.0,1744418766.3872056,0.0,2025-04-11 20:46:06.387,LEFT,30
220.0,5859.576864192112,-14418.238630084828,-21746.034532312697,-24084.80931339375,21951.514119090334,6221.071627267794,22678.504607499195,48271.25200882578,0.0,0.0,0.0,193.0,0.0,193.0,0.0,0.0,0.0,178.0,193.0,0.0,178.0,1744418766.387268,0.0,2025-04-11 20:46:06.387,LEFT,30
221.0,5885.124908104528,-14400.200772309396,-21704.236770181273,-24066.05619979575,22012.467326219958,6316.558279580865,22630.671874364838,48331.08762873264,0.0,0.0,0.0,193.0,0.0,193.0,0.0,0.0,0.0,178.0,193.0,0.0,178.0,1744418766.3873336,0.0,2025-04-11 20:46:06.387,LEFT,30
222.0,5848.646861153467,-14454.604918313613,-21729.047206526662,-24126.74118599191,22126.058891541827,6195.389472888645,23068.85547266668,48329.36654440958,0.0,0.0,0.0,193.0,0.0,192.0,0.0,0.0,0.0,178.0,192.0,0.0,178.0,1744418766.3874447,0.0,2025-04-11 20:46:06.387,LEFT,30
223.0,5852.111381544039,-14441.126816407064,-21751.801282382166,-24118.91807543255,22024.98430311493,6035.820369222209,23055.62323994914,48192.95384799884,0.0,0.0,0.0,193.0,0.0,193.0,0.0,0.0,0.0,179.0,193.0,0.0,179.0,1744418766.3874989,0.0,2025-04-11 20:46:06.387,LEFT,30
224.0,5855.195922278872,-14419.691493474424,-21756.942183606887,-24089.749048918373,21963.874633774118,6243.423371723101,22754.098207247043,48252.11891557204,0.0,0.0,0.0,193.0,0.0,193.0,0.0,0.0,0.0,179.0,193.0,0.0,179.0,1744418766.3875492,0.0,2025-04-11 20:46:06.387,LEFT,30
225.0,5876.027748111218,-14401.094842087608,-21713.132764474485,-24073.991069077383,22008.198143028992,6362.35700396979,22605.392051385887,48332.98752701134,0.0,0.0,0.0,193.0,0.0,192.0,0.0,0.0,0.0,178.0,192.0,0.0,178.0,1744418766.3876014,0.0,2025-04-11 20:46:06.387,LEFT,30
226.0,5852.670175155423,-14441.775016996267,-21703.029775980685,-24118.560447521264,22197.942101710094,6244.362144990224,22997.128724709597,48338.57546312517,0.0,0.0,0.0,193.0,0.0,192.0,0.0,0.0,0.0,178.0,192.0,0.0,178.0,1744418766.387653,0.0,2025-04-11 20:46:06.387,LEFT,30
227.0,5841.024916294207,-14454.962546224899,-21753.07533181612,-24142.074482688247,22110.367966934202,6044.917529215519,23112.217856909974,48227.26377573774,0.0,0.0,0.0,193.0,0.0,193.0,0.0,0.0,0.0,179.0,193.0,0.0,179.0,1744418766.3877068,0.0,2025-04-11 20:46:06.387,LEFT,30
228.0,5865.4330212394025,-14416.830470184144,-21764.608831955058,-24097.125124588627,21921.29456058676,6164.633472518143,22841.560583300663,48250.71075567135,0.0,0.0,0.0,193.0,0.0,193.0,0.0,0.0,0.0,178.0,193.0,0.0,178.0,1744418766.3877585,0.0,2025-04-11 20:46:06.387,LEFT,30
229.0,5891.763376207755,-14390.030728582231,-21719.681825599888,-24074.058124310748,21922.635665254078,6301.7390730069965,22626.827374318527,48336.653213102014,0.0,0.0,0.0,193.0,0.0,192.0,0.0,0.0,0.0,178.0,192.0,0.0,178.0,1744418766.3878157,0.0,2025-04-11 20:46:06.387,LEFT,30
230.0,5866.997643351275,-14435.516528548782,-21704.303825414638,-24118.761613221362,22138.262944014426,6254.442781739567,22957.320267834697,48365.106983793616,0.0,0.0,0.0,193.0,0.0,193.0,0.0,0.0,0.0,179.0,193.0,0.0,179.0,1744418766.3878672,0.0,2025-04-11 20:46:06.387,LEFT,30
231.0,5862.035556082196,-14449.911051977999,-21736.088006030084,-24141.806261754784,22133.61378116772,6041.855340225142,23124.980702993955,48232.44938045137,0.0,0.0,0.0,193.0,0.0,193.0,0.0,0.0,0.0,179.0,193.0,0.0,179.0,1744418766.3879235,0.0,2025-04-11 20:46:06.387,LEFT,30
232.0,5878.329977790115,-14412.382473037538,-21750.080198059106,-24092.185389064,21964.567537852232,6132.9163471360625,22858.883185253526,48187.56707758511,0.0,0.0,0.0,193.0,0.0,192.0,0.0,0.0,0.0,178.0,192.0,0.0,178.0,1744418766.3879757,0.0,2025-04-11 20:46:06.387,LEFT,30
233.0,5892.21041109686,-14387.572036692149,-21730.812994338634,-24064.3798189616,21910.252798825837,6350.331765452835,22587.84593198847,48279.544506018705,0.0,0.0,0.0,193.0,0.0,193.0,0.0,0.0,0.0,179.0,193.0,0.0,179.0,1744418766.3880649,0.0,2025-04-11 20:46:06.388,LEFT,30
234.0,5876.072451600129,-14421.323170819662,-21713.87037204151,-24103.47302001393,22058.31075409779,6314.144291179692,22830.116490139546,48313.96619247988,0.0,0.0,0.0,193.0,0.0,193.0,0.0,0.0,0.0,178.0,193.0,0.0,178.0,1744418766.388118,0.0,2025-04-11 20:46:06.388,LEFT,30
235.0,5855.955881590353,-14448.704057777413,-21742.190032266382,-24148.422378113555,22094.252359181926,6064.67647131401,23120.935037247546,48223.955717558354,0.0,0.0,0.0,193.0,0.0,192.0,0.0,0.0,0.0,178.0,192.0,0.0,178.0,1744418766.3881705,0.0,2025-04-11 20:46:06.388,LEFT,30
236.0,5868.651672440967,-14421.949019664411,-21745.25222125676,-24103.137743847103,22024.917247881564,6065.615244581133,22925.78195640826,48158.733327237765,0.0,0.0,0.0,193.0,0.0,193.0,0.0,0.0,0.0,179.0,193.0,0.0,179.0,1744418766.3882256,0.0,2025-04-11 20:46:06.388,LEFT,30
237.0,5893.26094308626,-14390.298949515696,-21729.87422107151,-24067.19613876297,21968.47909313191,6285.62346525472,22640.66310413636,48243.58054919011,0.0,0.0,0.0,193.0,0.0,193.0,0.0,0.0,0.0,179.0,193.0,0.0,179.0,1744418766.388333,0.0,2025-04-11 20:46:06.388,LEFT,30
238.0,5887.918876161441,-14396.758603663278,-21695.13961018796,-24072.985240576894,22096.308719671815,6322.146215694692,22786.150608795957,48292.08383465813,0.0,0.0,0.0,193.0,0.0,192.0,0.0,0.0,0.0,178.0,192.0,0.0,178.0,1744418766.3883855,0.0,2025-04-11 20:46:06.388,LEFT,30
239.0,5857.900483357965,-14438.288144861239,-21728.64487512647,-24128.752842992886,22104.668272098097,6121.561660952766,23151.512223662405,48227.21907224883,0.0,0.0,0.0,193.0,0.0,193.0,0.0,0.0,0.0,178.0,193.0,0.0,178.0,1744418766.3884451,0.0,2025-04-11 20:46:06.388,LEFT,30
240.0,5869.1881143078945,-14419.244458585317,-21745.05105555666,-24107.63044448262,21961.572404095223,6021.805825448731,23019.905152309555,48124.24458554323,0.0,0.0,0.0,193.0,0.0,192.0,0.0,0.0,0.0,178.0,192.0,0.0,178.0,1744418766.388495,0.0,2025-04-11 20:46:06.388,LEFT,30
241.0,5887.896524416987,-14384.666309912958,-21728.935447804386,-24057.964868302926,21921.6745402425,6266.803296423352,22723.49866908773,48209.11415924003,0.0,0.0,0.0,193.0,0.0,193.0,0.0,0.0,0.0,179.0,193.0,0.0,179.0,1744418766.3885443,0.0,2025-04-11 20:46:06.388,LEFT,30
242.0,5888.969408150841,-14392.243551283307,-21686.444781594848,-24061.541147415777,22094.788801048853,6348.8118468298735,22760.043771272158,48262.40071802148,0.0,0.0,0.0,193.0,0.0,193.0,0.0,0.0,0.0,179.0,193.0,0.0,179.0,1744418766.3885975,0.0,2025-04-11 20:46:06.388,LEFT,30
243.0,5863.6672334274335,-14434.018961670276,-21703.074479469597,-24109.91032241706,22205.787564013906,6184.79474601683,23172.098180305744,48220.06651402313,0.0,0.0,0.0,193.0,0.0,192.0,0.0,0.0,0.0,178.0,192.0,0.0,178.0,1744418766.3886523,0.0,2025-04-11 20:46:06.388,LEFT,30
244.0,5865.857704384053,-14430.867365702077,-21732.847003084065,-24093.884121642604,22056.142634885626,6063.2459596688705,23108.708633030492,48101.08817828753,0.0,0.0,0.0,193.0,0.0,193.0,0.0,0.0,0.0,179.0,193.0,0.0,179.0,1744418766.3887117,0.0,2025-04-11 20:46:06.388,LEFT,30
245.0,5867.288216029193,-14409.923781147454,-21746.16864277943,-24064.759798617342,21912.39856629355,6295.167660137136,22814.783193443203,48174.91599022341,0.0,0.0,0.0,193.0,0.0,192.0,0.0,0.0,0.0,178.0,192.0,0.0,178.0,1744418766.3887825,0.0,2025-04-11 20:46:06.388,LEFT,30
246.0,5875.223085310828,-14400.021958353755,-21703.990900992263,-24060.021228792815,22004.48775344941,6399.88558291025,22748.242050199755,48248.07324982563,0.0,0.0,0.0,193.0,0.0,193.0,0.0,0.0,0.0,179.0,193.0,0.0,179.0,1744418766.3888524,0.0,2025-04-11 20:46:06.388,LEFT,30
247.0,5852.848989111065,-14439.606897784102,-21695.832514266076,-24101.90839790206,22141.503946960445,6253.749877661452,23166.64435465865,48248.65439518147,0.0,0.0,0.0,193.0,0.0,192.0,0.0,0.0,0.0,178.0,192.0,0.0,178.0,1744418766.3889241,0.0,2025-04-11 20:46:06.388,LEFT,30
248.0,5855.7323641458,-14431.537918035738,-21727.21436348133,-24105.127049103627,22014.59074194321,6029.986563919373,23189.845465403258,48121.271803530675,0.0,0.0,0.0,193.0,0.0,193.0,0.0,0.0,0.0,179.0,193.0,0.0,179.0,1744418766.388996,0.0,2025-04-11 20:46:06.388,LEFT,30
249.0,5864.382489250003,-14404.827583411645,-21740.759520621243,-24074.214586521935,21931.554011291744,6185.644112306132,22906.894732343524,48171.83144948858,0.0,0.0,0.0,193.0,0.0,192.0,0.0,0.0,0.0,178.0,192.0,0.0,178.0,1744418766.3891008,0.0,2025-04-11 20:46:06.389,LEFT,30
250.0,5895.78669020971,-14373.468085940849,-21698.15709568943,-24044.91144954103,21980.4372764155,6338.820617058351,22741.089491974057,48259.629101709026,0.0,0.0,0.0,193.0,0.0,193.0,0.0,0.0,0.0,179.0,193.0,0.0,179.0,1744418766.389164,0.0,2025-04-11 20:46:06.389,LEFT,30
251.0,5876.675948700422,-14408.001531124299,-21679.068705924597,-24073.186406276993,22163.94509839357,6265.149267333659,23125.427737883063,48285.93710493292,0.0,0.0,0.0,193.0,0.0,193.0,0.0,0.0,0.0,179.0,193.0,0.0,179.0,1744418766.389227,0.0,2025-04-11 20:46:06.389,LEFT,30
252.0,5864.181323549906,-14424.631228999047,-21723.213401223828,-24106.95989214896,22076.84035025124,6042.324726858703,23256.90069876918,48146.4622195318,0.0,0.0,0.0,193.0,0.0,192.0,0.0,0.0,0.0,178.0,192.0,0.0,178.0,1744418766.3892865,0.0,2025-04-11 20:46:06.389,LEFT,30
253.0,5884.789631937699,-14390.388356493517,-21732.243505983774,-24063.552804416755,21938.795976495265,6137.319640793758,22976.207491899433,48120.19891979682,0.0,0.0,0.0,193.0,0.0,193.0,0.0,0.0,0.0,179.0,193.0,0.0,179.0,1744418766.3893733,0.0,2025-04-11 20:46:06.389,LEFT,30
254.0,5909.734178749822,-14359.811170078656,-21692.72562178679,-24023.5208300973,21916.980673906884,6327.600041341787,22757.272154959697,48206.36489467203,0.0,0.0,0.0,193.0,0.0,192.0,0.0,0.0,0.0,178.0,192.0,0.0,178.0,1744418766.3894413,0.0,2025-04-11 20:46:06.389,LEFT,30
255.0,5889.4387947844025,-14394.32226351765,-21671.558519787613,-24051.259344966336,22030.773404928852,6298.587477038798,23084.971080418956,48257.997424363784,0.0,0.0,0.0,193.0,0.0,193.0,0.0,0.0,0.0,179.0,193.0,0.0,179.0,1744418766.3895016,0.0,2025-04-11 20:46:06.389,LEFT,30
0.0,5871.2444747977825,-14417.590429495625,-21705.756688804235,-24079.601356935666,22017.049433833294,6100.886297331607,23319.70910068859,48153.92770217988,0.0,0.0,0.0,193.0,0.0,193.0,0.0,0.0,0.0,179.0,193.0,0.0,179.0,1744418766.3895626,0.0,2025-04-11 20:46:06.389,LEFT,30
1.0,5868.405803251959,-14402.435946754927,-21728.600171637558,-24062.4799206829,21975.139912979594,6151.065963633771,23090.648423510604,48110.47591095876,0.0,0.0,0.0,193.0,0.0,193.0,0.0,0.0,0.0,178.0,193.0,0.0,178.0,1744418766.3896227,0.0,2025-04-11 20:46:06.389,LEFT,30
2.0,5885.817812182643,-14376.08324004212,-21700.81695327961,-24035.09903372515,21987.232206729914,6348.118942751759,22816.034891132702,48204.1297202265,0.0,0.0,0.0,193.0,0.0,193.0,0.0,0.0,0.0,178.0,193.0,0.0,178.0,1744418766.3896844,0.0,2025-04-11 20:46:06.389,LEFT,30
3.0,5886.644826727489,-14392.71293791687,-21662.394304560938,-24048.532432142787,22143.225031283502,6355.964405055572,23032.824460604723,48253.392965005994,0.0,0.0,0.0,193.0,0.0,192.0,0.0,0.0,0.0,178.0,192.0,0.0,178.0,1744418766.389744,0.0,2025-04-11 20:46:06.389,LEFT,30
4.0,5869.456335241358,-14427.04521740022,-21696.078383455086,-24090.643118696586,22123.935475818573,6126.8143208997635,23353.594345282836,48178.69343503636,0.0,0.0,0.0,193.0,0.0,193.0,0.0,0.0,0.0,179.0,193.0,0.0,179.0,1744418766.3898036,0.0,2025-04-11 20:46:06.389,LEFT,30
5.0,5882.867381914542,-14400.044310098208,-21716.30671218714,-24059.395379948066,21957.370276137626,6088.816355325742,23172.14288379465,48117.695524417824,0.0,0.0,0.0,193.0,0.0,192.0,0.0,0.0,0.0,178.0,192.0,0.0,178.0,1744418766.3898635,0.0,2025-04-11 20:46:06.389,LEFT,30
6.0,5904.235649613816,-14364.102705014075,-21694.781982276676,-24021.33035914068,21915.751327961843,6319.240488915502,22873.635336594027,48214.6797436094,0.0,0.0,0.0,193.0,0.0,193.0,0.0,0.0,0.0,179.0,193.0,0.0,179.0,1744418766.389927,0.0,2025-04-11 20:46:06.389,LEFT,30
7.0,5900.8828879455195,-14382.297025000695,-21653.967696901287,-24032.461527879423,22073.532292071857,6359.384221957233,22992.568968840715,48288.57461077865,0.0,0.0,0.0,193.0,0.0,192.0,0.0,0.0,0.0,178.0,192.0,0.0,178.0,1744418766.3899868,0.0,2025-04-11 20:46:06.389,LEFT,30
8.0,5883.537934248202,-14416.13756610603,-21671.893795954442,-24076.539167945288,22149.841147642273,6129.07184708975,23356.43301682866,48243.960528845855,0.0,0.0,0.0,193.0,0.0,193.0,0.0,0.0,0.0,179.0,193.0,0.0,179.0,1744418766.390071,0.0,2025-04-11 20:46:06.390,LEFT,30
9.0,5892.053948885674,-14396.691548429913,-21702.71685155831,-24058.2777927253,21996.172904512037,6046.48215132739,23236.426500848116,48145.23287358676,0.0,0.0,0.0,193.0,0.0,193.0,0.0,0.0,0.0,179.0,193.0,0.0,179.0,1744418766.3901296,0.0,2025-04-11 20:46:06.390,LEFT,30
10.0,5910.963524694864,-14364.885016070011,-21702.448630624847,-24026.337149898667,21884.391830491048,6298.498070060978,22931.124023333075,48220.3794384455,0.0,0.0,0.0,193.0,0.0,192.0,0.0,0.0,0.0,178.0,192.0,0.0,178.0,1744418766.3901885,0.0,2025-04-11 20:46:06.390,LEFT,30
11.0,5917.579641053634,-14370.69646962839,-21670.731505242766,-24032.55093485724,21943.847470742163,6382.183001301647,22942.679875216472,48274.67182572745,0.0,0.0,0.0,193.0,0.0,193.0,0.0,0.0,0.0,179.0,193.0,0.0,179.0,1744418766.390249,0.0,2025-04-11 20:46:06.390,LEFT,30
12.0,5881.615684225045,-14414.639999227526,-21693.016194464708,-24095.694612943487,22050.845271449718,6187.879286751662,23335.087100873843,48236.24917700877,0.0,0.0,0.0,193.0,0.0,192.0,0.0,0.0,0.0,178.0,192.0,0.0,178.0,1744418766.3903303,0.0,2025-04-11 20:46:06.390,LEFT,30
13.0,5879.6934342018885,-14403.397071766505,-21715.47969764229,-24087.022136094827,22021.2962652798,6043.978755948396,23285.265062482962,48113.918079604875,0.0,0.0,0.0,193.0,0.0,193.0,0.0,0.0,0.0,179.0,193.0,0.0,179.0,1744418766.390366,0.0,2025-04-11 20:46:06.390,LEFT,30
14.0,5902.626324013034,-14361.46519916835,-21709.422374894904,-24038.51885062681,21949.368351622627,6304.488337575,22980.677840790493,48172.21142914432,0.0,0.0,0.0,193.0,0.0,193.0,0.0,0.0,0.0,179.0,193.0,0.0,179.0,1744418766.390401,0.0,2025-04-11 20:46:06.390,LEFT,30
15.0,5920.038332943718,-14346.89186178349,-21668.80925521961,-24016.658844549518,22027.599457216198,6426.551214045431,22886.599348378106,48238.77492413222,0.0,0.0,0.0,193.0,0.0,192.0,0.0,0.0,0.0,178.0,192.0,0.0,178.0,1744418766.390437,0.0,2025-04-11 20:46:06.390,LEFT,30
16.0,5890.645788984989,-14403.397071766505,-21671.558519787613,-24067.352600974154,22158.20070006856,6279.566142507332,23301.201856279597,48243.75936314576,0.0,0.0,0.0,193.0,0.0,193.0,0.0,0.0,0.0,179.0,193.0,0.0,179.0,1744418766.3904717,0.0,2025-04-11 20:46:06.390,LEFT,30
17.0,5884.655521470967,-14416.606952739592,-21706.315482415615,-24077.276775512313,22029.946390384008,6039.866034968619,23350.934487692655,48119.48366397425,0.0,0.0,0.0,193.0,0.0,192.0,0.0,0.0,0.0,178.0,192.0,0.0,178.0,1744418766.3905063,0.0,2025-04-11 20:46:06.390,LEFT,30
18.0,5892.5456872636905,-14389.360176248572,-21717.87133429901,-24045.872574552606,21901.379156277082,6175.518772067878,23080.970118161455,48158.8674377045,0.0,0.0,0.0,193.0,0.0,193.0,0.0,0.0,0.0,179.0,193.0,0.0,179.0,1744418766.3905408,0.0,2025-04-11 20:46:06.390,LEFT,30
19.0,5898.871230944542,-14379.078373799131,-21690.937482230365,-24036.820118048206,21959.381933138604,6348.8118468298735,22914.851953369613,48241.65829916696,0.0,0.0,0.0,193.0,0.0,192.0,0.0,0.0,0.0,178.0,192.0,0.0,178.0,1744418766.3905768,0.0,2025-04-11 20:46:06.390,LEFT,30
20.0,5877.905294645464,-14420.652618486003,-21675.42537157838,-24075.980374333903,22126.103595030738,6286.71870073303,23261.192233704598,48243.40173523447,0.0,0.0,0.0,193.0,0.0,193.0,0.0,0.0,0.0,178.0,193.0,0.0,178.0,1744418766.3906112,0.0,2025-04-11 20:46:06.390,LEFT,30
21.0,5884.2755418152265,-14419.42327254096,-21699.609959079025,-24090.643118696586,22056.455559308,6057.993299721873,23397.157895226228,48093.645047383914,0.0,0.0,0.0,193.0,0.0,192.0,0.0,0.0,0.0,178.0,192.0,0.0,178.0,1744418766.390646,0.0,2025-04-11 20:46:06.390,LEFT,30
22.0,5890.645788984989,-14388.89078961501,-21726.096776258564,-24057.89781306956,21912.286807571272,6146.014469386872,23156.58606965376,48076.300093686594,0.0,0.0,0.0,193.0,0.0,193.0,0.0,0.0,0.0,178.0,193.0,0.0,178.0,1744418766.3906803,0.0,2025-04-11 20:46:06.390,LEFT,30
23.0,5904.570925780646,-14363.275690469229,-21696.637177066466,-24026.60537083213,21891.05265033873,6347.8730735627505,22930.364064021596,48153.10068763503,0.0,0.0,0.0,193.0,0.0,193.0,0.0,0.0,0.0,179.0,193.0,0.0,179.0,1744418766.3908591,0.0,2025-04-11 20:46:06.390,LEFT,30
24.0,5877.547666734179,-14411.533106748237,-21674.173673888883,-24057.942516558473,22082.718859042987,6324.113169206759,23219.059195406342,48173.127850666984,0.0,0.0,0.0,193.0,0.0,192.0,0.0,0.0,0.0,178.0,192.0,0.0,178.0,1744418766.390895,0.0,2025-04-11 20:46:06.390,LEFT,30
25.0,5871.959730620352,-14429.883888946044,-21702.6721480694,-24091.358374519157,22060.344762843226,6071.806677795253,23456.814701177445,48055.31180564306,0.0,0.0,0.0,193.0,0.0,193.0,0.0,0.0,0.0,179.0,193.0,0.0,179.0,1744418766.3909297,0.0,2025-04-11 20:46:06.390,LEFT,30
26.0,5883.895562159487,-14399.820792653656,-21716.48552614278,-24051.86284206663,21930.279961857792,6130.949393623995,23246.97652423102,48017.42559879131,0.0,0.0,0.0,193.0,0.0,192.0,0.0,0.0,0.0,178.0,192.0,0.0,178.0,1744418766.390964,0.0,2025-04-11 20:46:06.390,LEFT,30
27.0,5893.015073897252,-14377.446696453893,-21704.236770181273,-24025.353673142636,21890.493856727346,6363.943977826117,22975.559291310226,48123.48462623175,0.0,0.0,0.0,193.0,0.0,193.0,0.0,0.0,0.0,179.0,193.0,0.0,179.0,1744418766.3910184,0.0,2025-04-11 20:46:06.391,LEFT,30
28.0,5875.647768455478,-14407.398034024005,-21678.599319291035,-24062.211699749434,22072.727629271463,6328.717628564552,23156.228441742474,48157.07929814808,0.0,0.0,0.0,193.0,0.0,193.0,0.0,0.0,0.0,179.0,193.0,0.0,179.0,1744418766.391054,0.0,2025-04-11 20:46:06.391,LEFT,30
29.0,5871.758564920255,-14421.166708608474,-21696.10073519954,-24106.44580202649,22132.04915905585,6092.169116994038,23470.85159669538,48066.82295403755,0.0,0.0,0.0,193.0,0.0,193.0,0.0,0.0,0.0,179.0,193.0,0.0,179.0,1744418766.3910885,0.0,2025-04-11 20:46:06.391,LEFT,30
30.0,5890.6681407294445,-14392.645882683502,-21707.7236423163,-24071.91235684304,22008.511067451367,6062.530703846301,23297.73733588902,47993.35277001295,0.0,0.0,0.0,193.0,0.0,193.0,0.0,0.0,0.0,179.0,193.0,0.0,179.0,1744418766.3911228,0.0,2025-04-11 20:46:06.391,LEFT,30
31.0,5906.761396737265,-14372.417553951449,-21692.032717708677,-24021.352710885134,21928.983560679386,6327.354172152779,22998.73805031038,48088.124166503454,0.0,0.0,0.0,193.0,0.0,192.0,0.0,0.0,0.0,178.0,192.0,0.0,178.0,1744418766.3911572,0.0,2025-04-11 20:46:06.391,LEFT,30
32.0,5903.274524602238,-14386.56620819166,-21651.5090050112,-24025.398376631543,22056.790835474832,6352.857512576284,23082.80296120679,48144.42821078637,0.0,0.0,0.0,193.0,0.0,193.0,0.0,0.0,0.0,179.0,193.0,0.0,179.0,1744418766.391192,0.0,2025-04-11 20:46:06.391,LEFT,30
33.0,5868.204637551861,-14436.410598326995,-21686.087153683562,-24090.844284396684,22134.32903699029,6140.471236761956,23488.285957370517,48107.57018417957,0.0,0.0,0.0,193.0,0.0,192.0,0.0,0.0,0.0,178.0,192.0,0.0,178.0,1744418766.3912263,0.0,2025-04-11 20:46:06.391,LEFT,30
34.0,5874.8207539106315,-14426.151147622008,-21717.223133709806,-24070.168920775526,21971.11659897764,6046.4597995829345,23397.984909771076,47998.65013344886,0.0,0.0,0.0,193.0,0.0,193.0,0.0,0.0,0.0,179.0,193.0,0.0,179.0,1744418766.3912609,0.0,2025-04-11 20:46:06.391,LEFT,30
35.0,5885.59429473809,-14400.46899324286,-21725.35916869154,-24026.337149898667,21792.481457290825,6318.458177859567,23118.14106919063,48073.55082911859,0.0,0.0,0.0,193.0,0.0,193.0,0.0,0.0,0.0,178.0,193.0,0.0,178.0,1744418766.3912957,0.0,2025-04-11 20:46:06.391,LEFT,30
36.0,5892.7245012193325,-14402.145374077008,-21676.744124501245,-24026.024225476292,21922.61331350962,6396.26460030849,23100.952577704502,48124.266937287684,0.0,0.0,0.0,193.0,0.0,192.0,0.0,0.0,0.0,178.0,192.0,0.0,178.0,1744418766.39133,0.0,2025-04-11 20:46:06.391,LEFT,30
37.0,5859.800381636665,-14454.403752613516,-21684.500179827235,-24084.652851182564,22160.592336725276,6221.13868250116,23499.908864487275,48080.502221644194,0.0,0.0,0.0,193.0,0.0,193.0,0.0,0.0,0.0,179.0,193.0,0.0,179.0,1744418766.3913646,0.0,2025-04-11 20:46:06.391,LEFT,30
38.0,5871.043309097685,-14433.95190643691,-21714.25035169725,-24078.036734823792,22060.23300412095,6049.901968229052,23458.06639886694,47936.847560029935,0.0,0.0,0.0,193.0,0.0,192.0,0.0,0.0,0.0,178.0,192.0,0.0,178.0,1744418766.3916824,0.0,2025-04-11 20:46:06.391,LEFT,30
39.0,5899.9441146783965,-14385.85095236909,-21709.15415396144,-24020.99508297385,21932.179860136494,6265.708060945041,23156.049627786833,48002.58404047299,0.0,0.0,0.0,193.0,0.0,193.0,0.0,0.0,0.0,179.0,193.0,0.0,179.0,1744418766.391718,0.0,2025-04-11 20:46:06.391,LEFT,30
40.0,5913.288106118215,-14376.88790284251,-21667.15522612992,-24008.99219620135,21995.88233183412,6405.585277746353,23044.17914678802,48098.74124511972,0.0,0.0,0.0,193.0,0.0,192.0,0.0,0.0,0.0,178.0,192.0,0.0,178.0,1744418766.3917532,0.0,2025-04-11 20:46:06.391,LEFT,30
41.0,5892.366873308048,-14420.697321974912,-21656.694609724833,-24057.361371202634,22156.121987834216,6244.608014179232,23427.44450896317,48097.71306487478,0.0,0.0,0.0,193.0,0.0,193.0,0.0,0.0,0.0,179.0,193.0,0.0,179.0,1744418766.3917875,0.0,2025-04-11 20:46:06.391,LEFT,30
42.0,5875.848934155576,-14437.52818554976,-21703.09683121405,-24081.456551725456,22054.086274395737,6023.549261516245,23508.447230869202,47970.889266835366,0.0,0.0,0.0,193.0,0.0,192.0,0.0,0.0,0.0,178.0,192.0,0.0,178.0,1744418766.3918388,0.0,2025-04-11 20:46:06.391,LEFT,30
43.0,5880.855724913565,-14410.862554414578,-21719.547715133158,-24044.799690818752,21921.04869139775,6202.296161925336,23246.328323641817,48008.55195624256,0.0,0.0,0.0,193.0,0.0,193.0,0.0,0.0,0.0,179.0,193.0,0.0,179.0,1744418766.3918736,0.0,2025-04-11 20:46:06.391,LEFT,30
44.0,5894.467937286847,-14397.384452508028,-21691.228054908283,-24029.33228365568,21952.944630735474,6376.282140765446,23070.822426178747,48111.057056314596,0.0,0.0,0.0,193.0,0.0,193.0,0.0,0.0,0.0,179.0,193.0,0.0,179.0,1744418766.3919082,0.0,2025-04-11 20:46:06.391,LEFT,30
45.0,5882.733271447811,-14431.359104080095,-21670.28447035366,-24068.33607773019,22108.982158777973,6262.265892298925,23407.39499418676,48135.733382193255,0.0,0.0,0.0,193.0,0.0,193.0,0.0,0.0,0.0,178.0,193.0,0.0,178.0,1744418766.3919485,0.0,2025-04-11 20:46:06.391,LEFT,30
46.0,5890.444623284891,-14425.078263888154,-21692.63621480897,-24071.331211487202,22024.313750781268,6017.469587024401,23578.274080547584,48001.287639294584,0.0,0.0,0.0,193.0,0.0,193.0,0.0,0.0,0.0,179.0,193.0,0.0,179.0,1744418766.3919828,0.0,2025-04-11 20:46:06.391,LEFT,30
47.0,5888.097690117084,-14404.76052817828,-21725.96266579183,-24039.099995982648,21844.851594549607,6155.245739846914,23360.836310486357,48002.11465383943,0.0,0.0,0.0,193.0,0.0,192.0,0.0,0.0,0.0,178.0,192.0,0.0,178.0,1744418766.3920174,0.0,2025-04-11 20:46:06.392,LEFT,30
48.0,5900.838184456609,-14387.192057036407,-21705.354357404038,-24025.107803953626,21830.635885076033,6373.398765730712,23126.43356638355,48109.62654466946,0.0,0.0,0.0,193.0,0.0,193.0,0.0,0.0,0.0,179.0,193.0,0.0,179.0,1744418766.3920517,0.0,2025-04-11 20:46:06.392,LEFT,30
49.0,5882.487402258802,-14426.352313322106,-21676.05122042313,-24063.37399046111,22076.080390939762,6311.931468478617,23369.10645593482,48143.847065430535,0.0,0.0,0.0,193.0,0.0,192.0,0.0,0.0,0.0,178.0,192.0,0.0,178.0,1744418766.3920865,0.0,2025-04-11 20:46:06.392,LEFT,30
50.0,5873.345538776582,-14448.14526416603,-21693.396174120448,-24090.91133963005,22127.779975864887,6072.164305706538,23624.20691540324,48029.16026463035,0.0,0.0,0.0,193.0,0.0,193.0,0.0,0.0,0.0,178.0,193.0,0.0,178.0,1744418766.3921208,0.0,2025-04-11 20:46:06.392,LEFT,30
51.0,5869.59044570809,-14440.053932673209,-21727.97432279281,-24062.099941027158,21950.39653186757,6098.762881608353,23429.076186308408,47985.082624564486,0.0,0.0,0.0,193.0,0.0,192.0,0.0,0.0,0.0,178.0,192.0,0.0,178.0,1744418766.3921552,0.0,2025-04-11 20:46:06.392,LEFT,30
52.0,5894.959675664863,-14403.41942351096,-21706.762517304724,-24023.207905674924,21875.071153053184,6335.087875734315,23132.133261219653,48075.115451230464,0.0,0.0,0.0,193.0,0.0,193.0,0.0,0.0,0.0,179.0,193.0,0.0,179.0,1744418766.39219,0.0,2025-04-11 20:46:06.392,LEFT,30
53.0,5891.361044807559,-14420.607914997092,-21668.473979052782,-24036.23897269237,22066.871472224175,6355.182093999636,23296.351527732793,48127.39618151142,0.0,0.0,0.0,193.0,0.0,192.0,0.0,0.0,0.0,178.0,192.0,0.0,178.0,1744418766.3922243,0.0,2025-04-11 20:46:06.392,LEFT,30
54.0,5873.859628899054,-14457.041258459241,-21696.01132822172,-24087.893854128582,22111.32909194578,6114.185585282516,23632.76763352962,48043.4877328262,0.0,0.0,0.0,193.0,0.0,193.0,0.0,0.0,0.0,179.0,193.0,0.0,179.0,1744418766.392275,0.0,2025-04-11 20:46:06.392,LEFT,30
55.0,5884.946094148886,-14434.71186574839,-21718.474831399304,-24063.709266627942,21938.7289212619,6049.521988573312,23476.104256642375,47946.30234793453,0.0,0.0,0.0,193.0,0.0,192.0,0.0,0.0,0.0,178.0,192.0,0.0,178.0,1744418766.39231,0.0,2025-04-11 20:46:06.392,LEFT,30
56.0,5899.497079789291,-14400.536048476226,-21711.29992142915,-24023.677292308486,21844.851594549607,6314.546622579887,23184.145770567153,48033.83177922151,0.0,0.0,0.0,193.0,0.0,193.0,0.0,0.0,0.0,179.0,193.0,0.0,179.0,1744418766.392344,0.0,2025-04-11 20:46:06.392,LEFT,30
57.0,5907.431949070925,-14399.70903393138,-21664.830644706566,-24026.42655687649,21980.77255258233,6385.155783314202,23239.287524138395,48077.66355009837,0.0,0.0,0.0,193.0,0.0,192.0,0.0,0.0,0.0,178.0,192.0,0.0,178.0,1744418766.392393,0.0,2025-04-11 20:46:06.392,LEFT,30
58.0,5885.460184271358,-14438.802234983712,-21682.019136192695,-24087.223301794926,22070.313640870292,6167.583902786244,23623.6257700474,48011.83766267749,0.0,0.0,0.0,193.0,0.0,192.0,0.0,0.0,0.0,178.0,192.0,0.0,178.0,1744418766.3924277,0.0,2025-04-11 20:46:06.392,LEFT,30
59.0,5901.8216612126425,-14406.861592157078,-21700.369918390505,-24068.15726377455,21943.53454631979,5975.895342337531,23529.03318751254,47865.52314347305,0.0,0.0,0.0,193.0,0.0,193.0,0.0,0.0,0.0,179.0,193.0,0.0,179.0,1744418766.3924625,0.0,2025-04-11 20:46:06.392,LEFT,30
60.0,5902.447510057391,-14384.17457153494,-21713.87037204151,-24023.654940564033,21807.054794675685,6238.28247049838,23241.053311950363,47939.216844942195,0.0,0.0,0.0,193.0,0.0,192.0,0.0,0.0,0.0,178.0,192.0,0.0,178.0,1744418766.3924966,0.0,2025-04-11 20:46:06.392,LEFT,30
61.0,5902.045178657196,-14389.807211137679,-21674.106618655518,-24007.159353156014,21911.48214477088,6417.096426140836,23204.843485932768,48037.36335484545,0.0,0.0,0.0,193.0,0.0,193.0,0.0,0.0,0.0,179.0,193.0,0.0,179.0,1744418766.392531,0.0,2025-04-11 20:46:06.392,LEFT,30
62.0,5866.975291606819,-14443.831377486156,-21680.432162336372,-24066.4808829404,22100.533199373866,6268.233808068491,23608.650101262345,48034.41292457735,0.0,0.0,0.0,193.0,0.0,193.0,0.0,0.0,0.0,178.0,193.0,0.0,178.0,1744418766.3925655,0.0,2025-04-11 20:46:06.392,LEFT,30
63.0,5878.30762604566,-14429.772130223768,-21701.263988168717,-24064.759798617342,22011.752070397386,6060.697860800965,23600.58112151398,47898.871946200365,0.0,0.0,0.0,193.0,0.0,193.0,0.0,0.0,0.0,179.0,193.0,0.0,179.0,1744418766.3926,0.0,2025-04-11 20:46:06.392,LEFT,30
64.0,5906.135547892517,-14381.402955222484,-21689.976357218788,-24011.36148111361,21907.503534257834,6259.896607386662,23320.670225700167,47941.183798454265,0.0,0.0,0.0,193.0,0.0,193.0,0.0,0.0,0.0,179.0,193.0,0.0,179.0,1744418766.3926346,0.0,2025-04-11 20:46:06.392,LEFT,30
65.0,5916.283239875226,-14377.692565642903,-21659.108598126008,-24003.337204854157,21954.39749412507,6414.593030761842,23220.22148611802,48032.37891583192,0.0,0.0,0.0,193.0,0.0,193.0,0.0,0.0,0.0,179.0,193.0,0.0,179.0,1744418766.3926687,0.0,2025-04-11 20:46:06.392,LEFT,30
66.0,5901.016998412251,-14416.741063206324,-21649.989086388243,-24048.66654260952,22095.32524291578,6262.198837065558,23616.182639143783,48041.923110714335,0.0,0.0,0.0,193.0,0.0,193.0,0.0,0.0,0.0,178.0,193.0,0.0,178.0,1744418766.3927033,0.0,2025-04-11 20:46:06.392,LEFT,30
67.0,5898.155975121972,-14418.909182418489,-21695.38547937697,-24064.357467217145,21945.00976145384,5991.429804733969,23731.517640533166,47919.077923187964,0.0,0.0,0.0,193.0,0.0,193.0,0.0,0.0,0.0,178.0,193.0,0.0,178.0,1744418766.3927379,0.0,2025-04-11 20:46:06.392,LEFT,30
68.0,5894.937323920408,-14405.56519097867,-21720.10650874454,-24034.026149991292,21854.351085943115,6168.321510353268,23489.805875993476,47939.03803098656,0.0,0.0,0.0,193.0,0.0,193.0,0.0,0.0,0.0,179.0,193.0,0.0,179.0,1744418766.3927717,0.0,2025-04-11 20:46:06.392,LEFT,30
69.0,5906.984914181819,-14385.895655858,-21683.82962749358,-24009.595693301642,21933.16333689253,6395.370530530278,23298.966681834067,48041.54313105859,0.0,0.0,0.0,193.0,0.0,193.0,0.0,0.0,0.0,178.0,193.0,0.0,178.0,1744418766.3928213,0.0,2025-04-11 20:46:06.392,LEFT,30
70.0,5883.515582503746,-14420.47380453036,-21670.48563605376,-24043.190365217968,22084.08231545476,6339.692335092108,23627.269104393614,48070.06395698356,0.0,0.0,0.0,193.0,0.0,193.0,0.0,0.0,0.0,178.0,193.0,0.0,178.0,1744418766.392856,0.0,2025-04-11 20:46:06.392,LEFT,30
71.0,5875.111326588551,-14435.561232037691,-21703.29799691415,-24073.633441166097,22033.25444856339,6070.912608017041,23819.04707182015,47942.68136533277,0.0,0.0,0.0,193.0,0.0,192.0,0.0,0.0,0.0,178.0,192.0,0.0,178.0,1744418766.3928905,0.0,2025-04-11 20:46:06.392,LEFT,30
72.0,5896.591353010101,-14399.977254864843,-21714.652683097447,-24024.23608591987,21895.254778296327,6133.251623302892,23579.414019514803,47914.92049871928,0.0,0.0,0.0,193.0,0.0,193.0,0.0,0.0,0.0,179.0,193.0,0.0,179.0,1744418766.3929248,0.0,2025-04-11 20:46:06.392,LEFT,30
73.0,5907.588411282112,-14377.759620876268,-21697.91122650042,-24005.818248488697,21862.889452325042,6353.639823632219,23342.440824799636,48031.30603209806,0.0,0.0,0.0,193.0,0.0,192.0,0.0,0.0,0.0,178.0,192.0,0.0,178.0,1744418766.392974,0.0,2025-04-11 20:46:06.392,LEFT,30
74.0,5893.395053552992,-14405.006397367288,-21665.031810406665,-24036.03780699227,22055.717951740975,6314.8818987467175,23586.857150418422,48090.80637583809,0.0,0.0,0.0,193.0,0.0,193.0,0.0,0.0,0.0,179.0,193.0,0.0,179.0,1744418766.8656292,0.0,2025-04-11 20:46:06.865,LEFT,30
75.0,5870.708032930856,-14444.010191441797,-21700.01229047922,-24088.631461695608,22038.574163743757,6062.217779423926,23883.688316784897,48021.02422964862,0.0,0.0,0.0,193.0,0.0,193.0,0.0,0.0,0.0,178.0,193.0,0.0,178.0,1744418766.8658285,0.0,2025-04-11 20:46:06.865,LEFT,30
76.0,5890.042291884696,-14418.126871362552,-21720.06180525563,-24051.415807177524,21845.253925949804,6062.888331757586,23691.686831913812,47969.32464472349,0.0,0.0,0.0,193.0,0.0,192.0,0.0,0.0,0.0,178.0,192.0,0.0,178.0,1744418766.8658953,0.0,2025-04-11 20:46:06.865,LEFT,30
77.0,5899.050044900185,-14399.127888575542,-21705.980206248787,-24024.19138243096,21812.978006956342,6318.5252330929325,23403.908122051733,48076.590666364515,0.0,0.0,0.0,193.0,0.0,192.0,0.0,0.0,0.0,178.0,192.0,0.0,178.0,1744418766.8659642,0.0,2025-04-11 20:46:06.865,LEFT,30
78.0,5883.6273412260225,-14420.026769641254,-21671.558519787613,-24049.337094943177,22006.72292789494,6321.498015105488,23536.252800971604,48148.250359088226,0.0,0.0,0.0,193.0,0.0,192.0,0.0,0.0,0.0,178.0,192.0,0.0,178.0,1744418766.8660328,0.0,2025-04-11 20:46:06.866,LEFT,30
79.0,5868.0705270851295,-14447.899394977021,-21687.04827869514,-24094.398211765078,22051.73934122793,6077.238151697892,23895.11005820156,48086.09015775802,0.0,0.0,0.0,193.0,0.0,193.0,0.0,0.0,0.0,179.0,193.0,0.0,179.0,1744418766.8660953,0.0,2025-04-11 20:46:06.866,LEFT,30
80.0,5885.2143150823495,-14422.776034209257,-21697.933578244876,-24057.562536902733,21938.751273006354,6015.055598623228,23761.200757169816,47992.88338337939,0.0,0.0,0.0,193.0,0.0,192.0,0.0,0.0,0.0,178.0,192.0,0.0,178.0,1744418766.86616,0.0,2025-04-11 20:46:06.866,LEFT,30
81.0,5889.103518617573,-14399.418461253461,-21698.849999767543,-24021.397414374045,21855.17810048796,6298.140442149693,23475.210186864162,48095.83551834054,0.0,0.0,0.0,193.0,0.0,193.0,0.0,0.0,0.0,179.0,193.0,0.0,179.0,1744418766.8662236,0.0,2025-04-11 20:46:06.866,LEFT,30
82.0,5889.5505535066795,-14404.157031077986,-21660.00266790422,-24025.308969653724,21964.902814019064,6378.249094277513,23512.157620448783,48171.943208210854,0.0,0.0,0.0,193.0,0.0,193.0,0.0,0.0,0.0,179.0,193.0,0.0,179.0,1744418766.866281,0.0,2025-04-11 20:46:06.866,LEFT,30
83.0,5862.482590971303,-14448.681706032958,-21671.938499443353,-24081.367144747634,22082.920024743085,6181.732557026453,23912.745584576798,48147.3115858211,0.0,0.0,0.0,193.0,0.0,193.0,0.0,0.0,0.0,179.0,193.0,0.0,179.0,1744418766.8663366,0.0,2025-04-11 20:46:06.866,LEFT,30
84.0,5868.204637551861,-14433.840147714633,-21704.52734285919,-24075.600394678164,21939.377121851103,5996.704816425421,23838.738958685277,48012.99995338917,0.0,0.0,0.0,193.0,0.0,193.0,0.0,0.0,0.0,179.0,193.0,0.0,179.0,1744418766.8664472,0.0,2025-04-11 20:46:06.866,LEFT,30
85.0,5873.770221921232,-14408.962656135876,-21711.992825507263,-24038.652961093543,21825.450280362402,6250.575929948799,23552.36840872388,48088.90647755939,0.0,0.0,0.0,193.0,0.0,192.0,0.0,0.0,0.0,178.0,192.0,0.0,178.0,1744418766.8665037,0.0,2025-04-11 20:46:06.866,LEFT,30
86.0,5890.779899451721,-14399.127888575542,-21668.921013941886,-24029.71226331142,21920.44519429746,6393.604742718308,23498.232483653126,48169.93155120988,0.0,0.0,0.0,193.0,0.0,193.0,0.0,0.0,0.0,179.0,193.0,0.0,179.0,1744418766.866562,0.0,2025-04-11 20:46:06.866,LEFT,30
87.0,5873.993739365786,-14432.543746536227,-21666.887005196455,-24077.030906323303,22046.956067914496,6241.411714722123,23921.663930614464,48164.54478079615,0.0,0.0,0.0,193.0,0.0,192.0,0.0,0.0,0.0,178.0,192.0,0.0,178.0,1744418766.8666172,0.0,2025-04-11 20:46:06.866,LEFT,30
88.0,5869.903370130464,-14433.884851203544,-21702.91801725841,-24087.29035702829,21940.09237767367,6015.927316656986,23974.279937062256,48042.30309037007,0.0,0.0,0.0,193.0,0.0,193.0,0.0,0.0,0.0,179.0,193.0,0.0,179.0,1744418766.866711,0.0,2025-04-11 20:46:06.866,LEFT,30
89.0,5884.476707515324,-14397.630321697035,-21706.650758582444,-24043.65975185153,21882.782504890267,6189.935647241551,23729.12600387645,48100.350570720504,0.0,0.0,0.0,193.0,0.0,193.0,0.0,0.0,0.0,178.0,193.0,0.0,178.0,1744418766.866763,0.0,2025-04-11 20:46:06.866,LEFT,30
90.0,5897.328960577126,-14385.85095236909,-21678.8675402245,-24032.95326625744,21919.640531497065,6345.235567717024,23628.811374761033,48208.085978995085,0.0,0.0,0.0,193.0,0.0,193.0,0.0,0.0,0.0,178.0,193.0,0.0,178.0,1744418766.8668163,0.0,2025-04-11 20:46:06.866,LEFT,30
91.0,5859.129829303006,-14448.391133355039,-21681.594453048045,-24090.061973340747,22061.864681466184,6221.339848201257,24034.98727500287,48229.36483971654,0.0,0.0,0.0,193.0,0.0,192.0,0.0,0.0,0.0,178.0,192.0,0.0,178.0,1744418766.8668706,0.0,2025-04-11 20:46:06.866,LEFT,30
92.0,5841.024916294207,-14472.933348766965,-21731.528250161202,-24120.77327022234,21960.030133727807,5975.090679537139,24178.954861039503,48098.696541630816,0.0,0.0,0.0,193.0,0.0,192.0,0.0,0.0,0.0,179.0,192.0,0.0,179.0,1744418766.8669212,0.0,2025-04-11 20:46:06.866,LEFT,30
93.0,5846.568148919124,-14450.000458955821,-21764.54177672169,-24091.29131928579,21804.17141964095,6126.881376133129,23929.576448151645,48116.644992428424,0.0,0.0,0.0,193.0,0.0,193.0,0.0,0.0,0.0,179.0,193.0,0.0,179.0,1744418766.8669736,0.0,2025-04-11 20:46:06.866,LEFT,30
94.0,5865.276559028216,-14419.669141729968,-21740.334837476592,-24070.258327753345,21851.646524864023,6328.181186697625,23690.748058646688,48212.51162439724,0.0,0.0,0.0,193.0,0.0,192.0,0.0,0.0,0.0,178.0,192.0,0.0,178.0,1744418766.8670273,0.0,2025-04-11 20:46:06.867,LEFT,30
95.0,5856.514675201735,-14437.394075083028,-21701.66631956891,-24094.2864530428,22055.561489529788,6267.76442143493,23965.272184046768,48242.284148011706,0.0,0.0,0.0,193.0,0.0,193.0,0.0,0.0,0.0,179.0,193.0,0.0,179.0,1744418766.8670805,0.0,2025-04-11 20:46:06.867,LEFT,30
96.0,5838.208596492839,-14459.38819162705,-21738.34553222007,-24130.853906971683,22004.040718560307,6022.006991148829,24178.843102317227,48136.918024649385,0.0,0.0,0.0,193.0,0.0,193.0,0.0,0.0,0.0,179.0,193.0,0.0,179.0,1744418766.8671372,0.0,2025-04-11 20:46:06.867,LEFT,30
97.0,5852.178436777406,-14435.13654889304,-21753.74588414978,-24085.032830838303,21853.725237098366,6073.214837695938,23938.83007035614,48100.97641956525,0.0,0.0,0.0,193.0,0.0,193.0,0.0,0.0,0.0,179.0,193.0,0.0,179.0,1744418766.867198,0.0,2025-04-11 20:46:06.867,LEFT,30
98.0,5868.763431163244,-14409.454394513894,-21733.897535073465,-24059.864766581628,21802.6962045069,6288.86446820074,23668.061038024553,48193.08795846558,0.0,0.0,0.0,193.0,0.0,193.0,0.0,0.0,0.0,179.0,193.0,0.0,179.0,1744418766.8672616,0.0,2025-04-11 20:46:06.867,LEFT,30
99.0,5866.461201484347,-14424.452415043404,-21693.776153776187,-24073.47697895491,21942.81929049722,6274.29113081588,23851.390046046978,48215.23853722079,0.0,0.0,0.0,193.0,0.0,193.0,0.0,0.0,0.0,178.0,193.0,0.0,178.0,1744418766.8674543,0.0,2025-04-11 20:46:06.867,LEFT,30
100.0,5833.335916201582,-14472.463962133404,-21725.985017536284,-24127.277627858835,22015.663625677065,6061.100192201161,24162.436921887034,48140.87428341798,0.0,0.0,0.0,193.0,0.0,192.0,0.0,0.0,0.0,178.0,192.0,0.0,178.0,1744418766.867521,0.0,2025-04-11 20:46:06.867,LEFT,30
101.0,5832.777122590199,-14455.946022980932,-21754.50584346126,-24110.20089509498,21918.58999950767,6042.168264647516,23978.258547575304,48069.30399767208,0.0,0.0,0.0,193.0,0.0,192.0,0.0,0.0,0.0,178.0,192.0,0.0,178.0,1744418766.8675876,0.0,2025-04-11 20:46:06.867,LEFT,30
102.0,5859.085125814096,-14413.768281193768,-21739.619581654024,-24065.363295717634,21834.07805372215,6267.026813867905,23662.696619355276,48157.03459465916,0.0,0.0,0.0,193.0,0.0,192.0,0.0,0.0,0.0,178.0,192.0,0.0,178.0,1744418766.867658,0.0,2025-04-11 20:46:06.867,LEFT,30
103.0,5872.272655042727,-14416.204621339397,-21692.882083997978,-24069.85599635315,21955.403322625556,6288.842116456284,23746.962695951785,48207.7283510838,0.0,0.0,0.0,193.0,0.0,193.0,0.0,0.0,0.0,179.0,193.0,0.0,179.0,1744418766.8678052,0.0,2025-04-11 20:46:06.867,LEFT,30
104.0,5869.836314897098,-14433.504871547804,-21707.9248080164,-24101.595473479687,21981.64427061609,6088.68224485901,24103.47302001393,48136.158065337906,0.0,0.0,0.0,193.0,0.0,192.0,0.0,0.0,0.0,178.0,192.0,0.0,178.0,1744418766.8678749,0.0,2025-04-11 20:46:06.867,LEFT,30
105.0,5860.046250825674,-14427.581659267147,-21747.621506169024,-24088.51970297333,21848.51728064028,6001.8457176501415,23995.37998382807,48023.43821804979,0.0,0.0,0.0,193.0,0.0,193.0,0.0,0.0,0.0,179.0,193.0,0.0,179.0,1744418766.8679345,0.0,2025-04-11 20:46:06.867,LEFT,30
106.0,5863.086088071595,-14415.399958539005,-21748.180299780404,-24065.564461417733,21788.100515377584,6243.311613000824,23706.036651854116,48119.930698863354,0.0,0.0,0.0,193.0,0.0,193.0,0.0,0.0,0.0,178.0,193.0,0.0,178.0,1744418766.8679929,0.0,2025-04-11 20:46:06.867,LEFT,30
107.0,5885.527239504724,-14410.504926503292,-21691.00453746373,-24050.789958332774,21926.5248687893,6317.5864598258095,23693.944358103796,48182.18030717139,0.0,0.0,0.0,193.0,0.0,192.0,0.0,0.0,0.0,178.0,192.0,0.0,178.0,1744418766.8680544,0.0,2025-04-11 20:46:06.868,LEFT,30
108.0,5852.983099577797,-14456.683630547957,-21703.34270040306,-24100.120258345636,22049.973553415963,6161.548931783311,24098.130953089116,48149.18913235535,0.0,0.0,0.0,193.0,0.0,193.0,0.0,0.0,0.0,179.0,193.0,0.0,179.0,1744418766.8681211,0.0,2025-04-11 20:46:06.868,LEFT,30
109.0,5852.603119922057,-14447.072380432175,-21735.842136841078,-24097.415697266544,21911.839772682164,5998.761176915309,24053.293353711768,48014.07283712302,0.0,0.0,0.0,193.0,0.0,192.0,0.0,0.0,0.0,178.0,192.0,0.0,178.0,1744418766.86818,0.0,2025-04-11 20:46:06.868,LEFT,30
110.0,5861.230893281805,-14417.143394606519,-21743.128805533506,-24061.921127071517,21788.83812294461,6220.825758078785,23764.240594415736,48082.02214026715,0.0,0.0,0.0,193.0,0.0,193.0,0.0,0.0,0.0,179.0,193.0,0.0,179.0,1744418766.8682404,0.0,2025-04-11 20:46:06.868,LEFT,30
111.0,5881.481573758313,-14397.630321697035,-21698.224150922793,-24050.4770339104,21840.56005961419,6315.798320269385,23654.851157051464,48155.35821382501,0.0,0.0,0.0,193.0,0.0,193.0,0.0,0.0,0.0,179.0,193.0,0.0,179.0,1744418766.8682976,0.0,2025-04-11 20:46:06.868,LEFT,30
112.0,5853.6313001670005,-14445.61951704258,-21697.10656370003,-24095.649909454576,22027.21947756046,6214.522566142388,24056.86963282462,48146.015184642696,0.0,0.0,0.0,193.0,0.0,193.0,0.0,0.0,0.0,178.0,193.0,0.0,178.0,1744418766.8683612,0.0,2025-04-11 20:46:06.868,LEFT,30
113.0,5849.138599531484,-14454.247290402329,-21746.16864277943,-24110.089136372702,21909.269322069806,6021.738770215366,24114.33596781921,48005.422712018815,0.0,0.0,0.0,193.0,0.0,193.0,0.0,0.0,0.0,178.0,193.0,0.0,178.0,1744418766.8684168,0.0,2025-04-11 20:46:06.868,LEFT,30
114.0,5857.766372891232,-14419.691493474424,-21766.01699185574,-24071.28650799829,21733.96459030683,6196.194135689037,23848.551374501156,48031.41779082034,0.0,0.0,0.0,193.0,0.0,193.0,0.0,0.0,0.0,179.0,193.0,0.0,179.0,1744418766.8685544,0.0,2025-04-11 20:46:06.868,LEFT,30
115.0,5866.125925317518,-14403.061795599675,-21732.936410061888,-24055.886156068584,21786.714707221356,6357.663137634175,23664.529462400613,48105.93850683433,0.0,0.0,0.0,193.0,0.0,193.0,0.0,0.0,0.0,179.0,193.0,0.0,179.0,1744418766.868595,0.0,2025-04-11 20:46:06.868,LEFT,30
116.0,5849.362116976037,-14438.511662305793,-21706.136668459974,-24083.267043026335,22019.396367001103,6248.944252603562,24005.304158366223,48108.553660935606,0.0,0.0,0.0,193.0,0.0,193.0,0.0,0.0,0.0,178.0,193.0,0.0,178.0,1744418766.8686335,0.0,2025-04-11 20:46:06.868,LEFT,30
117.0,5844.914119829431,-14448.52524382177,-21737.093834530573,-24111.027909639826,21966.981526253407,5991.250990778326,24163.040418987326,47977.48303144968,0.0,0.0,0.0,193.0,0.0,193.0,0.0,0.0,0.0,179.0,193.0,0.0,179.0,1744418766.8686712,0.0,2025-04-11 20:46:06.868,LEFT,30
118.0,5847.462218697336,-14426.084092388643,-21755.98105859531,-24087.67033668403,21823.192754172418,6081.484983144401,23924.01086378227,47981.43929021827,0.0,0.0,0.0,193.0,0.0,192.0,0.0,0.0,0.0,178.0,192.0,0.0,178.0,1744418766.8687513,0.0,2025-04-11 20:46:06.868,LEFT,30
119.0,5865.298910772671,-14402.458298499383,-21732.15409900595,-24059.440083436977,21806.384242342025,6297.581648538309,23688.043497567596,48078.46821289876,0.0,0.0,0.0,193.0,0.0,193.0,0.0,0.0,0.0,179.0,193.0,0.0,179.0,1744418766.8687935,0.0,2025-04-11 20:46:06.868,LEFT,30
120.0,5859.643919425478,-14432.297877347217,-21700.10169745704,-24077.299127256767,21996.977567312428,6289.736186234497,23952.710503662885,48111.057056314596,0.0,0.0,0.0,193.0,0.0,193.0,0.0,0.0,0.0,178.0,193.0,0.0,178.0,1744418766.8688307,0.0,2025-04-11 20:46:06.868,LEFT,30
121.0,5844.10945702904,-14454.58256656916,-21730.231848982796,-24119.566276021753,22005.292416249802,6050.48311358489,24190.711878622995,47999.83477590499,0.0,0.0,0.0,193.0,0.0,193.0,0.0,0.0,0.0,179.0,193.0,0.0,179.0,1744418766.868869,0.0,2025-04-11 20:46:06.868,LEFT,30
122.0,5860.314471759138,-14417.679836473446,-21743.709950889344,-24071.510025442843,21870.824321606677,6054.461724097935,23963.17112006797,47931.326679149475,0.0,0.0,0.0,193.0,0.0,192.0,0.0,0.0,0.0,178.0,192.0,0.0,178.0,1744418766.8689058,0.0,2025-04-11 20:46:06.868,LEFT,30
123.0,5867.534085218202,-14395.551609462693,-21739.91015433194,-24037.691836081965,21795.610701514568,6325.610736085265,23706.886018143417,48014.76574120113,0.0,0.0,0.0,193.0,0.0,193.0,0.0,0.0,0.0,179.0,193.0,0.0,179.0,1744418766.8689425,0.0,2025-04-11 20:46:06.868,LEFT,30
124.0,5858.816904880632,-14413.56711549367,-21707.85775278303,-24059.775359603806,21938.66186602853,6334.774951311941,23902.977872249827,48054.46243935376,0.0,0.0,0.0,193.0,0.0,193.0,0.0,0.0,0.0,179.0,193.0,0.0,179.0,1744418766.8689797,0.0,2025-04-11 20:46:06.868,LEFT,30
125.0,5844.0647535401295,-14444.770150753278,-21733.53990716218,-24104.657662470065,21957.303220904258,6093.666683872543,24234.074262866292,47963.35672895393,0.0,0.0,0.0,193.0,0.0,192.0,0.0,0.0,0.0,178.0,192.0,0.0,178.0,1744418766.8690171,0.0,2025-04-11 20:46:06.869,LEFT,30
126.0,5856.782896135199,-14418.015112640276,-21745.654552656957,-24081.456551725456,21829.69711180891,6024.666848739011,24074.57221443322,47881.59404773641,0.0,0.0,0.0,193.0,0.0,192.0,0.0,0.0,0.0,178.0,192.0,0.0,178.0,1744418766.869058,0.0,2025-04-11 20:46:06.869,LEFT,30
127.0,5877.055928356162,-14382.498190700793,-21728.44370942637,-24046.878403053095,21761.345477264582,6257.996709107961,23786.19000747085,47973.07973779199,0.0,0.0,0.0,193.0,0.0,193.0,0.0,0.0,0.0,178.0,193.0,0.0,178.0,1744418766.8690977,0.0,2025-04-11 20:46:06.869,LEFT,30
128.0,5883.135602848006,-14395.685719929425,-21681.95208095933,-24038.4741471379,21924.28969434377,6367.207332516591,23862.901194441463,48028.04267740759,0.0,0.0,0.0,193.0,0.0,193.0,0.0,1.0,0.0,179.0,193.0,1.0,179.0,1744418766.8691595,0.0,2025-04-11 20:46:06.869,LEFT,30
129.0,5857.721669402322,-14446.446531587426,-21704.59439809256,-24092.095982086183,22007.907570351075,6189.868592008185,24253.676742753596,47985.999046087156,0.0,0.0,0.0,193.0,0.0,192.0,0.0,2.0,0.0,178.0,192.0,2.0,178.0,1744418766.8692093,0.0,2025-04-11 20:46:06.869,LEFT,30
130.0,5865.813000895143,-14430.174461623963,-21731.90822981694,-24076.00272607836,21843.354027671103,6054.305261886748,24155.172604939056,47876.14022208932,0.0,0.0,0.0,193.0,0.0,193.0,0.0,3.0,0.0,179.0,193.0,3.0,179.0,1744418766.869309,0.0,2025-04-11 20:46:06.869,LEFT,30
131.0,5876.385376022503,-14403.151202577497,-21740.424244454414,-24040.061120994225,21721.715834345323,6275.654587227654,23870.165511389438,47966.8212493445,0.0,0.0,0.0,193.0,0.0,192.0,0.0,4.0,0.0,178.0,192.0,4.0,178.0,1744418766.8693504,0.0,2025-04-11 20:46:06.869,LEFT,30
132.0,5874.016091110241,-14407.465089257372,-21704.504991114736,-24043.927972784993,21838.883678780043,6362.424059203156,23852.999371647762,48044.89589272689,0.0,0.0,0.0,193.0,0.0,193.0,0.0,5.0,0.0,179.0,193.0,5.0,179.0,1744418766.8694062,0.0,2025-04-11 20:46:06.869,LEFT,30
133.0,5846.791666363677,-14448.659354288502,-21708.10362197204,-24092.878293142116,21989.154456753073,6208.420539906089,24252.201527619545,48021.583023260006,0.0,0.0,0.0,193.0,0.0,192.0,0.0,6.0,0.0,179.0,192.0,6.0,179.0,1744418766.8694992,0.0,2025-04-11 20:46:06.869,LEFT,30
134.0,5852.938396088886,-14437.125854149564,-21735.618619396522,-24091.090153585694,21902.072060355196,6009.937049142963,24218.15982081411,47880.87879191385,0.0,0.0,0.0,193.0,0.0,192.0,0.0,7.0,0.0,179.0,192.0,7.0,179.0,1744418766.8695407,0.0,2025-04-11 20:46:06.869,LEFT,30
135.0,5868.092878829584,-14404.447603755905,-21745.11811079003,-24056.266135724323,21780.16564609595,6192.014359475895,23911.650349098487,47932.66778381679,0.0,0.0,0.0,193.0,0.0,193.0,0.0,8.0,0.0,178.0,193.0,8.0,178.0,1744418766.8695807,0.0,2025-04-11 20:46:06.869,LEFT,30
136.0,5880.408690024458,-14393.674062928447,-21708.90828477243,-24044.062083251727,21849.32194344067,6363.184018514636,23805.747783869243,48031.015459420145,0.0,0.0,0.0,193.0,0.0,192.0,0.0,9.0,0.0,179.0,192.0,9.0,179.0,1744418766.8696227,0.0,2025-04-11 20:46:06.869,LEFT,30
137.0,5858.861608369542,-14428.18515636744,-21700.951063746343,-24089.078496584716,22003.325462737736,6265.886874900684,24196.500980436922,48038.704459512766,0.0,0.0,0.0,193.0,0.0,193.0,0.0,9.0,0.0,179.0,193.0,9.0,179.0,1744418766.8696625,0.0,2025-04-11 20:46:06.869,LEFT,30
138.0,5860.91796885943,-14428.922763934466,-21725.91796230292,-24093.48179024241,21895.27713004078,6039.5754622907,24260.89635621266,47898.469614800175,0.0,0.0,0.0,193.0,0.0,192.0,0.0,10.0,0.0,178.0,192.0,10.0,178.0,1744418766.8697011,0.0,2025-04-11 20:46:06.869,LEFT,30
139.0,5858.459276969347,-14413.23183932684,-21743.419378211427,-24065.184481761993,21776.768180938743,6184.615932061188,24000.923216452982,47926.94573723623,0.0,0.0,0.0,193.0,0.0,193.0,0.0,11.0,0.0,179.0,193.0,11.0,179.0,1744418766.869739,0.0,2025-04-11 20:46:06.869,LEFT,30
140.0,5872.1832480649055,-14395.059871084675,-21711.366976662517,-24040.128176227594,21811.346329611104,6369.107230795292,23810.95574032733,48012.50821501115,0.0,0.0,0.0,193.0,0.0,192.0,0.0,11.0,0.0,178.0,192.0,11.0,178.0,1744418766.869781,0.0,2025-04-11 20:46:06.869,LEFT,30
141.0,5860.582692692601,-14421.658446986492,-21687.942348473352,-24069.788941119783,21997.26813999035,6277.867409928729,24148.93646823603,48021.44891279327,0.0,0.0,0.0,193.0,0.0,193.0,0.0,12.0,0.0,179.0,193.0,12.0,179.0,1744418766.8698184,0.0,2025-04-11 20:46:06.869,LEFT,30
142.0,5867.243512540283,-14426.575830766658,-21710.852886540044,-24092.14068557509,21944.38391260909,6021.179976603982,24328.488031445508,47886.220858838664,0.0,0.0,0.0,193.0,0.0,192.0,0.0,12.0,0.0,178.0,192.0,12.0,178.0,1744418766.869857,0.0,2025-04-11 20:46:06.869,LEFT,30
143.0,5869.769259663733,-14409.275580558251,-21735.01512229623,-24054.76856884582,21765.01116335525,6154.396373557613,24114.00069165238,47877.52603024555,0.0,0.0,0.0,193.0,0.0,193.0,0.0,12.0,0.0,179.0,193.0,12.0,179.0,1744418766.8698933,0.0,2025-04-11 20:46:06.869,LEFT,30
144.0,5873.92668413242,-14395.305740273685,-21717.044319754164,-24035.970751758905,21770.73320993581,6382.987664102038,23887.756334275764,47981.238124518175,0.0,0.0,0.0,193.0,0.0,193.0,0.0,13.0,0.0,179.0,193.0,13.0,179.0,1744418766.869932,0.0,2025-04-11 20:46:06.869,LEFT,30
145.0,5862.840218882588,-14423.84891794311,-21685.371897860994,-24060.736484615387,21944.45096784246,6329.052904731382,24137.62648554164,48010.831834177,0.0,0.0,0.0,193.0,0.0,193.0,0.0,13.0,0.0,179.0,193.0,13.0,179.0,1744418766.870005,0.0,2025-04-11 20:46:06.870,LEFT,30
146.0,5854.368907734026,-14446.647697287524,-21712.976302263298,-24102.91422640255,21922.05451989824,6042.369430347613,24398.717212524083,47894.37924556485,0.0,0.0,0.0,193.0,0.0,193.0,0.0,13.0,0.0,179.0,193.0,13.0,179.0,1744418766.8700454,0.0,2025-04-11 20:46:06.870,LEFT,30
147.0,5868.964596863341,-14417.344560306617,-21732.53407866169,-24073.52168244382,21780.947957151886,6021.314087070714,24195.673965892074,47818.89740453928,0.0,0.0,0.0,193.0,0.0,193.0,0.0,13.0,0.0,179.0,193.0,13.0,179.0,1744418766.8700852,0.0,2025-04-11 20:46:06.870,LEFT,30
148.0,5874.574884721624,-14391.640054183013,-21719.324197688606,-24043.816214062717,21764.608831955058,6285.109375132248,23922.088613759115,47914.29464987453,0.0,0.0,0.0,193.0,0.0,193.0,0.0,14.0,0.0,179.0,193.0,14.0,179.0,1744418766.8701289,0.0,2025-04-11 20:46:06.870,LEFT,30
149.0,5874.329015532615,-14407.733310190835,-21679.806313491623,-24060.28944972628,21938.81832823972,6315.328933635823,24079.28843251329,47974.55495292604,0.0,0.0,0.0,193.0,0.0,193.0,0.0,14.0,0.0,179.0,193.0,14.0,179.0,1744418766.8703988,0.0,2025-04-11 20:46:06.870,LEFT,30
150.0,5857.408744979947,-14442.736142007845,-21709.53413361718,-24108.68097647202,21946.797901010264,6095.231305984415,24436.670474609196,47910.65131552832,0.0,0.0,0.0,193.0,0.0,193.0,0.0,14.0,0.0,179.0,193.0,14.0,179.0,1744418766.8704977,0.0,2025-04-11 20:46:06.870,LEFT,30
151.0,5858.25811126925,-14424.09478713212,-21737.049131041662,-24083.602319193164,21772.45429425887,6044.314032115225,24301.86710379924,47827.771047088034,0.0,0.0,0.0,193.0,0.0,193.0,0.0,14.0,0.0,178.0,193.0,14.0,178.0,1744418766.8705375,0.0,2025-04-11 20:46:06.870,LEFT,30
152.0,5863.086088071595,-14403.441775255416,-21736.713854874833,-24049.60531587664,21723.749843090754,6310.635067300209,23998.352765840624,47920.66489704429,0.0,0.0,0.0,193.0,0.0,193.0,0.0,14.0,0.0,179.0,193.0,14.0,179.0,1744418766.8705745,0.0,2025-04-11 20:46:06.870,LEFT,30
153.0,5874.6419399549895,-14404.76052817828,-21682.82379899309,-24049.18063273199,21884.347127002136,6358.579559156842,24037.602429104143,47989.46356647773,0.0,0.0,0.0,193.0,0.0,193.0,0.0,14.0,0.0,178.0,193.0,14.0,178.0,1744418766.870615,0.0,2025-04-11 20:46:06.870,LEFT,30
154.0,5854.055983311651,-14435.47182505987,-21687.76353451771,-24089.883159385106,21979.7890758263,6163.001795172906,24442.817204334406,47965.9718830552,0.0,0.0,0.0,193.0,0.0,193.0,0.0,15.0,0.0,179.0,193.0,15.0,179.0,1744418766.8706536,0.0,2025-04-11 20:46:06.870,LEFT,30
155.0,5863.689585171889,-14415.958752150387,-21708.93063651689,-24066.972621318415,21884.19066479095,6013.982714889374,24386.53551179594,47879.314169801975,0.0,0.0,0.0,193.0,0.0,192.0,0.0,15.0,0.0,178.0,192.0,15.0,178.0,1744418766.8706894,0.0,2025-04-11 20:46:06.870,LEFT,30
156.0,5866.125925317518,-14398.56909496416,-21726.476755914304,-24046.118443741616,21760.11613131954,6232.314554728813,24105.52938050382,47969.25758949013,0.0,0.0,0.0,193.0,0.0,193.0,0.0,15.0,0.0,179.0,193.0,15.0,179.0,1744418766.8707275,0.0,2025-04-11 20:46:06.870,LEFT,30
157.0,5866.6847189289,-14405.453432256394,-21702.359223647025,-24044.643228607565,21843.84576604912,6342.329840937834,24047.884231553584,48053.344852131,0.0,0.0,0.0,193.0,0.0,193.0,0.0,15.0,0.0,179.0,193.0,15.0,179.0,1744418766.8707666,0.0,2025-04-11 20:46:06.870,LEFT,30
158.0,5842.4777796838025,-14444.993668197832,-21705.6225783375,-24100.902569401573,21978.559729881257,6200.575077602277,24436.178736231177,48037.56452054555,0.0,0.0,0.0,193.0,0.0,193.0,0.0,15.0,0.0,179.0,193.0,15.0,179.0,1744418766.8708043,0.0,2025-04-11 20:46:06.870,LEFT,30
159.0,5845.741134374277,-14441.730313507356,-21735.797433352167,-24104.54590374779,21829.339483897627,6022.632839993577,24459.335143486875,47922.229519156164,0.0,0.0,0.0,193.0,0.0,193.0,0.0,15.0,0.0,179.0,193.0,15.0,179.0,1744418766.870845,0.0,2025-04-11 20:46:06.870,LEFT,30
160.0,5857.364041491037,-14420.742025463824,-21742.614715411033,-24063.128121272104,21701.95689224683,6204.866612537696,24161.811073042285,47964.9213510658,0.0,0.0,0.0,193.0,0.0,192.0,0.0,15.0,0.0,179.0,192.0,15.0,179.0,1744418766.870993,0.0,2025-04-11 20:46:06.870,LEFT,30
161.0,5866.349442762071,-14410.303760803195,-21700.48167711278,-24049.113577498625,21799.656367260977,6345.727306095041,24010.713280524407,48042.52660781462,0.0,0.0,0.0,193.0,0.0,193.0,0.0,15.0,0.0,179.0,193.0,15.0,179.0,1744418766.87104,0.0,2025-04-11 20:46:06.871,LEFT,30
162.0,5847.439866952881,-14443.853729230612,-21678.8675402245,-24081.27773776981,21988.05922127476,6243.266909511914,24384.903834450703,48050.03679395161,0.0,0.0,0.0,193.0,0.0,193.0,0.0,15.0,0.0,178.0,193.0,15.0,178.0,1744418766.871077,0.0,2025-04-11 20:46:06.871,LEFT,30
163.0,5833.984116790786,-14458.248252659829,-21722.140517489974,-24099.181485078512,21899.322795787193,6018.609525991622,24494.360327048344,47912.68532427375,0.0,0.0,0.0,193.0,0.0,193.0,0.0,15.0,0.0,179.0,193.0,15.0,179.0,1744418766.871116,0.0,2025-04-11 20:46:06.871,LEFT,30
164.0,5844.10945702904,-14436.321191349172,-21743.44172995588,-24069.744237630875,21760.049076086176,6149.903672922096,24258.191795133567,47939.10508621992,0.0,0.0,0.0,193.0,0.0,193.0,0.0,16.0,0.0,179.0,193.0,16.0,179.0,1744418766.871874,0.0,2025-04-11 20:46:06.871,LEFT,30
165.0,5868.651672440967,-14408.023882868754,-21707.142496960463,-24043.168013473514,21749.476700958814,6330.259898931969,24057.71899911392,48032.40126757637,0.0,0.0,0.0,193.0,0.0,192.0,0.0,15.0,0.0,178.0,192.0,15.0,178.0,1744418766.8719113,0.0,2025-04-11 20:46:06.871,LEFT,30
166.0,5848.870378598021,-14436.008266926798,-21674.33013610007,-24059.99887704836,21923.395624565557,6280.773136707919,24368.520005764964,48047.153418916874,0.0,0.0,0.0,193.0,0.0,193.0,0.0,16.0,0.0,179.0,193.0,16.0,179.0,1744418766.8719444,0.0,2025-04-11 20:46:06.871,LEFT,30
167.0,5834.162930746428,-14454.068476446686,-21707.097793471552,-24090.91133963005,21895.254778296327,6051.958328718941,24572.81495008647,47913.9593737077,0.0,0.0,0.0,193.0,0.0,193.0,0.0,16.0,0.0,179.0,193.0,16.0,179.0,1744418766.8719776,0.0,2025-04-11 20:46:06.871,LEFT,30
168.0,5846.836369852587,-14423.468938287371,-21726.901439058955,-24053.58392638969,21776.54466349419,6124.981477854429,24348.91752587766,47873.68153019924,0.0,0.0,0.0,193.0,0.0,193.0,0.0,16.0,0.0,179.0,193.0,16.0,179.0,1744418766.87201,0.0,2025-04-11 20:46:06.872,LEFT,30
169.0,5870.976253864319,-14390.23189428233,-21704.884970770476,-24023.342016141658,21725.985017536284,6341.905157793183,24103.227150824925,47972.11861278041,0.0,0.0,0.0,193.0,0.0,193.0,0.0,16.0,0.0,178.0,193.0,16.0,178.0,1744418766.8720448,0.0,2025-04-11 20:46:06.872,LEFT,30
170.0,5857.028765324208,-14418.976237651854,-21672.072609910087,-24056.489653168876,21926.658979256033,6316.6476865586865,24331.997255324994,48019.21373834774,0.0,0.0,0.0,193.0,0.0,193.0,0.0,16.0,0.0,178.0,193.0,16.0,178.0,1744418766.8720815,0.0,2025-04-11 20:46:06.872,LEFT,30
171.0,5838.365058704026,-14450.894528734032,-21709.131802216983,-24107.496334015887,21935.689084015976,6065.659948070043,24620.91590415429,47934.99236524014,0.0,0.0,0.0,193.0,0.0,193.0,0.0,16.0,0.0,179.0,193.0,16.0,179.0,1744418766.8721206,0.0,2025-04-11 20:46:06.872,LEFT,30
172.0,5838.834445337588,-14434.935383192944,-21736.11035777454,-24084.474037226923,21770.844968658086,6051.779514763298,24448.092216025856,47891.76409146358,0.0,0.0,0.0,193.0,0.0,192.0,0.0,16.0,0.0,178.0,192.0,16.0,178.0,1744418766.8721616,0.0,2025-04-11 20:46:06.872,LEFT,30
173.0,5847.931605330898,-14408.247400313307,-21723.816898324123,-24055.729693857396,21700.325214901593,6285.57876176581,24166.77316031136,48003.679275951305,0.0,0.0,0.0,193.0,0.0,193.0,0.0,16.0,0.0,179.0,193.0,16.0,179.0,1744418766.8722608,0.0,2025-04-11 20:46:06.872,LEFT,30
174.0,5855.464143212336,-14412.360121293083,-21667.490502296747,-24052.242821722368,21900.99917662134,6302.297866618379,24279.04597271037,48052.07080269704,0.0,0.0,0.0,193.0,0.0,193.0,0.0,16.0,0.0,179.0,193.0,16.0,179.0,1744418766.8723595,0.0,2025-04-11 20:46:06.872,LEFT,30
175.0,5839.080314526595,-14444.18900539744,-21688.076458940086,-24092.185389064,21954.978639480905,6092.146765249582,24649.123805656887,47984.90381060884,0.0,0.0,0.0,193.0,0.0,193.0,0.0,16.0,0.0,179.0,193.0,16.0,179.0,1744418766.872642,0.0,2025-04-11 20:46:06.872,LEFT,30
176.0,5850.882035598998,-14427.983990667342,-21715.323235431104,-24076.606223178653,21822.32103613866,6003.90207814003,24526.32332161943,47887.137280361334,0.0,0.0,0.0,193.0,0.0,193.0,0.0,16.0,0.0,179.0,193.0,16.0,179.0,1744418766.8727028,0.0,2025-04-11 20:46:06.872,LEFT,30
177.0,5858.615739180535,-14406.727481690346,-21721.87229655651,-24043.816214062717,21746.369808479525,6273.374709293212,24239.12575711319,47974.64435990386,0.0,0.0,0.0,193.0,0.0,193.0,0.0,16.0,0.0,179.0,193.0,16.0,179.0,1744418766.8727503,0.0,2025-04-11 20:46:06.872,LEFT,30
178.0,5865.745945661777,-14402.346539777105,-21684.142551915953,-24039.278809938292,21857.815606333686,6348.007184029482,24261.768074246418,48019.45960753675,0.0,0.0,0.0,193.0,0.0,193.0,0.0,16.0,0.0,179.0,193.0,16.0,179.0,1744418766.872789,0.0,2025-04-11 20:46:06.872,LEFT,30
179.0,5835.057000524641,-14445.418351342483,-21690.37868861898,-24087.20095005047,21967.04858148677,6183.073661693771,24663.965363975214,47973.9738075702,0.0,0.0,0.0,193.0,0.0,193.0,0.0,16.0,0.0,178.0,193.0,16.0,178.0,1744418766.8728447,0.0,2025-04-11 20:46:06.872,LEFT,30
180.0,5838.63327963749,-14434.130720392552,-21709.824706295098,-24073.253461510358,21856.407446433004,6029.807749963731,24607.996595859124,47829.00039303308,0.0,0.0,0.0,193.0,0.0,193.0,0.0,16.0,0.0,179.0,193.0,16.0,179.0,1744418766.8728771,0.0,2025-04-11 20:46:06.872,LEFT,30
181.0,5846.724611130311,-14414.081205616141,-21728.331950704094,-24046.94545828646,21731.148270505462,6259.315462030824,24314.473487672032,47877.637788967826,0.0,0.0,0.0,193.0,0.0,192.0,0.0,16.0,0.0,178.0,192.0,16.0,178.0,1744418766.8729105,0.0,2025-04-11 20:46:06.872,LEFT,30
182.0,5864.091916572084,-14401.251304298796,-21681.661508281413,-24031.835679034673,21797.331785837625,6380.0372338339375,24224.261847050413,47941.384964154364,0.0,0.0,0.0,193.0,0.0,193.0,0.0,16.0,0.0,179.0,193.0,16.0,179.0,1744418766.8729432,0.0,2025-04-11 20:46:06.872,LEFT,30
183.0,5842.410724450437,-14440.970354195877,-21673.52547329968,-24077.05325806776,21929.542354290767,6236.650793153142,24626.459136779205,47943.57543511098,0.0,0.0,0.0,193.0,0.0,193.0,0.0,16.0,0.0,178.0,193.0,16.0,178.0,1744418766.8729768,0.0,2025-04-11 20:46:06.872,LEFT,30
184.0,5836.576919147601,-14443.563156552693,-21718.6759970994,-24097.885083900106,21850.864213808087,6020.978810903885,24665.038247709068,47822.07135225193,0.0,0.0,0.0,193.0,0.0,193.0,0.0,16.0,0.0,179.0,193.0,16.0,179.0,1744418766.8730106,0.0,2025-04-11 20:46:06.873,LEFT,30
185.0,5849.384468720493,-14411.734272448335,-21740.290133987684,-24065.877385840107,21706.404889393438,6187.052272206816,24384.0544681614,47861.85745738238,0.0,0.0,0.0,193.0,0.0,193.0,0.0,16.0,0.0,179.0,193.0,16.0,179.0,1744418766.8730447,0.0,2025-04-11 20:46:06.873,LEFT,30
186.0,5869.1881143078945,-14392.89175187251,-21694.62552006549,-24036.373083159102,21732.91405831743,6333.970288511549,24202.066564806293,47939.507417620116,0.0,0.0,0.0,193.0,0.0,192.0,0.0,16.0,0.0,178.0,192.0,16.0,178.0,1744418766.873078,0.0,2025-04-11 20:46:06.873,LEFT,30
187.0,5841.471951183314,-14442.132644907553,-21678.733429757765,-24076.360353989647,21906.073022612694,6221.89864181264,24549.792653297503,47946.972900268185,0.0,0.0,0.0,193.0,0.0,193.0,0.0,16.0,0.0,179.0,193.0,16.0,179.0,1744418766.8731115,0.0,2025-04-11 20:46:06.873,LEFT,30
188.0,5827.904442298943,-14456.705982292413,-21714.965607519818,-24106.82578168223,21874.400600719524,5985.104261053117,24684.573672363007,47824.08300925291,0.0,0.0,0.0,193.0,0.0,193.0,0.0,16.0,0.0,179.0,193.0,16.0,179.0,1744418766.8731463,0.0,2025-04-11 20:46:06.873,LEFT,30
189.0,5823.05411375214,-14436.14237739353,-21743.128805533506,-24076.226243522913,21768.587442468102,6115.146710294093,24436.961047287114,47830.74382910059,0.0,0.0,0.0,193.0,0.0,193.0,0.0,16.0,0.0,179.0,193.0,16.0,179.0,1744418766.8731816,0.0,2025-04-11 20:46:06.873,LEFT,30
190.0,5852.2231402663165,-14402.704167688391,-21699.788773034667,-24037.445966892956,21763.044209843185,6293.267761858436,24191.06950653428,47907.03033292655,0.0,0.0,0.0,193.0,0.0,193.0,0.0,17.0,0.0,179.0,193.0,17.0,179.0,1744418766.8732378,0.0,2025-04-11 20:46:06.873,LEFT,30
191.0,5836.286346469682,-14435.896508204522,-21670.44093256485,-24055.774397346308,21923.61914201011,6270.357223791746,24490.113495601832,47958.372289940395,0.0,0.0,0.0,193.0,0.0,192.0,0.0,17.0,0.0,179.0,192.0,17.0,179.0,1744418766.8732722,0.0,2025-04-11 20:46:06.873,LEFT,30
192.0,5824.238756208272,-14457.912976492998,-21697.330081144584,-24091.850112897173,21897.37819401958,6041.318898358214,24734.775690409624,47867.914780129766,0.0,0.0,0.0,193.0,0.0,193.0,0.0,17.0,0.0,179.0,193.0,17.0,179.0,1744418766.8733046,0.0,2025-04-11 20:46:06.873,LEFT,30
193.0,5825.892785297965,-14438.310496605694,-21726.946142547866,-24068.559595174742,21775.27061406024,6092.258523971859,24528.692606531695,47836.19765474769,0.0,0.0,0.0,193.0,0.0,193.0,0.0,17.0,0.0,178.0,193.0,17.0,178.0,1744418766.8733425,0.0,2025-04-11 20:46:06.873,LEFT,30
194.0,5838.789741848676,-14415.668179472468,-21717.312540687628,-24043.57034487371,21725.11329950253,6310.411549855656,24256.582469532786,47927.616289569894,0.0,0.0,0.0,193.0,0.0,193.0,0.0,17.0,0.0,179.0,193.0,17.0,179.0,1744418767.3469248,0.0,2025-04-11 20:46:07.346,LEFT,30
195.0,5844.0647535401295,-14432.633153514047,-21672.05025816563,-24045.738464085873,21889.040993337752,6302.051997429371,24445.16413750221,47953.65607186033,0.0,0.0,0.0,193.0,0.0,193.0,0.0,17.0,0.0,179.0,193.0,17.0,179.0,1744418767.3470905,0.0,2025-04-11 20:46:07.347,LEFT,30
196.0,5823.612907363523,-14468.8653312761,-21708.81887779461,-24090.933691374506,21895.970034118895,6109.894050347096,24777.199301385797,47869.747623175106,0.0,0.0,0.0,193.0,0.0,192.0,0.0,17.0,0.0,178.0,192.0,17.0,178.0,1744418767.347136,0.0,2025-04-11 20:46:07.347,LEFT,30
197.0,5837.068657525619,-14442.825548985667,-21731.841174583577,-24057.29431596927,21722.49814540126,6073.416003396035,24604.44266849073,47784.54277331147,0.0,0.0,0.0,193.0,0.0,193.0,0.0,17.0,0.0,179.0,193.0,17.0,179.0,1744418767.3471737,0.0,2025-04-11 20:46:07.347,LEFT,30
198.0,5855.687660656889,-14408.023882868754,-21722.185220978885,-24026.292446409756,21666.082342396065,6294.832383970307,24292.836999039293,47867.40069000729,0.0,0.0,0.0,193.0,0.0,192.0,0.0,17.0,0.0,178.0,192.0,17.0,178.0,1744418767.34721,0.0,2025-04-11 20:46:07.347,LEFT,30
199.0,5854.950053089864,-14418.216278340375,-21673.72663899978,-24039.725844827397,21860.00607729031,6303.706026519064,24380.321726837366,47917.06626618699,0.0,0.0,0.0,193.0,0.0,193.0,0.0,17.0,0.0,179.0,193.0,17.0,179.0,1744418767.3472466,0.0,2025-04-11 20:46:07.347,LEFT,30
200.0,5816.996791004753,-14471.301671421728,-21699.87818001249,-24100.656700212563,21927.083662400684,6120.8240533857415,24791.90674923739,47882.1528413478,0.0,0.0,0.0,193.0,0.0,193.0,0.0,17.0,0.0,178.0,193.0,17.0,178.0,1744418767.3472817,0.0,2025-04-11 20:46:07.347,LEFT,30
201.0,5828.619698121513,-14450.715714778391,-21720.62059886701,-24074.996897577872,21765.59230871109,6011.345209043648,24690.876864299404,47781.726453510106,0.0,0.0,0.0,193.0,0.0,193.0,0.0,17.0,0.0,179.0,193.0,17.0,179.0,1744418767.3473177,0.0,2025-04-11 20:46:07.347,LEFT,30
202.0,5847.484570441791,-14423.960676665387,-21723.10164250155,-24044.129138485092,21659.15330161492,6250.352412504246,24410.474230107575,47873.12273658785,0.0,0.0,0.0,193.0,0.0,192.0,0.0,17.0,0.0,178.0,192.0,17.0,178.0,1744418767.3473532,0.0,2025-04-11 20:46:07.347,LEFT,30
203.0,5865.611835195045,-14417.009284139787,-21677.325269857083,-24037.37891165959,21788.547550266692,6303.281343374413,24391.87757872076,47925.73874303565,0.0,0.0,0.0,193.0,0.0,193.0,0.0,17.0,0.0,179.0,193.0,17.0,179.0,1744418767.3473885,0.0,2025-04-11 20:46:07.347,LEFT,30
204.0,5833.246509223761,-14457.018906714788,-21684.25431063823,-24087.3350605172,21919.90875243053,6133.452789002989,24812.8056303031,47896.9049926883,0.0,0.0,0.0,193.0,0.0,192.0,0.0,17.0,0.0,179.0,192.0,17.0,179.0,1744418767.3474247,0.0,2025-04-11 20:46:07.347,LEFT,30
205.0,5828.530291143691,-14450.559252567204,-21707.25425568274,-24079.511949957843,21823.438623361424,5999.968171115896,24781.80376074359,47756.11135436432,0.0,0.0,0.0,193.0,0.0,193.0,0.0,17.0,0.0,179.0,193.0,17.0,179.0,1744418767.3533304,0.0,2025-04-11 20:46:07.353,LEFT,30
206.0,5845.718782629822,-14417.27750507325,-21713.311578430126,-24026.60537083213,21750.77310213722,6233.476845440489,24468.655820924738,47786.42031984572,0.0,0.0,0.0,193.0,0.0,193.0,0.0,17.0,0.0,179.0,193.0,17.0,179.0,1744418767.353402,0.0,2025-04-11 20:46:07.353,LEFT,30
207.0,5846.769314619221,-14409.812022425178,-21688.38938336246,-24026.13598419857,21800.7963062282,6388.665007193686,24366.620107486262,47854.81665787896,0.0,0.0,0.0,193.0,0.0,193.0,0.0,17.0,0.0,178.0,193.0,17.0,178.0,1744418767.3534412,0.0,2025-04-11 20:46:07.353,LEFT,30
208.0,5818.5837648610795,-14457.95767998191,-21687.405906606426,-24078.66258366854,21912.867952927107,6265.663357456131,24766.00107741369,47862.77387890505,0.0,0.0,0.0,193.0,0.0,193.0,0.0,17.0,0.0,179.0,193.0,17.0,179.0,1744418767.353477,0.0,2025-04-11 20:46:07.353,LEFT,30
209.0,5826.116302742517,-14463.09858120663,-21715.144421475463,-24091.40307800807,21770.17441632443,5999.856412393619,24807.9553017563,47718.87334810178,0.0,0.0,0.0,193.0,0.0,193.0,0.0,17.0,0.0,179.0,193.0,17.0,179.0,1744418767.3535705,0.0,2025-04-11 20:46:07.353,LEFT,30
210.0,5837.493340670269,-14435.002438426309,-21720.10650874454,-24050.119405999114,21707.030738238187,6148.7637339548755,24520.847144227882,47729.44572322914,0.0,0.0,0.0,193.0,0.0,193.0,0.0,17.0,0.0,179.0,193.0,17.0,179.0,1744418767.3536065,0.0,2025-04-11 20:46:07.353,LEFT,30
211.0,5844.623547151512,-14426.754644722301,-21693.999671220743,-24036.373083159102,21753.611773683046,6350.801152086396,24341.89907811869,47816.77398881602,0.0,0.0,0.0,193.0,0.0,193.0,0.0,17.0,0.0,179.0,193.0,17.0,179.0,1744418767.3536415,0.0,2025-04-11 20:46:07.353,LEFT,30
212.0,5827.300945198649,-14465.512569607803,-21678.554615802124,-24082.238862781393,21899.25574055383,6261.595339965265,24688.440524153775,47837.89638732629,0.0,0.0,0.0,193.0,0.0,193.0,0.0,17.0,0.0,179.0,193.0,17.0,179.0,1744418767.353677,0.0,2025-04-11 20:46:07.353,LEFT,30
213.0,5835.615794136023,-14458.024735215276,-21698.648834067444,-24089.413772751544,21822.589257072123,5993.307351268215,24836.72199687028,47698.55561239191,0.0,0.0,0.0,193.0,0.0,193.0,0.0,17.0,0.0,179.0,193.0,17.0,179.0,1744418767.3537107,0.0,2025-04-11 20:46:07.353,LEFT,30
214.0,5835.7275528582995,-14434.801272726212,-21715.7255668313,-24052.309876955736,21723.459270412837,6097.39942519658,24593.33385149644,47687.84912679782,0.0,0.0,0.0,193.0,0.0,193.0,0.0,17.0,0.0,179.0,193.0,17.0,179.0,1744418767.3537447,0.0,2025-04-11 20:46:07.353,LEFT,30
215.0,5836.3757534475035,-14428.274563345261,-21699.229979423282,-24043.391530918067,21738.390235708983,6309.830404499818,24348.403435755186,47802.491224109086,0.0,0.0,0.0,193.0,0.0,193.0,0.0,17.0,0.0,179.0,193.0,17.0,179.0,1744418767.3537796,0.0,2025-04-11 20:46:07.353,LEFT,30
216.0,5830.318430700116,-14455.119008436086,-21664.89769993993,-24067.039676551783,21888.392792748546,6262.690575443576,24598.8547323769,47851.687413655214,0.0,0.0,0.0,193.0,0.0,193.0,0.0,17.0,0.0,178.0,193.0,17.0,178.0,1744418767.3538144,0.0,2025-04-11 20:46:07.353,LEFT,30
217.0,5813.86754678101,-14482.72341283839,-21696.637177066466,-24097.460400755455,21857.94971680042,6048.404401350546,24867.72386642979,47766.21434285812,0.0,0.0,0.0,193.0,0.0,193.0,0.0,17.0,0.0,179.0,193.0,17.0,179.0,1744418767.3538496,0.0,2025-04-11 20:46:07.353,LEFT,30
218.0,5819.142558472462,-14460.215206171895,-21723.34751169056,-24059.775359603806,21741.34066597708,6109.536422435811,24666.35700063193,47716.52641493397,0.0,0.0,0.0,193.0,0.0,193.0,0.0,17.0,0.0,178.0,193.0,17.0,178.0,1744418767.3538833,0.0,2025-04-11 20:46:07.353,LEFT,30
219.0,5845.048230296163,-14417.523374262259,-21701.95689224683,-24026.42655687649,21687.182389161873,6337.68067809113,24369.458779032087,47783.33577911089,0.0,0.0,0.0,193.0,0.0,193.0,0.0,17.0,0.0,179.0,193.0,17.0,179.0,1744418767.3539183,0.0,2025-04-11 20:46:07.353,LEFT,30
220.0,5853.3407274890815,-14420.76437720828,-21645.876365408465,-24031.56745810121,21870.80196986222,6349.996489286004,24542.14835669379,47829.738000600104,0.0,0.0,0.0,193.0,0.0,193.0,0.0,17.0,0.0,179.0,193.0,17.0,179.0,1744418767.353974,0.0,2025-04-11 20:46:07.353,LEFT,30
221.0,5829.647878366456,-14463.791485284744,-21676.319441356594,-24077.38853423459,21919.75229021934,6138.772504183353,24901.58675927958,47761.721642222605,0.0,0.0,0.0,193.0,0.0,192.0,0.0,17.0,0.0,178.0,192.0,17.0,178.0,1744418767.354009,0.0,2025-04-11 20:46:07.354,LEFT,30
222.0,5833.246509223761,-14455.364877625094,-21706.762517304724,-24061.116464271126,21745.67690440141,6057.278043899303,24756.546289509093,47667.95607423259,0.0,0.0,0.0,193.0,0.0,193.0,0.0,17.0,0.0,179.0,193.0,17.0,179.0,1744418767.3540428,0.0,2025-04-11 20:46:07.354,LEFT,30
223.0,5853.20661702235,-14422.418406297971,-21699.654662567933,-24023.431423119477,21643.66354270739,6281.667206486131,24468.812283135925,47751.864522917815,0.0,0.0,0.0,193.0,0.0,192.0,0.0,17.0,0.0,179.0,192.0,17.0,179.0,1744418767.3540769,0.0,2025-04-11 20:46:07.354,LEFT,30
224.0,5859.085125814096,-14430.688551746434,-21665.52354878468,-24031.3215889122,21786.200617098883,6358.646614390209,24552.027827743033,47817.84687254988,0.0,0.0,0.0,193.0,0.0,192.0,0.0,17.0,0.0,178.0,192.0,17.0,178.0,1744418767.3541288,0.0,2025-04-11 20:46:07.354,LEFT,30
225.0,5832.665363867923,-14468.172427197986,-21678.554615802124,-24081.255386025357,21890.493856727346,6192.304932153814,24955.588573883604,47792.07531119291,0.0,0.0,0.0,193.0,0.0,193.0,0.0,17.0,0.0,179.0,193.0,17.0,179.0,1744418767.3541625,0.0,2025-04-11 20:46:07.354,LEFT,30
226.0,5834.095875513062,-14456.996554970332,-21706.58370334908,-24073.991069077383,21770.59909946908,6037.206177378438,24849.61895342099,47665.22916140904,0.0,0.0,0.0,193.0,0.0,193.0,0.0,17.0,0.0,179.0,193.0,17.0,179.0,1744418767.354206,0.0,2025-04-11 20:46:07.354,LEFT,30
227.0,5841.874282583509,-14428.967467423376,-21706.896627771453,-24042.85508905114,21666.417618562893,6229.341772716257,24542.75185379408,47735.570101209894,0.0,0.0,0.0,193.0,0.0,193.0,0.0,17.0,0.0,179.0,193.0,17.0,179.0,1744418767.354244,0.0,2025-04-11 20:46:07.354,LEFT,30
228.0,5853.117210044528,-14419.780900452246,-21660.360295815506,-24032.886211024073,21748.91790734743,6290.429090312611,24494.785010192994,47794.10931993835,0.0,0.0,0.0,193.0,0.0,193.0,0.0,17.0,0.0,179.0,193.0,17.0,179.0,1744418767.3542795,0.0,2025-04-11 20:46:07.354,LEFT,30
229.0,5833.984116790786,-14458.471770104381,-21661.746103971735,-24075.265118511335,21873.931214085962,6169.729670253953,24924.989035724288,47782.10643316584,0.0,0.0,0.0,193.0,0.0,193.0,0.0,17.0,0.0,179.0,193.0,17.0,179.0,1744418767.3543139,0.0,2025-04-11 20:46:07.354,LEFT,30
230.0,5825.065770753118,-14466.361935897105,-21708.081270227583,-24085.323403516224,21779.942128651397,6058.976776477907,24946.759634823757,47654.18739964812,0.0,0.0,0.0,193.0,0.0,192.0,0.0,17.0,0.0,179.0,192.0,17.0,179.0,1744418767.3543506,0.0,2025-04-11 20:46:07.354,LEFT,30
231.0,5833.2018057348505,-14436.701171004912,-21717.759575576732,-24042.85508905114,21666.663487751903,6257.214398052025,24631.935314170758,47682.81998429537,0.0,0.0,0.0,193.0,0.0,193.0,0.0,17.0,0.0,179.0,193.0,17.0,179.0,1744418767.3543963,0.0,2025-04-11 20:46:07.354,LEFT,30
232.0,5842.276613983705,-14419.870307430067,-21675.24655762274,-24025.46543186491,21737.92084907542,6393.358873529301,24480.144617574766,47755.865485175316,0.0,0.0,0.0,193.0,0.0,193.0,0.0,17.0,0.0,179.0,193.0,17.0,179.0,1744418767.3544357,0.0,2025-04-11 20:46:07.354,LEFT,30
233.0,5818.360247416526,-14461.66806956149,-21668.093999397042,-24073.834606866196,21894.248949795838,6268.502029001955,24860.370142503994,47761.855752689335,0.0,0.0,0.0,193.0,0.0,193.0,0.0,17.0,0.0,179.0,193.0,17.0,179.0,1744418767.3544807,0.0,2025-04-11 20:46:07.354,LEFT,30
234.0,5823.367038174515,-14463.09858120663,-21701.15222944644,-24091.872464641627,21810.519315066256,6007.076025852683,24937.573067852627,47615.31771604034,0.0,0.0,0.0,193.0,0.0,193.0,0.0,17.0,0.0,179.0,193.0,17.0,179.0,1744418767.3545215,0.0,2025-04-11 20:46:07.354,LEFT,30
235.0,5837.113361014529,-14428.431025556449,-21724.263933213228,-24054.90267931255,21666.663487751903,6132.581070969233,24664.45710235323,47633.06500113785,0.0,0.0,0.0,193.0,0.0,193.0,0.0,17.0,0.0,179.0,193.0,17.0,179.0,1744418767.3546135,0.0,2025-04-11 20:46:07.354,LEFT,30
236.0,5860.15800954795,-14398.837315897623,-21691.00453746373,-24026.60537083213,21657.34281031404,6312.400855112178,24456.40706496323,47724.796560382434,0.0,0.0,0.0,193.0,0.0,193.0,0.0,17.0,0.0,180.0,193.0,17.0,180.0,1744418767.3546815,0.0,2025-04-11 20:46:07.354,LEFT,30
237.0,5836.018125536219,-14436.008266926798,-21664.29420283964,-24056.19908049096,21847.66791435098,6271.407755781145,24781.42378108785,47746.477752504084,0.0,0.0,0.0,193.0,0.0,193.0,0.0,17.0,0.0,179.0,193.0,17.0,179.0,1744418767.354766,0.0,2025-04-11 20:46:07.354,LEFT,30
238.0,5813.53227061418,-14464.126761451575,-21711.121107473507,-24096.141647832592,21803.232646373828,6046.43744783848,24981.315431751664,47648.57711178984,0.0,0.0,0.0,193.0,0.0,193.0,0.0,17.0,0.0,179.0,193.0,17.0,179.0,1744418767.3548305,0.0,2025-04-11 20:46:07.354,LEFT,30
239.0,5824.216404463817,-14441.439740829437,-21734.59043915158,-24064.580984661698,21630.274847778663,6109.894050347096,24730.908838618856,47624.280765566924,0.0,0.0,0.0,193.0,0.0,193.0,0.0,17.0,0.0,179.0,193.0,17.0,179.0,1744418767.3549285,0.0,2025-04-11 20:46:07.354,LEFT,30
240.0,5845.495265185269,-14415.37760679455,-21714.876200542,-24044.3750076741,21534.564678021037,6275.341662805279,24449.947410815646,47699.96377229259,0.0,0.0,0.0,193.0,0.0,193.0,0.0,17.0,0.0,179.0,193.0,17.0,179.0,1744418767.3549645,0.0,2025-04-11 20:46:07.354,LEFT,30
241.0,5834.051172024152,-14444.613688542091,-21673.86074946651,-24070.61595566463,21738.12201477552,6228.246537237947,24670.380314633887,47735.63715644326,0.0,0.0,0.0,193.0,0.0,193.0,0.0,17.0,0.0,179.0,193.0,17.0,179.0,1744418767.3550024,0.0,2025-04-11 20:46:07.355,LEFT,30
242.0,5806.62558157749,-14480.95762502642,-21703.230941680784,-24113.933636419017,21873.32771698567,6013.692142211455,24944.345646422586,47658.63539679473,0.0,0.0,0.0,193.0,0.0,193.0,0.0,17.0,0.0,179.0,193.0,17.0,179.0,1744418767.355038,0.0,2025-04-11 20:46:07.355,LEFT,30
243.0,5812.414683391415,-14459.678764304968,-21726.92379080341,-24075.041601066783,21765.525253477725,6043.308203614736,24722.12460304792,47598.41979723213,0.0,0.0,0.0,193.0,0.0,193.0,0.0,17.0,0.0,179.0,193.0,17.0,179.0,1744418767.3550727,0.0,2025-04-11 20:46:07.355,LEFT,30
244.0,5825.445750408859,-14434.42129307047,-21714.652683097447,-24045.269077452314,21693.507932842724,6303.884840474706,24431.954256529127,47708.88211833026,0.0,0.0,0.0,193.0,0.0,193.0,0.0,17.0,0.0,179.0,193.0,17.0,179.0,1744418767.3551085,0.0,2025-04-11 20:46:07.355,LEFT,30
245.0,5826.093950998063,-14442.087941418642,-21677.794656490645,-24058.881289825596,21821.851649505097,6316.066541202848,24558.219260957154,47765.58849401337,0.0,0.0,0.0,193.0,0.0,193.0,0.0,17.0,0.0,179.0,193.0,17.0,179.0,1744418767.3551435,0.0,2025-04-11 20:46:07.355,LEFT,30
246.0,5796.030854705675,-14483.304558194228,-21708.170677205406,-24117.644025998597,21861.03425753525,6102.607381654666,24921.92684673391,47725.82474062738,0.0,0.0,0.0,193.0,0.0,193.0,0.0,17.0,0.0,179.0,193.0,17.0,179.0,1744418767.3551805,0.0,2025-04-11 20:46:07.355,LEFT,30
247.0,5814.269878181205,-14449.419313599983,-21721.782889578688,-24073.85695861065,21695.564293332613,6010.249973565337,24767.029257658633,47636.507169783974,0.0,0.0,0.0,193.0,0.0,193.0,0.0,17.0,0.0,179.0,193.0,17.0,179.0,1744418767.3552184,0.0,2025-04-11 20:46:07.355,LEFT,30
248.0,5822.651782351945,-14427.38049356705,-21717.603113365545,-24040.552859372245,21614.89684759341,6247.066706069316,24446.639352636263,47714.44770269963,0.0,0.0,0.0,193.0,0.0,193.0,0.0,17.0,0.0,178.0,193.0,17.0,178.0,1744418767.3552516,0.0,2025-04-11 20:46:07.355,LEFT,30
249.0,5830.921927800408,-14437.505833805304,-21672.51964479919,-24044.3750076741,21745.6322009125,6305.896497475684,24460.0727510539,47771.24348536057,0.0,0.0,0.0,193.0,0.0,193.0,0.0,17.0,0.0,179.0,193.0,17.0,179.0,1744418767.355284,0.0,2025-04-11 20:46:07.355,LEFT,30
250.0,5815.923907270898,-14472.732183066868,-21678.554615802124,-24087.893854128582,21841.27531543676,6125.272050532348,24877.78215143468,47756.58074099788,0.0,0.0,0.0,193.0,0.0,193.0,0.0,17.0,0.0,179.0,193.0,17.0,179.0,1744418767.3553317,0.0,2025-04-11 20:46:07.355,LEFT,30
251.0,5815.901555526442,-14457.532996837259,-21713.40098540795,-24089.838455896195,21652.358371300506,5952.649528104011,24828.317740955084,47647.19130363361,0.0,0.0,0.0,193.0,0.0,193.0,0.0,17.0,0.0,179.0,193.0,17.0,179.0,1744418767.355364,0.0,2025-04-11 20:46:07.355,LEFT,30
252.0,5815.231003192783,-14433.95190643691,-21730.947104805364,-24061.317629971225,21534.184698365298,6167.807420230797,24520.265998872044,47714.112426532796,0.0,0.0,0.0,193.0,0.0,193.0,0.0,17.0,0.0,179.0,193.0,17.0,179.0,1744418767.3553965,0.0,2025-04-11 20:46:07.355,LEFT,30
253.0,5829.245546966261,-14431.023827913265,-21679.76161000271,-24039.099995982648,21743.285267744694,6339.088837991815,24435.664646108708,47771.35524408284,0.0,0.0,0.0,193.0,0.0,193.0,0.0,17.0,0.0,179.0,193.0,17.0,179.0,1744418767.3554292,0.0,2025-04-11 20:46:07.355,LEFT,30
254.0,5803.921020498397,-14477.113124980107,-21677.90641521292,-24079.62370868012,21888.52690321528,6235.264984996914,24853.709322656316,47774.08215690639,0.0,0.0,0.0,193.0,0.0,193.0,0.0,17.0,0.0,179.0,193.0,17.0,179.0,1744418767.355476,0.0,2025-04-11 20:46:07.355,LEFT,30
255.0,5817.622639849501,-14460.930461994465,-21703.29799691415,-24084.80931339375,21796.571826526146,5992.4579849789125,24861.97946810478,47626.940623157105,0.0,0.0,0.0,193.0,0.0,193.0,0.0,17.0,0.0,179.0,193.0,17.0,179.0,1744418767.3555083,0.0,2025-04-11 20:46:07.355,LEFT,30
0.0,5836.576919147601,-14427.536955778236,-21715.189124964374,-24040.105824483137,21660.62851674897,6166.019280674373,24558.15220572379,47632.75207671548,0.0,0.0,0.0,193.0,0.0,193.0,0.0,17.0,0.0,179.0,193.0,17.0,179.0,1744418767.3555403,0.0,2025-04-11 20:46:07.355,LEFT,30
1.0,5850.993794321274,-14410.147298592008,-21684.701345527334,-24028.549972599743,21690.937482230365,6324.716666307052,24384.657965261697,47703.74121710554,0.0,0.0,0.0,193.0,0.0,193.0,0.0,17.0,0.0,178.0,193.0,17.0,178.0,1744418767.3555777,0.0,2025-04-11 20:46:07.355,LEFT,30
2.0,5827.077427754096,-14451.47567408987,-21683.919034471397,-24076.51681620083,21832.98281824384,6230.146435516648,24752.61238248496,47721.62261266978,0.0,0.0,0.0,193.0,0.0,193.0,0.0,17.0,0.0,179.0,193.0,17.0,179.0,1744418767.3556108,0.0,2025-04-11 20:46:07.355,LEFT,30
3.0,5814.515747370213,-14469.714697565401,-21724.554505891145,-24107.00459563787,21739.10549153155,6003.812671162209,24860.97363960429,47589.680265150106,0.0,0.0,0.0,193.0,0.0,193.0,0.0,17.0,0.0,179.0,193.0,17.0,179.0,1744418767.3556428,0.0,2025-04-11 20:46:07.355,LEFT,30
4.0,5831.0336865226855,-14434.66716225948,-21726.901439058955,-24063.262231738834,21618.070795306063,6114.185585282516,24573.95488905369,47585.969875570525,0.0,0.0,0.0,193.0,0.0,193.0,0.0,17.0,0.0,179.0,193.0,17.0,179.0,1744418767.3556747,0.0,2025-04-11 20:46:07.355,LEFT,30
5.0,5862.2590735267495,-14400.871324643056,-21683.516703071204,-24029.89107726706,21644.892888652434,6280.236694840992,24330.320874490844,47659.84239099531,0.0,0.0,0.0,193.0,0.0,193.0,0.0,17.0,0.0,179.0,193.0,17.0,179.0,1744418767.3557174,0.0,2025-04-11 20:46:07.355,LEFT,30
6.0,5849.6973931428665,-14431.940249435933,-21661.76845571619,-24055.19325199047,21804.797268485698,6248.452514225544,24663.317163386007,47705.305839217406,0.0,0.0,0.0,193.0,0.0,193.0,0.0,17.0,0.0,179.0,193.0,17.0,179.0,1744418767.3557532,0.0,2025-04-11 20:46:07.355,LEFT,30
7.0,5810.4253781348925,-14465.311403907706,-21721.693482600866,-24113.307787574267,21741.944163077376,6050.572520562711,24944.278591189217,47630.27103308094,0.0,0.0,0.0,193.0,0.0,193.0,0.0,17.0,0.0,179.0,193.0,17.0,179.0,1744418767.3557885,0.0,2025-04-11 20:46:07.355,LEFT,30
8.0,5817.846157294054,-14432.90137444751,-21742.078273544106,-24075.77920863381,21602.290463720616,6091.029178026817,24743.448167258284,47598.352741998766,0.0,0.0,0.0,193.0,0.0,193.0,0.0,17.0,0.0,179.0,193.0,17.0,179.0,1744418767.3558354,0.0,2025-04-11 20:46:07.355,LEFT,30
9.0,5840.801398849654,-14411.197830581408,-21704.974377748298,-24033.534411613276,21623.211696530783,6316.513576091955,24500.99879515157,47691.13483323275,0.0,0.0,0.0,193.0,0.0,193.0,0.0,17.0,0.0,178.0,193.0,17.0,178.0,1744418767.3559163,0.0,2025-04-11 20:46:07.355,LEFT,30
10.0,5826.920965542909,-14438.466958816882,-21669.770380231188,-24059.3283247147,21871.830150107166,6306.34353236479,24748.23144057172,47738.5652349669,0.0,0.0,0.0,193.0,0.0,193.0,0.0,17.0,0.0,179.0,193.0,17.0,179.0,1744418767.3559508,0.0,2025-04-11 20:46:07.355,LEFT,30
11.0,5809.106625212029,-14471.01109874381,-21710.607017351034,-24108.524514260833,21863.023562791775,6077.752241820364,25082.568834134203,47652.935701958624,0.0,0.0,0.0,193.0,0.0,193.0,0.0,17.0,0.0,179.0,193.0,17.0,179.0,1744418767.3559852,0.0,2025-04-11 20:46:07.355,LEFT,30
12.0,5818.941392772364,-14454.515511335792,-21738.6808083869,-24082.57413894822,21687.182389161873,6061.077840456705,24904.000747680755,47573.07291901981,0.0,0.0,0.0,193.0,0.0,193.0,0.0,17.0,0.0,179.0,193.0,17.0,179.0,1744418767.3560205,0.0,2025-04-11 20:46:07.356,LEFT,30
13.0,5832.10657025654,-14422.61957199807,-21733.629314140002,-24050.29821995476,21585.861931545965,6281.935427419595,24586.225996759655,47654.58973104832,0.0,0.0,0.0,193.0,0.0,193.0,0.0,17.0,0.0,179.0,193.0,17.0,179.0,1744418767.356072,0.0,2025-04-11 20:46:07.356,LEFT,30
14.0,5824.171700974906,-14438.936345450444,-21694.73727878777,-24071.510025442843,21764.094741832585,6288.0598054003485,24672.50373035714,47698.44385366963,0.0,0.0,0.0,193.0,0.0,193.0,0.0,17.0,0.0,179.0,193.0,17.0,179.0,1744418767.3561068,0.0,2025-04-11 20:46:07.356,LEFT,30
15.0,5794.890915738454,-14482.946930282944,-21712.618674352012,-24132.66439827256,21849.634867863046,6068.655081827054,25045.040255193744,47648.01831817846,0.0,0.0,0.0,193.0,0.0,193.0,0.0,17.0,0.0,179.0,193.0,17.0,179.0,1744418767.3561416,0.0,2025-04-11 20:46:07.356,LEFT,30
16.0,5807.474947866792,-14461.28808990575,-21730.343607705072,-24105.261159570357,21662.126083627474,5960.383231685547,24899.016308667222,47535.03024995688,0.0,0.0,0.0,193.0,0.0,193.0,0.0,17.0,0.0,179.0,193.0,17.0,179.0,1744418767.3561754,0.0,2025-04-11 20:46:07.356,LEFT,30
17.0,5829.871395811009,-14429.638019757036,-21713.736261574777,-24054.32153395671,21585.593710612502,6189.980350730461,24542.37187413834,47571.39653818566,0.0,0.0,0.0,193.0,0.0,193.0,0.0,17.0,0.0,179.0,193.0,17.0,179.0,1744418767.356212,0.0,2025-04-11 20:46:07.356,LEFT,30
18.0,5843.818884351121,-14424.407711554493,-21666.90935694091,-24039.74819657185,21704.639101581466,6304.376578852723,24512.174667379222,47591.51310819544,0.0,0.0,0.0,193.0,0.0,193.0,0.0,17.0,0.0,178.0,193.0,17.0,178.0,1744418767.3562508,0.0,2025-04-11 20:46:07.356,LEFT,30
19.0,5811.095930468551,-14467.72539230888,-21686.020098450197,-24098.2874153003,21802.316224851158,6165.214617873981,24936.902515518967,47574.19050624258,0.0,0.0,0.0,193.0,0.0,193.0,0.0,17.0,0.0,179.0,193.0,17.0,179.0,1744418767.356287,0.0,2025-04-11 20:46:07.356,LEFT,30
20.0,5806.782043788677,-14470.653470832523,-21715.591456364567,-24098.510932744855,21746.526270690712,6007.321895041692,24904.224265125307,47469.092603813726,0.0,0.0,0.0,193.0,0.0,192.0,0.0,17.0,0.0,178.0,192.0,17.0,178.0,1744418767.356325,0.0,2025-04-11 20:46:07.356,LEFT,30
21.0,5817.622639849501,-14445.127778664564,-21715.412642408926,-24055.081493268193,21656.560499258103,6226.167825003604,24585.510740937083,47520.72513350548,0.0,0.0,0.0,193.0,0.0,193.0,0.0,17.0,0.0,179.0,193.0,17.0,179.0,1744418767.356376,0.0,2025-04-11 20:46:07.356,LEFT,30
22.0,5826.96566903182,-14438.265793116785,-21676.922938456886,-24044.687932096476,21722.028758767698,6339.781742069929,24477.194187306668,47592.42952971811,0.0,0.0,0.0,193.0,0.0,192.0,0.0,17.0,0.0,178.0,192.0,17.0,178.0,1744418767.356424,0.0,2025-04-11 20:46:07.356,LEFT,30
23.0,5808.748997300744,-14467.993613242343,-21670.373877331484,-24086.306880272256,21876.27814725377,6218.009438277417,24886.365221305517,47622.35851554376,0.0,0.0,0.0,193.0,0.0,193.0,0.0,17.0,0.0,179.0,193.0,17.0,179.0,1744418767.3564737,0.0,2025-04-11 20:46:07.356,LEFT,30
24.0,5815.454520637336,-14453.487331090848,-21706.606055093536,-24092.43125825301,21735.037474040684,5986.646531420533,24941.149346965474,47526.469531830495,0.0,0.0,0.0,193.0,0.0,193.0,0.0,17.0,0.0,179.0,193.0,17.0,179.0,1744418767.3565402,0.0,2025-04-11 20:46:07.356,LEFT,30
25.0,5834.3193929576155,-14413.9023916605,-21723.034587268186,-24052.198118233457,21555.709428275757,6123.5286144648335,24638.93141018527,47555.10211647775,0.0,0.0,0.0,193.0,0.0,193.0,0.0,17.0,0.0,179.0,193.0,17.0,179.0,1744418767.3565764,0.0,2025-04-11 20:46:07.356,LEFT,30
26.0,5840.82375059411,-14401.877153143545,-21694.312595643118,-24037.46831863741,21614.76273712668,6282.471869286522,24446.34877995834,47624.95131790058,0.0,0.0,0.0,193.0,0.0,193.0,0.0,17.0,0.0,179.0,193.0,17.0,179.0,1744418767.356609,0.0,2025-04-11 20:46:07.356,LEFT,30
27.0,5821.221270706806,-14438.131682650053,-21674.441894822347,-24066.458531195945,21795.36483232556,6234.147397774148,24814.30319718161,47649.582940290325,0.0,0.0,0.0,193.0,0.0,193.0,0.0,17.0,0.0,179.0,193.0,17.0,179.0,1744418767.356642,0.0,2025-04-11 20:46:07.356,LEFT,30
28.0,5808.5478316006465,-14456.236595658851,-21713.6245028525,-24097.750973433373,21744.02287531172,6020.062389381217,24980.71193465137,47549.335366408275,0.0,0.0,0.0,193.0,0.0,193.0,0.0,17.0,0.0,179.0,193.0,17.0,179.0,1744418767.3566923,0.0,2025-04-11 20:46:07.356,LEFT,30
29.0,5817.555584616135,-14430.33092383515,-21725.35916869154,-24062.14464451607,21654.526490512668,6075.986454008395,24705.003166795155,47528.12356092019,0.0,0.0,0.0,193.0,0.0,193.0,0.0,17.0,0.0,179.0,193.0,17.0,179.0,1744418767.3567266,0.0,2025-04-11 20:46:07.356,LEFT,30
30.0,5829.066733010618,-14417.702188217901,-21703.365052147514,-24035.546068614254,21656.627554491468,6260.030717853394,24462.062056310424,47596.78811988689,0.0,0.0,0.0,193.0,0.0,193.0,0.0,17.0,0.0,179.0,193.0,17.0,179.0,1744418767.3567588,0.0,2025-04-11 20:46:07.356,LEFT,30
31.0,5814.605154348034,-14458.829398015667,-21682.220301892794,-24067.419656207523,21822.812774516675,6259.9413108755725,24743.9399056363,47616.01062011845,0.0,0.0,0.0,193.0,0.0,193.0,0.0,17.0,0.0,179.0,193.0,17.0,179.0,1744418767.3567915,0.0,2025-04-11 20:46:07.356,LEFT,30
32.0,5810.581840346079,-14467.971261497887,-21705.53317135968,-24095.135819332103,21782.132599608016,6048.516160072823,24999.062716849177,47522.289755617356,0.0,0.0,0.0,193.0,0.0,193.0,0.0,17.0,0.0,179.0,193.0,17.0,179.0,1744418767.3568237,0.0,2025-04-11 20:46:07.356,LEFT,30
33.0,5815.610982848523,-14443.294935619228,-21727.59434313707,-24066.14560677357,21627.167955299374,6085.8435733131855,24784.642432289416,47486.52696448886,0.0,0.0,0.0,193.0,0.0,193.0,0.0,17.0,0.0,178.0,193.0,17.0,178.0,1744418767.3568563,0.0,2025-04-11 20:46:07.356,LEFT,30
34.0,5834.542910402169,-14408.157993335486,-21708.505953372234,-24037.825946548695,21611.02999580264,6298.453366572066,24481.910405386738,47569.2284189735,0.0,0.0,0.0,193.0,0.0,193.0,0.0,17.0,0.0,179.0,193.0,17.0,179.0,1744418767.3568892,0.0,2025-04-11 20:46:07.356,LEFT,30
35.0,5827.345648687559,-14430.129758135052,-21670.06095290911,-24053.80744383424,21787.720535721844,6306.790567253896,24670.514425100617,47622.9396608996,0.0,0.0,0.0,193.0,0.0,193.0,0.0,17.0,0.0,178.0,193.0,17.0,178.0,1744418767.3569212,0.0,2025-04-11 20:46:07.356,LEFT,30
36.0,5817.220308449306,-14459.991688727343,-21685.14838041644,-24096.43222051051,21852.473539408868,6115.057303316272,25029.304627097205,47582.41594820213,0.0,0.0,0.0,193.0,0.0,193.0,0.0,17.0,0.0,179.0,193.0,17.0,179.0,1744418767.3569536,0.0,2025-04-11 20:46:07.356,LEFT,30
37.0,5827.05507600964,-14433.504871547804,-21710.986997006774,-24074.70632489995,21694.357299132025,6052.986508963884,24871.747180431747,47509.43750255555,0.0,0.0,0.0,193.0,0.0,192.0,0.0,17.0,0.0,178.0,192.0,17.0,178.0,1744418767.356986,0.0,2025-04-11 20:46:07.356,LEFT,30
38.0,5849.317413487126,-14398.23381879733,-21708.68476732788,-24039.457623893933,21563.487835346205,6233.342734973757,24551.37962715383,47578.10206152226,0.0,0.0,0.0,193.0,0.0,193.0,0.0,17.0,0.0,179.0,193.0,17.0,179.0,1744418767.357018,0.0,2025-04-11 20:46:07.357,LEFT,30
39.0,5844.087105284585,-14417.746891706813,-21674.084266911064,-24039.882307038584,21692.63621480897,6301.470852073533,24636.942104928745,47635.27782383893,0.0,0.0,0.0,193.0,0.0,193.0,0.0,17.0,0.0,178.0,193.0,17.0,178.0,1744418767.3570657,0.0,2025-04-11 20:46:07.357,LEFT,30
40.0,5812.593497347057,-14464.730258551868,-21695.38547937697,-24098.39917402258,21797.622358515546,6171.070774921272,25041.62043829208,47612.881375894714,0.0,0.0,0.0,193.0,0.0,193.0,0.0,17.0,0.0,179.0,193.0,17.0,179.0,1744418767.357098,0.0,2025-04-11 20:46:07.357,LEFT,30
41.0,5814.716913070311,-14451.319211878683,-21721.8275930676,-24084.183464549,21701.040470724165,6062.642462568577,24948.592477869093,47524.70374401853,0.0,0.0,0.0,193.0,0.0,193.0,0.0,17.0,0.0,179.0,193.0,17.0,179.0,1744418767.35713,0.0,2025-04-11 20:46:07.357,LEFT,30
42.0,5834.475855168803,-14414.103557360597,-21719.7265290888,-24042.408054162035,21600.70348986429,6248.318403758813,24603.77211615707,47574.19050624258,0.0,0.0,0.0,193.0,0.0,193.0,0.0,17.0,0.0,179.0,193.0,17.0,179.0,1744418767.357162,0.0,2025-04-11 20:46:07.357,LEFT,30
43.0,5850.725573387811,-14407.353330535094,-21672.944327943842,-24032.23801043487,21711.568142362612,6325.409570385167,24565.215356971665,47619.743361442495,0.0,0.0,0.0,193.0,0.0,192.0,0.0,17.0,0.0,179.0,192.0,17.0,179.0,1744418767.3572083,0.0,2025-04-11 20:46:07.357,LEFT,30
44.0,5807.407892633426,-14469.312366165206,-21696.413659621914,-24100.522589745833,21854.61930687658,6203.950191015028,25002.504885495295,47603.80656764586,0.0,0.0,0.0,193.0,0.0,192.0,0.0,17.0,0.0,179.0,192.0,17.0,179.0,1744418767.357241,0.0,2025-04-11 20:46:07.357,LEFT,30
45.0,5814.694561325856,-14460.081095705164,-21727.482584414793,-24102.511895002353,21691.943310730854,6018.855395180631,24981.069562562654,47462.56589443277,0.0,0.0,0.0,193.0,0.0,193.0,0.0,17.0,0.0,179.0,193.0,17.0,179.0,1744418767.357274,0.0,2025-04-11 20:46:07.357,LEFT,30
46.0,5832.017163278719,-14418.037464384732,-21734.702197873856,-24057.47312992491,21515.096308600463,6161.571283527766,24650.531965557573,47477.42980449555,0.0,0.0,0.0,193.0,0.0,193.0,0.0,17.0,0.0,179.0,193.0,17.0,179.0,1744418767.3573065,0.0,2025-04-11 20:46:07.357,LEFT,30
47.0,5849.16095127594,-14400.826621154145,-21683.941386215854,-24032.19330694596,21631.258324534694,6270.603092980754,24504.2845015865,47536.483113346476,0.0,0.0,0.0,193.0,0.0,193.0,0.0,17.0,0.0,179.0,193.0,17.0,179.0,1744418767.3573391,0.0,2025-04-11 20:46:07.357,LEFT,30
48.0,5815.968610759808,-14457.108313692608,-21680.678031525378,-24080.316612758234,21850.305420196702,6203.637266592654,24919.132878677,47565.36156718273,0.0,0.0,0.0,193.0,0.0,192.0,0.0,17.0,0.0,179.0,192.0,17.0,179.0,1744418767.3573709,0.0,2025-04-11 20:46:07.357,LEFT,30
49.0,5803.451633864836,-14466.428991130471,-21723.414566923926,-24105.32821480372,21733.562258906637,6007.388950275058,25013.345481556116,47444.3492227017,0.0,0.0,0.0,193.0,0.0,193.0,0.0,17.0,0.0,179.0,193.0,17.0,179.0,1744418767.3574035,0.0,2025-04-11 20:46:07.357,LEFT,30
50.0,5828.86556731052,-14418.573906251659,-21730.92475306091,-24053.09218801167,21541.136090890897,6148.7637339548755,24712.89333258788,47442.71754535646,0.0,0.0,0.0,193.0,0.0,193.0,0.0,17.0,0.0,178.0,193.0,17.0,178.0,1744418767.3574357,0.0,2025-04-11 20:46:07.357,LEFT,30
51.0,5856.246454268272,-14400.267827542762,-21688.29997638464,-24030.38281564508,21571.959146494766,6322.056808716871,24499.165952106232,47509.81748221129,0.0,0.0,0.0,193.0,0.0,193.0,0.0,17.0,0.0,179.0,193.0,17.0,179.0,1744418767.3574677,0.0,2025-04-11 20:46:07.357,LEFT,30
52.0,5843.036573295185,-14438.086979161142,-21654.48178702376,-24061.451740437955,21817.78363201423,6251.469999727011,24844.165127773897,47519.272270115885,0.0,0.0,0.0,193.0,0.0,193.0,0.0,17.0,0.0,179.0,193.0,17.0,179.0,1744418767.3575,0.0,2025-04-11 20:46:07.357,LEFT,30
53.0,5826.697448098355,-14457.778866026267,-21693.016194464708,-24093.05710709776,21755.35520975056,6030.075970897195,25036.256019622808,47408.675838551026,0.0,0.0,0.0,193.0,0.0,193.0,0.0,17.0,0.0,179.0,193.0,17.0,179.0,1744418767.357532,0.0,2025-04-11 20:46:07.357,LEFT,30
54.0,5836.241642980772,-14427.13462437804,-21710.651720839945,-24053.293353711768,21587.56066412457,6119.326486507236,24771.544310038604,47379.2832945923,0.0,0.0,0.0,193.0,0.0,193.0,0.0,17.0,0.0,179.0,193.0,17.0,179.0,1744418767.3575687,0.0,2025-04-11 20:46:07.357,LEFT,30
55.0,5849.496227442769,-14401.027786854243,-21678.778133246677,-24025.443080120454,21586.37602166844,6305.9635527090495,24496.50609451605,47453.46873443946,0.0,0.0,0.0,193.0,0.0,193.0,0.0,17.0,0.0,178.0,193.0,17.0,178.0,1744418767.357616,0.0,2025-04-11 20:46:07.357,LEFT,30
56.0,5834.341744702071,-14424.161842365485,-21653.18538584535,-24059.194214247967,21772.65545995897,6263.986976621983,24761.955411667277,47508.655191499616,0.0,0.0,0.0,193.0,0.0,193.0,0.0,17.0,0.0,179.0,193.0,17.0,179.0,1744418767.357675,0.0,2025-04-11 20:46:07.357,LEFT,30
57.0,5815.767445059711,-14439.964525695388,-21694.804334021133,-24105.752897948372,21762.574823209623,6039.016668679317,25069.470711883394,47446.83026633624,0.0,0.0,0.0,193.0,0.0,193.0,0.0,17.0,0.0,179.0,193.0,17.0,179.0,1744418767.3577082,0.0,2025-04-11 20:46:07.357,LEFT,30
58.0,5813.666381080911,-14428.766301723279,-21731.416491438926,-24084.854016882662,21604.27976897714,6070.242055683381,24866.82979665158,47400.00336170237,0.0,0.0,0.0,193.0,0.0,193.0,0.0,17.0,0.0,178.0,193.0,17.0,178.0,1744418767.3577542,0.0,2025-04-11 20:46:07.357,LEFT,30
59.0,5843.707125628845,-14392.981158850333,-21714.652683097447,-24038.876478538095,21545.69584675978,6303.862488730251,24538.080339202923,47471.3054265148,0.0,0.0,0.0,193.0,0.0,193.0,0.0,17.0,0.0,179.0,193.0,17.0,179.0,1744418767.8263164,0.0,2025-04-11 20:46:07.826,LEFT,30
60.0,5852.066678055129,-14403.441775255416,-21667.691667996845,-24042.363350673124,21692.68091829788,6332.696239077597,24689.379297420895,47528.88352023167,0.0,0.0,0.0,193.0,0.0,193.0,0.0,17.0,0.0,179.0,193.0,17.0,179.0,1744418767.8264928,0.0,2025-04-11 20:46:07.826,LEFT,30
61.0,5821.131863728984,-14450.894528734032,-21698.537075345168,-24104.188275836503,21730.656532127447,6140.962975139973,25072.845825296143,47502.32964781876,0.0,0.0,0.0,193.0,0.0,193.0,0.0,17.0,0.0,179.0,193.0,17.0,179.0,1744418767.8265364,0.0,2025-04-11 20:46:07.826,LEFT,30
62.0,5817.399122404948,-14446.401828098516,-21729.06955827112,-24095.87342689913,21647.86567066499,6064.162381191538,24925.793698524678,47434.0450685078,0.0,0.0,0.0,193.0,0.0,193.0,0.0,17.0,0.0,179.0,193.0,17.0,179.0,1744418767.8265777,0.0,2025-04-11 20:46:07.826,LEFT,30
63.0,5850.30089024316,-14399.261999042274,-21711.5234388737,-24051.192289732968,21538.766805978634,6245.14445604616,24579.29695597851,47507.247031598934,0.0,0.0,0.0,193.0,0.0,193.0,0.0,17.0,0.0,179.0,193.0,17.0,179.0,1744418767.8266184,0.0,2025-04-11 20:46:07.826,LEFT,30
64.0,5855.128867045506,-14401.161897320975,-21654.41473179039,-24042.944496028962,21698.134743944975,6298.475718316522,24618.233694819653,47565.60743637174,0.0,0.0,0.0,193.0,0.0,193.0,0.0,17.0,0.0,178.0,193.0,17.0,178.0,1744418767.8266592,0.0,2025-04-11 20:46:07.826,LEFT,30
65.0,5824.1046457415405,-14441.95383095191,-21662.461359794303,-24088.85497914016,21837.073187479164,6179.832658747752,25041.754548758814,47561.494715391964,0.0,0.0,0.0,193.0,0.0,193.0,0.0,17.0,0.0,179.0,193.0,17.0,179.0,1744418767.8266995,0.0,2025-04-11 20:46:07.826,LEFT,30
66.0,5821.690657340367,-14431.828490713657,-21702.873313769498,-24081.165979047535,21675.58183378957,6060.206122422948,24956.974382039833,47468.645568924614,0.0,0.0,0.0,193.0,0.0,193.0,0.0,17.0,0.0,179.0,193.0,17.0,179.0,1744418767.82674,0.0,2025-04-11 20:46:07.826,LEFT,30
67.0,5830.609003378035,-14403.061795599675,-21719.547715133158,-24047.839528064673,21509.30720678654,6256.543845718365,24609.315348781987,47512.32087759029,0.0,0.0,0.0,193.0,0.0,193.0,0.0,17.0,0.0,178.0,193.0,17.0,178.0,1744418767.82678,0.0,2025-04-11 20:46:07.826,LEFT,30
68.0,5860.426230481414,-14375.725612130835,-21661.544938271636,-24022.13502194107,21608.12426902345,6335.467855390055,24519.483687816108,47538.159494180625,0.0,0.0,0.0,193.0,0.0,193.0,0.0,17.0,0.0,179.0,193.0,17.0,179.0,1744418767.8268285,0.0,2025-04-11 20:46:07.826,LEFT,30
69.0,5832.4418464233695,-14428.431025556449,-21664.92005168439,-24082.060048825748,21808.21708538736,6204.911316026606,24973.715838636857,47557.113773478726,0.0,0.0,0.0,193.0,0.0,192.0,0.0,17.0,0.0,178.0,192.0,17.0,178.0,1744418767.8268688,0.0,2025-04-11 20:46:07.826,LEFT,30
70.0,5828.798512077155,-14434.130720392552,-21705.756688804235,-24094.711136187452,21735.305694974148,6003.186822317461,25011.57969374415,47456.46386819647,0.0,0.0,0.0,193.0,0.0,193.0,0.0,17.0,0.0,179.0,193.0,17.0,179.0,1744418767.8269527,0.0,2025-04-11 20:46:07.826,LEFT,30
71.0,5835.884015069487,-14403.598237466604,-21730.343607705072,-24052.801615333752,21556.067056187043,6194.249533921425,24693.55907363404,47474.76994690537,0.0,0.0,0.0,193.0,0.0,193.0,0.0,17.0,0.0,179.0,193.0,17.0,179.0,1744418767.8269932,0.0,2025-04-11 20:46:07.826,LEFT,30
