Sample Index,EXG Channel 0,EXG Channel 1,EXG Channel 2,EXG Channel 3,EXG Channel 4,EXG Channel 5,EXG Channel 6,EXG Channel 7,Accel Channel 0,Accel Channel 1,Accel Channel 2,Not Used,Digital Channel 0 (D11),Digital Channel 1 (D12),Digital Channel 2 (D13),Digital Channel 3 (D17),Not Used,Digital Channel 4 (D18),Analog Channel 0,Analog Channel 1,Analog Channel 2,Timestamp,Marker Channel,Timestamp (Formatted),Stimulus_Direction,Stimulus_Number
189.0,15323.886611924961,2584.912191022896,-63645.43004577518,-61418.235173015026,-36708.18051197297,-34212.6752987713,-29230.806735850187,-22429.237953333613,0.0,0.0,0.0,193.0,1.0,155.0,0.0,10.0,3.0,251.0,411.0,10.0,1019.0,1744252685.5336719,0.0,2025-04-09 22:38:05.533,LEFT,14
190.0,15452.856177432082,2615.1541012709263,-63642.323153295896,-61435.82599590135,-36707.28644219475,-34202.460551555225,-29219.11677350006,-22433.797709202496,0.0,0.0,0.0,193.0,1.0,155.0,0.0,9.0,3.0,249.0,411.0,9.0,1017.0,1744252685.5336804,0.0,2025-04-09 22:38:05.533,LEFT,14
191.0,15413.517107190743,2630.7332671562754,-63588.45544915861,-61395.86107681526,-36628.317729034155,-34128.96801578617,-29584.277222666413,-22372.218653228123,0.0,0.0,0.0,193.0,1.0,154.0,0.0,8.0,3.0,249.0,410.0,8.0,1017.0,1744252685.5336893,0.0,2025-04-09 22:38:05.533,LEFT,14
192.0,15340.516309799708,2627.7828368881746,-63625.98402809907,-61424.60542018479,-36650.66947348946,-34152.973789331176,-29277.790102695242,-22388.28955749149,0.0,0.0,0.0,193.0,1.0,155.0,0.0,7.0,3.0,252.0,411.0,7.0,1020.0,1744252685.5336976,0.0,2025-04-09 22:38:05.533,LEFT,14
193.0,15303.300655281622,2583.1687549553817,-63648.06755162091,-61428.226402786546,-36699.4633316354,-34195.64326949636,-29302.93581520746,-22415.424575260233,0.0,0.0,0.0,193.0,1.0,155.0,0.0,7.0,3.0,251.0,411.0,7.0,1019.0,1744252685.5337064,0.0,2025-04-09 22:38:05.533,LEFT,14
194.0,15437.858156902572,2606.3475139555353,-63657.36587731432,-61425.700655663095,-36726.28542498177,-34220.00667095264,-29107.648623901445,-22440.749101728095,0.0,0.0,0.0,193.0,1.0,154.0,0.0,7.0,3.0,250.0,410.0,7.0,1018.0,1744252685.5337152,0.0,2025-04-09 22:38:05.533,LEFT,14
195.0,15438.86398540306,2641.260938794725,-63584.72270783457,-61396.53162914892,-36618.61707194055,-34113.053573733996,-29629.785374377418,-22352.90674601874,0.0,0.0,0.0,193.0,1.0,155.0,0.0,6.0,3.0,252.0,411.0,6.0,1020.0,1744252685.533724,0.0,2025-04-09 22:38:05.533,LEFT,14
196.0,15370.847627025561,2641.5291597281885,-63611.701263392126,-61401.82899258483,-36636.76668843826,-34144.435422949246,-29271.26339331429,-22381.62873764381,0.0,0.0,0.0,193.0,1.0,154.0,0.0,6.0,3.0,249.0,410.0,6.0,1017.0,1744252685.533733,0.0,2025-04-09 22:38:05.533,LEFT,14
197.0,15300.797259902629,2593.428205660368,-63650.146263855255,-61449.25939431899,-36692.489587365344,-34199.75599047613,-29367.599411916664,-22435.317627825454,0.0,0.0,0.0,193.0,1.0,155.0,0.0,6.0,3.0,250.0,411.0,6.0,1018.0,1744252685.533742,0.0,2025-04-09 22:38:05.533,LEFT,14
198.0,15421.653142172474,2606.9957145447393,-63660.629232004794,-61424.56071669587,-36739.94234084396,-34251.030892256604,-29065.31441990309,-22475.617823078373,0.0,0.0,0.0,193.0,1.0,155.0,0.0,5.0,3.0,251.0,411.0,5.0,1019.0,1744252685.5337505,0.0,2025-04-09 22:38:05.533,LEFT,14
199.0,15429.05156958718,2622.060790307616,-63611.142469780745,-61442.24094656002,-36642.019348385256,-34160.305161512515,-29630.455926711074,-22400.180685541713,0.0,0.0,0.0,193.0,1.0,154.0,0.0,5.0,3.0,250.0,410.0,5.0,1018.0,1744252685.533759,0.0,2025-04-09 22:38:05.533,LEFT,14
200.0,15372.166379948423,2629.034534577672,-63606.649769145224,-61401.516068162455,-36635.60439772659,-34158.80759463401,-29286.484931288356,-22382.366345210834,0.0,0.0,0.0,193.0,1.0,155.0,0.0,5.0,3.0,250.0,411.0,5.0,1018.0,1744252685.533768,0.0,2025-04-09 22:38:05.533,LEFT,14
201.0,15300.953722113816,2597.4515196623233,-63635.84114740386,-61451.561623997884,-36667.99207544233,-34184.80267343553,-29370.125159040115,-22412.116517080845,0.0,0.0,0.0,193.0,1.0,155.0,0.0,5.0,3.0,251.0,411.0,5.0,1019.0,1744252685.5337768,0.0,2025-04-09 22:38:05.533,LEFT,14
202.0,15412.71244439035,2612.7401128697534,-63634.634153203275,-61395.90578030417,-36722.0162417908,-34235.27291241562,-29050.875192984964,-22458.988125203625,0.0,0.0,0.0,193.0,1.0,154.0,0.0,5.0,3.0,250.0,410.0,5.0,1018.0,1744252685.5337856,0.0,2025-04-09 22:38:05.533,LEFT,14
203.0,15467.496570050309,2646.5359504861776,-63596.390318440244,-61427.98053359754,-36642.93576990793,-34143.76487061559,-29564.160652656636,-22393.475162205123,0.0,0.0,0.0,193.0,1.0,155.0,0.0,5.0,3.0,252.0,411.0,5.0,1020.0,1744252685.5337942,0.0,2025-04-09 22:38:05.533,LEFT,14
204.0,15401.044833784681,2647.6982411978533,-63588.65661485871,-61381.24303594149,-36634.196237825905,-34139.13805951334,-29356.1776705,-22379.14769400927,0.0,0.0,0.0,193.0,1.0,154.0,0.0,4.0,3.0,251.0,410.0,4.0,1019.0,1744252685.5338593,0.0,2025-04-09 22:38:05.533,LEFT,14
205.0,15314.007140875716,2614.8635285930072,-63631.03552234597,-61450.57814724185,-36659.52076429377,-34168.77647266108,-29372.360333485645,-22405.075717577427,0.0,0.0,0.0,193.0,1.0,154.0,0.0,4.0,3.0,250.0,410.0,4.0,1018.0,1744252685.533868,0.0,2025-04-09 22:38:05.533,LEFT,14
206.0,15380.347118419066,2598.4349964183566,-63639.238612561065,-61397.805678582874,-36718.32820395568,-34225.05816519954,-29096.450399929334,-22446.292334353013,0.0,0.0,0.0,193.0,1.0,155.0,0.0,4.0,3.0,252.0,411.0,4.0,1020.0,1744252685.533877,0.0,2025-04-09 22:38:05.533,LEFT,14
207.0,15465.306099093688,2633.9519183578395,-63620.709016407614,-61440.40810351469,-36666.11452890808,-34158.53937370054,-29453.430110625042,-22400.046575074983,0.0,0.0,0.0,193.0,1.0,154.0,0.0,4.0,3.0,250.0,410.0,4.0,1018.0,1744252685.5338852,0.0,2025-04-09 22:38:05.533,LEFT,14
208.0,15410.343159478089,2645.9771568747947,-63588.05311775841,-61378.06908822884,-36629.72588893484,-34128.52098089707,-29442.0977761862,-22366.65306885875,0.0,0.0,0.0,193.0,1.0,155.0,0.0,4.0,3.0,252.0,411.0,4.0,1020.0,1744252686.0186253,0.0,2025-04-09 22:38:06.018,LEFT,14
209.0,15324.043074136147,2621.367886229502,-63638.00926661602,-61450.801664686405,-36660.481889305345,-34167.25655403812,-29342.00666451534,-22413.167049070245,0.0,0.0,0.0,193.0,1.0,154.0,0.0,4.0,3.0,250.0,410.0,4.0,1018.0,1744252686.0186636,0.0,2025-04-09 22:38:06.018,LEFT,14
210.0,15356.542510574165,2597.4515196623233,-63639.77505442799,-61405.494678675495,-36711.443866663445,-34218.754973263145,-29181.275270137226,-22445.554726785987,0.0,0.0,0.0,193.0,1.0,154.0,0.0,4.0,3.0,250.0,410.0,4.0,1018.0,1744252686.0186837,0.0,2025-04-09 22:38:06.018,LEFT,14
211.0,15461.416895558465,2624.228909519781,-63640.75853118402,-61447.6053652293,-36700.98325025836,-34195.6209177519,-29320.101954949136,-22438.737444727118,0.0,0.0,0.0,193.0,1.0,155.0,0.0,4.0,3.0,252.0,411.0,4.0,1020.0,1744252686.0187037,0.0,2025-04-09 22:38:06.018,LEFT,14
212.0,15414.880563602515,2646.938281886373,-63580.028841498955,-61383.254692942464,-36625.70257493288,-34126.106992495894,-29539.93136166708,-22366.18368222519,0.0,0.0,0.0,193.0,1.0,154.0,0.0,4.0,3.0,249.0,410.0,4.0,1017.0,1744252686.0187244,0.0,2025-04-09 22:38:06.018,LEFT,14
213.0,15336.001257419737,2625.033572320172,-63625.38053099877,-61438.709370936085,-36652.25644734579,-34163.99319934764,-29297.526693049276,-22405.00866234406,0.0,0.0,0.0,193.0,1.0,154.0,0.0,4.0,3.0,251.0,410.0,4.0,1019.0,1744252686.0187447,0.0,2025-04-09 22:38:06.018,LEFT,14
214.0,15323.171356102392,2583.8616590334964,-63639.797406172445,-61427.26527777497,-36705.18537821596,-34218.620862796415,-29261.763901920785,-22453.914279212273,0.0,0.0,0.0,193.0,1.0,155.0,0.0,3.0,3.0,251.0,411.0,3.0,1019.0,1744252686.018762,0.0,2025-04-09 22:38:06.018,LEFT,14
215.0,15452.543253009708,2614.528252426178,-63643.32898179639,-61439.17875756964,-36711.846198063635,-34214.23992088317,-29183.242223649293,-22443.63247676283,0.0,0.0,0.0,193.0,1.0,154.0,0.0,3.0,3.0,250.0,410.0,3.0,1018.0,1744252686.0187798,0.0,2025-04-09 22:38:06.018,LEFT,14
216.0,15427.464595730853,2637.9305288708842,-63575.24556818552,-61394.09528900329,-36613.29735676019,-34120.69787033771,-29604.013813020447,-22357.55590886544,0.0,0.0,0.0,193.0,1.0,155.0,0.0,3.0,3.0,252.0,411.0,3.0,1020.0,1744252686.0187974,0.0,2025-04-09 22:38:06.018,LEFT,14
217.0,15349.211138392824,2625.1676827869037,-63619.12204255129,-61426.97470509705,-36642.82401118565,-34157.86882136689,-29263.440282754935,-22391.508208693052,0.0,0.0,0.0,193.0,1.0,155.0,0.0,3.0,3.0,251.0,411.0,3.0,1019.0,1744252686.0188067,0.0,2025-04-09 22:38:06.018,LEFT,14
218.0,15310.967303629794,2581.380615398957,-63637.986914871566,-61438.64231570272,-36685.135863439544,-34203.53343528908,-29327.65684457503,-22439.67621799424,0.0,0.0,0.0,193.0,1.0,154.0,0.0,3.0,3.0,249.0,410.0,3.0,1017.0,1744252686.0188158,0.0,2025-04-09 22:38:06.018,LEFT,14
219.0,15444.228404072333,2605.6993133663314,-63644.066589363414,-61423.08550156182,-36717.657651622016,-34231.09313620247,-29091.220091726795,-22468.755837530596,0.0,0.0,0.0,193.0,1.0,155.0,0.0,3.0,3.0,252.0,411.0,3.0,1020.0,1744252686.0188558,0.0,2025-04-09 22:38:06.018,LEFT,14
220.0,15441.501491248786,2640.389220760968,-63578.79949555392,-61405.40527169768,-36611.53156894822,-34121.34607092691,-29632.087604056313,-22371.682211361196,0.0,0.0,0.0,193.0,1.0,154.0,0.0,3.0,3.0,250.0,410.0,3.0,1018.0,1744252686.018865,0.0,2025-04-09 22:38:06.018,LEFT,14
221.0,15377.575502106609,2652.615624978021,-63602.71586212109,-61399.72792860603,-36628.83181915663,-34147.05057705052,-29260.489852486833,-22382.27693823301,0.0,0.0,0.0,193.0,1.0,154.0,0.0,3.0,3.0,250.0,410.0,3.0,1018.0,1744252686.018874,0.0,2025-04-09 22:38:06.018,LEFT,14
222.0,15306.876934394471,2598.8149760740966,-63640.423255017195,-61447.04657161792,-36676.552793568706,-34190.34590606045,-29357.317609467224,-22413.077642092427,0.0,0.0,0.0,193.0,1.0,155.0,0.0,3.0,3.0,252.0,411.0,3.0,1020.0,1744252686.018883,0.0,2025-04-09 22:38:06.018,LEFT,14
223.0,15405.023444297725,2584.331045667058,-63657.477636036594,-61418.65985615968,-36737.863628609615,-34249.376863166915,-29036.41361432238,-22469.471093353164,0.0,0.0,0.0,193.0,1.0,154.0,0.0,3.0,3.0,249.0,410.0,3.0,1017.0,1744252686.0188918,0.0,2025-04-09 22:38:06.018,LEFT,14
224.0,15423.62009568454,2606.7945488446417,-63609.82371685788,-61442.755036682494,-36644.85801993108,-34156.68417891076,-29614.496781169986,-22398.370194240833,0.0,0.0,0.0,193.0,1.0,155.0,0.0,3.0,3.0,251.0,411.0,3.0,1019.0,1744252686.0189006,0.0,2025-04-09 22:38:06.018,LEFT,14
225.0,15372.94869100436,2624.966517086806,-63599.78778359745,-61398.69974836108,-36632.028118613736,-34159.16522254529,-29309.19430365495,-22397.945511096183,0.0,0.0,0.0,193.0,1.0,155.0,0.0,3.0,3.0,251.0,411.0,3.0,1019.0,1744252686.0189095,0.0,2025-04-09 22:38:06.018,LEFT,14
226.0,15302.093661081037,2594.2775719496694,-63627.25807753302,-61451.38281004225,-36658.91726719347,-34183.014533879104,-29381.993935345883,-22432.456604535175,0.0,0.0,0.0,193.0,1.0,154.0,0.0,3.0,3.0,250.0,410.0,3.0,1018.0,1744252686.0189183,0.0,2025-04-09 22:38:06.018,LEFT,14
227.0,15396.2839122157,2589.94133352534,-63633.87419389179,-61401.180791995626,-36721.41274469051,-34242.26900843013,-29056.08314944305,-22480.06582022498,0.0,0.0,0.0,193.0,1.0,155.0,0.0,3.0,3.0,252.0,411.0,3.0,1020.0,1744252686.018927,0.0,2025-04-09 22:38:06.018,LEFT,14
228.0,15439.512185992264,2608.5156331677003,-63615.92574309418,-61452.410990287186,-36661.375959083554,-34165.24489703714,-29527.727309194484,-22413.256456048068,0.0,0.0,0.0,193.0,1.0,154.0,0.0,3.0,3.0,250.0,410.0,3.0,1018.0,1744252686.0189364,0.0,2025-04-09 22:38:06.018,LEFT,14
229.0,15377.307281173145,2618.797435617141,-63595.45154517312,-61394.743489592496,-36638.040737872216,-34150.82802186347,-29373.72378989742,-22392.022298815526,0.0,0.0,0.0,193.0,1.0,155.0,0.0,3.0,3.0,252.0,411.0,3.0,1020.0,1744252686.0189452,0.0,2025-04-09 22:38:06.018,LEFT,14
230.0,15294.091736566037,2589.5613538695998,-63638.769225927506,-61467.16314162769,-36670.09313942112,-34184.087417612966,-29363.598449659166,-22432.456604535175,0.0,0.0,0.0,193.0,1.0,155.0,0.0,3.0,3.0,251.0,411.0,3.0,1019.0,1744252686.0189543,0.0,2025-04-09 22:38:06.018,LEFT,14
231.0,15358.621222808508,2580.6653595763873,-63636.39994101524,-61412.15549852318,-36724.40787844752,-34236.63636882739,-29136.214153315326,-22474.50023585561,0.0,0.0,0.0,193.0,1.0,154.0,0.0,3.0,3.0,250.0,410.0,3.0,1018.0,1744252686.0189636,0.0,2025-04-09 22:38:06.018,LEFT,14
232.0,15449.369305297054,2610.996676802239,-63626.69928392164,-61461.418743302675,-36684.666476805985,-34191.709362472226,-29432.30771211478,-22456.328267613444,0.0,0.0,0.0,193.0,1.0,155.0,0.0,3.0,3.0,251.0,411.0,3.0,1019.0,1744252686.0189722,0.0,2025-04-09 22:38:06.018,LEFT,14
233.0,15389.690147601385,2614.5059006817223,-63591.271768959974,-61405.96406530906,-36635.090307604114,-34160.64043767934,-29477.726456847962,-22411.557723469465,0.0,0.0,0.0,193.0,1.0,155.0,0.0,3.0,3.0,251.0,411.0,3.0,1019.0,1744252686.0189812,0.0,2025-04-09 22:38:06.018,LEFT,14
234.0,15303.07713783707,2590.6565893479096,-63638.053970104935,-61473.01929867498,-36663.16409863998,-34188.557766504025,-29327.56743759721,-22428.165069599756,0.0,0.0,0.0,193.0,1.0,154.0,0.0,3.0,3.0,250.0,410.0,3.0,1018.0,1744252686.0189953,0.0,2025-04-09 22:38:06.018,LEFT,14
235.0,15322.344341557544,2561.107583177994,-63645.0724178639,-61436.80947265738,-36715.4671806654,-34237.709252561246,-29203.604662848076,-22467.59354681892,0.0,0.0,0.0,193.0,1.0,155.0,0.0,3.0,3.0,251.0,411.0,3.0,1019.0,1744252686.019004,0.0,2025-04-09 22:38:06.019,LEFT,14
236.0,15437.209956313367,2588.3096561801026,-63651.040333633464,-61475.38858358724,-36708.582843373166,-34225.34873787746,-29277.857157928607,-22470.320459642466,0.0,0.0,0.0,193.0,1.0,154.0,0.0,3.0,3.0,251.0,410.0,3.0,1019.0,1744252686.0190132,0.0,2025-04-09 22:38:06.019,LEFT,14
237.0,15396.798002338172,2609.074426779083,-63589.21540847009,-61417.184641025626,-36629.41296451246,-34148.30227474002,-29560.047931676858,-22396.894979106783,0.0,0.0,0.0,193.0,1.0,154.0,0.0,3.0,3.0,250.0,410.0,3.0,1018.0,1744252686.019022,0.0,2025-04-09 22:38:06.019,LEFT,14
238.0,15325.294771825646,2608.0238947896833,-63627.414539744204,-61458.80358920141,-36655.2515811028,-34177.784225676565,-29301.058268673216,-22428.612104488864,0.0,0.0,0.0,193.0,1.0,155.0,0.0,3.0,3.0,252.0,411.0,3.0,1020.0,1744252686.0190308,0.0,2025-04-09 22:38:06.019,LEFT,14
239.0,15310.855544907517,2579.74893805372,-63636.82462415989,-61443.939679138624,-36702.65963109251,-34224.72288903271,-29311.22831240038,-22478.724715557662,0.0,0.0,0.0,193.0,1.0,154.0,0.0,3.0,3.0,249.0,410.0,3.0,1017.0,1744252686.0190396,0.0,2025-04-09 22:38:06.019,LEFT,14
240.0,15446.083598862124,2602.7265313537755,-63638.746874183045,-61446.08544660634,-36717.56824464419,-34233.59653158147,-29178.235432891302,-22490.749954074618,0.0,0.0,0.0,193.0,1.0,155.0,0.0,3.0,3.0,250.0,411.0,3.0,1018.0,1744252686.0190487,0.0,2025-04-09 22:38:06.019,LEFT,14
241.0,15422.323694506133,2621.2561275072253,-63576.877245530755,-61414.86005960227,-36622.97566210934,-34140.590922902935,-29624.10803128577,-22395.643281417284,0.0,0.0,0.0,193.0,1.0,155.0,0.0,2.0,3.0,252.0,411.0,2.0,1020.0,1744252686.0190575,0.0,2025-04-09 22:38:06.019,LEFT,14
242.0,15348.920565714905,2615.6011361600326,-63614.36112098231,-61435.6024784568,-36649.50718277779,-34171.92806862928,-29265.65310545601,-22409.657825190763,0.0,0.0,0.0,193.0,1.0,154.0,0.0,3.0,3.0,249.0,410.0,3.0,1017.0,1744252686.0190663,0.0,2025-04-09 22:38:06.019,LEFT,14
243.0,15304.306483782111,2578.094908964027,-63633.717731680605,-61451.427513531155,-36690.29911640872,-34212.83176098249,-29343.90656279404,-22457.267040880568,0.0,0.0,0.0,193.0,1.0,154.0,0.0,3.0,3.0,249.0,410.0,3.0,1017.0,1744252686.0190756,0.0,2025-04-09 22:38:06.019,LEFT,14
244.0,15437.947563880392,2595.7974905726305,-63640.579717228386,-61429.120472564755,-36729.99581456135,-34246.649950343366,-29084.693382345842,-22495.801448321516,0.0,0.0,0.0,193.0,1.0,155.0,0.0,3.0,3.0,252.0,411.0,3.0,1020.0,1744252686.0190845,0.0,2025-04-09 22:38:06.019,LEFT,14
245.0,15443.826072672138,2631.582633445577,-63577.503094375505,-61423.13020505074,-36626.82016215565,-34136.61231238989,-29655.1993078231,-22401.611197186852,0.0,0.0,0.0,193.0,1.0,154.0,0.0,3.0,3.0,250.0,410.0,3.0,1018.0,1744252686.0190933,0.0,2025-04-09 22:38:06.019,LEFT,14
246.0,15371.585234592587,2634.3766015024903,-63601.08418477586,-61410.881449089225,-36644.612150742076,-34163.00972259161,-29285.680268487966,-22412.29533103649,0.0,0.0,0.0,193.0,1.0,154.0,0.0,3.0,3.0,250.0,410.0,3.0,1018.0,1744252686.0191023,0.0,2025-04-09 22:38:06.019,LEFT,14
247.0,15302.764213414695,2585.068653234083,-63636.534051481976,-61459.63060374625,-36686.43226461796,-34201.901757943844,-29385.033772591803,-22451.67910476674,0.0,0.0,0.0,193.0,1.0,155.0,0.0,2.0,3.0,252.0,411.0,2.0,1020.0,1744252686.0191116,0.0,2025-04-09 22:38:06.019,LEFT,14
248.0,15420.915534605449,2594.4787376497675,-63642.61372597382,-61414.07774854633,-36738.355366987635,-34252.39434866838,-29060.553498334113,-22493.2086459647,0.0,0.0,0.0,193.0,1.0,155.0,0.0,3.0,3.0,250.0,411.0,3.0,1018.0,1744252686.0191205,0.0,2025-04-09 22:38:06.019,LEFT,14
249.0,15445.524805250741,2618.3056972391246,-63607.96852206809,-61446.93481289564,-36660.07955790515,-34161.82508013547,-29615.43555443711,-22422.241857319103,0.0,0.0,0.0,193.0,1.0,155.0,0.0,3.0,3.0,250.0,411.0,3.0,1018.0,1744252686.019134,0.0,2025-04-09 22:38:06.019,LEFT,14
250.0,15373.351022404555,2618.7303803837754,-63610.5613244249,-61410.05443454438,-36658.69374974892,-34173.33622852996,-29342.632513360088,-22422.420671274744,0.0,0.0,0.0,193.0,1.0,155.0,0.0,2.0,3.0,252.0,411.0,2.0,1020.0,1744252686.0191429,0.0,2025-04-09 22:38:06.019,LEFT,14
251.0,15295.701062166818,2586.253295690214,-63644.066589363414,-61474.11453415329,-36684.934697739445,-34203.68989750027,-29397.438990764498,-22459.502215326098,0.0,0.0,0.0,193.0,1.0,154.0,0.0,2.0,3.0,249.0,410.0,2.0,1017.0,1744252686.0191517,0.0,2025-04-09 22:38:06.019,LEFT,14
252.0,15377.977833506804,2580.7324148097537,-63647.844034176356,-61420.38094048273,-36744.166820546016,-34259.233982471706,-29085.118065490493,-22497.16490473329,0.0,0.0,0.0,193.0,1.0,154.0,0.0,2.0,3.0,250.0,410.0,2.0,1018.0,1744252686.0191605,0.0,2025-04-09 22:38:06.019,LEFT,14
253.0,15453.839654188116,2625.704124653831,-63615.1657837827,-61456.456656033595,-36672.01538944428,-34176.39841752034,-29521.871152147192,-22439.96679067216,0.0,0.0,0.0,193.0,1.0,155.0,0.0,2.0,3.0,252.0,411.0,2.0,1020.0,1744252686.019169,0.0,2025-04-09 22:38:06.019,LEFT,14
254.0,15393.37818543651,2630.912081111918,-63585.2591497015,-61393.62590236973,-36636.67728146044,-34154.27019050958,-29405.97735714643,-22409.076679834925,0.0,0.0,0.0,193.0,1.0,155.0,0.0,2.0,3.0,250.0,411.0,2.0,1018.0,1744252686.019178,0.0,2025-04-09 22:38:06.019,LEFT,14
255.0,15297.60096044552,2586.3874061569463,-63647.1734818427,-61481.53531331245,-36681.53723258224,-34195.77737996309,-29350.500327408354,-22443.654828507286,0.0,0.0,0.0,193.0,1.0,154.0,0.0,2.0,3.0,250.0,410.0,2.0,1018.0,1744252686.0191865,0.0,2025-04-09 22:38:06.019,LEFT,14
0.0,15343.600850534542,2565.8685047469744,-63655.77890345799,-61437.949411624606,-36742.84806762315,-34255.6353516144,-29154.6319907465,-22486.12314297237,0.0,0.0,0.0,193.0,1.0,155.0,0.0,2.0,3.0,252.0,411.0,2.0,1020.0,1744252686.0191953,0.0,2025-04-09 22:38:06.019,LEFT,14
1.0,15450.844520431105,2611.0190285466947,-63640.020923617,-61475.477990565065,-36703.888977037546,-34207.6238045244,-29393.907415140562,-22458.67520078125,0.0,0.0,0.0,193.0,1.0,155.0,0.0,2.0,3.0,250.0,411.0,2.0,1018.0,1744252686.019204,0.0,2025-04-09 22:38:06.019,LEFT,14
2.0,15404.71051987535,2626.620546176499,-63587.27080670248,-61405.76289960896,-36640.03004312874,-34150.582152674455,-29508.70597466302,-22403.756964654563,0.0,0.0,0.0,193.0,1.0,154.0,0.0,2.0,3.0,249.0,410.0,2.0,1017.0,1744252686.0192125,0.0,2025-04-09 22:38:06.019,LEFT,14
3.0,15324.713626469807,2604.447615676834,-63634.902374136735,-61467.25254860551,-36670.808395243694,-34185.76379844711,-29332.12719346609,-22445.867651208362,0.0,0.0,0.0,193.0,1.0,155.0,0.0,2.0,3.0,252.0,411.0,2.0,1020.0,1744252686.0192213,0.0,2025-04-09 22:38:06.019,LEFT,14
4.0,15338.124673142991,2580.2406764317366,-63638.85863290532,-61432.58499295533,-36720.18339874547,-34234.51295310414,-29248.21874478087,-22486.413715650287,0.0,0.0,0.0,193.0,1.0,154.0,0.0,2.0,3.0,250.0,410.0,2.0,1018.0,1744252686.01923,0.0,2025-04-09 22:38:06.019,LEFT,14
5.0,15453.929061165938,2607.353342456024,-63646.50292950904,-61462.603385758805,-36722.82090459119,-34226.15340067785,-29255.773634406763,-22484.491465627132,0.0,0.0,0.0,193.0,1.0,154.0,0.0,2.0,3.0,251.0,410.0,2.0,1019.0,1744252686.0192387,0.0,2025-04-09 22:38:06.019,LEFT,14
6.0,15417.42866247042,2630.845025878552,-63578.57597810936,-61406.81343159836,-36631.15640057998,-34141.32853046996,-29593.106161726257,-22407.467354234144,0.0,0.0,0.0,193.0,1.0,154.0,0.0,2.0,3.0,250.0,410.0,2.0,1018.0,1744252686.0192473,0.0,2025-04-09 22:38:06.019,LEFT,14
7.0,15341.745655744751,2619.2891739951583,-63621.491327463555,-61447.515958251475,-36660.906572449996,-34173.62680120788,-29300.298309361737,-22442.269020351057,0.0,0.0,0.0,193.0,1.0,155.0,0.0,2.0,3.0,249.0,411.0,2.0,1017.0,1744252686.019261,0.0,2025-04-09 22:38:06.019,LEFT,14
8.0,15304.284132037656,2572.2164001722813,-63645.184176586175,-61450.68990596413,-36719.37873594508,-34220.073726186005,-29320.057251460228,-22473.382648632843,0.0,0.0,0.0,193.0,1.0,154.0,0.0,2.0,3.0,251.0,410.0,2.0,1019.0,1744252686.0192695,0.0,2025-04-09 22:38:06.019,LEFT,14
9.0,15440.316848792656,2603.9335255543624,-63644.44656901915,-61440.385751770234,-36734.287349496764,-34228.16505767883,-29146.920638909418,-22483.753858060107,0.0,0.0,0.0,193.0,1.0,155.0,0.0,2.0,3.0,250.0,411.0,2.0,1018.0,1744252686.019278,0.0,2025-04-09 22:38:06.019,LEFT,14
10.0,15431.823185899639,2637.0811625815827,-63572.473951873064,-61407.08165253182,-36624.22735979883,-34120.92138778226,-29636.647359925195,-22384.981499312104,0.0,0.0,0.0,193.0,1.0,155.0,0.0,2.0,3.0,250.0,411.0,2.0,1018.0,1744252686.0192869,0.0,2025-04-09 22:38:06.019,LEFT,14
11.0,15354.061466939625,2627.4028572324346,-63609.08610929085,-61423.15255679519,-36649.19425835541,-34157.9135248558,-29264.334352533147,-22413.167049070245,0.0,0.0,0.0,193.0,1.0,154.0,0.0,2.0,3.0,250.0,410.0,2.0,1018.0,1744252686.0192957,0.0,2025-04-09 22:38:06.019,LEFT,14
12.0,15300.283169780156,2582.4982026217226,-63632.08605433537,-61450.73460945304,-36686.56637508469,-34198.30312708654,-29364.157243270547,-22462.02796244955,0.0,0.0,0.0,193.0,1.0,155.0,0.0,2.0,3.0,252.0,411.0,2.0,1020.0,1744252686.0193045,0.0,2025-04-09 22:38:06.019,LEFT,14
13.0,15432.001999855282,2601.8324615755632,-63636.802272415436,-61419.5986294268,-36726.531294170774,-34238.20099093926,-29067.080207715062,-22499.131858245357,0.0,0.0,0.0,193.0,1.0,154.0,0.0,2.0,3.0,251.0,410.0,2.0,1019.0,1744252686.019313,0.0,2025-04-09 22:38:06.019,LEFT,14
14.0,15434.974781867837,2624.5418339421553,-63589.79655382592,-61432.830862144336,-36637.77251693875,-34141.082661280954,-29639.128403559735,-22412.92117988124,0.0,0.0,0.0,193.0,1.0,155.0,0.0,2.0,3.0,252.0,411.0,2.0,1020.0,1744252686.019322,0.0,2025-04-09 22:38:06.019,LEFT,14
15.0,15358.241243152768,2618.842139106052,-63612.70709189262,-61420.40329222719,-36658.224363115354,-34168.53060347207,-29300.834751228664,-22427.338055054912,0.0,0.0,0.0,193.0,1.0,155.0,0.0,2.0,3.0,253.0,411.0,2.0,1021.0,1744252686.0193305,0.0,2025-04-09 22:38:06.019,LEFT,14
16.0,15287.877951607461,2580.9335805098513,-63641.7196561956,-61469.800647473414,-36688.846253019125,-34199.19719686475,-29390.733467427908,-22456.931764713736,0.0,0.0,0.0,193.0,1.0,154.0,0.0,2.0,3.0,249.0,410.0,2.0,1017.0,1744252686.019339,0.0,2025-04-09 22:38:06.019,LEFT,14
17.0,15399.18963899489,2585.60509510101,-63642.88194690728,-61417.83284161483,-36740.47878271089,-34250.986188767696,-29052.37275986347,-22501.50114315762,0.0,0.0,0.0,193.0,1.0,155.0,0.0,2.0,3.0,252.0,411.0,2.0,1020.0,1744252686.0193481,0.0,2025-04-09 22:38:06.019,LEFT,14
18.0,15441.836767415616,2616.0481710491385,-63606.69447263414,-61452.32158330936,-36661.01833117227,-34164.4625859812,-29584.076056966314,-22443.74423548511,0.0,0.0,0.0,193.0,1.0,155.0,0.0,2.0,3.0,250.0,411.0,2.0,1018.0,1744252686.0193567,0.0,2025-04-09 22:38:06.019,LEFT,14
19.0,15377.3296329176,2621.747865885242,-63597.88788531875,-61404.53355366392,-36647.85315368809,-34162.5626877025,-29348.779243085297,-22424.63349397582,0.0,0.0,0.0,193.0,1.0,155.0,0.0,2.0,3.0,249.0,411.0,2.0,1017.0,1744252686.0193655,0.0,2025-04-09 22:38:06.019,LEFT,14
20.0,15301.177239558368,2592.355321926513,-63629.44854848964,-61465.01737415998,-36669.40023534301,-34182.03105712307,-29376.987144587893,-22438.40216856029,0.0,0.0,0.0,193.0,1.0,155.0,0.0,2.0,3.0,250.0,411.0,2.0,1018.0,1744252686.0193741,0.0,2025-04-09 22:38:06.019,LEFT,14
21.0,15390.360699935043,2594.3446271830353,-63619.25615301802,-61399.50441116148,-36717.97057604439,-34231.80839202504,-29097.27741447418,-22480.40109639181,0.0,0.0,0.0,193.0,1.0,155.0,0.0,2.0,3.0,252.0,411.0,2.0,1020.0,1744252686.0193827,0.0,2025-04-09 22:38:06.019,LEFT,14
22.0,15460.880453691538,2621.814921118608,-63606.314492978396,-61453.327411809856,-36669.95902895439,-34172.57626921848,-29469.143386977124,-22441.754930228584,0.0,0.0,0.0,193.0,1.0,154.0,0.0,2.0,3.0,249.0,410.0,2.0,1017.0,1744252686.0193963,0.0,2025-04-09 22:38:06.019,LEFT,14
23.0,15398.250865727767,2629.481569466778,-63577.167818208676,-61396.28575995991,-36635.20206632639,-34151.72209164168,-29425.333967844723,-22412.00475835857,0.0,0.0,0.0,193.0,1.0,155.0,0.0,2.0,3.0,252.0,411.0,2.0,1020.0,1744252686.019405,0.0,2025-04-09 22:38:06.019,LEFT,14
24.0,15313.3142367976,2599.262010963203,-63631.59431595735,-61472.92989169716,-36675.39050285703,-34195.37504856289,-29346.14173723957,-22464.665468295272,0.0,0.0,0.0,193.0,1.0,155.0,0.0,2.0,3.0,251.0,411.0,2.0,1019.0,1744252686.0194137,0.0,2025-04-09 22:38:06.019,LEFT,14
25.0,15345.992487191259,2574.6303885734546,-63640.80323467294,-61432.07090283286,-36737.304834998235,-34258.049340015576,-29190.17126443044,-22523.249390512632,0.0,0.0,0.0,193.0,1.0,155.0,0.0,2.0,3.0,250.0,411.0,2.0,1018.0,1744252686.0194223,0.0,2025-04-09 22:38:06.019,LEFT,14
26.0,15452.38679079852,2611.778987858175,-63630.67789443468,-61466.00085091602,-36705.1630264715,-34211.892987715364,-29356.42353968901,-22480.088171969437,0.0,0.0,0.0,193.0,1.0,155.0,0.0,2.0,3.0,251.0,411.0,2.0,1019.0,1744252686.019431,0.0,2025-04-09 22:38:06.019,LEFT,14
27.0,15409.806717611162,2631.6720404233984,-63571.40106813921,-61399.43735592811,-36632.788077925215,-34143.65311189331,-29532.868210419205,-22404.136944310303,0.0,0.0,0.0,193.0,1.0,154.0,0.0,2.0,3.0,250.0,410.0,2.0,1018.0,1744252686.0194397,0.0,2025-04-09 22:38:06.019,LEFT,14
28.0,15331.732074228774,2616.7634268717084,-63617.66917916169,-61457.19426360062,-36666.80743298619,-34178.968868132695,-29309.596635055143,-22434.222392347147,0.0,0.0,0.0,193.0,1.0,155.0,0.0,2.0,3.0,250.0,411.0,2.0,1018.0,1744252686.0194485,0.0,2025-04-09 22:38:06.019,LEFT,14
29.0,15334.906021941428,2589.4048916584125,-63621.893658863744,-61433.0990830778,-36712.60615737512,-34228.07565070101,-29267.17302407897,-22478.791770791027,0.0,0.0,0.0,193.0,1.0,154.0,0.0,2.0,3.0,250.0,410.0,2.0,1018.0,1744252686.019457,0.0,2025-04-09 22:38:06.019,LEFT,14
30.0,15449.3469535526,2604.3358569545576,-63636.15407182623,-61463.519807281475,-36724.07260228069,-34238.26804617263,-29204.58813960411,-22491.59932036392,0.0,0.0,0.0,193.0,1.0,154.0,0.0,2.0,3.0,250.0,410.0,2.0,1018.0,1744252686.019466,0.0,2025-04-09 22:38:06.019,LEFT,14
31.0,15406.632769898508,2611.42135994689,-63582.91221653369,-61430.953315610095,-36643.896894919504,-34162.94266735824,-29588.211129690546,-22417.972674128137,0.0,0.0,0.0,193.0,1.0,155.0,0.0,2.0,3.0,251.0,411.0,2.0,1019.0,1744252686.0194747,0.0,2025-04-09 22:38:06.019,LEFT,14
32.0,15330.010989905715,2606.682790122365,-63622.743025153046,-61460.27880433546,-36671.18837489944,-34191.485845027666,-29277.566585250686,-22450.002723932594,0.0,0.0,0.0,193.0,1.0,154.0,0.0,2.0,3.0,249.0,410.0,2.0,1017.0,1744252686.0194836,0.0,2025-04-09 22:38:06.019,LEFT,14
33.0,15298.360919757,2576.329121152058,-63636.95873462663,-61462.53633052544,-36713.85785506461,-34233.976511237204,-29333.33418766668,-22495.779096577062,0.0,0.0,0.0,193.0,1.0,155.0,0.0,2.0,3.0,253.0,411.0,2.0,1021.0,1744252686.0194924,0.0,2025-04-09 22:38:06.019,LEFT,14
34.0,15431.130281821524,2594.009351016206,-63641.49613875105,-61453.08154262085,-36741.41755597801,-34260.619790627934,-29109.839094858064,-22523.22703876818,0.0,0.0,0.0,193.0,1.0,154.0,0.0,2.0,3.0,249.0,410.0,2.0,1017.0,1744252686.019501,0.0,2025-04-09 22:38:06.019,LEFT,14
35.0,15424.692979418396,2617.098703038538,-63572.473951873064,-61430.528632465444,-36634.82208667065,-34146.78235611705,-29641.743557661004,-22426.980427143626,0.0,0.0,0.0,193.0,1.0,155.0,0.0,2.0,3.0,252.0,411.0,2.0,1020.0,1744252686.0195096,0.0,2025-04-09 22:38:06.019,LEFT,14
36.0,15361.683411798886,2620.362057729013,-63592.99285328304,-61422.571411439356,-36646.33323506513,-34160.14869930133,-29276.560756750197,-22419.693758451198,0.0,0.0,0.0,193.0,1.0,155.0,0.0,2.0,3.0,251.0,411.0,2.0,1019.0,1744252686.0195184,0.0,2025-04-09 22:38:06.019,LEFT,14
37.0,15295.03050983316,2573.8257257730634,-63624.30764726492,-61460.43526654664,-36689.1591774415,-34198.548996275546,-29363.173766514516,-22449.622744276854,0.0,0.0,0.0,193.0,1.0,154.0,0.0,2.0,3.0,250.0,410.0,2.0,1018.0,1744252686.0195315,0.0,2025-04-09 22:38:06.019,LEFT,14
38.0,15426.43641548591,2598.9267347963732,-63618.71971115109,-61414.18950726861,-36721.725669112886,-34228.83561001249,-29050.27169588467,-22475.506064356097,0.0,0.0,0.0,193.0,1.0,155.0,0.0,2.0,3.0,252.0,411.0,2.0,1020.0,1744252686.019541,0.0,2025-04-09 22:38:06.019,LEFT,14
39.0,15439.087502847613,2621.8819763519737,-63576.83254204185,-61436.764769168476,-36634.79973492619,-34139.76390835809,-29608.394754933688,-22406.95326411167,0.0,0.0,0.0,193.0,1.0,154.0,0.0,2.0,3.0,249.0,410.0,2.0,1017.0,1744252686.01955,0.0,2025-04-09 22:38:06.019,LEFT,14
40.0,15364.544435089165,2615.847005349041,-63596.323263206876,-61417.16228928117,-36650.80358395619,-34164.28377202556,-29290.28472784576,-22424.275866064534,0.0,0.0,0.0,193.0,1.0,155.0,0.0,2.0,3.0,252.0,411.0,2.0,1020.0,1744252686.0195587,0.0,2025-04-09 22:38:06.019,LEFT,14
41.0,15294.248198777224,2586.7897375571415,-63624.32999900937,-61467.565473027884,-36677.84919474712,-34187.75310370363,-29378.551766699766,-22449.24276462111,0.0,0.0,0.0,193.0,1.0,155.0,0.0,2.0,3.0,252.0,411.0,2.0,1020.0,1744252686.0195673,0.0,2025-04-09 22:38:06.019,LEFT,14
42.0,15399.413156439443,2595.9316010393622,-63623.301818764434,-61411.14967002269,-36727.581826160174,-34240.39146189588,-29051.478690085256,-22487.911282528792,0.0,0.0,0.0,193.0,1.0,155.0,0.0,2.0,3.0,251.0,411.0,2.0,1019.0,1744252686.019576,0.0,2025-04-09 22:38:06.019,LEFT,14
43.0,15446.754151195784,2620.809092618119,-63596.99381554053,-61456.322545566865,-36659.431357315945,-34160.77454814608,-29545.51929778091,-22429.506174267077,0.0,0.0,0.0,193.0,1.0,155.0,0.0,2.0,3.0,249.0,411.0,2.0,1017.0,1744252686.0195847,0.0,2025-04-09 22:38:06.019,LEFT,14
44.0,15376.301452672657,2620.13854028446,-63588.567207880886,-61407.662797887664,-36649.10485137759,-34156.6618271663,-29357.04938853376,-22419.581999728918,0.0,0.0,0.0,193.0,1.0,155.0,0.0,2.0,3.0,251.0,411.0,2.0,1019.0,1744252686.0195937,0.0,2025-04-09 22:38:06.019,LEFT,14
45.0,15296.706890667307,2591.3047899371136,-63630.141452567754,-61478.92015921118,-36679.72674128136,-34184.37799029088,-29366.772397371817,-22454.920107712762,0.0,0.0,0.0,193.0,1.0,154.0,0.0,2.0,3.0,248.0,410.0,2.0,1016.0,1744252686.0196023,0.0,2025-04-09 22:38:06.019,LEFT,14
46.0,15367.025478723703,2581.8500020325187,-63626.811042643916,-61418.704559648584,-36731.69454713995,-34235.11645020443,-29110.66610940291,-22488.91711102928,0.0,0.0,0.0,193.0,1.0,155.0,0.0,2.0,3.0,252.0,411.0,2.0,1020.0,1744252686.019611,0.0,2025-04-09 22:38:06.019,LEFT,14
47.0,15449.704581463884,2608.5156331677003,-63616.81981287239,-61468.72776373956,-36689.71797105289,-34185.38381879137,-29425.982168433926,-22452.416712333765,0.0,0.0,0.0,193.0,1.0,155.0,0.0,2.0,3.0,250.0,411.0,2.0,1018.0,1744252686.0196197,0.0,2025-04-09 22:38:06.019,LEFT,14
48.0,15391.008900524248,2614.640011148454,-63581.88403628875,-61410.65793164467,-36646.422642042955,-34157.578248688966,-29446.746939032906,-22423.851182919883,0.0,0.0,0.0,193.0,1.0,155.0,0.0,2.0,3.0,251.0,411.0,2.0,1019.0,1744252686.0196283,0.0,2025-04-09 22:38:06.019,LEFT,14
49.0,15321.204402590323,2611.6001739025323,-63615.5681151829,-61466.1573131272,-36665.376921341056,-34176.64428670934,-29333.535353366777,-22445.934706441727,0.0,0.0,0.0,193.0,1.0,154.0,0.0,2.0,3.0,250.0,410.0,2.0,1018.0,1744252686.019637,0.0,2025-04-09 22:38:06.019,LEFT,14
50.0,15338.974039432293,2579.704234564809,-63627.19102229965,-61431.512109221476,-36727.023032548794,-34229.99790072416,-29189.612470819055,-22475.818988778472,0.0,0.0,0.0,193.0,1.0,154.0,0.0,2.0,3.0,250.0,410.0,2.0,1018.0,1744252686.0196457,0.0,2025-04-09 22:38:06.019,LEFT,14
51.0,15446.955316895881,2594.6351998609543,-63628.53212696697,-61469.465371306585,-36712.069715508194,-34206.19329287926,-29293.682193002966,-22461.737389771628,0.0,0.0,0.0,193.0,1.0,155.0,0.0,2.0,3.0,251.0,411.0,2.0,1019.0,1744252686.0196545,0.0,2025-04-09 22:38:06.019,LEFT,14
52.0,15403.90585707496,2615.6681913933985,-63569.456466371594,-61412.08844328982,-36634.41975527046,-34139.473335680166,-29541.80890820133,-22396.336185495402,0.0,0.0,0.0,193.0,1.0,154.0,0.0,2.0,3.0,250.0,410.0,2.0,1018.0,1744252686.019668,0.0,2025-04-09 22:38:06.019,LEFT,14
53.0,15325.048902636636,2607.04041803365,-63614.58463842686,-61462.58103401435,-36662.69471200642,-34172.2186413072,-29288.161312122502,-22430.78022370103,0.0,0.0,0.0,193.0,1.0,155.0,0.0,2.0,3.0,252.0,411.0,2.0,1020.0,1744252686.0196767,0.0,2025-04-09 22:38:06.019,LEFT,14
54.0,15307.994521617238,2565.3767663689573,-63634.36593226981,-61455.65199323321,-36721.1668755015,-34231.56252283604,-29269.09527410213,-22490.012346507592,0.0,0.0,0.0,193.0,1.0,154.0,0.0,2.0,3.0,251.0,410.0,2.0,1019.0,1744252686.0196853,0.0,2025-04-09 22:38:06.019,LEFT,14
55.0,15434.460691745364,2591.483603892756,-63640.82558641739,-61468.705411995106,-36734.80143961924,-34236.01051998264,-29182.14698817098,-22501.63525362435,0.0,0.0,0.0,193.0,1.0,154.0,0.0,2.0,3.0,250.0,410.0,2.0,1018.0,1744252686.019694,0.0,2025-04-09 22:38:06.019,LEFT,14
56.0,15415.215839769346,2621.166720529404,-63568.003602982004,-61422.23613527252,-36632.18458082493,-34129.43740241974,-29612.216903235545,-22395.15154303927,0.0,0.0,0.0,193.0,1.0,155.0,0.0,2.0,3.0,252.0,411.0,2.0,1020.0,1744252686.0197024,0.0,2025-04-09 22:38:06.019,LEFT,14
57.0,15340.583365033075,2611.063732035605,-63606.73917612305,-61447.89593790722,-36660.41483407198,-34166.72011217119,-29264.960201377893,-22425.885191665315,0.0,0.0,0.0,193.0,1.0,155.0,0.0,2.0,3.0,251.0,411.0,2.0,1019.0,1744252686.0197113,0.0,2025-04-09 22:38:06.019,LEFT,14
58.0,15291.02954757566,2567.5001820922116,-63627.23572578857,-61464.10095263732,-36705.1630264715,-34210.216606881215,-29327.209809685926,-22463.659639794787,0.0,0.0,0.0,193.0,1.0,154.0,0.0,2.0,3.0,250.0,410.0,2.0,1018.0,1744252686.01972,0.0,2025-04-09 22:38:06.019,LEFT,14
59.0,15420.200278782879,2585.7615573121975,-63633.6730281917,-61449.326449552354,-36738.08714605417,-34244.30301717556,-29068.17544319337,-22493.16394247579,0.0,0.0,0.0,193.0,1.0,155.0,0.0,2.0,3.0,252.0,411.0,2.0,1020.0,1744252686.019729,0.0,2025-04-09 22:38:06.019,LEFT,14
60.0,15425.72115966334,2614.0141623037057,-63566.461332614585,-61436.92123137966,-36629.81529591266,-34138.981597302154,-29629.114822043757,-22403.91342686575,0.0,0.0,0.0,193.0,1.0,154.0,0.0,2.0,3.0,249.0,410.0,2.0,1017.0,1744252686.0197375,0.0,2025-04-09 22:38:06.019,LEFT,14
61.0,15360.990507720771,2618.104531539027,-63585.14739097922,-61423.621943428756,-36642.91341816347,-34155.343074243436,-29259.372265264068,-22410.06015659096,0.0,0.0,0.0,193.0,1.0,155.0,0.0,2.0,3.0,252.0,411.0,2.0,1020.0,1744252686.019746,0.0,2025-04-09 22:38:06.019,LEFT,14
62.0,15289.5096289527,2572.7304902947535,-63618.67500766218,-61468.50424629501,-36682.87833724956,-34191.88817642786,-29359.61983914612,-22456.372971102355,0.0,0.0,0.0,193.0,1.0,155.0,0.0,2.0,3.0,252.0,411.0,2.0,1020.0,1744252686.0197551,0.0,2025-04-09 22:38:06.019,LEFT,14
63.0,15410.231400755813,2588.935505024851,-63618.58560068436,-61421.20795502758,-36725.05607903672,-34236.54696184957,-29030.132774130438,-22495.443820410233,0.0,0.0,0.0,193.0,1.0,154.0,0.0,2.0,3.0,250.0,410.0,2.0,1018.0,1744252686.0197637,0.0,2025-04-09 22:38:06.019,LEFT,14
64.0,15439.489834247808,2625.8158833761076,-63570.41759138317,-61442.57622272685,-36633.43627851442,-34135.18180074475,-29587.585280845797,-22409.926046124227,0.0,0.0,0.0,193.0,1.0,154.0,0.0,2.0,3.0,250.0,410.0,2.0,1018.0,1744252686.0197723,0.0,2025-04-09 22:38:06.019,LEFT,14
65.0,15373.99922299376,2624.9888688312612,-63580.2076554546,-61410.456765944575,-36642.62284548555,-34148.16816427329,-29296.43145757097,-22412.85412464787,0.0,0.0,0.0,193.0,1.0,155.0,0.0,2.0,3.0,252.0,411.0,2.0,1020.0,1744252686.019781,0.0,2025-04-09 22:38:06.019,LEFT,14
66.0,15292.907094109905,2582.587609599544,-63623.70415016462,-61477.37788884377,-36681.5595843267,-34182.612202478915,-29368.784054372794,-22445.01828491906,0.0,0.0,0.0,193.0,1.0,154.0,0.0,2.0,3.0,249.0,410.0,2.0,1017.0,1744252686.0197897,0.0,2025-04-09 22:38:06.019,LEFT,14
67.0,15380.749449819263,2576.5302868521558,-63630.3202665234,-61427.10881556378,-36740.36702398861,-34246.560543365544,-29060.17351867837,-22501.03175652406,0.0,0.0,0.0,193.0,1.0,154.0,0.0,2.0,3.0,251.0,410.0,2.0,1019.0,1744252686.0198028,0.0,2025-04-09 22:38:06.019,LEFT,14
68.0,15436.76292142426,2609.2532407347253,-63605.84510634484,-61473.82396147537,-36672.66359003349,-34169.49172848365,-29513.578654954275,-22442.090206395413,0.0,0.0,0.0,193.0,1.0,155.0,0.0,2.0,3.0,252.0,411.0,2.0,1020.0,1744252686.0198114,0.0,2025-04-09 22:38:06.019,LEFT,14
69.0,15380.525932374709,2616.4057989604235,-63578.77714380946,-61411.52964967843,-36641.795830940704,-34147.587018917446,-29375.422522476023,-22407.869685634338,0.0,0.0,0.0,193.0,1.0,154.0,0.0,2.0,3.0,249.0,410.0,2.0,1017.0,1744252686.01982,0.0,2025-04-09 22:38:06.019,LEFT,14
70.0,15295.566951700086,2580.7324148097537,-63627.012208344015,-61488.062022693404,-36677.62567730256,-34181.494615256146,-29349.539202396776,-22444.504194796587,0.0,0.0,0.0,193.0,1.0,154.0,0.0,2.0,3.0,252.0,410.0,2.0,1020.0,1744252686.0198288,0.0,2025-04-09 22:38:06.019,LEFT,14
71.0,15349.591118048564,2561.9345977228404,-63628.28625777797,-61436.69771393511,-36731.426326206485,-34234.93763624879,-29127.00523459974,-22482.435105137243,0.0,0.0,0.0,193.0,1.0,155.0,0.0,2.0,3.0,251.0,411.0,2.0,1019.0,1744252686.0198371,0.0,2025-04-09 22:38:06.019,LEFT,14
72.0,15454.621965244052,2600.4690051637895,-63607.52148717899,-61473.242816119535,-36681.3584186266,-34178.63359196587,-29387.894795882083,-22443.453662807187,0.0,0.0,0.0,193.0,1.0,154.0,0.0,2.0,3.0,250.0,410.0,2.0,1018.0,1744252686.492634,0.0,2025-04-09 22:38:06.492,LEFT,14
73.0,15404.576409408619,2619.80326411763,-63555.88895748722,-61401.6948821181,-36620.2934527747,-34127.738669841136,-29457.29696241581,-22389.563606925443,0.0,0.0,0.0,193.0,1.0,155.0,0.0,2.0,3.0,252.0,411.0,2.0,1020.0,1744252686.492674,0.0,2025-04-09 22:38:06.492,LEFT,14
74.0,15312.464870508298,2590.8577550480077,-63614.20465877112,-61474.40510683121,-36663.87935446255,-34169.7152459282,-29290.731762734864,-22430.668464978753,0.0,0.0,0.0,193.0,1.0,154.0,0.0,2.0,3.0,250.0,410.0,2.0,1018.0,1744252686.492694,0.0,2025-04-09 22:38:06.492,LEFT,14
75.0,15327.75346371573,2560.593493055522,-63622.76537689751,-61441.19041457062,-36720.02693653428,-34225.460496599735,-29198.709630812366,-22475.528416100555,0.0,0.0,0.0,193.0,1.0,154.0,0.0,2.0,3.0,250.0,410.0,2.0,1018.0,1744252686.4927113,0.0,2025-04-09 22:38:06.492,LEFT,14
76.0,15447.558813996175,2594.4787376497675,-63623.435929231164,-61468.750115484014,-36715.89186381005,-34209.85897896993,-29250.900954115506,-22471.549805587507,0.0,0.0,0.0,193.0,1.0,155.0,0.0,2.0,3.0,252.0,411.0,2.0,1020.0,1744252686.4927316,0.0,2025-04-09 22:38:06.492,LEFT,14
77.0,15405.202258253368,2610.4602349353117,-63564.31556514688,-61415.68707414712,-36635.53734249322,-34132.23137047665,-29556.628114775198,-22395.24095001709,0.0,0.0,0.0,193.0,1.0,154.0,0.0,2.0,3.0,250.0,410.0,2.0,1018.0,1744252686.4927492,0.0,2025-04-09 22:38:06.492,LEFT,14
78.0,15328.692236982852,2602.5030139092223,-63607.05210054542,-61458.60242350131,-36657.330293337145,-34165.17784180377,-29275.08554161615,-22428.43329053322,0.0,0.0,0.0,193.0,1.0,154.0,0.0,2.0,3.0,250.0,410.0,2.0,1018.0,1744252686.4927669,0.0,2025-04-09 22:38:06.492,LEFT,14
79.0,15301.713681425295,2559.207684899293,-63626.74398741055,-61457.82011244537,-36710.99683177433,-34221.057202942044,-29284.048591142728,-22483.17271270427,0.0,0.0,0.0,193.0,1.0,155.0,0.0,2.0,3.0,251.0,411.0,2.0,1019.0,1744252686.4927845,0.0,2025-04-09 22:38:06.492,LEFT,14
80.0,15429.38684575401,2580.352435154013,-63634.99178111456,-61463.92213868167,-36733.34857622964,-34238.40215663936,-29131.185010812882,-22497.053146011014,0.0,0.0,0.0,193.0,1.0,154.0,0.0,2.0,3.0,249.0,410.0,2.0,1017.0,1744252686.492802,0.0,2025-04-09 22:38:06.492,LEFT,14
81.0,15418.032159570714,2613.656534392421,-63557.40887611019,-61423.01844632846,-36622.05924058667,-34123.71535583918,-29606.874836310726,-22389.183627269704,0.0,0.0,0.0,193.0,1.0,155.0,0.0,2.0,3.0,251.0,411.0,2.0,1019.0,1744252686.492811,0.0,2025-04-09 22:38:06.492,LEFT,14
82.0,15348.250013381245,2612.4048367029236,-63590.17653348167,-61435.53542322343,-36647.540229265716,-34150.604504418916,-29245.581238935145,-22412.29533103649,0.0,0.0,0.0,193.0,1.0,155.0,0.0,2.0,3.0,251.0,411.0,2.0,1019.0,1744252686.4928353,0.0,2025-04-09 22:38:06.492,LEFT,14
83.0,15290.001367330715,2559.1182779214714,-63620.10551930732,-61466.26907184948,-36695.574128100176,-34201.43237131028,-29332.887152777574,-22460.843319993415,0.0,0.0,0.0,193.0,1.0,154.0,0.0,2.0,3.0,250.0,410.0,2.0,1018.0,1744252686.4928443,0.0,2025-04-09 22:38:06.492,LEFT,14
84.0,15421.76490089475,2583.548734611122,-63622.87713561978,-61436.250679046,-36731.4710296954,-34232.098964702964,-29048.863535983986,-22486.63723309484,0.0,0.0,0.0,193.0,1.0,155.0,0.0,2.0,3.0,252.0,411.0,2.0,1020.0,1744252686.4928536,0.0,2025-04-09 22:38:06.492,LEFT,14
85.0,15423.240116028801,2610.5719936575883,-63572.406896639695,-61444.94550763912,-36639.91828440646,-34138.44515543523,-29621.694042884596,-22414.798726415484,0.0,0.0,0.0,193.0,1.0,154.0,0.0,2.0,3.0,251.0,410.0,2.0,1019.0,1744252686.4928625,0.0,2025-04-09 22:38:06.492,LEFT,14
86.0,15363.382144377489,2615.623487904488,-63582.66634734468,-61423.73370215103,-36643.271046074755,-34155.678350410264,-29277.90186141752,-22424.857011420372,0.0,0.0,0.0,193.0,1.0,154.0,0.0,2.0,3.0,251.0,410.0,2.0,1019.0,1744252686.492871,0.0,2025-04-09 22:38:06.492,LEFT,14
87.0,15293.868219121483,2571.3670338829797,-63613.936437837656,-61474.159237642205,-36677.804491258205,-34189.42948453778,-29364.827795604207,-22459.055180436993,0.0,0.0,0.0,193.0,1.0,155.0,0.0,2.0,3.0,251.0,411.0,2.0,1019.0,1744252686.4928796,0.0,2025-04-09 22:38:06.492,LEFT,14
88.0,15402.274179729722,2576.12795545196,-63620.28433326296,-61427.511146963974,-36733.527390185285,-34236.859886271945,-29029.84220145252,-22485.743163316627,0.0,0.0,0.0,193.0,1.0,155.0,0.0,2.0,3.0,251.0,411.0,2.0,1019.0,1744252686.4928887,0.0,2025-04-09 22:38:06.492,LEFT,14
89.0,15438.238136558311,2606.772197100186,-63580.05119324341,-61458.44596129012,-36647.115546121066,-34139.048652535515,-29569.592126559273,-22400.851237875373,0.0,0.0,0.0,193.0,1.0,154.0,0.0,2.0,3.0,249.0,410.0,2.0,1017.0,1744252686.4928973,0.0,2025-04-09 22:38:06.492,LEFT,14
90.0,15371.831103781595,2609.1414820124487,-63576.2066931971,-61415.1953357691,-36638.57717973914,-34146.894114839335,-29316.61508281411,-22402.95230185417,0.0,0.0,0.0,193.0,1.0,155.0,0.0,2.0,3.0,252.0,411.0,2.0,1020.0,1744252686.492906,0.0,2025-04-09 22:38:06.492,LEFT,14
91.0,15290.269588264178,2575.5691618405776,-63618.630304173275,-61481.53531331245,-36672.082444677646,-34177.13602508736,-29362.01147580284,-22438.737444727118,0.0,0.0,0.0,193.0,1.0,154.0,0.0,2.0,3.0,248.0,410.0,2.0,1016.0,1744252686.492915,0.0,2025-04-09 22:38:06.492,LEFT,14
92.0,15370.80292353665,2571.970530983273,-63620.75371989653,-61422.86198411727,-36727.15714301552,-34233.976511237204,-29069.494196116233,-22489.006518007103,0.0,0.0,0.0,193.0,1.0,155.0,0.0,2.0,3.0,252.0,411.0,2.0,1020.0,1744252686.4929235,0.0,2025-04-09 22:38:06.492,LEFT,14
93.0,15437.992267369304,2594.389330671946,-63613.265885504,-61480.35067085632,-36685.11351169509,-34181.60637397842,-29478.64287837063,-22463.25730839459,0.0,0.0,0.0,193.0,1.0,155.0,0.0,2.0,3.0,251.0,411.0,2.0,1019.0,1744252686.4929323,0.0,2025-04-09 22:38:06.492,LEFT,14
94.0,15378.201350951356,2600.8266330750744,-63585.95205377961,-61419.620981171254,-36654.71513923587,-34153.040844564544,-29408.301938569777,-22418.06208110596,0.0,0.0,0.0,193.0,1.0,154.0,0.0,2.0,3.0,249.0,410.0,2.0,1017.0,1744252686.4929414,0.0,2025-04-09 22:38:06.492,LEFT,14
95.0,15300.797259902629,2584.4428043893345,-63623.25711527552,-61482.809362746404,-36675.077578434655,-34174.207946563714,-29339.19034471397,-22433.26126733557,0.0,0.0,0.0,193.0,1.0,154.0,0.0,2.0,3.0,252.0,410.0,2.0,1020.0,1744252686.4929504,0.0,2025-04-09 22:38:06.492,LEFT,14
96.0,15337.118844642502,2557.88893197643,-63632.466033991106,-61443.51499599397,-36733.5720936742,-34239.855020028954,-29150.38515929999,-22488.000689506614,0.0,0.0,0.0,193.0,1.0,155.0,0.0,2.0,3.0,252.0,411.0,2.0,1020.0,1744252686.492959,0.0,2025-04-09 22:38:06.492,LEFT,14
97.0,15436.852328402083,2587.974380013273,-63623.570039697894,-61486.43034534816,-36699.17275895748,-34203.6228422669,-29348.891001807573,-22470.16399743128,0.0,0.0,0.0,193.0,1.0,155.0,0.0,2.0,3.0,251.0,411.0,2.0,1019.0,1744252686.4929733,0.0,2025-04-09 22:38:06.492,LEFT,14
98.0,15382.962272520337,2598.7032173518205,-63576.27374843047,-61427.28762951942,-36638.733641950326,-34151.52092594158,-29493.55149192232,-22418.464412506153,0.0,0.0,0.0,193.0,1.0,154.0,0.0,2.0,3.0,249.0,410.0,2.0,1017.0,1744252686.4929824,0.0,2025-04-09 22:38:06.492,LEFT,14
99.0,15306.809879161106,2588.2426009467367,-63618.80911812891,-61479.8589324783,-36668.39440684252,-34176.97956287617,-29295.22446337038,-22438.670389493753,0.0,0.0,0.0,193.0,1.0,155.0,0.0,2.0,3.0,252.0,411.0,2.0,1020.0,1744252686.4929926,0.0,2025-04-09 22:38:06.492,LEFT,14
100.0,15318.231620577768,2560.526437822156,-63622.98889434206,-61445.21372857258,-36722.53033191327,-34218.598511051954,-29231.097308528104,-22470.946308487215,0.0,0.0,0.0,193.0,1.0,155.0,0.0,2.0,3.0,251.0,411.0,2.0,1019.0,1744252686.4930012,0.0,2025-04-09 22:38:06.493,LEFT,14
101.0,15450.933927408925,2601.7207028532866,-63615.09872854933,-61457.41778104518,-36715.04249752075,-34207.065010913015,-29217.954482788384,-22478.992936491126,0.0,0.0,0.0,193.0,1.0,154.0,0.0,2.0,3.0,250.0,410.0,2.0,1018.0,1744252686.49301,0.0,2025-04-09 22:38:06.493,LEFT,14
102.0,15407.884467588005,2606.392217444446,-63561.18632092313,-61418.1457660372,-36635.805563426686,-34129.92914079775,-29565.747626512963,-22397.67729016272,0.0,0.0,0.0,193.0,1.0,155.0,0.0,2.0,3.0,252.0,411.0,2.0,1020.0,1744252686.493019,0.0,2025-04-09 22:38:06.493,LEFT,14
103.0,15337.118844642502,2607.9121360674067,-63593.4622399166,-61444.990211128024,-36651.87646769005,-34151.69973989722,-29259.394617008522,-22420.878400907328,0.0,0.0,0.0,193.0,1.0,155.0,0.0,2.0,3.0,251.0,411.0,2.0,1019.0,1744252686.4930277,0.0,2025-04-09 22:38:06.493,LEFT,14
104.0,15314.253010064724,2578.810164786597,-63600.97242605358,-61435.11074007878,-36691.59551758713,-34183.238051323664,-29286.909614433007,-22453.53429955653,0.0,0.0,0.0,193.0,1.0,154.0,0.0,2.0,3.0,251.0,410.0,2.0,1019.0,1744252686.4930365,0.0,2025-04-09 22:38:06.493,LEFT,14
105.0,15450.15161635299,2602.4359586758565,-63609.108461035314,-61430.68509467663,-36722.88795982456,-34203.801656222546,-29081.78765556665,-22466.811235762983,0.0,0.0,0.0,193.0,1.0,154.0,0.0,2.0,3.0,250.0,410.0,2.0,1018.0,1744252686.493045,0.0,2025-04-09 22:38:06.493,LEFT,14
106.0,15433.521918478242,2623.737171141764,-63547.730570761036,-61416.87171660325,-36627.758935422775,-34116.78631505803,-29604.48319965401,-22397.274958762522,0.0,0.0,0.0,193.0,1.0,155.0,0.0,2.0,3.0,252.0,411.0,2.0,1020.0,1744252686.4930537,0.0,2025-04-09 22:38:06.493,LEFT,14
107.0,15357.861263497027,2616.539909427155,-63579.78297230995,-61426.259449274476,-36653.10581363509,-34150.47039395218,-29247.68230291394,-22421.168973585245,0.0,0.0,0.0,193.0,1.0,154.0,0.0,2.0,3.0,250.0,410.0,2.0,1018.0,1744252686.4930625,0.0,2025-04-09 22:38:06.493,LEFT,14
108.0,15297.802126145618,2572.328158894558,-63606.40389995622,-61460.50232178001,-36693.897747266026,-34192.75989446162,-29343.504231393843,-22463.05614269449,0.0,0.0,0.0,193.0,1.0,154.0,0.0,2.0,3.0,249.0,410.0,2.0,1017.0,1744252686.493071,0.0,2025-04-09 22:38:06.493,LEFT,14
109.0,15421.67549391693,2588.3096561801026,-63610.516620935996,-61428.82989988684,-36735.38258497508,-34234.46824961522,-29040.168707390872,-22500.62942512386,0.0,0.0,0.0,193.0,1.0,155.0,0.0,2.0,3.0,252.0,411.0,2.0,1020.0,1744252686.4930797,0.0,2025-04-09 22:38:06.493,LEFT,14
110.0,15430.705598676874,2612.4495401918343,-63562.125094190254,-61447.091275106824,-36642.91341816347,-34142.66963513728,-29611.94868230208,-22422.174802085734,0.0,0.0,0.0,193.0,1.0,154.0,0.0,2.0,3.0,252.0,410.0,2.0,1020.0,1744252686.4930882,0.0,2025-04-09 22:38:06.493,LEFT,14
111.0,15362.868054255016,2609.163833756904,-63575.31262341889,-61425.991228341016,-36648.3001885772,-34162.115652813394,-29277.90186141752,-22432.031921390524,0.0,0.0,0.0,193.0,1.0,154.0,0.0,2.0,3.0,250.0,410.0,2.0,1018.0,1744252686.4930968,0.0,2025-04-09 22:38:06.493,LEFT,14
112.0,15298.718547668284,2581.693539821332,-63593.88692306125,-61466.604348016306,-36663.49937480681,-34179.14768208834,-29358.09992052316,-22454.83070073494,0.0,0.0,0.0,193.0,1.0,154.0,0.0,2.0,3.0,252.0,410.0,2.0,1020.0,1744252686.493111,0.0,2025-04-09 22:38:06.493,LEFT,14
113.0,15397.736775605295,2579.5477723536223,-63600.927722564666,-61418.436338715124,-36720.36221270111,-34233.46242111474,-29021.7508699597,-22488.73829707364,0.0,0.0,0.0,193.0,1.0,155.0,0.0,2.0,3.0,251.0,411.0,2.0,1019.0,1744252686.4931195,0.0,2025-04-09 22:38:06.493,LEFT,14
114.0,15438.461654002866,2601.497185408734,-63571.31166116139,-61459.78706595744,-36647.40611879899,-34146.268265994586,-29532.890562163662,-22416.698624694185,0.0,0.0,0.0,193.0,1.0,154.0,0.0,2.0,3.0,249.0,410.0,2.0,1017.0,1744252686.493128,0.0,2025-04-09 22:38:06.493,LEFT,14
115.0,15380.145952718969,2610.1920140018483,-63555.66544004267,-61404.801774597385,-36627.80363891168,-34140.23329499165,-29320.548989838244,-22404.829848388417,0.0,0.0,0.0,193.0,1.0,154.0,0.0,2.0,3.0,249.0,410.0,2.0,1017.0,1744252686.493137,0.0,2025-04-09 22:38:06.493,LEFT,14
116.0,15301.736033169751,2583.7722520556754,-63596.4126701847,-61470.31473759589,-36658.29141834872,-34167.94945811623,-29332.685987077475,-22442.023151162048,0.0,0.0,0.0,193.0,1.0,154.0,0.0,2.0,3.0,252.0,410.0,2.0,1020.0,1744252686.4931452,0.0,2025-04-09 22:38:06.493,LEFT,14
117.0,15371.920510759415,2577.3349496525466,-63602.09001327634,-61418.95042883759,-36720.60808189012,-34229.70732804624,-29079.19485320984,-22500.115335001392,0.0,0.0,0.0,193.0,1.0,155.0,0.0,2.0,3.0,252.0,411.0,2.0,1020.0,1744252686.4931538,0.0,2025-04-09 22:38:06.493,LEFT,14
118.0,15448.38582854102,2606.8616040780075,-63590.17653348167,-61467.856045705805,-36673.602363300604,-34170.49755698413,-29424.752822488885,-22453.15431990079,0.0,0.0,0.0,193.0,1.0,154.0,0.0,2.0,3.0,249.0,410.0,2.0,1017.0,1744252686.4931624,0.0,2025-04-09 22:38:06.493,LEFT,14
119.0,15382.828162053605,2605.4087406884123,-63562.81799826837,-61411.507297933975,-36637.124316349546,-34142.71433862619,-29409.307767070266,-22409.322549023935,0.0,0.0,0.0,193.0,1.0,154.0,0.0,2.0,3.0,250.0,410.0,2.0,1018.0,1744252686.493171,0.0,2025-04-09 22:38:06.493,LEFT,14
120.0,15301.22194304728,2583.7946038001305,-63612.37181572578,-61482.78701100195,-36667.99207544233,-34176.64428670934,-29312.100030434136,-22440.927915683737,0.0,0.0,0.0,193.0,1.0,155.0,0.0,2.0,3.0,252.0,411.0,2.0,1020.0,1744252686.4931796,0.0,2025-04-09 22:38:06.493,LEFT,14
121.0,15334.615449263509,2560.146458166416,-63614.696397149135,-61438.30703953589,-36721.94918655744,-34225.86282799993,-29158.945877426373,-22472.600337576907,0.0,0.0,0.0,193.0,1.0,155.0,0.0,1.0,3.0,251.0,411.0,1.0,1019.0,1744252686.4931881,0.0,2025-04-09 22:38:06.493,LEFT,14
122.0,15449.749284952795,2595.2163452167924,-63602.69351037664,-61468.99598467303,-36694.07656122167,-34190.48001652718,-29298.376059338578,-22455.68006702424,0.0,0.0,0.0,193.0,1.0,154.0,0.0,2.0,3.0,250.0,410.0,2.0,1018.0,1744252686.4931967,0.0,2025-04-09 22:38:06.493,LEFT,14
123.0,15403.212952996846,2611.711932624809,-63547.5517568054,-61410.38971071121,-36621.27692953074,-34132.56664664348,-29504.325032749777,-22406.975615856125,0.0,0.0,0.0,193.0,1.0,155.0,0.0,2.0,3.0,252.0,411.0,2.0,1020.0,1744252686.4932053,0.0,2025-04-09 22:38:06.493,LEFT,14
124.0,15317.136385099458,2595.0822347500607,-63594.93745505065,-61466.20201661611,-36654.938656680424,-34169.894059883845,-29271.576317736664,-22444.884174452327,0.0,0.0,0.0,193.0,1.0,154.0,0.0,2.0,3.0,249.0,410.0,2.0,1017.0,1744252686.493214,0.0,2025-04-09 22:38:06.493,LEFT,14
125.0,15303.4124140039,2554.558522052589,-63608.95199882412,-61451.96395539808,-36708.851064306626,-34217.1232959179,-29234.56182891868,-22473.427352121755,0.0,0.0,0.0,193.0,1.0,154.0,0.0,2.0,3.0,250.0,410.0,2.0,1018.0,1744252686.4932227,0.0,2025-04-09 22:38:06.493,LEFT,14
126.0,15435.220651056845,2588.6672840913875,-63608.57201916839,-61458.66947873467,-36713.00848877531,-34209.21077838073,-29151.23452558929,-22468.44291310822,0.0,0.0,0.0,193.0,1.0,155.0,0.0,2.0,3.0,252.0,411.0,2.0,1020.0,1744252686.4932313,0.0,2025-04-09 22:38:06.493,LEFT,14
127.0,15405.403423953465,2611.3096012246137,-63545.0483614264,-61418.03400731493,-36621.7910196532,-34121.7036988382,-29572.587260316286,-22395.01743257254,0.0,0.0,0.0,193.0,1.0,155.0,0.0,2.0,3.0,251.0,411.0,2.0,1019.0,1744252686.4932444,0.0,2025-04-09 22:38:06.493,LEFT,14
128.0,15339.711646999318,2615.779950115675,-63573.36802165127,-61435.11074007878,-36638.77834543924,-34145.553010172014,-29243.234305767335,-22421.504249752077,0.0,0.0,0.0,193.0,1.0,154.0,0.0,2.0,3.0,250.0,410.0,2.0,1018.0,1744252686.4932528,0.0,2025-04-09 22:38:06.493,LEFT,14
129.0,15303.390062259445,2573.870429261974,-63594.06573701689,-61446.93481289564,-36683.79475877223,-34190.167092104806,-29292.98928892485,-22461.02213394906,0.0,0.0,0.0,193.0,1.0,155.0,0.0,2.0,3.0,250.0,411.0,2.0,1018.0,1744252686.4932616,0.0,2025-04-09 22:38:06.493,LEFT,14
130.0,15435.086540590113,2595.104586494516,-63599.34074870834,-61432.92026912216,-36712.42734341948,-34214.17286564981,-29048.640018539434,-22474.857863766894,0.0,0.0,0.0,193.0,1.0,154.0,0.0,2.0,3.0,251.0,410.0,2.0,1019.0,1744252686.4932702,0.0,2025-04-09 22:38:06.493,LEFT,14
131.0,15423.62009568454,2613.1871477588593,-63541.248564869,-61426.52767020794,-36619.95817660787,-34120.40729765979,-29595.207225705057,-22397.699641907173,0.0,0.0,0.0,193.0,1.0,154.0,0.0,2.0,3.0,249.0,410.0,2.0,1017.0,1744252686.4932787,0.0,2025-04-09 22:38:06.493,LEFT,14
132.0,15356.676621040897,2615.556432671122,-63564.27086165796,-61423.91251610667,-36639.694766961904,-34147.4082049618,-29244.307189501193,-22421.72776719663,0.0,0.0,0.0,193.0,1.0,155.0,0.0,2.0,3.0,252.0,411.0,2.0,1020.0,1744252686.493287,0.0,2025-04-09 22:38:06.493,LEFT,14
133.0,15293.488239465743,2575.9714932407733,-63592.36700443829,-61462.53633052544,-36678.05036044721,-34183.70743795722,-29341.00083601485,-22450.405055332787,0.0,0.0,0.0,193.0,1.0,154.0,0.0,2.0,3.0,250.0,410.0,2.0,1018.0,1744252686.493296,0.0,2025-04-09 22:38:06.493,LEFT,14
134.0,15406.47630768732,2585.94037126784,-63607.83441160136,-61434.19431855611,-36734.39910821904,-34241.330235163005,-29007.959843630775,-22497.74605008913,0.0,0.0,0.0,193.0,1.0,154.0,0.0,2.0,3.0,250.0,410.0,2.0,1018.0,1744252686.4933045,0.0,2025-04-09 22:38:06.493,LEFT,14
135.0,15433.454863244877,2611.9578018138172,-63557.83355925484,-61451.49456876452,-36639.985339639825,-34141.95437931471,-29577.526995840908,-22417.235066561112,0.0,0.0,0.0,193.0,1.0,154.0,0.0,2.0,3.0,250.0,410.0,2.0,1018.0,1744252686.4933133,0.0,2025-04-09 22:38:06.493,LEFT,14
136.0,15374.46860962732,2619.0880082950603,-63555.10664643129,-61406.52285892044,-36633.771554681254,-34137.99812054612,-29270.68224795845,-22402.326453009424,0.0,0.0,0.0,193.0,1.0,154.0,0.0,2.0,3.0,249.0,410.0,2.0,1017.0,1744252686.4933217,0.0,2025-04-09 22:38:06.493,LEFT,14
137.0,15295.209323788802,2584.1075282225047,-63591.62939687126,-61466.42553406067,-36666.405101586,-34168.6647139388,-29341.514926137323,-22438.11159588237,0.0,0.0,0.0,193.0,1.0,154.0,0.0,2.0,3.0,251.0,410.0,2.0,1019.0,1744252686.4933305,0.0,2025-04-09 22:38:06.493,LEFT,14
138.0,15388.371394678521,2581.6041328435103,-63595.54095215094,-61414.70359739108,-36718.75288710033,-34221.683051786786,-29017.07935536854,-22471.88508175434,0.0,0.0,0.0,193.0,1.0,154.0,0.0,2.0,3.0,250.0,410.0,2.0,1018.0,1744252686.4933388,0.0,2025-04-09 22:38:06.493,LEFT,14
139.0,15441.657953459973,2611.935450069362,-63565.142579691725,-61453.75209495451,-36644.478040275346,-34134.913579811284,-29482.755599350407,-22402.840543131893,0.0,0.0,0.0,193.0,1.0,155.0,0.0,2.0,3.0,251.0,411.0,2.0,1019.0,1744252686.4933476,0.0,2025-04-09 22:38:06.493,LEFT,14
140.0,15371.540531103676,2614.1259210259823,-63551.86564348527,-61402.81246934086,-36627.11073483357,-34134.08656526644,-29320.884266005072,-22399.376022741322,0.0,0.0,0.0,193.0,1.0,155.0,0.0,2.0,3.0,252.0,411.0,2.0,1020.0,1744252686.4933565,0.0,2025-04-09 22:38:06.493,LEFT,14
141.0,15296.55042845612,2584.84513578953,-63590.17653348167,-61469.957109684605,-36655.720967736364,-34164.41788249229,-29319.699623548942,-22434.088281880413,0.0,0.0,0.0,193.0,1.0,154.0,0.0,2.0,3.0,252.0,410.0,2.0,1020.0,1744252686.4933653,0.0,2025-04-09 22:38:06.493,LEFT,14
142.0,15349.300545370645,2562.6722052898654,-63598.73725160805,-61421.923210850146,-36719.64695687854,-34226.935711733786,-29078.32313517608,-22477.540073101532,0.0,0.0,0.0,193.0,1.0,155.0,0.0,2.0,3.0,251.0,411.0,2.0,1019.0,1744252686.4933784,0.0,2025-04-09 22:38:06.493,LEFT,14
143.0,15442.663781960462,2598.546755140633,-63581.258187444,-61460.56937701337,-36670.473119076865,-34170.63166745087,-29369.879289851106,-22430.33318881192,0.0,0.0,0.0,193.0,1.0,154.0,0.0,2.0,3.0,251.0,410.0,2.0,1019.0,1744252686.4933867,0.0,2025-04-09 22:38:06.493,LEFT,14
144.0,15394.85340057056,2615.1093977820155,-63536.04060841091,-61388.440297656096,-36619.4440864854,-34126.889303551834,-29423.63523526612,-22379.281804476002,0.0,0.0,0.0,193.0,1.0,154.0,0.0,2.0,3.0,249.0,410.0,2.0,1017.0,1744252686.4933956,0.0,2025-04-09 22:38:06.493,LEFT,14
145.0,15321.807899690617,2604.0005807877283,-63575.625547841264,-61441.32452503736,-36639.40419428399,-34155.834812621455,-29281.522844019277,-22409.00962460156,0.0,0.0,0.0,193.0,1.0,155.0,0.0,2.0,3.0,252.0,411.0,2.0,1020.0,1744252686.493404,0.0,2025-04-09 22:38:06.493,LEFT,14
146.0,15339.801053977139,2578.9666269977843,-63584.074507245365,-61399.72792860603,-36691.796683287226,-34210.574234792504,-29152.7320924678,-22456.372971102355,0.0,0.0,0.0,193.0,1.0,154.0,0.0,2.0,3.0,249.0,410.0,2.0,1017.0,1744252686.4934127,0.0,2025-04-09 22:38:06.493,LEFT,14
147.0,15450.77746519774,2604.492319165745,-63590.668271859686,-61430.528632465444,-36685.26997390628,-34195.24093809616,-29226.11286951457,-22445.867651208362,0.0,0.0,0.0,193.0,1.0,154.0,0.0,2.0,3.0,249.0,410.0,2.0,1017.0,1744252686.4934213,0.0,2025-04-09 22:38:06.493,LEFT,14
148.0,15409.650255399974,2621.9937350742503,-63532.17375662014,-61366.62499506772,-36601.71915313234,-34114.931120268244,-29499.184131525057,-22354.89605127526,0.0,0.0,0.0,193.0,1.0,155.0,0.0,2.0,3.0,252.0,411.0,2.0,1020.0,1744252686.49343,0.0,2025-04-09 22:38:06.493,LEFT,14
149.0,15336.671809753396,2618.909194339418,-63572.63041408425,-61401.650178629185,-36624.16030456547,-34138.9592455577,-29231.92432307295,-22381.740496366085,0.0,0.0,0.0,193.0,1.0,155.0,0.0,2.0,3.0,252.0,411.0,2.0,1020.0,1744252686.4934387,0.0,2025-04-09 22:38:06.493,LEFT,14
150.0,15317.695178710841,2580.3077316651024,-63593.14931549422,-61393.02240526944,-36677.78213951375,-34194.05629564003,-29229.622093394053,-22436.658732492775,0.0,0.0,0.0,193.0,1.0,155.0,0.0,2.0,3.0,253.0,411.0,2.0,1021.0,1744252686.4934473,0.0,2025-04-09 22:38:06.493,LEFT,14
151.0,15437.902860391481,2600.9830952862617,-63607.96852206809,-61401.60547514028,-36699.01629674629,-34204.18163587828,-29102.8206470991,-22445.264154108067,0.0,0.0,0.0,193.0,1.0,155.0,0.0,2.0,3.0,252.0,411.0,2.0,1020.0,1744252686.493456,0.0,2025-04-09 22:38:06.493,LEFT,14
152.0,15413.025368812725,2615.42232220439,-63546.47887307154,-61367.13908519019,-36605.138970034,-34107.75621029809,-29572.006114960448,-22357.913536776727,0.0,0.0,0.0,193.0,1.0,154.0,0.0,2.0,3.0,250.0,410.0,2.0,1018.0,1744252686.4934647,0.0,2025-04-09 22:38:06.493,LEFT,14
153.0,15351.870995983005,2618.3056972391246,-63575.29027167443,-61375.789210294395,-36624.38382201002,-34128.54333264152,-29223.967102046863,-22373.80562708445,0.0,0.0,0.0,193.0,1.0,155.0,0.0,2.0,3.0,252.0,411.0,2.0,1020.0,1744252686.4934733,0.0,2025-04-09 22:38:06.493,LEFT,14
154.0,15303.211248303802,2574.943312995829,-63600.100708019825,-61397.805678582874,-36668.05913067569,-34178.72299894369,-29294.37509708108,-22425.080528864924,0.0,0.0,0.0,193.0,1.0,154.0,0.0,2.0,3.0,252.0,410.0,2.0,1020.0,1744252686.4934816,0.0,2025-04-09 22:38:06.493,LEFT,14
155.0,15431.756130666272,2593.003522515717,-63611.05306280292,-61379.365489407246,-36707.39820091703,-34214.08345867199,-29013.21250357777,-22448.77337798755,0.0,0.0,0.0,193.0,1.0,155.0,0.0,2.0,3.0,252.0,411.0,2.0,1020.0,1744252686.4934905,0.0,2025-04-09 22:38:06.493,LEFT,14
156.0,15433.566621967153,2622.038438563161,-63550.63629754023,-61374.02342248242,-36607.66471715745,-34105.20811143018,-29577.482292351997,-22356.81830129842,0.0,0.0,0.0,193.0,1.0,154.0,0.0,2.0,3.0,250.0,410.0,2.0,1018.0,1744252686.4934993,0.0,2025-04-09 22:38:06.493,LEFT,14
157.0,15360.409362364933,2618.6409734059544,-63577.43603914214,-61366.08855320079,-36628.00480461178,-34134.19832398872,-29222.69305261291,-22379.170045753723,0.0,0.0,0.0,193.0,1.0,154.0,0.0,2.0,3.0,251.0,410.0,2.0,1019.0,1744252686.4935124,0.0,2025-04-09 22:38:06.493,LEFT,14
158.0,15294.605826688508,2581.1570979544044,-63602.06766153189,-61404.62296064174,-36658.96197068238,-34162.897963869334,-29330.294350420758,-22416.43040376072,0.0,0.0,0.0,193.0,1.0,155.0,0.0,2.0,3.0,252.0,411.0,2.0,1020.0,1744252686.4935212,0.0,2025-04-09 22:38:06.493,LEFT,14
159.0,15411.52780193422,2590.3660166699906,-63602.98408305456,-61354.35388736176,-36705.78887531625,-34207.31088010203,-28997.342765014502,-22452.506119311587,0.0,0.0,0.0,193.0,1.0,154.0,0.0,2.0,3.0,250.0,410.0,2.0,1018.0,1744252686.4935298,0.0,2025-04-09 22:38:06.493,LEFT,14
160.0,15441.613249971064,2615.6681913933985,-63565.38844888073,-61387.47917264452,-36621.65690918647,-34119.8038005595,-29547.106271637236,-22385.42853420121,0.0,0.0,0.0,193.0,1.0,154.0,0.0,2.0,3.0,250.0,410.0,2.0,1018.0,1744252686.4935384,0.0,2025-04-09 22:38:06.493,LEFT,14
161.0,15374.490961371775,2614.3941419594457,-63568.495341360016,-61351.33640186029,-36622.238054542315,-34131.06907976497,-29264.73668393334,-22386.255548746056,0.0,0.0,0.0,193.0,1.0,155.0,0.0,2.0,3.0,251.0,411.0,2.0,1019.0,1744252686.4935472,0.0,2025-04-09 22:38:06.493,LEFT,14
162.0,15289.442573719332,2578.6313508309545,-63615.65752216071,-61424.29249576241,-36664.84047947413,-34171.59279246245,-29328.573266097697,-22432.81423244646,0.0,0.0,0.0,193.0,1.0,154.0,0.0,2.0,3.0,250.0,410.0,2.0,1018.0,1744252686.493556,0.0,2025-04-09 22:38:06.493,LEFT,14
163.0,15375.072106727614,2577.044376974628,-63613.087071548354,-61364.79215202238,-36715.69069810995,-34218.71026977423,-29036.83829746703,-22464.576061317453,0.0,0.0,0.0,193.0,1.0,154.0,0.0,2.0,3.0,252.0,410.0,2.0,1020.0,1744252686.4935648,0.0,2025-04-09 22:38:06.493,LEFT,14
164.0,15448.564642496664,2615.0870460375604,-63577.793667053425,-61397.6939198606,-36639.694766961904,-34130.51028615359,-29465.857680542194,-22392.15640928226,0.0,0.0,0.0,193.0,1.0,155.0,0.0,2.0,3.0,251.0,411.0,2.0,1019.0,1744252686.4935768,0.0,2025-04-09 22:38:06.493,LEFT,14
165.0,15390.628920868508,2622.8878048524625,-63551.12803591824,-61336.31602958632,-36608.111752046556,-34110.86310277737,-29357.697589122963,-22370.005830527047,0.0,0.0,0.0,193.0,1.0,154.0,0.0,2.0,3.0,249.0,410.0,2.0,1017.0,1744252686.493587,0.0,2025-04-09 22:38:06.493,LEFT,14
166.0,15303.099489581526,2595.5963248725325,-63596.43502192915,-61409.71915837755,-36634.889141904016,-34140.36740545838,-29303.60636754112,-22397.498476207074,0.0,0.0,0.0,193.0,1.0,155.0,0.0,2.0,3.0,252.0,411.0,2.0,1020.0,1744252686.4935956,0.0,2025-04-09 22:38:06.493,LEFT,14
167.0,15348.093551170059,2574.161001939893,-63601.24064698704,-61366.200311923065,-36690.88026176456,-34200.493598043155,-29091.510664404712,-22443.610125018375,0.0,0.0,0.0,193.0,1.0,155.0,0.0,2.0,3.0,252.0,411.0,2.0,1020.0,1744252686.4936044,0.0,2025-04-09 22:38:06.493,LEFT,14
168.0,15450.710409964373,2603.821766832086,-63592.746984094025,-61409.9426758221,-36659.92309569396,-34159.813423134496,-29320.66074856052,-22419.760813684563,0.0,0.0,0.0,193.0,1.0,154.0,0.0,2.0,3.0,251.0,410.0,2.0,1019.0,1744252686.4936128,0.0,2025-04-09 22:38:06.493,LEFT,14
169.0,15393.735813347796,2614.483548937267,-63549.07167542836,-61348.4306750811,-36606.636536912505,-34110.12549521035,-29443.036549453325,-22363.18854846818,0.0,0.0,0.0,193.0,1.0,154.0,0.0,2.0,3.0,250.0,410.0,2.0,1018.0,1744252686.4936216,0.0,2025-04-09 22:38:06.493,LEFT,14
170.0,15313.26953330869,2602.815938331597,-63594.93745505065,-61409.38388221072,-36632.54220873621,-34140.0097775471,-29270.32462004717,-22392.15640928226,0.0,0.0,0.0,193.0,1.0,154.0,0.0,2.0,3.0,251.0,410.0,2.0,1019.0,1744252686.49363,0.0,2025-04-09 22:38:06.493,LEFT,14
171.0,15327.798167204639,2571.0988129495163,-63594.60217888382,-61373.062297470846,-36676.284572635246,-34188.96009790422,-29178.704819524864,-22432.277790579534,0.0,0.0,0.0,193.0,1.0,154.0,0.0,2.0,3.0,249.0,410.0,2.0,1017.0,1744252686.4936385,0.0,2025-04-09 22:38:06.493,LEFT,14
172.0,15447.96114539637,2594.9257725388734,-63596.23385622905,-61398.61034138326,-36673.602363300604,-34179.259440810616,-29174.703857267366,-22429.662636478264,0.0,0.0,0.0,193.0,1.0,155.0,0.0,2.0,3.0,252.0,411.0,2.0,1020.0,1744252686.493652,0.0,2025-04-09 22:38:06.493,LEFT,14
173.0,15409.493793188787,2618.6186216614988,-63532.53138453143,-61345.435541324085,-36589.09041751509,-34100.17896892774,-29516.260864288914,-22361.154539722746,0.0,0.0,0.0,193.0,1.0,154.0,0.0,2.0,3.0,250.0,410.0,2.0,1018.0,1744252686.4936607,0.0,2025-04-09 22:38:06.493,LEFT,14
174.0,15326.501766026231,2602.525365653678,-63583.11338223379,-61396.15164949318,-36624.98731911032,-34145.86593459439,-29227.006939292783,-22403.399336743278,0.0,0.0,0.0,193.0,1.0,154.0,0.0,2.0,3.0,250.0,410.0,2.0,1018.0,1744252686.4936693,0.0,2025-04-09 22:38:06.493,LEFT,14
175.0,15295.03050983316,2551.809257484586,-63608.70612963512,-61406.09817577579,-36678.96678196988,-34201.09709514345,-29252.01854133827,-22444.191270374213,0.0,0.0,0.0,193.0,1.0,155.0,0.0,2.0,3.0,251.0,411.0,2.0,1019.0,1744252686.4936779,0.0,2025-04-09 22:38:06.493,LEFT,14
176.0,15429.319790520643,2578.2066676863037,-63616.32807449438,-61403.86300133026,-36705.85593054962,-34216.85507498444,-29082.547614878134,-22460.3515816154,0.0,0.0,0.0,193.0,1.0,155.0,0.0,2.0,3.0,250.0,411.0,2.0,1018.0,1744252686.4936864,0.0,2025-04-09 22:38:06.493,LEFT,14
177.0,15419.149746793479,2613.164796014404,-63544.82484398185,-61371.34121314779,-36602.166188021445,-34108.73968705412,-29590.625118091717,-22362.920327534717,0.0,0.0,0.0,193.0,1.0,155.0,0.0,8.0,3.0,250.0,411.0,8.0,1018.0,1744252686.4936948,0.0,2025-04-09 22:38:06.493,LEFT,14
178.0,15351.915699471916,2615.8023018601302,-63569.903501260706,-61375.54334110539,-36618.460609729365,-34134.04186177753,-29224.704709613885,-22377.94069980868,0.0,0.0,0.0,193.0,1.0,155.0,0.0,19.0,3.0,251.0,411.0,19.0,1019.0,1744252686.4937036,0.0,2025-04-09 22:38:06.493,LEFT,14
179.0,15290.448402219821,2566.2261326582593,-63599.3631004528,-61409.16036476617,-36662.6053050286,-34180.153510588825,-29309.4178210995,-22421.72776719663,0.0,0.0,0.0,193.0,1.0,154.0,0.0,29.0,3.0,249.0,410.0,29.0,1017.0,1744252686.4937124,0.0,2025-04-09 22:38:06.493,LEFT,14
180.0,15420.267334016246,2581.693539821332,-63602.35823420981,-61377.82321903983,-36700.670325835985,-34220.990147708675,-29011.26790181016,-22462.40794210529,0.0,0.0,0.0,193.0,1.0,155.0,0.0,37.0,3.0,252.0,411.0,37.0,1020.0,1744252686.4937215,0.0,2025-04-09 22:38:06.493,LEFT,14
181.0,15420.66966541644,2600.9830952862617,-63559.93462323363,-61396.46457391555,-36616.091324817105,-34136.79112634553,-29593.82141754883,-22412.85412464787,0.0,0.0,0.0,193.0,1.0,154.0,0.0,39.0,3.0,248.0,410.0,39.0,1016.0,1744252686.49373,0.0,2025-04-09 22:38:06.493,LEFT,14
182.0,15347.288888369667,2597.8091475736082,-63579.604158354305,-61379.834876040804,-36632.072822102644,-34154.27019050958,-29263.26146879929,-22405.545104210985,0.0,0.0,0.0,193.0,1.0,154.0,0.0,39.0,3.0,251.0,410.0,39.0,1019.0,1744252686.4937384,0.0,2025-04-09 22:38:06.493,LEFT,14
183.0,15281.530056182153,2566.9637402252843,-63598.91606556369,-61418.5480974374,-36647.02613914325,-34167.34596101594,-29346.007626772836,-22403.086412320903,0.0,0.0,0.0,193.0,1.0,155.0,0.0,38.0,3.0,252.0,411.0,38.0,1020.0,1744252686.4937472,0.0,2025-04-09 22:38:06.493,LEFT,14
184.0,15388.930188289904,2579.9277520093624,-63604.839277844345,-61369.73188754701,-36697.45167463442,-34222.666528542824,-28995.08523882452,-22453.891927467816,0.0,0.0,0.0,193.0,1.0,154.0,0.0,39.0,3.0,251.0,410.0,39.0,1019.0,1744252686.493756,0.0,2025-04-09 22:38:06.493,LEFT,14
185.0,15431.264392288256,2607.196880244837,-63568.29417565992,-61403.57242865234,-36617.38772599551,-34130.51028615359,-29528.822544672796,-22382.992194055583,0.0,0.0,0.0,193.0,1.0,154.0,0.0,38.0,3.0,250.0,410.0,38.0,1018.0,1744252686.4937644,0.0,2025-04-09 22:38:06.493,LEFT,14
186.0,15370.646461325463,2611.8683948359962,-63555.10664643129,-61347.76012274744,-36603.350830477575,-34120.69787033771,-29290.70941099041,-22361.020429256016,0.0,0.0,0.0,193.0,1.0,155.0,0.0,38.0,3.0,252.0,411.0,38.0,1020.0,1744252686.493812,0.0,2025-04-09 22:38:06.493,LEFT,14
187.0,15290.604864431009,2581.1794496988596,-63596.0103387845,-61415.30709449138,-36633.63744421452,-34151.05153930802,-29324.70641430693,-22397.85610411836,0.0,0.0,0.0,193.0,1.0,154.0,0.0,39.0,3.0,249.0,410.0,39.0,1017.0,1744252686.4938211,0.0,2025-04-09 22:38:06.493,LEFT,14
188.0,15357.727153030295,2565.2203041577704,-63605.82275460038,-61367.72023054603,-36698.16693045699,-34219.33611861898,-29041.7556812472,-22457.11057866938,0.0,0.0,0.0,193.0,1.0,155.0,0.0,39.0,3.0,252.0,411.0,39.0,1020.0,1744252686.4938297,0.0,2025-04-09 22:38:06.493,LEFT,14
189.0,15425.832918385617,2589.583705614055,-63595.29508296193,-61421.789100383416,-36653.70931073539,-34161.93683885775,-29427.703252756986,-22423.91823815325,0.0,0.0,0.0,193.0,1.0,154.0,0.0,39.0,3.0,250.0,410.0,39.0,1018.0,1744252686.4938383,0.0,2025-04-09 22:38:06.493,LEFT,14
190.0,15371.361717148033,2602.5700691425886,-63558.43705635513,-61356.92433797412,-36612.224473026334,-34126.21875121817,-29393.460380251454,-22382.90278707776,0.0,0.0,0.0,193.0,1.0,154.0,0.0,39.0,3.0,250.0,410.0,39.0,1018.0,1744252686.493847,0.0,2025-04-09 22:38:06.493,LEFT,14
191.0,15299.903190124416,2591.327141681569,-63592.2105422271,-61413.78717586842,-36630.619958713054,-34142.04378629253,-29303.00287044083,-22397.72199365163,0.0,0.0,0.0,193.0,1.0,155.0,0.0,40.0,3.0,252.0,411.0,40.0,1020.0,1744252686.4938557,0.0,2025-04-09 22:38:06.493,LEFT,14
192.0,15330.569783517098,2561.196990155815,-63604.19107725514,-61375.856265527764,-36694.32243041068,-34207.46734231321,-29127.273455533203,-22452.081436166936,0.0,0.0,0.0,193.0,1.0,154.0,0.0,40.0,3.0,250.0,410.0,40.0,1018.0,1744252686.972068,0.0,2025-04-09 22:38:06.972,LEFT,14
193.0,15437.344066780099,2590.2095544588037,-63594.19984748362,-61412.73664387902,-36662.31473235068,-34171.771606418086,-29296.766733737797,-22429.595581244896,0.0,0.0,0.0,193.0,1.0,154.0,0.0,40.0,3.0,252.0,410.0,40.0,1020.0,1744252686.972119,0.0,2025-04-09 22:38:06.972,LEFT,14
194.0,15391.724156346818,2605.4981476662338,-63539.39337007921,-61349.72707625951,-36596.019458296236,-34110.70664056619,-29469.232793954947,-22364.082618246393,0.0,0.0,0.0,193.0,1.0,154.0,0.0,40.0,3.0,249.0,410.0,40.0,1017.0,1744252686.972148,0.0,2025-04-09 22:38:06.972,LEFT,14
195.0,15311.257876307713,2592.1541562264156,-63589.953016037114,-61410.1438415222,-36630.95523487988,-34148.03405380655,-29256.69005592943,-22404.651034432776,0.0,0.0,0.0,193.0,1.0,154.0,0.0,41.0,3.0,250.0,410.0,41.0,1018.0,1744252686.9721744,0.0,2025-04-09 22:38:06.972,LEFT,14
196.0,15315.817632176595,2567.097850692016,-63590.020071270475,-61380.617187096745,-36671.903630722,-34194.23510959567,-29206.756258816276,-22444.48184305213,0.0,0.0,0.0,193.0,1.0,154.0,0.0,41.0,3.0,251.0,410.0,41.0,1019.0,1744252686.972198,0.0,2025-04-09 22:38:06.972,LEFT,14
197.0,15431.890241133004,2588.913153280396,-63602.67115863218,-61407.55103916539,-36687.63925881854,-34205.34392658996,-29149.513441266234,-22468.375857874857,0.0,0.0,0.0,193.0,1.0,154.0,0.0,41.0,3.0,252.0,410.0,41.0,1020.0,1744252686.9722247,0.0,2025-04-09 22:38:06.972,LEFT,14
198.0,15395.56865639313,2613.0977407810383,-63541.47208231355,-61366.08855320079,-36599.662792642455,-34120.13907672633,-29553.90120195165,-22389.42949645871,0.0,0.0,0.0,193.0,1.0,154.0,0.0,41.0,3.0,249.0,410.0,41.0,1017.0,1744252686.9722412,0.0,2025-04-09 22:38:06.972,LEFT,14
199.0,15318.477489766776,2596.579801628566,-63583.69452758963,-61398.11860300525,-36629.90470289048,-34151.45387070822,-29229.487982927323,-22414.19522931519,0.0,0.0,0.0,193.0,1.0,155.0,0.0,41.0,3.0,252.0,411.0,41.0,1020.0,1744252686.9722571,0.0,2025-04-09 22:38:06.972,LEFT,14
200.0,15290.202533030813,2560.749955266709,-63595.31743470638,-61399.92909430613,-36672.35066561111,-34183.34981004594,-29279.5111870183,-22441.62081976185,0.0,0.0,0.0,193.0,1.0,154.0,0.0,42.0,3.0,250.0,410.0,42.0,1018.0,1744252686.9722729,0.0,2025-04-09 22:38:06.972,LEFT,14
201.0,15418.210973526357,2580.710063065298,-63605.84510634484,-61393.402384925175,-36708.582843373166,-34206.52856904609,-29055.680818042856,-22457.401151347298,0.0,0.0,0.0,193.0,1.0,155.0,0.0,42.0,3.0,251.0,411.0,42.0,1019.0,1744252686.9723248,0.0,2025-04-09 22:38:06.972,LEFT,14
202.0,15412.041892056692,2615.221156504292,-63539.77334973495,-61375.54334110539,-36605.07191480064,-34108.96320449867,-29598.71644958454,-22383.081601033402,0.0,0.0,0.0,193.0,1.0,155.0,0.0,42.0,3.0,251.0,411.0,42.0,1019.0,1744252686.9723434,0.0,2025-04-09 22:38:06.972,LEFT,14
203.0,15337.744693487251,2607.04041803365,-63570.372887894264,-61381.39949815268,-36625.590816210606,-34141.95437931471,-29220.569636889653,-22404.695737921684,0.0,0.0,0.0,193.0,1.0,154.0,0.0,42.0,3.0,249.0,410.0,42.0,1017.0,1744252686.9723573,0.0,2025-04-09 22:38:06.972,LEFT,14
204.0,15269.616576387476,2558.358318609991,-63605.66629238919,-61424.225440529044,-36671.92598246646,-34180.444083266746,-29313.2176176569,-22434.06593013596,0.0,0.0,0.0,193.0,1.0,154.0,0.0,42.0,3.0,250.0,410.0,42.0,1018.0,1744252686.972366,0.0,2025-04-09 22:38:06.972,LEFT,14
205.0,15402.005958796259,2584.8227840450745,-63605.95686506711,-61380.77364930793,-36714.0143172758,-34213.74818250516,-29001.03080284963,-22457.512910069574,0.0,0.0,0.0,193.0,1.0,155.0,0.0,42.0,3.0,252.0,411.0,42.0,1020.0,1744252686.972375,0.0,2025-04-09 22:38:06.972,LEFT,14
206.0,15424.044778829191,2612.8965750809402,-63552.08916092982,-61392.57537038033,-36614.14672304949,-34104.76107654108,-29579.67276330862,-22371.32458344991,0.0,0.0,0.0,193.0,1.0,155.0,0.0,42.0,3.0,249.0,411.0,42.0,1017.0,1744252686.972384,0.0,2025-04-09 22:38:06.972,LEFT,14
207.0,15351.55807156063,2604.8275953325747,-63564.69554480261,-61367.407306123656,-36621.72396441984,-34122.687175594234,-29249.850422126106,-22378.58890039789,0.0,0.0,0.0,193.0,1.0,155.0,0.0,42.0,3.0,252.0,411.0,42.0,1020.0,1744252686.9723933,0.0,2025-04-09 22:38:06.972,LEFT,14
208.0,15260.4523611608,2552.9268447073514,-63619.74789139604,-61444.63258321674,-36672.3059621222,-34172.57626921848,-29329.936722509472,-22433.1942121022,0.0,0.0,0.0,193.0,1.0,154.0,0.0,43.0,3.0,250.0,410.0,43.0,1018.0,1744252686.972402,0.0,2025-04-09 22:38:06.972,LEFT,14
209.0,15361.594004821063,2562.5380948231336,-63619.30085650693,-61387.52387613343,-36718.46231442241,-34222.9794529652,-29011.089087854518,-22473.852035266405,0.0,0.0,0.0,193.0,1.0,155.0,0.0,43.0,3.0,250.0,411.0,43.0,1018.0,1744252686.9724116,0.0,2025-04-09 22:38:06.972,LEFT,14
210.0,15417.138089792501,2596.356284184013,-63584.45448690111,-61425.32067600736,-36639.80652568418,-34136.07587052296,-29503.40861122711,-22403.66755767674,0.0,0.0,0.0,193.0,1.0,154.0,0.0,42.0,3.0,251.0,410.0,42.0,1019.0,1744252686.9724205,0.0,2025-04-09 22:38:06.972,LEFT,14
211.0,15357.168359418913,2605.6099063885104,-63565.67902155865,-61368.36843113523,-36621.455743486375,-34125.57055062897,-29316.302158391736,-22382.947490566672,0.0,0.0,0.0,193.0,1.0,154.0,0.0,43.0,3.0,251.0,410.0,43.0,1019.0,1744252686.9724295,0.0,2025-04-09 22:38:06.972,LEFT,14
212.0,15281.97709107126,2581.9170572658845,-63600.14541150873,-61426.43826323012,-36643.271046074755,-34145.01656830509,-29313.351728123635,-22406.886208878306,0.0,0.0,0.0,193.0,1.0,155.0,0.0,43.0,3.0,252.0,411.0,43.0,1020.0,1744252686.972438,0.0,2025-04-09 22:38:06.972,LEFT,14
213.0,15347.221833136302,2569.3777286264576,-63606.58271391186,-61375.297471916376,-36703.55370087072,-34209.590758036466,-29056.88781224344,-22465.87246249586,0.0,0.0,0.0,193.0,1.0,154.0,0.0,43.0,3.0,250.0,410.0,43.0,1018.0,1744252686.972447,0.0,2025-04-09 22:38:06.972,LEFT,14
214.0,15435.064188845658,2608.672095378887,-63584.990928768035,-61413.92128633515,-36650.44595604491,-34149.62102766288,-29381.658659179055,-22432.121328368346,0.0,0.0,0.0,193.0,1.0,155.0,0.0,43.0,3.0,251.0,411.0,43.0,1019.0,1744252686.972456,0.0,2025-04-09 22:38:06.972,LEFT,14
215.0,15370.244129925268,2603.106511009516,-63557.945317977115,-61361.97583222102,-36618.57236845164,-34122.642472105326,-29399.182426832012,-22393.899845349773,0.0,0.0,0.0,193.0,1.0,155.0,0.0,43.0,3.0,249.0,411.0,43.0,1017.0,1744252686.972465,0.0,2025-04-09 22:38:06.972,LEFT,14
216.0,15281.284186993145,2574.943312995829,-63607.230914501066,-61429.45574873159,-36651.183563611936,-34150.26922825208,-29287.490759788845,-22407.087374578405,0.0,0.0,0.0,193.0,1.0,154.0,0.0,43.0,3.0,249.0,410.0,43.0,1017.0,1744252686.97248,0.0,2025-04-09 22:38:06.972,LEFT,14
217.0,15303.88180063746,2549.3505655945023,-63612.68474014816,-61392.26244595796,-36703.21842470389,-34205.47803705669,-29145.423072030913,-22452.59552628941,0.0,0.0,0.0,193.0,1.0,154.0,0.0,43.0,3.0,252.0,410.0,43.0,1020.0,1744252686.972489,0.0,2025-04-09 22:38:06.972,LEFT,14
218.0,15417.696883403885,2583.9287142668622,-63611.32128373639,-61428.226402786546,-36684.3088488947,-34185.24970832464,-29244.620113923564,-22452.260250122577,0.0,0.0,0.0,193.0,1.0,154.0,0.0,43.0,3.0,250.0,410.0,43.0,1018.0,1744252686.9724977,0.0,2025-04-09 22:38:06.972,LEFT,14
219.0,15381.643519597474,2609.7673308571975,-63547.5517568054,-61365.172131678126,-36603.48494094431,-34114.931120268244,-29500.68169840356,-22382.969842311126,0.0,0.0,0.0,193.0,1.0,154.0,0.0,43.0,3.0,252.0,410.0,43.0,1020.0,1744252686.9725068,0.0,2025-04-09 22:38:06.972,LEFT,14
220.0,15303.993559359737,2596.937429539851,-63593.529295149965,-61415.50826019148,-36635.76085993777,-34145.821231105474,-29248.08463431414,-22407.981444356614,0.0,0.0,0.0,193.0,1.0,154.0,0.0,43.0,3.0,250.0,410.0,43.0,1018.0,1744252686.9725158,0.0,2025-04-09 22:38:06.972,LEFT,14
221.0,15294.494067966232,2559.9229407218627,-63602.71586212109,-61398.520934405446,-36682.47600584936,-34185.36146704692,-29232.036081795228,-22436.032883648026,0.0,0.0,0.0,193.0,1.0,154.0,0.0,43.0,3.0,252.0,410.0,43.0,1020.0,1744252686.972525,0.0,2025-04-09 22:38:06.972,LEFT,14
222.0,15419.552078193676,2581.738243310242,-63614.87521110478,-61414.07774854633,-36702.25729969231,-34199.97950792069,-29115.985824583273,-22456.149453657803,0.0,0.0,0.0,193.0,1.0,154.0,0.0,43.0,3.0,249.0,410.0,43.0,1017.0,1744252686.9725337,0.0,2025-04-09 22:38:06.972,LEFT,14
223.0,15392.260598213745,2608.090950023049,-63553.02793419694,-61377.91262601765,-36615.10784806107,-34106.951547497694,-29573.682495794597,-22374.699696862663,0.0,0.0,0.0,193.0,1.0,154.0,0.0,43.0,3.0,249.0,410.0,43.0,1017.0,1744252686.9725423,0.0,2025-04-09 22:38:06.972,LEFT,14
224.0,15325.60769624802,2603.710008109809,-63585.616777612784,-61395.704614604074,-36636.990205882816,-34134.26537922208,-29239.07688129865,-22390.68119414821,0.0,0.0,0.0,193.0,1.0,154.0,0.0,43.0,3.0,252.0,410.0,43.0,1020.0,1744252686.972551,0.0,2025-04-09 22:38:06.972,LEFT,14
225.0,15273.617538644976,2551.295167362114,-63613.444699459644,-61418.212821270565,-36683.191261671935,-34186.523757758594,-29294.08452440316,-22441.374950572845,0.0,0.0,0.0,193.0,1.0,154.0,0.0,43.0,3.0,251.0,410.0,43.0,1019.0,1744252686.9725597,0.0,2025-04-09 22:38:06.972,LEFT,14
226.0,15412.578333923619,2583.4369758888456,-63606.62741740077,-61390.16138197916,-36702.32435492568,-34204.76278123412,-29037.50884980069,-22459.68102928174,0.0,0.0,0.0,193.0,1.0,154.0,0.0,43.0,3.0,250.0,410.0,43.0,1018.0,1744252686.9725685,0.0,2025-04-09 22:38:06.972,LEFT,14
227.0,15405.850458842571,2606.481624422267,-63549.65282078419,-61386.47334414403,-36607.28473750171,-34104.96224224118,-29580.65624006465,-22373.068019517425,0.0,0.0,0.0,193.0,1.0,154.0,0.0,43.0,3.0,251.0,410.0,43.0,1019.0,1744252686.9725773,0.0,2025-04-09 22:38:06.972,LEFT,14
228.0,15340.628068521986,2610.5272901686776,-63566.260166914486,-61374.246939926976,-36618.72883066283,-34127.47044890767,-29223.58712239112,-22387.57430166892,0.0,0.0,0.0,193.0,1.0,154.0,0.0,43.0,3.0,250.0,410.0,43.0,1018.0,1744252686.9725864,0.0,2025-04-09 22:38:06.972,LEFT,14
229.0,15272.812875844584,2569.1765629263596,-63597.32909170736,-61422.07967306134,-36655.34098808062,-34170.25168779513,-29318.023242714793,-22427.4945172661,0.0,0.0,0.0,193.0,1.0,155.0,0.0,44.0,3.0,251.0,411.0,44.0,1019.0,1744252686.9725952,0.0,2025-04-09 22:38:06.972,LEFT,14
230.0,15389.913665045939,2580.017158987184,-63603.587580154854,-61383.701727831576,-36706.28061369427,-34220.38665060838,-28990.88311086692,-22469.44874160871,0.0,0.0,0.0,193.0,1.0,154.0,0.0,44.0,3.0,250.0,410.0,44.0,1018.0,1744252686.972604,0.0,2025-04-09 22:38:06.972,LEFT,14
231.0,15419.015636326747,2607.0180662891944,-63564.04734421341,-61411.41789095615,-36623.713269676366,-34125.72701284016,-29558.773882242906,-22399.867761119338,0.0,0.0,0.0,193.0,1.0,155.0,0.0,43.0,3.0,252.0,411.0,43.0,1020.0,1744252686.9726176,0.0,2025-04-09 22:38:06.972,LEFT,14
232.0,15353.547376817152,2606.5933831445436,-63566.48368435904,-61373.01759398194,-36620.38285975252,-34134.444193177726,-29269.83288166915,-22396.827923873418,0.0,0.0,0.0,193.0,1.0,155.0,0.0,43.0,3.0,251.0,411.0,43.0,1019.0,1744252686.9726264,0.0,2025-04-09 22:38:06.972,LEFT,14
233.0,15272.745820611219,2568.7295280372537,-63604.50400167752,-61435.80364415689,-36654.75984272479,-34164.99902784813,-29327.880362019583,-22429.126194611337,0.0,0.0,0.0,193.0,1.0,154.0,0.0,44.0,3.0,250.0,410.0,44.0,1018.0,1744252686.9726355,0.0,2025-04-09 22:38:06.972,LEFT,14
234.0,15365.460856611831,2571.1435164384266,-63605.15220226672,-61380.52778011892,-36712.3155846972,-34219.6266912969,-29021.683814726333,-22473.829683521948,0.0,0.0,0.0,193.0,1.0,154.0,0.0,44.0,3.0,250.0,410.0,44.0,1018.0,1744252686.972644,0.0,2025-04-09 22:38:06.972,LEFT,14
235.0,15435.332409779121,2613.7235896257866,-63565.701373303105,-61411.239077000515,-36632.072822102644,-34128.297463452516,-29473.680791101553,-22401.834714631404,0.0,0.0,0.0,193.0,1.0,155.0,0.0,43.0,3.0,252.0,411.0,43.0,1020.0,1744252686.972653,0.0,2025-04-09 22:38:06.972,LEFT,14
236.0,15365.170283933912,2607.330990711569,-63551.798588251906,-61361.84172175428,-36612.53739744871,-34126.554027385006,-29331.210771943424,-22393.296348249478,0.0,0.0,0.0,193.0,1.0,154.0,0.0,44.0,3.0,250.0,410.0,44.0,1018.0,1744252686.9726615,0.0,2025-04-09 22:38:06.972,LEFT,14
237.0,15283.541713183131,2575.8597345184967,-63597.73142310756,-61434.64135344522,-36645.43916528692,-34157.95822834471,-29307.406164098524,-22432.523659768543,0.0,0.0,0.0,193.0,1.0,154.0,0.0,44.0,3.0,251.0,410.0,44.0,1019.0,1744252686.9726703,0.0,2025-04-09 22:38:06.972,LEFT,14
238.0,15337.767045231707,2558.9618157102846,-63598.5137341635,-61381.734774319506,-36700.536215369255,-34213.97169994971,-29089.14137949245,-22476.958927745694,0.0,0.0,0.0,193.0,1.0,154.0,0.0,44.0,3.0,250.0,410.0,44.0,1018.0,1744252686.972679,0.0,2025-04-09 22:38:06.972,LEFT,14
239.0,15432.96312486686,2590.7236445812755,-63586.75671658001,-61425.208917285076,-36662.06886316167,-34164.55199295902,-29345.359426183633,-22441.084377894924,0.0,0.0,0.0,193.0,1.0,154.0,0.0,44.0,3.0,250.0,410.0,44.0,1018.0,1744252686.972688,0.0,2025-04-09 22:38:06.972,LEFT,14
240.0,15374.3792026495,2596.669208606387,-63546.59063179382,-61367.675527057116,-36611.464513714855,-34124.76588782858,-29430.67603476954,-22401.968825098138,0.0,0.0,0.0,193.0,1.0,155.0,0.0,44.0,3.0,252.0,411.0,44.0,1020.0,1744252686.9726968,0.0,2025-04-09 22:38:06.972,LEFT,14
241.0,15284.860466105994,2576.910266507896,-63595.898580062225,-61430.39452199871,-36640.63354022903,-34150.26922825208,-29264.088483344138,-22414.463450248655,0.0,0.0,0.0,193.0,1.0,154.0,0.0,44.0,3.0,249.0,410.0,44.0,1017.0,1744252686.9727056,0.0,2025-04-09 22:38:06.972,LEFT,14
242.0,15298.74089941274,2544.3214230920585,-63605.196905755634,-61397.805678582874,-36696.78112230076,-34199.26425209812,-29165.025551918217,-22447.722845998152,0.0,0.0,0.0,193.0,1.0,155.0,0.0,44.0,3.0,252.0,411.0,44.0,1020.0,1744252686.9727144,0.0,2025-04-09 22:38:06.972,LEFT,14
243.0,15421.921363105937,2576.709100807798,-63604.10167027732,-61423.957219595584,-36688.086293707645,-34182.05340886753,-29211.405421662977,-22446.001761675092,0.0,0.0,0.0,193.0,1.0,154.0,0.0,44.0,3.0,250.0,410.0,44.0,1018.0,1744252686.9727232,0.0,2025-04-09 22:38:06.972,LEFT,14
244.0,15390.80773482415,2610.1920140018483,-63530.877355441735,-61359.494788586475,-36591.817330338636,-34096.6473933038,-29526.967349883005,-22371.458693916644,0.0,0.0,0.0,193.0,1.0,154.0,0.0,44.0,3.0,251.0,410.0,44.0,1019.0,1744252686.9727323,0.0,2025-04-09 22:38:06.972,LEFT,14
245.0,15304.17237331538,2589.5390021251446,-63587.159047980196,-61413.00486481248,-36636.67728146044,-34142.15554501481,-29235.92528533045,-22406.662691433754,0.0,0.0,0.0,193.0,1.0,155.0,0.0,44.0,3.0,252.0,411.0,44.0,1020.0,1744252686.972741,0.0,2025-04-09 22:38:06.972,LEFT,14
246.0,15284.681652150352,2551.8763127179523,-63602.09001327634,-61409.54034442191,-36683.23596516084,-34186.68021996978,-29249.850422126106,-22436.278752837035,0.0,0.0,0.0,193.0,1.0,154.0,0.0,44.0,3.0,251.0,410.0,44.0,1019.0,1744252686.9727547,0.0,2025-04-09 22:38:06.972,LEFT,14
247.0,15413.941790335393,2572.819897272575,-63609.89077209125,-61415.776481124936,-36703.62075610409,-34205.29922310105,-29085.85567305752,-22461.290354882523,0.0,0.0,0.0,193.0,1.0,154.0,0.0,44.0,3.0,251.0,410.0,44.0,1019.0,1744252686.9727635,0.0,2025-04-09 22:38:06.972,LEFT,14
248.0,15394.004034281259,2598.993790029739,-63547.08237017183,-61391.927169791124,-36609.76578113625,-34113.76882955657,-29575.582394073295,-22385.853217345863,0.0,0.0,0.0,193.0,1.0,155.0,0.0,44.0,3.0,251.0,411.0,44.0,1019.0,1744252686.9727724,0.0,2025-04-09 22:38:06.972,LEFT,14
249.0,15333.944896929848,2614.617659403999,-63565.902539003204,-61390.407251168166,-36620.67343243044,-34127.33633844094,-29228.526857915745,-22397.543179695986,0.0,0.0,0.0,193.0,1.0,154.0,0.0,44.0,3.0,250.0,410.0,44.0,1018.0,1744252686.972781,0.0,2025-04-09 22:38:06.972,LEFT,14
250.0,15276.299747979612,2560.235865144237,-63595.45154517312,-61420.22447827154,-36670.58487779914,-34174.67733319728,-29303.18168439647,-22443.58777327392,0.0,0.0,0.0,193.0,1.0,155.0,0.0,44.0,3.0,252.0,411.0,44.0,1020.0,1744252686.9727898,0.0,2025-04-09 22:38:06.972,LEFT,14
251.0,15402.989435552292,2570.361205382491,-63605.93451332266,-61401.24784722899,-36714.48370390936,-34217.324461618,-29011.51377099917,-22479.73054405815,0.0,0.0,0.0,193.0,1.0,154.0,0.0,44.0,3.0,249.0,410.0,44.0,1017.0,1744252686.9727983,0.0,2025-04-09 22:38:06.972,LEFT,14
252.0,15410.410214711454,2603.866470320996,-63546.16594864917,-61399.5938181393,-36612.582100937616,-34107.733858553634,-29584.590147088787,-22382.90278707776,0.0,0.0,0.0,193.0,1.0,155.0,0.0,44.0,3.0,251.0,411.0,44.0,1019.0,1744252686.9728072,0.0,2025-04-09 22:38:06.972,LEFT,14
253.0,15336.716513242307,2598.300885951625,-63569.456466371594,-61390.876637801724,-36628.63065345653,-34137.61814089038,-29233.44424169591,-22402.281749520513,0.0,0.0,0.0,193.0,1.0,154.0,0.0,44.0,3.0,249.0,410.0,44.0,1017.0,1744252686.972816,0.0,2025-04-09 22:38:06.972,LEFT,14
254.0,15263.447494917811,2555.8102197420862,-63602.22412374308,-61442.50916749349,-36668.863793476085,-34176.97956287617,-29329.556742853732,-22449.041598921016,0.0,0.0,0.0,193.0,1.0,154.0,0.0,44.0,3.0,249.0,410.0,44.0,1017.0,1744252686.9728246,0.0,2025-04-09 22:38:06.972,LEFT,14
255.0,15382.895217286972,2569.623597815466,-63602.469992932085,-61390.407251168166,-36717.56824464419,-34223.47119134321,-29005.143523829407,-22486.100791227913,0.0,0.0,0.0,193.0,1.0,155.0,0.0,44.0,3.0,252.0,411.0,44.0,1020.0,1744252686.9728334,0.0,2025-04-09 22:38:06.972,LEFT,14
0.0,15422.211935783856,2604.939354054851,-63561.61100406778,-61419.82214687135,-36631.98341512483,-34130.71145185369,-29544.736986724973,-22414.35169152638,0.0,0.0,0.0,193.0,1.0,155.0,0.0,44.0,3.0,249.0,411.0,44.0,1017.0,1744252686.9728422,0.0,2025-04-09 22:38:06.972,LEFT,14
1.0,15353.390914605967,2607.9121360674067,-63562.706239546096,-61379.81252429635,-36630.888179646514,-34138.981597302154,-29292.09521914664,-22413.032938603516,0.0,0.0,0.0,193.0,1.0,154.0,0.0,44.0,3.0,250.0,410.0,44.0,1018.0,1744252686.9728508,0.0,2025-04-09 22:38:06.972,LEFT,14
2.0,15274.645718889918,2575.4126996293903,-63601.01712954249,-61444.40906577219,-36657.41970031497,-34163.23324003616,-29335.90463827904,-22434.2447440916,0.0,0.0,0.0,193.0,1.0,155.0,0.0,44.0,3.0,251.0,411.0,44.0,1019.0,1744252686.9728596,0.0,2025-04-09 22:38:06.972,LEFT,14
3.0,15359.917623986916,2574.429222873357,-63596.77029809598,-61381.175980708125,-36707.9122910395,-34209.68016501429,-29035.519544544168,-22462.16207291628,0.0,0.0,0.0,193.0,1.0,154.0,0.0,44.0,3.0,249.0,410.0,44.0,1017.0,1744252686.9728684,0.0,2025-04-09 22:38:06.972,LEFT,14
4.0,15430.43737774341,2608.739150612253,-63570.328184405356,-61423.28666726192,-36647.67433973245,-34138.31104496849,-29438.365034862167,-22412.407089758766,0.0,0.0,0.0,193.0,1.0,155.0,0.0,44.0,3.0,252.0,411.0,44.0,1020.0,1744252686.9728816,0.0,2025-04-09 22:38:06.972,LEFT,14
5.0,15372.166379948423,2613.1200925254934,-63539.90746020168,-61361.14881767617,-36613.47617071583,-34117.725088325155,-29365.4312927045,-22389.04951680297,0.0,0.0,0.0,193.0,1.0,154.0,0.0,44.0,3.0,249.0,410.0,44.0,1017.0,1744252686.9728904,0.0,2025-04-09 22:38:06.972,LEFT,14
6.0,15294.248198777224,2589.203725958315,-63584.65565260121,-61431.78033015494,-36641.86288617407,-34152.14677478633,-29294.039820914248,-22427.293351566,0.0,0.0,0.0,193.0,1.0,154.0,0.0,44.0,3.0,252.0,410.0,44.0,1020.0,1744252686.9728997,0.0,2025-04-09 22:38:06.972,LEFT,14
7.0,15335.375408574988,2575.6585688183986,-63586.28732994644,-61383.00882375346,-36695.574128100176,-34204.852188211946,-29099.75845810872,-22456.68589552473,0.0,0.0,0.0,193.0,1.0,155.0,0.0,44.0,3.0,252.0,411.0,44.0,1020.0,1744252686.9729083,0.0,2025-04-09 22:38:06.972,LEFT,14
8.0,15439.556889481175,2607.5098046672115,-63575.78201005245,-61421.722045150054,-36664.70636900739,-34166.04955983753,-29295.783256981762,-22434.2447440916,0.0,0.0,0.0,193.0,1.0,154.0,0.0,44.0,3.0,251.0,410.0,44.0,1019.0,1744252686.9729168,0.0,2025-04-09 22:38:06.972,LEFT,14
9.0,15389.533685390197,2616.2493367492366,-63526.4964135285,-61359.204215908554,-36605.608356667566,-34115.04287899052,-29451.418453624065,-22381.00288879906,0.0,0.0,0.0,193.0,1.0,154.0,0.0,44.0,3.0,250.0,410.0,44.0,1018.0,1744252686.9729257,0.0,2025-04-09 22:38:06.972,LEFT,14
10.0,15300.014948846692,2590.2766096921696,-63586.91317879119,-61430.23805978752,-36650.02127290026,-34163.05442608052,-29257.628829196554,-22433.61889524685,0.0,0.0,0.0,193.0,1.0,155.0,0.0,44.0,3.0,251.0,411.0,44.0,1019.0,1744252686.9729345,0.0,2025-04-09 22:38:06.972,LEFT,14
11.0,15313.090719353047,2570.0259292156616,-63584.32037643438,-61390.742527334995,-36690.36617164209,-34195.24093809616,-29200.00603199077,-22455.747122257606,0.0,0.0,0.0,193.0,1.0,154.0,0.0,44.0,3.0,250.0,410.0,44.0,1018.0,1744252686.9729433,0.0,2025-04-09 22:38:06.972,LEFT,14
12.0,15433.164290566958,2595.663380105899,-63590.13182999276,-61412.62488515674,-36693.74128505484,-34186.032019380575,-29167.171319385925,-22449.600392532397,0.0,0.0,0.0,193.0,1.0,155.0,0.0,44.0,3.0,252.0,411.0,44.0,1020.0,1744252686.972952,0.0,2025-04-09 22:38:06.972,LEFT,14
13.0,15404.665816386441,2624.2065577753256,-63522.31663731535,-61362.66873629913,-36599.70749613136,-34096.2450619036,-29532.734099952475,-22364.61906011332,0.0,0.0,0.0,193.0,1.0,154.0,0.0,44.0,3.0,250.0,410.0,44.0,1018.0,1744252686.9729607,0.0,2025-04-09 22:38:06.972,LEFT,14
14.0,15319.08098686707,2605.8557755775187,-63576.117286219276,-61413.36249272377,-36639.895932662,-34146.80470786151,-29218.468572910857,-22415.53633398251,0.0,0.0,0.0,193.0,1.0,154.0,0.0,44.0,3.0,249.0,410.0,44.0,1017.0,1744252686.9729695,0.0,2025-04-09 22:38:06.972,LEFT,14
15.0,15283.02762306066,2560.526437822156,-63594.33395795035,-61419.44216721561,-36684.35355238361,-34194.413923551314,-29265.295477544725,-22466.230090407145,0.0,0.0,0.0,193.0,1.0,155.0,0.0,44.0,3.0,252.0,411.0,44.0,1020.0,1744252686.972978,0.0,2025-04-09 22:38:06.972,LEFT,14
16.0,15424.111834062558,2593.584667871555,-63585.14739097922,-61397.78332683842,-36695.909404267004,-34191.977583405685,-29056.12785293196,-22460.843319993415,0.0,0.0,0.0,193.0,1.0,154.0,0.0,44.0,3.0,249.0,410.0,44.0,1017.0,1744252686.9729867,0.0,2025-04-09 22:38:06.972,LEFT,14
17.0,15408.800889110673,2611.8907465804514,-63522.80837569337,-61379.16432370715,-36599.05929554216,-34091.864119990365,-29570.441492848575,-22372.084542761393,0.0,0.0,0.0,193.0,1.0,155.0,0.0,44.0,3.0,251.0,411.0,44.0,1019.0,1744252686.9729953,0.0,2025-04-09 22:38:06.972,LEFT,14
18.0,15319.617428733996,2589.360188169502,-63569.94820474961,-61401.359605951264,-36633.92801689244,-34139.56274265799,-29206.130409971527,-22404.516923966043,0.0,0.0,0.0,193.0,1.0,155.0,0.0,44.0,3.0,251.0,411.0,44.0,1019.0,1744252686.973004,0.0,2025-04-09 22:38:06.973,LEFT,14
19.0,15267.560215897587,2558.134801165438,-63586.37673692426,-61424.73953065152,-36663.18645038443,-34168.418844749795,-29305.685079775463,-22429.3944155448,0.0,0.0,0.0,193.0,1.0,154.0,0.0,44.0,3.0,250.0,410.0,44.0,1018.0,1744252686.9730175,0.0,2025-04-09 22:38:06.973,LEFT,14
20.0,15393.042909269681,2576.2173624297816,-63594.53512365045,-61393.78236458092,-36713.65668936452,-34214.03875518307,-28993.20769229027,-22482.882140026348,0.0,0.0,0.0,193.0,1.0,155.0,0.0,44.0,3.0,252.0,411.0,44.0,1020.0,1744252686.9730265,0.0,2025-04-09 22:38:06.973,LEFT,14
21.0,15409.538496677698,2601.60894413101,-63543.66255327017,-61407.81926009885,-36618.460609729365,-34116.38398365784,-29572.67666729411,-22407.422650745233,0.0,0.0,0.0,193.0,1.0,154.0,0.0,44.0,3.0,250.0,410.0,44.0,1018.0,1744252686.973035,0.0,2025-04-09 22:38:06.973,LEFT,14
22.0,15342.103283656035,2608.4038744454238,-63557.63239355474,-61382.71825107554,-36628.518894734254,-34127.62691111886,-29239.814488865675,-22393.273996505024,0.0,0.0,0.0,193.0,1.0,155.0,0.0,44.0,3.0,250.0,411.0,44.0,1018.0,1744252686.973044,0.0,2025-04-09 22:38:06.973,LEFT,14
23.0,15271.44941943281,2573.6022083285106,-63587.11434449129,-61433.56846971136,-36656.23505785884,-34154.67252190978,-29325.37696664059,-22415.089299093404,0.0,0.0,0.0,193.0,1.0,155.0,0.0,44.0,3.0,251.0,411.0,44.0,1019.0,1744252686.9730525,0.0,2025-04-09 22:38:06.973,LEFT,14
24.0,15371.85345552605,2571.3670338829797,-63594.66923411718,-61387.99326276699,-36710.99683177433,-34219.11260117443,-28990.257262022173,-22471.482750354142,0.0,0.0,0.0,193.0,1.0,155.0,0.0,44.0,3.0,252.0,411.0,44.0,1020.0,1744252686.973061,0.0,2025-04-09 22:38:06.973,LEFT,14
25.0,15417.875697359526,2595.5292696391666,-63563.756771535496,-61427.82407138635,-36638.3983657835,-34137.305216468005,-29501.665175159596,-22415.268113049045,0.0,0.0,0.0,193.0,1.0,154.0,0.0,44.0,3.0,249.0,410.0,44.0,1017.0,1744252686.97307,0.0,2025-04-09 22:38:06.973,LEFT,14
26.0,15357.74950477475,2605.3416854550464,-63544.48956781502,-61369.39661138018,-36618.84058938511,-34126.59873087391,-29301.03591692876,-22393.855141860862,0.0,0.0,0.0,193.0,1.0,155.0,0.0,44.0,3.0,252.0,411.0,44.0,1020.0,1744252686.9730785,0.0,2025-04-09 22:38:06.973,LEFT,14
27.0,15286.559198684598,2585.60509510101,-63573.949167007115,-61424.091330062314,-36640.901761162495,-34143.92133282677,-29311.94356822295,-22413.122345581334,0.0,0.0,0.0,193.0,1.0,154.0,0.0,44.0,3.0,251.0,410.0,44.0,1019.0,1744252686.9730873,0.0,2025-04-09 22:38:06.973,LEFT,14
28.0,15349.457007581832,2568.662472803888,-63585.125039234765,-61378.47141962903,-36709.02987826227,-34211.33419410398,-29044.259076626193,-22473.36029688839,0.0,0.0,0.0,193.0,1.0,154.0,0.0,44.0,3.0,249.0,410.0,44.0,1017.0,1744252686.973096,0.0,2025-04-09 22:38:06.973,LEFT,14
29.0,15429.833880643117,2597.8314993180634,-63569.56822509387,-61429.67926617614,-36656.547982281205,-34154.225487020674,-29396.634327964108,-22432.18838360171,0.0,0.0,0.0,193.0,1.0,155.0,0.0,44.0,3.0,252.0,411.0,44.0,1020.0,1744252686.9731047,0.0,2025-04-09 22:38:06.973,LEFT,14
30.0,15371.696993314863,2604.0452842766385,-63534.923021188144,-61367.22849216801,-36614.03496432721,-34120.13907672633,-29381.85982487915,-22389.653013903262,0.0,0.0,0.0,193.0,1.0,154.0,0.0,44.0,3.0,249.0,410.0,44.0,1017.0,1744252686.9731133,0.0,2025-04-09 22:38:06.973,LEFT,14
31.0,15287.095640551524,2580.4418421318346,-63583.58276886735,-61432.629696444244,-36646.04266238721,-34148.19051601774,-29275.957259649906,-22420.185496829214,0.0,0.0,0.0,193.0,1.0,154.0,0.0,44.0,3.0,250.0,410.0,44.0,1018.0,1744252686.973122,0.0,2025-04-09 22:38:06.973,LEFT,14
32.0,15312.576629230576,2553.8432662300193,-63594.15514399471,-61395.68226285962,-36708.135808484054,-34210.19425513676,-29127.76519391122,-22474.701401555707,0.0,0.0,0.0,193.0,1.0,155.0,0.0,44.0,3.0,253.0,411.0,44.0,1021.0,1744252686.9731307,0.0,2025-04-09 22:38:06.973,LEFT,14
33.0,15418.322732248633,2582.2076299438036,-63594.26690271699,-61436.742417424015,-36691.52846235377,-34185.04854262454,-29260.489852486833,-22464.419599106266,0.0,0.0,0.0,193.0,1.0,155.0,0.0,44.0,3.0,251.0,411.0,44.0,1019.0,1744252686.9731393,0.0,2025-04-09 22:38:06.973,LEFT,14
34.0,15367.740734546273,2601.877165064474,-63545.27187887095,-61381.39949815268,-36626.216665055355,-34120.60846335989,-29479.581651637753,-22397.520827951532,0.0,0.0,0.0,193.0,1.0,155.0,0.0,44.0,3.0,252.0,411.0,44.0,1020.0,1744252686.9731526,0.0,2025-04-09 22:38:06.973,LEFT,14
35.0,15297.042166834137,2586.7450340682312,-63582.264015944485,-61426.9970568415,-36649.149554866504,-34143.56370491549,-29257.31590477418,-22416.00572061607,0.0,0.0,0.0,193.0,1.0,154.0,0.0,44.0,3.0,249.0,410.0,44.0,1017.0,1744252686.9731615,0.0,2025-04-09 22:38:06.973,LEFT,14
36.0,15293.018852832181,2550.423449328357,-63589.327167192365,-61405.31586471986,-36691.97549724287,-34189.09420837095,-29221.754279345787,-22455.791825746517,0.0,0.0,0.0,193.0,1.0,154.0,0.0,44.0,3.0,249.0,410.0,44.0,1017.0,1744252686.97317,0.0,2025-04-09 22:38:06.973,LEFT,14
37.0,15407.683301887906,2564.84032450203,-63604.03461504396,-61430.30511502089,-36705.78887531625,-34200.76181897662,-29126.982882855285,-22474.097904455415,0.0,0.0,0.0,193.0,1.0,155.0,0.0,44.0,3.0,252.0,411.0,44.0,1020.0,1744252686.9731789,0.0,2025-04-09 22:38:06.973,LEFT,14
38.0,15376.14499046147,2585.1804119563594,-63541.56148929137,-61393.603550625274,-36611.06218231466,-34114.08175397894,-29543.395882057655,-22394.123362794326,0.0,0.0,0.0,193.0,1.0,155.0,0.0,44.0,3.0,251.0,411.0,44.0,1019.0,1744252686.9731877,0.0,2025-04-09 22:38:06.973,LEFT,14
39.0,15300.685501180353,2580.978283998762,-63580.0064897545,-61420.85032711629,-36636.006729126784,-34146.06710029449,-29208.276177439235,-22424.81230793146,0.0,0.0,0.0,193.0,1.0,155.0,0.0,44.0,3.0,252.0,411.0,44.0,1020.0,1744252686.973196,0.0,2025-04-09 22:38:06.973,LEFT,14
40.0,15259.200663471302,2540.3428125790138,-63600.525391164476,-61431.62386794375,-36680.21847965938,-34182.83571992347,-29269.587012480144,-22452.1484914003,0.0,0.0,0.0,193.0,1.0,154.0,0.0,44.0,3.0,250.0,410.0,44.0,1018.0,1744252686.9732049,0.0,2025-04-09 22:38:06.973,LEFT,14
41.0,15397.71442386084,2561.196990155815,-63607.78970811245,-61419.21864977106,-36715.08720100966,-34212.85411272694,-29027.003529906695,-22480.624613836364,0.0,0.0,0.0,193.0,1.0,155.0,0.0,44.0,3.0,252.0,411.0,44.0,1020.0,1744252686.9732137,0.0,2025-04-09 22:38:06.973,LEFT,14
42.0,15406.14103152049,2602.0783307645715,-63532.844308953805,-61393.02240526944,-36603.93197583342,-34093.24992814659,-29582.51143485444,-22378.074810275415,0.0,0.0,0.0,193.0,1.0,155.0,0.0,44.0,3.0,252.0,411.0,44.0,1020.0,1744252686.9732225,0.0,2025-04-09 22:38:06.973,LEFT,14
43.0,15334.615449263509,2603.6429528764434,-63556.87243424326,-61385.10988773226,-36620.4946184748,-34118.641509847825,-29208.41028790597,-22391.441153459687,0.0,0.0,0.0,193.0,1.0,154.0,0.0,44.0,3.0,251.0,410.0,44.0,1019.0,1744252686.9732313,0.0,2025-04-09 22:38:06.973,LEFT,14
44.0,15261.391134427922,2553.2174173852704,-63596.68089111816,-61438.843481402815,-36669.51199406529,-34170.721074428686,-29303.628719285574,-22440.72674998364,0.0,0.0,0.0,193.0,1.0,155.0,0.0,44.0,3.0,253.0,411.0,44.0,1021.0,1744252686.9732404,0.0,2025-04-09 22:38:06.973,LEFT,14
45.0,15384.258673698745,2563.9462547238177,-63598.91606556369,-61400.48788791751,-36713.74609634234,-34217.95031046275,-28986.368058486947,-22477.137741701335,0.0,0.0,0.0,193.0,1.0,154.0,0.0,44.0,3.0,249.0,410.0,44.0,1017.0,1744252686.973249,0.0,2025-04-09 22:38:06.973,LEFT,14
46.0,15402.05066228517,2590.8577550480077,-63554.503149330994,-61424.76188239597,-36623.489752231806,-34120.51905638207,-29551.442510061566,-22399.063098318948,0.0,0.0,0.0,193.0,1.0,155.0,0.0,44.0,3.0,253.0,411.0,44.0,1021.0,1744252686.9732578,0.0,2025-04-09 22:38:06.973,LEFT,14
47.0,15341.3209726001,2599.0831970075606,-63552.066809185366,-61381.62301559723,-36616.38189749502,-34123.55889362799,-29244.910686601484,-22390.94941508167,0.0,0.0,0.0,193.0,1.0,155.0,0.0,44.0,3.0,251.0,411.0,44.0,1019.0,1744252686.9732664,0.0,2025-04-09 22:38:06.973,LEFT,14
48.0,15273.282262478146,2566.3155396360803,-63579.738268821035,-61430.998019099,-36640.544133251205,-34143.76487061559,-29311.295367633746,-22413.658787448265,0.0,0.0,0.0,193.0,1.0,154.0,0.0,44.0,3.0,249.0,410.0,44.0,1017.0,1744252686.9732752,0.0,2025-04-09 22:38:06.973,LEFT,14
49.0,15358.867091997516,2557.6654145318766,-63592.746984094025,-61385.75808832146,-36710.4156864185,-34208.24965336915,-28992.760657401166,-22474.611994577885,0.0,0.0,0.0,193.0,1.0,155.0,0.0,44.0,3.0,252.0,411.0,44.0,1020.0,1744252686.9732883,0.0,2025-04-09 22:38:06.973,LEFT,14
50.0,15414.031197313214,2588.8013945581192,-63561.81216976788,-61427.53349870843,-36640.2982640622,-34129.057422763995,-29476.810035325296,-22417.05625260547,0.0,0.0,0.0,193.0,1.0,155.0,0.0,44.0,3.0,249.0,411.0,44.0,1017.0,1744252686.973297,0.0,2025-04-09 22:38:06.973,LEFT,14
51.0,15354.84377799556,2599.574935385577,-63535.23594561052,-61364.68039330011,-36607.19533052389,-34115.422858646256,-29304.27691987478,-22386.00967955705,0.0,0.0,0.0,193.0,1.0,155.0,0.0,44.0,3.0,251.0,411.0,44.0,1019.0,1744252686.973306,0.0,2025-04-09 22:38:06.973,LEFT,14
52.0,15270.197721743312,2566.740222780731,-63582.04049849993,-61437.725894180054,-36643.829839686136,-34150.3586352299,-29280.829939941163,-22421.459546263166,0.0,0.0,0.0,193.0,1.0,155.0,0.0,44.0,3.0,252.0,411.0,44.0,1020.0,1744252686.9733148,0.0,2025-04-09 22:38:06.973,LEFT,14
53.0,15325.138309614458,2549.8646557169745,-63584.87917004576,-61384.05935574286,-36702.771389814785,-34208.09319115796,-29053.60210580851,-22475.59547133392,0.0,0.0,0.0,193.0,1.0,154.0,0.0,45.0,3.0,250.0,410.0,45.0,1018.0,1744252686.9733236,0.0,2025-04-09 22:38:06.973,LEFT,14
54.0,15415.52876419172,2575.6585688183986,-63573.591539095825,-61430.5509842099,-36659.72192999386,-34156.0136265771,-29343.168955227015,-22438.223354604645,0.0,0.0,0.0,193.0,1.0,155.0,0.0,44.0,3.0,252.0,411.0,44.0,1020.0,1744252686.9733322,0.0,2025-04-09 22:38:06.973,LEFT,14
55.0,15361.817522265617,2588.0861387355494,-63529.78211996343,-61364.52393108892,-36605.07191480064,-34110.728992310644,-29395.203816318968,-22379.170045753723,0.0,0.0,0.0,193.0,1.0,154.0,0.0,44.0,3.0,251.0,410.0,44.0,1019.0,1744252686.9733407,0.0,2025-04-09 22:38:06.973,LEFT,14
56.0,15291.141306297935,2586.253295690214,-63564.941413991626,-61416.08940554731,-36626.10490633308,-34126.64343436282,-29249.91747735947,-22397.92315935173,0.0,0.0,0.0,193.0,1.0,154.0,0.0,44.0,3.0,249.0,410.0,44.0,1017.0,1744252686.9733496,0.0,2025-04-09 22:38:06.973,LEFT,14
57.0,15306.631065205464,2552.9044929628963,-63576.98900425303,-61384.55109412088,-36689.136825697045,-34185.65203972483,-29124.635949687476,-22454.920107712762,0.0,0.0,0.0,193.0,1.0,155.0,0.0,44.0,3.0,253.0,411.0,44.0,1021.0,1744252687.4567087,0.0,2025-04-09 22:38:07.456,LEFT,14
58.0,15417.272200259235,2578.8325165310525,-63581.23583569955,-61420.045664315905,-36683.63829656104,-34168.62001044989,-29195.379220888524,-22456.73059901364,0.0,0.0,0.0,193.0,1.0,154.0,0.0,44.0,3.0,249.0,410.0,44.0,1017.0,1744252687.4567492,0.0,2025-04-09 22:38:07.456,LEFT,14
59.0,15391.679452857907,2616.159929771415,-63505.53047722942,-61348.028343680904,-36587.48109191431,-34080.6435442738,-29480.296907460324,-22364.082618246393,0.0,0.0,0.0,193.0,1.0,155.0,0.0,44.0,3.0,252.0,411.0,44.0,1020.0,1744252687.4567697,0.0,2025-04-09 22:38:07.456,LEFT,14
60.0,15313.604809475519,2600.491356908245,-63556.69362028762,-61403.14774550769,-36625.41200225497,-34126.397565173815,-29202.196502947394,-22400.650072175275,0.0,0.0,0.0,193.0,1.0,155.0,0.0,44.0,3.0,250.0,411.0,44.0,1018.0,1744252687.45679,0.0,2025-04-09 22:38:07.456,LEFT,14
61.0,15296.125745311469,2563.096888434516,-63570.61875708327,-61393.91647504765,-36676.73160752435,-34176.174900075785,-29208.20912220587,-22447.34286634241,0.0,0.0,0.0,193.0,1.0,154.0,0.0,44.0,3.0,250.0,410.0,44.0,1018.0,1744252687.4568076,0.0,2025-04-09 22:38:07.456,LEFT,14
62.0,15429.588011454109,2587.549696868622,-63573.524483862464,-61395.794021581896,-36693.49541586583,-34182.79101643455,-29078.52430087618,-22462.54205257202,0.0,0.0,0.0,193.0,1.0,154.0,0.0,44.0,3.0,250.0,410.0,44.0,1018.0,1744252687.4568253,0.0,2025-04-09 22:38:07.456,LEFT,14
63.0,15402.877676830016,2609.096778523538,-63513.532401744415,-61365.97679447851,-36607.28473750171,-34091.48414033462,-29548.201507115547,-22377.29249921948,0.0,0.0,0.0,193.0,1.0,155.0,0.0,44.0,3.0,252.0,411.0,44.0,1020.0,1744252687.4568455,0.0,2025-04-09 22:38:07.456,LEFT,14
64.0,15328.356960816021,2605.9675342997953,-63546.63533528273,-61383.902893531675,-36630.061165101666,-34124.296501195015,-29215.004052520282,-22400.694775664186,0.0,0.0,0.0,193.0,1.0,154.0,0.0,44.0,3.0,249.0,410.0,44.0,1017.0,1744252687.4568875,0.0,2025-04-09 22:38:07.456,LEFT,14
65.0,15283.07232654957,2564.2591791461923,-63565.67902155865,-61405.986417053515,-36666.270991119265,-34171.346923273435,-29286.239062099346,-22445.666485508264,0.0,0.0,0.0,193.0,1.0,155.0,0.0,44.0,3.0,252.0,411.0,44.0,1020.0,1744252687.4569,0.0,2025-04-09 22:38:07.456,LEFT,14
66.0,15403.950560563871,2572.9987112282174,-63582.37577466676,-61399.10207976128,-36716.09302951015,-34218.64321454087,-29003.6459569509,-22488.626538351364,0.0,0.0,0.0,193.0,1.0,154.0,0.0,45.0,3.0,251.0,410.0,45.0,1019.0,1744252687.4569092,0.0,2025-04-09 22:38:07.456,LEFT,14
67.0,15412.2877612457,2606.772197100186,-63517.42160527964,-61391.61424536875,-36611.06218231466,-34105.923367252755,-29578.71163829704,-22385.741458623586,0.0,0.0,0.0,193.0,1.0,155.0,0.0,44.0,3.0,252.0,411.0,44.0,1020.0,1744252687.4569185,0.0,2025-04-09 22:38:07.456,LEFT,14
68.0,15338.41524582091,2596.5350981396555,-63543.72960850354,-61384.28287318741,-36630.46349650186,-34135.919408311776,-29212.67947109693,-22398.86193261885,0.0,0.0,0.0,193.0,1.0,155.0,0.0,44.0,3.0,252.0,411.0,44.0,1020.0,1744252687.4569273,0.0,2025-04-09 22:38:07.456,LEFT,14
69.0,15263.872178062462,2550.4681528172678,-63580.453524643606,-61440.452807003596,-36670.763691754786,-34179.21473732171,-29305.305100119724,-22441.844337206407,0.0,0.0,0.0,193.0,1.0,154.0,0.0,44.0,3.0,250.0,410.0,44.0,1018.0,1744252687.4569373,0.0,2025-04-09 22:38:07.456,LEFT,14
70.0,15380.213007952334,2565.5779320690554,-63582.04049849993,-61393.35768143627,-36721.3680412016,-34224.36526112143,-28979.751942128176,-22482.099828970415,0.0,0.0,0.0,193.0,1.0,155.0,0.0,45.0,3.0,250.0,411.0,45.0,1018.0,1744252687.4569464,0.0,2025-04-09 22:38:07.456,LEFT,14
71.0,15415.685226402908,2595.775138828175,-63537.8958032007,-61420.06801606036,-36633.68214770343,-34126.91165529629,-29534.097556364246,-22406.77445015603,0.0,0.0,0.0,193.0,1.0,155.0,0.0,44.0,3.0,251.0,411.0,44.0,1019.0,1744252687.4569557,0.0,2025-04-09 22:38:07.456,LEFT,14
72.0,15349.591118048564,2600.2454877192367,-63535.88414619972,-61380.86305628575,-36626.03785109972,-34132.834867576945,-29267.84357641263,-22402.594673942887,0.0,0.0,0.0,193.0,1.0,154.0,0.0,44.0,3.0,250.0,410.0,44.0,1018.0,1744252687.4569647,0.0,2025-04-09 22:38:07.456,LEFT,14
73.0,15270.175369998859,2567.947216981318,-63575.424382141166,-61446.21955707307,-36655.47509854735,-34166.384836004356,-29314.64812930204,-22439.944438927705,0.0,0.0,0.0,193.0,1.0,155.0,0.0,44.0,3.0,252.0,411.0,44.0,1020.0,1744252687.456974,0.0,2025-04-09 22:38:07.456,LEFT,14
74.0,15356.721324529806,2557.844228487519,-63578.844199042825,-61393.558847136366,-36709.208692217915,-34222.934749476284,-28998.952090615287,-22478.03181147955,0.0,0.0,0.0,193.0,1.0,154.0,0.0,45.0,3.0,250.0,410.0,45.0,1018.0,1744252687.4569829,0.0,2025-04-09 22:38:07.456,LEFT,14
75.0,15425.184717796412,2582.609961343999,-63550.50218707349,-61434.864870889774,-36640.23120882883,-34142.982559559656,-29423.925807944037,-22416.944493883195,0.0,0.0,0.0,193.0,1.0,154.0,0.0,44.0,3.0,249.0,410.0,44.0,1017.0,1744252687.456992,0.0,2025-04-09 22:38:07.456,LEFT,14
76.0,15367.293699657166,2595.663380105899,-63519.16504134716,-61367.742582290484,-36608.13410379102,-34114.77465805705,-29325.04169047376,-22380.24292948758,0.0,0.0,0.0,193.0,1.0,155.0,0.0,44.0,3.0,252.0,411.0,44.0,1020.0,1744252687.4570014,0.0,2025-04-09 22:38:07.457,LEFT,14
77.0,15276.500913679709,2566.6061123139993,-63572.742172806524,-61446.8007024289,-36644.54509550871,-34154.04667306503,-29279.488835273845,-22423.13592709731,0.0,0.0,0.0,193.0,1.0,155.0,0.0,44.0,3.0,251.0,411.0,44.0,1019.0,1744252687.4570103,0.0,2025-04-09 22:38:07.457,LEFT,14
78.0,15325.428882292377,2548.232978371737,-63572.87628327326,-61396.17400123763,-36692.33312515415,-34208.58492953598,-29071.95288800632,-22474.679049811253,0.0,0.0,0.0,193.0,1.0,155.0,0.0,45.0,3.0,250.0,411.0,45.0,1018.0,1744252687.457019,0.0,2025-04-09 22:38:07.457,LEFT,14
79.0,15429.163328309456,2584.1298799669603,-63558.414704610674,-61431.24388828801,-36656.43622355893,-34157.89117311134,-29295.291518603746,-22439.34094182741,0.0,0.0,0.0,193.0,1.0,155.0,0.0,44.0,3.0,251.0,411.0,44.0,1019.0,1744252687.457034,0.0,2025-04-09 22:38:07.457,LEFT,14
80.0,15378.626034096007,2599.262010963203,-63510.02317786493,-61366.04384971188,-36599.32751647562,-34099.351954382895,-29415.700365984485,-22363.635583357285,0.0,0.0,0.0,193.0,1.0,154.0,0.0,44.0,3.0,249.0,410.0,44.0,1017.0,1744252687.4570432,0.0,2025-04-09 22:38:07.457,LEFT,14
81.0,15301.98190235876,2588.3320079245577,-63551.73153301854,-61422.81728062836,-36623.75797316527,-34126.77754482956,-29235.031215552237,-22395.732688395106,0.0,0.0,0.0,193.0,1.0,155.0,0.0,44.0,3.0,252.0,411.0,44.0,1020.0,1744252687.4570522,0.0,2025-04-09 22:38:07.457,LEFT,14
82.0,15308.039225106148,2554.625577285955,-63561.16396917868,-61395.52580064843,-36679.95025872591,-34186.21083333622,-29154.900211679964,-22453.646058278806,0.0,0.0,0.0,193.0,1.0,154.0,0.0,45.0,3.0,249.0,410.0,45.0,1017.0,1744252687.457061,0.0,2025-04-09 22:38:07.457,LEFT,14
83.0,15419.82029912714,2569.5565425821,-63571.512826861486,-61430.75214991,-36688.13099719656,-34191.217624094206,-29159.169394870925,-22469.985183475637,0.0,0.0,0.0,193.0,1.0,154.0,0.0,44.0,3.0,252.0,410.0,44.0,1020.0,1744252687.45707,0.0,2025-04-09 22:38:07.457,LEFT,14
84.0,15388.147877233969,2598.300885951625,-63502.33417777231,-61372.97289049302,-36597.87465308603,-34099.64252706081,-29505.01793682789,-22374.47617941811,0.0,0.0,0.0,193.0,1.0,154.0,0.0,44.0,3.0,250.0,410.0,44.0,1018.0,1744252687.4570792,0.0,2025-04-09 22:38:07.457,LEFT,14
85.0,15308.776832673173,2589.3154846805915,-63546.65768702718,-61412.8931060902,-36631.84930465809,-34136.61231238989,-29207.180941960927,-22403.086412320903,0.0,0.0,0.0,193.0,1.0,154.0,0.0,44.0,3.0,249.0,410.0,44.0,1017.0,1744252687.457088,0.0,2025-04-09 22:38:07.457,LEFT,14
86.0,15280.099544537014,2547.7635917381754,-63566.70720180359,-61416.35762648078,-36681.11254943759,-34187.373124047896,-29241.64733191101,-22451.030904177536,0.0,0.0,0.0,193.0,1.0,155.0,0.0,44.0,3.0,251.0,411.0,44.0,1019.0,1744252687.4570968,0.0,2025-04-09 22:38:07.457,LEFT,14
87.0,15414.277066502222,2570.8082402715972,-63578.48657113154,-61419.285705004426,-36706.2135584609,-34209.41194408083,-29052.21629765228,-22472.533282343542,0.0,0.0,0.0,193.0,1.0,154.0,0.0,44.0,3.0,251.0,410.0,44.0,1019.0,1744252687.4571056,0.0,2025-04-09 22:38:07.457,LEFT,14
88.0,15396.038043026692,2597.362112684502,-63520.48379427002,-61400.174963495134,-36609.96694683635,-34113.813533045475,-29561.99253344447,-22390.323566236922,0.0,0.0,0.0,193.0,1.0,154.0,0.0,44.0,3.0,250.0,410.0,44.0,1018.0,1744252687.4571145,0.0,2025-04-09 22:38:07.457,LEFT,14
89.0,15327.351132315533,2590.9695137702843,-63547.037666682925,-61406.411100198166,-36622.28275803122,-34136.16527750078,-29203.202331447883,-22400.895941364284,0.0,0.0,0.0,193.0,1.0,155.0,0.0,44.0,3.0,252.0,411.0,44.0,1020.0,1744252687.4571233,0.0,2025-04-09 22:38:07.457,LEFT,14
90.0,15277.59614915802,2548.098867905005,-63563.935585491134,-61427.28762951942,-36658.13495613753,-34169.78230116157,-29284.07094288718,-22433.305970824476,0.0,0.0,0.0,193.0,1.0,154.0,0.0,45.0,3.0,249.0,410.0,45.0,1017.0,1744252687.4571319,0.0,2025-04-09 22:38:07.457,LEFT,14
91.0,15401.290702973689,2564.6615105463875,-63571.62458558376,-61400.77846059543,-36703.15136947052,-34214.21756913872,-28981.137750284404,-22480.31168941399,0.0,0.0,0.0,193.0,1.0,155.0,0.0,45.0,3.0,252.0,411.0,45.0,1020.0,1744252687.4571407,0.0,2025-04-09 22:38:07.457,LEFT,14
92.0,15398.675548872417,2582.453499132812,-63527.36813156225,-61419.66568466016,-36615.97956609483,-34120.63081510435,-29556.248135119455,-22405.031014088516,0.0,0.0,0.0,193.0,1.0,154.0,0.0,44.0,3.0,249.0,410.0,44.0,1017.0,1744252687.4571495,0.0,2025-04-09 22:38:07.457,LEFT,14
93.0,15330.055693394626,2580.419490387379,-63544.71308525957,-61403.23715248551,-36629.5470749792,-34144.32366422697,-29223.810639835676,-22415.089299093404,0.0,0.0,0.0,193.0,1.0,154.0,0.0,44.0,3.0,249.0,410.0,44.0,1017.0,1744252687.4571583,0.0,2025-04-09 22:38:07.457,LEFT,14
94.0,15265.772076341162,2547.450667315801,-63569.50116986051,-61445.705466950596,-36656.97266542586,-34163.27794352507,-29322.068908461206,-22422.86770616385,0.0,0.0,0.0,193.0,1.0,154.0,0.0,44.0,3.0,251.0,410.0,44.0,1019.0,1744252687.457172,0.0,2025-04-09 22:38:07.457,LEFT,14
95.0,15373.3286706601,2556.1007924200053,-63573.524483862464,-61390.317844190344,-36711.75679108582,-34214.75401100564,-28982.836482863007,-22464.531357828542,0.0,0.0,0.0,193.0,1.0,154.0,0.0,45.0,3.0,250.0,410.0,45.0,1018.0,1744252687.4571807,0.0,2025-04-09 22:38:07.457,LEFT,14
96.0,15420.66966541644,2587.3708829129796,-63535.10183514379,-61421.498527705495,-36630.03881335721,-34124.56472212848,-29514.94211136605,-22401.074755319925,0.0,0.0,0.0,193.0,1.0,155.0,0.0,44.0,3.0,252.0,411.0,44.0,1020.0,1744252687.4571896,0.0,2025-04-09 22:38:07.457,LEFT,14
97.0,15357.816560008117,2599.530231896667,-63521.08729137031,-61364.97096597803,-36612.42563872643,-34114.998175501605,-29278.237137584347,-22373.649164873263,0.0,0.0,0.0,193.0,1.0,154.0,0.0,44.0,3.0,251.0,410.0,44.0,1019.0,1744252687.4571984,0.0,2025-04-09 22:38:07.457,LEFT,14
98.0,15272.4552479333,2565.6002838135105,-63566.05900121439,-61435.133091823234,-36645.305054820186,-34151.43151896376,-29295.5150360483,-22408.048499589982,0.0,0.0,0.0,193.0,1.0,154.0,0.0,44.0,3.0,251.0,410.0,44.0,1019.0,1744252687.4572072,0.0,2025-04-09 22:38:07.457,LEFT,14
99.0,15340.046923166148,2551.6080917844884,-63572.49630361752,-61381.15362896367,-36703.59840435963,-34210.998917937155,-29011.13379134343,-22454.83070073494,0.0,0.0,0.0,193.0,1.0,154.0,0.0,44.0,3.0,250.0,410.0,44.0,1018.0,1744252687.4572165,0.0,2025-04-09 22:38:07.457,LEFT,14
100.0,15415.439357213898,2585.6721503343765,-63555.687791787124,-61428.18169929764,-36649.93186592244,-34150.29157999654,-29383.37974350211,-22409.05432809047,0.0,0.0,0.0,193.0,1.0,154.0,0.0,44.0,3.0,250.0,410.0,44.0,1018.0,1744252687.4572253,0.0,2025-04-09 22:38:07.457,LEFT,14
101.0,15366.869016512515,2599.641990618943,-63513.063015110856,-61351.64932628266,-36600.355696720566,-34114.1488092123,-29353.070778020716,-22364.350839179857,0.0,0.0,0.0,193.0,1.0,155.0,0.0,44.0,3.0,252.0,411.0,44.0,1020.0,1744252687.4572349,0.0,2025-04-09 22:38:07.457,LEFT,14
102.0,15286.827419618061,2576.2173624297816,-63555.73249527604,-61414.100100290794,-36626.73075517783,-34141.99908280362,-29264.11083508859,-22393.877493605316,0.0,0.0,0.0,193.0,1.0,154.0,0.0,45.0,3.0,250.0,410.0,45.0,1018.0,1744252687.4572437,0.0,2025-04-09 22:38:07.457,LEFT,14
103.0,15319.595076989543,2549.685841761332,-63564.159102935686,-61367.02732646791,-36684.375904128065,-34195.397400307345,-29090.147207992937,-22430.042616134004,0.0,0.0,0.0,193.0,1.0,155.0,0.0,45.0,3.0,251.0,411.0,45.0,1019.0,1744252687.4572527,0.0,2025-04-09 22:38:07.457,LEFT,14
104.0,15425.47529047433,2580.5312491096556,-63560.96280347858,-61399.88439081721,-36660.79481372772,-34156.63947542184,-29255.17013730647,-22404.42751698822,0.0,0.0,0.0,193.0,1.0,154.0,0.0,44.0,3.0,249.0,410.0,44.0,1017.0,1744252687.4572616,0.0,2025-04-09 22:38:07.457,LEFT,14
105.0,15378.983662007293,2601.3854266864573,-63508.726776686526,-61330.03518939438,-36589.11276925955,-34093.78637001352,-29436.755709261386,-22343.675475558695,0.0,0.0,0.0,193.0,1.0,155.0,0.0,44.0,3.0,252.0,411.0,44.0,1020.0,1744252687.4572704,0.0,2025-04-09 22:38:07.457,LEFT,14
106.0,15296.818649389585,2587.840269546541,-63560.381658122744,-61383.34409992029,-36620.136990563515,-34128.297463452516,-29214.512314142266,-22377.71718236413,0.0,0.0,0.0,193.0,1.0,155.0,0.0,45.0,3.0,251.0,411.0,45.0,1019.0,1744252687.4572792,0.0,2025-04-09 22:38:07.457,LEFT,14
