Sample Index,EXG Channel 0,EXG Channel 1,EXG Channel 2,EXG Channel 3,EXG Channel 4,EXG Channel 5,EXG Channel 6,EXG Channel 7,Accel Channel 0,Accel Channel 1,Accel Channel 2,Not Used,Digital Channel 0 (D11),Digital Channel 1 (D12),Digital Channel 2 (D13),Digital Channel 3 (D17),Not Used,Digital Channel 4 (D18),Analog Channel 0,Analog Channel 1,Analog Channel 2,Timestamp,Marker Channel,Timestamp (Formatted),Stimulus_Direction,Stimulus_Number
17.0,1647.0106419337562,-17987.186370752617,-32527.353766841148,-23876.40164809247,17299.602007818463,3623.083665738543,31048.04826355556,51903.36577932427,0.0,0.0,0.0,193.0,0.0,192.0,0.0,1.0,0.0,178.0,192.0,1.0,178.0,1744418581.1928384,0.0,2025-04-11 20:43:01.192,LEFT,7
18.0,1629.6880399808933,-18020.646932202213,-32516.893150436063,-23921.663930614464,17461.02630627469,3464.386280105863,31390.476988610866,51874.28615978792,0.0,0.0,0.0,193.0,0.0,192.0,0.0,2.0,0.0,178.0,192.0,2.0,178.0,1744418581.1928706,0.0,2025-04-11 20:43:01.192,LEFT,7
19.0,1618.2886503086866,-18020.021083357464,-32553.72882529841,-23930.35875920758,17356.822473624048,3265.902789342736,31507.778943512316,51742.34381226824,0.0,0.0,0.0,193.0,0.0,192.0,0.0,1.0,0.0,178.0,192.0,1.0,178.0,1744418581.1929023,0.0,2025-04-11 20:43:01.192,LEFT,7
20.0,1619.2050718313542,-17988.549827164392,-32571.677276096023,-23891.064392455148,17239.3193530225,3487.4309286392845,31296.37614445402,51800.793624018865,0.0,0.0,0.0,193.0,0.0,192.0,0.0,1.0,0.0,178.0,192.0,1.0,178.0,1744418581.1929345,0.0,2025-04-11 20:43:01.192,LEFT,7
21.0,1639.947490685879,-17968.83558855481,-32534.796897744764,-23874.278232369215,17279.530141297597,3640.67448862487,31050.931638590297,51884.41150002617,0.0,0.0,0.0,193.0,0.0,192.0,0.0,1.0,0.0,178.0,192.0,1.0,178.0,1744418581.192966,0.0,2025-04-11 20:43:01.192,LEFT,7
22.0,1624.5471387561727,-18012.466193731572,-32515.730859724386,-23915.696014844896,17458.63466961797,3528.93811809279,31331.133107082023,51874.8449533993,0.0,0.0,0.0,193.0,0.0,192.0,0.0,1.0,0.0,178.0,192.0,1.0,178.0,1744418581.192998,0.0,2025-04-11 20:43:01.192,LEFT,7
23.0,1617.8192636751253,-18014.65666468819,-32548.72203454042,-23946.228497770848,17389.277206573155,3305.3983217952637,31522.978129741925,51721.13200678015,0.0,0.0,0.0,193.0,0.0,192.0,0.0,1.0,0.0,178.0,192.0,1.0,178.0,1744418581.1930299,0.0,2025-04-11 20:43:01.193,LEFT,7
24.0,1619.3168305536308,-17982.671318372646,-32562.78128180281,-23898.127543703027,17264.643879490362,3477.3279401454856,31347.807508445683,51747.41765825959,0.0,0.0,0.0,193.0,0.0,192.0,0.0,1.0,0.0,178.0,192.0,1.0,178.0,1744418581.1930735,0.0,2025-04-11 20:43:01.193,LEFT,7
25.0,1632.9960981602787,-17967.60624260977,-32543.737595526887,-23874.635860280498,17221.84028885845,3645.4130584493946,31079.72068544873,51863.98200559402,0.0,0.0,0.0,193.0,0.0,192.0,0.0,1.0,0.0,177.0,192.0,1.0,177.0,1744418581.193106,0.0,2025-04-11 20:43:01.193,LEFT,7
26.0,1632.146731870977,-17985.04060328491,-32500.688135705965,-23889.432715109913,17421.150794166424,3543.377345010918,31252.589077066074,51864.16081954966,0.0,0.0,0.0,193.0,0.0,192.0,0.0,1.0,0.0,178.0,192.0,1.0,178.0,1744418581.193138,0.0,2025-04-11 20:43:01.193,LEFT,7
27.0,1611.404313016452,-18021.8539264028,-32546.330397883703,-23939.54532617871,17425.017645957192,3301.1514903487555,31546.33570269772,51748.44583850454,0.0,0.0,0.0,193.0,0.0,192.0,0.0,1.0,0.0,179.0,192.0,1.0,179.0,1744418581.1931703,0.0,2025-04-11 20:43:01.193,LEFT,7
28.0,1607.8727373925135,-18016.400100755705,-32571.140834229092,-23914.73488983332,17294.103478682457,3384.612904144872,31411.93466328796,51720.841434102236,0.0,0.0,0.0,193.0,0.0,193.0,0.0,1.0,0.0,179.0,193.0,1.0,179.0,1744418581.193216,0.0,2025-04-11 20:43:01.193,LEFT,7
29.0,1626.1788161014101,-17980.74906834949,-32549.884325252096,-23877.049848681672,17238.69350417775,3594.026397946644,31104.553473538577,51827.59336562078,0.0,0.0,0.0,193.0,0.0,193.0,0.0,1.0,0.0,179.0,193.0,1.0,179.0,1744418581.1932485,0.0,2025-04-11 20:43:01.193,LEFT,7
30.0,1636.2818045952088,-17986.359356207773,-32493.312060035714,-23874.881729469507,17416.702797019818,3554.9108451498564,31170.11114002599,51853.27551999993,0.0,0.0,0.0,193.0,0.0,193.0,0.0,1.0,0.0,179.0,193.0,1.0,179.0,1744418581.1932807,0.0,2025-04-11 20:43:01.193,LEFT,7
31.0,1603.245926290265,-18035.488490520536,-32535.62391228961,-23934.717349376366,17457.964117284315,3362.909360278769,31534.221057202943,51764.87437067919,0.0,0.0,0.0,193.0,0.0,193.0,0.0,1.0,0.0,179.0,193.0,1.0,179.0,1744418581.1933131,0.0,2025-04-11 20:43:01.193,LEFT,7
32.0,1604.0058856017454,-18030.347589295816,-32570.7385028289,-23918.40057592399,17296.1821909168,3381.841287832414,31445.50698345983,51684.02811098434,0.0,0.0,0.0,193.0,0.0,193.0,0.0,1.0,0.0,179.0,193.0,1.0,179.0,1744418581.1933453,0.0,2025-04-11 20:43:01.193,LEFT,7
33.0,1629.375115558519,-17986.8957980747,-32548.6326275626,-23871.081932912104,17229.55164069553,3623.7765698166577,31144.83131704704,51794.28926638237,0.0,0.0,0.0,193.0,0.0,193.0,0.0,1.0,0.0,178.0,193.0,1.0,178.0,1744418581.1933777,0.0,2025-04-11 20:43:01.193,LEFT,7
34.0,1631.9679179153345,-17986.47111493005,-32506.745458453355,-23870.545491045177,17378.458962256787,3611.5054621106938,31112.980081198228,51835.77410409142,0.0,0.0,0.0,193.0,0.0,193.0,0.0,1.0,0.0,179.0,193.0,1.0,179.0,1744418581.6678145,0.0,2025-04-11 20:43:01.667,LEFT,7
35.0,1608.990324615279,-18025.69842644911,-32522.570493527714,-23926.670721372455,17469.765838356714,3404.0812735654445,31500.559330053253,51778.352472585735,0.0,0.0,0.0,193.0,0.0,192.0,0.0,1.0,0.0,178.0,192.0,1.0,178.0,1744418581.6679864,0.0,2025-04-11 20:43:01.667,LEFT,7
36.0,1608.498586237262,-18016.154231566696,-32551.49365085288,-23919.607570124575,17320.836165051005,3327.8618249728474,31478.676972231508,51677.63551207013,0.0,0.0,0.0,193.0,0.0,193.0,0.0,1.0,0.0,178.0,193.0,1.0,178.0,1744418581.6680253,0.0,2025-04-11 20:43:01.668,LEFT,7
37.0,1624.3906765449856,-17977.41865842565,-32561.551935857766,-23895.4900378573,17212.430204442764,3563.0021766426776,31206.008041621215,51785.03564417787,0.0,0.0,0.0,193.0,0.0,192.0,0.0,1.0,0.0,178.0,192.0,1.0,178.0,1744418581.6680624,0.0,2025-04-11 20:43:01.668,LEFT,7
38.0,1633.756057471759,-17968.209739710062,-32525.856199962644,-23884.068296440637,17320.433833650808,3593.512307824172,31068.589516709988,51829.71678134403,0.0,0.0,0.0,193.0,0.0,193.0,0.0,1.0,0.0,178.0,193.0,1.0,178.0,1744418581.6680996,0.0,2025-04-11 20:43:01.668,LEFT,7
39.0,1612.7677694282258,-18004.37486223875,-32511.416973044514,-23916.746546834296,17483.89214085247,3424.9578028867013,31452.346617263156,51794.24456289346,0.0,0.0,0.0,193.0,0.0,193.0,0.0,1.0,0.0,179.0,193.0,1.0,179.0,1744418581.6681354,0.0,2025-04-11 20:43:01.668,LEFT,7
40.0,1613.9971153732677,-17992.684899888623,-32521.832885960688,-23899.62511058153,17393.993424653225,3292.099033844356,31496.80423698476,51663.777430507835,0.0,0.0,0.0,193.0,0.0,192.0,0.0,1.0,0.0,178.0,192.0,1.0,178.0,1744418581.6682098,0.0,2025-04-11 20:43:01.668,LEFT,7
41.0,1622.2896125661866,-17966.868635042745,-32545.548086827766,-23867.684467754898,17250.249356061144,3533.3414117504853,31264.23433592729,51761.47690552198,0.0,0.0,0.0,193.0,0.0,192.0,0.0,1.0,0.0,178.0,192.0,1.0,178.0,1744418581.6682467,0.0,2025-04-11 20:43:01.668,LEFT,7
42.0,1649.4246303349294,-17961.772437306936,-32516.759039969333,-23864.979906675806,17257.13369335338,3596.8650694924677,31068.120130076426,51837.294022714384,0.0,0.0,0.0,193.0,0.0,192.0,0.0,1.0,0.0,178.0,192.0,1.0,178.0,1744418581.6682832,0.0,2025-04-11 20:43:01.668,LEFT,7
43.0,1617.953374141857,-18021.04926360241,-32520.558836526736,-23924.614360882566,17429.376236125976,3448.2706723535866,31408.917177786494,51817.512728871436,0.0,0.0,0.0,193.0,0.0,193.0,0.0,1.0,0.0,178.0,193.0,1.0,178.0,1744418581.6683576,0.0,2025-04-11 20:43:01.668,LEFT,7
44.0,1619.6521067204603,-18015.103699577296,-32544.855182749652,-23930.537573163223,17390.461849029285,3297.3740455358084,31541.083042750724,51679.22248592645,0.0,0.0,0.0,193.0,0.0,193.0,0.0,1.0,0.0,178.0,193.0,1.0,178.0,1744418581.6683955,0.0,2025-04-11 20:43:01.668,LEFT,7
45.0,1617.8863189084911,-17993.556617922382,-32565.64230509309,-23892.941938989396,17288.359080357444,3532.246176272175,31341.996054887302,51743.64021344665,0.0,0.0,0.0,193.0,0.0,193.0,0.0,1.0,0.0,179.0,193.0,1.0,179.0,1744418581.668432,0.0,2025-04-11 20:43:01.668,LEFT,7
46.0,1637.5782057736167,-17962.0406582404,-32532.09233666567,-23866.611584021044,17279.708955253238,3678.136012331964,31078.468987759232,51833.583633134804,0.0,0.0,0.0,193.0,0.0,192.0,0.0,1.0,0.0,178.0,192.0,1.0,178.0,1744418581.6684685,0.0,2025-04-11 20:43:01.668,LEFT,7
47.0,1633.1078568825553,-17986.381707952227,-32500.710487450422,-23895.82531402413,17462.278003964188,3565.8408481885017,31339.894990908506,51837.60694713676,0.0,0.0,0.0,193.0,0.0,193.0,0.0,1.0,0.0,178.0,193.0,1.0,178.0,1744418581.6685047,0.0,2025-04-11 20:43:01.668,LEFT,7
48.0,1632.9960981602787,-17994.51774293396,-32527.733746496888,-23922.848573070594,17426.179936668865,3342.055182701967,31553.28709522332,51695.33809367873,0.0,0.0,0.0,193.0,0.0,193.0,0.0,1.0,0.0,179.0,193.0,1.0,179.0,1744418581.6685407,0.0,2025-04-11 20:43:01.668,LEFT,7
49.0,1626.111760868044,-17978.379783437227,-32563.317723669737,-23898.485171614313,17275.90915869584,3479.0490244685443,31381.424532106466,51696.343922179214,0.0,0.0,0.0,193.0,0.0,193.0,0.0,1.0,0.0,178.0,193.0,1.0,178.0,1744418581.6685765,0.0,2025-04-11 20:43:01.668,LEFT,7
50.0,1660.2652263957534,-17935.576192805314,-32531.086508165183,-23866.90215669896,17225.394216226843,3637.277023467663,31080.05596161556,51791.00355994744,0.0,0.0,0.0,193.0,0.0,193.0,0.0,1.0,0.0,178.0,193.0,1.0,178.0,1744418581.668612,0.0,2025-04-11 20:43:01.668,LEFT,7
51.0,1650.2739966242311,-17958.30791691636,-32492.082714090673,-23878.033325437704,17385.611520482486,3556.564874239549,31241.055576927138,51811.008371234944,0.0,0.0,0.0,193.0,0.0,193.0,0.0,1.0,0.0,178.0,193.0,1.0,178.0,1744418581.6686485,0.0,2025-04-11 20:43:01.668,LEFT,7
52.0,1626.111760868044,-17996.32823423484,-32522.995176672364,-23919.182886979925,17392.473506030263,3334.097961675878,31557.80214760329,51715.54407066633,0.0,0.0,0.0,193.0,0.0,192.0,0.0,1.0,0.0,178.0,192.0,1.0,178.0,1744418581.668685,0.0,2025-04-11 20:43:01.668,LEFT,7
53.0,1630.4256475479183,-17972.791847323402,-32554.555839843255,-23891.57848257762,17296.204542661257,3397.5992676734054,31436.856858355626,51686.5985615967,0.0,0.0,0.0,193.0,0.0,192.0,0.0,1.0,0.0,178.0,192.0,1.0,178.0,1744418581.6687212,0.0,2025-04-11 20:43:01.668,LEFT,7
54.0,1646.6753657669267,-17945.455663854562,-32549.929028741008,-23860.442502551377,17227.942315094748,3609.985543487733,31136.87409602095,51803.319371142316,0.0,0.0,0.0,193.0,0.0,192.0,0.0,1.0,0.0,178.0,192.0,1.0,178.0,1744418581.6687572,0.0,2025-04-11 20:43:01.668,LEFT,7
55.0,1665.5625898316612,-17945.96975397703,-32482.650277930534,-23858.90023218396,17391.64649148542,3579.9000954508897,31178.068361052083,51822.16189171814,0.0,0.0,0.0,193.0,0.0,192.0,0.0,1.0,0.0,178.0,192.0,1.0,178.0,1744418581.668806,0.0,2025-04-11 20:43:01.668,LEFT,7
56.0,1640.4615808083513,-17984.973548051545,-32506.85721717563,-23912.745584576798,17432.438425116354,3394.8500031054027,31538.825516560737,51735.14655055363,0.0,0.0,0.0,193.0,0.0,192.0,0.0,1.0,0.0,178.0,192.0,1.0,178.0,1744418581.6688428,0.0,2025-04-11 20:43:01.668,LEFT,7
57.0,1629.7550952142592,-17975.876388058234,-32540.027205947306,-23897.613453580554,17307.00043523317,3391.7878141150254,31464.84124241367,51652.93683444701,0.0,0.0,0.0,193.0,0.0,192.0,0.0,1.0,0.0,178.0,192.0,1.0,178.0,1744418581.6688793,0.0,2025-04-11 20:43:01.668,LEFT,7
58.0,1648.1729326454322,-17952.027076724422,-32534.171048900018,-23864.42111306442,17240.816919901004,3607.3256858975515,31169.909974325896,51759.37584154318,0.0,0.0,0.0,193.0,0.0,192.0,0.0,1.0,0.0,178.0,192.0,1.0,178.0,1744418581.6689167,0.0,2025-04-11 20:43:01.668,LEFT,7
59.0,1658.9241217284348,-17959.716076817047,-32484.170196553496,-23866.365714832034,17374.748572677207,3590.204249644786,31113.136543409415,51796.725606528,0.0,0.0,0.0,193.0,0.0,192.0,0.0,1.0,0.0,178.0,192.0,1.0,178.0,1744418581.6689718,0.0,2025-04-11 20:43:01.668,LEFT,7
60.0,1628.9727841583235,-17997.714042391068,-32499.503493249835,-23924.346139949103,17479.84647510606,3399.76738688557,31504.80616149976,51741.47209423448,0.0,0.0,0.0,193.0,0.0,192.0,0.0,1.0,0.0,179.0,192.0,1.0,179.0,1744418581.6690073,0.0,2025-04-11 20:43:01.669,LEFT,7
61.0,1623.7201242113263,-17987.99103355301,-32538.216714646427,-23910.577465364633,17364.131494060934,3311.7015137316603,31498.882949219103,51630.65214522507,0.0,0.0,0.0,193.0,0.0,193.0,0.0,0.0,0.0,179.0,193.0,0.0,179.0,1744418581.6690435,0.0,2025-04-11 20:43:01.669,LEFT,7
62.0,1626.6929062238821,-17969.8414170553,-32562.401302147067,-23887.73398253131,17233.262030275113,3549.0323363581106,31236.115841402512,51732.643155174635,0.0,0.0,0.0,193.0,0.0,193.0,0.0,1.0,0.0,179.0,193.0,1.0,179.0,1744418581.6690888,0.0,2025-04-11 20:43:01.669,LEFT,7
63.0,1650.9445489578902,-17946.77441677742,-32513.518037023314,-23873.652383524466,17282.90525471035,3609.2032324317975,31081.687638960797,51792.970513459506,0.0,0.0,0.0,193.0,0.0,193.0,0.0,0.0,0.0,179.0,193.0,0.0,179.0,1744418581.6691256,0.0,2025-04-11 20:43:01.669,LEFT,7
64.0,1638.338165085097,-17973.976489779532,-32497.13420833757,-23902.30731991617,17451.303297436632,3477.126774445388,31459.588582466673,51763.44385903405,0.0,0.0,0.0,193.0,0.0,193.0,0.0,0.0,0.0,179.0,193.0,0.0,179.0,1744418581.6691616,0.0,2025-04-11 20:43:01.669,LEFT,7
65.0,1627.27405157972,-17982.693670117103,-32531.354729098646,-23904.11781121705,17364.355011505486,3313.2661358435316,31524.29688266479,51621.756150931855,0.0,0.0,0.0,193.0,0.0,193.0,0.0,0.0,0.0,179.0,193.0,0.0,179.0,1744418581.6691976,0.0,2025-04-11 20:43:01.669,LEFT,7
66.0,1622.0884468660888,-17970.713135089056,-32546.173935672516,-23879.508540571755,17228.59051568395,3529.921594848823,31287.211929227346,51698.89202104712,0.0,0.0,0.0,193.0,0.0,193.0,0.0,0.0,0.0,179.0,193.0,0.0,179.0,1744418581.6692324,0.0,2025-04-11 20:43:01.669,LEFT,7
67.0,1655.884284482513,-17941.745274274977,-32494.653164703035,-23846.673827966908,17270.99177491567,3643.4014014484173,31067.76250216514,51782.46519356551,0.0,0.0,0.0,193.0,0.0,193.0,0.0,0.0,0.0,179.0,193.0,0.0,179.0,1744418581.6692681,0.0,2025-04-11 20:43:01.669,LEFT,7
68.0,1655.1913804043986,-17960.833664039812,-32460.32088521968,-23869.025572422215,17474.16913201441,3521.740856378181,31390.275822910768,51776.45257430703,0.0,0.0,0.0,193.0,0.0,193.0,0.0,0.0,0.0,178.0,193.0,0.0,178.0,1744418581.6693027,0.0,2025-04-11 20:43:01.669,LEFT,7
69.0,1643.724935498826,-17976.703402603078,-32499.458789760924,-23895.557093090665,17382.750497192206,3326.811292983448,31556.304580724787,51642.47621804193,0.0,0.0,0.0,193.0,0.0,193.0,0.0,0.0,0.0,179.0,193.0,0.0,179.0,1744418581.6693408,0.0,2025-04-11 20:43:01.669,LEFT,7
70.0,1640.2380633637981,-17953.658754069656,-32526.236179618383,-23869.562014289146,17226.511803449608,3503.0324462690887,31361.93381094144,51688.18553545303,0.0,0.0,0.0,193.0,0.0,193.0,0.0,0.0,0.0,179.0,193.0,0.0,179.0,1744418581.6693904,0.0,2025-04-11 20:43:01.669,LEFT,7
71.0,1649.3128716126528,-17942.661695797648,-32505.33729855267,-23856.709761227343,17233.284382019567,3644.0048985487106,31090.337764065,51772.58572251627,0.0,0.0,0.0,193.0,0.0,193.0,0.0,0.0,0.0,179.0,193.0,0.0,179.0,1744418581.669427,0.0,2025-04-11 20:43:01.669,LEFT,7
72.0,1642.0709064091334,-17978.916225304154,-32476.86117611661,-23885.945842974885,17412.947703951326,3532.6485076723707,31324.58404595662,51774.39621381715,0.0,0.0,0.0,193.0,0.0,193.0,0.0,0.0,0.0,178.0,193.0,0.0,178.0,1744418581.6694627,0.0,2025-04-11 20:43:01.669,LEFT,7
73.0,1632.1690836154323,-18000.686824403623,-32510.880531177587,-23916.523029389744,17394.44045954233,3318.4740923016184,31572.353133243698,51660.0446891838,0.0,0.0,0.0,193.0,0.0,193.0,0.0,0.0,0.0,178.0,193.0,0.0,178.0,1744418581.6694992,0.0,2025-04-11 20:43:01.669,LEFT,7
74.0,1631.6549934929603,-17978.6927078596,-32533.209923888437,-23884.001241207272,17294.528161827107,3461.9722917046897,31411.666442354497,51666.929026476035,0.0,0.0,0.0,193.0,0.0,192.0,0.0,0.0,0.0,178.0,192.0,0.0,178.0,1744418581.6695673,0.0,2025-04-11 20:43:01.669,LEFT,7
75.0,1641.1544848864658,-17952.585870335803,-32519.217731859415,-23869.941993944885,17235.854832631925,3637.8358170790457,31122.367813869456,51780.744109242456,0.0,0.0,0.0,193.0,0.0,193.0,0.0,0.0,0.0,178.0,193.0,0.0,178.0,1744418581.6696045,0.0,2025-04-11 20:43:01.669,LEFT,7
76.0,1629.173949858421,-17978.55859739287,-32485.265432031803,-23902.68729957191,17409.416128327386,3565.9749586552334,31264.23433592729,51806.96270548853,0.0,0.0,0.0,193.0,0.0,193.0,0.0,0.0,0.0,178.0,193.0,0.0,178.0,1744418581.6696396,0.0,2025-04-11 20:43:01.669,LEFT,7
77.0,1613.7735979287147,-18006.36416749527,-32511.372269555603,-23941.042893057216,17421.173145910878,3326.6101272833503,31569.022723319857,51689.012549997875,0.0,0.0,0.0,193.0,0.0,193.0,0.0,0.0,0.0,179.0,193.0,0.0,179.0,1744418581.6696737,0.0,2025-04-11 20:43:01.669,LEFT,7
78.0,1619.4956445092732,-17980.167922993653,-32529.85716222014,-23908.766974063754,17291.33186237,3364.585741112917,31443.025939825293,51634.474293526924,0.0,0.0,0.0,193.0,0.0,193.0,0.0,0.0,0.0,179.0,193.0,0.0,179.0,1744418581.6697116,0.0,2025-04-11 20:43:01.669,LEFT,7
79.0,1647.6811942674153,-17943.06402719784,-32514.210941101428,-23865.42694156491,17227.562335439008,3584.7504239976915,31146.35123567,51754.324347296286,0.0,0.0,0.0,193.0,0.0,193.0,0.0,0.0,0.0,179.0,193.0,0.0,179.0,1744418581.6697469,0.0,2025-04-11 20:43:01.669,LEFT,7
80.0,1654.051441437178,-17957.12327446023,-32467.89812659003,-23866.790397976685,17361.270470770654,3568.411298800862,31173.665067394388,51784.70036801104,0.0,0.0,0.0,193.0,0.0,193.0,0.0,0.0,0.0,179.0,193.0,0.0,179.0,1744418581.669781,0.0,2025-04-11 20:43:01.669,LEFT,7
81.0,1621.149673598966,-17998.518705191458,-32499.302327549736,-23923.764994593264,17425.330570379563,3383.5623721554725,31550.850755077692,51705.91046880609,0.0,0.0,0.0,193.0,0.0,193.0,0.0,0.0,0.0,179.0,193.0,0.0,179.0,1744418581.6698146,0.0,2025-04-11 20:43:01.669,LEFT,7
82.0,1638.7404964852926,-17975.18348398012,-32522.503438294345,-23899.423944881433,17308.85563002296,3374.1522877397883,31481.85091994416,51615.38590376209,0.0,0.0,0.0,193.0,0.0,193.0,0.0,0.0,0.0,179.0,193.0,0.0,179.0,1744418581.6698475,0.0,2025-04-11 20:43:01.669,LEFT,7
83.0,1651.8162669916471,-17949.523681345425,-32525.29740635126,-23870.500787556266,17234.893707620347,3617.3169156690738,31203.951681131326,51743.215530302,0.0,0.0,0.0,193.0,0.0,193.0,0.0,0.0,0.0,179.0,193.0,0.0,179.0,1744418581.6698835,0.0,2025-04-11 20:43:01.669,LEFT,7
84.0,1637.2876330956976,-17950.17188193463,-32493.356763524625,-23885.3870493635,17320.366778417443,3604.174089929353,31131.643787818408,51797.84319375076,0.0,0.0,0.0,193.0,0.0,193.0,0.0,0.0,0.0,179.0,193.0,0.0,179.0,1744418581.6699188,0.0,2025-04-11 20:43:01.669,LEFT,7
85.0,1612.4995484947622,-17986.158190507675,-32505.113781108117,-23933.957390064883,17430.78439602666,3402.024913075556,31515.199722671478,51743.95313786902,0.0,0.0,0.0,193.0,0.0,193.0,0.0,0.0,0.0,179.0,193.0,0.0,179.0,1744418581.6699784,0.0,2025-04-11 20:43:01.669,LEFT,7
86.0,1615.8746619075134,-17993.198990011097,-32528.40429883055,-23923.966160293363,17316.924609771326,3314.6295922553054,31517.412545372554,51611.25083103786,0.0,0.0,0.0,193.0,0.0,193.0,0.0,0.0,0.0,179.0,193.0,0.0,179.0,1744418581.6700115,0.0,2025-04-11 20:43:01.670,LEFT,7
87.0,1619.696810209371,-17980.41379218266,-32545.793956016776,-23894.26069191226,17183.060012228492,3550.9322346368117,31263.563783593632,51711.27488747536,0.0,0.0,0.0,193.0,0.0,193.0,0.0,0.0,0.0,178.0,193.0,0.0,178.0,1744418581.6700451,0.0,2025-04-11 20:43:01.670,LEFT,7
88.0,1653.7832205037143,-17952.340001146797,-32489.691077433956,-23864.86814795353,17270.432981304286,3609.4938051097165,31074.423322012823,51757.90062640913,0.0,0.0,0.0,193.0,0.0,192.0,0.0,0.0,0.0,178.0,192.0,0.0,178.0,1744418581.670084,0.0,2025-04-11 20:43:01.670,LEFT,7
89.0,1623.0048683887564,-17992.126106277243,-32483.164368053007,-23904.430735639424,17452.577346870585,3473.5951988214492,31445.75285264884,51745.94244312554,0.0,0.0,0.0,193.0,0.0,192.0,0.0,0.0,0.0,178.0,192.0,0.0,178.0,1744418581.670215,0.0,2025-04-11 20:43:01.670,LEFT,7
90.0,1616.9475456413682,-17989.712117876068,-32520.514133037825,-23912.007977009773,17342.807929850573,3313.489653288085,31528.342548411198,51616.83876715169,0.0,0.0,0.0,193.0,0.0,192.0,0.0,0.0,0.0,178.0,192.0,0.0,178.0,1744418581.6702647,0.0,2025-04-11 20:43:01.670,LEFT,7
91.0,1627.0728858796224,-17961.54891986238,-32534.171048900018,-23877.698049270875,17205.724681106174,3527.217033769731,31295.459722931355,51683.58107609524,0.0,0.0,0.0,193.0,0.0,192.0,0.0,0.0,0.0,178.0,192.0,0.0,178.0,1744418581.670298,0.0,2025-04-11 20:43:01.670,LEFT,7
92.0,1653.2914821256975,-17941.901736486165,-32492.4179902575,-23850.898307668962,17250.003486872138,3634.9747937887664,31052.6303711689,51765.05318463483,0.0,0.0,0.0,193.0,0.0,192.0,0.0,0.0,0.0,178.0,192.0,0.0,178.0,1744418581.6703382,0.0,2025-04-11 20:43:01.670,LEFT,7
93.0,1621.5743567436168,-18000.508010447982,-32484.885452376064,-23898.57457859213,17436.998180985236,3514.1412632633765,31355.608267260584,51752.29033855085,0.0,0.0,0.0,193.0,0.0,192.0,0.0,0.0,0.0,178.0,192.0,0.0,178.0,1744418581.6703792,0.0,2025-04-11 20:43:01.670,LEFT,7
94.0,1625.3294498121084,-18005.17952503914,-32504.599690985644,-23917.68532010142,17378.86129365698,3310.4721677866182,31523.201647186477,51607.89806936956,0.0,0.0,0.0,193.0,0.0,192.0,0.0,0.0,0.0,179.0,192.0,0.0,179.0,1744418581.6704152,0.0,2025-04-11 20:43:01.670,LEFT,7
95.0,1629.7327434698038,-17995.90355109019,-32524.179819128494,-23881.989584206294,17260.307641066032,3473.8410680104575,31343.00188338779,51653.294462358295,0.0,0.0,0.0,193.0,0.0,193.0,0.0,0.0,0.0,179.0,193.0,0.0,179.0,1744418581.6704628,0.0,2025-04-11 20:43:01.670,LEFT,7
96.0,1649.3575751015635,-17968.96969902154,-32500.710487450422,-23864.19759561987,17239.408760000322,3604.7105317962805,31070.645877199877,51764.87437067919,0.0,0.0,0.0,193.0,0.0,193.0,0.0,0.0,0.0,179.0,193.0,0.0,179.0,1744418581.6705036,0.0,2025-04-11 20:43:01.670,LEFT,7
97.0,1631.118551626033,-18003.816068627366,-32469.775673124277,-23893.701898300875,17410.3101981056,3523.730161634703,31295.90675782046,51788.231943634986,0.0,0.0,0.0,193.0,0.0,193.0,0.0,0.0,0.0,179.0,193.0,0.0,179.0,1744418581.670538,0.0,2025-04-11 20:43:01.670,LEFT,7
98.0,1606.665743191927,-18038.48362427755,-32513.562740512225,-23933.040968542216,17381.074116358057,3327.0124586835454,31564.507670939885,51668.91833173255,0.0,0.0,0.0,193.0,0.0,193.0,0.0,0.0,0.0,178.0,193.0,0.0,178.0,1744418581.6705759,0.0,2025-04-11 20:43:01.670,LEFT,7
99.0,1599.7143506663265,-18025.877240404756,-32547.11270893964,-23907.87290428554,17246.874242648395,3449.611777020905,31421.45650642592,51661.050517684285,0.0,0.0,0.0,193.0,0.0,193.0,0.0,0.0,0.0,179.0,193.0,0.0,179.0,1744418581.6706123,0.0,2025-04-11 20:43:01.670,LEFT,7
100.0,1618.1545398419548,-17994.249522000497,-32531.175915143005,-23879.86616848304,17192.380689666355,3636.986450789744,31127.464011605265,51774.55267602834,0.0,0.0,0.0,193.0,0.0,193.0,0.0,0.0,0.0,179.0,193.0,0.0,179.0,1744418581.6708467,0.0,2025-04-11 20:43:01.670,LEFT,7
101.0,1618.7356851977927,-18008.979321596544,-32489.75813266732,-23896.361755891056,17358.72237190275,3565.9973103996886,31228.046861654148,51795.92094372761,0.0,0.0,0.0,193.0,0.0,193.0,0.0,0.0,0.0,179.0,193.0,0.0,179.0,1744418581.6709003,0.0,2025-04-11 20:43:01.670,LEFT,7
102.0,1597.9932663432678,-18045.6585342477,-32522.7269557389,-23944.082730303136,17378.548369234606,3312.260307343043,31559.523231926352,51698.310875691284,0.0,0.0,0.0,193.0,0.0,193.0,0.0,0.0,0.0,179.0,193.0,0.0,179.0,1744418581.6709447,0.0,2025-04-11 20:43:01.670,LEFT,7
103.0,1607.1574815699437,-18020.62458045776,-32545.168107172027,-23917.908837545972,17272.958728427737,3335.9978599545793,31451.072567829204,51631.38975279209,0.0,0.0,0.0,193.0,0.0,193.0,0.0,0.0,0.0,179.0,193.0,0.0,179.0,1744418581.6709929,0.0,2025-04-11 20:43:01.670,LEFT,7
104.0,1618.825092175614,-17984.146533506697,-32542.307083881748,-23889.432715109913,17210.93263756426,3606.543374841616,31162.645657377918,51750.09986759423,0.0,0.0,0.0,193.0,0.0,193.0,0.0,0.0,0.0,178.0,193.0,0.0,178.0,1744418581.671158,0.0,2025-04-11 20:43:01.671,LEFT,7
105.0,1637.7793714737145,-17988.95215856459,-32480.996248840842,-23886.39287786399,17358.074171313547,3595.5910200585154,31150.151032227404,51782.64400752116,0.0,0.0,0.0,193.0,0.0,193.0,0.0,0.0,0.0,178.0,193.0,0.0,178.0,1744418581.6712482,0.0,2025-04-11 20:43:01.671,LEFT,7
106.0,1621.730818954804,-18032.985095141543,-32495.7707519258,-23926.246038227804,17442.004971743223,3396.2581630060868,31520.161809940557,51708.033884529345,0.0,0.0,0.0,193.0,0.0,192.0,0.0,0.0,0.0,178.0,192.0,0.0,178.0,1744418581.6713135,0.0,2025-04-11 20:43:01.671,LEFT,7
107.0,1617.282821808198,-18026.547792738413,-32531.332377354192,-23913.63965435501,17308.207429433754,3355.488581119607,31481.448588543964,51608.72508391441,0.0,0.0,0.0,193.0,0.0,192.0,0.0,0.0,0.0,178.0,192.0,0.0,178.0,1744418581.671388,0.0,2025-04-11 20:43:01.671,LEFT,7
108.0,1613.8406531620806,-18012.13091756474,-32545.6821972945,-23895.043002968196,17188.98322450915,3582.5599530410714,31214.054669625126,51728.82100687278,0.0,0.0,0.0,193.0,0.0,192.0,0.0,0.0,0.0,178.0,192.0,0.0,178.0,1744418581.671458,0.0,2025-04-11 20:43:01.671,LEFT,7
109.0,1619.5850514870945,-18005.09011806132,-32501.313984550714,-23890.48324709931,17281.742963998673,3590.9418572118116,31109.895540463396,51784.20862963303,0.0,0.0,0.0,193.0,0.0,192.0,0.0,0.0,0.0,178.0,192.0,0.0,178.0,1744418581.6715503,0.0,2025-04-11 20:43:01.671,LEFT,7
110.0,1589.79017612817,-18048.34074358234,-32508.824170687698,-23944.507413447787,17414.244105129732,3418.8110731614915,31498.502969563364,51748.66935594909,0.0,0.0,0.0,193.0,0.0,192.0,0.0,0.0,0.0,178.0,192.0,0.0,178.0,1744418581.6716003,0.0,2025-04-11 20:43:01.671,LEFT,7
111.0,1610.9125746384352,-18027.397159027714,-32521.877589449596,-23926.648369627997,17319.04802549458,3289.930914632191,31514.149190682077,51614.156557817056,0.0,0.0,0.0,193.0,0.0,192.0,0.0,0.0,0.0,178.0,192.0,0.0,178.0,1744418581.6716557,0.0,2025-04-11 20:43:01.671,LEFT,7
112.0,1617.8416154195804,-17994.204818511585,-32536.070947178716,-23890.863226755053,17203.891838060837,3523.1043127899547,31264.815481283127,51700.054311758795,0.0,0.0,0.0,193.0,0.0,192.0,0.0,0.0,0.0,178.0,192.0,0.0,178.0,1744418581.6717136,0.0,2025-04-11 20:43:01.671,LEFT,7
113.0,1634.2254441053205,-17975.719925847046,-32494.161426325016,-23878.502712071266,17251.478702006185,3588.7513862551914,31075.138577835394,51772.071632393796,0.0,0.0,0.0,193.0,0.0,192.0,0.0,0.0,0.0,178.0,192.0,0.0,178.0,1744418581.671765,0.0,2025-04-11 20:43:01.671,LEFT,7
114.0,1609.4820629932956,-18018.56821996787,-32480.169234295994,-23921.26159921427,17396.78739271014,3457.3678323468966,31431.447736197442,51764.717908468,0.0,0.0,0.0,193.0,0.0,192.0,0.0,0.0,0.0,178.0,192.0,0.0,178.0,1744418581.671808,0.0,2025-04-11 20:43:01.671,LEFT,7
115.0,1613.7959496731698,-18011.303903019896,-32506.05255437524,-23920.099308502595,17287.196789645768,3288.902734387247,31537.372653171144,51631.74738070338,0.0,0.0,0.0,193.0,0.0,192.0,0.0,0.0,0.0,178.0,192.0,0.0,178.0,1744418581.6718721,0.0,2025-04-11 20:43:01.671,LEFT,7
116.0,1616.925193896913,-17994.584798167325,-32516.71433648042,-23895.221816923837,17184.1552477068,3494.3376176759743,31318.884351120516,51697.48386114644,0.0,0.0,0.0,193.0,0.0,192.0,0.0,0.0,0.0,178.0,192.0,0.0,178.0,1744418581.6720607,0.0,2025-04-11 20:43:01.672,LEFT,7
117.0,1646.049516922178,-17975.876388058234,-32473.217841770394,-23870.165511389438,17229.529288951075,3611.438406877328,31062.308676518045,51784.81212673332,0.0,0.0,0.0,193.0,0.0,192.0,0.0,0.0,0.0,177.0,192.0,0.0,177.0,1744418581.6720986,0.0,2025-04-11 20:43:01.672,LEFT,7
118.0,1624.3236213116195,-18021.18337406914,-32453.74947234982,-23899.02161348124,17426.716378535795,3500.4619956567285,31353.976589915346,51797.53026932839,0.0,0.0,0.0,193.0,0.0,192.0,0.0,0.0,0.0,179.0,192.0,0.0,179.0,1744418581.6721435,0.0,2025-04-11 20:43:01.672,LEFT,7
119.0,1614.4441502623738,-18033.230964330553,-32485.62305994309,-23918.266465457258,17377.073154100555,3279.783222649482,31555.00817954638,51668.02426195434,0.0,0.0,0.0,193.0,0.0,192.0,0.0,0.0,0.0,178.0,192.0,0.0,178.0,1744418581.6721785,0.0,2025-04-11 20:43:01.672,LEFT,7
120.0,1620.4567695208514,-18006.632388428734,-32507.952452653943,-23882.14604641748,17244.102626335934,3427.1035703544107,31377.177700659955,51695.293390189814,0.0,0.0,0.0,193.0,0.0,193.0,0.0,0.0,0.0,179.0,193.0,0.0,179.0,1744418581.6722329,0.0,2025-04-11 20:43:01.672,LEFT,7
121.0,1644.8872262105021,-17971.763667078456,-32484.259603531314,-23852.977019903305,17208.45159392972,3577.597865771993,31091.656516987863,51797.507917583935,0.0,0.0,0.0,193.0,0.0,193.0,0.0,0.0,0.0,179.0,193.0,0.0,179.0,1744418581.672266,0.0,2025-04-11 20:43:01.672,LEFT,7
122.0,1616.0087723742454,-18011.907400120188,-32465.730007377868,-23887.175188919926,17398.64258749993,3526.2335570136975,31291.704629862863,51824.64293535268,0.0,0.0,0.0,193.0,0.0,193.0,0.0,0.0,0.0,178.0,193.0,0.0,178.0,1744418581.672299,0.0,2025-04-11 20:43:01.672,LEFT,7
123.0,1611.247850805265,-18024.826708415356,-32491.702734434934,-23918.53468639072,17399.20138111131,3328.5547290509617,31581.964383359482,51717.600431156214,0.0,0.0,0.0,193.0,0.0,193.0,0.0,0.0,0.0,179.0,193.0,0.0,179.0,1744418581.6723309,0.0,2025-04-11 20:43:01.672,LEFT,7
124.0,1621.149673598966,-17995.434164456627,-32520.692946993466,-23894.283043656713,17258.4747980207,3409.713913168182,31446.736329404874,51694.75694832289,0.0,0.0,0.0,193.0,0.0,193.0,0.0,0.0,0.0,179.0,193.0,0.0,179.0,1744418581.6723628,0.0,2025-04-11 20:43:01.672,LEFT,7
125.0,1647.9270634564239,-17958.21850993854,-32506.901920664543,-23869.651421266964,17187.999747753114,3604.1964416738087,31152.54266888412,51809.64491482317,0.0,0.0,0.0,193.0,0.0,193.0,0.0,0.0,0.0,179.0,193.0,0.0,179.0,1744418581.6723945,0.0,2025-04-11 20:43:01.672,LEFT,7
126.0,1635.5218452837285,-17983.31951896185,-32457.683379373957,-23884.58238656311,17342.629115894928,3547.4900659906943,31228.203323865335,51833.15894999015,0.0,0.0,0.0,193.0,0.0,193.0,0.0,0.0,0.0,179.0,193.0,0.0,179.0,1744418581.6724267,0.0,2025-04-11 20:43:01.672,LEFT,7
127.0,1605.279935035698,-18024.200859570607,-32478.917536606496,-23925.48607891632,17385.92444490486,3349.0736304609336,31597.744714944925,51763.77913520088,0.0,0.0,0.0,193.0,0.0,193.0,0.0,0.0,0.0,179.0,193.0,0.0,179.0,1744418581.6724584,0.0,2025-04-11 20:43:01.672,LEFT,7
128.0,1622.5801852441057,-17995.635330156725,-32501.448095017447,-23891.690241299897,17259.32416431,3371.6265406163384,31501.27458587582,51689.12430872015,0.0,0.0,0.0,193.0,0.0,193.0,0.0,0.0,0.0,179.0,193.0,0.0,179.0,1744418581.6724904,0.0,2025-04-11 20:43:01.672,LEFT,7
129.0,1628.346935313575,-17964.342887919294,-32507.5724729982,-23863.124711886016,17173.091134201426,3611.281944666141,31217.720355715795,51813.511766613934,0.0,0.0,0.0,193.0,0.0,193.0,0.0,0.0,0.0,179.0,193.0,0.0,179.0,1744418581.6725235,0.0,2025-04-11 20:43:01.672,LEFT,7
130.0,1632.8396359490916,-17971.786018822913,-32463.89716433253,-23854.496938526267,17296.919798483825,3609.2032324317975,31188.730143157263,51855.84597061229,0.0,0.0,0.0,193.0,0.0,193.0,0.0,0.0,0.0,178.0,193.0,0.0,178.0,1744418581.6725557,0.0,2025-04-11 20:43:01.672,LEFT,7
131.0,1619.115664853533,-18011.840344886823,-32467.89812659003,-23894.327747145624,17421.486070333252,3419.995715617623,31570.028551820345,51792.121147170204,0.0,0.0,0.0,193.0,0.0,193.0,0.0,0.0,0.0,178.0,193.0,0.0,178.0,1744418581.6726036,0.0,2025-04-11 20:43:01.672,LEFT,7
132.0,1614.2206328178208,-18006.475926217547,-32501.403391528536,-23886.929319730916,17314.488269625697,3353.968662496646,31550.96251379997,51687.58203835274,0.0,0.0,0.0,193.0,0.0,193.0,0.0,0.0,0.0,179.0,193.0,0.0,179.0,1744418581.6726356,0.0,2025-04-11 20:43:01.672,LEFT,7
133.0,1616.6122694745386,-17977.441010170103,-32517.54135102527,-23862.074179896616,17183.998785495616,3597.4462148483058,31281.266365202235,51796.055054194345,0.0,0.0,0.0,193.0,0.0,193.0,0.0,0.0,0.0,179.0,193.0,0.0,179.0,1744418581.6726685,0.0,2025-04-11 20:43:01.672,LEFT,7
134.0,1629.9339091699017,-17970.377858922227,-32475.050684815727,-23862.632973508,17261.380524799886,3638.0369827791433,31164.098520767515,51866.06071782836,0.0,0.0,0.0,193.0,0.0,193.0,0.0,0.0,0.0,179.0,193.0,0.0,179.0,1744418581.6726997,0.0,2025-04-11 20:43:01.672,LEFT,7
135.0,1601.9048216229467,-18017.003597855997,-32482.247946530337,-23919.562866635664,17393.81461069758,3457.323128857986,31553.644723134606,51842.70314487257,0.0,0.0,0.0,193.0,0.0,193.0,0.0,0.0,0.0,179.0,193.0,0.0,179.0,1744418581.6727445,0.0,2025-04-11 20:43:01.672,LEFT,7
136.0,1619.9426793983794,-17995.70238539009,-32493.893205391552,-23909.549285119687,17313.99653124768,3313.2214323546214,31590.770970674872,51703.630590871646,0.0,0.0,0.0,193.0,0.0,193.0,0.0,0.0,0.0,178.0,193.0,0.0,178.0,1744418581.672776,0.0,2025-04-11 20:43:01.672,LEFT,7
137.0,1622.4013712884632,-17961.012477995453,-32511.931063166987,-23884.38122086301,17188.603244853406,3544.1149525779433,31351.942581169915,51796.747958272455,0.0,0.0,0.0,193.0,0.0,192.0,0.0,0.0,0.0,178.0,192.0,0.0,178.0,1744418581.6728077,0.0,2025-04-11 20:43:01.672,LEFT,7
138.0,1641.2662436087423,-17941.857032997257,-32475.85534761612,-23867.86328171054,17204.49533516113,3616.601659846504,31138.170497199357,51866.865380628755,0.0,0.0,0.0,193.0,0.0,192.0,0.0,0.0,0.0,178.0,192.0,0.0,178.0,1744418581.6728392,0.0,2025-04-11 20:43:01.672,LEFT,7
139.0,1614.7794264292033,-18002.31850174886,-32466.624077156077,-23903.11198271656,17376.0002703667,3486.290989672064,31483.57200426722,51866.1948282951,0.0,0.0,0.0,193.0,0.0,192.0,0.0,0.0,0.0,178.0,192.0,0.0,178.0,1744418581.6728706,0.0,2025-04-11 20:43:01.672,LEFT,7
140.0,1604.3411617685751,-18022.03274035844,-32492.753266424334,-23913.863171799563,17334.24721172419,3310.583926508895,31616.11784888719,51737.33702151025,0.0,0.0,0.0,193.0,0.0,192.0,0.0,0.0,0.0,178.0,192.0,0.0,178.0,1744418581.672902,0.0,2025-04-11 20:43:01.672,LEFT,7
141.0,1617.9086706529465,-17989.153324264684,-32498.20709207143,-23858.944935672873,17242.202728057233,3520.377399966407,31401.138770716047,51795.764481516424,0.0,0.0,0.0,193.0,0.0,192.0,0.0,0.0,0.0,178.0,192.0,0.0,178.0,1744418581.6729336,0.0,2025-04-11 20:43:01.672,LEFT,7
142.0,1636.4606185508512,-17964.611108852758,-32478.783426139766,-23846.29384831117,17239.36405651141,3650.3527939740175,31147.267657192668,51889.08301461733,0.0,0.0,0.0,193.0,0.0,192.0,0.0,0.0,0.0,178.0,192.0,0.0,178.0,1744418581.6729648,0.0,2025-04-11 20:43:01.672,LEFT,7
143.0,1615.6734962074156,-17996.70821389058,-32464.455957943912,-23891.913758744453,17408.96909343828,3541.0080600986553,31418.327262202176,51901.823508956855,0.0,0.0,0.0,193.0,0.0,192.0,0.0,0.0,0.0,178.0,192.0,0.0,178.0,1744418581.6729963,0.0,2025-04-11 20:43:01.672,LEFT,7
144.0,1605.7046181803487,-18017.875315889756,-32495.658993203524,-23916.098346245093,17358.431799224833,3326.9006999612693,31632.65813978412,51771.24461784895,0.0,0.0,0.0,193.0,0.0,192.0,0.0,0.0,0.0,179.0,192.0,0.0,179.0,1744418581.6730275,0.0,2025-04-11 20:43:01.673,LEFT,7
145.0,1610.599650216061,-18001.26796975946,-32511.260510833326,-23874.702915513866,17233.440844230754,3484.5028501156394,31456.213469053924,51784.25333312194,0.0,0.0,0.0,193.0,0.0,193.0,0.0,0.0,0.0,178.0,193.0,0.0,178.0,1744418581.6730592,0.0,2025-04-11 20:43:01.673,LEFT,7
146.0,1623.98834514479,-17975.60816712477,-32490.5180919788,-23854.16166235944,17183.68586107324,3666.758974404213,31176.593145918032,51905.06451190287,0.0,0.0,0.0,193.0,0.0,193.0,0.0,0.0,0.0,179.0,193.0,0.0,179.0,1744418581.6731036,0.0,2025-04-11 20:43:01.673,LEFT,7
147.0,1616.344048541075,-17999.43512671413,-32454.17415549447,-23872.959479446352,17361.069305070556,3585.979769942733,31338.28566530772,51925.382247612746,0.0,0.0,0.0,193.0,0.0,193.0,0.0,0.0,0.0,179.0,193.0,0.0,179.0,1744418581.6731353,0.0,2025-04-11 20:43:01.673,LEFT,7
148.0,1590.572487184106,-18036.337856809838,-32497.402429271035,-23930.6493318855,17353.872043355947,3336.4672465881404,31648.03613996937,51822.20659520705,0.0,0.0,0.0,193.0,0.0,192.0,0.0,0.0,0.0,178.0,192.0,0.0,178.0,1744418581.673167,0.0,2025-04-11 20:43:01.673,LEFT,7
149.0,1586.7056353933378,-18017.741205423023,-32529.63364477559,-23904.386032150513,17212.40785269831,3398.5827444294387,31521.949949496982,51791.428243092094,0.0,0.0,0.0,193.0,0.0,193.0,0.0,0.0,0.0,179.0,193.0,0.0,179.0,1744418581.6731985,0.0,2025-04-11 20:43:01.673,LEFT,7
150.0,1607.8950891369689,-17983.78890559541,-32513.96507191242,-23864.734037486796,17153.511006058576,3631.7784943316574,31226.392832564456,51909.33369509384,0.0,0.0,0.0,193.0,0.0,193.0,0.0,0.0,0.0,179.0,193.0,0.0,179.0,1744418581.6732423,0.0,2025-04-11 20:43:01.673,LEFT,7
151.0,1620.9038044099575,-17988.594530653303,-32463.919516076985,-23869.20438637786,17310.643769579383,3575.7426709822025,31265.262516172235,51932.40069537171,0.0,0.0,0.0,193.0,0.0,193.0,0.0,0.0,0.0,179.0,193.0,0.0,179.0,1744418581.673274,0.0,2025-04-11 20:43:01.673,LEFT,7
152.0,1584.4704609478072,-18040.405874300704,-32503.7726764408,-23936.617247655064,17365.62906093944,3356.4050026422747,31630.713538016505,51853.49903744448,0.0,0.0,0.0,193.0,0.0,193.0,0.0,0.0,0.0,179.0,193.0,0.0,179.0,1744418581.6733053,0.0,2025-04-11 20:43:01.673,LEFT,7
153.0,1588.6725889054048,-18024.536135737435,-32530.81828723172,-23917.417099167957,17231.406835485323,3345.095019947889,31554.985827801924,51779.470059808504,0.0,0.0,0.0,193.0,0.0,193.0,0.0,0.0,0.0,179.0,193.0,0.0,179.0,1744418581.6733365,0.0,2025-04-11 20:43:01.673,LEFT,7
154.0,1618.0651328641336,-17982.291338716906,-32514.322699823704,-23871.081932912104,17154.40507583679,3573.306330836574,31258.04290271317,51892.77105245245,0.0,0.0,0.0,193.0,0.0,193.0,0.0,0.0,0.0,178.0,193.0,0.0,178.0,1744418582.1473205,0.0,2025-04-11 20:43:02.147,LEFT,7
155.0,1627.7434382132815,-17976.055202013875,-32464.70182713292,-23877.273366126225,17269.002469659146,3577.5531622830827,31205.672765454387,51941.52020710948,0.0,0.0,0.0,193.0,0.0,193.0,0.0,0.0,0.0,178.0,193.0,0.0,178.0,1744418582.1474864,0.0,2025-04-11 20:43:02.147,LEFT,7
156.0,1601.1895658003768,-18008.50993496298,-32469.686266146455,-23926.178982994436,17371.86519764247,3398.001599073601,31593.4084765206,51897.5990292548,0.0,0.0,0.0,193.0,0.0,193.0,0.0,0.0,0.0,179.0,193.0,0.0,179.0,1744418582.1475456,0.0,2025-04-11 20:43:02.147,LEFT,7
157.0,1600.7425309112707,-18002.050280815398,-32492.95443212443,-23903.022575738738,17261.112303866423,3327.459493572652,31594.72722944346,51799.22900190699,0.0,0.0,0.0,193.0,0.0,193.0,0.0,0.0,0.0,179.0,193.0,0.0,179.0,1744418582.1475985,0.0,2025-04-11 20:43:02.147,LEFT,7
158.0,1612.8795281505024,-17987.767516108455,-32501.023411872797,-23855.256897837746,17162.02702069605,3594.47343283575,31325.38870875701,51902.89639269071,0.0,0.0,0.0,193.0,0.0,193.0,0.0,0.0,0.0,179.0,193.0,0.0,179.0,1744418582.1476407,0.0,2025-04-11 20:43:02.147,LEFT,7
159.0,1625.888243423491,-17982.73837360601,-32459.158594508004,-23847.903173911953,17238.917021622303,3638.5734246460706,31175.4085034619,51959.28984395145,0.0,0.0,0.0,193.0,0.0,193.0,0.0,0.0,0.0,179.0,193.0,0.0,179.0,1744418582.1476772,0.0,2025-04-11 20:43:02.147,LEFT,7
160.0,1585.185716770377,-18032.33689455234,-32464.388902710547,-23904.72130831734,17387.936101905838,3478.467879112706,31562.428958705543,51942.12370420977,0.0,0.0,0.0,193.0,0.0,193.0,0.0,0.0,0.0,179.0,193.0,0.0,179.0,1744418582.1477106,0.0,2025-04-11 20:43:02.147,LEFT,7
161.0,1578.703710878338,-18038.081292877352,-32505.940795652965,-23915.78542182272,17263.95097541225,3332.5109878195512,31646.20329692403,51823.83827255229,0.0,0.0,0.0,193.0,0.0,193.0,0.0,0.0,0.0,179.0,193.0,0.0,179.0,1744418582.148116,0.0,2025-04-11 20:43:02.148,LEFT,7
162.0,1594.9757808418015,-18009.113432063274,-32511.72989746689,-23878.34624986008,17141.91045068627,3549.434667758306,31402.45752363891,51900.32594207835,0.0,0.0,0.0,193.0,0.0,193.0,0.0,0.0,0.0,178.0,193.0,0.0,178.0,1744418582.1482017,0.0,2025-04-11 20:43:02.148,LEFT,7
163.0,1622.2672608217313,-17981.8443038278,-32464.813585855198,-23854.72045597082,17190.681957087752,3623.5754041165596,31169.35118071451,51976.3665767153,0.0,0.0,0.0,193.0,0.0,193.0,0.0,0.0,0.0,178.0,193.0,0.0,178.0,1744418582.1482773,0.0,2025-04-11 20:43:02.148,LEFT,7
164.0,1598.954391354846,-18017.607094956293,-32449.61439962559,-23887.085781942103,17402.53179103515,3509.737969605681,31499.03941143029,51975.53956217046,0.0,0.0,0.0,193.0,0.0,192.0,0.0,0.0,0.0,178.0,192.0,0.0,178.0,1744418582.1483529,0.0,2025-04-11 20:43:02.148,LEFT,7
165.0,1594.8640221195249,-18024.71494969308,-32484.326658764683,-23897.904026258475,17334.358970446465,3334.187368653699,31644.12458468969,51828.755656332454,0.0,0.0,0.0,193.0,0.0,192.0,0.0,0.0,0.0,178.0,192.0,0.0,178.0,1744418582.1484764,0.0,2025-04-11 20:43:02.148,LEFT,7
166.0,1602.955353612346,-18006.252408772994,-32506.030202630784,-23864.19759561987,17208.295131718533,3529.8545396154573,31448.79268989476,51878.80121216789,0.0,0.0,0.0,193.0,0.0,192.0,0.0,0.0,0.0,178.0,192.0,0.0,178.0,1744418582.148513,0.0,2025-04-11 20:43:02.148,LEFT,7
167.0,1626.916423668435,-17982.447800928094,-32476.056513316216,-23840.884726152985,17195.711099590197,3672.637483195959,31184.192739032835,51980.769870373,0.0,0.0,0.0,193.0,0.0,192.0,0.0,0.0,0.0,178.0,192.0,0.0,178.0,1744418582.1485515,0.0,2025-04-11 20:43:02.148,LEFT,7
168.0,1604.8776036355025,-18020.51282173548,-32452.877754316065,-23879.217967893837,17363.43858998282,3569.2383133457083,31423.40110819353,51992.99627459005,0.0,0.0,0.0,193.0,0.0,192.0,0.0,0.0,0.0,178.0,192.0,0.0,178.0,1744418582.1486013,0.0,2025-04-11 20:43:02.148,LEFT,7
169.0,1590.796004628659,-18041.411702801193,-32482.404408741524,-23910.957445020373,17332.548479145586,3349.1183339498443,31668.823262312802,51878.98002612353,0.0,0.0,0.0,193.0,0.0,192.0,0.0,0.0,0.0,178.0,192.0,0.0,178.0,1744418582.1486392,0.0,2025-04-11 20:43:02.148,LEFT,7
170.0,1602.5753739566057,-18006.94531285111,-32504.443228774457,-23880.693183027888,17205.16588749479,3472.8575912544243,31514.082135448713,51888.814793683865,0.0,0.0,0.0,193.0,0.0,192.0,0.0,0.0,0.0,178.0,192.0,0.0,178.0,1744418582.1486745,0.0,2025-04-11 20:43:02.148,LEFT,7
171.0,1621.5967084880722,-17969.61789961075,-32491.725086179387,-23847.43378727839,17149.01830542306,3661.4839627127603,31223.241236596255,52006.98846661908,0.0,0.0,0.0,193.0,0.0,192.0,0.0,0.0,0.0,178.0,192.0,0.0,178.0,1744418582.1487129,0.0,2025-04-11 20:43:02.148,LEFT,7
172.0,1612.8795281505024,-17994.361280722773,-32458.75626310781,-23864.10818864205,17314.95765625926,3590.897153722901,31359.341008584623,52034.235243110095,0.0,0.0,0.0,193.0,0.0,192.0,0.0,0.0,0.0,178.0,192.0,0.0,178.0,1744418582.1487477,0.0,2025-04-11 20:43:02.148,LEFT,7
173.0,1582.9728940693014,-18039.04241788893,-32494.183778069473,-23909.86220954206,17331.341484945,3377.7062151081823,31691.711448635037,51938.92740475266,0.0,0.0,0.0,193.0,0.0,192.0,0.0,0.0,0.0,178.0,192.0,0.0,178.0,1744418582.148782,0.0,2025-04-11 20:43:02.148,LEFT,7
174.0,1585.0069028147345,-18028.6041532283,-32522.972824927907,-23880.469665583332,17187.26214018609,3418.29698303902,31575.951764101002,51895.43091004264,0.0,0.0,0.0,193.0,0.0,193.0,0.0,0.0,0.0,179.0,193.0,0.0,179.0,1744418582.148818,0.0,2025-04-11 20:43:02.148,LEFT,7
175.0,1610.085560093589,-17989.287434731417,-32496.865987404108,-23845.377426788502,17120.05044460898,3628.5151396411825,31263.563783593632,51999.29946652645,0.0,0.0,0.0,193.0,0.0,192.0,0.0,0.0,0.0,178.0,192.0,0.0,178.0,1744418582.1488519,0.0,2025-04-11 20:43:02.148,LEFT,7
176.0,1609.8620426490359,-18008.062900073874,-32443.7582425783,-23852.842909436575,17267.79547545856,3597.2003456592975,31281.1322547355,52029.20610060765,0.0,0.0,0.0,193.0,0.0,193.0,0.0,0.0,0.0,179.0,193.0,0.0,179.0,1744418582.148939,0.0,2025-04-11 20:43:02.148,LEFT,7
177.0,1579.9330568233797,-18054.018086673987,-32466.735835878353,-23906.330633918125,17350.00519156518,3385.685787878727,31655.233401683978,51959.40160267372,0.0,0.0,0.0,193.0,0.0,193.0,0.0,0.0,0.0,179.0,193.0,0.0,179.0,1744418582.1489816,0.0,2025-04-11 20:43:02.148,LEFT,7
178.0,1587.2867807491757,-18032.403949785705,-32485.19837679844,-23878.525063815723,17252.484530506674,3374.8451918179026,31601.83508418025,51881.50577324698,0.0,0.0,0.0,193.0,0.0,193.0,0.0,0.0,0.0,179.0,193.0,0.0,179.0,1744418582.1490164,0.0,2025-04-11 20:43:02.149,LEFT,7
179.0,1601.8377663895806,-17994.428335956138,-32489.75813266732,-23838.96247612983,17142.62570650884,3619.3956279034173,31309.96600508285,51994.76206240202,0.0,0.0,0.0,193.0,0.0,193.0,0.0,0.0,0.0,179.0,193.0,0.0,179.0,1744418582.1490576,0.0,2025-04-11 20:43:02.149,LEFT,7
180.0,1614.7570746847482,-17990.38267020973,-32439.80198380971,-23836.66024645093,17252.775103184595,3631.152645486909,31225.45405929733,52037.38683907829,0.0,0.0,0.0,193.0,0.0,193.0,0.0,0.0,0.0,178.0,193.0,0.0,178.0,1744418582.14914,0.0,2025-04-11 20:43:02.149,LEFT,7
181.0,1572.378167197486,-18054.196900629628,-32464.321847477182,-23908.722270574843,17362.566871949064,3437.9888699041453,31634.960369463013,52006.876707896794,0.0,0.0,0.0,193.0,0.0,193.0,0.0,0.0,0.0,179.0,193.0,0.0,179.0,1744418582.1491773,0.0,2025-04-11 20:43:02.149,LEFT,7
182.0,1579.150745767444,-18043.065731890885,-32488.439379744457,-23893.88071225652,17261.55933875553,3335.4390663431964,31642.895238744648,51902.96344792408,0.0,0.0,0.0,193.0,0.0,193.0,0.0,0.0,0.0,179.0,193.0,0.0,179.0,1744418582.1492147,0.0,2025-04-11 20:43:02.149,LEFT,7
183.0,1580.0448155456563,-18015.930714122143,-32503.39269678506,-23867.639764265987,17151.655811268785,3596.6862555368252,31386.36426763109,52007.949591630655,0.0,0.0,0.0,193.0,0.0,193.0,0.0,0.0,0.0,178.0,193.0,0.0,178.0,1744418582.1492493,0.0,2025-04-11 20:43:02.149,LEFT,7
184.0,1604.5870309575835,-17993.46721094456,-32452.542478149237,-23843.4775285098,17206.082309017456,3657.7735731331795,31210.478390512275,52070.53447610551,0.0,0.0,0.0,193.0,0.0,193.0,0.0,0.0,0.0,178.0,193.0,0.0,178.0,1744418582.1492848,0.0,2025-04-11 20:43:02.149,LEFT,7
185.0,1591.019522073212,-18034.75088295351,-32446.7086728464,-23876.312241114647,17375.799104666603,3506.2958009595636,31575.996467589914,52054.66473754225,0.0,0.0,0.0,193.0,0.0,193.0,0.0,0.0,0.0,179.0,193.0,0.0,179.0,1744418582.1493225,0.0,2025-04-11 20:43:02.149,LEFT,7
186.0,1579.6871876343714,-18047.33491508185,-32489.6687256895,-23888.58334882061,17278.479609308197,3341.5634443239505,31661.111910475724,51923.88468073424,0.0,0.0,0.0,193.0,0.0,193.0,0.0,0.0,0.0,179.0,193.0,0.0,179.0,1744418582.1493576,0.0,2025-04-11 20:43:02.149,LEFT,7
187.0,1581.8106033576255,-18019.864621146276,-32498.00592637133,-23860.39779906247,17147.654849011284,3550.3287375365185,31434.062890298712,51998.8747833818,0.0,0.0,0.0,193.0,0.0,193.0,0.0,0.0,0.0,179.0,193.0,0.0,179.0,1744418582.1493945,0.0,2025-04-11 20:43:02.149,LEFT,7
188.0,1611.918403138924,-17986.761687607966,-32455.492908417335,-23833.86627839402,17159.054238683493,3649.212855006797,31199.07900084007,52092.10390950488,0.0,0.0,0.0,193.0,0.0,193.0,0.0,0.0,0.0,179.0,193.0,0.0,179.0,1744418582.1494308,0.0,2025-04-11 20:43:02.149,LEFT,7
189.0,1596.8533273760472,-18027.531269494448,-32437.11977447507,-23871.14898814547,17344.931345573827,3512.9119173183344,31509.500027835376,52097.22245898515,0.0,0.0,0.0,193.0,0.0,192.0,0.0,0.0,0.0,179.0,192.0,0.0,179.0,1744418582.149468,0.0,2025-04-11 20:43:02.149,LEFT,7
190.0,1590.3042662506423,-18041.881089434755,-32470.24505975784,-23892.316090144646,17282.368812843422,3331.996897697079,31692.8290358578,51970.532771412465,0.0,0.0,0.0,193.0,0.0,193.0,0.0,0.0,0.0,179.0,193.0,0.0,179.0,1744418582.1495223,0.0,2025-04-11 20:43:02.149,LEFT,7
191.0,1582.5258591801953,-18032.694522463622,-32512.467505033914,-23873.54062480219,17134.713188971662,3536.0683245740324,31505.767286511338,52010.34122828737,0.0,0.0,0.0,193.0,0.0,192.0,0.0,0.0,0.0,178.0,192.0,0.0,178.0,1744418582.149602,0.0,2025-04-11 20:43:02.149,LEFT,7
192.0,1626.3576300570526,-17985.487638174014,-32475.318905749195,-23832.972208615807,17140.30112508549,3700.3983498094503,31216.960396404316,52105.246735244604,0.0,0.0,0.0,193.0,0.0,192.0,0.0,0.0,0.0,179.0,192.0,0.0,179.0,1744418582.14964,0.0,2025-04-11 20:43:02.149,LEFT,7
193.0,1602.9330018678907,-18015.506030977493,-32442.305379188703,-23857.089740883082,17353.894395100404,3624.983564017244,31440.768413635305,52130.213633801184,0.0,0.0,0.0,193.0,0.0,192.0,0.0,0.0,0.0,178.0,192.0,0.0,178.0,1744418582.1496804,0.0,2025-04-11 20:43:02.149,LEFT,7
194.0,1569.7853648406704,-18044.496243536025,-32471.966144080896,-23881.520197572732,17344.126682773433,3392.7936426155143,31697.634660915694,52005.31208578493,0.0,0.0,0.0,193.0,0.0,192.0,0.0,0.0,0.0,178.0,192.0,0.0,178.0,1744418582.1497197,0.0,2025-04-11 20:43:02.149,LEFT,7
195.0,1575.954446310335,-18016.154231566696,-32497.268318804305,-23840.303580797146,17220.45448070222,3497.64567585536,31544.636970119118,51989.33058849938,0.0,0.0,0.0,193.0,0.0,192.0,0.0,0.0,0.0,178.0,192.0,0.0,178.0,1744418582.1497867,0.0,2025-04-11 20:43:02.149,LEFT,7
196.0,1591.1312807954885,-17998.94338833611,-32493.446170502448,-23821.595170688055,17105.76767990204,3684.305093801629,31260.278077158702,52126.25737503259,0.0,0.0,0.0,193.0,0.0,192.0,0.0,0.0,0.0,178.0,192.0,0.0,178.0,1744418582.1498244,0.0,2025-04-11 20:43:02.149,LEFT,7
197.0,1583.7105016363266,-18022.502126992003,-32445.94871353492,-23835.587362717077,17219.64981790183,3607.8397760200237,31367.409988332987,52156.02989864706,0.0,0.0,0.0,193.0,0.0,192.0,0.0,0.0,0.0,178.0,192.0,0.0,178.0,1744418582.1498623,0.0,2025-04-11 20:43:02.149,LEFT,7
198.0,1559.9058937914247,-18057.549662297926,-32467.51814693429,-23885.45410459687,17316.343464415488,3387.2727617350533,31710.79983839987,52065.39357488079,0.0,0.0,0.0,193.0,0.0,192.0,0.0,0.0,0.0,178.0,192.0,0.0,178.0,1744418582.149897,0.0,2025-04-11 20:43:02.149,LEFT,7
199.0,1568.444260173352,-18037.52249926597,-32489.53461522277,-23856.91092692744,17240.526347223087,3415.1453870708215,31604.67375572607,52009.84948990936,0.0,0.0,0.0,193.0,0.0,192.0,0.0,0.0,0.0,178.0,192.0,0.0,178.0,1744418582.149934,0.0,2025-04-11 20:43:02.149,LEFT,7
200.0,1577.0049782997346,-18009.158135552185,-32488.52878672228,-23832.81574640462,17142.424540808744,3650.2186835072857,31321.85713313307,52137.4555990047,0.0,0.0,0.0,193.0,0.0,192.0,0.0,0.0,0.0,178.0,192.0,0.0,178.0,1744418582.149974,0.0,2025-04-11 20:43:02.149,LEFT,7
201.0,1582.8611353470249,-18014.99194085502,-32443.08769024464,-23831.027606848194,17267.70606848074,3641.009764791699,31321.141877310503,52179.65569253632,0.0,0.0,0.0,193.0,0.0,192.0,0.0,0.0,0.0,178.0,192.0,0.0,178.0,1744418582.1500108,0.0,2025-04-11 20:43:02.150,LEFT,7
202.0,1570.5229724076955,-18046.217327859085,-32452.38601593805,-23866.499825298768,17363.460941727273,3447.287195597553,31691.59968991276,52107.86188934588,0.0,0.0,0.0,193.0,0.0,192.0,0.0,0.0,0.0,178.0,192.0,0.0,178.0,1744418582.1500463,0.0,2025-04-11 20:43:02.150,LEFT,7
203.0,1563.9068560489245,-18037.030760887952,-32488.34997276664,-23851.032418135695,17227.942315094748,3423.3037737970085,31659.279067430387,52017.69495221317,0.0,0.0,0.0,193.0,0.0,193.0,0.0,0.0,0.0,178.0,193.0,0.0,178.0,1744418582.150087,0.0,2025-04-11 20:43:02.150,LEFT,7
204.0,1566.5220101501955,-18012.13091756474,-32498.20709207143,-23829.32887426959,17128.09707261289,3663.0709365690873,31385.98428797535,52127.03968608853,0.0,0.0,0.0,193.0,0.0,193.0,0.0,0.0,0.0,178.0,193.0,0.0,178.0,1744418582.15012,0.0,2025-04-11 20:43:02.150,LEFT,7
205.0,1589.79017612817,-17991.23203649903,-32442.46184139989,-23818.532981697677,17241.532175723576,3661.1263348014754,31264.94959174986,52168.032785419564,0.0,0.0,0.0,193.0,0.0,193.0,0.0,0.0,0.0,179.0,193.0,0.0,179.0,1744418582.1501725,0.0,2025-04-11 20:43:02.150,LEFT,7
206.0,1569.3383299515642,-18033.81210968639,-32450.642579870535,-23870.500787556266,17378.369555278965,3487.0733007279996,31663.436491899076,52149.36907879938,0.0,0.0,0.0,193.0,0.0,193.0,0.0,0.0,0.0,179.0,193.0,0.0,179.0,1744418582.1502104,0.0,2025-04-11 20:43:02.150,LEFT,7
207.0,1569.1595159959218,-18031.7557491965,-32485.891280876553,-23871.037229423193,17251.679867706283,3372.989997028112,31684.625945642707,52022.16530110423,0.0,0.0,0.0,193.0,0.0,193.0,0.0,0.0,0.0,179.0,193.0,0.0,179.0,1744418582.15028,0.0,2025-04-11 20:43:02.150,LEFT,7
208.0,1578.6143039005167,-17999.926865092144,-32506.231368330882,-23840.48239475279,17128.52175575754,3581.084737907021,31431.760660619817,52111.058188802985,0.0,0.0,0.0,193.0,0.0,193.0,0.0,0.0,0.0,179.0,193.0,0.0,179.0,1744418582.150318,0.0,2025-04-11 20:43:02.150,LEFT,7
209.0,1616.6122694745386,-17969.75201007748,-32448.765033336287,-23806.03835654716,17185.608111096397,3664.8814278699674,31244.408338595433,52186.7188437842,0.0,0.0,0.0,193.0,0.0,193.0,0.0,0.0,0.0,179.0,193.0,0.0,179.0,1744418582.1503692,0.0,2025-04-11 20:43:02.150,LEFT,7
210.0,1590.3936732284635,-18017.383577511737,-32435.66691108548,-23844.930391899397,17355.928403845835,3548.920577635834,31602.975023147468,52178.09107042445,0.0,0.0,0.0,193.0,0.0,193.0,0.0,0.0,0.0,179.0,193.0,0.0,179.0,1744418582.1504035,0.0,2025-04-11 20:43:02.150,LEFT,7
211.0,1566.8349345725699,-18045.09974063632,-32484.840748887153,-23868.5338340442,17250.919908394804,3383.025930288545,31714.80080065737,52037.945632689676,0.0,0.0,0.0,193.0,0.0,193.0,0.0,0.0,0.0,178.0,193.0,0.0,178.0,1744418582.1504617,0.0,2025-04-11 20:43:02.150,LEFT,7
212.0,1569.1818677403771,-18020.021083357464,-32507.304252064736,-23841.42116801991,17109.165145059247,3587.544392054605,31498.57002479673,52102.60922939888,0.0,0.0,0.0,193.0,0.0,193.0,0.0,0.0,0.0,178.0,193.0,0.0,178.0,1744418582.150495,0.0,2025-04-11 20:43:02.150,LEFT,7
213.0,1606.732798425293,-17973.641213612704,-32458.018655540785,-23813.593246173055,17144.704418743186,3674.760898919213,31235.13236464648,52180.393300103344,0.0,0.0,0.0,193.0,0.0,192.0,0.0,0.0,0.0,178.0,192.0,0.0,178.0,1744418582.1505277,0.0,2025-04-11 20:43:02.150,LEFT,7
214.0,1589.276086005698,-18007.36999599576,-32433.43173663995,-23849.110168112536,17338.874022826436,3546.6854031903035,31522.19581868599,52184.75189027213,0.0,0.0,0.0,193.0,0.0,192.0,0.0,0.0,0.0,178.0,192.0,0.0,178.0,1744418582.1505623,0.0,2025-04-11 20:43:02.150,LEFT,7
215.0,1572.4452224308518,-18031.822804429867,-32477.28585926126,-23883.39774410698,17292.650615292863,3365.1445347242993,31733.866838677746,52067.27112141504,0.0,0.0,0.0,193.0,0.0,192.0,0.0,0.0,0.0,178.0,192.0,0.0,178.0,1744418582.1505952,0.0,2025-04-11 20:43:02.150,LEFT,7
216.0,1580.022463801201,-18002.586722682325,-32498.56471998271,-23858.073217639118,17171.370049878366,3529.9439465932783,31546.939199798013,52083.163211722764,0.0,0.0,0.0,193.0,0.0,192.0,0.0,0.0,0.0,178.0,192.0,0.0,178.0,1744418582.1506271,0.0,2025-04-11 20:43:02.150,LEFT,7
217.0,1601.346028011564,-17968.209739710062,-32472.52493769228,-23827.317217268614,17137.52950877303,3695.704483473836,31265.240164427778,52190.272771152595,0.0,0.0,0.0,193.0,0.0,192.0,0.0,0.0,0.0,178.0,192.0,0.0,178.0,1744418582.1506596,0.0,2025-04-11 20:43:02.150,LEFT,7
218.0,1587.7785191271926,-18011.728586164547,-32449.52499264777,-23842.896383153962,17289.834295491495,3609.1585289428867,31461.287315045276,52211.66339059632,0.0,0.0,0.0,193.0,0.0,192.0,0.0,0.0,0.0,178.0,192.0,0.0,178.0,1744418582.1506927,0.0,2025-04-11 20:43:02.150,LEFT,7
219.0,1566.0302717721788,-18054.15219714072,-32483.879623875575,-23885.744677274786,17275.238606362178,3370.419546415752,31743.746309726994,52092.5956478829,0.0,0.0,0.0,193.0,0.0,192.0,0.0,0.0,0.0,178.0,192.0,0.0,178.0,1744418582.1507277,0.0,2025-04-11 20:43:02.150,LEFT,7
220.0,1571.573504397095,-18031.91221140769,-32504.175007840993,-23859.34726707307,17152.549881046998,3450.5281985435727,31598.616432978684,52065.95236849217,0.0,0.0,0.0,193.0,0.0,192.0,0.0,0.0,0.0,178.0,192.0,0.0,178.0,1744418582.150762,0.0,2025-04-11 20:43:02.150,LEFT,7
221.0,1610.5325949826952,-17968.813236810354,-32467.71931263439,-23807.982958314773,17106.929970613717,3669.5082389722156,31286.384914682498,52171.22908487667,0.0,0.0,0.0,193.0,0.0,192.0,0.0,0.0,0.0,178.0,192.0,0.0,178.0,1744418582.1507952,0.0,2025-04-11 20:43:02.150,LEFT,7
222.0,1600.407254744441,-17985.17471375164,-32425.250998169304,-23829.99942660325,17268.93541442578,3628.626898363459,31374.54019481423,52206.88011728288,0.0,0.0,0.0,193.0,0.0,192.0,0.0,0.0,0.0,178.0,192.0,0.0,178.0,1744418582.1508453,0.0,2025-04-11 20:43:02.150,LEFT,7
223.0,1576.5579434106285,-18022.144499080718,-32455.89523981753,-23889.075087198627,17293.052946693057,3406.316448010975,31725.462582762553,52115.64029641632,0.0,0.0,0.0,193.0,0.0,192.0,0.0,0.0,0.0,178.0,192.0,0.0,178.0,1744418582.1508777,0.0,2025-04-11 20:43:02.150,LEFT,7
224.0,1586.057434804134,-18002.743184893512,-32483.47729247538,-23857.67088623892,17186.59158785243,3422.499110996617,31629.238322882455,52044.293528114984,0.0,0.0,0.0,193.0,0.0,192.0,0.0,0.0,0.0,178.0,192.0,0.0,178.0,1744418582.15091,0.0,2025-04-11 20:43:02.150,LEFT,7
225.0,1589.2984377501534,-17988.438068442116,-32501.381039784083,-23838.29192379617,17094.48004895211,3648.9893375622437,31343.717139210363,52176.59350354594,0.0,0.0,0.0,193.0,0.0,192.0,0.0,0.0,0.0,178.0,192.0,0.0,178.0,1744418582.1509423,0.0,2025-04-11 20:43:02.150,LEFT,7
226.0,1606.6433914474717,-17992.975472566544,-32443.601780367113,-23824.165621300417,17208.183372996256,3648.430543950861,31308.155513781967,52226.95198380375,0.0,0.0,0.0,193.0,0.0,192.0,0.0,0.0,0.0,178.0,192.0,0.0,178.0,1744418582.1510797,0.0,2025-04-11 20:43:02.151,LEFT,7
227.0,1577.8543445890361,-18043.80333945791,-32452.676588615966,-23878.972098704828,17290.773068758615,3466.420288851296,31697.075867304313,52179.208657647214,0.0,0.0,0.0,193.0,0.0,192.0,0.0,0.0,0.0,177.0,192.0,0.0,177.0,1744418582.1511123,0.0,2025-04-11 20:43:02.151,LEFT,7
228.0,1585.3198272371087,-18031.91221140769,-32483.38788549756,-23857.24620309427,17154.53918630352,3410.4962242241177,31666.185756467075,52078.80462155397,0.0,0.0,0.0,193.0,0.0,192.0,0.0,0.0,0.0,178.0,192.0,0.0,178.0,1744418582.1511445,0.0,2025-04-11 20:43:02.151,LEFT,7
229.0,1587.957333082835,-18006.43122272864,-32493.33441178017,-23828.770080658207,17082.834790090896,3638.5063694127048,31391.415761877986,52185.780070517074,0.0,0.0,0.0,193.0,0.0,192.0,0.0,0.0,0.0,178.0,192.0,0.0,178.0,1744418582.1511757,0.0,2025-04-11 20:43:02.151,LEFT,7
230.0,1598.0603215766337,-17995.52357143445,-32443.355911178103,-23822.51159221072,17198.303901947012,3660.232265023263,31261.306257403645,52243.71579214523,0.0,0.0,0.0,193.0,0.0,192.0,0.0,0.0,0.0,179.0,192.0,0.0,179.0,1744418582.1512084,0.0,2025-04-11 20:43:02.151,LEFT,7
231.0,1572.8699055755028,-18029.677036962155,-32443.08769024464,-23867.97504043282,17349.804025865084,3498.003303766645,31650.31601790381,52223.86744306892,0.0,0.0,0.0,193.0,0.0,193.0,0.0,0.0,0.0,179.0,193.0,0.0,179.0,1744418582.15124,0.0,2025-04-11 20:43:02.151,LEFT,7
232.0,1572.3334637085754,-18019.28347579044,-32484.393713998048,-23868.734999744298,17220.54388768004,3363.0658224899557,31698.059344060344,52094.18262173923,0.0,0.0,0.0,193.0,0.0,193.0,0.0,0.0,0.0,179.0,193.0,0.0,179.0,1744418582.1512716,0.0,2025-04-11 20:43:02.151,LEFT,7
233.0,1572.959312553324,-17998.272836002452,-32501.4704467619,-23834.335665027582,17108.494592725587,3584.3927960864066,31447.31747476071,52173.352500599925,0.0,0.0,0.0,193.0,0.0,193.0,0.0,0.0,0.0,179.0,193.0,0.0,179.0,1744418582.1513035,0.0,2025-04-11 20:43:02.151,LEFT,7
234.0,1602.597725701061,-17976.524588647437,-32448.005074024808,-23808.407641459424,17165.849168997906,3672.9057041294222,31236.51817280271,52256.2327690402,0.0,0.0,0.0,193.0,0.0,193.0,0.0,0.0,0.0,179.0,193.0,0.0,179.0,1744418582.1513355,0.0,2025-04-11 20:43:02.151,LEFT,7
235.0,1586.50446969324,-18021.47394674706,-32440.89721928802,-23854.76515945973,17331.274429711633,3532.2908797610858,31571.257897765387,52251.74006840469,0.0,0.0,0.0,193.0,0.0,193.0,0.0,0.0,0.0,179.0,193.0,0.0,179.0,1744418582.1513667,0.0,2025-04-11 20:43:02.151,LEFT,7
236.0,1577.2284957442876,-18035.644952731724,-32470.066245802194,-23873.87590096902,17262.52046376711,3344.2456536585873,31698.774599882916,52110.03000855804,0.0,0.0,0.0,193.0,0.0,193.0,0.0,0.0,0.0,179.0,193.0,0.0,179.0,1744418582.1513991,0.0,2025-04-11 20:43:02.151,LEFT,7
237.0,1572.6463881309496,-18016.28834203343,-32505.270243319304,-23850.92065941342,17112.182630560714,3538.6164234419375,31497.22892012941,52173.17368664428,0.0,0.0,0.0,193.0,0.0,193.0,0.0,0.0,0.0,179.0,193.0,0.0,179.0,1744418582.1514492,0.0,2025-04-11 20:43:02.151,LEFT,7
238.0,1595.7804436421925,-17973.79767582389,-32468.456920201414,-23822.89157186646,17101.945531600184,3678.6277507099812,31238.66394027042,52274.91882740484,0.0,0.0,0.0,193.0,0.0,193.0,0.0,0.0,0.0,179.0,193.0,0.0,179.0,1744418582.151481,0.0,2025-04-11 20:43:02.151,LEFT,7
239.0,1581.4976789352513,-18004.531324449938,-32429.587236593634,-23853.066426881127,17305.45816486575,3605.3587323854845,31504.1356091661,52276.326987305525,0.0,0.0,0.0,193.0,0.0,193.0,0.0,0.0,0.0,179.0,193.0,0.0,179.0,1744418582.1515172,0.0,2025-04-11 20:43:02.151,LEFT,7
240.0,1574.1886584983658,-18028.157118339197,-32456.27521947327,-23867.90798519945,17271.662327249327,3403.1425002983215,31737.688986979603,52154.48762827965,0.0,0.0,0.0,193.0,0.0,193.0,0.0,0.0,0.0,179.0,193.0,0.0,179.0,1744418582.1515489,0.0,2025-04-11 20:43:02.151,LEFT,7
241.0,1563.1245449929888,-18025.251391560007,-32495.413124014514,-23837.621371462512,17106.549990957974,3542.2597577881525,31582.88080488215,52181.242666392645,0.0,0.0,0.0,193.0,0.0,193.0,0.0,0.0,0.0,179.0,193.0,0.0,179.0,1744418582.1515942,0.0,2025-04-11 20:43:02.151,LEFT,7
242.0,1587.5773534270947,-17989.578007409335,-32466.46761494489,-23802.28326347867,17076.643356876775,3710.143710391964,31290.698801362374,52283.77011820914,0.0,0.0,0.0,193.0,0.0,193.0,0.0,1.0,0.0,179.0,193.0,1.0,179.0,1744418582.151626,0.0,2025-04-11 20:43:02.151,LEFT,7
243.0,1584.2692952477094,-18015.148403066207,-32420.423021366958,-23820.5222869542,17280.938301198283,3630.7726658311685,31450.75964340683,52298.36580733846,0.0,0.0,0.0,193.0,0.0,193.0,0.0,2.0,0.0,179.0,193.0,2.0,179.0,1744418582.1516583,0.0,2025-04-11 20:43:02.151,LEFT,7
244.0,1556.9107600344134,-18057.348496597828,-32463.763053865798,-23875.373467847523,17276.199731373756,3402.583706686939,31750.943571441603,52195.32426539949,0.0,0.0,0.0,193.0,0.0,193.0,0.0,3.0,0.0,179.0,193.0,3.0,179.0,1744418582.1516905,0.0,2025-04-11 20:43:02.151,LEFT,7
245.0,1562.923379292891,-18031.219307329575,-32489.892243134054,-23852.395874547467,17124.990180133605,3469.3036638860303,31625.88556121416,52165.97642492967,0.0,0.0,0.0,193.0,0.0,193.0,0.0,4.0,0.0,179.0,193.0,4.0,179.0,1744418582.1517224,0.0,2025-04-11 20:43:02.151,LEFT,7
246.0,1588.5608301831282,-17995.009481311976,-32477.487024961356,-23825.774946901198,17064.506359637544,3654.9349015873554,31321.365394755056,52272.77305993713,0.0,0.0,0.0,193.0,0.0,193.0,0.0,5.0,0.0,179.0,193.0,5.0,179.0,1744418582.1517541,0.0,2025-04-11 20:43:02.151,LEFT,7
247.0,1593.2770482631981,-17995.769440623455,-32429.341367404628,-23825.260856778725,17206.797564840028,3601.268363150163,31368.192299388924,52305.4960138197,0.0,0.0,0.0,193.0,0.0,193.0,0.0,6.0,0.0,179.0,193.0,6.0,179.0,1744418582.151786,0.0,2025-04-11 20:43:02.151,LEFT,7
248.0,1555.435544900363,-18039.66826673368,-32455.112928761595,-23878.18978764889,17293.343519370977,3403.3660177428746,31729.530600253416,52224.806216336045,0.0,0.0,0.0,193.0,0.0,193.0,0.0,7.0,0.0,179.0,193.0,7.0,179.0,1744418582.151818,0.0,2025-04-11 20:43:02.151,LEFT,7
249.0,1545.511370362207,-18038.66243823319,-32493.021487357797,-23870.00904917825,17187.239788441635,3406.3387997554305,31660.195488953053,52146.03866887554,0.0,0.0,0.0,193.0,0.0,193.0,0.0,8.0,0.0,179.0,193.0,8.0,179.0,1744418582.1518495,0.0,2025-04-11 20:43:02.151,LEFT,7
250.0,1566.1643822389105,-18008.308769262883,-32485.086618076162,-23818.488278208766,17079.39262144478,3653.9737765757773,31366.4041598325,52252.969414349725,0.0,0.0,0.0,193.0,0.0,193.0,0.0,9.0,0.0,179.0,193.0,9.0,179.0,1744418582.151882,0.0,2025-04-11 20:43:02.151,LEFT,7
251.0,1585.8786208484914,-17999.166905780665,-32434.012881995786,-23805.680728635878,17164.373953863855,3672.525724473682,31316.91739760845,52310.860432488975,0.0,0.0,0.0,193.0,0.0,193.0,0.0,10.0,0.0,179.0,193.0,10.0,179.0,1744418582.151914,0.0,2025-04-11 20:43:02.151,LEFT,7
252.0,1568.444260173352,-18037.835423688346,-32448.47446065837,-23867.34919158807,17261.604042244442,3466.442640595751,31705.0330883304,52264.14528657738,0.0,0.0,0.0,193.0,0.0,193.0,0.0,10.0,0.0,179.0,193.0,10.0,179.0,1744418582.1519597,0.0,2025-04-11 20:43:02.151,LEFT,7
253.0,1564.510353149218,-18047.781949970955,-32478.179929039474,-23864.979906675806,17187.55271286401,3367.6032266143834,31699.333393494297,52165.596445273935,0.0,0.0,0.0,193.0,0.0,193.0,0.0,11.0,0.0,179.0,193.0,11.0,179.0,1744418582.1519926,0.0,2025-04-11 20:43:02.151,LEFT,7
254.0,1567.3266729505865,-18020.244600802016,-32481.800911641232,-23822.735109655277,17098.592769931885,3616.512252868683,31431.693605386452,52279.255065829166,0.0,0.0,0.0,193.0,0.0,193.0,0.0,11.0,0.0,178.0,193.0,11.0,178.0,1744418582.1520252,0.0,2025-04-11 20:43:02.152,LEFT,7
255.0,1569.6736061183938,-18012.42149024266,-32444.47349840087,-23818.510629953224,17162.049372440502,3680.9299803888775,31288.396571683475,52350.64653761942,0.0,0.0,0.0,193.0,0.0,192.0,0.0,12.0,0.0,178.0,192.0,12.0,178.0,1744418582.1520581,0.0,2025-04-11 20:43:02.152,LEFT,7
0.0,1541.0186697266902,-18060.6118512883,-32454.19650723893,-23874.032363180206,17299.08791769599,3513.381303951896,31659.1226052192,52317.007162214184,0.0,0.0,0.0,193.0,0.0,192.0,0.0,12.0,0.0,178.0,192.0,12.0,178.0,1744418582.1521044,0.0,2025-04-11 20:43:02.152,LEFT,7
1.0,1550.2946436756426,-18062.66821177819,-32480.817434885197,-23874.38999109149,17194.437050156244,3362.23880794511,31716.857161147258,52178.024015191084,0.0,0.0,0.0,193.0,0.0,192.0,0.0,12.0,0.0,178.0,192.0,12.0,178.0,1744418582.1521373,0.0,2025-04-11 20:43:02.152,LEFT,7
2.0,1570.3218067075977,-18028.738263695035,-32486.7182954214,-23829.10535682504,17079.884359822794,3597.2674008926633,31477.42527454201,52263.65354819936,0.0,0.0,0.0,193.0,0.0,192.0,0.0,13.0,0.0,178.0,192.0,13.0,178.0,1744418582.1521711,0.0,2025-04-11 20:43:02.152,LEFT,7
3.0,1575.4850596767735,-18012.42149024266,-32459.5609259082,-23815.4707927073,17106.214714791146,3683.053396112132,31267.09535921757,52366.73979362724,0.0,0.0,0.0,193.0,0.0,192.0,0.0,13.0,0.0,178.0,192.0,13.0,178.0,1744418582.1522048,0.0,2025-04-11 20:43:02.152,LEFT,7
4.0,1552.7756873101816,-18051.20176687262,-32444.160573978494,-23852.038246636184,17283.46404832173,3524.2442517571753,31586.993525861923,52374.45114546432,0.0,0.0,0.0,193.0,0.0,192.0,0.0,13.0,0.0,178.0,192.0,13.0,178.0,1744418582.1522408,0.0,2025-04-11 20:43:02.152,LEFT,7
5.0,1551.5239896206845,-18050.844138961333,-32467.85342310112,-23861.470682796324,17219.64981790183,3340.7587815235597,31738.024263146435,52235.423294952314,0.0,0.0,0.0,193.0,0.0,192.0,0.0,14.0,0.0,178.0,192.0,14.0,178.0,1744418582.152275,0.0,2025-04-11 20:43:02.152,LEFT,7
6.0,1548.0147657412012,-18030.19112708463,-32497.245967059847,-23828.591266702566,17087.729822126606,3546.7748101681245,31540.56895262825,52288.128708377924,0.0,0.0,0.0,193.0,0.0,192.0,0.0,14.0,0.0,178.0,192.0,14.0,178.0,1744418582.152308,0.0,2025-04-11 20:43:02.152,LEFT,7
7.0,1579.2401527452653,-17990.494428932005,-32458.644504385535,-23798.259949476713,17081.24781623457,3687.523745003193,31274.650248843463,52389.24800029374,0.0,0.0,0.0,193.0,0.0,192.0,0.0,14.0,0.0,178.0,192.0,14.0,178.0,1744418582.152341,0.0,2025-04-11 20:43:02.152,LEFT,7
8.0,1566.9690450393016,-18022.56918222537,-32432.917646517475,-23826.28903702367,17234.156100053322,3588.0584821770767,31525.57093209874,52407.978762147286,0.0,0.0,0.0,193.0,0.0,192.0,0.0,14.0,0.0,178.0,192.0,14.0,178.0,1744418582.1523724,0.0,2025-04-11 20:43:02.152,LEFT,7
9.0,1547.5900825965505,-18054.845101218834,-32470.446225457938,-23863.549395030666,17207.915152062793,3363.937540523713,31760.398359346196,52284.574781009534,0.0,0.0,0.0,193.0,0.0,192.0,0.0,14.0,0.0,178.0,192.0,14.0,178.0,1744418582.1524048,0.0,2025-04-11 20:43:02.152,LEFT,7
10.0,1549.4229256418855,-18044.987981914044,-32491.881548390575,-23842.829327920597,17099.866819365838,3492.54947811955,31611.535741273852,52294.9459904368,0.0,0.0,0.0,193.0,0.0,192.0,0.0,15.0,0.0,178.0,192.0,15.0,178.0,1744418582.1524365,0.0,2025-04-11 20:43:02.152,LEFT,7
11.0,1586.213897015321,-17998.071670302354,-32466.065283544696,-23806.66420539191,17049.79891178595,3680.2594280552185,31312.96113883986,52406.39178829096,0.0,0.0,0.0,193.0,0.0,193.0,0.0,15.0,0.0,179.0,193.0,15.0,179.0,1744418582.1524832,0.0,2025-04-11 20:43:02.152,LEFT,7
12.0,1564.1974287268436,-18023.306789792394,-32436.493925630326,-23831.51934522621,17221.97439932518,3602.6765230508477,31451.050216084746,52432.297460114656,0.0,0.0,0.0,193.0,0.0,193.0,0.0,15.0,0.0,179.0,193.0,15.0,179.0,1744418582.1525161,0.0,2025-04-11 20:43:02.152,LEFT,7
13.0,1537.9117772474024,-18055.940336697142,-32466.445263200436,-23878.927395215916,17228.23288777267,3386.803375101492,31774.18938567512,52328.2500896752,0.0,0.0,0.0,193.0,0.0,193.0,0.0,15.0,0.0,179.0,193.0,15.0,179.0,1744418582.1525488,0.0,2025-04-11 20:43:02.152,LEFT,7
14.0,1540.3481173930309,-18059.829540232367,-32486.159501810016,-23853.5805170036,17115.82596490693,3450.930529943768,31653.624076083193,52279.34447280699,0.0,0.0,0.0,193.0,0.0,192.0,0.0,15.0,0.0,178.0,192.0,15.0,178.0,1744418582.1525824,0.0,2025-04-11 20:43:02.152,LEFT,7
15.0,1557.6260158569833,-18034.95204865361,-32469.775673124277,-23814.934350840373,17078.073868521915,3671.3857855064616,31359.00573241779,52402.50258475573,0.0,0.0,0.0,193.0,0.0,193.0,0.0,15.0,0.0,179.0,193.0,15.0,179.0,1744418582.1526306,0.0,2025-04-11 20:43:02.152,LEFT,7
16.0,1567.2596177172206,-18031.353417796305,-32424.245169668815,-23815.582551429576,17223.561373181506,3628.9398227858333,31367.655857521997,52433.28093687069,0.0,0.0,0.0,193.0,0.0,193.0,0.0,15.0,0.0,179.0,193.0,15.0,179.0,1744418582.1526637,0.0,2025-04-11 20:43:02.152,LEFT,7
17.0,1533.284966145154,-18081.06369746491,-32464.05362654372,-23883.01776445124,17272.578748771997,3412.641991691827,31740.840582947803,52361.59889240252,0.0,0.0,0.0,193.0,0.0,193.0,0.0,15.0,0.0,179.0,193.0,15.0,179.0,1744418582.1526992,0.0,2025-04-11 20:43:02.152,LEFT,7
18.0,1550.987547753757,-18061.595328044335,-32483.320830264194,-23859.05669439515,17148.3477530894,3404.1483287988103,31676.42285542761,52275.07528961603,0.0,0.0,0.0,193.0,0.0,193.0,0.0,15.0,0.0,179.0,193.0,15.0,179.0,1744418582.6272361,0.0,2025-04-11 20:43:02.627,LEFT,7
19.0,1559.637672857961,-18027.933600894645,-32493.021487357797,-23829.686502180877,17028.095367919846,3646.2624247386966,31388.174758931968,52386.54343921464,0.0,0.0,0.0,193.0,0.0,193.0,0.0,15.0,0.0,179.0,193.0,15.0,179.0,1744418582.6274083,0.0,2025-04-11 20:43:02.627,LEFT,7
20.0,1585.7445103817595,-18000.686824403623,-32432.247094183815,-23808.161772270414,17123.24674406609,3640.5180264136825,31297.71724912134,52433.03506768168,0.0,0.0,0.0,193.0,0.0,193.0,0.0,15.0,0.0,179.0,193.0,15.0,179.0,1744418582.6274483,0.0,2025-04-11 20:43:02.627,LEFT,7
21.0,1560.4199839138967,-18046.999638915022,-32442.03715825524,-23870.232566622803,17259.167702098814,3469.9518644752343,31691.84555910177,52393.47247999579,0.0,0.0,0.0,193.0,0.0,193.0,0.0,16.0,0.0,179.0,193.0,16.0,179.0,1744418582.6274865,0.0,2025-04-11 20:43:02.627,LEFT,7
22.0,1558.3189199350977,-18047.67019124868,-32469.19452776844,-23855.77098796022,17166.854997498394,3384.612904144872,31703.669631918627,52280.46206002976,0.0,0.0,0.0,193.0,0.0,193.0,0.0,16.0,0.0,179.0,193.0,16.0,179.0,1744418582.627524,0.0,2025-04-11 20:43:02.627,LEFT,7
23.0,1571.9534840528352,-18011.57212395336,-32469.28393474626,-23801.94798731184,17044.41214137222,3629.7891890751353,31439.65082641254,52384.64354093594,0.0,0.0,0.0,193.0,0.0,193.0,0.0,16.0,0.0,179.0,193.0,16.0,179.0,1744418582.6275616,0.0,2025-04-11 20:43:02.627,LEFT,7
24.0,1583.3975772139522,-18002.6984814046,-32424.84866676911,-23787.262891204704,17102.05729032246,3697.604381752537,31270.112844719035,52452.88341675799,0.0,0.0,0.0,193.0,0.0,193.0,0.0,16.0,0.0,179.0,193.0,16.0,179.0,1744418582.6275983,0.0,2025-04-11 20:43:02.627,LEFT,7
25.0,1564.532704893673,-18040.182356856152,-32415.5503410757,-23833.061615593626,17274.724516239705,3543.1761793108203,31630.579427549772,52431.40339033645,0.0,0.0,0.0,193.0,0.0,193.0,0.0,16.0,0.0,179.0,193.0,16.0,179.0,1744418582.6276352,0.0,2025-04-11 20:43:02.627,LEFT,7
26.0,1555.1449722224443,-18039.08712137784,-32465.551193422223,-23857.84970019456,17197.432183913254,3363.266988190054,31715.51605647994,52291.5932287685,0.0,0.0,0.0,193.0,0.0,193.0,0.0,16.0,0.0,179.0,193.0,16.0,179.0,1744418582.6277337,0.0,2025-04-11 20:43:02.627,LEFT,7
27.0,1546.4501436293297,-18021.250429302505,-32504.420877030003,-23840.99648487526,17042.512243093523,3558.598882984982,31496.1336846511,52358.42494468987,0.0,0.0,0.0,193.0,0.0,193.0,0.0,16.0,0.0,179.0,193.0,16.0,179.0,1744418582.6277716,0.0,2025-04-11 20:43:02.627,LEFT,7
28.0,1571.4170421859078,-18002.56437093787,-32451.670760115478,-23816.409565974423,17046.75907454003,3643.669622381881,31260.054559714146,52452.45873361334,0.0,0.0,0.0,193.0,0.0,193.0,0.0,16.0,0.0,179.0,193.0,16.0,179.0,1744418582.627809,0.0,2025-04-11 20:43:02.627,LEFT,7
29.0,1551.188713453855,-18046.262031347997,-32426.256826669793,-23850.518328013222,17248.32710603799,3537.387077496896,31557.064540036266,52449.57535857861,0.0,0.0,0.0,193.0,0.0,193.0,0.0,16.0,0.0,179.0,193.0,16.0,179.0,1744418582.6278462,0.0,2025-04-11 20:43:02.627,LEFT,7
30.0,1544.371431394986,-18062.824673989377,-32459.829146841665,-23859.011990906238,17189.720832076175,3374.353453439886,31742.76283297096,52317.856528503486,0.0,0.0,0.0,193.0,0.0,193.0,0.0,16.0,0.0,179.0,193.0,16.0,179.0,1744418582.6279008,0.0,2025-04-11 20:43:02.627,LEFT,7
31.0,1546.248977929232,-18040.71879872308,-32483.656106431023,-23827.22781029079,17059.723086324106,3556.4978190061834,31563.211269761476,52358.91668306788,0.0,0.0,0.0,193.0,0.0,193.0,0.0,16.0,0.0,179.0,193.0,16.0,179.0,1744418582.627938,0.0,2025-04-11 20:43:02.627,LEFT,7
32.0,1567.8184113286034,-18009.806336141388,-32450.642579870535,-23808.988786815262,17059.164292712725,3695.7715387072017,31282.85333905856,52460.2818441727,0.0,0.0,0.0,193.0,0.0,193.0,0.0,16.0,0.0,179.0,193.0,16.0,179.0,1744418582.6279747,0.0,2025-04-11 20:43:02.627,LEFT,7
33.0,1534.737829534749,-18064.14342691224,-32435.197524451916,-23853.602868748054,17232.79264364155,3585.7562524981804,31501.743972509383,52475.45867865785,0.0,0.0,0.0,193.0,0.0,193.0,0.0,16.0,0.0,178.0,193.0,16.0,178.0,1744418582.6280117,0.0,2025-04-11 20:43:02.628,LEFT,7
34.0,1531.765047522193,-18078.269729407995,-32456.6104956401,-23874.144121902482,17228.568163939497,3364.3175201794534,31759.996027946,52356.74856385572,0.0,0.0,0.0,193.0,0.0,192.0,0.0,16.0,0.0,178.0,192.0,16.0,178.0,1744418582.6280482,0.0,2025-04-11 20:43:02.628,LEFT,7
35.0,1539.342288892542,-18049.61479301629,-32476.749417394334,-23829.842964392064,17113.702549183672,3501.9148590463233,31603.466761525484,52337.637822346434,0.0,0.0,0.0,193.0,0.0,192.0,0.0,16.0,0.0,178.0,192.0,16.0,178.0,1744418582.628085,0.0,2025-04-11 20:43:02.628,LEFT,7
36.0,1543.3879546389526,-18038.684789977648,-32474.916574348998,-23813.19091477286,17047.854310018338,3712.624754026503,31317.05150807518,52455.789143537186,0.0,0.0,0.0,193.0,0.0,193.0,0.0,16.0,0.0,179.0,193.0,16.0,179.0,1744418582.6281211,0.0,2025-04-11 20:43:02.628,LEFT,7
37.0,1543.8126377836036,-18055.9626884416,-32429.475477871358,-23825.01498758972,17213.03370154306,3662.489791213249,31427.22325649539,52483.70647236186,0.0,0.0,0.0,193.0,0.0,193.0,0.0,16.0,0.0,179.0,193.0,16.0,179.0,1744418582.6281576,0.0,2025-04-11 20:43:02.628,LEFT,7
38.0,1514.509500802696,-18089.982043502576,-32465.059455044207,-23882.816598751142,17247.07540834849,3440.760486216603,31768.646153050206,52389.06918633809,0.0,0.0,0.0,193.0,0.0,193.0,0.0,16.0,0.0,179.0,193.0,16.0,179.0,1744418582.628194,0.0,2025-04-11 20:43:02.628,LEFT,7
39.0,1527.8758439869696,-18053.705162251612,-32485.37719075408,-23852.552336758654,17108.71811017014,3449.3435560874414,31655.79219529536,52326.64076407442,0.0,0.0,0.0,193.0,0.0,193.0,0.0,16.0,0.0,179.0,193.0,16.0,179.0,1744418582.6282313,0.0,2025-04-11 20:43:02.628,LEFT,7
40.0,1553.9156262774022,-18006.81120238438,-32470.24505975784,-23817.884781108474,17028.810623742418,3667.1613058044086,31354.378921315543,52442.62396605301,0.0,0.0,0.0,193.0,0.0,192.0,0.0,16.0,0.0,178.0,192.0,16.0,178.0,1744418582.6282675,0.0,2025-04-11 20:43:02.628,LEFT,7
41.0,1553.2897774326536,-18027.33010379435,-32429.162553448983,-23824.09856606705,17141.91045068627,3650.509256185205,31355.16123237148,52490.90373407647,0.0,0.0,0.0,193.0,0.0,192.0,0.0,16.0,0.0,178.0,192.0,16.0,178.0,1744418582.628304,0.0,2025-04-11 20:43:02.628,LEFT,7
42.0,1526.959422464302,-18074.760505528513,-32446.485155401846,-23874.211177135847,17216.297056233532,3442.034535650556,31735.252646833975,52426.821282723104,0.0,0.0,0.0,193.0,0.0,192.0,0.0,16.0,0.0,178.0,192.0,16.0,178.0,1744418582.6283724,0.0,2025-04-11 20:43:02.628,LEFT,7
43.0,1520.6562305279053,-18082.67302306569,-32475.90005110503,-23861.5824415186,17146.671372255252,3379.829630831436,31697.254681259954,52338.10720897999,0.0,0.0,0.0,193.0,0.0,192.0,0.0,17.0,0.0,178.0,192.0,17.0,178.0,1744418582.6284137,0.0,2025-04-11 20:43:02.628,LEFT,7
44.0,1528.1664166648886,-18051.693505250634,-32483.09731281964,-23828.05482483564,17050.827092030893,3622.3013546826073,31422.037651781757,52461.511190117744,0.0,0.0,0.0,193.0,0.0,192.0,0.0,17.0,0.0,178.0,192.0,17.0,178.0,1744418582.6284492,0.0,2025-04-11 20:43:02.628,LEFT,7
45.0,1538.314108647598,-18051.20176687262,-32441.120736732573,-23826.087871323572,17122.755005688072,3667.988320349255,31317.230322030824,52512.80844364267,0.0,0.0,0.0,193.0,0.0,192.0,0.0,16.0,0.0,178.0,192.0,16.0,178.0,1744418582.628515,0.0,2025-04-11 20:43:02.628,LEFT,7
46.0,1517.8846142154473,-18096.218180205607,-32438.639693098034,-23868.086799155095,17244.50495773613,3506.496966659661,31704.966033097036,52475.704547846864,0.0,0.0,0.0,193.0,0.0,192.0,0.0,17.0,0.0,178.0,192.0,17.0,178.0,1744418582.6285532,0.0,2025-04-11 20:43:02.628,LEFT,7
47.0,1522.891404973436,-18082.158932943217,-32460.700864875424,-23861.850662452063,17165.402134108797,3387.608037901883,31721.215751316042,52344.477456149754,0.0,0.0,0.0,193.0,0.0,192.0,0.0,17.0,0.0,178.0,192.0,17.0,178.0,1744418582.6285915,0.0,2025-04-11 20:43:02.628,LEFT,7
48.0,1533.799056267626,-18041.366999312282,-32471.563812680703,-23818.734147397776,17051.967030998116,3617.6521918359035,31460.102672589146,52425.591936778066,0.0,0.0,0.0,193.0,0.0,192.0,0.0,17.0,0.0,178.0,192.0,17.0,178.0,1744418582.628634,0.0,2025-04-11 20:43:02.628,LEFT,7
49.0,1560.2858734471647,-18021.56335372488,-32427.150896448005,-23793.81195233011,17090.121458783324,3679.3877100214613,31267.587097595588,52496.178745767924,0.0,0.0,0.0,193.0,0.0,192.0,0.0,17.0,0.0,178.0,192.0,17.0,178.0,1744418582.6286728,0.0,2025-04-11 20:43:02.628,LEFT,7
50.0,1534.9613469793019,-18075.788685773456,-32419.908931244485,-23845.265668066226,17224.94718133774,3528.736952392692,31626.287892614353,52482.544181650184,0.0,0.0,0.0,193.0,0.0,192.0,0.0,17.0,0.0,178.0,192.0,17.0,178.0,1744418582.6287117,0.0,2025-04-11 20:43:02.628,LEFT,7
51.0,1527.473512586774,-18079.856703264322,-32458.733911363353,-23861.515386285235,17141.977505919636,3347.7548775380706,31744.014530660457,52353.59696788752,0.0,0.0,0.0,193.0,0.0,192.0,0.0,17.0,0.0,179.0,192.0,17.0,179.0,1744418582.6287515,0.0,2025-04-11 20:43:02.628,LEFT,7
52.0,1526.8253119975702,-18051.71585699509,-32486.204205298927,-23827.987769602274,17063.656993348242,3551.4910282481947,31527.269664677344,52413.03025639418,0.0,0.0,0.0,193.0,0.0,192.0,0.0,17.0,0.0,178.0,192.0,17.0,178.0,1744418582.6287951,0.0,2025-04-11 20:43:02.628,LEFT,7
53.0,1540.2140069262991,-18035.846118431822,-32454.934114805954,-23806.194818758348,17072.709449852642,3680.1253175884867,31286.876653060517,52505.03003657223,0.0,0.0,0.0,193.0,0.0,192.0,0.0,17.0,0.0,178.0,192.0,17.0,178.0,1744418582.6288378,0.0,2025-04-11 20:43:02.628,LEFT,7
54.0,1516.9234892038692,-18069.8654734928,-32439.578466365158,-23851.4794530248,17241.018085601103,3574.7144907372585,31567.547508185806,52496.737539379305,0.0,0.0,0.0,193.0,0.0,192.0,0.0,17.0,0.0,178.0,192.0,17.0,178.0,1744418582.6288776,0.0,2025-04-11 20:43:02.628,LEFT,7
55.0,1525.2606898856986,-18074.089953194853,-32461.170251508982,-23865.561052031644,17190.749012321117,3382.6683023772603,31764.62283904825,52364.16934301488,0.0,0.0,0.0,193.0,0.0,192.0,0.0,17.0,0.0,179.0,192.0,17.0,179.0,1744418582.628918,0.0,2025-04-11 20:43:02.628,LEFT,7
56.0,1529.373410865475,-18055.649764019225,-32482.605574441623,-23824.791470145163,17047.161405940224,3549.769943925136,31580.690333925526,52387.25869503721,0.0,0.0,0.0,193.0,0.0,192.0,0.0,17.0,0.0,178.0,192.0,17.0,178.0,1744418582.6289628,0.0,2025-04-11 20:43:02.628,LEFT,7
57.0,1534.313146390098,-18039.601211500314,-32461.259658486804,-23795.108353508516,17017.187716625656,3721.073713430609,31304.57923466912,52498.32451323563,0.0,0.0,0.0,193.0,0.0,192.0,0.0,17.0,0.0,179.0,192.0,17.0,179.0,1744418582.6290655,0.0,2025-04-11 20:43:02.629,LEFT,7
58.0,1519.3598293494977,-18071.184226415662,-32426.79326853672,-23826.221981790302,17188.49148613113,3617.4286743913503,31489.36110608114,52510.3944552415,0.0,0.0,0.0,193.0,0.0,192.0,0.0,17.0,0.0,178.0,192.0,17.0,178.0,1744418582.6291244,0.0,2025-04-11 20:43:02.629,LEFT,7
59.0,1522.891404973436,-18080.974290487087,-32442.46184139989,-23850.115996613025,17194.92878853426,3386.803375101492,31764.265211136964,52393.1148520845,0.0,0.0,0.0,193.0,0.0,192.0,0.0,17.0,0.0,178.0,192.0,17.0,178.0,1744418582.6291697,0.0,2025-04-11 20:43:02.629,LEFT,7
60.0,1523.3384398625421,-18065.842159490843,-32471.340295236147,-23828.881839380487,17043.383961127278,3462.844009738447,31629.864171727204,52371.90304659642,0.0,0.0,0.0,193.0,0.0,192.0,0.0,17.0,0.0,178.0,192.0,17.0,178.0,1744418582.629218,0.0,2025-04-11 20:43:02.629,LEFT,7
61.0,1534.022573712179,-18038.125996366263,-32454.934114805954,-23809.681690893376,16998.2110855831,3655.605453921015,31341.146688598,52493.49653643329,0.0,0.0,0.0,193.0,0.0,192.0,0.0,17.0,0.0,178.0,192.0,17.0,178.0,1744418582.6293237,0.0,2025-04-11 20:43:02.629,LEFT,7
62.0,1530.513349832696,-18048.676019749168,-32408.55424506119,-23828.05482483564,17196.18048622376,3610.6113923324815,31422.35057620413,52516.742350666806,0.0,0.0,0.0,193.0,0.0,192.0,0.0,17.0,0.0,178.0,192.0,17.0,178.0,1744418582.6293604,0.0,2025-04-11 20:43:02.629,LEFT,7
63.0,1508.8098059665926,-18093.044232492954,-32426.36858539207,-23867.215081121336,17219.98509406866,3435.3066605695085,31771.86480425177,52421.05453265364,0.0,0.0,0.0,193.0,0.0,192.0,0.0,17.0,0.0,179.0,192.0,17.0,179.0,1744418582.6293952,0.0,2025-04-11 20:43:02.629,LEFT,7
64.0,1506.3511140765088,-18086.852799278833,-32457.90689681851,-23844.90804015494,17060.550100868953,3456.4737625686844,31689.476274189507,52363.163514514396,0.0,0.0,0.0,193.0,0.0,193.0,0.0,17.0,0.0,179.0,193.0,17.0,179.0,1744418582.6294286,0.0,2025-04-11 20:43:02.629,LEFT,7
65.0,1537.151817935922,-18035.086159120343,-32448.85444031411,-23799.936330310862,16960.235471753535,3671.274026784185,31382.02802920676,52471.301254189166,0.0,0.0,0.0,193.0,0.0,193.0,0.0,17.0,0.0,179.0,193.0,17.0,179.0,1744418582.6294656,0.0,2025-04-11 20:43:02.629,LEFT,7
66.0,1540.5939865820394,-18043.155138868708,-32398.585367034124,-23806.597150158545,17154.427427581242,3660.7463551457354,31357.172889372458,52519.91629837946,0.0,0.0,0.0,193.0,0.0,193.0,0.0,17.0,0.0,179.0,193.0,17.0,179.0,1744418582.6294985,0.0,2025-04-11 20:43:02.629,LEFT,7
67.0,1502.1936896078219,-18092.753659815033,-32417.383184121038,-23863.527043286213,17277.98787093018,3461.905236471324,31748.641341762705,52475.838658313594,0.0,0.0,0.0,193.0,0.0,192.0,0.0,17.0,0.0,179.0,192.0,17.0,179.0,1744418582.6295311,0.0,2025-04-11 20:43:02.629,LEFT,7
68.0,1510.8438147120255,-18084.662328322214,-32444.13822223404,-23840.258877308235,17146.090226899414,3406.092930566422,31708.207036043055,52367.49975293872,0.0,0.0,0.0,193.0,0.0,192.0,0.0,17.0,0.0,178.0,192.0,17.0,178.0,1744418582.629564,0.0,2025-04-11 20:43:02.629,LEFT,7
69.0,1521.058561928101,-18057.728476253567,-32459.113891019097,-23799.95868205532,17029.861155731818,3655.2254742652744,31423.110535515614,52470.96597802234,0.0,0.0,0.0,193.0,0.0,192.0,0.0,17.0,0.0,178.0,192.0,17.0,178.0,1744418582.6295967,0.0,2025-04-11 20:43:02.629,LEFT,7
70.0,1543.410306383408,-18032.828632930356,-32409.8506462396,-23788.42518191638,17101.073813566425,3679.3877100214613,31293.403362441466,52532.14270259652,0.0,0.0,0.0,193.0,0.0,192.0,0.0,17.0,0.0,178.0,192.0,17.0,178.0,1744418582.6296291,0.0,2025-04-11 20:43:02.629,LEFT,7
71.0,1521.9079282174025,-18077.10743869632,-32414.231588152838,-23849.19957509036,17236.860661132414,3504.9099928033347,31685.095332276265,52512.36140875357,0.0,0.0,0.0,193.0,0.0,192.0,0.0,17.0,0.0,178.0,192.0,17.0,178.0,1744418582.6296625,0.0,2025-04-11 20:43:02.629,LEFT,7
72.0,1513.123692646467,-18084.14823819974,-32453.19067873844,-23859.414322306435,17119.178726575225,3361.18827595571,31737.532524768416,52389.113889827,0.0,0.0,0.0,193.0,0.0,192.0,0.0,17.0,0.0,178.0,192.0,17.0,178.0,1744418582.6297364,0.0,2025-04-11 20:43:02.629,LEFT,7
73.0,1519.0469049271233,-18053.749865740523,-32467.38403646756,-23828.43480449138,17011.488021789555,3598.9437817268113,31488.31057409174,52479.414937426445,0.0,0.0,0.0,193.0,0.0,192.0,0.0,17.0,0.0,179.0,192.0,17.0,179.0,1744418582.6297722,0.0,2025-04-11 20:43:02.629,LEFT,7
74.0,1539.5434545926398,-18026.659551460692,-32422.233512667837,-23808.698214137345,17073.87174056432,3692.3517218055395,31286.541376893685,52563.435144833944,0.0,0.0,0.0,193.0,0.0,192.0,0.0,17.0,0.0,178.0,192.0,17.0,178.0,1744418582.629806,0.0,2025-04-11 20:43:02.629,LEFT,7
75.0,1513.9730589357687,-18072.480627594072,-32407.50371307179,-23830.647627192455,17251.165777583814,3553.8379614160017,31636.279122385877,52561.892874466525,0.0,0.0,0.0,193.0,0.0,192.0,0.0,17.0,0.0,178.0,192.0,17.0,178.0,1744418582.6298416,0.0,2025-04-11 20:43:02.629,LEFT,7
76.0,1504.5182710311738,-18086.182246945173,-32447.580390880157,-23845.75740644424,17170.118352188867,3364.228113201632,31767.95324897209,52426.26248911172,0.0,0.0,0.0,193.0,0.0,192.0,0.0,17.0,0.0,178.0,192.0,17.0,178.0,1744418582.6298933,0.0,2025-04-11 20:43:02.629,LEFT,7
77.0,1501.3666750629754,-18069.016107203497,-32478.04581857274,-23820.43287997638,17031.71635052161,3547.244196801686,31559.05384529279,52486.23221948531,0.0,0.0,0.0,193.0,0.0,192.0,0.0,17.0,0.0,178.0,192.0,17.0,178.0,1744418582.629928,0.0,2025-04-11 20:43:02.629,LEFT,7
78.0,1521.6620590283942,-18054.554528540913,-32453.81652758319,-23802.082097778573,17000.133335606257,3680.8405734110565,31302.634632901507,52586.412738134,0.0,0.0,0.0,193.0,0.0,193.0,0.0,17.0,0.0,179.0,193.0,17.0,179.0,1744418582.6299627,0.0,2025-04-11 20:43:02.629,LEFT,7
79.0,1518.0634281710898,-18083.365927143805,-32425.720384802866,-23835.25208655025,17149.73356124563,3547.6241764574265,31560.752577871393,52589.45257537992,0.0,0.0,0.0,193.0,0.0,193.0,0.0,17.0,0.0,179.0,193.0,17.0,179.0,1744418582.6299984,0.0,2025-04-11 20:43:02.629,LEFT,7
80.0,1510.3744280784642,-18090.585540602868,-32441.813640810688,-23862.632973508,17166.072686442458,3312.483824787596,31780.403170633697,52464.52867561921,0.0,0.0,0.0,193.0,0.0,193.0,0.0,17.0,0.0,178.0,193.0,17.0,178.0,1744418582.6300323,0.0,2025-04-11 20:43:02.630,LEFT,7
81.0,1495.5775732490508,-18076.839217762856,-32474.268373759794,-23842.561106987134,17054.403371143744,3487.0733007279996,31619.202389622023,52487.595675897086,0.0,0.0,0.0,193.0,0.0,193.0,0.0,17.0,0.0,179.0,193.0,17.0,179.0,1744418582.630067,0.0,2025-04-11 20:43:02.630,LEFT,7
82.0,1521.2597276281988,-18038.818900444378,-32442.931228033452,-23813.123859539493,17020.875754460783,3673.151573318431,31316.269197019246,52586.435089878454,0.0,0.0,0.0,193.0,0.0,192.0,0.0,17.0,0.0,179.0,192.0,17.0,179.0,1744418582.6301086,0.0,2025-04-11 20:43:02.630,LEFT,7
83.0,1517.8399107265368,-18055.38154308576,-32401.960480446876,-23826.19963004585,17204.02594852757,3618.836834292035,31480.55451876575,52607.199860477434,0.0,0.0,0.0,193.0,0.0,192.0,0.0,17.0,0.0,179.0,192.0,17.0,179.0,1744418582.6301703,0.0,2025-04-11 20:43:02.630,LEFT,7
84.0,1506.798148965615,-18086.942206256655,-32435.353986663104,-23863.907022941952,17208.40689044081,3419.123997583866,31782.079551467843,52503.4430627159,0.0,0.0,0.0,193.0,0.0,192.0,0.0,17.0,0.0,178.0,192.0,17.0,178.0,1744418582.6303077,0.0,2025-04-11 20:43:02.630,LEFT,7
85.0,1510.1062071450006,-18078.403839874725,-32466.400559711525,-23837.308447040137,17079.705545867153,3497.7797863220917,31656.909782518123,52468.775507065715,0.0,0.0,0.0,193.0,0.0,192.0,0.0,17.0,0.0,178.0,192.0,17.0,178.0,1744418582.630396,0.0,2025-04-11 20:43:02.630,LEFT,7
86.0,1529.2616521431987,-18034.080330619854,-32461.639638142544,-23812.922693839395,17004.201353097124,3708.109701646531,31364.995999931816,52592.090081225644,0.0,0.0,0.0,193.0,0.0,192.0,0.0,17.0,0.0,178.0,192.0,17.0,178.0,1744418582.6304684,0.0,2025-04-11 20:43:02.630,LEFT,7
87.0,1539.4540476148186,-18033.633295730746,-32400.775837990743,-23805.814839102608,17159.97066020616,3651.112753285498,31414.79568657824,52626.33295373118,0.0,0.0,0.0,193.0,0.0,192.0,0.0,17.0,0.0,178.0,192.0,17.0,178.0,1744418582.6306639,0.0,2025-04-11 20:43:02.630,LEFT,7
88.0,1508.5639367775843,-18088.797401046446,-32427.776745292755,-23858.632011250498,17198.616826369383,3431.7750849455697,31775.86576650927,52541.95511841239,0.0,0.0,0.0,193.0,0.0,192.0,0.0,17.0,0.0,178.0,192.0,17.0,178.0,1744418582.6307,0.0,2025-04-11 20:43:02.630,LEFT,7
89.0,1490.1684510908665,-18087.791572545957,-32464.56771666619,-23854.094607126073,17081.67249937922,3430.1210558558773,31716.03014660241,52475.838658313594,0.0,0.0,0.0,193.0,0.0,192.0,0.0,17.0,0.0,178.0,192.0,17.0,178.0,1744418582.6307344,0.0,2025-04-11 20:43:02.630,LEFT,7
90.0,1513.123692646467,-18055.493301808037,-32456.006998539808,-23821.215191032315,16975.904044616706,3652.140933530442,31427.402070451033,52586.45744162291,0.0,0.0,0.0,193.0,0.0,192.0,0.0,17.0,0.0,179.0,192.0,17.0,179.0,1744418582.6307702,0.0,2025-04-11 20:43:02.630,LEFT,7
91.0,1543.186788938855,-18039.89178417823,-32398.540663545213,-23801.99269080075,17089.830886105407,3647.3800119614616,31360.86092720758,52626.712933386916,0.0,0.0,0.0,193.0,0.0,192.0,0.0,17.0,0.0,179.0,192.0,17.0,179.0,1744418582.630865,0.0,2025-04-11 20:43:02.630,LEFT,7
92.0,1509.5921170225283,-18088.350366157338,-32414.253939897295,-23851.412397791435,17222.89082084785,3459.513599814606,31756.598562788793,52591.50893586981,0.0,0.0,0.0,193.0,0.0,193.0,0.0,17.0,0.0,179.0,193.0,17.0,179.0,1744418582.6309047,0.0,2025-04-11 20:43:02.630,LEFT,7
93.0,1504.831195453548,-18087.880979523776,-32447.960370535897,-23839.476566252302,17128.208831335167,3392.9501048267016,31750.00479817448,52484.891114818,0.0,0.0,0.0,193.0,0.0,192.0,0.0,17.0,0.0,179.0,192.0,17.0,179.0,1744418582.6309397,0.0,2025-04-11 20:43:02.630,LEFT,7
94.0,1522.8467014845255,-18043.311601079895,-32455.872888073074,-23801.18802800036,17000.289797817444,3627.24109020723,31463.94717263546,52571.03473794875,0.0,0.0,0.0,193.0,0.0,193.0,0.0,17.0,0.0,179.0,193.0,17.0,179.0,1744418582.6309757,0.0,2025-04-11 20:43:02.630,LEFT,7
95.0,1537.7776667806706,-18030.23583057354,-32415.393878864514,-23798.505818665722,17031.358722610323,3661.1263348014754,31314.525760951732,52630.55743343323,0.0,0.0,0.0,193.0,0.0,193.0,0.0,17.0,0.0,179.0,193.0,17.0,179.0,1744418582.6310139,0.0,2025-04-11 20:43:02.631,LEFT,7
96.0,1510.285021100643,-18074.715802039602,-32420.065393455672,-23854.474586781813,17222.354378980923,3495.6340188543822,31704.697812163573,52619.2698024833,0.0,0.0,0.0,193.0,0.0,193.0,0.0,17.0,0.0,179.0,193.0,17.0,179.0,1744418582.6310558,0.0,2025-04-11 20:43:02.631,LEFT,7
97.0,1514.218928124777,-18069.641956048246,-32450.84374557063,-23848.886650667984,17164.150436419302,3352.8957787627915,31762.14179541371,52487.036882285705,0.0,0.0,0.0,193.0,0.0,193.0,0.0,17.0,0.0,179.0,193.0,17.0,179.0,1744418582.6310947,0.0,2025-04-11 20:43:02.631,LEFT,7
98.0,1518.7563322492042,-18060.90242396622,-32470.80385336922,-23815.76136538522,17053.88928102127,3588.3714065994513,31527.895513522093,52564.552732056705,0.0,0.0,0.0,193.0,0.0,193.0,0.0,17.0,0.0,179.0,193.0,17.0,179.0,1744418582.6311324,0.0,2025-04-11 20:43:02.631,LEFT,7
99.0,1541.9127395049024,-18051.38058082826,-32432.738832561834,-23796.829437831573,17082.90184532426,3673.82212565209,31302.90285383497,52632.792607878764,0.0,0.0,0.0,193.0,0.0,193.0,0.0,17.0,0.0,179.0,193.0,17.0,179.0,1744418582.6311696,0.0,2025-04-11 20:43:02.631,LEFT,7
100.0,1507.4239978103635,-18099.012148262518,-32422.904065001498,-23846.76323494473,17241.778044912582,3555.8272666725243,31631.16057290561,52629.171625277,0.0,0.0,0.0,193.0,0.0,193.0,0.0,17.0,0.0,179.0,193.0,17.0,179.0,1744418582.6312048,0.0,2025-04-11 20:43:02.631,LEFT,7
101.0,1476.8915148844142,-18128.650561410257,-32467.09346378964,-23877.139255659495,17137.305991328478,3368.676110348238,31803.157246489198,52507.667542417956,0.0,0.0,0.0,193.0,0.0,193.0,0.0,17.0,0.0,179.0,193.0,17.0,179.0,1744418582.6312406,0.0,2025-04-11 20:43:02.631,LEFT,7
102.0,1486.346302789009,-18093.446563893147,-32472.52493769228,-23822.623350932998,17021.79217598345,3551.0439933590883,31603.39970629212,52552.59454877312,0.0,0.0,0.0,193.0,0.0,193.0,0.0,17.0,0.0,179.0,193.0,17.0,179.0,1744418582.6313105,0.0,2025-04-11 20:43:02.631,LEFT,7
103.0,1521.1926723948327,-18051.738208739545,-32425.56392259168,-23779.61859460099,17042.6240018158,3695.145689862453,31324.315825023157,52638.89463411506,0.0,0.0,0.0,193.0,0.0,193.0,0.0,17.0,0.0,178.0,193.0,17.0,178.0,1744418582.6313481,0.0,2025-04-11 20:43:02.631,LEFT,7
104.0,1508.4968815442182,-18077.465066607605,-32399.32297460115,-23819.22588577579,17219.78392836856,3587.3655780989625,31553.778833601336,52630.08804679967,0.0,0.0,0.0,193.0,0.0,192.0,0.0,17.0,0.0,178.0,192.0,17.0,178.0,1744418582.6314008,0.0,2025-04-11 20:43:02.631,LEFT,7
105.0,1498.2597825836876,-18105.06947100991,-32432.694129072923,-23856.732112971797,17181.093058716426,3375.6275028738387,31797.457551653097,52498.61508591355,0.0,0.0,0.0,193.0,0.0,192.0,0.0,17.0,0.0,178.0,192.0,17.0,178.0,1744418582.6314387,0.0,2025-04-11 20:43:02.631,LEFT,7
106.0,1497.4998232722073,-18093.91595052671,-32457.169289251484,-23821.23754277677,17024.384978340266,3515.862347586435,31640.59300906575,52493.742405622295,0.0,0.0,0.0,193.0,0.0,192.0,0.0,17.0,0.0,178.0,192.0,17.0,178.0,1744418582.6315289,0.0,2025-04-11 20:43:02.631,LEFT,7
107.0,1509.502710044707,-18062.48939782255,-32446.060472257195,-23797.18706574286,16959.386105464233,3699.571335264604,31346.95814215638,52602.32718018618,0.0,0.0,0.0,193.0,0.0,192.0,0.0,17.0,0.0,179.0,192.0,17.0,179.0,1744418582.6315656,0.0,2025-04-11 20:43:02.631,LEFT,7
108.0,1519.5609950495952,-18064.255185634516,-32391.49986404179,-23799.221074488294,17147.990125178116,3638.8192938350794,31483.84022520068,52632.74790438985,0.0,0.0,0.0,193.0,0.0,192.0,0.0,17.0,0.0,178.0,192.0,17.0,178.0,1744418582.631601,0.0,2025-04-11 20:43:02.631,LEFT,7
109.0,1498.6844657283386,-18097.8722092953,-32423.440506868425,-23840.77296743071,17201.433146170755,3420.3756952733634,31807.828761080356,52531.136874096024,0.0,0.0,0.0,193.0,0.0,192.0,0.0,17.0,0.0,179.0,192.0,17.0,179.0,1744418582.6316354,0.0,2025-04-11 20:43:02.631,LEFT,7
110.0,1503.8477186975144,-18081.48838060956,-32442.797117566723,-23815.269627007205,17086.99221455958,3473.7740127770917,31688.1798730111,52482.5888851391,0.0,0.0,0.0,193.0,0.0,193.0,0.0,17.0,0.0,179.0,193.0,17.0,179.0,1744418582.6316707,0.0,2025-04-11 20:43:02.631,LEFT,7
111.0,1512.6319542684503,-18058.980173943066,-32442.95357977791,-23804.406679201926,16998.680472216663,3680.795869922146,31388.197110676425,52589.07259572418,0.0,0.0,0.0,193.0,0.0,193.0,0.0,17.0,0.0,179.0,193.0,17.0,179.0,1744418582.631704,0.0,2025-04-11 20:43:02.631,LEFT,7
112.0,1512.1625676348888,-18088.126848712785,-32402.36281184707,-23806.775964114186,17130.667523225253,3649.1010962845203,31412.44875341043,52617.481662926875,0.0,0.0,0.0,193.0,0.0,193.0,0.0,17.0,0.0,179.0,193.0,17.0,179.0,1744418582.631752,0.0,2025-04-11 20:43:02.631,LEFT,7
113.0,1488.9167534013693,-18128.24823001006,-32423.7534312908,-23861.694200240876,17206.864620073393,3446.3931258193406,31784.739409058027,52543.27387133526,0.0,0.0,0.0,193.0,0.0,193.0,0.0,17.0,0.0,179.0,193.0,17.0,179.0,1744418582.631788,0.0,2025-04-11 20:43:02.631,LEFT,7
114.0,1499.4220732953636,-18092.06075573692,-32440.249018698814,-23837.442557506867,17114.037825350504,3431.618622734383,31717.214789058544,52453.688079558386,0.0,0.0,0.0,193.0,0.0,192.0,0.0,17.0,0.0,178.0,192.0,17.0,178.0,1744418582.6318247,0.0,2025-04-11 20:43:02.631,LEFT,7
115.0,1516.9011374594138,-18050.75473198351,-32437.387995408535,-23794.258987219215,17027.22364988609,3668.4130034939058,31432.40886120902,52571.16884841548,0.0,0.0,0.0,193.0,0.0,193.0,0.0,17.0,0.0,178.0,193.0,17.0,178.0,1744418582.6318636,0.0,2025-04-11 20:43:02.631,LEFT,7
116.0,1528.9040242319138,-18048.608964515803,-32385.75546571678,-23776.28818467715,17123.872592910837,3683.5451344901485,31349.170964857458,52611.89372681305,0.0,0.0,0.0,193.0,0.0,193.0,0.0,17.0,0.0,179.0,193.0,17.0,179.0,1744418582.631904,0.0,2025-04-11 20:43:02.631,LEFT,7
117.0,1490.5037272576963,-18115.217162992616,-32405.06737292616,-23838.314275540626,17246.293097292557,3499.277353200597,31741.466431792553,52561.53524655524,0.0,0.0,0.0,193.0,0.0,192.0,0.0,17.0,0.0,178.0,192.0,17.0,178.0,1744418582.6320765,0.0,2025-04-11 20:43:02.632,LEFT,7
118.0,1479.7972416636042,-18126.907125342743,-32445.18875422344,-23849.512499512733,17131.494537770097,3378.4438226752072,31754.89983021019,52442.75807651974,0.0,0.0,0.0,193.0,0.0,192.0,0.0,17.0,0.0,178.0,192.0,17.0,178.0,1744418582.632114,0.0,2025-04-11 20:43:02.632,LEFT,7
119.0,1491.6660179693722,-18096.888732539264,-32454.151803750017,-23820.29876950965,17008.805812454917,3614.4111888898838,31502.52628356532,52543.29622307971,0.0,0.0,0.0,193.0,0.0,192.0,0.0,17.0,0.0,178.0,192.0,17.0,178.0,1744418582.6321473,0.0,2025-04-11 20:43:02.632,LEFT,7
120.0,1520.6338787834502,-18068.23379614756,-32397.154855388984,-23796.203588986828,17079.37026970032,3687.948428147844,31323.555865711674,52600.628447607574,0.0,0.0,0.0,193.0,0.0,192.0,0.0,17.0,0.0,178.0,192.0,17.0,178.0,1744418582.6321802,0.0,2025-04-11 20:43:02.632,LEFT,7
121.0,1495.5328697601403,-18104.734194843077,-32384.995506405296,-23830.267647536715,17235.58661169846,3549.926406136323,31690.906785834646,52580.847153764626,0.0,0.0,0.0,193.0,0.0,192.0,0.0,17.0,0.0,179.0,192.0,17.0,179.0,1744418582.6322443,0.0,2025-04-11 20:43:02.632,LEFT,7
122.0,1491.8895354139252,-18103.303683197937,-32417.874922499053,-23835.38619701698,17143.92210768725,3410.6973899242153,31783.53241485744,52445.75321027675,0.0,0.0,0.0,193.0,0.0,193.0,0.0,17.0,0.0,179.0,193.0,17.0,179.0,1744418582.6322803,0.0,2025-04-11 20:43:02.632,LEFT,7
123.0,1489.9449336463135,-18097.224008706096,-32443.646483856024,-23819.29294100916,17012.337388078857,3622.569575616071,31544.078176507734,52497.028112057225,0.0,0.0,0.0,193.0,0.0,192.0,0.0,17.0,0.0,178.0,192.0,17.0,178.0,1744418582.6323168,0.0,2025-04-11 20:43:02.632,LEFT,7
124.0,1506.6416867544278,-18083.00829923252,-32416.042079453717,-23809.458173448824,17008.13526012126,3724.4935303322713,31308.580196926618,52580.48952585334,0.0,0.0,0.0,193.0,0.0,193.0,0.0,17.0,0.0,179.0,193.0,17.0,179.0,1744418582.6323507,0.0,2025-04-11 20:43:02.632,LEFT,7
125.0,1490.8837069134363,-18117.675854882702,-32402.36281184707,-23851.412397791435,17187.284491930546,3595.5239648251495,31615.760220975906,52582.232961920854,0.0,0.0,0.0,193.0,0.0,193.0,0.0,17.0,0.0,179.0,193.0,17.0,179.0,1744418582.6323879,0.0,2025-04-11 20:43:02.632,LEFT,7
126.0,1498.8409279395257,-18111.23855247957,-32415.639748053523,-23859.4813775398,17157.400209593798,3382.6906541217154,31798.798656320414,52448.0777917001,0.0,0.0,0.0,193.0,0.0,193.0,0.0,17.0,0.0,179.0,193.0,17.0,179.0,1744418582.632422,0.0,2025-04-11 20:43:02.632,LEFT,7
127.0,1495.9799046492465,-18098.788630817966,-32429.117849960072,-23821.975150343795,17044.881528005782,3540.248100787175,31606.886578427147,52479.45964091535,0.0,0.0,0.0,193.0,0.0,192.0,0.0,17.0,0.0,178.0,192.0,17.0,178.0,1744418582.6324587,0.0,2025-04-11 20:43:02.632,LEFT,7
128.0,1524.0313439406568,-18063.025839689475,-32394.98673617682,-23781.965527768796,17008.85051594383,3688.797794437146,31325.94750236839,52570.565351315185,0.0,0.0,0.0,193.0,0.0,192.0,0.0,17.0,0.0,178.0,192.0,17.0,178.0,1744418582.6324956,0.0,2025-04-11 20:43:02.632,LEFT,7
129.0,1502.2607448411877,-18113.04904378045,-32378.26763132425,-23825.81965039011,17146.336096088424,3582.761118741169,31552.348321956197,52573.851057750115,0.0,0.0,0.0,193.0,0.0,192.0,0.0,17.0,0.0,178.0,192.0,17.0,178.0,1744418582.6325288,0.0,2025-04-11 20:43:02.632,LEFT,7
130.0,1474.4104712498752,-18157.97605013562,-32412.756373018787,-23866.566880532133,17110.685063682206,3358.5731218544393,31813.30493847191,52448.45777135585,0.0,0.0,0.0,193.0,0.0,192.0,0.0,17.0,0.0,178.0,192.0,17.0,178.0,1744418582.632566,0.0,2025-04-11 20:43:02.632,LEFT,7
131.0,1482.9488376318025,-18129.365817232825,-32415.93032073144,-23814.75553688473,17067.009755016537,3505.535841648083,31655.389863895165,52434.7785037492,0.0,0.0,0.0,193.0,0.0,192.0,0.0,17.0,0.0,179.0,192.0,17.0,179.0,1744418582.6326027,0.0,2025-04-11 20:43:02.632,LEFT,7
132.0,1496.9410296608246,-18104.734194843077,-32400.84289322411,-23788.38047842747,17041.439359359665,3717.9891726957767,31359.229249862346,52544.5032172803,0.0,0.0,0.0,193.0,0.0,192.0,0.0,17.0,0.0,178.0,192.0,17.0,178.0,1744418582.6326723,0.0,2025-04-11 20:43:02.632,LEFT,7
133.0,1495.5999249935062,-18118.480517683092,-32356.094700824586,-23793.029641274174,17201.813125826495,3647.3576602170065,31460.54970747825,52556.08142090815,0.0,0.0,0.0,193.0,0.0,193.0,0.0,17.0,0.0,179.0,193.0,17.0,179.0,1744418582.6327083,0.0,2025-04-11 20:43:02.632,LEFT,7
134.0,1477.2938462846098,-18148.58831746439,-32386.828349450632,-23834.84975515005,17235.58661169846,3434.770218702581,31802.598452877817,52462.96405350734,0.0,0.0,0.0,193.0,0.0,193.0,0.0,17.0,0.0,179.0,193.0,17.0,179.0,1744418582.632748,0.0,2025-04-11 20:43:02.632,LEFT,7
135.0,1477.0256253511461,-18136.563078947434,-32423.32874814615,-23821.751632899242,17086.76869711503,3467.1802481627765,31709.0340505879,52405.34125630156,0.0,0.0,0.0,193.0,0.0,193.0,0.0,17.0,0.0,179.0,193.0,17.0,179.0,1744418582.6327837,0.0,2025-04-11 20:43:02.632,LEFT,7
136.0,1497.477471527752,-18099.459183151626,-32420.490076600323,-23792.962586040805,16990.522085490476,3689.200125837341,31413.141657488544,52514.44012098791,0.0,0.0,0.0,193.0,0.0,193.0,0.0,17.0,0.0,179.0,193.0,17.0,179.0,1744418582.63286,0.0,2025-04-11 20:43:02.632,LEFT,7
137.0,1512.2743263571651,-18087.657462079223,-32376.591250490103,-23797.254120976224,17122.084453354415,3634.86303506649,31405.854988796116,52545.44199054742,0.0,0.0,0.0,193.0,0.0,193.0,0.0,17.0,0.0,179.0,193.0,17.0,179.0,1744418582.6328945,0.0,2025-04-11 20:43:02.632,LEFT,7
138.0,1487.0168551226682,-18124.11315728583,-32396.439599566413,-23852.641743736476,17204.74120435014,3420.2639365510868,31790.14853121621,52471.88239954501,0.0,0.0,0.0,193.0,0.0,193.0,0.0,17.0,0.0,179.0,193.0,17.0,179.0,1744418583.1085331,0.0,2025-04-11 20:43:03.108,LEFT,7
139.0,1493.8117854370817,-18108.645750122756,-32415.17036141996,-23823.986807344772,17086.232255248102,3421.5603377294947,31745.75796672797,52374.09351755304,0.0,0.0,0.0,193.0,0.0,193.0,0.0,17.0,0.0,179.0,193.0,17.0,179.0,1744418583.1087115,0.0,2025-04-11 20:43:03.108,LEFT,7
140.0,1500.7855297071374,-18094.474744138093,-32423.731079546345,-23791.50972265121,16976.149913805715,3682.0699193560986,31473.357257051142,52485.427556684925,0.0,0.0,0.0,193.0,0.0,193.0,0.0,17.0,0.0,179.0,193.0,17.0,179.0,1744418583.1087492,0.0,2025-04-11 20:43:03.108,LEFT,7
141.0,1501.5231372741625,-18107.885790811277,-32385.017858149753,-23786.637042359955,17068.797894572963,3714.1223209050086,31389.135883943545,52553.73448774034,0.0,0.0,0.0,193.0,0.0,193.0,0.0,17.0,0.0,179.0,193.0,17.0,179.0,1744418583.1087863,0.0,2025-04-11 20:43:03.108,LEFT,7
142.0,1473.4940497272075,-18160.702962959167,-32393.913852442965,-23842.538755242676,17185.27283492957,3524.825397113013,31775.374028131253,52504.851222616584,0.0,0.0,0.0,193.0,0.0,192.0,0.0,17.0,0.0,178.0,192.0,17.0,178.0,1744418583.1088228,0.0,2025-04-11 20:43:03.108,LEFT,7
143.0,1486.122785344456,-18144.07326508442,-32411.929358473943,-23837.464909251325,17080.04082203398,3395.677017650249,31784.426484635653,52361.755354613706,0.0,0.0,0.0,193.0,0.0,192.0,0.0,17.0,0.0,178.0,192.0,17.0,178.0,1744418583.1088588,0.0,2025-04-11 20:43:03.108,LEFT,7
144.0,1494.191765092822,-18107.461107666626,-32418.99250972182,-23800.428068688878,16981.670794686175,3635.0418490221323,31534.75749906987,52450.871759757014,0.0,0.0,0.0,193.0,0.0,192.0,0.0,17.0,0.0,178.0,192.0,17.0,178.0,1744418583.1088953,0.0,2025-04-11 20:43:03.108,LEFT,7
145.0,1511.894346701425,-18087.14337195675,-32384.235547093816,-23792.023812773685,17027.916553964205,3703.9746289222994,31350.1991451024,52516.451777988885,0.0,0.0,0.0,193.0,0.0,192.0,0.0,17.0,0.0,178.0,192.0,17.0,178.0,1744418583.1089442,0.0,2025-04-11 20:43:03.108,LEFT,7
146.0,1498.416244794875,-18120.335712472883,-32372.143253343496,-23832.793394660162,17201.92488454877,3561.3928510418955,31713.213826801042,52503.71128364936,0.0,0.0,0.0,193.0,0.0,192.0,0.0,17.0,0.0,178.0,192.0,17.0,178.0,1744418583.1089797,0.0,2025-04-11 20:43:03.108,LEFT,7
147.0,1497.3210093165649,-18126.147166031264,-32411.303509629193,-23836.749653428753,17118.955209130672,3378.6002848863945,31819.20579900811,52357.12854351146,0.0,0.0,0.0,193.0,0.0,193.0,0.0,17.0,0.0,179.0,193.0,17.0,179.0,1744418583.1090589,0.0,2025-04-11 20:43:03.109,LEFT,7
148.0,1502.8418901970256,-18094.988834260563,-32422.92641674595,-23801.836228589564,17000.870943173282,3556.698984706281,31601.38804929114,52411.80091044914,0.0,0.0,0.0,193.0,0.0,193.0,0.0,17.0,0.0,179.0,193.0,17.0,179.0,1744418583.109095,0.0,2025-04-11 20:43:03.109,LEFT,7
149.0,1514.9565356918022,-18070.424267104183,-32388.88470994052,-23779.842112045542,17016.338350336355,3660.2993202566295,31365.44303482092,52508.271039518244,0.0,0.0,0.0,193.0,0.0,193.0,0.0,17.0,0.0,179.0,193.0,17.0,179.0,1744418583.1091309,0.0,2025-04-11 20:43:03.109,LEFT,7
150.0,1505.9487826763134,-18106.00824427703,-32357.435805491903,-23805.09958328004,17193.431221655756,3567.0031389001774,31650.49483185945,52500.894963848,0.0,0.0,0.0,193.0,0.0,193.0,0.0,17.0,0.0,179.0,193.0,17.0,179.0,1744418583.1091669,0.0,2025-04-11 20:43:03.109,LEFT,7
151.0,1505.8817274429475,-18116.35710195984,-32396.864282711063,-23835.989694117274,17117.3905870188,3372.699424350193,31851.638180212758,52363.990529059236,0.0,0.0,0.0,193.0,0.0,193.0,0.0,17.0,0.0,179.0,193.0,17.0,179.0,1744418583.1092193,0.0,2025-04-11 20:43:03.109,LEFT,7
152.0,1512.2966781016205,-18083.544741099446,-32428.782573793244,-23819.918789853906,17007.531763020965,3531.3297547495076,31670.387884424676,52387.25869503721,0.0,0.0,0.0,193.0,0.0,192.0,0.0,17.0,0.0,179.0,192.0,17.0,179.0,1744418583.1092556,0.0,2025-04-11 20:43:03.109,LEFT,7
153.0,1527.764085264693,-18068.032630447466,-32381.17335810344,-23778.255138189215,17043.89805124975,3706.075692901098,31378.697619282917,52486.3886816965,0.0,0.0,0.0,193.0,0.0,192.0,0.0,17.0,0.0,178.0,192.0,17.0,178.0,1744418583.1092913,0.0,2025-04-11 20:43:03.109,LEFT,7
154.0,1490.2355063242326,-18140.720503416123,-32358.709854925855,-23814.66612990691,17215.89472483334,3623.083665738543,31570.363827987178,52494.88234458952,0.0,0.0,0.0,193.0,0.0,192.0,0.0,17.0,0.0,178.0,192.0,17.0,178.0,1744418583.1093273,0.0,2025-04-11 20:43:03.109,LEFT,7
155.0,1468.643721180406,-18172.661146242757,-32391.186939619416,-23852.932316414397,17196.3593001794,3393.2630292490758,31843.792717908946,52366.24805524923,0.0,0.0,0.0,193.0,0.0,192.0,0.0,17.0,0.0,178.0,192.0,17.0,178.0,1744418583.1093633,0.0,2025-04-11 20:43:03.109,LEFT,7
156.0,1468.0178723356573,-18160.770018192532,-32416.35500387609,-23824.43384223388,17059.65603109074,3486.4251001387956,31711.202169800064,52344.0527730051,0.0,0.0,0.0,193.0,0.0,192.0,0.0,17.0,0.0,178.0,192.0,17.0,178.0,1744418583.1093993,0.0,2025-04-11 20:43:03.109,LEFT,7
157.0,1489.9449336463135,-18131.779805634,-32412.64461429651,-23804.04905129064,16989.18098082316,3679.275951299185,31425.144544261046,52467.61321635404,0.0,0.0,0.0,193.0,0.0,192.0,0.0,17.0,0.0,178.0,192.0,17.0,178.0,1744418583.1094427,0.0,2025-04-11 20:43:03.109,LEFT,7
158.0,1486.860392911481,-18149.482387242602,-32382.670924981943,-23830.781737659185,17123.96199988866,3619.0603517365876,31511.064649947246,52496.894001590495,0.0,0.0,0.0,193.0,0.0,193.0,0.0,17.0,0.0,179.0,193.0,17.0,179.0,1744418583.1094787,0.0,2025-04-11 20:43:03.109,LEFT,7
159.0,1460.5523896875848,-18190.207265640172,-32407.660175282977,-23872.981831190806,17162.094075929414,3427.5953087324274,31852.889877902257,52396.0652823526,0.0,0.0,0.0,193.0,0.0,193.0,0.0,17.0,0.0,179.0,193.0,17.0,179.0,1744418583.1095142,0.0,2025-04-11 20:43:03.109,LEFT,7
160.0,1474.5669334610623,-18161.64173622629,-32416.22089340936,-23833.86627839402,17046.244984417557,3450.6176055213937,31741.287617836908,52314.012028457175,0.0,0.0,0.0,193.0,0.0,193.0,0.0,17.0,0.0,179.0,193.0,17.0,179.0,1744418583.1095555,0.0,2025-04-11 20:43:03.109,LEFT,7
161.0,1480.8477736530035,-18136.31720975843,-32410.901178228996,-23799.51164716621,16983.749506920518,3698.006713152732,31459.11919583311,52441.21580615232,0.0,0.0,0.0,193.0,0.0,192.0,0.0,17.0,0.0,178.0,192.0,17.0,178.0,1744418583.109591,0.0,2025-04-11 20:43:03.109,LEFT,7
162.0,1485.5192882441627,-18140.25111678256,-32361.190898560395,-23806.440687947357,17104.38187174581,3674.3809192634726,31426.910332073014,52479.34788219308,0.0,0.0,0.0,193.0,0.0,192.0,0.0,17.0,0.0,178.0,192.0,17.0,178.0,1744418583.1096435,0.0,2025-04-11 20:43:03.109,LEFT,7
163.0,1458.1831047753221,-18180.372498079836,-32390.27051809675,-23873.361810846545,17190.950178021216,3462.7098992717147,31812.813200093893,52419.19933786384,0.0,0.0,0.0,193.0,0.0,192.0,0.0,17.0,0.0,178.0,192.0,17.0,178.0,1744418583.10968,0.0,2025-04-11 20:43:03.109,LEFT,7
164.0,1457.378441974931,-18167.184968851205,-32426.41328888098,-23851.635915235987,17068.552025383953,3382.735357610626,31795.937633030135,52321.52221459415,0.0,0.0,0.0,193.0,0.0,192.0,0.0,18.0,0.0,178.0,192.0,18.0,178.0,1744418583.1097162,0.0,2025-04-11 20:43:03.109,LEFT,7
165.0,1479.6854829413276,-18126.527145687003,-32427.195599936917,-23804.65254839093,16959.699029886608,3615.7075900682917,31510.57291156923,52419.82518670859,0.0,0.0,0.0,193.0,0.0,192.0,0.0,17.0,0.0,178.0,192.0,17.0,178.0,1744418583.109753,0.0,2025-04-11 20:43:03.109,LEFT,7
166.0,1499.8691081844697,-18119.709863628133,-32386.15779711697,-23792.493199407247,17014.930190435673,3652.118581785987,31383.905575741006,52475.32456819112,0.0,0.0,0.0,193.0,0.0,192.0,0.0,17.0,0.0,178.0,192.0,17.0,178.0,1744418583.1098025,0.0,2025-04-11 20:43:03.109,LEFT,7
167.0,1472.2647037821655,-18173.756381721065,-32392.97507917584,-23849.356037301546,17167.324384131956,3487.7885565505694,31781.67722006765,52453.35280339156,0.0,0.0,0.0,193.0,0.0,192.0,0.0,17.0,0.0,178.0,192.0,17.0,178.0,1744418583.1098392,0.0,2025-04-11 20:43:03.109,LEFT,7
168.0,1471.6835584263276,-18176.55034977798,-32417.27142539876,-23862.744732230276,17104.136002556803,3343.2174734136433,31821.888008342747,52317.11892093646,0.0,0.0,0.0,193.0,0.0,192.0,0.0,17.0,0.0,179.0,192.0,17.0,179.0,1744418583.1098757,0.0,2025-04-11 20:43:03.109,LEFT,7
169.0,1487.6427039674168,-18132.20448877865,-32424.8039632802,-23823.38331024448,16994.478344259067,3573.6863104923145,31559.880859837638,52391.63963695045,0.0,0.0,0.0,193.0,0.0,193.0,0.0,17.0,0.0,179.0,193.0,17.0,179.0,1744418583.109912,0.0,2025-04-11 20:43:03.109,LEFT,7
170.0,1504.5853262645396,-18113.518430414013,-32379.22875633583,-23803.13262976797,17032.252792388535,3663.2944540136405,31357.77638647275,52469.91544603294,0.0,0.0,0.0,193.0,0.0,193.0,0.0,17.0,0.0,179.0,193.0,17.0,179.0,1744418583.1099477,0.0,2025-04-11 20:43:03.109,LEFT,7
171.0,1487.374483033953,-18160.21122458115,-32359.983904359808,-23836.324970284102,17196.3593001794,3533.0061355836556,31690.057419545345,52450.894111501475,0.0,0.0,0.0,193.0,0.0,193.0,0.0,17.0,0.0,179.0,193.0,17.0,179.0,1744418583.1099844,0.0,2025-04-11 20:43:03.109,LEFT,7
172.0,1469.4260322363416,-18183.904073703776,-32414.589216064123,-23864.376409575514,17083.997080802572,3342.99395596909,31836.751918405524,52321.2986971496,0.0,0.0,0.0,193.0,0.0,193.0,0.0,17.0,0.0,179.0,193.0,17.0,179.0,1744418583.1100204,0.0,2025-04-11 20:43:03.110,LEFT,7
173.0,1473.0693665825568,-18154.22095706713,-32445.36756817908,-23841.24235406427,16908.066500194847,3487.4309286392845,31626.39965133663,52366.426869204864,0.0,0.0,0.0,193.0,0.0,193.0,0.0,17.0,0.0,179.0,193.0,17.0,179.0,1744418583.1100564,0.0,2025-04-11 20:43:03.110,LEFT,7
174.0,1495.8457941825145,-18123.084977040886,-32394.40559082098,-23810.4192984604,16977.40161149521,3607.705665553292,31359.855098707092,52444.9261957319,0.0,0.0,0.0,193.0,0.0,193.0,0.0,17.0,0.0,179.0,193.0,17.0,179.0,1744418583.110093,0.0,2025-04-11 20:43:03.110,LEFT,7
175.0,1475.9080381283807,-18166.626175239824,-32363.001389861274,-23835.944990628363,17227.897611605837,3564.9020749213787,31635.340349118753,52462.002928495756,0.0,0.0,0.0,193.0,0.0,192.0,0.0,17.0,0.0,178.0,192.0,17.0,178.0,1744418583.110129,0.0,2025-04-11 20:43:03.110,LEFT,7
176.0,1478.0985090850008,-18174.024602654532,-32390.73990473031,-23850.67479022441,17186.703346574708,3390.6255234033497,31849.268895300498,52326.90898500788,0.0,0.0,0.0,193.0,0.0,192.0,0.0,17.0,0.0,178.0,192.0,17.0,178.0,1744418583.110165,0.0,2025-04-11 20:43:03.110,LEFT,7
177.0,1482.8370789095259,-18139.35704700435,-32407.011974693774,-23814.375557228992,17047.362571640322,3541.5445019655826,31670.74551233596,52333.81567404458,0.0,0.0,0.0,193.0,0.0,192.0,0.0,17.0,0.0,178.0,192.0,17.0,178.0,1744418583.1102157,0.0,2025-04-11 20:43:03.110,LEFT,7
178.0,1495.3987592934084,-18120.380415961794,-32382.179186603928,-23793.051993018627,16986.051736599416,3725.208786154841,31388.35357288761,52452.95047199136,0.0,0.0,0.0,193.0,0.0,192.0,0.0,17.0,0.0,178.0,192.0,17.0,178.0,1744418583.1102493,0.0,2025-04-11 20:43:03.110,LEFT,7
179.0,1493.7894336926263,-18147.82835815291,-32348.15983154295,-23820.65639742093,17143.408017564776,3640.2945089691293,31549.86727832166,52468.23906519879,0.0,0.0,0.0,193.0,0.0,192.0,0.0,17.0,0.0,178.0,192.0,17.0,178.0,1744418583.1102817,0.0,2025-04-11 20:43:03.110,LEFT,7
180.0,1467.9731688467466,-18182.831189969922,-32395.433771065924,-23875.73109575881,17137.417750050754,3396.414625217274,31848.598342966838,52351.45120041981,0.0,0.0,0.0,193.0,0.0,193.0,0.0,17.0,0.0,179.0,193.0,17.0,179.0,1744418583.1103146,0.0,2025-04-11 20:43:03.110,LEFT,7
181.0,1472.9576078602802,-18162.60286123787,-32414.030422452743,-23837.129633084493,17032.632772044275,3460.4523730817286,31729.37413804223,52320.27051690466,0.0,0.0,0.0,193.0,0.0,193.0,0.0,17.0,0.0,179.0,193.0,17.0,179.0,1744418583.1103609,0.0,2025-04-11 20:43:03.110,LEFT,7
182.0,1498.3044860725984,-18119.933381072686,-32394.60675652108,-23802.171504756392,16961.84479735432,3660.2993202566295,31430.620721652595,52426.28484085618,0.0,0.0,0.0,193.0,0.0,193.0,0.0,17.0,0.0,179.0,193.0,17.0,179.0,1744418583.1103933,0.0,2025-04-11 20:43:03.110,LEFT,7
183.0,1506.2617070986876,-18128.49409919907,-32336.805145359656,-23809.99461531575,17106.974674102625,3610.6560958213922,31471.569117494717,52437.103085172545,0.0,0.0,0.0,193.0,0.0,193.0,0.0,17.0,0.0,179.0,193.0,17.0,179.0,1744418583.1104252,0.0,2025-04-11 20:43:03.110,LEFT,7
184.0,1476.3997765063973,-18177.578530022925,-32359.581572959614,-23863.61645026403,17165.87152074236,3406.607020688894,31834.784964893457,52358.08966852304,0.0,0.0,0.0,193.0,0.0,193.0,0.0,17.0,0.0,179.0,193.0,17.0,179.0,1744418583.1104803,0.0,2025-04-11 20:43:03.110,LEFT,7
185.0,1475.3268927725426,-18164.59216649439,-32396.104323399584,-23843.455176765347,17039.003019214037,3406.6293724333495,31761.247725635498,52277.511629761655,0.0,0.0,0.0,193.0,0.0,193.0,0.0,17.0,0.0,179.0,193.0,17.0,179.0,1744418583.1105127,0.0,2025-04-11 20:43:03.110,LEFT,7
186.0,1494.3258755595537,-18130.639866666777,-32396.08197165513,-23810.866333349506,16968.192692779623,3642.1273520144646,31476.262983830333,52390.276180538676,0.0,0.0,0.0,193.0,0.0,193.0,0.0,17.0,0.0,178.0,193.0,17.0,178.0,1744418583.1105452,0.0,2025-04-11 20:43:03.110,LEFT,7
187.0,1501.9031169299028,-18133.16561379023,-32362.330837527617,-23817.86242936402,17058.80666480144,3628.1128082409873,31424.116364016103,52434.68909677138,0.0,0.0,0.0,193.0,0.0,192.0,0.0,18.0,0.0,178.0,192.0,18.0,178.0,1744418583.1105776,0.0,2025-04-11 20:43:03.110,LEFT,7
188.0,1479.8419451525147,-18174.382230565814,-32364.61071546206,-23858.96728741733,17158.74131426112,3438.793532704536,31801.793790077427,52374.629959419966,0.0,0.0,0.0,193.0,0.0,192.0,0.0,18.0,0.0,178.0,192.0,18.0,178.0,1744418583.1106105,0.0,2025-04-11 20:43:03.110,LEFT,7
189.0,1472.7787939046377,-18170.761247964056,-32397.93716644492,-23848.81959543462,17053.28578392098,3366.709156836171,31803.403115678208,52273.06363261505,0.0,0.0,0.0,193.0,0.0,192.0,0.0,18.0,0.0,178.0,192.0,18.0,178.0,1744418583.110643,0.0,2025-04-11 20:43:03.110,LEFT,7
190.0,1481.67478819785,-18136.518375458523,-32403.23452988083,-23814.844943862554,16947.226756480548,3584.1916303863086,31530.577722856728,52376.59691293203,0.0,0.0,0.0,193.0,0.0,193.0,0.0,18.0,0.0,179.0,193.0,18.0,179.0,1744418583.1106756,0.0,2025-04-11 20:43:03.110,LEFT,7
191.0,1502.1042826300006,-18119.039311294473,-32345.656436163958,-23791.196798228837,17032.65512378873,3633.924261799367,31375.523671570263,52428.60942227953,0.0,0.0,0.0,193.0,0.0,193.0,0.0,17.0,0.0,179.0,193.0,17.0,179.0,1744418583.1107085,0.0,2025-04-11 20:43:03.110,LEFT,7
192.0,1473.538753216118,-18172.772904965033,-32351.937276355897,-23837.15198482895,17178.4555528707,3502.0266177686,31753.08933890931,52389.22564854928,0.0,0.0,0.0,193.0,0.0,193.0,0.0,17.0,0.0,179.0,193.0,17.0,179.0,1744418583.1107607,0.0,2025-04-11 20:43:03.110,LEFT,7
193.0,1465.4697734677522,-18178.137323634306,-32394.629108265533,-23837.24139180677,17051.162368197725,3352.80637178497,31820.77042111998,52255.31634751754,0.0,0.0,0.0,193.0,0.0,193.0,0.0,17.0,0.0,179.0,193.0,17.0,179.0,1744418583.1107936,0.0,2025-04-11 20:43:03.110,LEFT,7
194.0,1472.0188345931572,-18143.268602284028,-32406.65434678249,-23806.95477806983,16939.87303255475,3612.1089592109875,31584.71364792748,52347.36083118449,0.0,0.0,0.0,193.0,0.0,193.0,0.0,17.0,0.0,179.0,193.0,17.0,179.0,1744418583.1108255,0.0,2025-04-11 20:43:03.110,LEFT,7
195.0,1498.1033203725005,-18117.944075816165,-32366.711779440855,-23787.598167371532,16986.94580637763,3712.7141610043245,31368.460520322387,52437.66187878393,0.0,0.0,0.0,193.0,0.0,193.0,0.0,18.0,0.0,179.0,193.0,18.0,179.0,1744418583.110858,0.0,2025-04-11 20:43:03.110,LEFT,7
196.0,1486.9050964003918,-18159.093637358386,-32351.378482744516,-23829.038301591674,17143.452721053687,3572.4346128028174,31693.32077423582,52432.76684674822,0.0,0.0,0.0,193.0,0.0,193.0,0.0,17.0,0.0,179.0,193.0,17.0,179.0,1744418583.110904,0.0,2025-04-11 20:43:03.110,LEFT,7
