Sample Index,EXG Channel 0,EXG Channel 1,EXG Channel 2,EXG Channel 3,EXG Channel 4,EXG Channel 5,EXG Channel 6,EXG Channel 7,Accel Channel 0,Accel Channel 1,Accel Channel 2,Not Used,Digital Channel 0 (D11),Digital Channel 1 (D12),Digital Channel 2 (D13),Digital Channel 3 (D17),Not Used,Digital Channel 4 (D18),Analog Channel 0,Analog Channel 1,Analog Channel 2,Timestamp,Marker Channel,Timestamp (Formatted),Stimulus_Direction,Stimulus_Number
166.0,17099.397432732276,24167.44371264502,-31382.586822818143,-19318.031587366055,-34404.58737666457,-25816.466011579756,-14458.605880571115,-30819.322862544403,0.0,0.0,0.0,193.0,0.0,194.0,0.0,1.0,0.0,180.0,194.0,1.0,180.0,1744420648.24119,0.0,2025-04-11 21:17:28.241,LEFT,44
167.0,17125.951305145183,24170.394142913123,-31394.54500610173,-19326.88287817036,-34421.64175768397,-25831.77695653164,-13972.321328201453,-30771.84775732133,0.0,0.0,0.0,193.0,0.0,193.0,0.0,1.0,0.0,179.0,193.0,1.0,179.0,1744420648.241232,0.0,2025-04-11 21:17:28.241,LEFT,44
168.0,17119.11167134186,24158.92769800755,-31391.72868630036,-19334.549526518527,-34410.19766452285,-25822.322168627044,-13997.645854669316,-30816.841818909863,0.0,0.0,0.0,193.0,0.0,193.0,0.0,1.0,0.0,179.0,193.0,1.0,179.0,1744420648.241274,0.0,2025-04-11 21:17:28.241,LEFT,44
169.0,17090.76965937253,24162.97336375396,-31389.091180454634,-19324.40183453582,-34404.117990031,-25809.693433009797,-14345.46135013835,-30812.393821763257,0.0,0.0,0.0,193.0,0.0,194.0,0.0,1.0,0.0,179.0,194.0,1.0,179.0,1744420648.2413166,0.0,2025-04-11 21:17:28.241,LEFT,44
170.0,17086.232255248102,24170.34943942421,-31390.521692099774,-19322.077253112468,-34410.71175464532,-25807.43590681981,-14501.901209581043,-30814.13725783077,0.0,0.0,0.0,193.0,0.0,193.0,0.0,1.0,0.0,179.0,193.0,1.0,179.0,1744420648.241372,0.0,2025-04-11 21:17:28.241,LEFT,44
171.0,17118.038787608002,24171.73524758044,-31398.30009917022,-19327.531078759563,-34418.24429252676,-25821.87513373794,-14047.49024480465,-30751.75353905601,0.0,0.0,0.0,193.0,0.0,194.0,0.0,1.0,0.0,179.0,194.0,1.0,179.0,1744420648.2414188,0.0,2025-04-11 21:17:28.241,LEFT,44
172.0,17123.76083418856,24157.810110784783,-31396.802532291716,-19342.88672720036,-34408.1189522885,-25823.30564538308,-13946.303897655476,-30804.168379803705,0.0,0.0,0.0,193.0,0.0,194.0,0.0,1.0,0.0,180.0,194.0,1.0,180.0,1744420648.2414615,0.0,2025-04-11 21:17:28.241,LEFT,44
173.0,17100.71618565514,24160.58172709724,-31390.54404384423,-19331.710854972705,-34398.23948123926,-25802.317357339547,-14271.834703902568,-30786.42109470619,0.0,0.0,0.0,193.0,0.0,193.0,0.0,1.0,0.0,179.0,193.0,1.0,179.0,1744420648.241521,0.0,2025-04-11 21:17:28.241,LEFT,44
174.0,17091.216694261635,24166.482587633443,-31386.677192053463,-19326.97228514818,-34400.74287661826,-25794.740115969198,-14489.20541873043,-30781.19078650365,0.0,0.0,0.0,193.0,0.0,194.0,0.0,1.0,0.0,179.0,194.0,1.0,179.0,1744420648.2415638,0.0,2025-04-11 21:17:28.241,LEFT,44
175.0,17113.94841837268,24173.322221436767,-31393.270956667777,-19333.051959640023,-34414.66801341391,-25817.53889531361,-14138.394789504384,-30759.196669959627,0.0,0.0,0.0,193.0,0.0,193.0,0.0,1.0,0.0,179.0,193.0,1.0,179.0,1744420648.2416055,0.0,2025-04-11 21:17:28.241,LEFT,44
176.0,17121.52565974303,24162.347514909212,-31396.042572980237,-19349.547547048038,-34407.69426914385,-25832.626322820943,-13908.41769080373,-30803.274310025492,0.0,0.0,0.0,193.0,0.0,194.0,0.0,1.0,0.0,179.0,194.0,1.0,179.0,1744420648.241648,0.0,2025-04-11 21:17:28.241,LEFT,44
177.0,17092.982482073603,24146.67894204604,-31399.752962559818,-19345.390122579352,-34407.98484182177,-25826.077261695536,-14205.0029879812,-30818.6746619552,0.0,0.0,0.0,193.0,0.0,194.0,0.0,1.0,0.0,179.0,194.0,1.0,179.0,1744420648.2416902,0.0,2025-04-11 21:17:28.241,LEFT,44
178.0,17087.640415148784,24162.07929397575,-31389.895843255028,-19331.82261369498,-34397.34541146105,-25806.363023085956,-14477.9177877805,-30787.337516228858,0.0,0.0,0.0,193.0,0.0,193.0,0.0,1.0,0.0,179.0,193.0,1.0,179.0,1744420648.2417464,0.0,2025-04-11 21:17:28.241,LEFT,44
179.0,17103.398394989777,24157.944221251517,-31393.315660156688,-19331.710854972705,-34401.39107720746,-25820.109345925972,-14197.515153588673,-30749.384254143748,0.0,0.0,0.0,193.0,0.0,194.0,0.0,1.0,0.0,179.0,194.0,1.0,179.0,1744420648.2417889,0.0,2025-04-11 21:17:28.241,LEFT,44
180.0,17106.90761886926,24144.421415856053,-31407.64312835254,-19354.956669206225,-34413.68453665788,-25842.326979914546,-13863.825960615393,-30785.99641156154,0.0,0.0,0.0,193.0,0.0,194.0,0.0,1.0,0.0,179.0,194.0,1.0,179.0,1744420648.241831,0.0,2025-04-11 21:17:28.241,LEFT,44
181.0,17088.780354116006,24135.16779365156,-31410.146523731535,-19353.30264011653,-34415.29386225866,-25833.520392599155,-14146.46376925275,-30819.85930441133,0.0,0.0,0.0,193.0,0.0,193.0,0.0,1.0,0.0,179.0,193.0,1.0,179.0,1744420648.2418733,0.0,2025-04-11 21:17:28.241,LEFT,44
182.0,17077.112743510337,24148.131805435634,-31401.049363738224,-19342.573802777984,-34405.63790865397,-25818.947055214296,-14479.77298257029,-30808.169342061206,0.0,0.0,0.0,193.0,0.0,194.0,0.0,1.0,0.0,180.0,194.0,1.0,180.0,1744420648.241915,0.0,2025-04-11 21:17:28.241,LEFT,44
183.0,17097.877514109317,24158.950049752006,-31394.50030261282,-19334.705988729715,-34402.262795241215,-25823.283293638622,-14314.146556156464,-30786.19757726164,0.0,0.0,0.0,193.0,0.0,193.0,0.0,1.0,0.0,179.0,193.0,1.0,179.0,1744420648.241957,0.0,2025-04-11 21:17:28.241,LEFT,44
184.0,17120.85510740937,24158.16773869607,-31404.916215528992,-19348.720532503194,-34416.56791169261,-25835.509697855676,-13886.781202170992,-30779.961440558607,0.0,0.0,0.0,193.0,0.0,193.0,0.0,1.0,0.0,178.0,193.0,1.0,178.0,1744420648.241999,0.0,2025-04-11 21:17:28.241,LEFT,44
185.0,17113.72490092813,24148.891764747117,-31401.339936416145,-19347.871166213892,-34408.63304241098,-25826.97133147375,-14100.866210563925,-30821.37922303429,0.0,0.0,0.0,193.0,0.0,194.0,0.0,1.0,0.0,180.0,194.0,1.0,180.0,1744420648.2420545,0.0,2025-04-11 21:17:28.242,LEFT,44
186.0,17087.640415148784,24159.128863707647,-31399.10476197061,-19338.55048877603,-34405.79437086515,-25818.5447238141,-14429.369798823573,-30811.119772329304,0.0,0.0,0.0,193.0,0.0,194.0,0.0,1.0,0.0,179.0,194.0,1.0,179.0,1744420648.242097,0.0,2025-04-11 21:17:28.242,LEFT,44
187.0,17092.96013032915,24176.518520893875,-31391.058133966704,-19329.520384016083,-34400.921690573894,-25820.712843026264,-14392.601179194591,-30804.816580392908,0.0,0.0,0.0,193.0,0.0,193.0,0.0,1.0,0.0,179.0,193.0,1.0,179.0,1744420648.242139,0.0,2025-04-11 21:17:28.242,LEFT,44
188.0,17117.725863185628,24173.948070281516,-31400.490570126844,-19340.83036671047,-34408.63304241098,-25840.069453724558,-13905.511964024541,-30773.70295211112,0.0,0.0,0.0,193.0,0.0,194.0,0.0,1.0,0.0,180.0,194.0,1.0,180.0,1744420648.242195,0.0,2025-04-11 21:17:28.242,LEFT,44
189.0,17108.96397935915,24151.43986361502,-31406.88316904106,-19355.560166306517,-34416.54555994816,-25845.45622413829,-14026.63606722785,-30840.69113024368,0.0,0.0,0.0,193.0,0.0,194.0,0.0,1.0,0.0,179.0,194.0,1.0,179.0,1744420648.2422369,0.0,2025-04-11 21:17:28.242,LEFT,44
190.0,17087.349842470867,24158.63712532963,-31405.653823096018,-19347.871166213892,-34416.07617331459,-25832.96159898777,-14397.697376930402,-30829.179981849193,0.0,0.0,0.0,193.0,0.0,193.0,0.0,1.0,0.0,179.0,193.0,1.0,179.0,1744420648.242279,0.0,2025-04-11 21:17:28.242,LEFT,44
191.0,17089.160333771746,24166.41553240008,-31397.584843347653,-19339.757482976616,-34404.47561794229,-25827.865401251962,-14456.929499736965,-30806.51531297151,0.0,0.0,0.0,193.0,0.0,194.0,0.0,1.0,0.0,179.0,194.0,1.0,179.0,1744420648.2423213,0.0,2025-04-11 21:17:28.242,LEFT,44
192.0,17115.91537188475,24159.754712552396,-31410.995890020837,-19351.179224393276,-34414.46684771381,-25848.4513578953,-13969.303842699986,-30769.94785904263,0.0,0.0,0.0,193.0,0.0,193.0,0.0,1.0,0.0,179.0,193.0,1.0,179.0,1744420648.2423632,0.0,2025-04-11 21:17:28.242,LEFT,44
193.0,17106.035900835504,24140.040473942816,-31420.87536107008,-19370.78170428058,-34427.989653109275,-25850.82064280756,-13983.296034729008,-30826.497772514558,0.0,0.0,0.0,193.0,0.0,193.0,0.0,1.0,0.0,179.0,193.0,1.0,179.0,1744420648.2424188,0.0,2025-04-11 21:17:28.242,LEFT,44
194.0,17081.113705767835,24149.58466882523,-31414.37100343359,-19358.600003552438,-34420.83709488357,-25836.314360656066,-14345.617812349536,-30819.65813871123,0.0,0.0,0.0,193.0,0.0,194.0,0.0,1.0,0.0,180.0,194.0,1.0,180.0,1744420648.2424617,0.0,2025-04-11 21:17:28.242,LEFT,44
195.0,17078.81147608894,24159.21827068547,-31403.59746260613,-19347.78175923607,-34406.867254599005,-25831.53108734263,-14500.671863636002,-30821.37922303429,0.0,0.0,0.0,193.0,0.0,193.0,0.0,0.0,0.0,179.0,193.0,0.0,179.0,1744420648.2425034,0.0,2025-04-11 21:17:28.242,LEFT,44
196.0,17104.87361012383,24157.050151473304,-31411.44292490994,-19349.8157679815,-34414.13157154698,-25849.01015150668,-14052.362925095907,-30777.636859135255,0.0,0.0,0.0,193.0,0.0,193.0,0.0,1.0,0.0,180.0,193.0,1.0,180.0,1744420648.242545,0.0,2025-04-11 21:17:28.242,LEFT,44
197.0,17111.10974682686,24142.990904210914,-31419.55660814722,-19365.350230377942,-34426.13445831948,-25851.379436418945,-13919.03476942,-30816.39478402076,0.0,0.0,0.0,193.0,0.0,194.0,0.0,1.0,0.0,179.0,194.0,1.0,179.0,1744420648.2425869,0.0,2025-04-11 21:17:28.242,LEFT,44
198.0,17089.137982027292,24147.01421821287,-31415.577997634173,-19351.849776726936,-34423.027565840195,-25829.407671619378,-14254.0650670606,-30810.516275229013,0.0,0.0,0.0,193.0,0.0,193.0,0.0,0.0,0.0,179.0,193.0,0.0,179.0,1744420648.2426288,0.0,2025-04-11 21:17:28.242,LEFT,44
199.0,17084.71233662514,24166.951974267005,-31397.808360792205,-19332.224945095175,-34408.14130403296,-25811.63803477741,-14509.321988740205,-30807.14116181626,0.0,0.0,0.0,193.0,0.0,194.0,0.0,0.0,0.0,180.0,194.0,0.0,180.0,1744420648.24267,0.0,2025-04-11 21:17:28.242,LEFT,44
200.0,17101.453793222165,24163.889785276628,-31402.010488749802,-19332.49316602864,-34414.064516313614,-25829.6982442973,-14147.737818686703,-30768.651457864224,0.0,0.0,0.0,193.0,0.0,194.0,0.0,1.0,0.0,180.0,194.0,1.0,180.0,1744420648.2427254,0.0,2025-04-11 21:17:28.242,LEFT,44
201.0,17106.438232235698,24154.144424694114,-31417.477895912874,-19355.470759328695,-34429.55427522115,-25847.69139858382,-13894.783126685994,-30810.4715717401,0.0,0.0,0.0,193.0,0.0,193.0,0.0,0.0,0.0,179.0,193.0,0.0,179.0,1744420648.242768,0.0,2025-04-11 21:17:28.242,LEFT,44
202.0,17083.818266846927,24153.69738980501,-31411.532331887764,-19343.35611383392,-34422.2229030398,-25831.01699722016,-14210.14388920592,-30821.20040907865,0.0,0.0,0.0,193.0,0.0,194.0,0.0,0.0,0.0,179.0,194.0,0.0,179.0,1744420648.2428093,0.0,2025-04-11 21:17:28.242,LEFT,44
203.0,17071.256586463045,24158.748884051907,-31401.78697130525,-19330.950895661223,-34414.846827369554,-25822.43392734932,-14516.832174877189,-30828.241208582072,0.0,0.0,0.0,193.0,0.0,194.0,0.0,0.0,0.0,179.0,194.0,0.0,179.0,1744420648.2428656,0.0,2025-04-11 21:17:28.242,LEFT,44
204.0,17093.04953730697,24158.905346263095,-31403.239834694847,-19328.715721215693,-34418.24429252676,-25830.659369308876,-14255.428523472372,-30785.303507483426,0.0,0.0,0.0,193.0,0.0,193.0,0.0,0.0,0.0,179.0,193.0,0.0,179.0,1744420648.2429073,0.0,2025-04-11 21:17:28.242,LEFT,44
205.0,17113.34492127239,24153.339761893723,-31414.572169133684,-19349.45814007022,-34428.63785369848,-25844.4503956378,-13884.993062614569,-30789.840911607855,0.0,0.0,0.0,193.0,0.0,194.0,0.0,0.0,0.0,180.0,194.0,0.0,180.0,1744420648.2429483,0.0,2025-04-11 21:17:28.242,LEFT,44
206.0,17090.121458783324,24138.118223919657,-31419.780125591773,-19354.420227339295,-34429.934254876884,-25839.91299151337,-14136.89722262588,-30819.568731733412,0.0,0.0,0.0,193.0,0.0,193.0,0.0,0.0,0.0,179.0,193.0,0.0,179.0,1744420648.2429895,0.0,2025-04-11 21:17:28.242,LEFT,44
207.0,17075.70458360965,24161.475796875453,-31406.07850624067,-19338.036398653556,-34414.489199458265,-25821.048119193092,-14459.499950349325,-30807.99052810556,0.0,0.0,0.0,193.0,0.0,194.0,0.0,0.0,0.0,180.0,194.0,0.0,180.0,1744420648.2430305,0.0,2025-04-11 21:17:28.243,LEFT,44
208.0,17090.747307628073,24175.579747626754,-31398.031878236758,-19326.81582293699,-34407.917786588405,-25823.417404105356,-14325.948277228867,-30788.119827284794,0.0,0.0,0.0,193.0,0.0,194.0,0.0,0.0,0.0,179.0,194.0,0.0,179.0,1744420648.2430854,0.0,2025-04-11 21:17:28.243,LEFT,44
209.0,17104.71714791264,24161.408741642088,-31414.616872622595,-19346.30654410202,-34426.96147286433,-25849.658352095885,-13895.856010419848,-30795.67471691069,0.0,0.0,0.0,193.0,0.0,193.0,0.0,0.0,0.0,179.0,193.0,0.0,179.0,1744420648.243127,0.0,2025-04-11 21:17:28.243,LEFT,44
210.0,17088.176857015715,24136.307732618778,-31419.713070358404,-19353.92848896128,-34431.58828396658,-25851.178270718847,-14106.901181566856,-30860.517127575535,0.0,0.0,0.0,193.0,0.0,194.0,0.0,0.0,0.0,180.0,194.0,0.0,180.0,1744420648.2431684,0.0,2025-04-11 21:17:28.243,LEFT,44
211.0,17068.619080617318,24143.504994333387,-31416.15914299001,-19345.74775049064,-34427.0285280977,-25836.20260193379,-14454.04612470223,-30833.560923762434,0.0,0.0,0.0,193.0,0.0,194.0,0.0,0.0,0.0,179.0,194.0,0.0,179.0,1744420648.2432096,0.0,2025-04-11 21:17:28.243,LEFT,44
212.0,17082.29834822397,24151.3504566372,-31402.904558528015,-19332.135538117356,-34412.76811513521,-25831.44168036481,-14412.829507926645,-30806.202388549136,0.0,0.0,0.0,193.0,0.0,193.0,0.0,0.0,0.0,179.0,193.0,0.0,179.0,1744420648.2432508,0.0,2025-04-11 21:17:28.243,LEFT,44
213.0,17112.92023812774,24162.12399746466,-31401.049363738224,-19332.470814284185,-34408.09660054405,-25837.364892645466,-13916.777243230015,-30764.762254328998,0.0,0.0,0.0,193.0,0.0,194.0,0.0,0.0,0.0,179.0,194.0,0.0,179.0,1744420648.243292,0.0,2025-04-11 21:17:28.243,LEFT,44
214.0,17107.555819458463,24146.991866468416,-31406.100857985126,-19344.3172388455,-34417.350222748544,-25840.561192102577,-14010.945142620223,-30830.297569071958,0.0,0.0,0.0,193.0,0.0,193.0,0.0,0.0,0.0,179.0,193.0,0.0,179.0,1744420648.2433465,0.0,2025-04-11 21:17:28.243,LEFT,44
215.0,17086.00873780355,24157.251317173403,-31403.999794006326,-19334.974209663178,-34415.85265587004,-25827.865401251962,-14370.361193461562,-30821.111002100828,0.0,0.0,0.0,193.0,0.0,194.0,0.0,0.0,0.0,179.0,194.0,0.0,179.0,1744420648.2433884,0.0,2025-04-11 21:17:28.243,LEFT,44
216.0,17080.75607785655,24165.141482966126,-31397.651898581018,-19328.380445048864,-34407.8730830995,-25821.67396803784,-14451.408618856505,-30808.01287985002,0.0,0.0,0.0,193.0,0.0,194.0,0.0,0.0,0.0,179.0,194.0,0.0,179.0,1744420648.2434337,0.0,2025-04-11 21:17:28.243,LEFT,44
217.0,17108.58399970341,24169.231852201447,-31403.105724228113,-19333.610753251407,-34416.47850471479,-25836.180250189336,-13983.564255662473,-30767.735036341553,0.0,0.0,0.0,193.0,0.0,193.0,0.0,0.0,0.0,179.0,193.0,0.0,179.0,1744420648.2434754,0.0,2025-04-11 21:17:28.243,LEFT,44
218.0,17108.494592725587,24154.43499737203,-31404.93856727345,-19347.871166213892,-34417.797257637656,-25832.313398398568,-13977.082249770434,-30821.848609667853,0.0,0.0,0.0,193.0,0.0,193.0,0.0,0.0,0.0,179.0,193.0,0.0,179.0,1744420648.2435355,0.0,2025-04-11 21:17:28.243,LEFT,44
219.0,17077.42566793271,24147.595363568707,-31407.911349286005,-19346.910041202314,-34415.74089714776,-25824.892619239406,-14302.277779850696,-30803.90015887024,0.0,0.0,0.0,193.0,0.0,194.0,0.0,0.0,0.0,180.0,194.0,0.0,180.0,1744420648.2435772,0.0,2025-04-11 21:17:28.243,LEFT,44
220.0,17077.537426654988,24153.853852016193,-31396.914291013993,-19335.957686419213,-34404.34150747556,-25819.416441847854,-14494.413375188517,-30812.72909793009,0.0,0.0,0.0,193.0,0.0,193.0,0.0,0.0,0.0,179.0,193.0,0.0,179.0,1744420648.2436187,0.0,2025-04-11 21:17:28.243,LEFT,44
221.0,17104.113650812345,24157.228965428945,-31404.35742191761,-19335.041264896547,-34415.18210353638,-25835.64380832241,-14072.703012550237,-30768.27147820848,0.0,0.0,0.0,193.0,0.0,194.0,0.0,0.0,0.0,179.0,194.0,0.0,179.0,1744420648.24366,0.0,2025-04-11 21:17:28.243,LEFT,44
222.0,17108.20402004767,24143.370883866657,-31413.45458191092,-19354.084951172466,-34425.10627807454,-25844.606857848987,-13925.360313100853,-30820.23928406707,0.0,0.0,0.0,193.0,0.0,194.0,0.0,0.0,0.0,179.0,194.0,0.0,179.0,1744420648.2437012,0.0,2025-04-11 21:17:28.243,LEFT,44
223.0,17084.15354301376,24139.772253009352,-31417.88022731307,-19352.945012205248,-34426.939121119874,-25839.10832871298,-14245.280831489663,-30821.312167800927,0.0,0.0,0.0,193.0,0.0,193.0,0.0,0.0,0.0,179.0,193.0,0.0,179.0,1744420648.2437558,0.0,2025-04-11 21:17:28.243,LEFT,44
224.0,17077.313909210436,24156.29019216182,-31404.06684923969,-19340.249221354632,-34414.24333026926,-25826.099613439994,-14499.330758968683,-30817.19944682115,0.0,0.0,0.0,193.0,0.0,194.0,0.0,0.0,0.0,180.0,194.0,0.0,180.0,1744420648.2437973,0.0,2025-04-11 21:17:28.243,LEFT,44
225.0,17102.839601378393,24165.879090533148,-31398.523616614773,-19331.934372417258,-34411.71758314581,-25836.20260193379,-14169.262548597164,-30776.049885278928,0.0,0.0,0.0,193.0,0.0,194.0,0.0,0.0,0.0,179.0,194.0,0.0,179.0,1744420648.2438383,0.0,2025-04-11 21:17:28.243,LEFT,44
226.0,17108.181668303212,24153.317410149266,-31414.236892966856,-19357.63887854086,-34427.74378392026,-25859.24725046721,-13883.249626547055,-30811.566807218413,0.0,0.0,0.0,193.0,0.0,193.0,0.0,0.0,0.0,179.0,193.0,0.0,179.0,1744420648.24388,0.0,2025-04-11 21:17:28.243,LEFT,44
227.0,17090.747307628073,24149.182337425034,-31408.98423301986,-19349.92752670378,-34421.842923384065,-25847.15495671689,-14185.579322049538,-30835.7290429746,0.0,0.0,0.0,193.0,0.0,194.0,0.0,0.0,0.0,180.0,194.0,0.0,180.0,1744420648.2439213,0.0,2025-04-11 21:17:28.243,LEFT,44
228.0,17075.682231865198,24163.666267832075,-31394.79087529074,-19330.16858460529,-34407.73897263277,-25830.48055535323,-14490.613578631113,-30831.593970250367,0.0,0.0,0.0,193.0,0.0,193.0,0.0,0.0,0.0,179.0,193.0,0.0,179.0,1744420648.7185245,0.0,2025-04-11 21:17:28.718,LEFT,44
229.0,17094.792973374482,24166.192014955523,-31388.040648465238,-19319.372692033376,-34402.888644085964,-25833.609799576974,-14260.01063108571,-30792.165493031203,0.0,0.0,0.0,193.0,0.0,193.0,0.0,0.0,0.0,179.0,193.0,0.0,179.0,1744420648.7186973,0.0,2025-04-11 21:17:28.718,LEFT,44
230.0,17112.562610216453,24149.249392658403,-31400.35645966011,-19337.835232953457,-34415.74089714776,-25848.20548870629,-13878.466353233618,-30799.116885556807,0.0,0.0,0.0,193.0,0.0,194.0,0.0,0.0,0.0,179.0,194.0,0.0,179.0,1744420648.718751,0.0,2025-04-11 21:17:28.718,LEFT,44
231.0,17085.51699942553,24126.2941511028,-31405.810285307205,-19342.43969231125,-34424.346318763055,-25839.041273479615,-14140.652315694371,-30838.18773486468,0.0,0.0,0.0,193.0,0.0,194.0,0.0,0.0,0.0,180.0,194.0,0.0,180.0,1744420648.7187996,0.0,2025-04-11 21:17:28.718,LEFT,44
232.0,17064.551063126455,24141.761558265873,-31396.26609042479,-19330.92854391677,-34412.119914546005,-25824.758508772673,-14483.304558194228,-30828.53178125999,0.0,0.0,0.0,193.0,0.0,193.0,0.0,0.0,0.0,179.0,193.0,0.0,179.0,1744420648.71885,0.0,2025-04-11 21:17:28.718,LEFT,44
233.0,17079.727897611607,24151.1492909371,-31388.64414556553,-19323.77598569107,-34399.42412369539,-25831.039348964616,-14371.188208006408,-30824.553170746945,0.0,0.0,0.0,193.0,0.0,193.0,0.0,0.0,0.0,179.0,193.0,0.0,179.0,1744420648.7189212,0.0,2025-04-11 21:17:28.718,LEFT,44
234.0,17101.789069388997,24144.555526322787,-31400.289404426745,-19338.081102142467,-34408.74480113325,-25840.11415721347,-13889.619873716818,-30774.060580022408,0.0,0.0,0.0,193.0,0.0,194.0,0.0,0.0,0.0,180.0,194.0,0.0,180.0,1744420648.71897,0.0,2025-04-11 21:17:28.718,LEFT,44
235.0,17090.009700061048,24138.542907064308,-31395.908462513504,-19339.131634131867,-34398.28418472817,-25818.92470346984,-14022.858622414902,-30781.168434759194,0.0,0.0,0.0,193.0,0.0,193.0,0.0,0.0,0.0,179.0,193.0,0.0,179.0,1744420648.7190173,0.0,2025-04-11 21:17:28.719,LEFT,44
236.0,17073.357650441845,24155.820805528263,-31390.16406418849,-19329.54273576054,-34389.09761775704,-25806.564188786055,-14350.468140896339,-30762.638838605744,0.0,0.0,0.0,193.0,0.0,193.0,0.0,0.0,0.0,178.0,193.0,0.0,178.0,1744420648.7190652,0.0,2025-04-11 21:17:28.719,LEFT,44
237.0,17085.651109892264,24159.39708464111,-31383.0562094517,-19321.227886823166,-34386.728332844774,-25803.479648051223,-14359.632356123015,-30752.781719300954,0.0,0.0,0.0,193.0,0.0,194.0,0.0,0.0,0.0,180.0,194.0,0.0,180.0,1744420648.7191129,0.0,2025-04-11 21:17:28.719,LEFT,44
238.0,17107.95815085866,24152.4009886266,-31399.663555581996,-19336.360017819406,-34406.84490285455,-25824.579694817032,-13884.881303892293,-30721.757497996987,0.0,0.0,0.0,193.0,0.0,193.0,0.0,0.0,0.0,179.0,193.0,0.0,179.0,1744420648.719178,0.0,2025-04-11 21:17:28.719,LEFT,44
239.0,17100.045633321482,24139.72754952044,-31404.379773662065,-19347.40177958033,-34410.018850567205,-25824.28912213911,-13988.079308042445,-30803.09549606985,0.0,0.0,0.0,193.0,0.0,193.0,0.0,0.0,0.0,179.0,193.0,0.0,179.0,1744420648.7192247,0.0,2025-04-11 21:17:28.719,LEFT,44
240.0,17079.102048766857,24149.696427547507,-31401.20582594941,-19336.06944514149,-34402.15103651894,-25810.11811615445,-14351.473969396828,-30793.975984332086,0.0,0.0,0.0,193.0,0.0,194.0,0.0,0.0,0.0,180.0,194.0,0.0,180.0,1744420648.7192683,0.0,2025-04-11 21:17:28.719,LEFT,44
241.0,17080.890188323283,24157.273668917856,-31397.584843347653,-19334.0130846516,-34399.02179229519,-25813.046194678092,-14447.47471183237,-30791.42788546418,0.0,0.0,0.0,193.0,0.0,193.0,0.0,0.0,0.0,179.0,193.0,0.0,179.0,1744420648.7193117,0.0,2025-04-11 21:17:28.719,LEFT,44
242.0,17100.224447277124,24157.050151473304,-31411.197055720935,-19344.406645823317,-34415.13740004747,-25833.073357710047,-13984.011290551578,-30753.56403035689,0.0,0.0,0.0,193.0,0.0,193.0,0.0,0.0,0.0,179.0,193.0,0.0,179.0,1744420648.7193558,0.0,2025-04-11 21:17:28.719,LEFT,44
243.0,17093.63068266281,24137.090043674714,-31419.31073895821,-19362.936241976768,-34419.250121027246,-25837.007264734184,-13948.0920372119,-30809.8233711509,0.0,0.0,0.0,193.0,0.0,194.0,0.0,0.0,0.0,179.0,194.0,0.0,179.0,1744420648.7194004,0.0,2025-04-11 21:17:28.719,LEFT,44
244.0,17074.05055451996,24142.76738676636,-31417.544951146243,-19355.314297117508,-34419.69715591636,-25827.5971803185,-14307.083404908588,-30810.00218510654,0.0,0.0,0.0,193.0,0.0,193.0,0.0,0.0,0.0,179.0,193.0,0.0,179.0,1744420648.7195077,0.0,2025-04-11 21:17:28.719,LEFT,44
245.0,17067.255624205547,24155.820805528263,-31407.754887074818,-19347.64764876934,-34409.63887091147,-25821.942188971305,-14503.801107859745,-30814.226664808593,0.0,0.0,0.0,193.0,0.0,194.0,0.0,0.0,0.0,179.0,194.0,0.0,179.0,1744420648.71956,0.0,2025-04-11 21:17:28.719,LEFT,44
246.0,17090.456734950156,24151.59632582621,-31409.811247564707,-19344.74192199015,-34410.4211819674,-25831.53108734263,-14078.670928319803,-30761.90123103872,0.0,0.0,0.0,193.0,0.0,193.0,0.0,0.0,0.0,179.0,193.0,0.0,179.0,1744420648.7196083,0.0,2025-04-11 21:17:28.719,LEFT,44
247.0,17098.14573504278,24135.480718073934,-31413.968672033392,-19359.69523903075,-34408.7224493888,-25833.96742748826,-13889.239894061076,-30788.991545318553,0.0,0.0,0.0,193.0,0.0,193.0,0.0,0.0,0.0,179.0,193.0,0.0,179.0,1744420648.7196562,0.0,2025-04-11 21:17:28.719,LEFT,44
248.0,17081.404278445756,24133.469061072956,-31412.87343655508,-19350.329858103974,-34404.229748753285,-25817.695357524797,-14188.19447615081,-30773.03239977746,0.0,0.0,0.0,193.0,0.0,194.0,0.0,0.0,0.0,180.0,194.0,0.0,180.0,1744420648.7200785,0.0,2025-04-11 21:17:28.720,LEFT,44
249.0,17075.57047314292,24148.467081602466,-31401.74226781634,-19337.67877074227,-34398.75357136173,-25804.083145151515,-14464.484389362859,-30776.586327145855,0.0,0.0,0.0,193.0,0.0,193.0,0.0,0.0,0.0,178.0,193.0,0.0,178.0,1744420648.7201574,0.0,2025-04-11 21:17:28.720,LEFT,44
250.0,17095.150601285768,24152.49039560442,-31405.74323007384,-19336.516480030594,-34408.36482147752,-25823.01507270516,-14163.339336316507,-30763.242335706036,0.0,0.0,0.0,193.0,0.0,193.0,0.0,0.0,0.0,179.0,193.0,0.0,179.0,1744420648.7202337,0.0,2025-04-11 21:17:28.720,LEFT,44
251.0,17103.845429878882,24142.856793744184,-31420.338919203154,-19358.331782618974,-34427.60967345353,-25839.98004674674,-13874.778315398493,-30807.454086238635,0.0,0.0,0.0,193.0,0.0,194.0,0.0,0.0,0.0,180.0,194.0,0.0,180.0,1744420648.7203095,0.0,2025-04-11 21:17:28.720,LEFT,44
252.0,17084.779391858505,24139.615790798165,-31413.231064466367,-19345.814805724003,-34417.48433321528,-25814.00731968967,-14162.266452582653,-30794.579481432378,0.0,0.0,0.0,193.0,0.0,193.0,0.0,0.0,0.0,179.0,193.0,0.0,179.0,1744420648.7203803,0.0,2025-04-11 21:17:28.720,LEFT,44
253.0,17076.822170832416,24156.714875306472,-31398.568320103685,-19328.089872370943,-34401.502835929736,-25790.940319411795,-14459.611709071603,-30756.067425735884,0.0,0.0,0.0,193.0,0.0,193.0,0.0,0.0,0.0,179.0,193.0,0.0,179.0,1744420648.7204692,0.0,2025-04-11 21:17:28.720,LEFT,44
254.0,17101.722014155628,24166.01320099988,-31389.87349151057,-19318.702139699715,-34394.12676025948,-25797.95876717076,-14256.143779294942,-30738.36484412728,0.0,0.0,0.0,193.0,0.0,193.0,0.0,0.0,0.0,179.0,193.0,0.0,179.0,1744420648.7205122,0.0,2025-04-11 21:17:28.720,LEFT,44
255.0,17119.737520186605,24166.236718444434,-31398.25539568131,-19333.45429104022,-34403.603899908536,-25817.427136591334,-13841.228346971076,-30744.444518619126,0.0,0.0,0.0,193.0,0.0,193.0,0.0,0.0,0.0,179.0,193.0,0.0,179.0,1744420648.7205536,0.0,2025-04-11 21:17:28.720,LEFT,44
0.0,17102.303159511466,24155.73139855044,-31396.06492472469,-19331.867317183893,-34401.72635337429,-25813.046194678092,-14070.64665206035,-30789.90796684122,0.0,0.0,0.0,193.0,0.0,194.0,0.0,0.0,0.0,180.0,194.0,0.0,180.0,1744420648.7205956,0.0,2025-04-11 21:17:28.720,LEFT,44
1.0,17087.752173871064,24167.935451023037,-31383.72676178536,-19314.745880931125,-34393.590318392555,-25797.15410437037,-14422.32899932015,-30782.576594659877,0.0,0.0,0.0,193.0,0.0,193.0,0.0,0.0,0.0,179.0,193.0,0.0,179.0,1744420648.7206368,0.0,2025-04-11 21:17:28.720,LEFT,44
2.0,17102.39256648929,24167.935451023037,-31375.2554506368,-19305.58166570445,-34389.52230090169,-25801.937377683804,-14337.884108768,-30762.504728139014,0.0,0.0,0.0,193.0,0.0,193.0,0.0,0.0,0.0,179.0,193.0,0.0,179.0,1744420648.7206783,0.0,2025-04-11 21:17:28.720,LEFT,44
3.0,17118.53052598602,24158.368904396168,-31386.856006009104,-19321.697273456728,-34402.17338826339,-25821.048119193092,-13875.627681687794,-30745.919733753173,0.0,0.0,0.0,193.0,0.0,194.0,0.0,0.0,0.0,179.0,194.0,0.0,179.0,1744420648.7207365,0.0,2025-04-11 21:17:28.720,LEFT,44
4.0,17112.47320323863,24146.321314134755,-31385.06786645268,-19323.440709524242,-34401.078152785085,-25811.77214524414,-14028.804186440015,-30790.4667604526,0.0,0.0,0.0,193.0,0.0,193.0,0.0,0.0,0.0,179.0,193.0,0.0,179.0,1744420648.720779,0.0,2025-04-11 21:17:28.720,LEFT,44
5.0,17092.267226251035,24161.475796875453,-31378.228232649355,-19307.146287816322,-34391.913937558405,-25795.634185747407,-14385.292158757706,-30778.352114957826,0.0,0.0,0.0,193.0,0.0,194.0,0.0,0.0,0.0,180.0,194.0,0.0,180.0,1744420648.720821,0.0,2025-04-11 21:17:28.720,LEFT,44
6.0,17088.86976109383,24166.795512055818,-31376.90947972649,-19301.379537746852,-34388.360010190016,-25799.43398230481,-14403.777051422245,-30769.836100320354,0.0,0.0,0.0,193.0,0.0,193.0,0.0,0.0,0.0,179.0,193.0,0.0,179.0,1744420648.7208624,0.0,2025-04-11 21:17:28.720,LEFT,44
7.0,17113.14375557229,24166.39318065562,-31388.912366498993,-19312.62246520787,-34402.95569931933,-25819.997587203692,-13922.096958410379,-30741.583495328847,0.0,0.0,0.0,193.0,0.0,193.0,0.0,0.0,0.0,179.0,193.0,0.0,179.0,1744420648.720919,0.0,2025-04-11 21:17:28.720,LEFT,44
8.0,17103.711319412152,24149.763482780872,-31395.103799713113,-19327.911058415302,-34409.728277889284,-25822.88096223843,-13984.681842885238,-30809.152818817238,0.0,0.0,0.0,193.0,0.0,194.0,0.0,0.0,0.0,180.0,194.0,0.0,180.0,1744420648.7209659,0.0,2025-04-11 21:17:28.720,LEFT,44
9.0,17079.52673191151,24152.132767693136,-31389.851139766117,-19316.288151298544,-34398.46299868381,-25803.054964906572,-14333.033780221198,-30794.490074454556,0.0,0.0,0.0,193.0,0.0,193.0,0.0,0.0,0.0,179.0,193.0,0.0,179.0,1744420648.7210107,0.0,2025-04-11 21:17:28.721,LEFT,44
10.0,17081.940720312683,24162.3028114203,-31380.77633151726,-19306.319273271474,-34388.40471367892,-25794.516598524642,-14456.8624445036,-30783.29185048245,0.0,0.0,0.0,193.0,0.0,193.0,0.0,0.0,0.0,179.0,193.0,0.0,179.0,1744420648.7210588,0.0,2025-04-11 21:17:28.721,LEFT,44
11.0,17105.410051990755,24170.371791168665,-31391.214596177888,-19310.946084373725,-34400.42995219588,-25810.878075465927,-13992.169677277767,-30734.36388186978,0.0,0.0,0.0,193.0,0.0,194.0,0.0,0.0,0.0,180.0,194.0,0.0,180.0,1744420648.7211075,0.0,2025-04-11 21:17:28.721,LEFT,44
12.0,17098.592769931885,24154.479700860942,-31402.613985850097,-19331.085006127956,-34404.788542364666,-25821.651616293388,-13924.443891578185,-30804.23543503707,0.0,0.0,0.0,193.0,0.0,193.0,0.0,0.0,0.0,179.0,193.0,0.0,179.0,1744420648.7211998,0.0,2025-04-11 21:17:28.721,LEFT,44
13.0,17079.102048766857,24151.953953737495,-31402.099895727624,-19321.853735667915,-34402.59807140804,-25809.648729520886,-14277.44499176085,-30809.37633626179,0.0,0.0,0.0,193.0,0.0,193.0,0.0,0.0,0.0,179.0,193.0,0.0,179.0,1744420648.7212489,0.0,2025-04-11 21:17:28.721,LEFT,44
14.0,17076.71041211014,24161.87812827565,-31394.321488657177,-19309.426165750763,-34400.20643475133,-25793.4884182797,-14479.795334314746,-30782.353077215324,0.0,0.0,0.0,193.0,0.0,193.0,0.0,0.0,0.0,179.0,193.0,0.0,179.0,1744420648.7212987,0.0,2025-04-11 21:17:28.721,LEFT,44
15.0,17107.801688647472,24168.181320212047,-31397.584843347653,-19307.749784916614,-34408.81185636662,-25802.09383989499,-14097.111117495433,-30728.619483544768,0.0,0.0,0.0,193.0,0.0,193.0,0.0,0.0,0.0,179.0,193.0,0.0,179.0,1744420648.7213466,0.0,2025-04-11 21:17:28.721,LEFT,44
16.0,17110.66271193775,24154.613811327676,-31411.174703976478,-19333.521346273585,-34416.79142913716,-25816.53306681312,-13898.962902899135,-30774.149987000226,0.0,0.0,0.0,193.0,0.0,194.0,0.0,0.0,0.0,179.0,194.0,0.0,179.0,1744420648.7213984,0.0,2025-04-11 21:17:28.721,LEFT,44
17.0,17084.75704011405,24149.987000225425,-31411.577035376675,-19327.73224445966,-34413.21515002431,-25799.590444515998,-14217.139985220432,-30778.776798102477,0.0,0.0,0.0,193.0,0.0,193.0,0.0,0.0,0.0,179.0,193.0,0.0,179.0,1744420648.7214456,0.0,2025-04-11 21:17:28.721,LEFT,44
18.0,17077.13509525479,24163.800378298805,-31398.613023592596,-19313.82945940846,-34392.249213725234,-25783.519540252633,-14482.857523305122,-30765.768082829487,0.0,0.0,0.0,193.0,0.0,193.0,0.0,0.0,0.0,179.0,193.0,0.0,179.0,1744420648.7215617,0.0,2025-04-11 21:17:28.721,LEFT,44
19.0,17094.56945592993,24162.772198053863,-31409.61008186461,-19317.986883877147,-34403.20156850834,-25801.088011394502,-14170.42483930884,-30733.38040511375,0.0,0.0,0.0,193.0,0.0,194.0,0.0,0.0,0.0,180.0,194.0,0.0,180.0,1744420648.7216125,0.0,2025-04-11 21:17:28.721,LEFT,44
20.0,17107.600522947374,24151.462215359476,-31419.042518024748,-19336.360017819406,-34413.1257430465,-25812.01801443315,-13865.211768771622,-30765.723379340576,0.0,0.0,0.0,193.0,0.0,193.0,0.0,0.0,0.0,179.0,193.0,0.0,179.0,1744420648.7216644,0.0,2025-04-11 21:17:28.721,LEFT,44
21.0,17087.171028515226,24149.33879963622,-31420.02599478078,-19336.3153143305,-34411.225844767796,-25805.781877730118,-14143.334525029008,-30787.963365073607,0.0,0.0,0.0,193.0,0.0,193.0,0.0,0.0,0.0,179.0,193.0,0.0,179.0,1744420648.721758,0.0,2025-04-11 21:17:28.721,LEFT,44
22.0,17067.076810249902,24161.900480020104,-31414.639224367053,-19326.122918858877,-34405.01205980922,-25797.176456114827,-14458.158845682008,-30782.062504537407,0.0,0.0,0.0,193.0,0.0,194.0,0.0,0.0,0.0,179.0,194.0,0.0,179.0,1744420648.721805,0.0,2025-04-11 21:17:28.721,LEFT,44
23.0,17084.198246502667,24164.001543998904,-31413.566340633195,-19323.597171735426,-34408.3201179886,-25807.3912033309,-14275.679203948881,-30757.766158314487,0.0,0.0,0.0,193.0,0.0,193.0,0.0,0.0,0.0,179.0,193.0,0.0,179.0,1744420648.7218523,0.0,2025-04-11 21:17:28.721,LEFT,44
24.0,17104.85125837937,24159.26297417438,-31424.094012271646,-19341.88089869987,-34421.73116466179,-25825.652578550886,-13870.665594418717,-30764.04699850643,0.0,0.0,0.0,193.0,0.0,193.0,0.0,0.0,0.0,179.0,193.0,0.0,179.0,1744420648.721898,0.0,2025-04-11 21:17:28.721,LEFT,44
25.0,17085.449944192165,24140.845136743206,-31424.183419249468,-19345.367770834895,-34418.66897567141,-25821.45045059329,-14090.562056370027,-30803.274310025492,0.0,0.0,0.0,193.0,0.0,193.0,0.0,0.0,0.0,179.0,193.0,0.0,179.0,1744420648.721944,0.0,2025-04-11 21:17:28.721,LEFT,44
26.0,17065.1769119712,24148.176508924545,-31416.3156052012,-19334.63893349635,-34410.26471975621,-25811.21335163276,-14433.929554692455,-30791.606699419823,0.0,0.0,0.0,193.0,0.0,193.0,0.0,0.0,0.0,179.0,193.0,0.0,179.0,1744420648.7219892,0.0,2025-04-11 21:17:28.721,LEFT,44
27.0,17075.749287098562,24150.948125237006,-31411.152352232024,-19327.464023526194,-34409.393001722456,-25819.01411044766,-14364.885016070011,-30772.540661399446,0.0,0.0,0.0,193.0,0.0,193.0,0.0,0.0,0.0,179.0,193.0,0.0,179.0,1744420648.7220747,0.0,2025-04-11 21:17:28.722,LEFT,44
28.0,17100.425612977222,24143.795567011308,-31422.328224459678,-19343.40081732283,-34422.08879257307,-25841.16468920287,-13891.318606295421,-30754.592210601833,0.0,0.0,0.0,193.0,0.0,193.0,0.0,0.0,0.0,179.0,193.0,0.0,179.0,1744420648.722122,0.0,2025-04-11 21:17:28.722,LEFT,44
29.0,17086.36636571483,24126.025930169337,-31423.289349471255,-19350.0169336816,-34419.69715591636,-25836.135546700425,-14033.900384175824,-30818.898179399752,0.0,0.0,0.0,193.0,0.0,193.0,0.0,0.0,0.0,179.0,193.0,0.0,179.0,1744420648.722188,0.0,2025-04-11 21:17:28.722,LEFT,44
30.0,17063.455827648144,24143.750863522397,-31411.733497587862,-19329.54273576054,-34405.01205980922,-25810.76631674365,-14387.504981458782,-30799.295699512448,0.0,0.0,0.0,193.0,0.0,194.0,0.0,0.0,0.0,180.0,194.0,0.0,180.0,1744420648.722236,0.0,2025-04-11 21:17:28.722,LEFT,44
31.0,17066.406257916246,24152.602154326698,-31402.65868933901,-19319.43974726674,-34399.08884752856,-25799.88101719392,-14419.512679518783,-30766.41628341869,0.0,0.0,0.0,193.0,0.0,193.0,0.0,0.0,0.0,179.0,193.0,0.0,179.0,1744420648.7222831,0.0,2025-04-11 21:17:28.722,LEFT,44
32.0,17104.09129906789,24152.26687815987,-31409.140695231046,-19325.96645664769,-34407.291937743656,-25816.086031924016,-13935.351542872375,-30726.093736421317,0.0,0.0,0.0,193.0,0.0,193.0,0.0,0.0,0.0,179.0,193.0,0.0,179.0,1744420648.7223392,0.0,2025-04-11 21:17:28.722,LEFT,44
33.0,17095.24000826359,24134.4972413179,-31414.97450053388,-19337.835232953457,-34411.85169361254,-25815.795459246096,-13962.866540296858,-30788.879786596273,0.0,0.0,0.0,193.0,0.0,193.0,0.0,0.0,0.0,179.0,193.0,0.0,179.0,1744420648.722433,0.0,2025-04-11 21:17:28.722,LEFT,44
34.0,17067.076810249902,24148.53413683583,-31405.586767862653,-19319.707968200204,-34399.245309739745,-25790.605043244967,-14308.133936897986,-30772.89828931073,0.0,0.0,0.0,193.0,0.0,193.0,0.0,0.0,0.0,179.0,193.0,0.0,179.0,1744420648.7224996,0.0,2025-04-11 21:17:28.722,LEFT,44
35.0,17063.679345092696,24161.87812827565,-31396.042572980237,-19308.219171550176,-34390.25990846872,-25784.994755386684,-14452.10152293462,-30772.89828931073,0.0,0.0,0.0,193.0,0.0,193.0,0.0,0.0,0.0,179.0,193.0,0.0,179.0,1744420648.7225535,0.0,2025-04-11 21:17:28.722,LEFT,44
36.0,17088.355670971356,24155.574936339253,-31410.370041176087,-19317.20457282121,-34412.76811513521,-25807.033575419617,-14002.540886705028,-30736.152021426205,0.0,0.0,0.0,193.0,0.0,193.0,0.0,0.0,0.0,179.0,193.0,0.0,179.0,1744420648.7226467,0.0,2025-04-11 21:17:28.722,LEFT,44
37.0,17089.741479127584,24131.524459305343,-31415.242721467344,-19333.54369801804,-34416.947891348354,-25806.117153896947,-13911.882211194303,-30778.150949257728,0.0,0.0,0.0,193.0,0.0,193.0,0.0,0.0,0.0,179.0,193.0,0.0,179.0,1744420648.7227044,0.0,2025-04-11 21:17:28.722,LEFT,44
38.0,17074.966976042626,24138.855831486682,-31402.03284049426,-19315.796412920525,-34399.245309739745,-25778.356287283455,-14248.611241413504,-30747.93139075415,0.0,0.0,0.0,193.0,0.0,194.0,0.0,0.0,0.0,179.0,194.0,0.0,179.0,1744420648.722754,0.0,2025-04-11 21:17:28.722,LEFT,44
39.0,17071.547159140966,24157.072503217758,-31393.74034330134,-19306.11810757138,-34397.83714983906,-25773.461255247745,-14478.610691858614,-30757.028550747462,0.0,0.0,0.0,193.0,0.0,193.0,0.0,0.0,0.0,178.0,193.0,0.0,178.0,1744420648.7228043,0.0,2025-04-11 21:17:28.722,LEFT,44
40.0,17091.551970428463,24162.369866653666,-31398.657727081507,-19303.301787770008,-34406.55433017663,-25789.599214744478,-14115.50660318215,-30728.552428311403,0.0,0.0,0.0,193.0,0.0,193.0,0.0,0.0,0.0,179.0,193.0,0.0,179.0,1744420648.7228513,0.0,2025-04-11 21:17:28.722,LEFT,44
41.0,17097.408127475755,24150.478738603444,-31411.755849332316,-19325.988808392147,-34417.03729832617,-25799.47868579372,-13889.642225461272,-30765.589268873846,0.0,0.0,0.0,193.0,0.0,193.0,0.0,0.0,0.0,179.0,193.0,0.0,179.0,1744420648.7228951,0.0,2025-04-11 21:17:28.722,LEFT,44
42.0,17081.359574956845,24152.848023515704,-31410.191227220446,-19322.457232768207,-34407.649565654945,-25785.888825164897,-14185.668729027358,-30767.66798110819,0.0,0.0,0.0,193.0,0.0,193.0,0.0,0.0,0.0,179.0,193.0,0.0,179.0,1744420648.7229598,0.0,2025-04-11 21:17:28.722,LEFT,44
43.0,17067.926176539204,24165.16383471058,-31398.702430570418,-19312.331892529954,-34388.7176381013,-25774.869415148427,-14460.885758505556,-30757.65439959221,0.0,0.0,0.0,193.0,0.0,193.0,0.0,0.0,0.0,179.0,193.0,0.0,179.0,1744420648.723004,0.0,2025-04-11 21:17:28.723,LEFT,44
44.0,17076.46454292113,24153.473872360453,-31410.392392920545,-19320.82555542297,-34400.42995219588,-25799.72455498273,-14193.178915164342,-30730.51938182347,0.0,0.0,0.0,193.0,0.0,193.0,0.0,0.0,0.0,179.0,193.0,0.0,179.0,1744420648.7230508,0.0,2025-04-11 21:17:28.723,LEFT,44
45.0,17087.752173871064,24135.10073841819,-31427.469125684398,-19348.988753436657,-34418.28899601567,-25828.714767541263,-13859.154446024233,-30768.964382286595,0.0,0.0,0.0,193.0,0.0,193.0,0.0,0.0,0.0,179.0,193.0,0.0,179.0,1744420648.7230928,0.0,2025-04-11 21:17:28.723,LEFT,44
46.0,17073.46940916412,24123.366072579156,-31425.79274485025,-19348.49701505864,-34416.36674599251,-25820.712843026264,-14133.030370835111,-30798.6698506677,0.0,0.0,0.0,193.0,0.0,194.0,0.0,0.0,0.0,180.0,194.0,0.0,180.0,1744420648.7231352,0.0,2025-04-11 21:17:28.723,LEFT,44
47.0,17056.973821756106,24141.15806116558,-31408.82777080867,-19332.40375905082,-34398.15007426144,-25802.898502695385,-14462.67389806198,-30787.22575750658,0.0,0.0,0.0,193.0,0.0,193.0,0.0,0.0,0.0,179.0,193.0,0.0,179.0,1744420648.723178,0.0,2025-04-11 21:17:28.723,LEFT,44
48.0,17072.910615552737,24153.563279338276,-31404.08920098415,-19326.30173281452,-34395.42316143789,-25811.928607455327,-14295.907532680934,-30767.310353196903,0.0,0.0,0.0,193.0,0.0,193.0,0.0,0.0,0.0,179.0,193.0,0.0,179.0,1744420648.723236,0.0,2025-04-11 21:17:28.723,LEFT,44
49.0,17096.67051990873,24150.97047698146,-31416.069736012192,-19345.993619679644,-34412.36578373501,-25832.425157120844,-13867.446943217152,-30771.46777766559,0.0,0.0,0.0,193.0,0.0,194.0,0.0,0.0,0.0,179.0,194.0,0.0,179.0,1744420648.7232785,0.0,2025-04-11 21:17:28.723,LEFT,44
50.0,17083.52769416901,24138.744072764406,-31411.577035376675,-19345.904212701826,-34408.342469733056,-25821.785726760118,-14085.063527234022,-30819.971063133606,0.0,0.0,0.0,193.0,0.0,193.0,0.0,0.0,0.0,179.0,193.0,0.0,179.0,1744420648.7233205,0.0,2025-04-11 21:17:28.723,LEFT,44
51.0,17063.61228985933,24151.551622337298,-31398.702430570418,-19328.134575859855,-34394.05970502612,-25799.568092771544,-14416.785766695235,-30782.71070512661,0.0,0.0,0.0,193.0,0.0,193.0,0.0,0.0,0.0,179.0,193.0,0.0,179.0,1744420648.7233763,0.0,2025-04-11 21:17:28.723,LEFT,44
52.0,17075.771638843016,24158.190090440523,-31383.68205829645,-19311.661340196293,-34376.84886179553,-25787.989889143693,-14349.685829840402,-30737.89545749372,0.0,0.0,0.0,193.0,0.0,193.0,0.0,0.0,0.0,179.0,193.0,0.0,179.0,1744420648.7234187,0.0,2025-04-11 21:17:28.723,LEFT,44
53.0,17097.989272831594,24159.19591894101,-31396.914291013993,-19325.899401414325,-34392.42802768088,-25809.24639812069,-13866.284652505477,-30713.330890337336,0.0,0.0,0.0,193.0,0.0,193.0,0.0,0.0,0.0,179.0,193.0,0.0,179.0,1744420648.7234604,0.0,2025-04-11 21:17:28.723,LEFT,44
54.0,17081.404278445756,24140.35339836519,-31408.380735919567,-19343.73609348966,-34400.36289696251,-25815.326072612534,-13976.925787559247,-30779.112074269306,0.0,0.0,0.0,193.0,0.0,194.0,0.0,0.0,0.0,180.0,194.0,0.0,180.0,1744420648.7235022,0.0,2025-04-11 21:17:28.723,LEFT,44
55.0,17061.064190991427,24149.33879963622,-31401.3622881606,-19325.87704966987,-34392.87506256998,-25796.05886889206,-14348.456483895361,-30772.920641055185,0.0,0.0,0.0,193.0,0.0,193.0,0.0,0.0,0.0,179.0,193.0,0.0,179.0,1744420648.7235436,0.0,2025-04-11 21:17:28.723,LEFT,44
56.0,17069.89313005127,24160.06763697477,-31385.336087386146,-19305.134630815344,-34376.245364695234,-25778.91508089484,-14421.032598141743,-30746.56793434238,0.0,0.0,0.0,193.0,0.0,193.0,0.0,0.0,0.0,179.0,193.0,0.0,179.0,1744420648.723585,0.0,2025-04-11 21:17:28.723,LEFT,44
57.0,17098.078679809416,24159.39708464111,-31399.149465459523,-19314.231790808655,-34395.534920160164,-25801.400935816877,-13921.873440965825,-30701.059782631375,0.0,0.0,0.0,193.0,0.0,194.0,0.0,0.0,0.0,179.0,194.0,0.0,179.0,1744420648.7236414,0.0,2025-04-11 21:17:28.723,LEFT,44
58.0,17094.412993718743,24148.020046713358,-31399.30592767071,-19323.0607298685,-34389.745818346244,-25800.4398108053,-13938.972525474135,-30774.351152700325,0.0,0.0,0.0,193.0,0.0,193.0,0.0,0.0,0.0,179.0,193.0,0.0,179.0,1744420648.723684,0.0,2025-04-11 21:17:28.723,LEFT,44
59.0,17066.540368382975,24150.232869414434,-31401.988137005348,-19315.215267564687,-34387.80121657863,-25789.800380444573,-14284.172866841898,-30760.7612920715,0.0,0.0,0.0,193.0,0.0,193.0,0.0,0.0,0.0,179.0,193.0,0.0,179.0,1744420648.723726,0.0,2025-04-11 21:17:28.723,LEFT,44
60.0,17066.24979570506,24152.06571245977,-31391.59457583363,-19303.234732536643,-34380.49219614174,-25778.46804600573,-14443.451397830415,-30746.12089945327,0.0,0.0,0.0,193.0,0.0,193.0,0.0,0.0,0.0,179.0,193.0,0.0,179.0,1744420648.7237675,0.0,2025-04-11 21:17:28.723,LEFT,44
61.0,17095.642339663787,24157.899517762606,-31394.053267723713,-19300.708985413192,-34387.42123692289,-25789.241586833192,-14010.788680409036,-30696.477675018035,0.0,0.0,0.0,193.0,0.0,193.0,0.0,0.0,0.0,179.0,193.0,0.0,179.0,1744420648.7238092,0.0,2025-04-11 21:17:28.723,LEFT,44
62.0,17094.077717551914,24143.884973989127,-31405.631471351564,-19319.886782155845,-34399.51353067321,-25796.751772970176,-13871.291443263466,-30739.7059487946,0.0,0.0,0.0,193.0,0.0,193.0,0.0,0.0,0.0,179.0,193.0,0.0,179.0,1744420648.7238507,0.0,2025-04-11 21:17:28.723,LEFT,44
63.0,17075.369307442823,24150.232869414434,-31398.277747425767,-19309.1579448173,-34392.98682129226,-25779.697391950776,-14222.459700400794,-30754.301637923916,0.0,0.0,0.0,193.0,0.0,193.0,0.0,0.0,0.0,180.0,193.0,0.0,180.0,1744420648.7239084,0.0,2025-04-11 21:17:28.723,LEFT,44
64.0,17070.451923662655,24164.31446842128,-31385.559604830698,-19296.417450477773,-34378.838167052054,-25762.978287098205,-14462.360973639605,-30743.88572500774,0.0,0.0,0.0,193.0,0.0,193.0,0.0,0.0,0.0,179.0,193.0,0.0,179.0,1744420648.7239506,0.0,2025-04-11 21:17:28.723,LEFT,44
65.0,17092.446040206676,24162.034590486837,-31393.78504679025,-19297.512685956084,-34393.120931759,-25780.189130328792,-14103.548419898561,-30703.674936732645,0.0,0.0,0.0,193.0,0.0,194.0,0.0,0.0,0.0,180.0,194.0,0.0,180.0,1744420648.723992,0.0,2025-04-11 21:17:28.723,LEFT,44
66.0,17093.80949661845,24143.59440131121,-31410.817076065196,-19325.608828736404,-34411.00232732324,-25806.541837041597,-13869.45860021813,-30758.03437924795,0.0,0.0,0.0,193.0,0.0,194.0,0.0,0.0,0.0,179.0,194.0,0.0,179.0,1744420648.72405,0.0,2025-04-11 21:17:28.724,LEFT,44
67.0,17070.295461451467,24135.480718073934,-31411.130000487567,-19324.178317091264,-34404.14034177546,-25802.92085443984,-14157.974917647234,-30771.110149754306,0.0,0.0,0.0,193.0,0.0,193.0,0.0,0.0,0.0,179.0,193.0,0.0,179.0,1744420648.724092,0.0,2025-04-11 21:17:28.724,LEFT,44
68.0,17059.924252024204,24149.003523469393,-31400.15529396001,-19315.170564075775,-34393.41150443691,-25793.935453168804,-14447.944098465932,-30767.89149855274,0.0,0.0,0.0,193.0,0.0,194.0,0.0,0.0,0.0,180.0,194.0,0.0,180.0,1744420648.7241333,0.0,2025-04-11 21:17:28.724,LEFT,44
69.0,17073.514112653032,24148.06475020227,-31404.536235873253,-19319.43974726674,-34403.313327230615,-25812.10742141097,-14200.867915256968,-30747.059672720396,0.0,0.0,0.0,193.0,0.0,193.0,0.0,0.0,0.0,179.0,193.0,0.0,179.0,1744420648.7241745,0.0,2025-04-11 21:17:28.724,LEFT,44
70.0,17091.015528561536,24143.30382863329,-31410.325337687176,-19335.756520719115,-34413.50572270223,-25822.05394769358,-13863.155408281733,-30768.003257275017,0.0,0.0,0.0,193.0,0.0,193.0,0.0,0.0,0.0,179.0,193.0,0.0,179.0,1744420648.7242155,0.0,2025-04-11 21:17:28.724,LEFT,44
71.0,17073.514112653032,24134.72075876245,-31408.40308766402,-19335.175375363277,-34409.594167422554,-25816.331901113022,-14114.254905492653,-30791.070257552896,0.0,0.0,0.0,193.0,0.0,194.0,0.0,0.0,0.0,180.0,194.0,0.0,180.0,1744420648.7242706,0.0,2025-04-11 21:17:28.724,LEFT,44
72.0,17065.75805732704,24152.1998229265,-31391.035782222247,-19316.019930365077,-34391.153978246926,-25794.11426712445,-14441.28327861825,-30777.32393471288,0.0,0.0,0.0,193.0,0.0,193.0,0.0,0.0,0.0,179.0,193.0,0.0,179.0,1744420648.7243123,0.0,2025-04-11 21:17:28.724,LEFT,44
73.0,17078.47619992211,24159.799416041307,-31387.995944976326,-19311.2590087961,-34393.99264979275,-25799.568092771544,-14298.120355382009,-30737.359015626793,0.0,0.0,0.0,193.0,0.0,193.0,0.0,0.0,0.0,179.0,193.0,0.0,179.0,1744420648.724354,0.0,2025-04-11 21:17:28.724,LEFT,44
74.0,17094.100069296368,24152.15511943759,-31409.45361965342,-19340.293924843543,-34419.49599021626,-25832.96159898777,-13860.674364647195,-30748.37842564326,0.0,0.0,0.0,193.0,0.0,194.0,0.0,0.0,0.0,179.0,194.0,0.0,179.0,1744420648.7243955,0.0,2025-04-11 21:17:28.724,LEFT,44
75.0,17087.260435493044,24139.50403207589,-31398.814189292694,-19333.677808484772,-34402.754533619234,-25807.771182986642,-14054.463989074708,-30773.300620710925,0.0,0.0,0.0,193.0,0.0,193.0,0.0,0.0,0.0,179.0,193.0,0.0,179.0,1744420648.7244368,0.0,2025-04-11 21:17:28.724,LEFT,44
76.0,17063.724048581607,24147.10362519069,-31393.717991556885,-19323.95479964671,-34392.9197660589,-25797.511732281655,-14386.342690747106,-30757.632047847757,0.0,0.0,0.0,193.0,0.0,194.0,0.0,0.0,0.0,179.0,194.0,0.0,179.0,1744420648.7244823,0.0,2025-04-11 21:17:28.724,LEFT,44
77.0,17075.279900465,24158.77123579636,-31384.710238541396,-19313.225962308166,-34390.08109451307,-25794.337784569,-14382.028804067231,-30757.4085304032,0.0,0.0,0.0,193.0,0.0,193.0,0.0,0.0,0.0,179.0,193.0,0.0,179.0,1744420648.7245243,0.0,2025-04-11 21:17:28.724,LEFT,44
78.0,17100.939703099695,24162.749846309405,-31396.86958752508,-19322.948971146223,-34405.74966737624,-25809.022880676137,-13901.980388400601,-30732.955721969098,0.0,0.0,0.0,193.0,0.0,194.0,0.0,0.0,0.0,179.0,194.0,0.0,179.0,1744420648.72458,0.0,2025-04-11 21:17:28.724,LEFT,44
79.0,17088.579188415908,24143.415587355565,-31402.65868933901,-19333.00725615111,-34406.33081273208,-25807.748831242185,-13992.281436000043,-30788.700972640632,0.0,0.0,0.0,193.0,0.0,193.0,0.0,0.0,0.0,179.0,193.0,0.0,179.0,1744420648.7246218,0.0,2025-04-11 21:17:28.724,LEFT,44
80.0,17060.08071423539,24153.16094793808,-31403.39629690603,-19323.55246824652,-34400.13937951796,-25791.81203744555,-14331.69267555388,-30762.303562438916,0.0,0.0,0.0,193.0,0.0,194.0,0.0,0.0,0.0,179.0,194.0,0.0,179.0,1744420648.724663,0.0,2025-04-11 21:17:28.724,LEFT,44
81.0,17075.078734764902,24165.052075988304,-31393.852102023615,-19308.643854694827,-34392.5174346587,-25777.2834035496,-14422.150185364508,-30745.56210584189,0.0,0.0,0.0,193.0,0.0,194.0,0.0,0.0,0.0,179.0,194.0,0.0,179.0,1744420648.7247164,0.0,2025-04-11 21:17:28.724,LEFT,44
82.0,17108.449889236676,24162.21340444248,-31406.25732019631,-19315.505840242608,-34407.80602786613,-25792.594348501487,-13963.738258330615,-30707.206512356584,0.0,0.0,0.0,193.0,0.0,193.0,0.0,0.0,0.0,178.0,193.0,0.0,178.0,1744420648.724758,0.0,2025-04-11 21:17:28.724,LEFT,44
83.0,17093.854200107362,24139.459328586978,-31418.03668952426,-19335.711817230203,-34416.85848437053,-25801.088011394502,-13943.66639180975,-30768.830271819865,0.0,0.0,0.0,193.0,0.0,193.0,0.0,0.0,0.0,179.0,193.0,0.0,179.0,1744420648.7247992,0.0,2025-04-11 21:17:28.724,LEFT,44
84.0,17067.4791416501,24143.370883866657,-31411.93466328796,-19324.35713104691,-34409.30359474463,-25785.262976320148,-14292.554771012638,-30761.253030449516,0.0,0.0,0.0,193.0,0.0,194.0,0.0,0.0,0.0,179.0,194.0,0.0,179.0,1744420648.7248404,0.0,2025-04-11 21:17:28.724,LEFT,44
85.0,17066.85329280535,24151.886898504126,-31400.334107915656,-19313.29301754153,-34395.84784458254,-25772.90246163636,-14459.768171282789,-30746.836155275843,0.0,0.0,0.0,193.0,0.0,193.0,0.0,0.0,0.0,179.0,193.0,0.0,179.0,1744420648.724882,0.0,2025-04-11 21:17:28.724,LEFT,44
86.0,17093.09424079588,24157.854814273695,-31404.111552728602,-19310.38729076234,-34405.90612958743,-25779.92090939533,-14033.833328942459,-30694.73423895052,0.0,0.0,0.0,193.0,0.0,193.0,0.0,0.0,0.0,179.0,193.0,0.0,179.0,1744420648.7249973,0.0,2025-04-11 21:17:28.724,LEFT,44
87.0,17097.05049956447,24148.93646823603,-31411.152352232024,-19328.380445048864,-34414.24333026926,-25788.34751705498,-13885.708318437139,-30746.836155275843,0.0,0.0,0.0,193.0,0.0,193.0,0.0,0.0,0.0,179.0,193.0,0.0,179.0,1744420648.7250395,0.0,2025-04-11 21:17:28.725,LEFT,44
88.0,17081.158409256746,24152.1998229265,-31399.775314304272,-19315.68465419825,-34400.04997254014,-25773.39420001438,-14229.366389437484,-30754.94983851312,0.0,0.0,0.0,193.0,0.0,194.0,0.0,0.0,0.0,179.0,194.0,0.0,179.0,1744420648.7250807,0.0,2025-04-11 21:17:28.725,LEFT,44
89.0,17069.624909117807,24156.334895650733,-31394.477950868364,-19310.320235528976,-34397.367763205504,-25773.729476181208,-14479.884741292566,-30759.777815315465,0.0,0.0,0.0,193.0,0.0,194.0,0.0,0.0,0.0,180.0,194.0,0.0,180.0,1744420648.7251222,0.0,2025-04-11 21:17:28.725,LEFT,44
90.0,17086.545179670477,24156.603116584196,-31398.54596835923,-19312.778927419058,-34403.84976909754,-25795.3883165584,-14153.079885611522,-30732.352224868802,0.0,0.0,0.0,193.0,0.0,193.0,0.0,0.0,0.0,179.0,193.0,0.0,179.0,1744420648.7251635,0.0,2025-04-11 21:17:28.725,LEFT,44
91.0,17096.022319319527,24147.48360484643,-31404.960919017904,-19331.889668928347,-34405.99553656525,-25805.40189807438,-13868.78804788447,-30756.156832713707,0.0,0.0,0.0,193.0,0.0,194.0,0.0,0.0,0.0,179.0,194.0,0.0,179.0,1744420648.7252047,0.0,2025-04-11 21:17:28.725,LEFT,44
92.0,17077.76094409954,24145.20372691199,-31397.987174747846,-19325.944104903236,-34397.010135294215,-25792.66140373485,-14163.920481672345,-30771.13250149876,0.0,0.0,0.0,193.0,0.0,193.0,0.0,0.0,0.0,179.0,193.0,0.0,179.0,1744420649.1981213,0.0,2025-04-11 21:17:29.198,LEFT,44
93.0,17065.914519538226,24159.128863707647,-31383.011505962793,-19312.510706485595,-34382.36974267599,-25777.4845692497,-14463.679726562468,-30762.236507205547,0.0,0.0,0.0,193.0,0.0,193.0,0.0,0.0,0.0,180.0,193.0,0.0,180.0,1744420649.198238,0.0,2025-04-11 21:17:29.198,LEFT,44
94.0,17082.27599647951,24160.917003264072,-31382.92209898497,-19311.43782275174,-34386.527167144675,-25793.823694446528,-14239.15645350891,-30728.753594011498,0.0,0.0,0.0,193.0,0.0,194.0,0.0,0.0,0.0,179.0,194.0,0.0,179.0,1744420649.198288,0.0,2025-04-11 21:17:29.198,LEFT,44
95.0,17093.027185562514,24152.26687815987,-31394.679116568463,-19331.77791020607,-34401.27931848518,-25817.404784846876,-13857.902748334736,-30748.400777387713,0.0,0.0,0.0,193.0,0.0,193.0,0.0,0.0,0.0,179.0,193.0,0.0,179.0,1744420649.1983356,0.0,2025-04-11 21:17:29.198,LEFT,44
96.0,17078.699717366664,24142.700331532997,-31383.88322399655,-19321.004369378614,-34391.82453058058,-25793.577825257522,-14104.55424839905,-30764.829309562363,0.0,0.0,0.0,193.0,0.0,193.0,0.0,0.0,0.0,179.0,193.0,0.0,179.0,1744420649.1983995,0.0,2025-04-11 21:17:29.198,LEFT,44
97.0,17069.5802056289,24156.379599139644,-31371.612116290584,-19306.788659905036,-34375.79832980613,-25777.730438438706,-14425.480595288349,-30741.00234997301,0.0,0.0,0.0,193.0,0.0,193.0,0.0,0.0,0.0,179.0,193.0,0.0,179.0,1744420649.1984468,0.0,2025-04-11 21:17:29.198,LEFT,44
98.0,17083.751211613562,24166.057904488793,-31363.83370922014,-19297.758555145094,-34368.46695762479,-25783.87716816392,-14309.49739330976,-30728.194800400117,0.0,0.0,0.0,193.0,0.0,193.0,0.0,0.0,0.0,179.0,193.0,0.0,179.0,1744420649.1984937,0.0,2025-04-11 21:17:29.198,LEFT,44
99.0,17103.174877545225,24163.867433532174,-31373.82493899166,-19308.800316906014,-34382.99559152074,-25800.86449394995,-13857.433361701174,-30714.783753726933,0.0,0.0,0.0,193.0,0.0,194.0,0.0,0.0,0.0,180.0,194.0,0.0,180.0,1744420649.1985395,0.0,2025-04-11 21:17:29.198,LEFT,44
100.0,17086.656938392753,24145.6507618011,-31376.037761692736,-19311.661340196293,-34381.60978336451,-25793.778990957617,-14015.39313976683,-30756.313294924894,0.0,0.0,0.0,193.0,0.0,193.0,0.0,0.0,0.0,179.0,193.0,0.0,179.0,1744420649.1985848,0.0,2025-04-11 21:17:29.198,LEFT,44
101.0,17063.74640032606,24153.138596193625,-31372.752055257806,-19298.07147956747,-34379.4640158968,-25775.875243648916,-14369.020088794243,-30743.729262796554,0.0,0.0,0.0,193.0,0.0,194.0,0.0,0.0,0.0,180.0,194.0,0.0,180.0,1744420649.19871,0.0,2025-04-11 21:17:29.198,LEFT,44
102.0,17073.022374275013,24168.02485800086,-31362.939639441927,-19282.134685770834,-34373.85372803852,-25763.380618498402,-14382.766411634257,-30719.83524797383,0.0,0.0,0.0,193.0,0.0,194.0,0.0,0.0,0.0,180.0,194.0,0.0,180.0,1744420649.1987636,0.0,2025-04-11 21:17:29.198,LEFT,44
103.0,17097.274017009022,24176.2055964715,-31376.954183215403,-19293.131744042843,-34388.24825146774,-25787.118171109938,-13907.568324514428,-30703.719640221556,0.0,0.0,0.0,193.0,0.0,193.0,0.0,0.0,0.0,179.0,193.0,0.0,179.0,1744420649.1988115,0.0,2025-04-11 21:17:29.198,LEFT,44
104.0,17087.86393259334,24157.854814273695,-31381.20101466191,-19301.78186914705,-34389.49994915723,-25786.849950176475,-13977.462229426174,-30759.934277526652,0.0,0.0,0.0,193.0,0.0,194.0,0.0,0.0,0.0,179.0,194.0,0.0,179.0,1744420649.1988587,0.0,2025-04-11 21:17:29.198,LEFT,44
105.0,17068.015583517026,24155.597288083707,-31374.584898303143,-19284.571025916463,-34382.10152174253,-25763.447673731767,-14321.343817871073,-30725.847867232307,0.0,0.0,0.0,193.0,0.0,193.0,0.0,0.0,0.0,179.0,193.0,0.0,179.0,1744420649.1989052,0.0,2025-04-11 21:17:29.198,LEFT,44
106.0,17066.138036982782,24151.529270592844,-31370.606287790095,-19280.257139236586,-34381.363914175505,-25762.464196975732,-14419.42327254096,-30718.427088073146,0.0,0.0,0.0,193.0,0.0,193.0,0.0,0.0,0.0,179.0,193.0,0.0,179.0,1744420649.1989515,0.0,2025-04-11 21:17:29.198,LEFT,44
107.0,17095.99996757507,24152.758616537885,-31376.417741348476,-19287.990842818122,-34392.45037942533,-25782.5360634966,-13970.823761322948,-30690.59916622629,0.0,0.0,0.0,193.0,0.0,194.0,0.0,0.0,0.0,180.0,194.0,0.0,180.0,1744420649.1989982,0.0,2025-04-11 21:17:29.198,LEFT,44
108.0,17095.687043152695,24137.715892519464,-31380.26224139479,-19303.659415681293,-34397.74774286124,-25787.29698506558,-13939.888946996803,-30759.062559492897,0.0,0.0,0.0,193.0,0.0,194.0,0.0,0.0,0.0,179.0,194.0,0.0,179.0,1744420649.199062,0.0,2025-04-11 21:17:29.199,LEFT,44
109.0,17065.355725926845,24137.894706475105,-31380.932793728447,-19296.43980222223,-34394.55144340413,-25775.718781437732,-14269.890102134956,-30740.197687172615,0.0,0.0,0.0,193.0,0.0,194.0,0.0,0.0,0.0,179.0,194.0,0.0,179.0,1744420649.1991088,0.0,2025-04-11 21:17:29.199,LEFT,44
110.0,17059.65603109074,24155.574936339253,-31369.019313933768,-19286.023889306056,-34379.30755368561,-25761.503071964155,-14457.95767998191,-30727.45719283309,0.0,0.0,0.0,193.0,0.0,194.0,0.0,0.0,0.0,179.0,194.0,0.0,179.0,1744420649.1991549,0.0,2025-04-11 21:17:29.199,LEFT,44
111.0,17082.007775546048,24159.531195107844,-31379.524633827765,-19292.1035637979,-34392.830359081076,-25785.173569342325,-14063.538797323561,-30697.304689562883,0.0,0.0,0.0,193.0,0.0,193.0,0.0,0.0,0.0,179.0,193.0,0.0,179.0,1744420649.1992145,0.0,2025-04-11 21:17:29.199,LEFT,44
112.0,17090.34497622788,24147.394197868613,-31388.934718243447,-19313.382424519354,-34402.91099583042,-25796.327089825525,-13887.563513226929,-30749.630123332754,0.0,0.0,0.0,193.0,0.0,194.0,0.0,0.0,0.0,179.0,194.0,0.0,179.0,1744420649.1992617,0.0,2025-04-11 21:17:29.199,LEFT,44
113.0,17075.749287098562,24150.34462813671,-31384.442017607933,-19304.24056103713,-34399.51353067321,-25784.123037352925,-14225.857165558002,-30761.52125138298,0.0,0.0,0.0,193.0,0.0,193.0,0.0,0.0,0.0,179.0,193.0,0.0,179.0,1744420649.199308,0.0,2025-04-11 21:17:29.199,LEFT,44
114.0,17073.514112653032,24167.287250433834,-31370.226308134355,-19294.830476621446,-34378.927574029876,-25776.702258193764,-14483.975110527886,-30762.392969416735,0.0,0.0,0.0,193.0,0.0,193.0,0.0,0.0,0.0,179.0,193.0,0.0,179.0,1744420649.1993546,0.0,2025-04-11 21:17:29.199,LEFT,44
115.0,17090.52379018352,24163.68861957653,-31373.44495933592,-19297.24446502262,-34379.08403624106,-25797.914063681852,-14146.709638441758,-30722.27158811946,0.0,0.0,0.0,193.0,0.0,194.0,0.0,0.0,0.0,179.0,194.0,0.0,179.0,1744420649.199401,0.0,2025-04-11 21:17:29.199,LEFT,44
116.0,17096.536409441997,24146.701293790495,-31390.991078733336,-19326.68171247026,-34400.49700742924,-25820.310511626067,-13851.823073842892,-30767.220946219084,0.0,0.0,0.0,193.0,0.0,193.0,0.0,0.0,0.0,179.0,193.0,0.0,179.0,1744420649.1995478,0.0,2025-04-11 21:17:29.199,LEFT,44
117.0,17075.190493487178,24144.041436200314,-31383.48089259635,-19320.132651344855,-34390.930460802374,-25802.809095717563,-14152.498740255684,-30780.296716725436,0.0,0.0,0.0,193.0,0.0,193.0,0.0,0.0,0.0,178.0,193.0,0.0,178.0,1744420649.1995957,0.0,2025-04-11 21:17:29.199,LEFT,44
118.0,17054.582185099385,24157.005447984393,-31373.73553201384,-19311.974264618668,-34376.29006818415,-25793.577825257522,-14453.174406668473,-30764.091701995338,0.0,0.0,0.0,193.0,0.0,193.0,0.0,0.0,0.0,179.0,193.0,0.0,179.0,1744420649.199642,0.0,2025-04-11 21:17:29.199,LEFT,44
119.0,17074.497589409064,24163.93448876554,-31369.30988661169,-19304.82170639297,-34372.557326860115,-25802.183246872813,-14245.124369278476,-30738.27543714946,0.0,0.0,0.0,193.0,0.0,193.0,0.0,0.0,0.0,179.0,193.0,0.0,179.0,1744420649.199689,0.0,2025-04-11 21:17:29.199,LEFT,44
120.0,17095.57528443042,24154.569107838764,-31379.63639255004,-19319.305636800007,-34382.19092872035,-25812.82267723354,-13837.920288791693,-30735.772041770466,0.0,0.0,0.0,193.0,0.0,193.0,0.0,0.0,0.0,179.0,193.0,0.0,179.0,1744420649.1997352,0.0,2025-04-11 21:17:29.199,LEFT,44
121.0,17076.978633043604,24145.06961644526,-31379.34581987212,-19316.57872397646,-34378.12291122948,-25800.05983114956,-14064.54462582405,-30763.354094428316,0.0,0.0,0.0,193.0,0.0,193.0,0.0,0.0,0.0,179.0,193.0,0.0,179.0,1744420649.1997821,0.0,2025-04-11 21:17:29.199,LEFT,44
122.0,17052.391714142766,24151.238697914923,-31379.479930338854,-19307.235694794144,-34377.18413796236,-25790.068601378036,-14408.649731713502,-30757.766158314487,0.0,0.0,0.0,193.0,0.0,193.0,0.0,0.0,0.0,179.0,193.0,0.0,179.0,1744420649.199829,0.0,2025-04-11 21:17:29.199,LEFT,44
123.0,17067.300327694455,24162.593384098218,-31370.248659878813,-19292.66235740928,-34373.33963791605,-25786.000583887173,-14343.650858837469,-30744.600980830313,0.0,0.0,0.0,193.0,0.0,194.0,0.0,0.0,0.0,179.0,194.0,0.0,179.0,1744420649.199891,0.0,2025-04-11 21:17:29.199,LEFT,44
124.0,17086.656938392753,24164.91796552157,-31387.83948276514,-19308.040357594535,-34393.81383583711,-25807.34649984199,-13875.895902621258,-30721.51162880798,0.0,0.0,0.0,193.0,0.0,193.0,0.0,0.0,0.0,179.0,193.0,0.0,179.0,1744420649.1999383,0.0,2025-04-11 21:17:29.199,LEFT,44
125.0,17072.62004287482,24146.05309320129,-31385.44784610842,-19309.470869239674,-34384.224937465784,-25795.76829621414,-14013.806165910502,-30761.74476882753,0.0,0.0,0.0,193.0,0.0,194.0,0.0,0.0,0.0,180.0,194.0,0.0,180.0,1744420649.1999848,0.0,2025-04-11 21:17:29.199,LEFT,44
126.0,17049.307173407935,24155.329067150244,-31381.849215251117,-19299.72550865716,-34383.48732989876,-25783.608947230452,-14362.26986196874,-30754.99454200203,0.0,0.0,0.0,193.0,0.0,194.0,0.0,0.0,0.0,179.0,194.0,0.0,179.0,1744420649.2000449,0.0,2025-04-11 21:17:29.200,LEFT,44
127.0,17058.873720034804,24160.715837563974,-31374.74136051433,-19289.466057952173,-34378.18996646285,-25777.730438438706,-14390.433059982428,-30739.057748205396,0.0,0.0,0.0,193.0,0.0,193.0,0.0,0.0,0.0,179.0,193.0,0.0,179.0,1744420649.2000923,0.0,2025-04-11 21:17:29.200,LEFT,44
128.0,17084.935854069692,24152.043360715314,-31387.750075787317,-19296.976244089157,-34393.389152692456,-25790.605043244967,-13885.93183588169,-30684.743009179,0.0,0.0,0.0,193.0,0.0,194.0,0.0,0.0,0.0,179.0,194.0,0.0,179.0,1744420649.2001383,0.0,2025-04-11 21:17:29.200,LEFT,44
129.0,17081.739554612584,24142.007427454882,-31387.41479962049,-19304.57583720396,-34395.691382371355,-25786.514674009642,-13953.277641925531,-30751.64178033373,0.0,0.0,0.0,193.0,0.0,193.0,0.0,0.0,0.0,179.0,193.0,0.0,179.0,1744420649.2001853,0.0,2025-04-11 21:17:29.200,LEFT,44
130.0,17058.918423523715,24151.104587448193,-31381.558642573196,-19288.460229451684,-34392.87506256998,-25767.850967389462,-14313.632466033992,-30733.536867324936,0.0,0.0,0.0,193.0,0.0,193.0,0.0,0.0,0.0,179.0,193.0,0.0,179.0,1744420649.2002318,0.0,2025-04-11 21:17:29.200,LEFT,44
131.0,17065.80276081595,24163.3533434097,-31367.611154033086,-19274.155113000288,-34377.742931573746,-25756.29511550607,-14437.416426827482,-30719.701137507098,0.0,0.0,0.0,193.0,0.0,193.0,0.0,0.0,0.0,179.0,193.0,0.0,179.0,1744420649.2003508,0.0,2025-04-11 21:17:29.200,LEFT,44
132.0,17091.753136128562,24165.78968355533,-31374.227270391857,-19279.474828180653,-34385.14135898845,-25775.718781437732,-13976.165828247766,-30682.485482989014,0.0,0.0,0.0,193.0,0.0,193.0,0.0,0.0,0.0,180.0,193.0,0.0,180.0,1744420649.2003987,0.0,2025-04-11 21:17:29.200,LEFT,44
133.0,17081.605444145855,24148.243564157914,-31385.17962517496,-19300.217247035176,-34397.5689289056,-25784.704182708763,-13905.780184958005,-30745.450347119615,0.0,0.0,0.0,193.0,0.0,194.0,0.0,1.0,0.0,179.0,194.0,1.0,179.0,1744420649.2004452,0.0,2025-04-11 21:17:29.200,LEFT,44
134.0,17051.6764583202,24144.1978984115,-31389.02412522127,-19298.362052245386,-34399.04414403965,-25780.39029602889,-14253.729790893769,-30748.713701810088,0.0,0.0,0.0,193.0,0.0,193.0,0.0,3.0,0.0,179.0,193.0,3.0,179.0,1744420649.2004929,0.0,2025-04-11 21:17:29.200,LEFT,44
135.0,17047.60844082933,24147.796529268806,-31383.659706551996,-19295.56808418847,-34394.28322247067,-25779.429171017313,-14464.596148085137,-30745.405643630704,0.0,0.0,0.0,193.0,0.0,194.0,0.0,4.0,0.0,180.0,194.0,4.0,180.0,1744420649.2005403,0.0,2025-04-11 21:17:29.200,LEFT,44
136.0,17070.4295719182,24145.606058312187,-31390.968726988882,-19300.999558091113,-34405.14617027595,-25801.445639305788,-14085.443506889762,-30713.532056037435,0.0,0.0,0.0,193.0,0.0,193.0,0.0,5.0,0.0,179.0,193.0,5.0,179.0,1744420649.2005875,0.0,2025-04-11 21:17:29.200,LEFT,44
137.0,17080.733726112096,24138.38644485312,-31393.941509001437,-19317.78571817705,-34401.59224290756,-25808.30762485357,-13900.080490121902,-30762.75059732802,0.0,0.0,0.0,193.0,0.0,194.0,0.0,6.0,0.0,180.0,194.0,6.0,180.0,1744420649.2006347,0.0,2025-04-11 21:17:29.200,LEFT,44
138.0,17057.75613281204,24136.53125006333,-31391.30400315571,-19315.34937803142,-34389.32113520159,-25798.80813346006,-14205.8523542705,-30772.13832999925,0.0,0.0,0.0,193.0,0.0,194.0,0.0,7.0,0.0,179.0,194.0,7.0,179.0,1744420649.200698,0.0,2025-04-11 21:17:29.200,LEFT,44
139.0,17042.735760538075,24146.07544494575,-31385.760770530796,-19310.990787862636,-34380.06751299709,-25787.878130421417,-14473.514494122803,-30756.156832713707,0.0,0.0,0.0,193.0,0.0,193.0,0.0,8.0,0.0,179.0,193.0,8.0,179.0,1744420649.200746,0.0,2025-04-11 21:17:29.200,LEFT,44
140.0,17062.94173752567,24148.35532288019,-31390.49934035532,-19311.840154151938,-34388.53882414565,-25803.63611026241,-14179.320833602053,-30714.627291515746,0.0,0.0,0.0,193.0,0.0,194.0,0.0,9.0,0.0,179.0,194.0,9.0,179.0,1744420649.2007976,0.0,2025-04-11 21:17:29.200,LEFT,44
141.0,17076.129266754302,24140.196936154003,-31403.351593417123,-19332.940200917747,-34401.99457430775,-25819.21527614776,-13862.93189083718,-30750.568896599878,0.0,0.0,0.0,193.0,0.0,193.0,0.0,9.0,0.0,179.0,193.0,9.0,179.0,1744420649.2008584,0.0,2025-04-11 21:17:29.200,LEFT,44
142.0,17057.018525245014,24134.2960756178,-31402.03284049426,-19330.235639838655,-34395.35610620453,-25806.67594750833,-14138.931231371313,-30765.701027596122,0.0,0.0,0.0,193.0,0.0,194.0,0.0,10.0,0.0,180.0,194.0,10.0,180.0,1744420649.2009058,0.0,2025-04-11 21:17:29.200,LEFT,44
143.0,17040.411179114722,24147.796529268806,-31390.32052639968,-19317.316331543487,-34380.939231030854,-25791.476761278722,-14467.703040564424,-30762.862356050297,0.0,0.0,0.0,193.0,0.0,193.0,0.0,11.0,0.0,179.0,193.0,11.0,179.0,1744420649.2009535,0.0,2025-04-11 21:17:29.200,LEFT,44
144.0,17062.85233054785,24147.30479089079,-31390.54404384423,-19313.158907074798,-34384.157882232415,-25801.266825350147,-14277.713212694314,-30736.308483637393,0.0,0.0,0.0,193.0,0.0,194.0,0.0,11.0,0.0,180.0,194.0,11.0,180.0,1744420649.2010007,0.0,2025-04-11 21:17:29.201,LEFT,44
145.0,17086.120496525826,24139.68284603153,-31403.329241672665,-19331.286171828055,-34394.12676025948,-25818.567075558552,-13844.782274339472,-30735.637931303732,0.0,0.0,0.0,193.0,0.0,193.0,0.0,12.0,0.0,179.0,193.0,12.0,179.0,1744420649.2010489,0.0,2025-04-11 21:17:29.201,LEFT,44
146.0,17065.489836393575,24124.707177246473,-31399.328279415167,-19329.095700871432,-34384.783731077165,-25807.570017286544,-14058.621413543393,-30775.89342306774,0.0,0.0,0.0,193.0,0.0,193.0,0.0,12.0,0.0,179.0,193.0,12.0,179.0,1744420649.2011473,0.0,2025-04-11 21:17:29.201,LEFT,44
147.0,17038.51128083602,24131.479755816432,-31397.629546836564,-19322.390177534842,-34384.40375142142,-25800.149238127382,-14395.529257718237,-30765.119882240284,0.0,0.0,0.0,193.0,0.0,194.0,0.0,12.0,0.0,179.0,194.0,12.0,179.0,1744420649.201196,0.0,2025-04-11 21:17:29.201,LEFT,44
148.0,17051.22942343109,24137.335912863724,-31392.667459567485,-19312.06367159649,-34388.360010190016,-25795.500075280677,-14348.098855984075,-30743.729262796554,0.0,0.0,0.0,193.0,0.0,194.0,0.0,13.0,0.0,179.0,194.0,13.0,179.0,1744420649.2012436,0.0,2025-04-11 21:17:29.201,LEFT,44
149.0,17074.586996386886,24139.07934893124,-31403.485703883853,-19322.233715323655,-34402.97805106379,-25810.475744065734,-13893.352615040854,-30722.60686428629,0.0,0.0,0.0,193.0,0.0,194.0,0.0,13.0,0.0,180.0,194.0,13.0,180.0,1744420649.201291,0.0,2025-04-11 21:17:29.201,LEFT,44
150.0,17057.085580478382,24121.91320918956,-31408.492494641843,-19331.48733752815,-34401.72635337429,-25810.76631674365,-14017.784776423548,-30777.100417268328,0.0,0.0,0.0,193.0,0.0,193.0,0.0,13.0,0.0,179.0,193.0,13.0,179.0,1744420649.2013392,0.0,2025-04-11 21:17:29.201,LEFT,44
151.0,17033.32567612239,24129.915133704562,-31404.782105062262,-19322.613694979394,-34396.89837657194,-25796.304738081068,-14360.816998579145,-30757.43088214766,0.0,0.0,0.0,193.0,0.0,194.0,0.0,13.0,0.0,180.0,194.0,13.0,180.0,1744420649.2013867,0.0,2025-04-11 21:17:29.201,LEFT,44
152.0,17045.350914639344,24139.906363476082,-31392.73451480085,-19310.923732629268,-34383.867309554495,-25785.844121675986,-14412.04719687071,-30738.968341227574,0.0,0.0,0.0,193.0,0.0,194.0,0.0,14.0,0.0,179.0,194.0,14.0,179.0,1744420649.201524,0.0,2025-04-11 21:17:29.201,LEFT,44
153.0,17074.00585103105,24142.521517577356,-31401.675212582973,-19313.225962308166,-34401.368725463006,-25798.24933984868,-13920.130004898312,-30683.178387067128,0.0,0.0,0.0,193.0,0.0,193.0,0.0,14.0,0.0,179.0,193.0,14.0,179.0,1744420649.2015693,0.0,2025-04-11 21:17:29.201,LEFT,44
154.0,17064.23813870408,24123.343720834702,-31403.4633521394,-19323.217192079686,-34404.29680398665,-25799.88101719392,-13947.779112789525,-30749.56306809939,0.0,0.0,0.0,193.0,0.0,194.0,0.0,14.0,0.0,180.0,194.0,14.0,180.0,1744420649.2016125,0.0,2025-04-11 21:17:29.201,LEFT,44
155.0,17044.83682451687,24136.754767507886,-31396.333145658155,-19308.755613417103,-34397.926556816885,-25787.76637169914,-14319.108643425543,-30760.537774626944,0.0,0.0,0.0,193.0,0.0,193.0,0.0,14.0,0.0,179.0,193.0,14.0,179.0,1744420649.2016554,0.0,2025-04-11 21:17:29.201,LEFT,44
156.0,17043.786292527475,24147.170680424057,-31391.147540944523,-19302.653587180805,-34392.673896869885,-25789.10747636646,-14457.443589859438,-30765.03047526246,0.0,0.0,0.0,193.0,0.0,194.0,0.0,14.0,0.0,180.0,194.0,14.0,180.0,1744420649.2017128,0.0,2025-04-11 21:17:29.201,LEFT,44
157.0,17070.049592262458,24154.837328772228,-31394.768523546285,-19299.68080516825,-34398.64181263946,-25792.25907233466,-14003.39025299433,-30685.905299890674,0.0,0.0,0.0,193.0,0.0,193.0,0.0,14.0,0.0,180.0,193.0,14.0,180.0,1744420649.2017555,0.0,2025-04-11 21:17:29.201,LEFT,44
158.0,17070.273109707014,24141.58274431023,-31402.83750329465,-19317.003407121112,-34406.26375749872,-25799.188113115804,-13905.84724019137,-30733.22394290256,0.0,0.0,0.0,193.0,0.0,194.0,0.0,15.0,0.0,180.0,194.0,15.0,180.0,1744420649.201799,0.0,2025-04-11 21:17:29.201,LEFT,44
159.0,17051.765865298017,24144.533174578333,-31396.355497402612,-19304.553485459506,-34393.27739397018,-25783.117208852436,-14248.544186180137,-30732.50868707999,0.0,0.0,0.0,193.0,0.0,194.0,0.0,15.0,0.0,180.0,194.0,15.0,180.0,1744420649.2018416,0.0,2025-04-11 21:17:29.201,LEFT,44
160.0,17036.36551336831,24151.663381059574,-31394.2097299349,-19302.474773225164,-34389.58935613505,-25787.364040298944,-14475.906130779522,-30751.9100012672,0.0,0.0,0.0,193.0,0.0,193.0,0.0,15.0,0.0,179.0,193.0,15.0,179.0,1744420649.2018845,0.0,2025-04-11 21:17:29.201,LEFT,44
161.0,17056.415028144722,24153.943258994015,-31399.484741626355,-19302.58653194744,-34393.79148409265,-25798.45050554878,-14113.450242692263,-30711.676861247644,0.0,0.0,0.0,193.0,0.0,194.0,0.0,15.0,0.0,180.0,194.0,15.0,180.0,1744420649.2020736,0.0,2025-04-11 21:17:29.202,LEFT,44
162.0,17066.026278260502,24139.63814254262,-31409.744192331338,-19325.38531129185,-34402.59807140804,-25806.87711320843,-13868.385716484276,-30741.538791839936,0.0,0.0,0.0,193.0,0.0,193.0,0.0,15.0,0.0,179.0,193.0,15.0,179.0,1744420649.2021177,0.0,2025-04-11 21:17:29.202,LEFT,44
163.0,17050.111836208325,24143.326180377746,-31398.590671848142,-19310.856677395903,-34390.729295102276,-25786.447618776278,-14186.294577872108,-30743.908076752195,0.0,0.0,0.0,193.0,0.0,194.0,0.0,15.0,0.0,179.0,194.0,15.0,179.0,1744420649.2021606,0.0,2025-04-11 21:17:29.202,LEFT,44
164.0,17032.14103366626,24153.965610738473,-31395.237910179843,-19307.280398283052,-34389.29878345714,-25788.280461821614,-14469.759401054313,-30755.352169913313,0.0,0.0,0.0,193.0,0.0,193.0,0.0,15.0,0.0,179.0,193.0,15.0,179.0,1744420649.2022033,0.0,2025-04-11 21:17:29.202,LEFT,44
165.0,17050.827092030893,24161.095817219713,-31395.349668902123,-19308.71090992819,-34392.271565469695,-25801.982081172715,-14214.18955495233,-30740.465908106078,0.0,0.0,0.0,193.0,0.0,193.0,0.0,15.0,0.0,180.0,193.0,15.0,180.0,1744420649.202246,0.0,2025-04-11 21:17:29.202,LEFT,44
166.0,17063.120551481315,24151.57397408175,-31404.178607961967,-19329.20745959371,-34400.07232428459,-25814.275540623134,-13850.45961743112,-30741.896419751218,0.0,0.0,0.0,193.0,0.0,194.0,0.0,15.0,0.0,180.0,194.0,15.0,180.0,1744420649.2022884,0.0,2025-04-11 21:17:29.202,LEFT,44
167.0,17049.441283874665,24131.412700583067,-31395.796703791228,-19321.227886823166,-34387.75651308972,-25797.57878751502,-14107.661140878337,-30752.625257089767,0.0,0.0,0.0,193.0,0.0,193.0,0.0,16.0,0.0,179.0,193.0,16.0,179.0,1744420649.202352,0.0,2025-04-11 21:17:29.202,LEFT,44
168.0,17033.54919356694,24137.179450652537,-31388.957069987904,-19311.549581474017,-34385.14135898845,-25790.470932778233,-14439.092807661631,-30756.089777480338,0.0,0.0,0.0,193.0,0.0,193.0,0.0,16.0,0.0,179.0,193.0,16.0,179.0,1744420649.202396,0.0,2025-04-11 21:17:29.202,LEFT,44
169.0,17047.76490304052,24144.086139689225,-31388.174758931968,-19306.788659905036,-34388.02473402319,-25798.986947415706,-14295.751070469747,-30739.7059487946,0.0,0.0,0.0,193.0,0.0,193.0,0.0,16.0,0.0,179.0,193.0,16.0,179.0,1744420649.2024388,0.0,2025-04-11 21:17:29.202,LEFT,44
170.0,17069.08846725088,24139.593439053708,-31402.435171894453,-19326.413491536798,-34399.91586207341,-25820.086994181514,-13844.759922595016,-30729.737070767533,0.0,0.0,0.0,193.0,0.0,194.0,0.0,16.0,0.0,179.0,194.0,16.0,179.0,1744420649.2024815,0.0,2025-04-11 21:17:29.202,LEFT,44
171.0,17060.95243226915,24129.40104358209,-31398.54596835923,-19324.714758958195,-34394.88671957096,-25806.519485297144,-14051.133579150866,-30766.41628341869,0.0,0.0,0.0,193.0,0.0,194.0,0.0,16.0,0.0,180.0,194.0,16.0,180.0,1744420649.2025387,0.0,2025-04-11 21:17:29.202,LEFT,44
172.0,17041.059379703926,24143.504994333387,-31389.940546743936,-19312.220133807677,-34385.90131829993,-25790.940319411795,-14400.826621154145,-30752.915829767684,0.0,0.0,0.0,193.0,0.0,193.0,0.0,16.0,0.0,179.0,193.0,16.0,179.0,1744420649.2025821,0.0,2025-04-11 21:17:29.202,LEFT,44
173.0,17054.47042637711,24158.41360788508,-31381.31277338419,-19303.949988359214,-34379.08403624106,-25793.264900835147,-14366.874321326533,-30744.958608741596,0.0,0.0,0.0,193.0,0.0,194.0,0.0,16.0,0.0,180.0,194.0,16.0,180.0,1744420649.2026253,0.0,2025-04-11 21:17:29.202,LEFT,44
174.0,17070.34016494038,24157.92186950706,-31398.054229981215,-19318.746843188626,-34399.602937651034,-25817.315377869058,-13879.98627185658,-30720.103468907295,0.0,0.0,0.0,193.0,0.0,194.0,0.0,16.0,0.0,180.0,194.0,16.0,180.0,1744420649.2026691,0.0,2025-04-11 21:17:29.202,LEFT,44
175.0,17059.164292712725,24135.97245645195,-31399.820017793183,-19324.893572913836,-34402.37455396349,-25811.369813843947,-14002.227962282654,-30776.98865854605,0.0,0.0,0.0,193.0,0.0,193.0,0.0,16.0,0.0,179.0,193.0,16.0,179.0,1744420649.202712,0.0,2025-04-11 21:17:29.202,LEFT,44
176.0,17049.75420829704,24143.415587355565,-31386.45367460891,-19306.34162501593,-34387.2647747117,-25785.95588039826,-14361.934585801911,-30748.736053554545,0.0,0.0,0.0,193.0,0.0,194.0,0.0,16.0,0.0,180.0,194.0,16.0,180.0,1744420649.2027745,0.0,2025-04-11 21:17:29.202,LEFT,44
177.0,17054.47042637711,24153.67503806055,-31379.435226849942,-19298.540866201027,-34384.00142002123,-25788.638089732896,-14434.9577349374,-30752.625257089767,0.0,0.0,0.0,193.0,0.0,193.0,0.0,16.0,0.0,179.0,193.0,16.0,179.0,1744420649.2028177,0.0,2025-04-11 21:17:29.202,LEFT,44
178.0,17076.71041211014,24154.68086656104,-31388.755904287806,-19305.82753489346,-34400.00526905123,-25811.5933312885,-13961.704249585182,-30731.36874811277,0.0,0.0,0.0,193.0,0.0,194.0,0.0,16.0,0.0,180.0,194.0,16.0,180.0,1744420649.2028608,0.0,2025-04-11 21:17:29.202,LEFT,44
179.0,17073.46940916412,24141.29217163231,-31388.934718243447,-19312.01896810758,-34402.128684774485,-25804.329014340525,-13958.150322216788,-30776.251050979026,0.0,0.0,0.0,193.0,0.0,194.0,0.0,16.0,0.0,180.0,194.0,16.0,180.0,1744420649.2029035,0.0,2025-04-11 21:17:29.202,LEFT,44
180.0,17053.50930136553,24150.63520081463,-31384.53142458575,-19294.62931092135,-34399.871158584494,-25776.165816326837,-14300.936675183377,-30733.73803302503,0.0,0.0,0.0,193.0,0.0,193.0,0.0,16.0,0.0,179.0,193.0,16.0,179.0,1744420649.2029464,0.0,2025-04-11 21:17:29.202,LEFT,44
181.0,17054.783350799484,24161.811073042285,-31373.82493899166,-19283.833418349437,-34389.63405962397,-25767.292173778078,-14459.321136393684,-30718.94117819562,0.0,0.0,0.0,193.0,0.0,194.0,0.0,16.0,0.0,179.0,194.0,16.0,179.0,1744420649.202989,0.0,2025-04-11 21:17:29.202,LEFT,44
182.0,17079.057345277946,24168.002506256405,-31379.099950683114,-19285.934482328234,-34396.20547249383,-25784.346554797477,-14019.148232835321,-30682.507834733467,0.0,0.0,0.0,193.0,0.0,193.0,0.0,16.0,0.0,180.0,193.0,16.0,180.0,1744420649.2030551,0.0,2025-04-11 21:17:29.203,LEFT,44
183.0,17081.180761001204,24153.540927593822,-31387.16893043148,-19305.224037793167,-34406.35316447654,-25792.214368845747,-13904.03674889049,-30745.450347119615,0.0,0.0,0.0,193.0,0.0,194.0,0.0,16.0,0.0,180.0,194.0,16.0,180.0,1744420649.2030995,0.0,2025-04-11 21:17:29.203,LEFT,44
184.0,17054.626888588296,24150.478738603444,-31386.811302520193,-19298.518514456573,-34403.51449293071,-25779.697391950776,-14243.358581466508,-30748.445480876624,0.0,0.0,0.0,193.0,0.0,194.0,0.0,16.0,0.0,180.0,194.0,16.0,180.0,1744420649.2031431,0.0,2025-04-11 21:17:29.203,LEFT,44
185.0,17052.48112112059,24163.822730043263,-31375.12134017007,-19288.05789805149,-34388.918803801396,-25771.941336624783,-14476.353165668628,-30751.574725100367,0.0,0.0,0.0,193.0,0.0,193.0,0.0,16.0,0.0,179.0,193.0,16.0,179.0,1744420649.2032018,0.0,2025-04-11 21:17:29.203,LEFT,44
186.0,17077.827999332905,24167.622526600662,-31378.250584393812,-19284.168694516266,-34390.97516429128,-25782.424304774322,-14128.336504499497,-30707.005346656486,0.0,0.0,0.0,193.0,0.0,194.0,0.0,16.0,0.0,180.0,194.0,16.0,180.0,1744420649.2032564,0.0,2025-04-11 21:17:29.203,LEFT,44
187.0,17083.86297033584,24145.270782145355,-31389.381753132555,-19306.363976760385,-34392.65154512543,-25794.740115969198,-13844.134073750267,-30730.921713223663,0.0,0.0,0.0,193.0,0.0,194.0,0.0,16.0,0.0,180.0,194.0,16.0,180.0,1744420649.2033,0.0,2025-04-11 21:17:29.203,LEFT,44
188.0,17057.644374089763,24140.956895465482,-31387.39244787603,-19297.847962122913,-34386.97420203379,-25780.30088905107,-14157.684344969315,-30755.41922514668,0.0,0.0,0.0,193.0,0.0,194.0,0.0,17.0,0.0,180.0,194.0,17.0,180.0,1744420649.2033436,0.0,2025-04-11 21:17:29.203,LEFT,44
189.0,17035.04676044545,24151.484567103933,-31385.82782576416,-19293.33290974294,-34384.09082699905,-25777.19399657178,-14462.919767250987,-30761.074216493875,0.0,0.0,0.0,193.0,0.0,194.0,0.0,16.0,0.0,180.0,194.0,16.0,180.0,1744420649.2033868,0.0,2025-04-11 21:17:29.203,LEFT,44
190.0,17061.89120553627,24158.525366607355,-31375.948354714914,-19279.430124691742,-34371.439739637346,-25774.95882212625,-14212.691988073826,-30707.45238154559,0.0,0.0,0.0,193.0,0.0,193.0,0.0,17.0,0.0,179.0,193.0,17.0,179.0,1744420649.2034476,0.0,2025-04-11 21:17:29.203,LEFT,44
191.0,17079.99611854507,24145.315485634266,-31389.87349151057,-19301.692462169227,-34381.65448685342,-25795.656537491865,-13820.262410672,-30712.03448915893,0.0,0.0,0.0,193.0,0.0,194.0,0.0,17.0,0.0,180.0,194.0,17.0,180.0,1744420649.2034924,0.0,2025-04-11 21:17:29.203,LEFT,44
192.0,17061.801798558452,24134.34077910671,-31394.947337501926,-19309.135593072842,-34383.08499849856,-25792.66140373485,-14085.555265612038,-30754.56985885738,0.0,0.0,0.0,193.0,0.0,194.0,0.0,17.0,0.0,179.0,194.0,17.0,179.0,1744420649.203536,0.0,2025-04-11 21:17:29.203,LEFT,44
193.0,17038.734798280573,24140.755729765384,-31390.54404384423,-19305.402851748808,-34378.18996646285,-25783.117208852436,-14422.083130131143,-30744.735091297043,0.0,0.0,0.0,193.0,0.0,194.0,0.0,17.0,0.0,180.0,194.0,17.0,180.0,1744420649.2035787,0.0,2025-04-11 21:17:29.203,LEFT,44
194.0,17053.352839154344,24143.102662933194,-31384.91140424149,-19304.173505803767,-34377.027675751175,-25796.505903781166,-14303.149497884453,-30746.32206515337,0.0,0.0,0.0,193.0,0.0,193.0,0.0,17.0,0.0,179.0,193.0,17.0,179.0,1744420649.2036216,0.0,2025-04-11 21:17:29.203,LEFT,44
195.0,17077.827999332905,24143.16971816656,-31394.88028226856,-19320.356168789407,-34390.66223986891,-25817.471840080245,-13864.69767864915,-30748.646646576723,0.0,0.0,0.0,193.0,0.0,194.0,0.0,17.0,0.0,179.0,194.0,17.0,179.0,1744420649.203664,0.0,2025-04-11 21:17:29.203,LEFT,44
196.0,17065.400429415757,24126.897648203096,-31398.30009917022,-19327.30756131501,-34396.250175982736,-25808.374680086934,-14043.846910458436,-30770.730170098566,0.0,0.0,0.0,193.0,0.0,193.0,0.0,17.0,0.0,179.0,193.0,17.0,179.0,1744420649.2037072,0.0,2025-04-11 21:17:29.203,LEFT,44
197.0,17049.441283874665,24143.97438096695,-31389.158235688003,-19313.382424519354,-34393.43385618137,-25791.275595578623,-14420.56321150818,-30767.645629363735,0.0,0.0,0.0,193.0,0.0,193.0,0.0,17.0,0.0,179.0,193.0,17.0,179.0,1744420649.2037647,0.0,2025-04-11 21:17:29.203,LEFT,44
198.0,17054.246908932557,24148.78000602484,-31382.720933284872,-19304.665244181782,-34387.55534738962,-25786.447618776278,-14391.170667549452,-30731.167582412672,0.0,0.0,0.0,193.0,0.0,194.0,0.0,17.0,0.0,180.0,194.0,17.0,180.0,1744420649.203808,0.0,2025-04-11 21:17:29.203,LEFT,44
199.0,17080.264339478534,24145.6507618011,-31395.193206690936,-19316.57872397646,-34399.960565562316,-25808.039403920106,-13888.614045216329,-30699.942195408606,0.0,0.0,0.0,193.0,0.0,193.0,0.0,17.0,0.0,179.0,193.0,17.0,179.0,1744420649.203851,0.0,2025-04-11 21:17:29.203,LEFT,44
200.0,17074.363478942334,24133.692578517508,-31402.54693061673,-19324.9606281472,-34406.48727494327,-25808.35232834248,-13989.576874920951,-30765.343399684836,0.0,0.0,0.0,193.0,0.0,193.0,0.0,17.0,0.0,179.0,193.0,17.0,179.0,1744420649.203908,0.0,2025-04-11 21:17:29.203,LEFT,44
201.0,17056.929118267195,24149.607020569685,-31390.566395588685,-19301.78186914705,-34389.27643171268,-25783.34072629699,-14348.054152495164,-30743.304579651904,0.0,0.0,0.0,193.0,0.0,193.0,0.0,17.0,0.0,179.0,193.0,17.0,179.0,1744420649.2039535,0.0,2025-04-11 21:17:29.203,LEFT,44
202.0,17064.57341487091,24165.275593432856,-31376.864776237584,-19284.593377660916,-34378.86051879651,-25771.851929646964,-14423.826566198655,-30722.673919519657,0.0,0.0,0.0,193.0,0.0,194.0,0.0,17.0,0.0,180.0,194.0,17.0,180.0,1744420649.2040005,0.0,2025-04-11 21:17:29.204,LEFT,44
203.0,17089.205037260657,24159.19591894101,-31393.628584579063,-19297.132706300345,-34404.54267317565,-25798.651671248874,-13944.158130187767,-30690.062724359363,0.0,0.0,0.0,193.0,0.0,193.0,0.0,17.0,0.0,179.0,193.0,17.0,179.0,1744420649.2040484,0.0,2025-04-11 21:17:29.204,LEFT,44
204.0,17087.86393259334,24145.20372691199,-31391.996907233824,-19304.06174708149,-34402.396905707945,-25793.220197346236,-13930.076531180923,-30753.47462337907,0.0,0.0,0.0,193.0,0.0,193.0,0.0,17.0,0.0,179.0,193.0,17.0,179.0,1744420649.204096,0.0,2025-04-11 21:17:29.204,LEFT,44
205.0,17063.36642067032,24153.719741549463,-31387.01246822029,-19288.907264340793,-34395.60197539353,-25775.919947137827,-14274.718078937303,-30739.92946623915,0.0,0.0,0.0,193.0,0.0,194.0,0.0,17.0,0.0,180.0,194.0,17.0,180.0,1744420649.2041807,0.0,2025-04-11 21:17:29.204,LEFT,44
206.0,17061.935909025182,24165.34264866622,-31378.45175009391,-19281.084153781434,-34387.28712645616,-25769.19207205678,-14466.63015683057,-30744.355111641304,0.0,0.0,0.0,193.0,0.0,193.0,0.0,17.0,0.0,179.0,193.0,17.0,179.0,1744420649.2042305,0.0,2025-04-11 21:17:29.204,LEFT,44
207.0,17082.499513924064,24166.303773677802,-31386.565433331187,-19287.00736606209,-34396.250175982736,-25789.085124622005,-14047.937279693757,-30704.636061744222,0.0,0.0,0.0,193.0,0.0,194.0,0.0,17.0,0.0,180.0,194.0,17.0,180.0,1744420649.2042778,0.0,2025-04-11 21:17:29.204,LEFT,44
208.0,17082.14188601278,24142.63327629963,-31394.343840401634,-19307.30275002751,-34401.368725463006,-25799.322223582534,-13891.586827228884,-30759.42018740418,0.0,0.0,0.0,193.0,0.0,194.0,0.0,17.0,0.0,180.0,194.0,17.0,180.0,1744420649.204327,0.0,2025-04-11 21:17:29.204,LEFT,44
209.0,17059.4772171351,24134.474889573445,-31396.668421824983,-19303.77117440357,-34399.535882417666,-25790.605043244967,-14221.699741089315,-30764.874013051274,0.0,0.0,0.0,193.0,0.0,194.0,0.0,17.0,0.0,180.0,194.0,17.0,180.0,1744420649.2043788,0.0,2025-04-11 21:17:29.204,LEFT,44
210.0,17047.60844082933,24149.78583452533,-31385.090218197136,-19294.942235343726,-34388.002382278726,-25776.299926793567,-14480.175313970485,-30758.99550425953,0.0,0.0,0.0,193.0,0.0,193.0,0.0,17.0,0.0,179.0,193.0,17.0,179.0,1744420649.2044315,0.0,2025-04-11 21:17:29.204,LEFT,44
211.0,17070.653089362753,24152.4009886266,-31387.01246822029,-19295.478677210653,-34391.53395790267,-25790.605043244967,-14158.287842069609,-30725.020852687463,0.0,0.0,0.0,193.0,0.0,193.0,0.0,17.0,0.0,179.0,193.0,17.0,179.0,1744420649.2044795,0.0,2025-04-11 21:17:29.204,LEFT,44
212.0,17073.938795797683,24138.25233438639,-31403.061020739202,-19321.45140426772,-34402.70983013032,-25809.53697079861,-13875.895902621258,-30753.69814082362,0.0,0.0,0.0,193.0,0.0,194.0,0.0,17.0,0.0,180.0,194.0,17.0,180.0,1744420649.6780975,0.0,2025-04-11 21:17:29.678,LEFT,44
213.0,17056.57149035591,24137.291209374813,-31394.433247379453,-19311.951912874214,-34383.71084734331,-25790.694450222785,-14161.99823164919,-30751.507669867002,0.0,0.0,0.0,193.0,0.0,194.0,0.0,17.0,0.0,179.0,194.0,17.0,179.0,1744420649.6782916,0.0,2025-04-11 21:17:29.678,LEFT,44
214.0,17042.959277982627,24144.510822833876,-31386.990116475838,-19305.022872093068,-34372.87025128249,-25784.570072242033,-14443.47374957487,-30751.440614633637,0.0,0.0,0.0,193.0,0.0,194.0,0.0,17.0,0.0,180.0,194.0,17.0,180.0,1744420649.6783524,0.0,2025-04-11 21:17:29.678,LEFT,44
215.0,17058.13611246778,24145.896630990104,-31386.11839844208,-19301.53599995804,-34378.56994611859,-25793.354307812966,-14223.800805068113,-30725.35612885429,0.0,0.0,0.0,193.0,0.0,193.0,0.0,17.0,0.0,179.0,193.0,17.0,179.0,1744420649.6784444,0.0,2025-04-11 21:17:29.678,LEFT,44
216.0,17074.29642370897,24139.05699718678,-31401.295232927234,-19322.457232768207,-34395.89254807145,-25811.794496988598,-13843.798797583438,-30736.375538870758,0.0,0.0,0.0,193.0,0.0,193.0,0.0,17.0,0.0,179.0,193.0,17.0,179.0,1744420649.6784945,0.0,2025-04-11 21:17:29.678,LEFT,44
217.0,17064.79693231546,24137.224154141448,-31392.488645611844,-19309.560276217493,-34388.15884448992,-25788.235758332703,-14094.563018627528,-30745.98678898654,0.0,0.0,0.0,193.0,0.0,194.0,0.0,17.0,0.0,179.0,194.0,17.0,179.0,1744420649.6785448,0.0,2025-04-11 21:17:29.678,LEFT,44
218.0,17040.589993070364,24149.15998568058,-31385.000811219314,-19299.881970868348,-34378.23466995176,-25780.412647773344,-14425.234726099341,-30737.761347026986,0.0,0.0,0.0,193.0,0.0,193.0,0.0,17.0,0.0,179.0,193.0,17.0,179.0,1744420649.6785936,0.0,2025-04-11 21:17:29.678,LEFT,44
219.0,17051.6764583202,24154.747921794406,-31382.340953629133,-19297.982072589646,-34377.117082729,-25790.15800835586,-14314.548887556659,-30725.423184087656,0.0,0.0,0.0,193.0,0.0,194.0,0.0,17.0,0.0,180.0,194.0,17.0,180.0,1744420649.6786425,0.0,2025-04-11 21:17:29.678,LEFT,44
220.0,17073.961147542137,24149.696427547507,-31394.857930524104,-19313.49418324163,-34389.63405962397,-25810.811020232562,-13859.2215012576,-30716.92952119464,0.0,0.0,0.0,193.0,0.0,193.0,0.0,17.0,0.0,179.0,193.0,17.0,179.0,1744420649.678712,0.0,2025-04-11 21:17:29.678,LEFT,44
221.0,17062.427647403198,24135.503069818387,-31395.64024158004,-19317.20457282121,-34387.0636090116,-25803.63611026241,-14025.876107916369,-30760.64953334922,0.0,0.0,0.0,193.0,0.0,194.0,0.0,17.0,0.0,180.0,194.0,17.0,180.0,1744420649.6787577,0.0,2025-04-11 21:17:29.678,LEFT,44
222.0,17047.071998962405,24143.035607699825,-31389.426456621466,-19305.022872093068,-34383.15205373193,-25785.91117690935,-14376.194998764397,-30741.583495328847,0.0,0.0,0.0,193.0,0.0,194.0,0.0,17.0,0.0,179.0,194.0,17.0,179.0,1744420649.678801,0.0,2025-04-11 21:17:29.678,LEFT,44
223.0,17053.106969965338,24145.091968189714,-31384.68788679694,-19297.646796422818,-34377.83233855156,-25785.262976320148,-14385.448620968893,-30728.150096911206,0.0,0.0,0.0,193.0,0.0,194.0,0.0,17.0,0.0,180.0,194.0,17.0,180.0,1744420649.6788445,0.0,2025-04-11 21:17:29.678,LEFT,44
224.0,17074.765810342527,24146.947162979504,-31395.84140728014,-19310.543752973528,-34390.103446257526,-25807.25709286417,-13900.102841866355,-30707.631195501235,0.0,0.0,0.0,193.0,0.0,193.0,0.0,17.0,0.0,179.0,193.0,17.0,179.0,1744420649.6788874,0.0,2025-04-11 21:17:29.678,LEFT,44
225.0,17068.440266661677,24131.92679070554,-31397.540139858742,-19321.853735667915,-34399.08884752856,-25805.64776726339,-13990.493296443618,-30776.429864934667,0.0,0.0,0.0,193.0,0.0,193.0,0.0,17.0,0.0,179.0,193.0,17.0,179.0,1744420649.67893,0.0,2025-04-11 21:17:29.678,LEFT,44
226.0,17045.75324603954,24141.515689076867,-31392.510997356298,-19309.090889583935,-34390.68459161337,-25793.555473513064,-14342.712085570347,-30760.917754282687,0.0,0.0,0.0,193.0,0.0,194.0,0.0,17.0,0.0,180.0,194.0,17.0,180.0,1744420649.678993,0.0,2025-04-11 21:17:29.678,LEFT,44
227.0,17048.055475718436,24149.025875213847,-31381.06690419518,-19295.523380699564,-34377.47471064028,-25785.19592108678,-14426.531127277749,-30739.974169728062,0.0,0.0,0.0,193.0,0.0,193.0,0.0,17.0,0.0,179.0,193.0,17.0,179.0,1744420649.679037,0.0,2025-04-11 21:17:29.679,LEFT,44
228.0,17080.84548483437,24154.25618341639,-31390.991078733336,-19303.458249981195,-34392.271565469695,-25805.91598819685,-13960.027868751034,-30696.187102340118,0.0,0.0,0.0,193.0,0.0,194.0,0.0,17.0,0.0,180.0,194.0,17.0,180.0,1744420649.6790824,0.0,2025-04-11 21:17:29.679,LEFT,44
229.0,17079.414973189232,24137.58178205273,-31394.63441307955,-19318.858601910903,-34397.725391116786,-25810.72161325474,-13925.159147400755,-30762.057693249906,0.0,0.0,0.0,193.0,0.0,193.0,0.0,17.0,0.0,179.0,193.0,17.0,179.0,1744420649.6791255,0.0,2025-04-11 21:17:29.679,LEFT,44
230.0,17053.33048740989,24131.703273260984,-31388.01829672078,-19308.040357594535,-34391.37749569148,-25798.070525893036,-14277.892026649955,-30762.080044994364,0.0,0.0,0.0,193.0,0.0,193.0,0.0,17.0,0.0,179.0,193.0,17.0,179.0,1744420649.679293,0.0,2025-04-11 21:17:29.679,LEFT,44
231.0,17038.153652924735,24135.21249714047,-31383.30207864071,-19306.162811060287,-34389.254079968225,-25800.931549183315,-14476.017889501798,-30772.18303348816,0.0,0.0,0.0,193.0,0.0,194.0,0.0,17.0,0.0,180.0,194.0,17.0,180.0,1744420649.6793368,0.0,2025-04-11 21:17:29.679,LEFT,44
232.0,17061.175949713703,24144.041436200314,-31388.46533160989,-19304.77700290406,-34397.859501583516,-25810.5427992991,-14078.626224830894,-30718.114163650775,0.0,0.0,0.0,193.0,0.0,193.0,0.0,17.0,0.0,179.0,193.0,17.0,179.0,1744420649.6793797,0.0,2025-04-11 21:17:29.679,LEFT,44
233.0,17071.94949054116,24131.747976749895,-31389.06882871018,-19315.796412920525,-34388.24825146774,-25810.11811615445,-13879.136905567279,-30746.187954686637,0.0,0.0,0.0,193.0,0.0,193.0,0.0,17.0,0.0,179.0,193.0,17.0,179.0,1744420649.6794229,0.0,2025-04-11 21:17:29.679,LEFT,44
234.0,17047.831958273884,24131.88208721663,-31387.750075787317,-19309.694386684227,-34386.19189097785,-25798.42815380432,-14196.643435554915,-30764.069350250884,0.0,0.0,0.0,193.0,0.0,194.0,0.0,17.0,0.0,180.0,194.0,17.0,180.0,1744420649.6794655,0.0,2025-04-11 21:17:29.679,LEFT,44
235.0,17043.160443682726,24150.612849070174,-31376.17187215947,-19296.260988266586,-34376.893565284445,-25782.558415241056,-14472.173389455485,-30759.956629271106,0.0,0.0,0.0,193.0,0.0,194.0,0.0,17.0,0.0,180.0,194.0,17.0,180.0,1744420649.6795259,0.0,2025-04-11 21:17:29.679,LEFT,44
236.0,17068.864949806328,24146.83540425723,-31379.099950683114,-19291.701232397703,-34383.107350243015,-25788.57103449953,-14158.868987425447,-30703.473771032546,0.0,0.0,0.0,193.0,0.0,194.0,0.0,17.0,0.0,180.0,194.0,17.0,180.0,1744420649.6795685,0.0,2025-04-11 21:17:29.679,LEFT,44
237.0,17081.069002278924,24133.938447706518,-31392.823921778672,-19311.661340196293,-34396.0713620271,-25802.227950361725,-13863.378925726287,-30735.190896414628,0.0,0.0,0.0,193.0,0.0,194.0,0.0,17.0,0.0,179.0,194.0,17.0,179.0,1744420649.6796112,0.0,2025-04-11 21:17:29.679,LEFT,44
238.0,17057.912595023226,24123.969569679448,-31396.64607008053,-19310.186125062242,-34390.70694335782,-25795.812999703052,-14141.367571516941,-30757.47558563657,0.0,0.0,0.0,193.0,0.0,193.0,0.0,17.0,0.0,179.0,193.0,17.0,179.0,1744420649.6796536,0.0,2025-04-11 21:17:29.679,LEFT,44
239.0,17039.13712968077,24138.028816941838,-31395.4614276244,-19305.20168604871,-34386.90714680042,-25790.314470567046,-14446.558290309704,-30762.862356050297,0.0,0.0,0.0,193.0,0.0,194.0,0.0,17.0,0.0,180.0,194.0,17.0,180.0,1744420649.679696,0.0,2025-04-11 21:17:29.679,LEFT,44
240.0,17051.542347853465,24143.952029222495,-31400.244700937834,-19306.229866293656,-34392.38332419197,-25804.418421318343,-14260.234148530264,-30750.077158221862,0.0,0.0,0.0,193.0,0.0,193.0,0.0,17.0,0.0,179.0,193.0,17.0,179.0,1744420649.6797388,0.0,2025-04-11 21:17:29.679,LEFT,44
241.0,17060.684211335687,24133.49141281741,-31419.89188431405,-19330.883840427858,-34410.06355405612,-25823.216238405257,-13863.043649559457,-30749.6077715883,0.0,0.0,0.0,193.0,0.0,194.0,0.0,17.0,0.0,180.0,194.0,17.0,180.0,1744420649.6797955,0.0,2025-04-11 21:17:29.679,LEFT,44
242.0,17044.45684486113,24119.3427585772,-31421.009471536814,-19332.761386962102,-34410.510588945224,-25804.977214929728,-14093.065451749022,-30766.192765974138,0.0,0.0,0.0,193.0,0.0,193.0,0.0,17.0,0.0,179.0,193.0,17.0,179.0,1744420649.6798437,0.0,2025-04-11 21:17:29.679,LEFT,44
243.0,17024.630847529275,24134.698407017997,-31410.25828245381,-19319.305636800007,-34394.216167237304,-25787.744019954687,-14435.829452971157,-30748.42312913217,0.0,0.0,0.0,193.0,0.0,193.0,0.0,17.0,0.0,180.0,193.0,17.0,180.0,1744420649.679886,0.0,2025-04-11 21:17:29.679,LEFT,44
244.0,17040.634696559275,24142.92384897755,-31403.64216609504,-19313.762404175093,-34384.98489677726,-25792.01320314565,-14343.650858837469,-30731.234637646037,0.0,0.0,0.0,193.0,0.0,194.0,0.0,17.0,0.0,180.0,194.0,17.0,180.0,1744420649.68002,0.0,2025-04-11 21:17:29.680,LEFT,44
245.0,17061.71239158063,24133.804337239784,-31422.462334926407,-19335.24243059664,-34405.79437086515,-25821.226933148737,-13860.473198947097,-30721.735146252533,0.0,0.0,0.0,193.0,0.0,193.0,0.0,17.0,0.0,179.0,193.0,17.0,179.0,1744420649.6800635,0.0,2025-04-11 21:17:29.680,LEFT,44
246.0,17052.570528098408,24116.10175563118,-31420.674195369986,-19335.577706763474,-34406.733144132275,-25813.537933056108,-14018.030645612556,-30775.53579515646,0.0,0.0,0.0,193.0,0.0,194.0,0.0,17.0,0.0,179.0,194.0,17.0,179.0,1744420649.6801305,0.0,2025-04-11 21:17:29.680,LEFT,44
247.0,17040.74645528155,24130.339816849213,-31409.811247564707,-19314.43295650875,-34403.96152781982,-25794.11426712445,-14382.095859300598,-30761.99063801654,0.0,0.0,0.0,193.0,0.0,193.0,0.0,17.0,0.0,179.0,193.0,17.0,179.0,1744420649.680174,0.0,2025-04-11 21:17:29.680,LEFT,44
248.0,17053.062266476427,24146.164851923568,-31394.768523546285,-19297.535037700538,-34394.88671957096,-25784.324203053024,-14435.04714191522,-30754.681617579656,0.0,0.0,0.0,193.0,0.0,194.0,0.0,17.0,0.0,180.0,194.0,17.0,180.0,1744420649.6802168,0.0,2025-04-11 21:17:29.680,LEFT,44
249.0,17077.09039176588,24149.91994499206,-31403.39629690603,-19305.156982559798,-34403.55919641962,-25808.978177187226,-13926.008513690056,-30710.827494958343,0.0,0.0,0.0,193.0,0.0,193.0,0.0,17.0,0.0,179.0,193.0,17.0,179.0,1744420649.6802597,0.0,2025-04-11 21:17:29.680,LEFT,44
250.0,17075.078734764902,24133.402005839587,-31403.128075972567,-19313.270665797078,-34401.27931848518,-25805.603063774477,-13943.889909254303,-30766.192765974138,0.0,0.0,0.0,193.0,0.0,194.0,0.0,17.0,0.0,180.0,194.0,17.0,180.0,1744420649.6803243,0.0,2025-04-11 21:17:29.680,LEFT,44
251.0,17054.738647310573,24146.343665879212,-31390.32052639968,-19293.48937195413,-34387.35418168952,-25778.848025661475,-14306.323445597107,-30745.629161075256,0.0,0.0,0.0,193.0,0.0,194.0,0.0,17.0,0.0,180.0,194.0,17.0,180.0,1744420649.680368,0.0,2025-04-11 21:17:29.680,LEFT,44
252.0,17051.6764583202,24157.139558451127,-31381.804511762206,-19288.594339918418,-34378.94992577433,-25773.32714478101,-14432.56609828068,-30734.36388186978,0.0,0.0,0.0,193.0,0.0,194.0,0.0,17.0,0.0,180.0,194.0,17.0,180.0,1744420649.6804104,0.0,2025-04-11 21:17:29.680,LEFT,44
253.0,17072.396525430268,24147.68477054653,-31398.769485803783,-19303.34649125892,-34401.43578069637,-25802.742040484198,-13986.022947552556,-30705.239558844514,0.0,0.0,0.0,193.0,0.0,193.0,0.0,17.0,0.0,179.0,193.0,17.0,179.0,1744420649.680453,0.0,2025-04-11 21:17:29.680,LEFT,44
254.0,17068.730839339594,24120.505049288877,-31406.74905857433,-19324.670055469283,-34404.85559759803,-25813.269712122645,-13923.952153200169,-30777.547452157432,0.0,0.0,0.0,193.0,0.0,194.0,0.0,17.0,0.0,179.0,194.0,17.0,179.0,1744420649.6804955,0.0,2025-04-11 21:17:29.680,LEFT,44
255.0,17046.535557095474,24122.561409778766,-31399.484741626355,-19308.509744228097,-34393.65737362592,-25792.951976412773,-14262.894006120445,-30761.56595487189,0.0,0.0,0.0,193.0,0.0,194.0,0.0,17.0,0.0,180.0,194.0,17.0,180.0,1744420649.680538,0.0,2025-04-11 21:17:29.680,LEFT,44
0.0,17044.45684486113,24141.627447799143,-31384.17379667447,-19290.67305215276,-34378.88287054096,-25777.730438438706,-14467.121895208586,-30744.444518619126,0.0,0.0,0.0,193.0,0.0,194.0,0.0,17.0,0.0,179.0,194.0,17.0,179.0,1744420649.6805952,0.0,2025-04-11 21:17:29.680,LEFT,44
1.0,17073.22353997511,24154.85968051668,-31380.64222105053,-19283.408735204786,-34374.47957688327,-25779.47387450622,-14066.757448525126,-30687.626384213734,0.0,0.0,0.0,193.0,0.0,193.0,0.0,17.0,0.0,180.0,193.0,17.0,180.0,1744420649.6806371,0.0,2025-04-11 21:17:29.680,LEFT,44
2.0,17078.878531322305,24141.985075710425,-31388.800607776717,-19301.938331358237,-34382.213280464806,-25784.368906541935,-13840.133111492767,-30711.31923333636,0.0,0.0,0.0,193.0,0.0,194.0,0.0,17.0,0.0,180.0,194.0,17.0,180.0,1744420649.68068,0.0,2025-04-11 21:17:29.680,LEFT,44
3.0,17049.776560041497,24130.853906971683,-31394.03091597926,-19304.084098825944,-34385.5660421331,-25779.742095439684,-14169.486066041716,-30731.212285901584,0.0,0.0,0.0,193.0,0.0,194.0,0.0,17.0,0.0,180.0,194.0,17.0,180.0,1744420649.6808183,0.0,2025-04-11 21:17:29.680,LEFT,44
4.0,17036.79019651296,24139.07934893124,-31387.906537998504,-19299.30082551251,-34379.44166415235,-25775.1823395708,-14451.989764212343,-30735.257951647993,0.0,0.0,0.0,193.0,0.0,193.0,0.0,17.0,0.0,179.0,193.0,17.0,179.0,1744420649.6808617,0.0,2025-04-11 21:17:29.680,LEFT,44
5.0,17063.858159048337,24143.661456544574,-31387.705372298406,-19297.646796422818,-34386.01307702221,-25788.749848455176,-14182.09244991451,-30712.12389613675,0.0,0.0,0.0,193.0,0.0,194.0,0.0,17.0,0.0,180.0,194.0,17.0,180.0,1744420649.6809044,0.0,2025-04-11 21:17:29.680,LEFT,44
6.0,17076.866874321327,24136.57595355224,-31403.82098005068,-19321.853735667915,-34400.13937951796,-25807.43590681981,-13854.281765732976,-30740.823536017364,0.0,0.0,0.0,193.0,0.0,194.0,0.0,17.0,0.0,179.0,194.0,17.0,179.0,1744420649.6809468,0.0,2025-04-11 21:17:29.680,LEFT,44
7.0,17050.827092030893,24126.0929854027,-31403.68686958395,-19318.903305399814,-34393.54561490365,-25791.76733395664,-14122.41329221884,-30750.770062299976,0.0,0.0,0.0,193.0,0.0,194.0,0.0,17.0,0.0,180.0,194.0,17.0,180.0,1744420649.6809893,0.0,2025-04-11 21:17:29.680,LEFT,44
8.0,17032.18573715517,24130.764499993864,-31399.820017793183,-19312.778927419058,-34392.58448989207,-25783.67600246382,-14446.804159498712,-30751.08298672235,0.0,0.0,0.0,193.0,0.0,193.0,0.0,17.0,0.0,179.0,193.0,17.0,179.0,1744420649.6810508,0.0,2025-04-11 21:17:29.681,LEFT,44
9.0,17051.765865298017,24131.39034883861,-31397.428381136466,-19305.939293615735,-34391.73512360277,-25788.638089732896,-14285.983358142777,-30731.838134746333,0.0,0.0,0.0,193.0,0.0,194.0,0.0,17.0,0.0,180.0,194.0,17.0,180.0,1744420649.681094,0.0,2025-04-11 21:17:29.681,LEFT,44
10.0,17071.122475996315,24132.77615699484,-31410.414744665,-19323.68657871325,-34401.838112096564,-25804.932511440817,-13845.765751095505,-30713.241483359518,0.0,0.0,0.0,193.0,0.0,193.0,0.0,17.0,0.0,179.0,193.0,17.0,179.0,1744420649.6811368,0.0,2025-04-11 21:17:29.681,LEFT,44
11.0,17046.781426284484,24119.834496955216,-31412.5158086438,-19326.18997409224,-34399.64764113994,-25796.461200292255,-14052.005297184623,-30748.579591343358,0.0,0.0,0.0,193.0,0.0,193.0,0.0,17.0,0.0,179.0,193.0,17.0,179.0,1744420649.6811805,0.0,2025-04-11 21:17:29.681,LEFT,44
12.0,17030.732873765573,24131.546811049797,-31402.010488749802,-19307.97330236117,-34388.15884448992,-25780.926737895817,-14399.396109509005,-30736.867277248777,0.0,0.0,0.0,193.0,0.0,194.0,0.0,17.0,0.0,179.0,194.0,17.0,179.0,1744420649.6812232,0.0,2025-04-11 21:17:29.681,LEFT,44
13.0,17053.397542643255,24145.539003078822,-31390.812264777695,-19291.209494019688,-34384.20258572132,-25775.20469131526,-14344.053190237664,-30716.92952119464,0.0,0.0,0.0,193.0,0.0,193.0,0.0,17.0,0.0,179.0,193.0,17.0,179.0,1744420649.681266,0.0,2025-04-11 21:17:29.681,LEFT,44
14.0,17080.554912156455,24150.076407203247,-31401.563453860697,-19300.373709246363,-34401.94987081884,-25788.325165310525,-13861.926062336692,-30690.308593548372,0.0,0.0,0.0,193.0,0.0,194.0,0.0,17.0,0.0,180.0,194.0,17.0,180.0,1744420649.6813087,0.0,2025-04-11 21:17:29.681,LEFT,44
15.0,17067.926176539204,24134.609000040175,-31398.92594801497,-19303.502953470106,-34400.34054521806,-25780.56910998453,-14001.24448552662,-30742.946951740618,0.0,0.0,0.0,193.0,0.0,193.0,0.0,17.0,0.0,179.0,193.0,17.0,179.0,1744420649.6813655,0.0,2025-04-11 21:17:29.681,LEFT,44
16.0,17046.80377802894,24135.994808196403,-31392.488645611844,-19293.467020209675,-34393.54561490365,-25773.036572103094,-14354.714972342847,-30731.301692879402,0.0,0.0,0.0,193.0,0.0,194.0,0.0,17.0,0.0,180.0,194.0,17.0,180.0,1744420649.6814084,0.0,2025-04-11 21:17:29.681,LEFT,44
17.0,17054.358667654833,24145.49429958991,-31380.374000117066,-19286.560331172983,-34383.12970198747,-25776.925775638316,-14410.66138871448,-30731.636969046234,0.0,0.0,0.0,193.0,0.0,194.0,0.0,17.0,0.0,179.0,194.0,17.0,179.0,1744420649.681451,0.0,2025-04-11 21:17:29.681,LEFT,44
18.0,17073.134132997293,24140.800433254295,-31391.92985200046,-19298.764383645583,-34395.065533526606,-25802.29500559509,-13929.473034080629,-30704.97133791105,0.0,0.0,0.0,193.0,0.0,193.0,0.0,17.0,0.0,180.0,193.0,17.0,180.0,1744420649.6816092,0.0,2025-04-11 21:17:29.681,LEFT,44
19.0,17064.461656148633,24125.623598769143,-31395.88611076905,-19314.075328597468,-34395.534920160164,-25802.451467806277,-13948.069685467444,-30762.61648686129,0.0,0.0,0.0,193.0,0.0,194.0,0.0,17.0,0.0,179.0,194.0,17.0,179.0,1744420649.6816533,0.0,2025-04-11 21:17:29.681,LEFT,44
20.0,17036.141995923757,24131.971494194448,-31392.376886889564,-19301.49129646913,-34390.48342591327,-25780.658516962354,-14297.673320492902,-30734.78856501443,0.0,0.0,0.0,193.0,0.0,193.0,0.0,17.0,0.0,179.0,193.0,17.0,179.0,1744420649.6816957,0.0,2025-04-11 21:17:29.681,LEFT,44
21.0,17033.280972633478,24143.862622244673,-31383.905575741006,-19292.371784731364,-34381.05098975313,-25774.489435492687,-14456.683630547957,-30732.754556269,0.0,0.0,0.0,193.0,0.0,193.0,0.0,17.0,0.0,180.0,193.0,17.0,180.0,1744420649.681739,0.0,2025-04-11 21:17:29.681,LEFT,44
22.0,17062.651164847754,24155.664343317076,-31391.12518920007,-19296.01511907758,-34388.40471367892,-25793.71193572425,-14008.665264685782,-30691.22501507104,0.0,0.0,0.0,193.0,0.0,193.0,0.0,17.0,0.0,179.0,193.0,17.0,179.0,1744420649.681782,0.0,2025-04-11 21:17:29.681,LEFT,44
23.0,17065.84746430486,24138.744072764406,-31397.964823003393,-19314.142383830833,-34397.97126030579,-25797.087049137004,-13909.959961171147,-30747.976094243062,0.0,0.0,0.0,193.0,0.0,193.0,0.0,17.0,0.0,179.0,193.0,17.0,179.0,1744420649.6818447,0.0,2025-04-11 21:17:29.681,LEFT,44
24.0,17045.08269370588,24131.837383727718,-31393.673288067974,-19301.446592980217,-34390.08109451307,-25782.267842563135,-14250.846415859034,-30740.778832528453,0.0,0.0,0.0,193.0,0.0,194.0,0.0,17.0,0.0,180.0,194.0,17.0,180.0,1744420649.6818876,0.0,2025-04-11 21:17:29.681,LEFT,44
25.0,17045.686190806173,24142.16388966607,-31377.289459382235,-19287.16382827328,-34371.4620913818,-25768.365057511935,-14471.882816777566,-30729.200628900606,0.0,0.0,0.0,193.0,0.0,193.0,0.0,17.0,0.0,179.0,193.0,17.0,179.0,1744420649.6819305,0.0,2025-04-11 21:17:29.681,LEFT,44
26.0,17067.970880028115,24145.091968189714,-31385.693715297428,-19293.377613231853,-34385.14135898845,-25786.224101331725,-14093.378376171397,-30687.291108046906,0.0,0.0,0.0,193.0,0.0,193.0,0.0,17.0,0.0,179.0,193.0,17.0,179.0,1744420649.6819744,0.0,2025-04-11 21:17:29.681,LEFT,44
27.0,17071.345993440867,24134.58664829572,-31398.32245091468,-19314.29884604202,-34401.704001629834,-25791.610871745455,-13863.155408281733,-30717.465963061568,0.0,0.0,0.0,193.0,0.0,193.0,0.0,17.0,0.0,179.0,193.0,17.0,179.0,1744420649.6820166,0.0,2025-04-11 21:17:29.682,LEFT,44
28.0,17049.083655963383,24131.703273260984,-31397.31662241419,-19306.363976760385,-34402.84394059705,-25780.47970300671,-14195.056461698588,-30733.93919872513,0.0,0.0,0.0,193.0,0.0,193.0,0.0,17.0,0.0,179.0,193.0,17.0,179.0,1744420649.6820595,0.0,2025-04-11 21:17:29.682,LEFT,44
29.0,17039.65121980324,24149.74113103642,-31383.950279229914,-19290.42718296375,-34389.43289392387,-25764.54290921008,-14481.62817736008,-30730.720547523564,0.0,0.0,0.0,193.0,0.0,193.0,0.0,17.0,0.0,180.0,193.0,17.0,180.0,1744420649.6821024,0.0,2025-04-11 21:17:29.682,LEFT,44
30.0,17058.04670548996,24155.843157272717,-31383.72676178536,-19287.074421295456,-34389.3658386905,-25775.33880178199,-14201.404357123894,-30691.113256348763,0.0,0.0,0.0,193.0,0.0,193.0,0.0,17.0,0.0,179.0,193.0,17.0,179.0,1744420649.682161,0.0,2025-04-11 21:17:29.682,LEFT,44
31.0,17076.66570862123,24149.897593247606,-31394.63441307955,-19307.280398283052,-34399.245309739745,-25794.29308108009,-13859.109742535324,-30720.66226251868,0.0,0.0,0.0,193.0,0.0,193.0,0.0,17.0,0.0,179.0,193.0,17.0,179.0,1744420649.682204,0.0,2025-04-11 21:17:29.682,LEFT,44
32.0,17065.691002093674,24147.327142635244,-31386.78895077574,-19297.66914816727,-34383.442626409844,-25775.24939480417,-14110.142184512877,-30732.665149291177,0.0,0.0,0.0,193.0,0.0,194.0,0.0,17.0,0.0,180.0,194.0,17.0,180.0,1744420649.6822724,0.0,2025-04-11 21:17:29.682,LEFT,44
33.0,17049.97772574159,24157.34072415122,-31382.944450729425,-19288.52728468505,-34377.787635062654,-25765.548737710567,-14427.626362756058,-30718.024756672952,0.0,0.0,0.0,193.0,0.0,193.0,0.0,17.0,0.0,180.0,193.0,17.0,180.0,1744420649.6825516,0.0,2025-04-11 21:17:29.682,LEFT,44
34.0,17063.969917770617,24159.106511963193,-31374.160215158492,-19277.91020606878,-34372.691437326845,-25769.639106945888,-14296.265160592218,-30712.16859962566,0.0,0.0,0.0,193.0,0.0,194.0,0.0,17.0,0.0,180.0,194.0,17.0,180.0,1744420649.6826234,0.0,2025-04-11 21:17:29.682,LEFT,44
35.0,17074.966976042626,24152.87037526016,-31389.69467755493,-19294.696366154716,-34393.94794630384,-25789.040421133093,-13858.394486712754,-30705.954814667086,0.0,0.0,0.0,193.0,0.0,193.0,0.0,17.0,0.0,179.0,193.0,17.0,179.0,1744420649.6826775,0.0,2025-04-11 21:17:29.682,LEFT,44
36.0,17056.95147001165,24139.906363476082,-31390.409933377498,-19299.390232490332,-34393.523263159186,-25778.937432639294,-14051.357096595419,-30736.532001081945,0.0,0.0,0.0,193.0,0.0,194.0,0.0,17.0,0.0,180.0,194.0,17.0,180.0,1744420649.6827395,0.0,2025-04-11 21:17:29.682,LEFT,44
37.0,17030.308190620923,24142.63327629963,-31381.558642573196,-19289.421354463262,-34383.397922920936,-25765.72755166621,-14388.063775070164,-30718.158867139682,0.0,0.0,0.0,193.0,0.0,193.0,0.0,17.0,0.0,179.0,193.0,17.0,179.0,1744420649.682816,0.0,2025-04-11 21:17:29.682,LEFT,44
38.0,17034.264449389513,24146.96951472396,-31371.321543612667,-19280.123028769856,-34377.25119319573,-25767.24747028917,-14370.405896950471,-30712.906207192686,0.0,0.0,0.0,193.0,0.0,193.0,0.0,17.0,0.0,179.0,193.0,17.0,179.0,1744420649.6828902,0.0,2025-04-11 21:17:29.682,LEFT,44
39.0,17050.46946411961,24133.022026183848,-31390.767561288783,-19301.82657263596,-34400.85463534053,-25801.66915675034,-13891.69858595116,-30696.298861062394,0.0,0.0,0.0,193.0,0.0,194.0,0.0,17.0,0.0,180.0,194.0,17.0,180.0,1744420649.682934,0.0,2025-04-11 21:17:29.682,LEFT,44
40.0,17042.646353560252,24115.45355504198,-31391.907500256006,-19311.884857640845,-34401.10050452954,-25796.57295901453,-14012.912096132291,-30756.246239691525,0.0,0.0,0.0,193.0,0.0,193.0,0.0,17.0,0.0,179.0,193.0,17.0,179.0,1744420649.682979,0.0,2025-04-11 21:17:29.682,LEFT,44
41.0,17026.50839406352,24124.26014235737,-31380.59751756162,-19297.1550580448,-34379.866347297,-25782.089028607494,-14365.756734103768,-30738.878934249755,0.0,0.0,0.0,193.0,0.0,193.0,0.0,17.0,0.0,179.0,193.0,17.0,179.0,1744420649.6830232,0.0,2025-04-11 21:17:29.683,LEFT,44
42.0,17026.731911508075,24132.01619768336,-31371.813281990682,-19290.136610285834,-34370.54566985914,-25784.212444330748,-14441.61855478508,-30746.165602942183,0.0,0.0,0.0,193.0,0.0,194.0,0.0,17.0,0.0,180.0,194.0,17.0,180.0,1744420649.6830676,0.0,2025-04-11 21:17:29.683,LEFT,44
43.0,17048.882490263284,24132.91026746157,-31382.720933284872,-19302.407717991795,-34378.65935309641,-25801.06565965005,-13944.694572054694,-30688.811026669864,0.0,0.0,0.0,193.0,0.0,193.0,0.0,17.0,0.0,180.0,193.0,17.0,180.0,1744420649.683112,0.0,2025-04-11 21:17:29.683,LEFT,44
44.0,17049.03895247447,24119.812145210763,-31382.095084440123,-19314.835287908947,-34375.552460617124,-25797.847008448483,-13927.193156146188,-30737.984864471542,0.0,0.0,0.0,193.0,0.0,194.0,0.0,17.0,0.0,180.0,194.0,17.0,180.0,1744420649.6831737,0.0,2025-04-11 21:17:29.683,LEFT,44
45.0,17030.196431898647,24125.69065400251,-31373.534366313743,-19300.261950524087,-34370.74683555923,-25784.68183096431,-14292.197143101354,-30743.41633837418,0.0,0.0,0.0,193.0,0.0,194.0,0.0,17.0,0.0,180.0,194.0,17.0,180.0,1744420649.6832175,0.0,2025-04-11 21:17:29.683,LEFT,44
46.0,17033.392731355754,24137.6488372861,-31361.039741163226,-19285.845075350415,-34365.80710003461,-25771.76252266914,-14460.215206171895,-30722.137477652726,0.0,0.0,0.0,193.0,0.0,194.0,0.0,17.0,0.0,179.0,194.0,17.0,179.0,1744420649.6832623,0.0,2025-04-11 21:17:29.683,LEFT,44
47.0,17058.829016545897,24142.20859315498,-31370.82980523465,-19292.260026009088,-34383.55438513212,-25791.05207813407,-14032.246355086132,-30671.533128205912,0.0,0.0,0.0,193.0,0.0,193.0,0.0,17.0,0.0,179.0,193.0,17.0,179.0,1744420649.6833076,0.0,2025-04-11 21:17:29.683,LEFT,44
48.0,17060.66185959123,24131.30094186079,-31383.07856119616,-19312.845982652427,-34397.14424576095,-25806.20656087477,-13912.84333620588,-30744.66803606368,0.0,0.0,0.0,193.0,0.0,193.0,0.0,17.0,0.0,179.0,193.0,17.0,179.0,1744420649.6836083,0.0,2025-04-11 21:17:29.683,LEFT,44
49.0,17035.404388356732,24130.317465104756,-31382.653878051507,-19302.0053865916,-34391.42219918039,-25792.66140373485,-14233.747331350725,-30743.528097096456,0.0,0.0,0.0,193.0,0.0,194.0,0.0,17.0,0.0,180.0,194.0,17.0,180.0,1744420649.6836543,0.0,2025-04-11 21:17:29.683,LEFT,44
50.0,17032.69982727764,24144.264953644866,-31367.4546918219,-19281.307671225986,-34376.245364695234,-25765.39227549938,-14469.446476631938,-30713.353242081794,0.0,0.0,0.0,193.0,0.0,193.0,0.0,17.0,0.0,179.0,193.0,17.0,179.0,1744420649.6837168,0.0,2025-04-11 21:17:29.683,LEFT,44
51.0,17063.075847992404,24152.49039560442,-31368.281706366746,-19277.23965373512,-34381.363914175505,-25774.24356630368,-14125.69899865377,-30667.73333164851,0.0,0.0,0.0,193.0,0.0,193.0,0.0,17.0,0.0,179.0,193.0,17.0,179.0,1744420649.68376,0.0,2025-04-11 21:17:29.683,LEFT,44
52.0,17077.626833632807,24144.57787806724,-31381.40218036201,-19300.48546796864,-34395.4678649268,-25791.096781622982,-13863.513036193019,-30709.08405889083,0.0,0.0,0.0,193.0,0.0,194.0,0.0,17.0,0.0,180.0,194.0,17.0,180.0,1744420649.683808,0.0,2025-04-11 21:17:29.683,LEFT,44
53.0,17059.924252024204,24143.326180377746,-31383.212671662888,-19297.42327897826,-34398.59710915054,-25783.787761186097,-14178.583226035027,-30737.426070860158,0.0,0.0,0.0,193.0,0.0,193.0,0.0,17.0,0.0,179.0,193.0,17.0,179.0,1744420649.6839511,0.0,2025-04-11 21:17:29.683,LEFT,44
54.0,17039.09242619186,24147.170680424057,-31375.858947737095,-19290.42718296375,-34388.09178925655,-25775.76348492664,-14472.128685966574,-30733.8050882584,0.0,0.0,0.0,193.0,0.0,194.0,0.0,17.0,0.0,180.0,194.0,17.0,180.0,1744420649.6840146,0.0,2025-04-11 21:17:29.684,LEFT,44
55.0,17054.917461266217,24143.572049566752,-31369.198127889413,-19282.559368915485,-34378.36878041849,-25779.071543106027,-14210.613275839482,-30685.950003379585,0.0,0.0,0.0,193.0,0.0,193.0,0.0,17.0,0.0,179.0,193.0,17.0,179.0,1744420649.6840856,0.0,2025-04-11 21:17:29.684,LEFT,44
56.0,17070.161350984734,24136.844174485705,-31380.374000117066,-19301.647758680316,-34391.80217883613,-25794.606005502465,-13838.210861469612,-30698.869311674753,0.0,0.0,0.0,193.0,0.0,194.0,0.0,17.0,0.0,180.0,194.0,17.0,180.0,1744420649.6841788,0.0,2025-04-11 21:17:29.684,LEFT,44
57.0,17047.116702451312,24125.422433069045,-31380.329296628155,-19299.792563890525,-34390.103446257526,-25785.553548998065,-14086.203466201243,-30732.016948701974,0.0,0.0,0.0,193.0,0.0,194.0,0.0,17.0,0.0,179.0,194.0,17.0,179.0,1744420649.6842668,0.0,2025-04-11 21:17:29.684,LEFT,44
58.0,17029.637638287262,24146.05309320129,-31371.20978489039,-19282.469961937662,-34382.70501884282,-25769.639106945888,-14416.383435295038,-30721.22105613006,0.0,0.0,0.0,193.0,0.0,193.0,0.0,17.0,0.0,179.0,193.0,17.0,179.0,1744420649.684376,0.0,2025-04-11 21:17:29.684,LEFT,44
59.0,17044.61330707232,24152.982133982438,-31361.06209290768,-19268.05308676399,-34372.28910592665,-25767.448635989265,-14305.295265352162,-30703.294957076905,0.0,0.0,0.0,193.0,0.0,193.0,0.0,18.0,0.0,179.0,193.0,18.0,179.0,1744420649.6846564,0.0,2025-04-11 21:17:29.684,LEFT,44
60.0,17057.577318856398,24142.34270362171,-31379.748151272317,-19289.778982374548,-34389.72346660179,-25792.68375547931,-13853.253585488033,-30699.584567497324,0.0,0.0,0.0,193.0,0.0,193.0,0.0,17.0,0.0,180.0,193.0,17.0,180.0,1744420649.6847253,0.0,2025-04-11 21:17:29.684,LEFT,44
61.0,17039.539461080964,24126.696482502997,-31386.02899146426,-19301.53599995804,-34397.658335883425,-25794.15897061336,-14052.340573351452,-30762.012989760995,0.0,0.0,0.0,193.0,0.0,193.0,0.0,17.0,0.0,179.0,193.0,17.0,179.0,1744420649.6848023,0.0,2025-04-11 21:17:29.684,LEFT,44
62.0,17016.517164292,24125.4447848135,-31380.038723950238,-19291.50006669761,-34385.58839387756,-25776.6352029604,-14403.844106655612,-30730.586437056834,0.0,0.0,0.0,193.0,0.0,194.0,0.0,17.0,0.0,180.0,194.0,17.0,180.0,1744420649.6848853,0.0,2025-04-11 21:17:29.684,LEFT,44
63.0,17026.396635341243,24131.479755816432,-31371.612116290584,-19280.99474680361,-34377.07237924008,-25775.83054016001,-14387.236760525318,-30713.46500080407,0.0,0.0,0.0,193.0,0.0,193.0,0.0,17.0,0.0,179.0,193.0,17.0,179.0,1744420649.685578,0.0,2025-04-11 21:17:29.685,LEFT,44
64.0,17054.33631591038,24133.424357584045,-31382.54211932923,-19293.71288939868,-34386.79538807814,-25803.278482351125,-13896.0795278644,-30694.823645928343,0.0,0.0,0.0,193.0,0.0,194.0,0.0,17.0,0.0,180.0,194.0,17.0,180.0,1744420649.6857595,0.0,2025-04-11 21:17:29.685,LEFT,44
65.0,17042.713408793617,24125.91417144706,-31380.128130928057,-19301.71481391368,-34378.25702169621,-25796.125924125427,-13967.381592676831,-30745.115070952783,0.0,0.0,0.0,193.0,0.0,194.0,0.0,17.0,0.0,180.0,194.0,17.0,180.0,1744420649.685821,0.0,2025-04-11 21:17:29.685,LEFT,44
66.0,17021.70276900563,24136.44184308551,-31373.176738402457,-19286.96266257318,-34372.46791988229,-25778.199825072268,-14316.78406200219,-30722.94214045312,0.0,0.0,0.0,193.0,0.0,193.0,0.0,17.0,0.0,179.0,193.0,17.0,179.0,1744420649.685896,0.0,2025-04-11 21:17:29.685,LEFT,44
67.0,17026.575449296888,24149.763482780872,-31362.33614234163,-19275.63032813434,-34367.34937040202,-25777.52927273861,-14422.820737698166,-30729.826477745355,0.0,0.0,0.0,193.0,0.0,194.0,0.0,17.0,0.0,180.0,194.0,17.0,180.0,1744420649.6859405,0.0,2025-04-11 21:17:29.685,LEFT,44
68.0,17048.927193752195,24147.05892170178,-31372.103854668603,-19279.921863069758,-34381.83330080906,-25791.87909267892,-13961.704249585182,-30684.541843478903,0.0,0.0,0.0,193.0,0.0,194.0,0.0,17.0,0.0,179.0,194.0,17.0,179.0,1744420649.6860342,0.0,2025-04-11 21:17:29.686,LEFT,44
69.0,17042.04285645996,24125.601247024686,-31384.1067414411,-19301.267779024576,-34392.78565559217,-25796.05886889206,-13934.077493438423,-30747.014969231484,0.0,0.0,0.0,193.0,0.0,193.0,0.0,17.0,0.0,179.0,193.0,17.0,179.0,1744420649.6860788,0.0,2025-04-11 21:17:29.686,LEFT,44
70.0,17027.84949873084,24134.832517484727,-31377.892956482527,-19288.01319456258,-34386.884795055965,-25775.070580848525,-14286.698613965347,-30733.872143491764,0.0,0.0,0.0,193.0,0.0,194.0,0.0,17.0,0.0,179.0,194.0,17.0,179.0,1744420649.6861227,0.0,2025-04-11 21:17:29.686,LEFT,44
71.0,17023.177984139682,24145.181375167536,-31369.220479633866,-19278.11137176888,-34381.38626591996,-25759.044380074072,-14475.14617146804,-30713.50970429298,0.0,0.0,0.0,193.0,0.0,193.0,0.0,17.0,0.0,179.0,193.0,17.0,179.0,1744420649.6861668,0.0,2025-04-11 21:17:29.686,LEFT,44
72.0,17043.540423338465,24144.689636789517,-31381.20101466191,-19286.96266257318,-34390.103446257526,-25782.714877452243,-14050.507730306117,-30674.572965451836,0.0,0.0,0.0,193.0,0.0,194.0,0.0,17.0,0.0,180.0,194.0,17.0,180.0,1744420649.6862104,0.0,2025-04-11 21:17:29.686,LEFT,44
73.0,17050.491815864065,24133.49141281741,-31388.286517654244,-19307.705081427703,-34395.400809693434,-25793.466066535246,-13898.739385454583,-30739.773004027964,0.0,0.0,0.0,193.0,0.0,194.0,0.0,17.0,0.0,180.0,194.0,17.0,180.0,1744420649.6862557,0.0,2025-04-11 21:17:29.686,LEFT,44
74.0,17027.4695190751,24135.033683184825,-31383.838520507637,-19302.16184880279,-34384.224937465784,-25786.91700540984,-14221.945610278322,-30743.505745352002,0.0,0.0,0.0,193.0,0.0,194.0,0.0,17.0,0.0,180.0,194.0,17.0,180.0,1744420649.68632,0.0,2025-04-11 21:17:29.686,LEFT,44
75.0,17016.584219525364,24147.3494943797,-31373.40025584701,-19291.47771495315,-34372.60203034902,-25770.734342424195,-14454.739028780346,-30721.93631195263,0.0,0.0,0.0,193.0,0.0,194.0,0.0,17.0,0.0,180.0,194.0,17.0,180.0,1744420649.6863637,0.0,2025-04-11 21:17:29.686,LEFT,44
76.0,17041.215841915113,24154.05501771629,-31373.221441891368,-19283.833418349437,-34380.42514090838,-25776.076409349014,-14132.806853390557,-30679.579756209823,0.0,0.0,0.0,193.0,0.0,193.0,0.0,17.0,0.0,179.0,193.0,17.0,179.0,1744420650.158677,0.0,2025-04-11 21:17:30.158,LEFT,44
77.0,17058.069057234414,24141.31452337677,-31382.430360606955,-19303.614712192382,-34390.70694335782,-25793.175493857325,-13852.806550598927,-30720.59520728531,0.0,0.0,0.0,193.0,0.0,194.0,0.0,17.0,0.0,180.0,194.0,17.0,180.0,1744420650.158884,0.0,2025-04-11 21:17:30.158,LEFT,44
78.0,17040.232365159078,24136.419491341054,-31378.317639627177,-19298.406755734297,-34382.28033569817,-25787.811075188052,-14143.736856429203,-30746.880858764755,0.0,0.0,0.0,193.0,0.0,193.0,0.0,17.0,0.0,179.0,193.0,17.0,179.0,1744420650.1589346,0.0,2025-04-11 21:17:30.158,LEFT,44
79.0,17024.60849578482,24150.903421748095,-31368.3040581112,-19285.28628173903,-34372.400864648924,-25775.785836671097,-14445.843034487134,-30743.975131985564,0.0,0.0,0.0,193.0,0.0,194.0,0.0,17.0,0.0,180.0,194.0,17.0,180.0,1744420650.1589837,0.0,2025-04-11 21:17:30.158,LEFT,44
80.0,17046.08852220637,24154.144424694114,-31362.87258420856,-19276.90437756829,-34370.389207647946,-25780.34559253998,-14241.324572721074,-30708.36880306826,0.0,0.0,0.0,193.0,0.0,194.0,0.0,17.0,0.0,179.0,194.0,17.0,179.0,1744420650.1590323,0.0,2025-04-11 21:17:30.159,LEFT,44
81.0,17058.13611246778,24137.559430308276,-31380.552814072707,-19297.82561037846,-34390.70694335782,-25806.184209130315,-13841.295402204443,-30709.039355401917,0.0,0.0,0.0,193.0,0.0,193.0,0.0,17.0,0.0,179.0,193.0,17.0,179.0,1744420650.1590812,0.0,2025-04-11 21:17:30.159,LEFT,44
82.0,17042.46753960461,24130.362168593667,-31374.003752947305,-19287.52145618456,-34385.409579921914,-25786.58172924301,-14086.672852834805,-30740.37650112826,0.0,0.0,0.0,193.0,0.0,194.0,0.0,17.0,0.0,180.0,194.0,17.0,180.0,1744420650.15913,0.0,2025-04-11 21:17:30.159,LEFT,44
83.0,17016.852440458828,24140.44280534301,-31372.327372113155,-19280.77122935906,-34388.65058286793,-25779.25035706167,-14430.979124424353,-30736.979035971053,0.0,0.0,0.0,193.0,0.0,193.0,0.0,17.0,0.0,179.0,193.0,17.0,179.0,1744420650.159205,0.0,2025-04-11 21:17:30.159,LEFT,44
