Sample Index,EXG Channel 0,EXG Channel 1,EXG Channel 2,EXG Channel 3,EXG Channel 4,EXG Channel 5,EXG Channel 6,EXG Channel 7,Accel Channel 0,Accel Channel 1,Accel Channel 2,Not Used,Digital Channel 0 (D11),Digital Channel 1 (D12),Digital Channel 2 (D13),Digital Channel 3 (D17),Not Used,Digital Channel 4 (D18),Analog Channel 0,Analog Channel 1,Analog Channel 2,Timestamp,Marker Channel,Timestamp (Formatted),Stimulus_Direction,Stimulus_Number
18.0,23755.188137911337,28020.72799452877,-32003.25006285311,-26115.73351809186,-36787.931536189506,-31211.32775680158,-12328.73050316936,-38810.22796752786,0.0,0.0,0.0,193.0,0.0,194.0,0.0,1.0,0.0,180.0,194.0,1.0,180.0,1744420415.5881743,0.0,2025-04-11 21:13:35.588,RIGHT,15
19.0,23747.253268629705,28027.992311476748,-31997.170388361264,-26110.726727333873,-36781.47188204192,-31214.5687597476,-12400.0772714707,-38815.704144919415,0.0,0.0,0.0,193.0,0.0,193.0,0.0,1.0,0.0,179.0,193.0,1.0,179.0,1744420415.5882192,0.0,2025-04-11 21:13:35.588,RIGHT,15
20.0,23776.019963743685,28026.69591029834,-32009.553254789505,-26119.73448034936,-36792.84891996967,-31234.372405335,-11931.69646640974,-38805.981136081355,0.0,0.0,0.0,193.0,0.0,193.0,0.0,1.0,0.0,179.0,193.0,1.0,179.0,1744420415.5882623,0.0,2025-04-11 21:13:35.588,RIGHT,15
21.0,23771.54961485262,28006.109953655,-32006.848693710413,-26127.043500786247,-36790.81491122424,-31226.258722097722,-11942.470007237198,-38836.84889517414,0.0,0.0,0.0,193.0,0.0,193.0,0.0,1.0,0.0,179.0,193.0,1.0,179.0,1744420415.588307,0.0,2025-04-11 21:13:35.588,RIGHT,15
22.0,23744.83928022853,28008.88156996746,-31998.869120939868,-26111.710204089904,-36783.12591113161,-31212.914730657903,-12288.184438727432,-38820.24154904384,0.0,0.0,0.0,193.0,0.0,193.0,0.0,1.0,0.0,179.0,193.0,1.0,179.0,1744420415.5883524,0.0,2025-04-11 21:13:35.588,RIGHT,15
23.0,23738.245515614217,28015.07300318158,-31992.655335981293,-26103.373003408076,-36782.09773088667,-31205.69511719884,-12442.947917335978,-38803.656554658,0.0,0.0,0.0,193.0,0.0,194.0,0.0,1.0,0.0,179.0,194.0,1.0,179.0,1744420415.5883965,0.0,2025-04-11 21:13:35.588,RIGHT,15
24.0,23777.204606199815,28026.003006220224,-31993.303536570496,-26101.182532451458,-36783.12591113161,-31221.74366971775,-12024.009171010157,-38789.418493439975,0.0,0.0,0.0,193.0,0.0,194.0,0.0,1.0,0.0,180.0,194.0,1.0,180.0,1744420415.5884564,0.0,2025-04-11 21:13:35.588,RIGHT,15
25.0,23790.45919066181,28023.1643346744,-32003.562987275483,-26122.886076317558,-36793.452417069966,-31233.746556490252,-11902.773309084572,-38835.552493995725,0.0,0.0,0.0,193.0,0.0,194.0,0.0,1.0,0.0,179.0,194.0,1.0,179.0,1744420415.5884998,0.0,2025-04-11 21:13:35.588,RIGHT,15
26.0,23769.605013085013,28030.160430688913,-31998.556196517493,-26112.604273868117,-36787.52920478931,-31217.36272780451,-12229.779330465715,-38817.805208898215,0.0,0.0,0.0,193.0,0.0,193.0,0.0,1.0,0.0,178.0,193.0,1.0,178.0,1744420415.5885432,0.0,2025-04-11 21:13:35.588,RIGHT,15
27.0,23735.11627139047,28021.68911954035,-31980.80891141998,-26094.767581792785,-36767.636152224084,-31193.915747870895,-12451.553338951271,-38795.498167931815,0.0,0.0,0.0,193.0,0.0,193.0,0.0,1.0,0.0,179.0,193.0,1.0,179.0,1744420415.588586,0.0,2025-04-11 21:13:35.588,RIGHT,15
28.0,23745.487480817734,28017.621102049485,-31990.174292346754,-26097.69566031643,-36779.0802453852,-31208.086753855558,-12111.829174975059,-38780.187222979934,0.0,0.0,0.0,193.0,0.0,193.0,0.0,1.0,0.0,179.0,193.0,1.0,179.0,1744420415.5886426,0.0,2025-04-11 21:13:35.588,RIGHT,15
29.0,23753.914088477384,27994.285880838142,-32009.173275133762,-26129.97157930989,-36797.25221362737,-31228.002158165236,-11861.891968475815,-38823.750772923326,0.0,0.0,0.0,193.0,0.0,194.0,0.0,1.0,0.0,180.0,194.0,1.0,180.0,1744420415.5886855,0.0,2025-04-11 21:13:35.588,RIGHT,15
30.0,23734.333960334538,27989.256738335698,-32006.938100688232,-26126.529410663774,-36791.57487053572,-31211.931253901872,-12154.275137695688,-38811.725534406374,0.0,0.0,0.0,193.0,0.0,194.0,0.0,1.0,0.0,180.0,194.0,1.0,180.0,1744420415.588728,0.0,2025-04-11 21:13:35.588,RIGHT,15
31.0,23718.08424211553,28007.920444955882,-31993.124722614855,-26114.526523891276,-36776.19687035047,-31196.307384527612,-12447.105341804665,-38800.34849647862,0.0,0.0,0.0,193.0,0.0,193.0,0.0,1.0,0.0,179.0,193.0,1.0,179.0,1744420415.5887709,0.0,2025-04-11 21:13:35.588,RIGHT,15
32.0,23740.056006915096,28007.272244366675,-31996.544539516515,-26113.3642331796,-36784.846995454674,-31211.08188761257,-12210.579181978606,-38786.46806317187,0.0,0.0,0.0,193.0,0.0,193.0,0.0,1.0,0.0,179.0,193.0,1.0,179.0,1744420415.5888288,0.0,2025-04-11 21:13:35.588,RIGHT,15
33.0,23753.444701843822,27991.290747081133,-32016.884626970845,-26144.947248094948,-36805.76822826484,-31241.368501349512,-11854.672355016752,-38827.68467994746,0.0,0.0,0.0,193.0,0.0,193.0,0.0,1.0,0.0,178.0,193.0,1.0,178.0,1744420415.5889063,0.0,2025-04-11 21:13:35.588,RIGHT,15
34.0,23736.79265222462,27980.427799275854,-32011.341394345927,-26139.515774192307,-36798.839187483696,-31230.99729192225,-12112.790299986638,-38838.21235158591,0.0,0.0,0.0,193.0,0.0,193.0,0.0,1.0,0.0,178.0,193.0,1.0,178.0,1744420415.588958,0.0,2025-04-11 21:13:35.588,RIGHT,15
35.0,23717.994835137706,27998.666822751384,-31998.489141284128,-26118.236913470857,-36785.696361743976,-31209.22669282278,-12433.046094542276,-38812.574900695676,0.0,0.0,0.0,193.0,0.0,193.0,0.0,1.0,0.0,179.0,193.0,1.0,179.0,1744420415.589009,0.0,2025-04-11 21:13:35.589,RIGHT,15
36.0,23738.558440036588,28009.216846134288,-31992.409466792284,-26107.64218659904,-36784.93640243249,-31211.28305331267,-12312.011398316788,-38797.800397610714,0.0,0.0,0.0,193.0,0.0,193.0,0.0,1.0,0.0,179.0,193.0,1.0,179.0,1744420415.5890603,0.0,2025-04-11 21:13:35.589,RIGHT,15
37.0,23760.41844611388,28000.343203585533,-32017.063440926486,-26137.146489280047,-36818.262853415355,-31243.13428916148,-11879.59455008442,-38819.660403688,0.0,0.0,0.0,193.0,0.0,193.0,0.0,1.0,0.0,179.0,193.0,1.0,179.0,1744420415.5891116,0.0,2025-04-11 21:13:35.589,RIGHT,15
38.0,23748.393207596924,27993.235348848742,-32007.89922569981,-26132.474974688885,-36808.271623643835,-31228.113916887512,-12074.613520456973,-38831.39506952704,0.0,0.0,0.0,193.0,0.0,193.0,0.0,1.0,0.0,179.0,193.0,1.0,179.0,1744420415.5891626,0.0,2025-04-11 21:13:35.589,RIGHT,15
39.0,23731.539992277623,28011.675538024374,-31992.834149936934,-26109.162105222,-36789.22793736791,-31208.109105600015,-12397.104489458143,-38809.57976693866,0.0,0.0,0.0,193.0,0.0,193.0,0.0,1.0,0.0,179.0,193.0,1.0,179.0,1744420415.5892296,0.0,2025-04-11 21:13:35.589,RIGHT,15
40.0,23741.441815071325,28014.87183748148,-31990.777789447046,-26104.5129423753,-36790.65844901305,-31214.457001025323,-12379.31250087172,-38812.37373499558,0.0,0.0,0.0,193.0,0.0,193.0,0.0,1.0,0.0,179.0,193.0,1.0,179.0,1744420415.5892818,0.0,2025-04-11 21:13:35.589,RIGHT,15
41.0,23767.8615770175,28014.760078759205,-32006.28990009903,-26120.248570471835,-36806.863463743146,-31238.529829803687,-11909.747053354627,-38810.317374505685,0.0,0.0,0.0,193.0,0.0,193.0,0.0,1.0,0.0,179.0,193.0,1.0,179.0,1744420415.5893328,0.0,2025-04-11 21:13:35.589,RIGHT,15
42.0,23759.077341446562,27999.38207857395,-32003.361821575385,-26127.244666486346,-36799.465036328445,-31232.360748334024,-11995.264827640633,-38833.1161538501,0.0,0.0,0.0,193.0,0.0,194.0,0.0,1.0,0.0,180.0,194.0,1.0,180.0,1744420415.589386,0.0,2025-04-11 21:13:35.589,RIGHT,15
43.0,23730.712977732775,28006.333471099555,-32000.76901921857,-26117.521657648285,-36799.33092586171,-31221.721317973297,-12332.552651471216,-38818.58751995415,0.0,0.0,0.0,193.0,0.0,194.0,0.0,1.0,0.0,180.0,194.0,1.0,180.0,1744420415.5895147,0.0,2025-04-11 21:13:35.589,RIGHT,15
44.0,23734.468070801267,28019.565703817098,-31988.0508766235,-26102.03189874076,-36787.37274257812,-31207.706774199818,-12437.069408544232,-38808.30571750471,0.0,0.0,0.0,193.0,0.0,193.0,0.0,1.0,0.0,179.0,193.0,1.0,179.0,1744420415.5895588,0.0,2025-04-11 21:13:35.589,RIGHT,15
45.0,23761.491329847733,28019.006910205713,-32006.133437887842,-26115.64411111404,-36805.879986987115,-31232.51721054521,-11973.65069075235,-38795.74403712083,0.0,0.0,0.0,193.0,0.0,193.0,0.0,1.0,0.0,179.0,193.0,1.0,179.0,1744420415.589602,0.0,2025-04-11 21:13:35.589,RIGHT,15
46.0,23754.51758557768,27993.749438971216,-32016.325833359464,-26135.715977634907,-36815.15596093607,-31245.41416709592,-11959.099705111947,-38854.171497127,0.0,0.0,0.0,193.0,0.0,193.0,0.0,1.0,0.0,179.0,193.0,1.0,179.0,1744420415.5896444,0.0,2025-04-11 21:13:35.589,RIGHT,15
47.0,23732.299951589102,28005.21588387679,-32004.501760542604,-26114.88415180256,-36803.75657126386,-31223.062422640614,-12308.122194781567,-38832.87028466109,0.0,0.0,0.0,193.0,0.0,193.0,0.0,1.0,0.0,179.0,193.0,1.0,179.0,1744420415.589687,0.0,2025-04-11 21:13:35.589,RIGHT,15
48.0,23733.26107660068,28022.113802685002,-31987.536786501027,-26096.82394228267,-36783.90822218755,-31202.74468693074,-12471.759315938869,-38798.090970288635,0.0,0.0,0.0,193.0,0.0,194.0,0.0,1.0,0.0,179.0,194.0,1.0,179.0,1744420415.5897448,0.0,2025-04-11 21:13:35.589,RIGHT,15
49.0,23766.073437461073,28028.908732999414,-31993.594109248414,-26094.924044003972,-36789.47380655692,-31217.876817926983,-12038.694267117295,-38780.276629957756,0.0,0.0,0.0,193.0,0.0,194.0,0.0,0.0,0.0,179.0,194.0,0.0,179.0,1744420415.5897875,0.0,2025-04-11 21:13:35.589,RIGHT,15
50.0,23764.061780460095,28007.942796700336,-32003.898263442312,-26113.341881435143,-36797.72160026093,-31226.41518430891,-11889.943407767227,-38824.48838049035,0.0,0.0,0.0,193.0,0.0,193.0,0.0,1.0,0.0,179.0,193.0,1.0,179.0,1744420415.5898294,0.0,2025-04-11 21:13:35.589,RIGHT,15
51.0,23730.131832376937,27998.756229729206,-32002.28893784153,-26102.79185805224,-36793.60887928115,-31209.584320734066,-12206.309998787643,-38798.18037726646,0.0,0.0,0.0,193.0,0.0,193.0,0.0,1.0,0.0,179.0,193.0,1.0,179.0,1744420415.589872,0.0,2025-04-11 21:13:35.589,RIGHT,15
52.0,23727.226105597747,28020.325663128577,-31977.90318464079,-26082.518825831274,-36771.055969125744,-31189.64656467993,-12452.89444361859,-38787.42918818345,0.0,0.0,0.0,193.0,0.0,193.0,0.0,1.0,0.0,179.0,193.0,1.0,179.0,1744420415.5899148,0.0,2025-04-11 21:13:35.589,RIGHT,15
53.0,23755.56811756708,28022.58318931856,-31985.011039377576,-26086.899767744515,-36785.3834373216,-31209.047878867135,-12116.97007619978,-38771.22417345335,0.0,0.0,0.0,193.0,0.0,194.0,0.0,0.0,0.0,180.0,194.0,0.0,180.0,1744420415.5899568,0.0,2025-04-11 21:13:35.589,RIGHT,15
54.0,23763.12300719297,28006.266415866186,-32002.33364133044,-26114.906503547016,-36802.84014974119,-31231.354919833535,-11851.721924748652,-38821.87322638908,0.0,0.0,0.0,193.0,0.0,193.0,0.0,0.0,0.0,179.0,193.0,0.0,179.0,1744420415.5900197,0.0,2025-04-11 21:13:35.590,RIGHT,15
55.0,23741.97825693825,28011.228503135266,-31991.627155736347,-26099.72966906186,-36790.166710635036,-31209.27139631169,-12153.090495239556,-38813.49132221834,0.0,0.0,0.0,193.0,0.0,193.0,0.0,0.0,0.0,179.0,193.0,0.0,179.0,1744420415.590062,0.0,2025-04-11 21:13:35.590,RIGHT,15
56.0,23727.53903002012,28025.153639930923,-31979.668972452757,-26086.363325877588,-36778.90143142956,-31190.69709666933,-12447.865301116146,-38790.53608066274,0.0,0.0,0.0,193.0,0.0,193.0,0.0,0.0,0.0,179.0,193.0,0.0,179.0,1744420415.590104,0.0,2025-04-11 21:13:35.590,RIGHT,15
57.0,23746.806233740597,28023.58901781905,-31984.161673088274,-26086.273918899766,-36783.05885589825,-31204.801047420628,-12221.352722806065,-38781.371865436064,0.0,0.0,0.0,193.0,0.0,193.0,0.0,0.0,0.0,179.0,193.0,0.0,179.0,1744420415.5901456,0.0,2025-04-11 21:13:35.590,RIGHT,15
58.0,23756.5068908342,28006.981671688758,-32004.769981476067,-26116.091146003146,-36804.069495686235,-31231.354919833535,-11849.77732298104,-38820.666232188494,0.0,0.0,0.0,193.0,0.0,193.0,0.0,0.0,0.0,180.0,193.0,0.0,180.0,1744420415.5902016,0.0,2025-04-11 21:13:35.590,RIGHT,15
59.0,23732.858745200487,27991.849540692514,-32001.908958185788,-26113.766564579793,-36798.190986894486,-31219.821419694596,-12096.495878278718,-38827.25999680281,0.0,0.0,0.0,193.0,0.0,194.0,0.0,0.0,0.0,179.0,194.0,0.0,179.0,1744420415.5902436,0.0,2025-04-11 21:13:35.590,RIGHT,15
60.0,23720.230009583236,28013.866008980993,-31984.608707977382,-26094.722878303874,-36778.8790796851,-31197.916710128393,-12426.228812483409,-38806.271708759275,0.0,0.0,0.0,193.0,0.0,194.0,0.0,0.0,0.0,179.0,194.0,0.0,179.0,1744420415.5902855,0.0,2025-04-11 21:13:35.590,RIGHT,15
61.0,23741.821794727064,28020.79504976214,-31974.9974578616,-26082.362363620086,-36768.552573746754,-31192.641698436943,-12306.378758714052,-38777.41560666748,0.0,0.0,0.0,193.0,0.0,193.0,0.0,0.0,0.0,178.0,193.0,0.0,178.0,1744420415.5903273,0.0,2025-04-11 21:13:35.590,RIGHT,15
62.0,23759.59143156903,28005.97584318827,-32001.79719946351,-26113.945378535438,-36797.699248516474,-31225.968149419805,-11848.302107846988,-38797.308659232694,0.0,0.0,0.0,193.0,0.0,193.0,0.0,0.0,0.0,180.0,193.0,0.0,180.0,1744420415.5903692,0.0,2025-04-11 21:13:35.590,RIGHT,15
63.0,23742.112367404985,27990.910767425394,-31996.991574405623,-26117.58871288165,-36795.57583279322,-31216.066326626104,-12025.99847626668,-38814.92183386348,0.0,0.0,0.0,193.0,0.0,194.0,0.0,0.0,0.0,180.0,194.0,0.0,180.0,1744420415.5904238,0.0,2025-04-11 21:13:35.590,RIGHT,15
64.0,23726.17557360835,28012.524904313676,-31981.90414689829,-26096.86864577158,-36780.60016400816,-31193.73693391525,-12371.265872867809,-38789.59730739562,0.0,0.0,0.0,193.0,0.0,194.0,0.0,0.0,0.0,180.0,194.0,0.0,180.0,1744420415.590466,0.0,2025-04-11 21:13:35.590,RIGHT,15
65.0,23732.612876011477,28019.54335207264,-31980.8983183978,-26091.817151524683,-36780.287239585785,-31202.632928208463,-12371.869369968103,-38790.20080449591,0.0,0.0,0.0,193.0,0.0,194.0,0.0,0.0,0.0,179.0,194.0,0.0,179.0,1744420415.5905077,0.0,2025-04-11 21:13:35.590,RIGHT,15
66.0,23753.22118439927,28016.816439249094,-32004.61351926488,-26112.805439568216,-36807.489312587895,-31238.596885037052,-11902.102756750914,-38816.17353155298,0.0,0.0,0.0,193.0,0.0,194.0,0.0,0.0,0.0,179.0,194.0,0.0,179.0,1744420415.590568,0.0,2025-04-11 21:13:35.590,RIGHT,15
67.0,23745.04044592863,27999.337375085044,-32002.914786686277,-26117.767526837295,-36805.65646954256,-31227.868047698506,-11986.100612413957,-38837.74296495235,0.0,0.0,0.0,193.0,0.0,194.0,0.0,0.0,0.0,179.0,194.0,0.0,179.0,1744420415.5906184,0.0,2025-04-11 21:13:35.590,RIGHT,15
68.0,23722.755756706687,28014.313043870097,-31994.465827282173,-26101.40604989601,-36795.598184537674,-31206.14215208795,-12318.694569908926,-38801.667249401486,0.0,0.0,0.0,193.0,0.0,194.0,0.0,0.0,0.0,179.0,194.0,0.0,179.0,1744420415.5906687,0.0,2025-04-11 21:13:35.590,RIGHT,15
69.0,23727.36021606448,28026.87472425398,-31982.820568420957,-26088.754962534305,-36784.39996056556,-31196.530901972164,-12424.530079904805,-38790.42432194046,0.0,0.0,0.0,193.0,0.0,193.0,0.0,0.0,0.0,179.0,193.0,0.0,179.0,1744420415.5907347,0.0,2025-04-11 21:13:35.590,RIGHT,15
70.0,23747.476786074258,28018.090488683047,-32007.742763488623,-26106.703413331918,-36811.132646934115,-31229.70089074384,-11964.017088892113,-38790.84900508511,0.0,0.0,0.0,193.0,0.0,193.0,0.0,0.0,0.0,179.0,193.0,0.0,179.0,1744420415.5907855,0.0,2025-04-11 21:13:35.590,RIGHT,15
71.0,23746.31449536258,27996.96809017278,-32011.22963562365,-26118.818058826695,-36811.266757400845,-31231.354919833535,-11931.78587338756,-38834.01022362831,0.0,0.0,0.0,193.0,0.0,194.0,0.0,0.0,0.0,180.0,194.0,0.0,180.0,1744420415.5908353,0.0,2025-04-11 21:13:35.590,RIGHT,15
72.0,23724.007454396185,28005.662918765895,-32003.495932042115,-26103.954148763914,-36803.913033475044,-31212.914730657903,-12264.670403560449,-38817.738153664846,0.0,0.0,0.0,193.0,0.0,193.0,0.0,0.0,0.0,178.0,193.0,0.0,178.0,1744420415.5908856,0.0,2025-04-11 21:13:35.590,RIGHT,15
73.0,23723.918047418363,28028.4169946214,-31986.173330089252,-26085.98334622185,-36791.57487053572,-31196.08386708306,-12465.098496091188,-38805.578804681165,0.0,0.0,0.0,193.0,0.0,193.0,0.0,0.0,0.0,179.0,193.0,0.0,179.0,1744420415.5909522,0.0,2025-04-11 21:13:35.590,RIGHT,15
74.0,23751.99183845423,28031.903866756424,-31994.75639996009,-26086.251567155312,-36798.548614805775,-31213.786448691662,-12061.62715692844,-38783.763502092785,0.0,0.0,0.0,193.0,0.0,193.0,0.0,0.0,0.0,179.0,193.0,0.0,179.0,1744420415.5910025,0.0,2025-04-11 21:13:35.591,RIGHT,15
75.0,23753.914088477384,28011.340261857542,-32007.161618132788,-26111.173762222978,-36809.746838777886,-31228.73976573226,-11887.864695532882,-38831.05979336021,0.0,0.0,0.0,193.0,0.0,194.0,0.0,0.0,0.0,180.0,194.0,0.0,180.0,1744420415.5910523,0.0,2025-04-11 21:13:35.591,RIGHT,15
76.0,23728.701320731798,28011.07204092408,-31998.064458139477,-26097.472142871877,-36801.45434158496,-31211.08188761257,-12217.84349892658,-38822.834351400656,0.0,0.0,0.0,193.0,0.0,194.0,0.0,0.0,0.0,180.0,194.0,0.0,180.0,1744420415.5911024,0.0,2025-04-11 21:13:35.591,RIGHT,15
77.0,23716.63137872593,28022.69494804084,-31987.38032428984,-26083.50230258731,-36793.6312310256,-31196.307384527612,-12466.618414714148,-38811.233796028355,0.0,0.0,0.0,193.0,0.0,193.0,0.0,0.0,0.0,179.0,193.0,0.0,179.0,1744420415.5911524,0.0,2025-04-11 21:13:35.591,RIGHT,15
78.0,23742.157070893893,28026.852372509526,-31996.65629823879,-26086.765657277785,-36807.86929224364,-31214.94873940334,-12158.343155186552,-38801.443731956926,0.0,0.0,0.0,193.0,0.0,193.0,0.0,0.0,0.0,179.0,193.0,0.0,179.0,1744420415.5913088,0.0,2025-04-11 21:13:35.591,RIGHT,15
79.0,23753.89173673293,28010.133267656955,-32008.52507454456,-26111.173762222978,-36815.64769931408,-31232.56191403412,-11877.247616916611,-38840.00049114233,0.0,0.0,0.0,193.0,0.0,194.0,0.0,0.0,0.0,179.0,194.0,0.0,179.0,1744420415.59136,0.0,2025-04-11 21:13:35.591,RIGHT,15
80.0,23728.321341076058,28000.745534985726,-32004.322946586963,-26103.283596430254,-36806.52818757632,-31222.838905196062,-12164.556940145128,-38844.224970844385,0.0,0.0,0.0,193.0,0.0,194.0,0.0,0.0,0.0,179.0,194.0,0.0,179.0,1744420415.5914102,0.0,2025-04-11 21:13:35.591,RIGHT,15
81.0,23710.50700074518,28015.296520626132,-31992.074190625455,-26086.16216017749,-36794.413542081544,-31201.045954352136,-12451.978022095922,-38811.367906495085,0.0,0.0,0.0,193.0,0.0,194.0,0.0,0.0,0.0,179.0,194.0,0.0,179.0,1744420415.5914602,0.0,2025-04-11 21:13:35.591,RIGHT,15
82.0,23730.42240505486,28015.542389815142,-31993.303536570496,-26083.032915953747,-36796.9839926939,-31209.919596900894,-12241.13401664901,-38788.7032376174,0.0,0.0,0.0,193.0,0.0,194.0,0.0,0.0,0.0,179.0,194.0,0.0,179.0,1744420415.59151,0.0,2025-04-11 21:13:35.591,RIGHT,15
83.0,23754.495233833222,28010.647357779428,-32006.178141376753,-26101.83073304066,-36811.80319926777,-31229.3209110881,-11873.090192447924,-38826.92472063598,0.0,0.0,0.0,193.0,0.0,194.0,0.0,0.0,0.0,180.0,194.0,0.0,180.0,1744420415.5915604,0.0,2025-04-11 21:13:35.591,RIGHT,15
84.0,23731.785861466633,27996.632814005952,-32001.640737252324,-26096.242796926832,-36800.11323691765,-31213.13824810246,-12103.402567315408,-38826.3659270246,0.0,0.0,0.0,193.0,0.0,194.0,0.0,0.0,0.0,179.0,194.0,0.0,179.0,1744420415.591641,0.0,2025-04-11 21:13:35.591,RIGHT,15
85.0,23707.511866988167,28006.534636799654,-31993.39294354832,-26083.479950842855,-36790.45728331295,-31193.84869263753,-12411.320198931719,-38790.08904577363,0.0,0.0,0.0,193.0,0.0,193.0,0.0,0.0,0.0,179.0,193.0,0.0,179.0,1744420415.5916831,0.0,2025-04-11 21:13:35.591,RIGHT,15
86.0,23719.090070616017,28007.87574146697,-31992.208301092185,-26082.16119791999,-36789.54086179029,-31200.464808996298,-12320.460357720895,-38781.26010671379,0.0,0.0,0.0,193.0,0.0,193.0,0.0,0.0,0.0,179.0,193.0,0.0,179.0,1744420415.5917249,0.0,2025-04-11 21:13:35.591,RIGHT,15
87.0,23739.184288881337,28000.67847975236,-32010.737897245635,-26107.35161392112,-36804.58358580871,-31228.89622794345,-11859.58973879692,-38804.0588860582,0.0,0.0,0.0,193.0,0.0,193.0,0.0,0.0,0.0,179.0,193.0,0.0,179.0,1744420415.5917666,0.0,2025-04-11 21:13:35.591,RIGHT,15
88.0,23731.6517509999,27990.59784300302,-31995.47165578266,-26099.77437255077,-36788.982068178906,-31206.030393365672,-12030.401769924376,-38820.174493810475,0.0,0.0,0.0,193.0,0.0,193.0,0.0,0.0,0.0,179.0,193.0,0.0,179.0,1744420415.5918217,0.0,2025-04-11 21:13:35.591,RIGHT,15
89.0,23715.84906767,28011.40731709091,-31984.653411466294,-26085.3574973771,-36774.47578602741,-31190.339468758044,-12357.698363983436,-38794.82761559816,0.0,0.0,0.0,193.0,0.0,194.0,0.0,0.0,0.0,179.0,194.0,0.0,179.0,1744420415.5918639,0.0,2025-04-11 21:13:35.591,RIGHT,15
90.0,23721.571114250557,28015.385927603955,-31982.351181787395,-26082.07179094217,-36775.34750406117,-31191.099428069527,-12362.34752683014,-38773.81697581017,0.0,0.0,0.0,193.0,0.0,193.0,0.0,0.0,0.0,179.0,193.0,0.0,179.0,1744420415.5919054,0.0,2025-04-11 21:13:35.591,RIGHT,15
91.0,23752.46122508779,28012.077869424567,-31997.885644183832,-26095.751058548816,-36793.363010092144,-31218.145038860446,-11887.417660643776,-38769.7489583193,0.0,0.0,0.0,193.0,0.0,193.0,0.0,0.0,0.0,179.0,193.0,0.0,179.0,1744420415.5919473,0.0,2025-04-11 21:13:35.591,RIGHT,15
92.0,23739.117233647972,27989.279090080156,-32004.0547256535,-26112.26899770129,-36798.0345246833,-31224.738803474764,-11951.3212980415,-38820.666232188494,0.0,0.0,0.0,193.0,0.0,193.0,0.0,0.0,0.0,179.0,193.0,0.0,179.0,1744420416.065686,0.0,2025-04-11 21:13:36.065,RIGHT,15
93.0,23714.3962042804,28000.320851841076,-31997.997402906112,-26099.394392895032,-36793.1841961365,-31209.22669282278,-12304.0541772907,-38806.22700527037,0.0,0.0,0.0,193.0,0.0,193.0,0.0,0.0,0.0,179.0,193.0,0.0,179.0,1744420416.0661335,0.0,2025-04-11 21:13:36.066,RIGHT,15
94.0,23713.435079268824,28021.82323000708,-31988.65437372379,-26089.537273590242,-36785.09286464368,-31203.750515431228,-12429.246297984875,-38802.53896743524,0.0,0.0,0.0,193.0,0.0,193.0,0.0,0.0,0.0,179.0,193.0,0.0,179.0,1744420416.0662034,0.0,2025-04-11 21:13:36.066,RIGHT,15
95.0,23748.03557968564,28025.824192264583,-31996.455132538693,-26090.25252941281,-36796.1346264046,-31219.486143527767,-11984.178362390801,-38785.77515909376,0.0,0.0,0.0,193.0,0.0,194.0,0.0,0.0,0.0,179.0,194.0,0.0,179.0,1744420416.066262,0.0,2025-04-11 21:13:36.066,RIGHT,15
96.0,23741.30770460459,28000.857293708003,-32003.8535599534,-26104.848218542127,-36801.63315554061,-31222.61538775151,-11921.705236638218,-38823.616662456596,0.0,0.0,0.0,193.0,0.0,194.0,0.0,0.0,0.0,180.0,194.0,0.0,180.0,1744420416.0663176,0.0,2025-04-11 21:13:36.066,RIGHT,15
97.0,23718.151297348893,28006.042898421634,-31998.936176173233,-26093.001793980813,-36793.6312310256,-31208.22086432229,-12250.633508042516,-38806.85285411512,0.0,0.0,0.0,193.0,0.0,193.0,0.0,0.0,0.0,179.0,193.0,0.0,179.0,1744420416.0663793,0.0,2025-04-11 21:13:36.066,RIGHT,15
98.0,23722.286370073125,28024.572494575084,-31984.18402483273,-26079.4566368409,-36779.9296116745,-31194.496893226733,-12453.408533741062,-38801.60019416812,0.0,0.0,0.0,193.0,0.0,194.0,0.0,0.0,0.0,179.0,194.0,0.0,179.0,1744420416.0664785,0.0,2025-04-11 21:13:36.066,RIGHT,15
99.0,23746.247440129217,28028.037014965656,-31994.130551115344,-26082.11649443108,-36790.65844901305,-31213.629986480475,-12067.57272095355,-38783.830557326146,0.0,0.0,0.0,193.0,0.0,193.0,0.0,0.0,0.0,179.0,193.0,0.0,179.0,1744420416.066694,0.0,2025-04-11 21:13:36.066,RIGHT,15
100.0,23749.153166908403,28010.93793045735,-32008.279205355553,-26108.78212556626,-36803.10837067466,-31228.13626863197,-11886.367128654378,-38830.23277881536,0.0,0.0,0.0,193.0,0.0,193.0,0.0,0.0,0.0,179.0,193.0,0.0,179.0,1744420416.0667653,0.0,2025-04-11 21:13:36.066,RIGHT,15
101.0,23720.92291366135,28005.104125154514,-32004.948795431712,-26102.523637118775,-36797.60984153865,-31215.708698714818,-12201.526725474207,-38818.18518855395,0.0,0.0,0.0,193.0,0.0,193.0,0.0,0.0,0.0,179.0,193.0,0.0,179.0,1744420416.0668166,0.0,2025-04-11 21:13:36.066,RIGHT,15
102.0,23705.097878586996,28011.452020579818,-31999.629080251347,-26099.30498591721,-36790.8819664576,-31209.718431200796,-12457.27538553183,-38810.65265067251,0.0,0.0,0.0,193.0,0.0,194.0,0.0,0.0,0.0,179.0,194.0,0.0,179.0,1744420416.0669088,0.0,2025-04-11 21:13:36.066,RIGHT,15
103.0,23732.568172522566,28017.218770649288,-32003.115952386375,-26098.388564394543,-36799.82266423973,-31218.100335371535,-12176.470419939807,-38792.72655161936,0.0,0.0,0.0,193.0,0.0,194.0,0.0,0.0,0.0,180.0,194.0,0.0,180.0,1744420416.0669558,0.0,2025-04-11 21:13:36.066,RIGHT,15
104.0,23746.739178507232,28006.713450755295,-32012.324871101962,-26117.745175092838,-36809.12098993314,-31234.66297801292,-11883.126125708357,-38841.989796398855,0.0,0.0,0.0,193.0,0.0,193.0,0.0,0.0,0.0,179.0,193.0,0.0,179.0,1744420416.067001,0.0,2025-04-11 21:13:36.067,RIGHT,15
105.0,23722.822811940052,27998.264491351187,-32008.61448152238,-26110.994948267336,-36802.393114852086,-31222.056594140126,-12163.953443044835,-38839.73227020887,0.0,0.0,0.0,193.0,0.0,193.0,0.0,0.0,0.0,179.0,193.0,0.0,179.0,1744420416.067047,0.0,2025-04-11 21:13:36.067,RIGHT,15
106.0,23706.12605883194,28015.63179679296,-32001.774847719058,-26098.67913707246,-36791.10548390216,-31198.967242117793,-12439.952783578967,-38790.49137717383,0.0,0.0,0.0,193.0,0.0,193.0,0.0,0.0,0.0,179.0,193.0,0.0,179.0,1744420416.0670912,0.0,2025-04-11 21:13:36.067,RIGHT,15
107.0,23727.11434687547,28021.376195117977,-32002.065420396975,-26095.81811378218,-36792.04425716928,-31204.84575090954,-12247.727781263326,-38773.16877522097,0.0,0.0,0.0,193.0,0.0,193.0,0.0,0.0,0.0,179.0,193.0,0.0,179.0,1744420416.0671372,0.0,2025-04-11 21:13:36.067,RIGHT,15
108.0,23746.538012807134,28007.45105832232,-32019.142153160832,-26123.444869928942,-36809.23274865541,-31232.763079734217,-11856.102866661891,-38807.90338610451,0.0,0.0,0.0,193.0,0.0,194.0,0.0,0.0,0.0,179.0,194.0,0.0,179.0,1744420416.0672023,0.0,2025-04-11 21:13:36.067,RIGHT,15
109.0,23728.880134687442,27993.4588662933,-32014.13536240284,-26121.07558501668,-36805.36589686464,-31221.229579595278,-12073.160657067378,-38811.658479173006,0.0,0.0,0.0,193.0,0.0,193.0,0.0,0.0,0.0,179.0,193.0,0.0,179.0,1744420416.067246,0.0,2025-04-11 21:13:36.067,RIGHT,15
110.0,23711.6469397124,28013.195456647332,-31996.253966838598,-26098.477971372366,-36786.47867279991,-31197.827303150574,-12397.88680051408,-38789.77612135126,0.0,0.0,0.0,193.0,0.0,193.0,0.0,0.0,0.0,179.0,193.0,0.0,179.0,1744420416.0672896,0.0,2025-04-11 21:13:36.067,RIGHT,15
111.0,23720.36412004997,28017.12936367147,-31994.488179026626,-26091.50422710231,-36790.367876335134,-31205.918634643393,-12328.685799680448,-38790.737246362834,0.0,0.0,0.0,193.0,0.0,193.0,0.0,0.0,0.0,179.0,193.0,0.0,179.0,1744420416.0673327,0.0,2025-04-11 21:13:36.067,RIGHT,15
112.0,23742.98408543874,28008.50159031172,-32012.973071691165,-26107.59748311013,-36812.47375160143,-31225.141134874957,-11870.20681741319,-38793.35240046411,0.0,0.0,0.0,193.0,0.0,194.0,0.0,0.0,0.0,179.0,194.0,0.0,179.0,1744420416.0673757,0.0,2025-04-11 21:13:36.067,RIGHT,15
113.0,23736.904410946896,27993.369459315476,-32006.178141376753,-26106.815172054194,-36803.86832998614,-31212.71356495781,-12007.04419696858,-38808.797455882726,0.0,0.0,0.0,193.0,0.0,193.0,0.0,0.0,0.0,179.0,193.0,0.0,179.0,1744420416.067418,0.0,2025-04-11 21:13:36.067,RIGHT,15
114.0,23713.725651946745,28009.216846134288,-31997.52801627255,-26091.057192213204,-36793.921803703524,-31198.207282806314,-12349.651735979527,-38795.31935397618,0.0,0.0,0.0,193.0,0.0,193.0,0.0,0.0,0.0,179.0,193.0,0.0,179.0,1744420416.0674767,0.0,2025-04-11 21:13:36.067,RIGHT,15
115.0,23723.716881718265,28018.381061360964,-31989.52609175755,-26083.658764798496,-36786.56807977773,-31195.927404871873,-12394.712852801425,-38791.586612652136,0.0,0.0,0.0,193.0,0.0,193.0,0.0,0.0,0.0,179.0,193.0,0.0,179.0,1744420416.06752,0.0,2025-04-11 21:13:36.067,RIGHT,15
116.0,23744.012265683683,28011.92140721338,-32016.9069787153,-26108.871532544083,-36813.90426324657,-31235.065309413116,-11913.144518511835,-38803.410685468996,0.0,0.0,0.0,193.0,0.0,193.0,0.0,0.0,0.0,179.0,193.0,0.0,179.0,1744420416.067562,0.0,2025-04-11 21:13:36.067,RIGHT,15
117.0,23736.256210357693,27991.380154058952,-32013.28599611354,-26116.26995995879,-36807.75753352136,-31225.18583836387,-11965.268786581611,-38837.810020185716,0.0,0.0,0.0,193.0,0.0,194.0,0.0,0.0,0.0,179.0,194.0,0.0,179.0,1744420416.06762,0.0,2025-04-11 21:13:36.067,RIGHT,15
118.0,23717.70426245979,27998.890340195936,-32005.172312876264,-26101.07077372918,-36796.156978149054,-31204.08579159806,-12309.552706426706,-38802.6060226686,0.0,0.0,0.0,193.0,0.0,193.0,0.0,0.0,0.0,179.0,193.0,0.0,179.0,1744420416.0676627,0.0,2025-04-11 21:13:36.067,RIGHT,15
119.0,23714.060928113573,28007.316947855586,-32000.74666747411,-26096.287500415743,-36790.72550424642,-31201.023602607682,-12442.724399891425,-38797.040438299235,0.0,0.0,0.0,193.0,0.0,193.0,0.0,0.0,0.0,179.0,193.0,0.0,179.0,1744420416.067706,0.0,2025-04-11 21:13:36.067,RIGHT,15
120.0,23743.095844161016,28011.49672406873,-32013.62127228037,-26103.551817363717,-36800.493216573384,-31225.252893597233,-11992.381452605898,-38787.58565039464,0.0,0.0,0.0,193.0,0.0,193.0,0.0,0.0,0.0,178.0,193.0,0.0,178.0,1744420416.0677483,0.0,2025-04-11 21:13:36.067,RIGHT,15
121.0,23742.022960427163,27993.63768024894,-32019.09744967192,-26119.801535582727,-36801.78961775179,-31229.27620759919,-11915.312637723999,-38830.74686893784,0.0,0.0,0.0,193.0,0.0,194.0,0.0,0.0,0.0,179.0,194.0,0.0,179.0,1744420416.0677917,0.0,2025-04-11 21:13:36.067,RIGHT,15
122.0,23714.440907769313,27996.87868319496,-32010.804952479,-26104.848218542127,-36791.86544321364,-31207.639718966453,-12241.223423626832,-38800.259089500796,0.0,0.0,0.0,193.0,0.0,194.0,0.0,0.0,0.0,179.0,194.0,0.0,179.0,1744420416.0678344,0.0,2025-04-11 21:13:36.067,RIGHT,15
123.0,23710.149372833894,28016.2129421488,-31997.840940694925,-26089.11259044559,-36780.577812263706,-31193.80398914862,-12446.635955171103,-38783.763502092785,0.0,0.0,0.0,193.0,0.0,193.0,0.0,0.0,0.0,179.0,193.0,0.0,179.0,1744420416.067893,0.0,2025-04-11 21:13:36.067,RIGHT,15
124.0,23737.440852813823,28028.39464287694,-32003.071248897464,-26084.195206665423,-36794.74881824837,-31207.03622186616,-12081.475506004752,-38768.6984263299,0.0,0.0,0.0,193.0,0.0,193.0,0.0,0.0,0.0,179.0,193.0,0.0,179.0,1744420416.067937,0.0,2025-04-11 21:13:36.067,RIGHT,15
125.0,23739.139585392426,28009.708584512304,-32020.595016550425,-26112.35840467911,-36811.825551012225,-31226.124611630992,-11877.426430872254,-38814.363040252094,0.0,0.0,0.0,193.0,0.0,193.0,0.0,0.0,0.0,179.0,193.0,0.0,179.0,1744420416.0679796,0.0,2025-04-11 21:13:36.067,RIGHT,15
126.0,23715.916122903363,27998.488008795743,-32011.29669085702,-26095.348727148623,-36799.308574117254,-31206.008041621215,-12181.946597331358,-38801.42138021247,0.0,0.0,0.0,193.0,0.0,194.0,0.0,0.0,0.0,179.0,194.0,0.0,179.0,1744420416.0680225,0.0,2025-04-11 21:13:36.068,RIGHT,15
127.0,23709.590579222513,28012.63666303595,-31997.885644183832,-26079.054305440703,-36789.27264085682,-31197.581433961564,-12453.743809907892,-38800.63906915654,0.0,0.0,0.0,193.0,0.0,193.0,0.0,0.0,0.0,179.0,193.0,0.0,179.0,1744420416.0680647,0.0,2025-04-11 21:13:36.068,RIGHT,15
128.0,23736.54678303561,28016.816439249094,-31999.606728506893,-26077.132055417547,-36794.2347281259,-31208.80200967813,-12187.154553789444,-38788.88205157305,0.0,0.0,0.0,193.0,0.0,193.0,0.0,0.0,0.0,179.0,193.0,0.0,179.0,1744420416.068107,0.0,2025-04-11 21:13:36.068,RIGHT,15
129.0,23748.907297719397,28000.901997196914,-32013.442458324727,-26102.50128537432,-36806.55053932077,-31220.067288883605,-11849.352639836388,-38797.62158365507,0.0,0.0,0.0,193.0,0.0,193.0,0.0,0.0,0.0,178.0,193.0,0.0,178.0,1744420416.0681648,0.0,2025-04-11 21:13:36.068,RIGHT,15
130.0,23726.73436721973,27994.419991304876,-32004.61351926488,-26094.141732948035,-36795.79935023777,-31202.40941076391,-12118.557050056106,-38793.15123476401,0.0,0.0,0.0,193.0,0.0,193.0,0.0,0.0,0.0,180.0,193.0,0.0,180.0,1744420416.0682075,0.0,2025-04-11 21:13:36.068,RIGHT,15
131.0,23708.093012344005,28012.234331635755,-31992.81179819248,-26078.942546718426,-36780.82368145272,-31186.003230333714,-12415.857603056145,-38770.195993208414,0.0,0.0,0.0,193.0,0.0,194.0,0.0,0.0,0.0,179.0,194.0,0.0,179.0,1744420416.0682502,0.0,2025-04-11 21:13:36.068,RIGHT,15
132.0,23728.388396309423,28020.705642784316,-31992.09654236991,-26075.858005983595,-36784.89169894358,-31194.943928115837,-12254.142731922,-38760.964722748366,0.0,0.0,0.0,193.0,0.0,193.0,0.0,0.0,0.0,179.0,193.0,0.0,179.0,1744420416.0683072,0.0,2025-04-11 21:13:36.068,RIGHT,15
133.0,23749.443739586324,28012.055517680114,-32011.743725746124,-26102.83656154115,-36805.76822826484,-31222.280111584678,-11852.951270693693,-38794.78291210925,0.0,0.0,0.0,193.0,0.0,193.0,0.0,0.0,0.0,179.0,193.0,0.0,179.0,1744420416.0683494,0.0,2025-04-11 21:13:36.068,RIGHT,15
134.0,23733.618704511966,27993.794142460127,-32007.698059999715,-26105.094087731137,-36797.47573107192,-31217.206265593326,-12065.494008719208,-38818.96749960989,0.0,0.0,0.0,193.0,0.0,193.0,0.0,0.0,0.0,179.0,193.0,0.0,179.0,1744420416.0683928,0.0,2025-04-11 21:13:36.068,RIGHT,15
135.0,23708.31652978856,28000.767886730184,-31998.28797558403,-26093.3594218921,-36788.75855073435,-31200.621271207485,-12397.126841202598,-38798.806226111206,0.0,0.0,0.0,193.0,0.0,194.0,0.0,0.0,0.0,179.0,194.0,0.0,179.0,1744420416.068436,0.0,2025-04-11 21:13:36.068,RIGHT,15
136.0,23718.93360840483,28008.479238567263,-31991.47069352516,-26083.323488631668,-36782.52241403132,-31194.385134504457,-12351.0151923913,-38777.884993301035,0.0,0.0,0.0,193.0,0.0,193.0,0.0,0.0,0.0,179.0,193.0,0.0,179.0,1744420416.0684836,0.0,2025-04-11 21:13:36.068,RIGHT,15
137.0,23748.03557968564,28009.038032178647,-32008.346260588918,-26096.578073093664,-36802.19194915199,-31215.708698714818,-11879.438087873232,-38780.70131310241,0.0,0.0,0.0,193.0,0.0,193.0,0.0,0.0,0.0,179.0,193.0,0.0,179.0,1744420416.0685408,0.0,2025-04-11 21:13:36.068,RIGHT,15
138.0,23730.914143432874,27990.329622069556,-32011.38609783484,-26102.54598886323,-36803.86832998614,-31214.099373114037,-11995.80126950756,-38810.40678148351,0.0,0.0,0.0,193.0,0.0,193.0,0.0,0.0,0.0,179.0,193.0,0.0,179.0,1744420416.0685835,0.0,2025-04-11 21:13:36.068,RIGHT,15
139.0,23703.756773919675,27999.49383729623,-32002.490103541626,-26085.469256099375,-36792.29012635829,-31199.213111306803,-12343.281488809764,-38795.60992665409,0.0,0.0,0.0,193.0,0.0,193.0,0.0,0.0,0.0,179.0,193.0,0.0,179.0,1744420416.0686257,0.0,2025-04-11 21:13:36.068,RIGHT,15
140.0,23710.350538533992,28007.24989262222,-31992.431818536737,-26074.136921660534,-36782.678876242506,-31195.07803858257,-12398.624408081105,-38780.477795657855,0.0,0.0,0.0,193.0,0.0,193.0,0.0,0.0,0.0,179.0,193.0,0.0,179.0,1744420416.068668,0.0,2025-04-11 21:13:36.068,RIGHT,15
141.0,23732.523469033655,28002.578378031063,-32016.974033948667,-26096.08633471565,-36811.065591700746,-31232.740727989763,-11929.327181497478,-38791.385446952045,0.0,0.0,0.0,193.0,0.0,193.0,0.0,0.0,0.0,179.0,193.0,0.0,179.0,1744420416.0687096,0.0,2025-04-11 21:13:36.068,RIGHT,15
142.0,23733.439890556325,27987.82622669056,-32013.800086236013,-26103.529465619264,-36807.26579514334,-31224.537637774665,-11956.663364966318,-38830.948034637935,0.0,0.0,0.0,193.0,0.0,193.0,0.0,0.0,0.0,179.0,193.0,0.0,179.0,1744420416.0687518,0.0,2025-04-11 21:13:36.068,RIGHT,15
143.0,23715.35732929198,27999.87381695197,-31998.10916162839,-26082.272956642268,-36790.993725179884,-31199.54838747363,-12302.646017390016,-38801.644897657025,0.0,0.0,0.0,193.0,0.0,193.0,0.0,0.0,0.0,179.0,193.0,0.0,179.0,1744420416.0687935,0.0,2025-04-11 21:13:36.068,RIGHT,15
144.0,23713.97152113575,28012.100221169025,-31986.173330089252,-26071.63352628154,-36779.75079771886,-31191.814683892095,-12441.092722546187,-38788.926755061955,0.0,0.0,0.0,193.0,0.0,194.0,0.0,0.0,0.0,179.0,194.0,0.0,179.0,1744420416.0689633,0.0,2025-04-11 21:13:36.068,RIGHT,15
145.0,23737.574963280556,28006.802857733117,-32006.267548354575,-26084.53048283225,-36805.16473116454,-31221.207227850824,-11999.802231765061,-38784.12113000407,0.0,0.0,0.0,193.0,0.0,193.0,0.0,0.0,0.0,179.0,193.0,0.0,179.0,1744420416.0690064,0.0,2025-04-11 21:13:36.069,RIGHT,15
146.0,23740.54774529311,27993.68238373785,-32008.167446633277,-26096.198093437924,-36803.018963696835,-31213.07119286909,-11906.081367263958,-38805.06471455869,0.0,0.0,0.0,193.0,0.0,193.0,0.0,0.0,0.0,179.0,193.0,0.0,179.0,1744420416.0690484,0.0,2025-04-11 21:13:36.069,RIGHT,15
147.0,23714.88794265842,27998.756229729206,-32000.366687818372,-26083.792875265226,-36788.892661201084,-31199.16840781789,-12223.520842018228,-38789.53025216225,0.0,0.0,0.0,193.0,0.0,193.0,0.0,0.0,0.0,179.0,193.0,0.0,179.0,1744420416.069108,0.0,2025-04-11 21:13:36.069,RIGHT,15
148.0,23700.314605273557,28007.696927511326,-31997.572719761458,-26083.68111654295,-36787.61861176713,-31200.777733418672,-12448.669963916536,-38802.87424360207,0.0,0.0,0.0,193.0,0.0,193.0,0.0,0.0,0.0,178.0,193.0,0.0,178.0,1744420416.0691504,0.0,2025-04-11 21:13:36.069,RIGHT,15
149.0,23726.242628841715,28010.289729868142,-32001.52897853005,-26081.378886864055,-36794.59235603719,-31207.259739310713,-12098.753404468705,-38771.313580431175,0.0,0.0,0.0,193.0,0.0,193.0,0.0,0.0,0.0,180.0,193.0,0.0,180.0,1744420416.0691922,0.0,2025-04-11 21:13:36.069,RIGHT,15
150.0,23738.02199816966,27994.64350874943,-32007.876873955356,-26097.382735894054,-36800.96260320695,-31212.668861468897,-11853.085381160425,-38790.759598107295,0.0,0.0,0.0,193.0,0.0,193.0,0.0,0.0,0.0,179.0,193.0,0.0,179.0,1744420416.0692344,0.0,2025-04-11 21:13:36.069,RIGHT,15
151.0,23716.854896170487,27995.425819805365,-31999.04793489551,-26081.49064558633,-36794.480597314905,-31194.74276241574,-12152.777570817181,-38782.55650789219,0.0,0.0,0.0,193.0,0.0,194.0,0.0,0.0,0.0,179.0,194.0,0.0,179.0,1744420416.069276,0.0,2025-04-11 21:13:36.069,RIGHT,15
152.0,23704.427326253335,28009.44036357884,-31986.82153067846,-26067.230232623846,-36780.04137039678,-31181.46582620929,-12438.030533555811,-38769.48073738584,0.0,0.0,0.0,193.0,0.0,193.0,0.0,0.0,0.0,179.0,193.0,0.0,179.0,1744420416.0693321,0.0,2025-04-11 21:13:36.069,RIGHT,15
153.0,23728.678968987344,28014.760078759205,-31990.733085958134,-26065.240927367322,-36779.862556441134,-31189.5124542132,-12161.74062034376,-38741.80927775017,0.0,0.0,0.0,193.0,0.0,193.0,0.0,0.0,0.0,179.0,193.0,0.0,179.0,1744420416.0693743,0.0,2025-04-11 21:13:36.069,RIGHT,15
154.0,23743.386416838937,28002.1089913975,-32007.94392918872,-26089.894901501528,-36799.241518883886,-31207.483256755266,-11825.52568024703,-38774.93456303293,0.0,0.0,0.0,193.0,0.0,194.0,0.0,0.0,0.0,180.0,194.0,0.0,180.0,1744420416.0694163,0.0,2025-04-11 21:13:36.069,RIGHT,15
155.0,23715.044404869608,27991.268395336676,-32010.24615886762,-26091.21365442439,-36799.04035318379,-31204.443419509345,-12095.11007012249,-38793.03947604173,0.0,0.0,0.0,193.0,0.0,194.0,0.0,0.0,0.0,179.0,194.0,0.0,179.0,1744420416.0694585,0.0,2025-04-11 21:13:36.069,RIGHT,15
156.0,23708.540047233113,28022.180857918367,-31991.783617947534,-26072.19231989292,-36779.43787329648,-31181.778750631664,-12423.256030470853,-38775.44865315541,0.0,0.0,0.0,193.0,0.0,193.0,0.0,0.0,0.0,179.0,193.0,0.0,179.0,1744420416.0695224,0.0,2025-04-11 21:13:36.069,RIGHT,15
157.0,23728.45545154279,28019.319834628088,-31990.308402813484,-26066.582032034643,-36782.254193097855,-31188.528977457165,-12277.634415344528,-38760.85296402609,0.0,0.0,0.0,193.0,0.0,193.0,0.0,0.0,0.0,179.0,193.0,0.0,179.0,1744420416.069594,0.0,2025-04-11 21:13:36.069,RIGHT,15
158.0,23744.146376150416,28001.773715230673,-32010.804952479,-26094.141732948035,-36804.60593755316,-31214.74757370324,-11860.506160319586,-38783.67409511496,0.0,0.0,0.0,193.0,0.0,193.0,0.0,0.0,0.0,179.0,193.0,0.0,179.0,1744420416.0696464,0.0,2025-04-11 21:13:36.069,RIGHT,15
159.0,23717.68191071533,27979.041991119622,-32012.794257735524,-26103.417706896988,-36800.38145785111,-31212.735916702262,-12046.651488143383,-38802.78483662425,0.0,0.0,0.0,193.0,0.0,194.0,0.0,0.0,0.0,180.0,194.0,0.0,180.0,1744420416.06972,0.0,2025-04-11 21:13:36.069,RIGHT,15
160.0,23698.63822443941,27993.615328504486,-31999.47261804016,-26087.190340422436,-36784.51171928784,-31194.921576371384,-12380.675957283493,-38780.187222979934,0.0,0.0,0.0,193.0,0.0,193.0,0.0,0.0,0.0,179.0,193.0,0.0,179.0,1744420416.0697687,0.0,2025-04-11 21:13:36.069,RIGHT,15
161.0,23709.948207133795,28000.343203585533,-31993.884681926334,-26080.44011359693,-36780.95779191945,-31198.542558973142,-12354.30089882623,-38781.304810202695,0.0,0.0,0.0,193.0,0.0,194.0,0.0,0.0,0.0,179.0,194.0,0.0,179.0,1744420416.0698156,0.0,2025-04-11 21:13:36.069,RIGHT,15
162.0,23738.17846038085,27998.19743611782,-32012.72720250216,-26100.266110928787,-36804.02479219733,-31227.376309320487,-11887.574122854963,-38795.47581618736,0.0,0.0,0.0,193.0,0.0,193.0,0.0,0.0,0.0,179.0,193.0,0.0,179.0,1744420416.0698817,0.0,2025-04-11 21:13:36.069,RIGHT,15
163.0,23733.50694578969,27986.194549345324,-32006.938100688232,-26098.187398694445,-36801.119065418134,-31213.451172524834,-11997.835278252993,-38812.37373499558,0.0,0.0,0.0,193.0,0.0,193.0,0.0,0.0,0.0,178.0,193.0,0.0,178.0,1744420416.0699296,0.0,2025-04-11 21:13:36.069,RIGHT,15
164.0,23708.137715832916,28000.16438962989,-31996.43278079424,-26076.461503083887,-36790.27846935731,-31191.07707632507,-12334.899584639024,-38775.38159792204,0.0,0.0,0.0,193.0,0.0,194.0,0.0,0.0,0.0,180.0,194.0,0.0,180.0,1744420416.0699763,0.0,2025-04-11 21:13:36.069,RIGHT,15
165.0,23710.954035634284,28015.743555515237,-31986.82153067846,-26061.843462210116,-36784.73523673239,-31179.856500608505,-12409.93439077549,-38764.80922279468,0.0,0.0,0.0,193.0,0.0,193.0,0.0,0.0,0.0,179.0,193.0,0.0,179.0,1744420416.0700235,0.0,2025-04-11 21:13:36.070,RIGHT,15
166.0,23740.056006915096,28014.245988636732,-32004.971147176166,-26074.24868038281,-36806.88581548761,-31206.879759654974,-11961.245472579656,-38775.98509502233,0.0,0.0,0.0,193.0,0.0,193.0,0.0,0.0,0.0,179.0,193.0,0.0,179.0,1744420416.070079,0.0,2025-04-11 21:13:36.070,RIGHT,15
167.0,23733.26107660068,27988.519130768673,-32009.352089089407,-26090.341936390632,-36804.80710325326,-31209.114934100504,-11951.83538816397,-38811.47966521736,0.0,0.0,0.0,193.0,0.0,193.0,0.0,0.0,0.0,179.0,193.0,0.0,179.0,1744420416.0701427,0.0,2025-04-11 21:13:36.070,RIGHT,15
168.0,23706.193114065303,27993.749438971216,-31999.56202501798,-26072.39348559302,-36787.03746641129,-31185.98087858926,-12263.910444248968,-38779.02493226826,0.0,0.0,0.0,193.0,0.0,193.0,0.0,0.0,0.0,179.0,193.0,0.0,179.0,1744420416.0701902,0.0,2025-04-11 21:13:36.070,RIGHT,15
169.0,23710.484649000722,28008.92627345637,-31983.982859132633,-26053.618020250564,-36775.4816145279,-31171.65341039341,-12428.620449140126,-38770.754786819794,0.0,0.0,0.0,193.0,0.0,194.0,0.0,0.0,0.0,179.0,194.0,0.0,179.0,1744420416.0702372,0.0,2025-04-11 21:13:36.070,RIGHT,15
170.0,23739.87719295945,28010.826171735072,-31999.629080251347,-26064.995058178316,-36796.648716527074,-31194.340431015546,-12013.213278438245,-38753.9462749894,0.0,0.0,0.0,193.0,0.0,194.0,0.0,0.0,0.0,179.0,194.0,0.0,179.0,1744420416.070284,0.0,2025-04-11 21:13:36.070,RIGHT,15
171.0,23741.218297626772,27994.129418626955,-32011.29669085702,-26091.21365442439,-36812.317289390245,-31208.757306189218,-11899.331140438455,-38814.11717106309,0.0,0.0,0.0,193.0,0.0,193.0,0.0,0.0,0.0,179.0,193.0,0.0,179.0,1744420416.0703309,0.0,2025-04-11 21:13:36.070,RIGHT,15
172.0,23724.78976545212,28004.455924565307,-31988.453208023693,-26065.240927367322,-36783.52824253181,-31176.526090684667,-12222.89499317348,-38780.65660961349,0.0,0.0,0.0,193.0,0.0,193.0,0.0,0.0,0.0,179.0,193.0,0.0,179.0,1744420416.0703776,0.0,2025-04-11 21:13:36.070,RIGHT,15
173.0,23717.7489659487,28016.838790993548,-31976.651486951294,-26052.67924698344,-36770.56423074773,-31160.477538165756,-12430.185071251997,-38748.35833887557,0.0,0.0,0.0,193.0,0.0,193.0,0.0,0.0,0.0,179.0,193.0,0.0,179.0,1744420416.0704248,0.0,2025-04-11 21:13:36.070,RIGHT,15
174.0,23739.854841214998,28017.665805538396,-31993.057667381487,-26064.480968055843,-36792.35718159165,-31189.668916424387,-12084.448288017307,-38757.07551921315,0.0,0.0,0.0,193.0,0.0,194.0,0.0,0.0,0.0,179.0,194.0,0.0,179.0,1744420416.070485,0.0,2025-04-11 21:13:36.070,RIGHT,15
175.0,23755.813986756086,28012.614311291494,-31995.494007527115,-26076.617965295074,-36794.52530080382,-31192.50758797021,-11848.123293891347,-38787.56329865018,0.0,0.0,0.0,193.0,0.0,194.0,0.0,0.0,0.0,180.0,194.0,0.0,180.0,1744420416.0705318,0.0,2025-04-11 21:13:36.070,RIGHT,15
176.0,23735.80917546859,28011.29555836863,-31982.150016087297,-26058.15542437499,-36780.48840528588,-31172.011038304692,-12149.983602760269,-38773.07936824315,0.0,0.0,0.0,193.0,0.0,193.0,0.0,0.0,0.0,179.0,193.0,0.0,179.0,1744420416.0705793,0.0,2025-04-11 21:13:36.070,RIGHT,15
177.0,23714.619721724954,28019.610407306005,-31979.04312360801,-26050.846403938103,-36777.426216295506,-31170.200547003813,-12431.392065452585,-38775.89568804451,0.0,0.0,0.0,193.0,0.0,193.0,0.0,0.0,0.0,178.0,193.0,0.0,178.0,1744420416.0706403,0.0,2025-04-11 21:13:36.070,RIGHT,15
178.0,23735.630361512944,28019.945683472837,-31986.95564114519,-26052.388674305523,-36786.74689373337,-31189.378343746466,-12199.738585917781,-38771.8500222981,0.0,0.0,0.0,193.0,0.0,193.0,0.0,0.0,0.0,179.0,193.0,0.0,179.0,1744420416.070688,0.0,2025-04-11 21:13:36.070,RIGHT,15
179.0,23746.716826762775,28010.155619401412,-32007.89922569981,-26077.243814139823,-36808.22692015492,-31211.12659110148,-11858.047468429502,-38800.63906915654,0.0,0.0,0.0,193.0,0.0,193.0,0.0,0.0,0.0,179.0,193.0,0.0,179.0,1744420416.0707357,0.0,2025-04-11 21:13:36.070,RIGHT,15
180.0,23723.60512299599,27999.337375085044,-32003.47358029766,-26071.34295360362,-36795.128797904115,-31195.010983349202,-12115.338398854543,-38804.9082523475,0.0,0.0,0.0,193.0,0.0,194.0,0.0,0.0,0.0,179.0,194.0,0.0,179.0,1744420416.070783,0.0,2025-04-11 21:13:36.070,RIGHT,15
181.0,23699.129962817427,28008.143962400434,-31996.321022071963,-26060.412950564976,-36777.8285476957,-31180.147073286425,-12415.231754211398,-38776.275667700254,0.0,0.0,0.0,193.0,0.0,193.0,0.0,0.0,0.0,179.0,193.0,0.0,179.0,1744420416.07083,0.0,2025-04-11 21:13:36.070,RIGHT,15
182.0,23710.64111121191,28017.822267749583,-31997.215091850176,-26057.618982508062,-36782.6341727536,-31186.003230333714,-12283.959959025378,-38759.24363842531,0.0,0.0,0.0,193.0,0.0,193.0,0.0,0.0,0.0,179.0,193.0,0.0,179.0,1744420416.0708916,0.0,2025-04-11 21:13:36.070,RIGHT,15
183.0,23732.41171031138,28000.097334396523,-32014.872969969867,-26079.59074730763,-36800.51556831784,-31207.304442799625,-11849.754971236584,-38776.32037118916,0.0,0.0,0.0,193.0,0.0,193.0,0.0,0.0,0.0,179.0,193.0,0.0,179.0,1744420416.0709393,0.0,2025-04-11 21:13:36.070,RIGHT,15
184.0,23716.45256477029,27975.264546306676,-32013.822437980467,-26081.378886864055,-36800.38145785111,-31193.535768215155,-12036.772017094137,-38788.43501668394,0.0,0.0,0.0,193.0,0.0,193.0,0.0,0.0,0.0,179.0,193.0,0.0,179.0,1744420416.0709865,0.0,2025-04-11 21:13:36.070,RIGHT,15
185.0,23696.715974416256,27992.2071686038,-32005.552292532004,-26068.280764613246,-36794.055914170254,-31172.815701105083,-12383.469925340405,-38761.54586810421,0.0,0.0,0.0,193.0,0.0,194.0,0.0,0.0,0.0,179.0,194.0,0.0,179.0,1744420416.0710337,0.0,2025-04-11 21:13:36.071,RIGHT,15
186.0,23709.07648910004,28004.634738520952,-31993.9517371597,-26059.138901131024,-36778.6332104961,-31171.049913293115,-12364.090962897655,-38752.73928078882,0.0,0.0,0.0,193.0,0.0,194.0,0.0,0.0,0.0,180.0,194.0,0.0,180.0,1744420416.0710807,0.0,2025-04-11 21:13:36.071,RIGHT,15
187.0,23741.039483671128,28008.2110176338,-32004.501760542604,-26072.661706526484,-36788.400922823064,-31191.725276914272,-11873.201951170202,-38757.83547852463,0.0,0.0,0.0,193.0,0.0,193.0,0.0,0.0,0.0,178.0,193.0,0.0,178.0,1744420416.0711288,0.0,2025-04-11 21:13:36.071,RIGHT,15
188.0,23731.60704751099,27987.803874946105,-32006.53576928804,-26080.082485685645,-36790.21141412394,-31189.914785613393,-11971.974309918203,-38800.77317962327,0.0,0.0,0.0,193.0,0.0,193.0,0.0,0.0,0.0,179.0,193.0,0.0,179.0,1744420416.0711884,0.0,2025-04-11 21:13:36.071,RIGHT,15
189.0,23703.779125664132,27991.87189243697,-31998.578548261947,-26067.29728785721,-36778.92378317402,-31168.88179408095,-12323.924878111467,-38768.161984462975,0.0,0.0,0.0,193.0,0.0,193.0,0.0,0.0,0.0,179.0,193.0,0.0,179.0,1744420416.0712366,0.0,2025-04-11 21:13:36.071,RIGHT,15
190.0,23700.6945849293,27997.660994250895,-31995.494007527115,-26063.899822700005,-36779.54963201877,-31175.45320695081,-12415.522326889317,-38771.380635664544,0.0,0.0,0.0,193.0,0.0,193.0,0.0,0.0,0.0,178.0,193.0,0.0,178.0,1744420416.0712836,0.0,2025-04-11 21:13:36.071,RIGHT,15
191.0,23728.45545154279,27996.49870353922,-32016.23642638164,-26079.434285096442,-36805.14237942009,-31208.533788744666,-11965.022917392602,-38780.70131310241,0.0,0.0,0.0,193.0,0.0,193.0,0.0,0.0,0.0,179.0,193.0,0.0,179.0,1744420416.0713308,0.0,2025-04-11 21:13:36.071,RIGHT,15
192.0,23730.89179168842,27982.193587087822,-32019.119801416375,-26090.87837825756,-36806.39407710959,-31202.498817741733,-11936.233870534166,-38806.96461283739,0.0,0.0,0.0,193.0,0.0,193.0,0.0,0.0,0.0,179.0,193.0,0.0,179.0,1744420416.0713918,0.0,2025-04-11 21:13:36.071,RIGHT,15
193.0,23712.250436812694,27995.87285469447,-32001.663088996782,-26066.291459356722,-36787.26098385584,-31170.357009215,-12274.840447287614,-38776.767406078274,0.0,0.0,0.0,193.0,0.0,194.0,0.0,0.0,0.0,180.0,194.0,0.0,180.0,1744420416.0714388,0.0,2025-04-11 21:13:36.071,RIGHT,15
194.0,23707.467163499256,28009.395660089933,-31992.074190625455,-26056.948430174405,-36778.834376196195,-31166.82543359106,-12449.9887168394,-38783.71879860387,0.0,0.0,0.0,193.0,0.0,193.0,0.0,0.0,0.0,179.0,193.0,0.0,179.0,1744420416.0714855,0.0,2025-04-11 21:13:36.071,RIGHT,15
195.0,23736.904410946896,28014.15658165891,-31999.651431995804,-26061.91051744348,-36790.65844901305,-31189.534805957654,-12050.0936567895,-38782.355342192095,0.0,0.0,0.0,193.0,0.0,193.0,0.0,0.0,0.0,179.0,193.0,0.0,179.0,1744420416.0715332,0.0,2025-04-11 21:13:36.071,RIGHT,15
196.0,23737.84318421402,27993.972956415768,-32006.401658821305,-26079.54604381872,-36797.47573107192,-31188.305460012612,-11891.843306045927,-38792.704199874905,0.0,0.0,0.0,193.0,0.0,193.0,0.0,0.0,0.0,180.0,193.0,0.0,180.0,1744420416.0715804,0.0,2025-04-11 21:13:36.071,RIGHT,15
197.0,23707.131887332427,27991.000174403212,-32005.73110648765,-26072.415837337478,-36795.75464674886,-31179.990611075238,-12213.373150035519,-38787.58565039464,0.0,0.0,0.0,193.0,0.0,194.0,0.0,0.0,0.0,179.0,194.0,0.0,179.0,1744420416.0716383,0.0,2025-04-11 21:13:36.071,RIGHT,15
198.0,23700.515770973656,28009.0603839231,-31988.341449301417,-26051.29343882721,-36774.31932381622,-31160.2540207212,-12454.302603519274,-38769.25721994129,0.0,0.0,0.0,193.0,0.0,194.0,0.0,0.0,0.0,179.0,194.0,0.0,179.0,1744420416.0716815,0.0,2025-04-11 21:13:36.071,RIGHT,15
199.0,23731.137660877426,28015.140058414945,-31993.37059180386,-26047.091310869615,-36781.3824750641,-31171.631058648953,-12109.258724362699,-38743.32919637313,0.0,0.0,0.0,193.0,0.0,193.0,0.0,0.0,0.0,179.0,193.0,0.0,179.0,1744420416.071724,0.0,2025-04-11 21:13:36.071,RIGHT,15
200.0,23744.906335461896,28003.628910020463,-32002.892434941823,-26065.240927367322,-36792.1336641471,-31183.164558787892,-11843.071799644447,-38781.61773462507,0.0,0.0,0.0,193.0,0.0,193.0,0.0,0.0,0.0,179.0,193.0,0.0,179.0,1744420416.071766,0.0,2025-04-11 21:13:36.071,RIGHT,15
201.0,23719.872381671954,28000.0079274187,-31993.080019125944,-26052.12045337206,-36779.66139074104,-31169.395884203423,-12140.484111366763,-38771.045359497715,0.0,0.0,0.0,193.0,0.0,193.0,0.0,0.0,0.0,179.0,193.0,0.0,179.0,1744420416.071813,0.0,2025-04-11 21:13:36.071,RIGHT,15
202.0,23699.97932910673,28012.279035124666,-31985.32396379995,-26044.900839912993,-36774.65459998305,-31164.03146553415,-12430.408588696551,-38769.570144363664,0.0,0.0,0.0,193.0,0.0,193.0,0.0,0.0,0.0,179.0,193.0,0.0,179.0,1744420416.0718553,0.0,2025-04-11 21:13:36.071,RIGHT,15
203.0,23717.659558970878,28009.619177534485,-31985.9498126447,-26042.665665467463,-36777.87325118462,-31177.286049996146,-12212.568487235128,-38760.31652215916,0.0,0.0,0.0,193.0,0.0,194.0,0.0,0.0,0.0,180.0,194.0,0.0,180.0,1744420416.071912,0.0,2025-04-11 21:13:36.071,RIGHT,15
204.0,23737.194983624817,28002.24310186423,-31998.153865117296,-26065.464444811874,-36788.93736468999,-31196.240329294247,-11827.693799459195,-38777.81793806767,0.0,0.0,0.0,193.0,0.0,194.0,0.0,0.0,0.0,179.0,194.0,0.0,179.0,1744420416.0719545,0.0,2025-04-11 21:13:36.071,RIGHT,15
205.0,23722.107556117484,27998.711526240295,-31994.264661582074,-26063.184566877433,-36784.75758847685,-31183.812759377095,-12070.120819821457,-38785.12695850455,0.0,0.0,0.0,193.0,0.0,193.0,0.0,0.0,0.0,179.0,193.0,0.0,179.0,1744420416.0719967,0.0,2025-04-11 21:13:36.071,RIGHT,15
206.0,23703.756773919675,28012.30138686912,-31990.24134758012,-26053.461558039377,-36782.90239368706,-31174.000343561216,-12409.867335542123,-38776.16390897798,0.0,0.0,0.0,193.0,0.0,193.0,0.0,0.0,0.0,179.0,193.0,0.0,179.0,1744420416.0720391,0.0,2025-04-11 21:13:36.072,RIGHT,15
207.0,23714.731480447233,28016.905846226913,-31983.826396921446,-26044.230287579336,-36771.65946622604,-31177.286049996146,-12290.799592828704,-38765.41271989497,0.0,0.0,0.0,193.0,0.0,193.0,0.0,0.0,0.0,179.0,193.0,0.0,179.0,1744420416.0721004,0.0,2025-04-11 21:13:36.072,RIGHT,15
208.0,23737.932591191842,28007.719279255783,-31994.734048215636,-26059.92121218696,-36776.91212617304,-31190.227710035768,-11826.352694791878,-38765.300961172696,0.0,0.0,0.0,193.0,0.0,193.0,0.0,0.0,0.0,179.0,193.0,0.0,179.0,1744420416.0721433,0.0,2025-04-11 21:13:36.072,RIGHT,15
209.0,23726.332035819538,27989.189683102333,-31991.80596969199,-26059.608287764586,-36772.91116391554,-31175.25204125071,-12001.053929454558,-38778.376731679055,0.0,0.0,0.0,193.0,0.0,194.0,0.0,0.0,0.0,179.0,194.0,0.0,179.0,1744420416.0721862,0.0,2025-04-11 21:13:36.072,RIGHT,15
210.0,23693.542026703602,27994.285880838142,-31994.309365070985,-26053.01452315027,-36775.57102150572,-31171.876927837962,-12339.81696841919,-38774.95691477739,0.0,0.0,0.0,193.0,0.0,193.0,0.0,0.0,0.0,179.0,193.0,0.0,179.0,1744420416.0722299,0.0,2025-04-11 21:13:36.072,RIGHT,15
211.0,23701.476895985234,28006.60169203302,-31983.826396921446,-26041.548078244698,-36767.770262690814,-31163.58443064504,-12358.167750616998,-38763.401062893994,0.0,0.0,0.0,193.0,0.0,193.0,0.0,0.0,0.0,178.0,193.0,0.0,178.0,1744420416.072273,0.0,2025-04-11 21:13:36.072,RIGHT,15
212.0,23731.137660877426,28002.35486058651,-32003.361821575385,-26059.96591567587,-36791.217242624436,-31188.08194256806,-11878.20874192819,-38753.208667422376,0.0,0.0,0.0,193.0,0.0,193.0,0.0,0.0,0.0,179.0,193.0,0.0,179.0,1744420416.0723293,0.0,2025-04-11 21:13:36.072,RIGHT,15
213.0,23726.30968407508,27984.428761533352,-32007.51924604407,-26071.186491392433,-36794.905280459556,-31188.12664605697,-11960.485513268175,-38794.648801642514,0.0,0.0,0.0,193.0,0.0,193.0,0.0,0.0,0.0,180.0,193.0,0.0,180.0,1744420416.5463457,0.0,2025-04-11 21:13:36.546,RIGHT,15
214.0,23704.896712886897,27998.97974717376,-31996.43278079424,-26050.980514404837,-36784.1317396321,-31166.02077079067,-12308.703340137405,-38767.96081876288,0.0,0.0,0.0,193.0,0.0,194.0,0.0,0.0,0.0,180.0,194.0,0.0,180.0,1744420416.5464509,0.0,2025-04-11 21:13:36.546,RIGHT,15
215.0,23712.339843790513,28014.15658165891,-31980.60774571988,-26034.551982230187,-36770.11719585862,-31152.050930506102,-12419.41153042454,-38754.41566162297,0.0,0.0,0.0,193.0,0.0,194.0,0.0,0.0,0.0,179.0,194.0,0.0,179.0,1744420416.5465016,0.0,2025-04-11 21:13:36.546,RIGHT,15
216.0,23738.04434991412,28014.290692125644,-31996.745705216614,-26047.448938780897,-36787.52920478931,-31177.93425058535,-11964.88880692587,-38745.519667329754,0.0,0.0,0.0,193.0,0.0,193.0,0.0,0.0,0.0,179.0,193.0,0.0,179.0,1744420416.5465503,0.0,2025-04-11 21:13:36.546,RIGHT,15
217.0,23730.131832376937,27992.989479659736,-32007.51924604407,-26070.247718125313,-36798.70507701696,-31186.092637311536,-11924.722722139684,-38800.259089500796,0.0,0.0,0.0,193.0,0.0,193.0,0.0,0.0,0.0,179.0,193.0,0.0,179.0,1744420416.546604,0.0,2025-04-11 21:13:36.546,RIGHT,15
218.0,23706.506038487678,28002.91365419789,-31998.846769195414,-26054.892069684516,-36786.54572803328,-31165.573735901566,-12265.698583805393,-38775.53806013323,0.0,0.0,0.0,193.0,0.0,193.0,0.0,0.0,0.0,179.0,193.0,0.0,179.0,1744420416.5466945,0.0,2025-04-11 21:13:36.546,RIGHT,15
219.0,23698.63822443941,28014.715375270294,-31990.509568513582,-26046.197241091402,-36779.66139074104,-31161.840994577527,-12440.243356256886,-38771.738263575826,0.0,0.0,0.0,193.0,0.0,193.0,0.0,0.0,0.0,178.0,193.0,0.0,178.0,1744420416.5467436,0.0,2025-04-11 21:13:36.546,RIGHT,15
220.0,23730.332998077036,28017.55404681612,-32000.47844654065,-26051.82988069414,-36795.64288802658,-31185.846768122527,-12032.413426925354,-38763.33400766063,0.0,0.0,0.0,193.0,0.0,193.0,0.0,0.0,0.0,178.0,193.0,0.0,178.0,1744420416.546794,0.0,2025-04-11 21:13:36.546,RIGHT,15
221.0,23733.439890556325,27997.92921518436,-32013.91184495829,-26078.093180429125,-36807.779885265816,-31194.496893226733,-11874.364241881876,-38794.671153386975,0.0,0.0,0.0,193.0,0.0,193.0,0.0,0.0,0.0,179.0,193.0,0.0,179.0,1744420416.5468457,0.0,2025-04-11 21:13:36.546,RIGHT,15
222.0,23704.516733231158,27992.609500003997,-32008.61448152238,-26066.403218078998,-36800.09088517319,-31174.581488917054,-12206.712330187838,-38779.62842936855,0.0,0.0,0.0,193.0,0.0,193.0,0.0,0.0,0.0,179.0,193.0,0.0,179.0,1744420416.5470812,0.0,2025-04-11 21:13:36.547,RIGHT,15
223.0,23700.292253529104,28012.010814191202,-31986.441551022715,-26043.82795617914,-36775.258097083344,-31152.162689228382,-12468.227740314931,-38764.36218790557,0.0,0.0,0.0,193.0,0.0,193.0,0.0,0.0,0.0,179.0,193.0,0.0,179.0,1744420416.5471275,0.0,2025-04-11 21:13:36.547,RIGHT,15
224.0,23727.896657931407,28014.894189225935,-31989.86136792438,-26041.97276138935,-36779.259059340846,-31168.591221403032,-12145.826178291582,-38739.305882371176,0.0,0.0,0.0,193.0,0.0,193.0,0.0,0.0,0.0,180.0,193.0,0.0,180.0,1744420416.5471714,0.0,2025-04-11 21:13:36.547,RIGHT,15
225.0,23739.966599937274,28001.527846041663,-32004.14413263132,-26067.900784957503,-36795.30761185975,-31185.77971288916,-11836.947421663694,-38768.22903969634,0.0,0.0,0.0,193.0,0.0,194.0,0.0,0.0,0.0,179.0,194.0,0.0,179.0,1744420416.547214,0.0,2025-04-11 21:13:36.547,RIGHT,15
226.0,23717.436041526325,28000.566721030085,-31996.544539516515,-26060.05532265369,-36789.80908272375,-31175.27439299517,-12131.856338007014,-38775.716874088874,0.0,0.0,0.0,193.0,0.0,193.0,0.0,0.0,0.0,179.0,193.0,0.0,179.0,1744420416.5472565,0.0,2025-04-11 21:13:36.547,RIGHT,15
227.0,23701.856875640977,28017.2634741382,-31977.61261196287,-26042.665665467463,-36767.09971035716,-31158.06354976458,-12446.993583082389,-38760.137708203525,0.0,0.0,0.0,193.0,0.0,193.0,0.0,0.0,0.0,179.0,193.0,0.0,179.0,1744420416.547321,0.0,2025-04-11 21:13:36.547,RIGHT,15
228.0,23717.793669437608,28016.12353517098,-31979.736027686125,-26041.793947433707,-36768.44081502448,-31171.631058648953,-12228.281763587209,-38741.83162949463,0.0,0.0,0.0,193.0,0.0,193.0,0.0,0.0,0.0,178.0,193.0,0.0,178.0,1744420416.5473647,0.0,2025-04-11 21:13:36.547,RIGHT,15
229.0,23746.560364551588,28017.64345379394,-31988.0508766235,-26059.0494941532,-36776.867422684125,-31192.641698436943,-11850.850206714895,-38781.371865436064,0.0,0.0,0.0,193.0,0.0,193.0,0.0,0.0,0.0,180.0,193.0,0.0,180.0,1744420416.5474072,0.0,2025-04-11 21:13:36.547,RIGHT,15
230.0,23717.50309675969,28008.83686647855,-31990.867196424868,-26061.239965109824,-36777.47091978442,-31185.958526844806,-12069.025584343146,-38789.64201088453,0.0,0.0,0.0,193.0,0.0,193.0,0.0,0.0,0.0,179.0,193.0,0.0,179.0,1744420416.5474622,0.0,2025-04-11 21:13:36.547,RIGHT,15
231.0,23696.13482906042,28011.74259325774,-31980.920670142255,-26043.850307923592,-36769.871326669614,-31164.769073101175,-12390.130745188088,-38756.96376049087,0.0,0.0,0.0,193.0,0.0,193.0,0.0,0.0,0.0,179.0,193.0,0.0,179.0,1744420416.5475097,0.0,2025-04-11 21:13:36.547,RIGHT,15
232.0,23709.612930966967,28010.714413012793,-31977.053818351487,-26039.759938688272,-36768.99960863586,-31172.994515060727,-12314.738311140336,-38754.21449592287,0.0,0.0,0.0,193.0,0.0,193.0,0.0,0.0,0.0,179.0,193.0,0.0,179.0,1744420416.5475576,0.0,2025-04-11 21:13:36.547,RIGHT,15
233.0,23738.871364458962,28010.267378123688,-31990.62132723586,-26059.07184589766,-36783.438835553985,-31199.302518284625,-11863.76951501006,-38769.704254830394,0.0,0.0,0.0,193.0,0.0,193.0,0.0,0.0,0.0,179.0,193.0,0.0,179.0,1744420416.5476325,0.0,2025-04-11 21:13:36.547,RIGHT,15
234.0,23730.109480632484,27999.49383729623,-31980.00424861959,-26052.96981966136,-36772.888812171084,-31182.51635819869,-12014.75554880566,-38784.76933059327,0.0,0.0,0.0,193.0,0.0,193.0,0.0,0.0,0.0,179.0,193.0,0.0,179.0,1744420416.5476873,0.0,2025-04-11 21:13:36.547,RIGHT,15
235.0,23700.247550040192,28006.758154244206,-31975.779768917535,-26040.184621832923,-36770.854803425646,-31169.664105136886,-12346.38838128905,-38763.557525105185,0.0,0.0,0.0,193.0,0.0,194.0,0.0,0.0,0.0,180.0,194.0,0.0,180.0,1744420416.547738,0.0,2025-04-11 21:13:36.547,RIGHT,15
236.0,23705.299044287094,28010.91557871289,-31973.90222238329,-26041.43631952242,-36769.1784225915,-31172.435721449343,-12363.710983241914,-38753.208667422376,0.0,0.0,0.0,193.0,0.0,194.0,0.0,0.0,0.0,180.0,194.0,0.0,180.0,1744420416.5477812,0.0,2025-04-11 21:13:36.547,RIGHT,15
237.0,23736.703245246797,28016.30234912662,-31988.363801045874,-26055.562622018173,-36788.04329491178,-31195.346259516034,-11898.392367171333,-38755.98028373483,0.0,0.0,0.0,193.0,0.0,194.0,0.0,0.0,0.0,179.0,194.0,0.0,179.0,1744420416.5478508,0.0,2025-04-11 21:13:36.547,RIGHT,15
238.0,23722.331073562036,27996.230482605755,-31984.005210877087,-26061.44113080992,-36781.42717855301,-31188.93130885736,-11961.580748746484,-38786.78098759425,0.0,0.0,0.0,193.0,0.0,194.0,0.0,0.0,0.0,180.0,194.0,0.0,180.0,1744420416.547897,0.0,2025-04-11 21:13:36.547,RIGHT,15
239.0,23701.365137262957,28008.479238567263,-31970.50475722608,-26042.62096197855,-36768.84314642467,-31172.435721449343,-12315.073587307166,-38770.3524554196,0.0,0.0,0.0,193.0,0.0,194.0,0.0,0.0,0.0,180.0,194.0,0.0,180.0,1744420416.5479493,0.0,2025-04-11 21:13:36.547,RIGHT,15
240.0,23701.63335819642,28019.029261950167,-31966.213222290662,-26036.4965839978,-36766.54091674578,-31172.949811571816,-12442.590289424694,-38774.57693512165,0.0,0.0,0.0,193.0,0.0,193.0,0.0,1.0,0.0,179.0,193.0,1.0,179.0,1744420416.5480013,0.0,2025-04-11 21:13:36.548,RIGHT,15
241.0,23726.98023640874,28015.27416888168,-31985.99451613361,-26052.321619072154,-36789.876137957115,-31200.50951248521,-11997.61176080844,-38769.41368215247,0.0,0.0,0.0,193.0,0.0,194.0,0.0,2.0,0.0,179.0,194.0,2.0,179.0,1744420416.548054,0.0,2025-04-11 21:13:36.548,RIGHT,15
242.0,23729.37187306546,28002.846598964526,-31980.585393975427,-26057.887203441525,-36786.81394896674,-31189.13247455746,-11945.08516133847,-38797.331010977156,0.0,0.0,0.0,193.0,0.0,193.0,0.0,4.0,0.0,179.0,193.0,4.0,179.0,1744420416.5481675,0.0,2025-04-11 21:13:36.548,RIGHT,15
243.0,23701.186323307316,28003.29363385363,-31978.216109063163,-26047.985380647824,-36781.60599250865,-31176.727256384762,-12283.445868902907,-38779.695484601914,0.0,0.0,0.0,193.0,0.0,194.0,0.0,5.0,0.0,180.0,194.0,5.0,180.0,1744420416.5482397,0.0,2025-04-11 21:13:36.548,RIGHT,15
244.0,23693.810247637066,28012.390793846942,-31971.868213637856,-26039.379959032532,-36769.20077433596,-31171.340485971035,-12465.254958302374,-38769.25721994129,0.0,0.0,0.0,193.0,0.0,194.0,0.0,6.0,0.0,180.0,194.0,6.0,180.0,1744420416.5483382,0.0,2025-04-11 21:13:36.548,RIGHT,15
245.0,23723.31455031807,28012.524904313676,-31985.882757411335,-26049.952334159894,-36782.6341727536,-31198.5649107176,-12055.279261503132,-38758.930714002934,0.0,0.0,0.0,193.0,0.0,194.0,0.0,7.0,0.0,180.0,194.0,7.0,180.0,1744420416.5484536,0.0,2025-04-11 21:13:36.548,RIGHT,15
246.0,23731.69645448881,28003.29363385363,-31991.89537666981,-26067.92313670196,-36793.228899625414,-31203.683460197863,-11877.694651805718,-38807.14342679303,0.0,0.0,0.0,193.0,0.0,194.0,0.0,8.0,0.0,180.0,194.0,8.0,180.0,1744420416.5485392,0.0,2025-04-11 21:13:36.548,RIGHT,15
247.0,23711.199904823294,28006.869912966482,-31980.361876530875,-26047.985380647824,-36779.37081806312,-31179.253003508213,-12198.665702183927,-38786.31160096069,0.0,0.0,0.0,193.0,0.0,193.0,0.0,9.0,0.0,179.0,193.0,9.0,179.0,1744420416.5486653,0.0,2025-04-11 21:13:36.548,RIGHT,15
248.0,23697.654747683377,28020.34801487303,-31973.209318305177,-26038.53059274323,-36774.25226858286,-31170.5581749151,-12458.169455310042,-38774.152251977,0.0,0.0,0.0,193.0,0.0,193.0,0.0,9.0,0.0,179.0,193.0,9.0,179.0,1744420416.5488935,0.0,2025-04-11 21:13:36.548,RIGHT,15
249.0,23723.761585207176,28029.333416144065,-31982.798216676503,-26041.72689220034,-36787.082169900204,-31186.204396033812,-12167.417963435408,-38756.986112235325,0.0,0.0,0.0,193.0,0.0,193.0,0.0,10.0,0.0,179.0,193.0,10.0,179.0,1744420416.5489664,0.0,2025-04-11 21:13:36.548,RIGHT,15
250.0,23732.434062055836,28006.64639552193,-32000.43374305174,-26072.237023381833,-36801.119065418134,-31209.60667247852,-11860.953195208693,-38793.888842331035,0.0,0.0,0.0,193.0,0.0,193.0,0.0,11.0,0.0,179.0,193.0,11.0,179.0,1744420416.5490572,0.0,2025-04-11 21:13:36.549,RIGHT,15
251.0,23710.372890278446,27989.860235435994,-31997.05862963899,-26069.30894485819,-36796.82753048272,-31199.615442706996,-12147.457855636818,-38804.84119711414,0.0,0.0,0.0,193.0,0.0,193.0,0.0,11.0,0.0,179.0,193.0,11.0,179.0,1744420416.5492868,0.0,2025-04-11 21:13:36.549,RIGHT,15
252.0,23688.378773734425,27998.420953562374,-31988.52026325706,-26063.83276746664,-36782.6341727536,-31192.865215881495,-12454.682583175014,-38802.65072615752,0.0,0.0,0.0,193.0,0.0,193.0,0.0,12.0,0.0,179.0,193.0,12.0,179.0,1744420416.5493531,0.0,2025-04-11 21:13:36.549,RIGHT,15
253.0,23711.043442612106,28011.83200023556,-31981.367705031364,-26054.445034795408,-36777.80619595125,-31196.41914324989,-12268.559607095673,-38775.67217059996,0.0,0.0,0.0,193.0,0.0,194.0,0.0,12.0,0.0,180.0,194.0,12.0,180.0,1744420416.5494175,0.0,2025-04-11 21:13:36.549,RIGHT,15
254.0,23730.131832376937,28007.115782155488,-32001.23840585213,-26079.4566368409,-36801.74491426288,-31225.118783130503,-11857.063991673469,-38804.595327925126,0.0,0.0,0.0,193.0,0.0,194.0,0.0,12.0,0.0,180.0,194.0,12.0,180.0,1744420416.549485,0.0,2025-04-11 21:13:36.549,RIGHT,15
255.0,23711.713994945767,27997.63864250644,-31993.415295292772,-26070.560642547687,-36791.10548390216,-31209.249044567234,-12090.460907275785,-38825.65067120203,0.0,0.0,0.0,193.0,0.0,193.0,0.0,13.0,0.0,179.0,193.0,13.0,179.0,1744420416.5495832,0.0,2025-04-11 21:13:36.549,RIGHT,15
0.0,23688.11055280096,28010.625006034974,-31986.799178934,-26052.947467916903,-36781.11425413063,-31187.70196291232,-12434.27544048732,-38792.212461496885,0.0,0.0,0.0,193.0,0.0,193.0,0.0,13.0,0.0,179.0,193.0,13.0,179.0,1744420416.5496948,0.0,2025-04-11 21:13:36.549,RIGHT,15
1.0,23697.7441546612,28019.96803521729,-31983.312306798973,-26045.236116079825,-36778.52145177382,-31187.36668674549,-12349.830549935168,-38768.54196411872,0.0,0.0,0.0,193.0,0.0,193.0,0.0,13.0,0.0,179.0,193.0,13.0,179.0,1744420416.549831,0.0,2025-04-11 21:13:36.549,RIGHT,15
2.0,23719.805326438585,28010.803819990615,-32000.34433607392,-26064.302154100198,-36797.54278630528,-31214.70287021433,-11877.381727383343,-38785.77515909376,0.0,0.0,0.0,193.0,0.0,194.0,0.0,13.0,0.0,180.0,194.0,13.0,180.0,1744420416.5498867,0.0,2025-04-11 21:13:36.549,RIGHT,15
3.0,23713.79270718011,27988.809703446594,-31998.71265872868,-26064.749188989306,-36794.413542081544,-31203.28112879767,-12028.770092579138,-38810.473836716876,0.0,0.0,0.0,193.0,0.0,193.0,0.0,14.0,0.0,180.0,193.0,14.0,180.0,1744420416.5499327,0.0,2025-04-11 21:13:36.549,RIGHT,15
4.0,23696.98419534972,28004.657090265406,-31983.312306798973,-26042.64331372301,-36779.37081806312,-31181.756398887206,-12369.1201054001,-38784.2552404708,0.0,0.0,0.0,193.0,0.0,194.0,0.0,14.0,0.0,182.0,194.0,14.0,182.0,1744420416.5499773,0.0,2025-04-11 21:13:36.549,RIGHT,15
5.0,23695.911311615862,28012.97193920278,-31976.785597418024,-26034.283761296723,-36778.677913985004,-31182.27048900968,-12411.566068120726,-38785.573993393664,0.0,0.0,0.0,193.0,0.0,193.0,0.0,14.0,0.0,180.0,193.0,14.0,180.0,1744420416.5500205,0.0,2025-04-11 21:13:36.550,RIGHT,15
6.0,23722.532239262135,28012.83782873605,-31996.61159474988,-26051.11462487157,-36804.53888231979,-31211.819495179596,-11947.968536373202,-38794.26882198678,0.0,0.0,0.0,193.0,0.0,193.0,0.0,14.0,0.0,180.0,193.0,14.0,180.0,1744420416.5500631,0.0,2025-04-11 21:13:36.550,RIGHT,15
7.0,23719.31358806057,27997.325718084066,-31991.13541735833,-26053.43920629492,-36797.5874897942,-31198.02846885067,-11982.166705389824,-38813.93835710744,0.0,0.0,0.0,193.0,0.0,194.0,0.0,14.0,0.0,180.0,194.0,14.0,180.0,1744420416.5501225,0.0,2025-04-11 21:13:36.550,RIGHT,15
8.0,23694.63726218191,28008.725107756272,-31979.512510241573,-26033.903781640984,-36783.55059427626,-31172.949811571816,-12311.162032027487,-38778.73435959034,0.0,0.0,0.0,193.0,0.0,194.0,0.0,15.0,0.0,180.0,194.0,15.0,180.0,1744420416.550166,0.0,2025-04-11 21:13:36.550,RIGHT,15
9.0,23697.40887849437,28020.884456739957,-31968.493100225107,-26024.896028625495,-36771.637114481586,-31166.423102190867,-12437.516443433338,-38778.73435959034,0.0,0.0,0.0,193.0,0.0,194.0,0.0,15.0,0.0,180.0,194.0,15.0,180.0,1744420416.5502088,0.0,2025-04-11 21:13:36.550,RIGHT,15
10.0,23725.795593952607,28018.87279973898,-31987.581489989938,-26041.659836966974,-36794.972335692924,-31197.46967523929,-11992.537914817085,-38783.137653248035,0.0,0.0,0.0,193.0,0.0,194.0,0.0,15.0,0.0,179.0,194.0,15.0,179.0,1744420416.5502663,0.0,2025-04-11 21:13:36.550,RIGHT,15
11.0,23732.143489377915,28002.91365419789,-31982.306478298484,-26049.01356089277,-36790.12200714612,-31190.49593096923,-11922.755768627618,-38805.91408084799,0.0,0.0,0.0,193.0,0.0,193.0,0.0,15.0,0.0,179.0,193.0,15.0,179.0,1744420416.5503097,0.0,2025-04-11 21:13:36.550,RIGHT,15
12.0,23707.467163499256,28005.618215276983,-31972.158786315777,-26033.322636285146,-36777.225050595414,-31174.40267496141,-12246.163159151454,-38782.645914870016,0.0,0.0,0.0,193.0,0.0,193.0,0.0,15.0,0.0,179.0,193.0,15.0,179.0,1744420416.5503528,0.0,2025-04-11 21:13:36.550,RIGHT,15
13.0,23699.800515151088,28014.64832003693,-31961.72052165515,-26026.57240945964,-36766.40680627904,-31169.1053115255,-12466.66311820306,-38781.327161947156,0.0,0.0,0.0,193.0,0.0,193.0,0.0,15.0,0.0,179.0,193.0,15.0,179.0,1744420416.5503964,0.0,2025-04-11 21:13:36.550,RIGHT,15
14.0,23721.057024128084,28006.691099010837,-31980.451283508693,-26041.324560800145,-36789.183233879,-31200.330698529568,-12093.545448010618,-38780.32133344666,0.0,0.0,0.0,193.0,0.0,193.0,0.0,15.0,0.0,179.0,193.0,15.0,179.0,1744420416.5504398,0.0,2025-04-11 21:13:36.550,RIGHT,15
15.0,23736.256210357693,27997.884511695447,-31983.46876901016,-26054.892069684516,-36795.24055662639,-31202.431762508368,-11895.374881669866,-38817.46993273139,0.0,0.0,0.0,193.0,0.0,194.0,0.0,15.0,0.0,180.0,194.0,15.0,180.0,1744420416.5504973,0.0,2025-04-11 21:13:36.550,RIGHT,15
16.0,23708.27182629965,27996.766924472682,-31979.04312360801,-26042.308037556177,-36784.39996056556,-31184.103332055016,-12203.068995841622,-38798.58270866665,0.0,0.0,0.0,193.0,0.0,193.0,0.0,15.0,0.0,179.0,193.0,15.0,179.0,1744420416.5505404,0.0,2025-04-11 21:13:36.550,RIGHT,15
17.0,23692.938529603307,28005.39469783243,-31970.28123978153,-26030.86394439506,-36768.30670455774,-31169.37353245897,-12469.65825196007,-38780.14251949102,0.0,0.0,0.0,193.0,0.0,193.0,0.0,15.0,0.0,179.0,193.0,15.0,179.0,1744420416.5505831,0.0,2025-04-11 21:13:36.550,RIGHT,15
18.0,23721.481707272735,28015.02829969267,-31972.739931671615,-26024.58310420312,-36773.49230927137,-31174.51443368369,-12184.070013054612,-38749.230056909335,0.0,0.0,0.0,193.0,0.0,193.0,0.0,16.0,0.0,179.0,193.0,16.0,179.0,1744420416.5506308,0.0,2025-04-11 21:13:36.550,RIGHT,15
19.0,23728.231934098236,28001.39373557493,-31994.398772048808,-26053.595668506106,-36793.98885893689,-31195.59212870504,-11864.842398743916,-38786.17749049395,0.0,0.0,0.0,193.0,0.0,193.0,0.0,16.0,0.0,179.0,193.0,16.0,179.0,1744420416.550674,0.0,2025-04-11 21:13:36.550,RIGHT,15
20.0,23706.617797209954,27995.045840149625,-31996.745705216614,-26053.819185950662,-36793.96650719244,-31189.870082124482,-12149.916547526902,-38809.64682217203,0.0,0.0,0.0,193.0,0.0,194.0,0.0,16.0,0.0,180.0,194.0,16.0,180.0,1744420416.5507169,0.0,2025-04-11 21:13:36.550,RIGHT,15
21.0,23694.100820314983,28013.82130549208,-31985.18985333322,-26038.798813676694,-36777.023884895316,-31171.698113882318,-12465.098496091188,-38790.044342284724,0.0,0.0,0.0,193.0,0.0,194.0,0.0,16.0,0.0,180.0,194.0,16.0,180.0,1744420416.5507596,0.0,2025-04-11 21:13:36.550,RIGHT,15
22.0,23699.085259328516,28000.49966579672,-31987.648545223303,-26037.144784587003,-36780.443701796976,-31176.16846277338,-12275.421592643452,-38756.29320815721,0.0,0.0,0.0,193.0,0.0,194.0,0.0,16.0,0.0,180.0,194.0,16.0,180.0,1744420416.5508163,0.0,2025-04-11 21:13:36.550,RIGHT,15
23.0,23718.531277004633,27988.697944724317,-32006.245196610118,-26060.859985454084,-36798.816835739235,-31202.476465997275,-11863.434238843232,-38784.97049629337,0.0,0.0,0.0,193.0,0.0,193.0,0.0,16.0,0.0,179.0,193.0,16.0,179.0,1744420416.550861,0.0,2025-04-11 21:13:36.550,RIGHT,15
24.0,23702.281558785628,27977.20914807429,-32005.842865209925,-26061.150558132,-36795.24055662639,-31196.59795720553,-12069.651433187895,-38795.47581618736,0.0,0.0,0.0,193.0,0.0,193.0,0.0,16.0,0.0,179.0,193.0,16.0,179.0,1744420416.5509057,0.0,2025-04-11 21:13:36.550,RIGHT,15
25.0,23676.95703231776,27984.24994757771,-31993.638812737325,-26047.180717847434,-36781.71775123093,-31179.722390141775,-12398.713815058925,-38774.57693512165,0.0,0.0,0.0,193.0,0.0,193.0,0.0,16.0,0.0,179.0,193.0,16.0,179.0,1744420416.5509634,0.0,2025-04-11 21:13:36.550,RIGHT,15
26.0,23689.250491768184,27993.4588662933,-31986.262737067074,-26037.994150876304,-36780.7342744749,-31178.828320363562,-12354.166788359498,-38772.855850798594,0.0,0.0,0.0,193.0,0.0,193.0,0.0,16.0,0.0,180.0,193.0,16.0,180.0,1744420416.5510063,0.0,2025-04-11 21:13:36.551,RIGHT,15
27.0,23715.60319848099,27995.96226167229,-32000.076115140455,-26050.332313815634,-36799.26387062835,-31200.040125851647,-11905.455518419209,-38785.641048627025,0.0,0.0,0.0,193.0,0.0,194.0,0.0,16.0,0.0,180.0,194.0,16.0,180.0,1744420416.5510497,0.0,2025-04-11 21:13:36.551,RIGHT,15
28.0,23704.650843697887,27982.618270232473,-31993.929385415246,-26048.00773239228,-36789.16088213454,-31184.662125666397,-12028.121891989935,-38793.3076969752,0.0,0.0,0.0,193.0,0.0,194.0,0.0,16.0,0.0,180.0,194.0,16.0,180.0,1744420416.5510926,0.0,2025-04-11 21:13:36.551,RIGHT,15
29.0,23684.64603241039,27996.476351794765,-31982.977030632144,-26035.691921197405,-36772.46412902643,-31169.26177373669,-12351.328116813675,-38764.608057094585,0.0,0.0,0.0,193.0,0.0,194.0,0.0,16.0,0.0,180.0,194.0,16.0,180.0,1744420416.5511353,0.0,2025-04-11 21:13:36.551,RIGHT,15
30.0,23691.128038302428,28012.34609035803,-31975.064513094967,-26029.120508327545,-36765.91506790103,-31167.808910347096,-12394.623445823605,-38755.22032442335,0.0,0.0,0.0,193.0,0.0,193.0,0.0,16.0,0.0,179.0,193.0,16.0,179.0,1744420416.551192,0.0,2025-04-11 21:13:36.551,RIGHT,15
31.0,23719.961788649773,28003.137171642444,-31997.32685057245,-26047.806566692183,-36792.89362345858,-31197.3132130281,-11939.02783859108,-38769.570144363664,0.0,0.0,0.0,193.0,0.0,193.0,0.0,16.0,0.0,179.0,193.0,16.0,179.0,1744420416.5512347,0.0,2025-04-11 21:13:36.551,RIGHT,15
32.0,23712.96569263526,27973.34229628352,-32002.981841919645,-26063.40808432199,-36800.7390857624,-31200.621271207485,-11964.240606336667,-38818.90044437652,0.0,0.0,0.0,193.0,0.0,194.0,0.0,16.0,0.0,180.0,194.0,16.0,180.0,1744420416.5512776,0.0,2025-04-11 21:13:36.551,RIGHT,15
33.0,23689.630471423923,27986.73099121225,-31989.28022256854,-26043.760900945774,-36789.40675132356,-31176.995477318225,-12305.14941276901,-38786.08808351614,0.0,0.0,0.0,193.0,0.0,194.0,0.0,16.0,0.0,180.0,194.0,16.0,180.0,1744420416.5513203,0.0,2025-04-11 21:13:36.551,RIGHT,15
34.0,23689.250491768184,27999.091505896035,-31973.298725282995,-26028.42760424943,-36773.84993718266,-31160.388131187934,-12451.374524995628,-38757.32138840215,0.0,0.0,0.0,193.0,0.0,194.0,0.0,16.0,0.0,180.0,194.0,16.0,180.0,1744420416.551363,0.0,2025-04-11 21:13:36.551,RIGHT,15
35.0,23723.26984682916,28003.472447809276,-31982.865271909868,-26034.06024385217,-36782.56711752023,-31181.68934365384,-12012.56507784904,-38745.0949841851,0.0,0.0,0.0,193.0,0.0,194.0,0.0,16.0,0.0,180.0,194.0,16.0,180.0,1744420416.5514057,0.0,2025-04-11 21:13:36.551,RIGHT,15
36.0,23715.69260545881,27979.66783996437,-31994.66699298227,-26058.289534841722,-36791.57487053572,-31190.49593096923,-11902.862716062393,-38786.1551387495,0.0,0.0,0.0,193.0,0.0,193.0,0.0,16.0,0.0,179.0,193.0,16.0,179.0,1744420416.5514486,0.0,2025-04-11 21:13:36.551,RIGHT,15
37.0,23678.83457885201,27979.377267286454,-31994.465827282173,-26052.075749883148,-36787.81977746723,-31183.522186699178,-12236.842481713591,-38784.12113000407,0.0,0.0,0.0,193.0,0.0,193.0,0.0,16.0,0.0,179.0,193.0,16.0,179.0,1744420416.551503,0.0,2025-04-11 21:13:36.551,RIGHT,15
38.0,23677.180549762317,27996.34224132803,-31983.200548076697,-26042.889182912015,-36773.35819880464,-31178.493044196734,-12464.584405968715,-38787.58565039464,0.0,0.0,0.0,193.0,0.0,193.0,0.0,16.0,0.0,179.0,193.0,16.0,179.0,1744420416.551546,0.0,2025-04-11 21:13:36.551,RIGHT,15
39.0,23706.371928020948,27993.86119769349,-31991.29187956952,-26043.87265966805,-36783.84116695418,-31192.038201336647,-12095.288884078132,-38754.43801336742,0.0,0.0,0.0,193.0,0.0,194.0,0.0,16.0,0.0,180.0,194.0,16.0,180.0,1744420416.5515888,0.0,2025-04-11 21:13:36.551,RIGHT,15
40.0,23719.291236316116,27982.97589814376,-31995.158731360287,-26058.177776119446,-36791.91014670255,-31196.150922316425,-11871.436163358232,-38788.63618238404,0.0,0.0,0.0,193.0,0.0,194.0,0.0,16.0,0.0,179.0,194.0,16.0,179.0,1744420416.5516453,0.0,2025-04-11 21:13:36.551,RIGHT,15
41.0,23689.675174912834,27977.231499818743,-31988.833187679436,-26046.018427135758,-36782.52241403132,-31179.722390141775,-12174.235245494277,-38773.23583045433,0.0,0.0,0.0,193.0,0.0,193.0,0.0,16.0,0.0,179.0,193.0,16.0,179.0,1744420416.551688,0.0,2025-04-11 21:13:36.551,RIGHT,15
42.0,23688.378773734425,28003.07011640908,-31963.687475167215,-26020.24686577879,-36758.53899223077,-31152.54266888412,-12458.303565776774,-38754.05803371168,0.0,0.0,0.0,193.0,0.0,193.0,0.0,17.0,0.0,179.0,193.0,17.0,179.0,1744420416.5517309,0.0,2025-04-11 21:13:36.551,RIGHT,15
43.0,23709.143544333405,28008.83686647855,-31969.56598395896,-26022.169115801946,-36769.20077433596,-31172.16750051588,-12194.530629459696,-38750.92878948794,0.0,0.0,0.0,193.0,0.0,194.0,0.0,17.0,0.0,180.0,194.0,17.0,180.0,1744420416.5517735,0.0,2025-04-11 21:13:36.551,RIGHT,15
44.0,23725.415614296868,27999.337375085044,-31983.08878935442,-26045.43728177992,-36786.14339663308,-31197.357916517012,-11860.550863808498,-38797.97921156636,0.0,0.0,0.0,193.0,0.0,194.0,0.0,17.0,0.0,179.0,194.0,17.0,179.0,1744420416.551817,0.0,2025-04-11 21:13:36.551,RIGHT,15
45.0,23701.476895985234,27987.334488312543,-31978.484329996627,-26037.971799131847,-36777.292105828776,-31184.416256477387,-12118.177070400367,-38797.12984527706,0.0,0.0,0.0,193.0,0.0,194.0,0.0,17.0,0.0,180.0,194.0,17.0,180.0,1744420416.5518737,0.0,2025-04-11 21:13:36.551,RIGHT,15
46.0,23687.328241745025,28000.566721030085,-31974.66218169477,-26030.34985427259,-36773.96169590494,-31176.347276729022,-12430.207422996453,-38780.56720263567,0.0,0.0,0.0,193.0,0.0,193.0,0.0,17.0,0.0,179.0,193.0,17.0,179.0,1744420416.551917,0.0,2025-04-11 21:13:36.551,RIGHT,15
47.0,23708.763564677665,28009.999157190225,-31965.497966468094,-26018.01169133326,-36765.400977778554,-31175.207337761804,-12288.72088059436,-38761.90349601549,0.0,0.0,0.0,193.0,0.0,193.0,0.0,17.0,0.0,179.0,193.0,17.0,179.0,1744420416.5519605,0.0,2025-04-11 21:13:36.551,RIGHT,15
48.0,23733.439890556325,28015.430631092862,-31972.85169039389,-26026.237133292812,-36770.40776853654,-31186.69613441183,-11856.996936440104,-38771.98413276483,0.0,0.0,0.0,193.0,0.0,193.0,0.0,17.0,0.0,179.0,193.0,17.0,179.0,1744420416.5520031,0.0,2025-04-11 21:13:36.552,RIGHT,15
49.0,23720.766451450167,28008.50159031172,-31968.29193452501,-26023.621979191543,-36759.880096898094,-31170.714637126286,-12033.463958914752,-38772.0511879982,0.0,0.0,0.0,193.0,0.0,193.0,0.0,17.0,0.0,179.0,193.0,17.0,179.0,1744420416.5520456,0.0,2025-04-11 21:13:36.552,RIGHT,15
50.0,23691.508017958167,28013.106049669514,-31965.699132168193,-26020.313921012155,-36759.880096898094,-31165.573735901566,-12356.848997694135,-38759.28834191422,0.0,0.0,0.0,193.0,0.0,194.0,0.0,17.0,0.0,180.0,194.0,17.0,180.0,1744420416.5520887,0.0,2025-04-11 21:13:36.552,RIGHT,15
51.0,23704.31556753106,28016.749384015726,-31958.27835300903,-26014.65892966496,-36758.58369571969,-31171.74281737123,-12348.10946561211,-38762.43993788242,0.0,0.0,0.0,193.0,0.0,194.0,0.0,17.0,0.0,180.0,194.0,17.0,180.0,1744420416.552143,0.0,2025-04-11 21:13:36.552,RIGHT,15
52.0,23738.580791781045,28022.62789280747,-31971.08590258192,-26025.119546070047,-36779.01319015183,-31189.64656467993,-11897.610056115396,-38767.133804218036,0.0,0.0,0.0,193.0,0.0,194.0,0.0,17.0,0.0,180.0,194.0,17.0,180.0,1744420416.5521865,0.0,2025-04-11 21:13:36.552,RIGHT,15
53.0,23721.03467238363,28009.373308345475,-31972.292896782506,-26030.551019972685,-36777.76149246234,-31176.034352306648,-12009.257019669654,-38782.10947300309,0.0,0.0,0.0,193.0,0.0,193.0,0.0,17.0,0.0,179.0,193.0,17.0,179.0,1744420416.5522292,0.0,2025-04-11 21:13:36.552,RIGHT,15
54.0,23696.000718593685,28013.97776770327,-31962.346370499894,-26014.636577920508,-36761.198849820954,-31155.56015438559,-12339.280526552264,-38746.81606850816,0.0,0.0,0.0,193.0,0.0,193.0,0.0,17.0,0.0,179.0,193.0,17.0,179.0,1744420416.552272,0.0,2025-04-11 21:13:36.552,RIGHT,15
55.0,23696.715974416256,28008.769811245184,-31959.23947802061,-26008.691013895397,-36758.58369571969,-31157.527107897655,-12393.349396389653,-38743.418603350954,0.0,0.0,0.0,193.0,0.0,193.0,0.0,17.0,0.0,179.0,193.0,17.0,179.0,1744420416.552328,0.0,2025-04-11 21:13:36.552,RIGHT,15
56.0,23722.3981287954,28003.29363385363,-31980.652449208792,-26024.96308385886,-36784.73523673239,-31192.015849592193,-11928.92485009728,-38758.01429248027,0.0,0.0,0.0,193.0,0.0,194.0,0.0,17.0,0.0,180.0,194.0,17.0,180.0,1744420416.5523713,0.0,2025-04-11 21:13:36.552,RIGHT,15
57.0,23713.993872880208,27983.847616177514,-31984.988687633122,-26036.518935742253,-36788.266812356334,-31188.03723907915,-11952.058905608525,-38794.447635942415,0.0,0.0,0.0,193.0,0.0,194.0,0.0,17.0,0.0,180.0,194.0,17.0,180.0,1744420416.5524187,0.0,2025-04-11 21:13:36.552,RIGHT,15
58.0,23689.988099335205,27990.642546491927,-31978.66314395227,-26019.084575067114,-36780.55546051925,-31167.294820224623,-12292.900656807502,-38762.03760648223,0.0,0.0,0.0,193.0,0.0,193.0,0.0,17.0,0.0,179.0,193.0,17.0,179.0,1744420416.552462,0.0,2025-04-11 21:13:36.552,RIGHT,15
59.0,23696.090125571507,28013.35191885852,-31959.910030354265,-26004.891217337994,-36763.299913799754,-31153.570849129064,-12464.0926675907,-38757.45549886888,0.0,0.0,0.0,193.0,0.0,193.0,0.0,17.0,0.0,179.0,193.0,17.0,179.0,1744420416.5525048,0.0,2025-04-11 21:13:36.552,RIGHT,15
60.0,23721.437003783823,28012.54725605813,-31975.265678795062,-26015.91062735446,-36778.38734130709,-31177.151939529413,-12029.038313512601,-38736.55661780317,0.0,0.0,0.0,193.0,0.0,193.0,0.0,17.0,0.0,179.0,193.0,17.0,179.0,1744420416.55275,0.0,2025-04-11 21:13:36.552,RIGHT,15
61.0,23723.31455031807,27993.481218037752,-31983.535824243525,-26037.39065377601,-36788.557385034255,-31184.952698344317,-11905.50022190812,-38790.22315624037,0.0,0.0,0.0,193.0,0.0,193.0,0.0,17.0,0.0,180.0,193.0,17.0,180.0,1744420416.5527942,0.0,2025-04-11 21:13:36.552,RIGHT,15
62.0,23695.374869748935,27995.336412827543,-31980.495986997605,-26028.651121693983,-36784.46701579893,-31172.97216331627,-12238.720028247837,-38784.76933059327,0.0,0.0,0.0,193.0,0.0,193.0,0.0,17.0,0.0,179.0,193.0,17.0,179.0,1744420416.552837,0.0,2025-04-11 21:13:36.552,RIGHT,15
63.0,23687.842331867498,28009.418011834387,-31968.783672903024,-26019.464554722854,-36767.144413846065,-31156.230706719245,-12470.574673482737,-38769.972475763854,0.0,0.0,0.0,193.0,0.0,194.0,0.0,17.0,0.0,180.0,194.0,17.0,180.0,1744420416.55288,0.0,2025-04-11 21:13:36.552,RIGHT,15
64.0,23721.97344565075,28015.475334581773,-31972.315248526964,-26014.90479885397,-36774.65459998305,-31162.623305633464,-12119.093491923035,-38739.75291726028,0.0,0.0,0.0,193.0,0.0,193.0,0.0,17.0,0.0,179.0,193.0,17.0,179.0,1744420416.5529227,0.0,2025-04-11 21:13:36.552,RIGHT,15
65.0,23732.5011172892,28003.53950304264,-31980.160710830776,-26028.025272849238,-36783.97527742091,-31167.49598592472,-11875.928863993748,-38768.07257748515,0.0,0.0,0.0,193.0,0.0,193.0,0.0,17.0,0.0,179.0,193.0,17.0,179.0,1744420416.5529656,0.0,2025-04-11 21:13:36.552,RIGHT,15
66.0,23700.001680851186,27991.380154058952,-31981.23359456463,-26023.10788906907,-36784.73523673239,-31159.69522710982,-12173.587044905073,-38768.653722840994,0.0,0.0,0.0,193.0,0.0,193.0,0.0,17.0,0.0,179.0,193.0,17.0,179.0,1744420416.5530243,0.0,2025-04-11 21:13:36.553,RIGHT,15
67.0,23680.622718408435,28000.544369285628,-31975.310382283973,-26018.078746566625,-36777.783844206795,-31155.49309915222,-12464.785571668814,-38772.58762986513,0.0,0.0,0.0,193.0,0.0,193.0,0.0,17.0,0.0,179.0,193.0,17.0,179.0,1744420416.553068,0.0,2025-04-11 21:13:36.553,RIGHT,15
68.0,23702.616834952456,28008.50159031172,-31977.433798007227,-26017.00586283277,-36779.728445974404,-31169.37353245897,-12230.136958377,-38764.58570535013,0.0,0.0,0.0,193.0,0.0,193.0,0.0,17.0,0.0,179.0,193.0,17.0,179.0,1744420416.5531108,0.0,2025-04-11 21:13:36.553,RIGHT,15
69.0,23726.332035819538,28001.773715230673,-31984.206376577185,-26033.546153729698,-36781.71775123093,-31179.58827967504,-11854.91822420576,-38766.9996937513,0.0,0.0,0.0,193.0,0.0,194.0,0.0,17.0,0.0,180.0,194.0,17.0,180.0,1744420416.5531533,0.0,2025-04-11 21:13:36.553,RIGHT,15
70.0,23708.517695488656,27993.615328504486,-31975.533899728525,-26025.410118747965,-36770.34071330318,-31169.820567348073,-12101.323855081066,-38783.16000499249,0.0,0.0,0.0,193.0,0.0,194.0,0.0,17.0,0.0,180.0,194.0,17.0,180.0,1744420416.5532105,0.0,2025-04-11 21:13:36.553,RIGHT,15
71.0,23692.73736390321,28010.848523479526,-31962.815757133456,-26007.4393162059,-36756.90731488554,-31152.006227017195,-12423.45719617095,-38766.61971409556,0.0,0.0,0.0,193.0,0.0,194.0,0.0,17.0,0.0,180.0,194.0,17.0,180.0,1744420416.5532537,0.0,2025-04-11 21:13:36.553,RIGHT,15
72.0,23704.40497450888,28008.814514734095,-31965.319152512453,-26007.394612716987,-36763.21050682193,-31165.529032412654,-12302.221334245365,-38759.31069365868,0.0,0.0,0.0,193.0,0.0,193.0,0.0,17.0,0.0,179.0,193.0,17.0,179.0,1744420416.553296,0.0,2025-04-11 21:13:36.553,RIGHT,15
73.0,23724.78976545212,27999.851465207514,-31983.982859132633,-26030.752185672784,-36782.79063496478,-31191.56881470309,-11862.718983020663,-38774.599286866105,0.0,0.0,0.0,193.0,0.0,193.0,0.0,17.0,0.0,179.0,193.0,17.0,179.0,1744420416.5533388,0.0,2025-04-11 21:13:36.553,RIGHT,15
74.0,23714.083279858027,27989.435552291343,-31981.635925964827,-26033.613208963063,-36777.13564361759,-31184.662125666397,-12053.334659735521,-38796.59340341013,0.0,0.0,0.0,193.0,0.0,193.0,0.0,17.0,0.0,179.0,193.0,17.0,179.0,1744420416.5533817,0.0,2025-04-11 21:13:36.553,RIGHT,15
75.0,23695.285462771113,28006.042898421634,-31966.146167057297,-26015.4412407209,-36762.115271343624,-31164.612610889988,-12388.163791676021,-38773.88403104353,0.0,0.0,0.0,193.0,0.0,194.0,0.0,17.0,0.0,180.0,194.0,17.0,180.0,1744420416.5534372,0.0,2025-04-11 21:13:36.553,RIGHT,15
76.0,23706.036651854116,28012.189628146843,-31956.98195183062,-26007.975758072826,-36754.60508520664,-31163.427968433854,-12371.869369968103,-38772.14059497602,0.0,0.0,0.0,193.0,0.0,194.0,0.0,17.0,0.0,180.0,194.0,17.0,180.0,1744420416.5534801,0.0,2025-04-11 21:13:36.553,RIGHT,15
77.0,23728.857782942985,28003.137171642444,-31985.860405666877,-26033.367339774053,-36783.595297765176,-31193.60282344852,-11892.089175234936,-38774.889859544026,0.0,0.0,0.0,193.0,0.0,194.0,0.0,17.0,0.0,180.0,194.0,17.0,180.0,1744420417.025869,0.0,2025-04-11 21:13:37.025,RIGHT,15
78.0,23712.429250768335,27982.10418011,-31990.308402813484,-26046.979552147335,-36784.623478010115,-31189.64656467993,-11991.621493294419,-38801.26491800129,0.0,0.0,0.0,193.0,0.0,193.0,0.0,17.0,0.0,179.0,193.0,17.0,179.0,1744420417.0260153,0.0,2025-04-11 21:13:37.026,RIGHT,15
79.0,23685.987137077707,27990.97782265876,-31982.66410620977,-26031.042758350704,-36775.52631801681,-31171.22872724876,-12333.267907293786,-38771.35828392008,0.0,0.0,0.0,193.0,0.0,193.0,0.0,17.0,0.0,179.0,193.0,17.0,179.0,1744420417.0260873,0.0,2025-04-11 21:13:37.026,RIGHT,15
80.0,23685.20482602177,27999.40443031841,-31974.058684594478,-26019.039871578203,-36771.36889354812,-31162.73506435574,-12426.31821946123,-38759.73537680333,0.0,0.0,0.0,193.0,0.0,193.0,0.0,17.0,0.0,179.0,193.0,17.0,179.0,1744420417.0261347,0.0,2025-04-11 21:13:37.026,RIGHT,15
81.0,23714.664425213865,27998.309194840098,-31990.643678980316,-26034.77549967474,-36788.49032980089,-31193.692230426343,-11968.979176161192,-38766.32914141764,0.0,0.0,0.0,193.0,0.0,194.0,0.0,17.0,0.0,179.0,194.0,17.0,179.0,1744420417.0262873,0.0,2025-04-11 21:13:37.026,RIGHT,15
82.0,23716.07258511455,27985.68045922285,-31989.23551907963,-26041.950409644895,-36786.79159722228,-31188.6630879239,-11953.288251553566,-38805.19882502542,0.0,0.0,0.0,193.0,0.0,194.0,0.0,17.0,0.0,180.0,194.0,17.0,180.0,1744420417.0263329,0.0,2025-04-11 21:13:37.026,RIGHT,15
83.0,23690.479837713225,27991.06722963658,-31986.642716722814,-26027.801755404682,-36785.80812046625,-31169.395884203423,-12290.464316661873,-38782.847080570114,0.0,0.0,0.0,193.0,0.0,194.0,0.0,17.0,0.0,180.0,194.0,17.0,180.0,1744420417.026378,0.0,2025-04-11 21:13:37.026,RIGHT,15
84.0,23686.791799878098,28001.617253019485,-31976.964411373665,-26018.257560522266,-36775.83924243918,-31159.06937826507,-12480.074164876243,-38780.94718229141,0.0,0.0,0.0,193.0,0.0,193.0,0.0,17.0,0.0,179.0,193.0,17.0,179.0,1744420417.0264704,0.0,2025-04-11 21:13:37.026,RIGHT,15
85.0,23713.725651946745,28002.511322797698,-31989.28022256854,-26024.896028625495,-36786.52337628882,-31184.103332055016,-12062.610633684473,-38770.7994903087,0.0,0.0,0.0,193.0,0.0,193.0,0.0,17.0,0.0,179.0,193.0,17.0,179.0,1744420417.026525,0.0,2025-04-11 21:13:37.026,RIGHT,15
86.0,23718.73244270473,27984.227595833254,-31998.690306984226,-26044.967895146357,-36796.939289204995,-31188.864253623993,-11913.636256889851,-38803.99183082484,0.0,0.0,0.0,193.0,0.0,194.0,0.0,17.0,0.0,179.0,194.0,17.0,179.0,1744420417.026569,0.0,2025-04-11 21:13:37.026,RIGHT,15
87.0,23700.40401225138,27989.502607524708,-31986.66506846727,-26026.170078059447,-36783.61764950963,-31161.908049810896,-12236.127225891021,-38776.00744676679,0.0,0.0,0.0,193.0,0.0,194.0,0.0,17.0,0.0,180.0,194.0,17.0,180.0,1744420417.0266123,0.0,2025-04-11 21:13:37.026,RIGHT,15
88.0,23685.338936488504,28000.03027916316,-31976.159748573275,-26011.95436858587,-36768.820794680214,-31145.859497291985,-12472.005185127877,-38750.682920298925,0.0,0.0,0.0,193.0,0.0,193.0,0.0,17.0,0.0,179.0,193.0,17.0,179.0,1744420417.026657,0.0,2025-04-11 21:13:37.026,RIGHT,15
89.0,23714.5973699805,28002.3101570976,-31985.413370777773,-26015.128316298524,-36780.39899830807,-31163.919706811874,-12142.339306156553,-38741.0940219276,0.0,0.0,0.0,193.0,0.0,193.0,0.0,17.0,0.0,179.0,193.0,17.0,179.0,1744420417.0267007,0.0,2025-04-11 21:13:37.026,RIGHT,15
90.0,23727.293160831116,27991.849540692514,-32002.601862263902,-26041.369264289056,-36796.514606060344,-31185.623250677974,-11873.604282570397,-38783.98701953734,0.0,0.0,0.0,193.0,0.0,193.0,0.0,17.0,0.0,179.0,193.0,17.0,179.0,1744420417.0267665,0.0,2025-04-11 21:13:37.026,RIGHT,15
91.0,23699.17466630634,27979.66783996437,-31999.629080251347,-26034.842554908104,-36793.027733925315,-31174.916765083883,-12169.519027414206,-38782.48945265883,0.0,0.0,0.0,193.0,0.0,193.0,0.0,17.0,0.0,179.0,193.0,17.0,179.0,1744420417.0268104,0.0,2025-04-11 21:13:37.026,RIGHT,15
92.0,23687.88703535641,27993.190645359835,-31979.8477864084,-26016.33531049911,-36777.5826785067,-31153.794366573617,-12469.27827230433,-38759.73537680333,0.0,0.0,0.0,193.0,0.0,193.0,0.0,17.0,0.0,179.0,193.0,17.0,179.0,1744420417.0268538,0.0,2025-04-11 21:13:37.026,RIGHT,15
93.0,23715.804364181087,28006.60169203302,-31973.879870638833,-26007.05933655016,-36771.055969125744,-31159.44935792081,-12244.240909128299,-38742.9939202063,0.0,0.0,0.0,193.0,0.0,194.0,0.0,17.0,0.0,180.0,194.0,17.0,180.0,1744420417.0268972,0.0,2025-04-11 21:13:37.026,RIGHT,15
94.0,23730.04242539912,27991.178988358857,-31996.835112194436,-26036.85421190908,-36794.36883859263,-31186.584375689552,-11859.299166119,-38778.309676445686,0.0,0.0,0.0,193.0,0.0,194.0,0.0,17.0,0.0,180.0,194.0,17.0,180.0,1744420417.0269403,0.0,2025-04-11 21:13:37.026,RIGHT,15
95.0,23709.300006544592,27973.92344163936,-31988.944946401713,-26028.80758390517,-36783.34942857616,-31171.45224469331,-12113.885535464948,-38785.90926956049,0.0,0.0,0.0,193.0,0.0,194.0,0.0,17.0,0.0,180.0,194.0,17.0,180.0,1744420417.0269835,0.0,2025-04-11 21:13:37.026,RIGHT,15
96.0,23681.472084697736,27984.227595833254,-31978.461978252173,-26015.329481998622,-36769.62545748061,-31158.68939860933,-12436.532966677305,-38770.57597286415,0.0,0.0,0.0,193.0,0.0,193.0,0.0,17.0,0.0,179.0,193.0,17.0,179.0,1744420417.0270407,0.0,2025-04-11 21:13:37.027,RIGHT,15
97.0,23694.70431741528,27990.9554709143,-31979.467806752662,-26011.4402784634,-36771.01126563684,-31164.992590545728,-12312.413729716985,-38761.76938554876,0.0,0.0,0.0,193.0,0.0,193.0,0.0,17.0,0.0,179.0,193.0,17.0,179.0,1744420417.0270844,0.0,2025-04-11 21:13:37.027,RIGHT,15
98.0,23723.672178229353,27991.737781970238,-31999.249100595607,-26035.289589797212,-36795.01703918184,-31193.22284379278,-11887.484715877143,-38795.408760954,0.0,0.0,0.0,193.0,0.0,193.0,0.0,17.0,0.0,179.0,193.0,17.0,179.0,1744420417.0271273,0.0,2025-04-11 21:13:37.027,RIGHT,15
99.0,23698.37000350595,27977.477369007753,-32003.987670420134,-26045.124357357545,-36798.392152594584,-31190.004192591216,-12070.456095988286,-38810.76440939479,0.0,0.0,0.0,193.0,0.0,194.0,0.0,17.0,0.0,180.0,194.0,17.0,180.0,1744420417.027187,0.0,2025-04-11 21:13:37.027,RIGHT,15
100.0,23679.281613741114,27989.659069735895,-31986.843882422912,-26021.699729168384,-36777.69443722897,-31161.17044224387,-12404.927600017501,-38764.98803675032,0.0,0.0,0.0,193.0,0.0,194.0,0.0,17.0,0.0,180.0,194.0,17.0,180.0,1744420417.0272312,0.0,2025-04-11 21:13:37.027,RIGHT,15
101.0,23696.335994760513,27996.96809017278,-31975.220975306154,-26008.981586573314,-36762.472899254906,-31154.666084607376,-12389.661358554526,-38747.95600747538,0.0,0.0,0.0,193.0,0.0,193.0,0.0,17.0,0.0,179.0,193.0,17.0,179.0,1744420417.0272748,0.0,2025-04-11 21:13:37.027,RIGHT,15
102.0,23726.13087011944,27992.721258726273,-31996.61159474988,-26028.695825182895,-36785.31638208823,-31186.539672200644,-11908.987094043148,-38754.37095813405,0.0,0.0,0.0,193.0,0.0,193.0,0.0,17.0,0.0,179.0,193.0,17.0,179.0,1744420417.0273185,0.0,2025-04-11 21:13:37.027,RIGHT,15
103.0,23713.97152113575,27976.672706207362,-31997.86329243938,-26037.81533692066,-36788.132701889605,-31183.94686984383,-11985.363004846931,-38791.83248184115,0.0,0.0,0.0,193.0,0.0,193.0,0.0,17.0,0.0,179.0,193.0,17.0,179.0,1744420417.0273623,0.0,2025-04-11 21:13:37.027,RIGHT,15
104.0,23683.617852165444,27985.903976667403,-31992.99061214812,-26024.404290247476,-36785.115216388134,-31166.132529512946,-12327.903488624514,-38770.03953099722,0.0,0.0,0.0,193.0,0.0,194.0,0.0,17.0,0.0,180.0,194.0,17.0,180.0,1744420417.0274217,0.0,2025-04-11 21:13:37.027,RIGHT,15
105.0,23685.02601206613,28001.2596251082,-31980.875966653344,-26009.92035984044,-36776.64390523957,-31155.247229963214,-12439.773969623324,-38758.97541749185,0.0,0.0,0.0,193.0,0.0,194.0,0.0,17.0,0.0,180.0,194.0,17.0,180.0,1744420417.027466,0.0,2025-04-11 21:13:37.027,RIGHT,15
106.0,23715.156163591884,28002.93600594235,-32002.020716908064,-26024.605455947574,-36800.7390857624,-31185.578547189063,-11988.335786859489,-38761.031777981734,0.0,0.0,0.0,193.0,0.0,194.0,0.0,17.0,0.0,180.0,194.0,17.0,180.0,1744420417.0275097,0.0,2025-04-11 21:13:37.027,RIGHT,15
107.0,23715.960826392275,27986.328659812054,-32007.96628093318,-26039.089386354615,-36805.410600353556,-31186.360858245,-11970.052059895046,-38810.33972625014,0.0,0.0,0.0,193.0,0.0,193.0,0.0,17.0,0.0,179.0,193.0,17.0,179.0,1744420417.027554,0.0,2025-04-11 21:13:37.027,RIGHT,15
108.0,23690.144561546393,27989.212034846787,-32002.601862263902,-26025.991264103803,-36793.60887928115,-31169.999381303714,-12309.038616304233,-38788.77029285077,0.0,0.0,0.0,193.0,0.0,193.0,0.0,17.0,0.0,179.0,193.0,17.0,179.0,1744420417.0276031,0.0,2025-04-11 21:13:37.027,RIGHT,15
109.0,23684.713087643755,27998.666822751384,-31989.61549873537,-26015.396537231987,-36775.90629767255,-31164.277334723156,-12481.124696865643,-38781.14834799151,0.0,0.0,0.0,193.0,0.0,193.0,0.0,17.0,0.0,179.0,193.0,17.0,179.0,1744420417.0276468,0.0,2025-04-11 21:13:37.027,RIGHT,15
110.0,23708.87532339994,28003.07011640908,-32002.020716908064,-26018.235208777813,-36789.98789667939,-31183.835111121552,-12060.084886561024,-38765.25625768379,0.0,0.0,0.0,193.0,0.0,194.0,0.0,17.0,0.0,180.0,194.0,17.0,180.0,1744420417.027691,0.0,2025-04-11 21:13:37.027,RIGHT,15
111.0,23713.077451357538,27982.39475278792,-32012.30251935751,-26037.39065377601,-36796.24638512688,-31188.17134954588,-11901.16398348379,-38798.806226111206,0.0,0.0,0.0,193.0,0.0,194.0,0.0,17.0,0.0,180.0,194.0,17.0,180.0,1744420417.0277507,0.0,2025-04-11 21:13:37.027,RIGHT,15
112.0,23684.266052754647,27975.175139328854,-32013.062478668988,-26031.10981358407,-36795.30761185975,-31180.437645964343,-12227.253583342264,-38794.69350513143,0.0,0.0,0.0,193.0,0.0,194.0,0.0,17.0,0.0,180.0,194.0,17.0,180.0,1744420417.0277948,0.0,2025-04-11 21:13:37.027,RIGHT,15
113.0,23672.30786947106,27989.010869146692,-32001.081943640944,-26018.749298900286,-36787.775073978315,-31167.31717196908,-12490.780650470335,-38795.229946998355,0.0,0.0,0.0,193.0,0.0,193.0,0.0,17.0,0.0,179.0,193.0,17.0,179.0,1744420417.0278385,0.0,2025-04-11 21:13:37.027,RIGHT,15
114.0,23699.286425028615,27997.34806982852,-32004.702926242702,-26015.28477850971,-36796.67106827153,-31174.44737845032,-12174.481114683285,-38746.05610919668,0.0,0.0,0.0,193.0,0.0,193.0,0.0,17.0,0.0,179.0,193.0,17.0,179.0,1744420417.0278988,0.0,2025-04-11 21:13:37.027,RIGHT,15
115.0,23716.966654892763,27986.082790623044,-32013.1071821579,-26035.62486596404,-36803.06366718574,-31187.254928023212,-11880.801544285005,-38780.58955438013,0.0,0.0,0.0,193.0,0.0,194.0,0.0,17.0,0.0,180.0,194.0,17.0,180.0,1744420417.0279422,0.0,2025-04-11 21:13:37.027,RIGHT,15
116.0,23703.73442217522,27984.78638944464,-31994.085847626433,-26014.569522687143,-36779.84020469668,-31157.482404408744,-12166.725059357294,-38765.34566466161,0.0,0.0,0.0,193.0,0.0,194.0,0.0,17.0,0.0,180.0,194.0,17.0,180.0,1744420417.027985,0.0,2025-04-11 21:13:37.027,RIGHT,15
117.0,23677.046439295584,27992.564796515086,-31991.694210969716,-26010.993243574292,-36779.05789364075,-31155.291933452125,-12450.659269173058,-38759.80243203669,0.0,0.0,0.0,193.0,0.0,194.0,0.0,17.0,0.0,180.0,194.0,17.0,180.0,1744420417.0280285,0.0,2025-04-11 21:13:37.028,RIGHT,15
118.0,23694.88313137092,27998.756229729206,-31993.661164481782,-26012.311996497156,-36787.30568734476,-31167.585392902543,-12243.592708539094,-38754.72858604534,0.0,0.0,0.0,193.0,0.0,193.0,0.0,17.0,0.0,179.0,193.0,17.0,179.0,1744420417.0280712,0.0,2025-04-11 21:13:37.028,RIGHT,15
119.0,23720.654692727887,27993.145941870924,-32000.411391307283,-26027.175906559936,-36798.10157991667,-31180.012962819692,-11874.096020948413,-38779.24844971281,0.0,0.0,0.0,193.0,0.0,194.0,0.0,17.0,0.0,180.0,194.0,17.0,180.0,1744420417.0281281,0.0,2025-04-11 21:13:37.028,RIGHT,15
120.0,23707.847143155,27979.936060897835,-31988.699077212703,-26016.58117968812,-36783.46118729844,-31161.393959688423,-12119.58523030105,-38783.78585383724,0.0,0.0,0.0,193.0,0.0,194.0,0.0,17.0,0.0,180.0,194.0,17.0,180.0,1744420417.028172,0.0,2025-04-11 21:13:37.028,RIGHT,15
121.0,23687.171779533837,27995.31406108309,-31979.087827096922,-26002.879560337016,-36770.653637725554,-31141.97029375676,-12429.961553807445,-38755.15326918999,0.0,0.0,0.0,193.0,0.0,194.0,0.0,17.0,0.0,180.0,194.0,17.0,180.0,1744420417.0282164,0.0,2025-04-11 21:13:37.028,RIGHT,15
122.0,23701.20867505177,28007.361651344498,-31972.76228341607,-25994.788228844194,-36764.9762946339,-31143.177287957347,-12341.135721342054,-38748.71596678686,0.0,0.0,0.0,193.0,0.0,193.0,0.0,17.0,0.0,179.0,193.0,17.0,179.0,1744420417.028262,0.0,2025-04-11 21:13:37.028,RIGHT,15
123.0,23725.527373019144,28005.819380977082,-31995.784580205036,-26017.184676788413,-36785.696361743976,-31169.59704990352,-11876.01827097157,-38752.225190666344,0.0,0.0,0.0,193.0,0.0,193.0,0.0,17.0,0.0,179.0,193.0,17.0,179.0,1744420417.0283096,0.0,2025-04-11 21:13:37.028,RIGHT,15
124.0,23701.476895985234,27976.426837018353,-32003.495932042115,-26029.92517112794,-36789.42910306801,-31170.267602237178,-12023.986819265703,-38788.099740517115,0.0,0.0,0.0,193.0,0.0,194.0,0.0,17.0,0.0,180.0,194.0,17.0,180.0,1744420417.0283587,0.0,2025-04-11 21:13:37.028,RIGHT,15
125.0,23672.777256104622,27981.008944631692,-31996.0528011385,-26017.1399732995,-36777.5826785067,-31156.990666030728,-12384.900436985547,-38781.70714160289,0.0,0.0,0.0,193.0,0.0,194.0,0.0,17.0,0.0,180.0,194.0,17.0,180.0,1744420417.0284083,0.0,2025-04-11 21:13:37.028,RIGHT,15
126.0,23676.912328828854,27984.607575488997,-31994.644641237814,-26013.00490057527,-36771.480652270395,-31158.421177675868,-12415.589382122682,-38766.910286773484,0.0,0.0,0.0,193.0,0.0,194.0,0.0,17.0,0.0,180.0,194.0,17.0,180.0,1744420417.0287297,0.0,2025-04-11 21:13:37.028,RIGHT,15
127.0,23697.83356163902,27981.612441731984,-32017.398717093318,-26033.792022918708,-36794.972335692924,-31185.690305911343,-11934.736303655662,-38760.2494669258,0.0,0.0,0.0,193.0,0.0,193.0,0.0,17.0,0.0,179.0,193.0,17.0,179.0,1744420417.02878,0.0,2025-04-11 21:13:37.028,RIGHT,15
128.0,23686.344764988993,27957.137281553423,-32018.829228738457,-26044.00677013478,-36795.531129304305,-31182.918689598882,-11997.768223019628,-38794.89467083153,0.0,0.0,0.0,193.0,0.0,193.0,0.0,17.0,0.0,179.0,193.0,17.0,179.0,1744420417.0288255,0.0,2025-04-11 21:13:37.028,RIGHT,15
129.0,23662.24958446617,27962.524051967153,-32012.14605714632,-26030.05928159467,-36788.42327456752,-31168.70298012531,-12340.398113775029,-38777.01327526728,0.0,0.0,0.0,193.0,0.0,194.0,0.0,17.0,0.0,179.0,194.0,17.0,179.0,1744420417.0289297,0.0,2025-04-11 21:13:37.028,RIGHT,15
130.0,23664.462407167248,27975.622174217962,-32001.171350618763,-26017.29643551069,-36782.07537914221,-31160.566945143575,-12472.0945921057,-38780.96953403587,0.0,0.0,0.0,193.0,0.0,194.0,0.0,17.0,0.0,180.0,194.0,17.0,180.0,1744420417.0289755,0.0,2025-04-11 21:13:37.028,RIGHT,15
131.0,23696.090125571507,27982.260642321187,-32008.167446633277,-26022.549095457685,-36788.71384724544,-31175.229689506257,-12006.66421731284,-38755.57795233464,0.0,0.0,0.0,193.0,0.0,194.0,0.0,17.0,0.0,180.0,194.0,17.0,180.0,1744420417.029022,0.0,2025-04-11 21:13:37.029,RIGHT,15
132.0,23696.045422082596,27961.607630444483,-32015.275301370064,-26039.223496821345,-36795.4864258154,-31179.722390141775,-11934.848062377938,-38793.35240046411,0.0,0.0,0.0,193.0,0.0,194.0,0.0,17.0,0.0,180.0,194.0,17.0,180.0,1744420417.029068,0.0,2025-04-11 21:13:37.029,RIGHT,15
133.0,23676.21942475074,27967.016752602667,-32005.28407159854,-26021.43150823492,-36786.098693144166,-31163.293857967124,-12289.05615676119,-38780.29898170221,0.0,0.0,0.0,193.0,0.0,193.0,0.0,17.0,0.0,179.0,193.0,17.0,179.0,1744420417.0291114,0.0,2025-04-11 21:13:37.029,RIGHT,15
134.0,23668.575128147022,27976.695057951816,-31998.265623839576,-26014.077784309124,-36780.84603319717,-31159.628171876455,-12483.8963131781,-38777.54971713421,0.0,0.0,0.0,193.0,0.0,193.0,0.0,17.0,0.0,179.0,193.0,17.0,179.0,1744420417.0291865,0.0,2025-04-11 21:13:37.029,RIGHT,15
135.0,23697.632395938923,27983.624098732962,-32008.793295478023,-26015.48594420981,-36797.31926886073,-31168.88179408095,-12106.576515028062,-38751.42052786595,0.0,0.0,0.0,193.0,0.0,193.0,0.0,17.0,0.0,179.0,193.0,17.0,179.0,1744420417.0292315,0.0,2025-04-11 21:13:37.029,RIGHT,15
136.0,23702.370965763446,27968.939002625826,-32019.29861537202,-26036.92126714245,-36806.930518976515,-31176.190814517835,-11926.443806462743,-38787.8538713281,0.0,0.0,0.0,193.0,0.0,194.0,0.0,17.0,0.0,180.0,194.0,17.0,180.0,1744420417.029278,0.0,2025-04-11 21:13:37.029,RIGHT,15
137.0,23676.509997428657,27969.654258448394,-32008.837998966934,-26021.498563468285,-36787.506853044855,-31160.4551864213,-12220.235135583298,-38772.52057463176,0.0,0.0,0.0,193.0,0.0,194.0,0.0,17.0,0.0,180.0,194.0,17.0,180.0,1744420417.029323,0.0,2025-04-11 21:13:37.029,RIGHT,15
138.0,23664.44005542279,27984.562872000086,-31998.91382442878,-26011.417926718943,-36777.359161062144,-31156.186003230338,-12467.84776065919,-38771.22417345335,0.0,0.0,0.0,193.0,0.0,194.0,0.0,17.0,0.0,180.0,194.0,17.0,180.0,1744420417.029369,0.0,2025-04-11 21:13:37.029,RIGHT,15
139.0,23696.78302964962,27990.843712192025,-31998.89147268432,-26005.00297606027,-36779.54963201877,-31163.517375411677,-12176.515123428719,-38751.37582437704,0.0,0.0,0.0,193.0,0.0,193.0,0.0,17.0,0.0,179.0,193.0,17.0,179.0,1744420417.029416,0.0,2025-04-11 21:13:37.029,RIGHT,15
140.0,23707.69068094381,27976.471540507264,-32014.560045547492,-26028.62876994953,-36797.632193283105,-31175.229689506257,-11864.663584788274,-38774.733397332835,0.0,0.0,0.0,193.0,0.0,193.0,0.0,17.0,0.0,179.0,193.0,17.0,179.0,1744420417.0294943,0.0,2025-04-11 21:13:37.029,RIGHT,15
141.0,23684.556625432568,27966.860290391483,-32006.111086143388,-26015.843572121095,-36792.35718159165,-31154.867250307474,-12150.117713227,-38767.402025151496,0.0,0.0,0.0,193.0,0.0,193.0,0.0,17.0,0.0,179.0,193.0,17.0,179.0,1744420417.0295427,0.0,2025-04-11 21:13:37.029,RIGHT,15
142.0,23669.893881069886,27982.797084188114,-31991.29187956952,-25998.453914934864,-36782.96944892043,-31139.98098850024,-12460.784609411314,-38755.62265582355,0.0,0.0,0.0,193.0,0.0,194.0,0.0,17.0,0.0,180.0,194.0,17.0,180.0,1744420417.029598,0.0,2025-04-11 21:13:37.029,RIGHT,15
143.0,23692.804419136577,27990.866063936483,-31987.067399867465,-25992.083667765102,-36784.44466405448,-31151.82741306155,-12282.417688657963,-38754.43801336742,0.0,0.0,0.0,193.0,0.0,194.0,0.0,17.0,0.0,179.0,194.0,17.0,179.0,1744420417.0296462,0.0,2025-04-11 21:13:37.029,RIGHT,15
144.0,23719.17947759384,27989.994345902724,-32000.456094796195,-26010.233284262813,-36796.22403338242,-31168.36770395848,-11880.64508207382,-38767.91611527397,0.0,0.0,0.0,193.0,0.0,193.0,0.0,17.0,0.0,179.0,193.0,17.0,179.0,1744420417.0297265,0.0,2025-04-11 21:13:37.029,RIGHT,15
145.0,23700.64988144039,27981.277165565156,-32000.724315729658,-26010.657967407464,-36790.21141412394,-31152.989703773226,-12095.91473292288,-38764.49629837231,0.0,0.0,0.0,193.0,0.0,193.0,0.0,17.0,0.0,179.0,193.0,17.0,179.0,1744420417.0297742,0.0,2025-04-11 21:13:37.029,RIGHT,15
146.0,23681.717953886742,27993.88354943795,-31989.459036524182,-25997.62690039002,-36775.816890694725,-31139.153973955392,-12433.180205009008,-38749.52062958725,0.0,0.0,0.0,193.0,0.0,193.0,0.0,17.0,0.0,179.0,193.0,17.0,179.0,1744420417.0298188,0.0,2025-04-11 21:13:37.029,RIGHT,15
147.0,23691.440962724802,27992.475389537263,-31989.302574312995,-25996.39755444498,-36775.258097083344,-31147.960561270782,-12357.676012238982,-38742.859809739566,0.0,0.0,0.0,193.0,0.0,193.0,0.0,17.0,0.0,179.0,193.0,17.0,179.0,1744420417.0298665,0.0,2025-04-11 21:13:37.029,RIGHT,15
148.0,23715.670253714354,27985.032258633648,-32009.19562687822,-26019.86688612305,-36797.766303749835,-31173.329791227556,-11897.58770437094,-38751.97932147734,0.0,0.0,0.0,193.0,0.0,194.0,0.0,17.0,0.0,180.0,194.0,17.0,180.0,1744420417.0299091,0.0,2025-04-11 21:13:37.029,RIGHT,15
149.0,23700.314605273557,27962.21112754478,-32010.62613852336,-26028.025272849238,-36799.174463650525,-31166.736026613242,-12040.080075273523,-38785.46223467139,0.0,0.0,0.0,193.0,0.0,194.0,0.0,17.0,0.0,180.0,194.0,17.0,180.0,1744420417.0299668,0.0,2025-04-11 21:13:37.029,RIGHT,15
150.0,23669.60330839197,27964.602764201496,-32004.27824309805,-26019.57631344513,-36787.015114666836,-31160.186965487836,-12392.45532661144,-38782.24358346982,0.0,0.0,0.0,193.0,0.0,193.0,0.0,17.0,0.0,179.0,193.0,17.0,179.0,1744420417.0300107,0.0,2025-04-11 21:13:37.030,RIGHT,15
151.0,23666.67522986832,27966.502662480198,-32001.61838550787,-26016.558827943663,-36780.84603319717,-31163.96441030078,-12419.567992635726,-38774.107548488086,0.0,0.0,0.0,193.0,0.0,193.0,0.0,17.0,0.0,179.0,193.0,17.0,179.0,1744420417.0300546,0.0,2025-04-11 21:13:37.030,RIGHT,15
152.0,23704.74025067571,27975.219842817765,-32010.536731545537,-26020.33627275661,-36790.367876335134,-31175.78848311764,-11945.59925146094,-38753.342777889105,0.0,0.0,0.0,193.0,0.0,193.0,0.0,17.0,0.0,179.0,193.0,17.0,179.0,1744420417.0300994,0.0,2025-04-11 21:13:37.030,RIGHT,15
153.0,23703.846180897497,27962.032313589134,-32010.71554550118,-26027.19825830439,-36786.99276292238,-31168.54651791412,-11981.518504800619,-38782.04241776972,0.0,0.0,0.0,193.0,0.0,193.0,0.0,17.0,0.0,179.0,193.0,17.0,179.0,1744420417.030143,0.0,2025-04-11 21:13:37.030,RIGHT,15
154.0,23676.64410789539,27965.765054913172,-32013.978900191654,-26021.72208091284,-36792.178367636014,-31161.326904455058,-12316.794671630225,-38776.74505433381,0.0,0.0,0.0,193.0,0.0,193.0,0.0,17.0,0.0,179.0,193.0,17.0,179.0,1744420417.0301874,0.0,2025-04-11 21:13:37.030,RIGHT,15
155.0,23677.940509073796,27985.725162711762,-31989.682553968738,-25993.3353654546,-36771.95003890396,-31139.31043616658,-12471.200522327486,-38770.91124903098,0.0,0.0,0.0,193.0,0.0,193.0,0.0,17.0,0.0,179.0,193.0,17.0,179.0,1744420417.030246,0.0,2025-04-11 21:13:37.030,RIGHT,15
156.0,23700.538122718113,27986.194549345324,-32005.261719854087,-25997.135162012,-36790.97137343542,-31158.577639887055,-12016.387226150899,-38746.48079234133,0.0,0.0,0.0,193.0,0.0,193.0,0.0,17.0,0.0,179.0,193.0,17.0,179.0,1744420417.03029,0.0,2025-04-11 21:13:37.030,RIGHT,15
157.0,23704.829657653532,27970.34716252651,-32006.66987975477,-26007.729888883816,-36793.85474847016,-31153.481442151242,-11946.426266005787,-38778.57789737915,0.0,0.0,0.0,193.0,0.0,193.0,0.0,17.0,0.0,180.0,193.0,17.0,180.0,1744420417.0303335,0.0,2025-04-11 21:13:37.030,RIGHT,15
158.0,23676.845273595485,27967.687304936328,-32001.23840585213,-25995.794057344683,-36789.49615830137,-31137.812869288075,-12278.372022911552,-38756.96376049087,0.0,0.0,0.0,193.0,0.0,193.0,0.0,17.0,0.0,180.0,193.0,17.0,180.0,1744420417.0303898,0.0,2025-04-11 21:13:37.030,RIGHT,15
159.0,23669.58095664751,27975.10808409549,-31995.538711016026,-25991.726039853816,-36782.05302739776,-31135.175363442348,-12490.311263836773,-38755.26502791227,0.0,0.0,0.0,193.0,0.0,193.0,0.0,17.0,0.0,180.0,193.0,17.0,180.0,1744420417.0304332,0.0,2025-04-11 21:13:37.030,RIGHT,15
160.0,23697.96767210575,27980.785427187137,-32005.90992044329,-25997.76101085675,-36794.54765254827,-31156.253058463702,-12114.35492209851,-38750.86173425457,0.0,0.0,0.0,193.0,0.0,194.0,0.0,17.0,0.0,180.0,194.0,17.0,180.0,1744420417.0304759,0.0,2025-04-11 21:13:37.030,RIGHT,15
161.0,23707.556570477078,27967.754360169693,-32012.503685057603,-26017.89993261098,-36801.342582862686,-31165.864308579483,-11908.607114387407,-38786.02102828277,0.0,0.0,0.0,193.0,0.0,193.0,0.0,17.0,0.0,179.0,193.0,17.0,179.0,1744420417.0305183,0.0,2025-04-11 21:13:37.030,RIGHT,15
162.0,23679.68394514131,27959.81949088806,-32010.42497282326,-26013.071955808635,-36795.9334607045,-31152.54266888412,-12211.406196523452,-38765.01038849478,0.0,0.0,0.0,193.0,0.0,193.0,0.0,17.0,0.0,180.0,193.0,17.0,180.0,1744420417.0305612,0.0,2025-04-11 21:13:37.030,RIGHT,15
163.0,23667.59165139099,27973.34229628352,-31999.450266295706,-26002.56663591464,-36782.678876242506,-31140.316264667068,-12490.624188259148,-38751.75580403278,0.0,0.0,0.0,193.0,0.0,193.0,0.0,17.0,0.0,179.0,193.0,17.0,179.0,1744420417.0306041,0.0,2025-04-11 21:13:37.030,RIGHT,15
164.0,23694.749020904186,27982.90884291039,-32000.81372270748,-26002.14195276999,-36784.1317396321,-31157.147128241915,-12211.070920356622,-38747.44191735291,0.0,0.0,0.0,193.0,0.0,193.0,0.0,17.0,0.0,179.0,193.0,17.0,179.0,1744420417.0306587,0.0,2025-04-11 21:13:37.030,RIGHT,15
165.0,23709.143544333405,27971.82237766056,-32015.655281025804,-26026.415947248453,-36798.50391131686,-31175.386151717445,-11877.694651805718,-38777.41560666748,0.0,0.0,0.0,193.0,0.0,194.0,0.0,17.0,0.0,180.0,194.0,17.0,180.0,1744420417.0307019,0.0,2025-04-11 21:13:37.030,RIGHT,15
166.0,23678.16402651835,27957.62901993144,-32015.990557192632,-26024.91838036995,-36792.31247810274,-31162.511546911188,-12137.98071598777,-38775.96274327788,0.0,0.0,0.0,193.0,0.0,194.0,0.0,17.0,0.0,180.0,194.0,17.0,180.0,1744420417.030745,0.0,2025-04-11 21:13:37.030,RIGHT,15
167.0,23662.182529232807,27974.839863162026,-32000.724315729658,-26006.90287433897,-36780.84603319717,-31139.466898377766,-12459.264690788352,-38754.460365111874,0.0,0.0,0.0,193.0,0.0,194.0,0.0,17.0,0.0,180.0,194.0,17.0,180.0,1744420417.0307877,0.0,2025-04-11 21:13:37.030,RIGHT,15
168.0,23687.194131278295,27979.511377753184,-31997.170388361264,-25997.470438178832,-36778.52145177382,-31142.149107712405,-12307.116366281078,-38726.52068454274,0.0,0.0,0.0,193.0,0.0,194.0,0.0,17.0,0.0,180.0,194.0,17.0,180.0,1744420417.0308304,0.0,2025-04-11 21:13:37.030,RIGHT,15
169.0,23705.231989053726,27976.87387190746,-32016.95168220421,-26020.358624501067,-36793.20654788095,-31167.25011673571,-11878.58872158393,-38745.05028069619,0.0,0.0,0.0,193.0,0.0,194.0,0.0,17.0,0.0,180.0,194.0,17.0,180.0,1744420417.0308733,0.0,2025-04-11 21:13:37.030,RIGHT,15
170.0,23685.182474277317,27962.121720566956,-32015.297653114518,-26021.587970446108,-36788.64679201207,-31159.69522710982,-12080.492029248719,-38767.62554259605,0.0,0.0,0.0,193.0,0.0,194.0,0.0,18.0,0.0,179.0,194.0,18.0,179.0,1744420417.0309293,0.0,2025-04-11 21:13:37.030,RIGHT,15
171.0,23661.467273410235,27967.083807836036,-32007.38513557734,-26011.52968544122,-36779.460225040944,-31149.45812814929,-12431.928507319511,-38769.12310947455,0.0,0.0,0.0,193.0,0.0,194.0,0.0,17.0,0.0,180.0,194.0,17.0,180.0,1744420417.0309727,0.0,2025-04-11 21:13:37.030,RIGHT,15
172.0,23673.894843327387,27971.91178463838,-32004.65822275379,-26005.3382522271,-36777.649733740065,-31151.87211655046,-12385.63804455257,-38758.97541749185,0.0,0.0,0.0,193.0,0.0,194.0,0.0,17.0,0.0,180.0,194.0,17.0,180.0,1744420417.0310156,0.0,2025-04-11 21:13:37.031,RIGHT,15
173.0,23704.36027101997,27974.124607339458,-32017.9575107047,-26019.01751983375,-36794.480597314905,-31172.03339004915,-11903.98030328516,-38751.35347263259,0.0,0.0,0.0,193.0,0.0,194.0,0.0,17.0,0.0,180.0,194.0,17.0,180.0,1744420417.0310736,0.0,2025-04-11 21:13:37.031,RIGHT,15
174.0,23693.720840659244,27962.479348478242,-32010.67084201227,-26016.692938410397,-36793.363010092144,-31159.82933757655,-12032.301668203077,-38773.280533943245,0.0,0.0,0.0,193.0,0.0,194.0,0.0,17.0,0.0,179.0,194.0,17.0,179.0,1744420417.031118,0.0,2025-04-11 21:13:37.031,RIGHT,15
175.0,23666.205843234762,27972.783502672137,-31998.46678953967,-25996.889292822994,-36778.90143142956,-31145.725386825252,-12382.017061950812,-38761.76938554876,0.0,0.0,0.0,193.0,0.0,194.0,0.0,17.0,0.0,179.0,194.0,17.0,179.0,1744420417.0311615,0.0,2025-04-11 21:13:37.031,RIGHT,15
176.0,23669.849177580974,27977.231499818743,-31992.81179819248,-25991.68133636491,-36774.90046917206,-31151.290971194623,-12435.303620732264,-38768.452557140896,0.0,0.0,0.0,193.0,0.0,193.0,0.0,17.0,0.0,180.0,193.0,17.0,180.0,1744420417.0312047,0.0,2025-04-11 21:13:37.031,RIGHT,15
177.0,23704.78495416462,27981.813607432083,-32001.14899887431,-25998.00688004576,-36782.85769019815,-31169.239421992235,-11962.899501669348,-38748.62655980904,0.0,0.0,0.0,193.0,0.0,194.0,0.0,17.0,0.0,180.0,194.0,17.0,180.0,1744420417.0312479,0.0,2025-04-11 21:13:37.031,RIGHT,15
178.0,23693.139695303405,27961.20529904429,-32003.361821575385,-26013.87661860903,-36784.489367543385,-31168.412407447388,-11968.241568594167,-38778.510842145784,0.0,0.0,0.0,193.0,0.0,194.0,0.0,17.0,0.0,180.0,194.0,17.0,180.0,1744420417.031304,0.0,2025-04-11 21:13:37.031,RIGHT,15
179.0,23668.441017680292,27971.800025916105,-31991.738914458623,-25997.313975967645,-36774.2299168384,-31148.58641011553,-12313.508965195295,-38758.170754691455,0.0,0.0,0.0,193.0,0.0,194.0,0.0,17.0,0.0,180.0,194.0,17.0,180.0,1744420417.0313475,0.0,2025-04-11 21:13:37.031,RIGHT,15
180.0,23665.49058741219,27988.72029646877,-31978.730199185637,-25982.3830106715,-36764.81983242271,-31137.187020443325,-12467.110153092164,-38750.81703076566,0.0,0.0,0.0,193.0,0.0,193.0,0.0,17.0,0.0,179.0,193.0,17.0,179.0,1744420417.0313904,0.0,2025-04-11 21:13:37.031,RIGHT,15
181.0,23692.983233092218,27991.044877892124,-31998.377382561852,-25996.2857957227,-36786.74689373337,-31162.064512022083,-12036.213223482755,-38738.90355097098,0.0,0.0,0.0,193.0,0.0,193.0,0.0,17.0,0.0,179.0,193.0,17.0,179.0,1744420417.0314388,0.0,2025-04-11 21:13:37.031,RIGHT,15
182.0,23695.039593582107,27967.642601447416,-32005.820513465467,-26019.106926811568,-36789.83143446821,-31167.630096391455,-11938.871376379893,-38780.07546425766,0.0,0.0,0.0,193.0,0.0,194.0,0.0,17.0,0.0,179.0,194.0,17.0,179.0,1744420417.0314815,0.0,2025-04-11 21:13:37.031,RIGHT,15
183.0,23670.273860725625,27968.357857269988,-31994.42112379326,-26005.539417927197,-36777.04623663977,-31150.665122349874,-12276.114496721566,-38767.93846701842,0.0,0.0,0.0,193.0,0.0,193.0,0.0,17.0,0.0,179.0,193.0,17.0,179.0,1744420417.0315244,0.0,2025-04-11 21:13:37.031,RIGHT,15
184.0,23667.34578220198,27983.11000861049,-31980.071303852954,-25990.1837694864,-36760.84122190967,-31134.683625064332,-12493.954598182989,-38753.36512963357,0.0,0.0,0.0,193.0,0.0,194.0,0.0,17.0,0.0,180.0,194.0,17.0,180.0,1744420417.031567,0.0,2025-04-11 21:13:37.031,RIGHT,15
185.0,23694.167875548348,27987.468598779276,-31991.068362124966,-25996.352850956067,-36773.89464067157,-31159.225840476258,-12133.175090929877,-38744.737356273814,0.0,0.0,0.0,193.0,0.0,194.0,0.0,17.0,0.0,180.0,194.0,17.0,180.0,1744420417.031628,0.0,2025-04-11 21:13:37.031,RIGHT,15
186.0,23695.665442426856,27968.894299136915,-32005.03820240953,-26021.967950101847,-36792.245422869375,-31179.65533490841,-11907.757748098105,-38790.08904577363,0.0,0.0,0.0,193.0,0.0,193.0,0.0,18.0,0.0,179.0,193.0,18.0,179.0,1744420417.0316708,0.0,2025-04-11 21:13:37.031,RIGHT,15
187.0,23677.78404686261,27968.53667122563,-31996.030449394042,-26008.355737728565,-36788.333867589696,-31159.49406140972,-12214.244868069276,-38777.05797875619,0.0,0.0,0.0,193.0,0.0,193.0,0.0,17.0,0.0,179.0,193.0,17.0,179.0,1744420417.0317135,0.0,2025-04-11 21:13:37.031,RIGHT,15
188.0,23662.316639699537,27983.60174698851,-31985.033391122033,-25996.442257933886,-36776.5321465173,-31144.674854835852,-12500.190734886019,-38759.087176214125,0.0,0.0,0.0,193.0,0.0,193.0,0.0,18.0,0.0,179.0,193.0,18.0,179.0,1744420417.0317695,0.0,2025-04-11 21:13:37.031,RIGHT,15
189.0,23676.73351487321,27983.333526055045,-31989.347277801906,-25998.76683935724,-36775.03457963879,-31162.757416100198,-12235.769597979737,-38738.81414399316,0.0,0.0,0.0,193.0,0.0,193.0,0.0,17.0,0.0,180.0,193.0,17.0,180.0,1744420417.031813,0.0,2025-04-11 21:13:37.031,RIGHT,15
190.0,23695.911311615862,27978.505549252695,-32001.14899887431,-26018.861057622562,-36787.26098385584,-31180.907032597905,-11884.78015479805,-38773.414644409975,0.0,0.0,0.0,193.0,0.0,194.0,0.0,17.0,0.0,180.0,194.0,17.0,180.0,1744420417.0318556,0.0,2025-04-11 21:13:37.031,RIGHT,15
