Sample Index,EXG Channel 0,EXG Channel 1,EXG Channel 2,EXG Channel 3,EXG Channel 4,EXG Channel 5,EXG Channel 6,EXG Channel 7,Accel Channel 0,Accel Channel 1,Accel Channel 2,Not Used,Digital Channel 0 (D11),Digital Channel 1 (D12),Digital Channel 2 (D13),Digital Channel 3 (D17),Not Used,Digital Channel 4 (D18),Analog Channel 0,Analog Channel 1,Analog Channel 2,Timestamp,Marker Channel,Timestamp (Formatted),Stimulus_Direction,Stimulus_Number
81.0,11805.364406748344,847.6005014896991,-57575.098583113984,-54042.76299986399,-33071.37287513887,-30330.825487473667,-4814.968087073336,-20286.465619381146,0.0,0.0,0.0,193.0,1.0,155.0,0.0,10.0,3.0,251.0,411.0,10.0,1019.0,1744252870.5075555,0.0,2025-04-09 22:41:10.507,RIGHT,37
82.0,11764.259548695034,854.3954318041125,-57537.30178324006,-54008.58718259182,-33010.41966800924,-30268.151196020986,-4789.241229205279,-20206.33461550887,0.0,0.0,0.0,193.0,1.0,154.0,0.0,9.0,3.0,249.0,410.0,9.0,1017.0,1744252870.5075645,0.0,2025-04-09 22:41:10.507,RIGHT,37
83.0,11710.12362362428,852.607292247688,-57571.96933889024,-54042.69594463062,-33028.03284264002,-30286.837254385624,-4733.965365167304,-20219.544496481954,0.0,0.0,0.0,193.0,1.0,154.0,0.0,8.0,3.0,249.0,410.0,8.0,1017.0,1744252870.5075736,0.0,2025-04-09 22:41:10.507,RIGHT,37
84.0,11702.568733998387,823.8405971337077,-57568.05778361056,-54017.08084548484,-33058.38651161033,-30315.91687392198,-4731.149045365935,-20249.786406729985,0.0,0.0,0.0,193.0,1.0,154.0,0.0,8.0,3.0,250.0,410.0,8.0,1018.0,1744252870.5075824,0.0,2025-04-09 22:41:10.507,RIGHT,37
85.0,11797.943627589182,833.9882891164171,-57580.552408761076,-54024.188700221624,-33081.185290954745,-30332.032481674254,-4750.326842108589,-20278.597805332876,0.0,0.0,0.0,193.0,1.0,154.0,0.0,7.0,3.0,250.0,410.0,7.0,1018.0,1744252870.5075912,0.0,2025-04-09 22:41:10.507,RIGHT,37
86.0,11771.501513898555,845.2535683218919,-57540.76630363063,-54022.244098454015,-33007.983327863614,-30256.12595750403,-4839.040915851702,-20209.821487643898,0.0,0.0,0.0,193.0,1.0,155.0,0.0,7.0,3.0,251.0,411.0,7.0,1019.0,1744252870.5076,0.0,2025-04-09 22:41:10.507,RIGHT,37
87.0,11717.723216739085,845.4323822775343,-57568.527170244124,-54027.74262759002,-33023.42838328223,-30278.924736848443,-4719.436731271355,-20215.297665035447,0.0,0.0,0.0,193.0,1.0,155.0,0.0,6.0,3.0,252.0,411.0,6.0,1020.0,1744252870.507609,0.0,2025-04-09 22:41:10.507,RIGHT,37
88.0,11683.301530277913,814.5646231847553,-57577.17729534832,-54040.52782541845,-33049.98225569514,-30308.876074418557,-4761.435659102876,-20242.72325548211,0.0,0.0,0.0,193.0,1.0,154.0,0.0,6.0,3.0,248.0,410.0,6.0,1016.0,1744252870.5076177,0.0,2025-04-09 22:41:10.507,RIGHT,37
89.0,11791.506325186054,836.9387193845176,-57573.131629601914,-54002.954542989086,-33081.386456654844,-30335.47465032037,-4706.5397747206425,-20272.808703518953,0.0,0.0,0.0,193.0,1.0,154.0,0.0,6.0,3.0,250.0,410.0,6.0,1018.0,1744252870.5076308,0.0,2025-04-09 22:41:10.507,RIGHT,37
90.0,11781.515095414532,843.1748560875483,-57545.34841124397,-54039.81256959589,-33016.38758377881,-30260.685713372914,-4881.486878572331,-20217.890467392263,0.0,0.0,0.0,193.0,1.0,154.0,0.0,6.0,3.0,249.0,410.0,6.0,1017.0,1744252870.5076396,0.0,2025-04-09 22:41:10.507,RIGHT,37
91.0,11729.904917467227,850.6626904800762,-57558.87121663943,-54013.12458671625,-33024.74713620509,-30274.99082982431,-4720.062580116103,-20219.164516826215,0.0,0.0,0.0,193.0,1.0,154.0,0.0,5.0,3.0,251.0,410.0,5.0,1019.0,1744252870.5076487,0.0,2025-04-09 22:41:10.507,RIGHT,37
92.0,11679.59114069833,824.4664459784564,-57579.703042471774,-54053.000098824516,-33047.434156827236,-30303.288138304728,-4789.062415249636,-20251.306325352947,0.0,0.0,0.0,193.0,1.0,155.0,0.0,5.0,3.0,252.0,411.0,5.0,1020.0,1744252870.5076578,0.0,2025-04-09 22:41:10.507,RIGHT,37
93.0,11773.356708688345,834.9717658724506,-57570.427068522826,-53988.85059223779,-33087.98022126916,-30340.19086840044,-4683.092794787025,-20278.73191579961,0.0,0.0,0.0,193.0,1.0,155.0,0.0,5.0,3.0,249.0,411.0,5.0,1017.0,1744252870.5076668,0.0,2025-04-09 22:41:10.507,RIGHT,37
94.0,11793.495630442576,845.9688241444617,-57550.44460897978,-54046.89807258822,-33021.908464659275,-30269.64876289949,-4794.1809647299015,-20222.517278494513,0.0,0.0,0.0,193.0,1.0,154.0,0.0,5.0,3.0,249.0,410.0,5.0,1017.0,1744252870.5076787,0.0,2025-04-09 22:41:10.507,RIGHT,37
95.0,11745.79700777495,858.5081527838889,-57538.91110884084,-53990.281103882924,-33006.2398917961,-30263.926716318932,-4469.432469538745,-20197.885656104765,0.0,0.0,0.0,193.0,1.0,154.0,0.0,5.0,3.0,250.0,410.0,5.0,1018.0,1744252870.5076904,0.0,2025-04-09 22:41:10.507,RIGHT,37
96.0,11687.056623346403,839.6656322080651,-57569.085963855505,-54048.17212202217,-33028.278711829036,-30285.585556696125,-4509.442092113744,-20226.96527564112,0.0,0.0,0.0,193.0,1.0,154.0,0.0,4.0,3.0,251.0,410.0,4.0,1019.0,1744252870.507702,0.0,2025-04-09 22:41:10.507,RIGHT,37
97.0,11761.979670760593,845.9688241444617,-57548.29884151207,-53965.91770242664,-33062.029845956546,-30324.254074603807,-4371.1965526576705,-20257.989496945083,0.0,0.0,0.0,193.0,1.0,155.0,0.0,4.0,3.0,250.0,411.0,4.0,1018.0,1744252870.5077133,0.0,2025-04-09 22:41:10.507,RIGHT,37
98.0,11810.460604484155,855.602426004699,-57547.51653045613,-54036.83978758333,-33025.70826121667,-30274.677905401935,-4570.931741110295,-20232.24028733257,0.0,0.0,0.0,193.0,1.0,155.0,0.0,4.0,3.0,252.0,411.0,4.0,1020.0,1744252870.5077248,0.0,2025-04-09 22:41:10.507,RIGHT,37
99.0,11777.201208734657,878.892943727129,-57510.45733814924,-53963.68252798111,-32989.02904856551,-30237.484602628305,-4412.390817688802,-20178.886673317753,0.0,0.0,0.0,193.0,1.0,154.0,0.0,4.0,3.0,249.0,410.0,4.0,1017.0,1744252870.5077336,0.0,2025-04-09 22:41:10.507,RIGHT,37
100.0,11714.593972515342,866.1971528765146,-57555.47375148222,-54036.571566649865,-33020.45560126968,-30273.649725156993,-4471.444126539723,-20224.461880262123,0.0,0.0,0.0,193.0,1.0,154.0,0.0,4.0,3.0,250.0,410.0,4.0,1018.0,1744252870.5077424,0.0,2025-04-09 22:41:10.507,RIGHT,37
101.0,11746.355801386333,845.7453066999086,-57552.27745202511,-53981.29570261189,-33072.669276317276,-30330.49021130684,-4399.002122760073,-20271.042915706985,0.0,0.0,0.0,193.0,1.0,154.0,0.0,4.0,3.0,249.0,410.0,4.0,1017.0,1744252870.5077512,0.0,2025-04-09 22:41:10.507,RIGHT,37
102.0,11806.258476526556,850.4615247799784,-57571.00821387866,-54053.46948545808,-33067.148395436816,-30315.46983903287,-4563.3768514844005,-20268.316002883435,0.0,0.0,0.0,193.0,1.0,154.0,0.0,4.0,3.0,250.0,410.0,4.0,1018.0,1744252870.50776,0.0,2025-04-09 22:41:10.507,RIGHT,37
103.0,11762.13613297178,857.2788068388471,-57530.79742560357,-54001.613438321765,-33010.10674358687,-30270.162853021964,-4484.184620879248,-20222.20435407214,0.0,0.0,0.0,193.0,1.0,155.0,0.0,4.0,3.0,250.0,411.0,4.0,1018.0,1744252870.5077689,0.0,2025-04-09 22:41:10.507,RIGHT,37
104.0,11703.88748692125,846.3935072891126,-57568.12483884393,-54055.34703199232,-33028.904560673785,-30294.28038528924,-4473.880466685351,-20240.890412436773,0.0,0.0,0.0,193.0,1.0,154.0,0.0,4.0,3.0,250.0,410.0,4.0,1018.0,1744252870.507788,0.0,2025-04-09 22:41:10.507,RIGHT,37
105.0,11710.637713746753,814.028181317828,-57566.18023707632,-54019.96422051957,-33069.383569882346,-30342.068414934685,-4436.910681356273,-20283.738706557597,0.0,0.0,0.0,193.0,1.0,154.0,0.0,4.0,3.0,250.0,410.0,4.0,1018.0,1744252870.5077968,0.0,2025-04-09 22:41:10.507,RIGHT,37
106.0,11803.084528813903,832.2448530489032,-57574.42803078032,-54049.848502856315,-33071.037598972034,-30336.05579567621,-4508.346856635435,-20281.68234606771,0.0,0.0,0.0,193.0,1.0,154.0,0.0,4.0,3.0,250.0,410.0,4.0,1018.0,1744252870.5078056,0.0,2025-04-09 22:41:10.507,RIGHT,37
107.0,11762.51611262752,839.5315217413332,-57536.8323966065,-54026.088598500326,-33009.43619125321,-30275.75078913579,-4528.664592345309,-20221.19852557165,0.0,0.0,0.0,193.0,1.0,154.0,0.0,3.0,3.0,250.0,410.0,3.0,1018.0,1744252870.507814,0.0,2025-04-09 22:41:10.507,RIGHT,37
108.0,11715.868021949294,848.8745509236517,-57561.82164690753,-54044.99817430952,-33022.15433384828,-30295.353269023093,-4462.54813224651,-20247.506528795544,0.0,0.0,0.0,193.0,1.0,155.0,0.0,3.0,3.0,252.0,411.0,3.0,1020.0,1744252870.5078228,0.0,2025-04-09 22:41:10.507,RIGHT,37
109.0,11684.687338434142,810.3177917382469,-57571.119972600936,-54038.89614807322,-33059.928781977746,-30336.212257887397,-4474.863943441384,-20278.754267544064,0.0,0.0,0.0,193.0,1.0,155.0,0.0,3.0,3.0,250.0,411.0,3.0,1018.0,1744252870.5078316,0.0,2025-04-09 22:41:10.507,RIGHT,37
110.0,11794.724976387619,837.6092717181768,-57569.53299874461,-54021.97587752055,-33071.66344781678,-30335.944036953933,-4454.680318198242,-20265.477331337614,0.0,0.0,0.0,193.0,1.0,154.0,0.0,3.0,3.0,250.0,410.0,3.0,1018.0,1744252870.5078404,0.0,2025-04-09 22:41:10.507,RIGHT,37
111.0,11778.832886079894,843.1748560875483,-57534.66427739433,-54031.69888635861,-33002.0377638385,-30259.434015683415,-4564.4273834738,-20209.977949855085,0.0,0.0,0.0,193.0,1.0,154.0,0.0,3.0,3.0,249.0,410.0,3.0,1017.0,1744252870.5078492,0.0,2025-04-09 22:41:10.507,RIGHT,37
112.0,11721.768882485496,844.1583328435819,-57572.662242968356,-54039.924328318164,-33032.23497059762,-30294.593309711614,-4445.78432390503,-20235.436586789678,0.0,0.0,0.0,193.0,1.0,154.0,0.0,3.0,3.0,250.0,410.0,3.0,1018.0,1744252870.507858,0.0,2025-04-09 22:41:10.507,RIGHT,37
113.0,11686.810754157395,825.7181436679535,-57587.52615303113,-54057.64926167122,-33065.53906983603,-30313.81580994318,-4520.886185274861,-20246.4783485506,0.0,0.0,0.0,193.0,1.0,154.0,0.0,3.0,3.0,252.0,410.0,3.0,1020.0,1744252870.5078669,0.0,2025-04-09 22:41:10.507,RIGHT,37
114.0,11783.973787304616,841.1184955976601,-57569.46594351125,-53997.99245572001,-33081.051180488015,-30330.311397351194,-4433.669678410253,-20259.889395223785,0.0,0.0,0.0,193.0,1.0,155.0,0.0,3.0,3.0,251.0,411.0,3.0,1019.0,1744252870.5078757,0.0,2025-04-09 22:41:10.507,RIGHT,37
115.0,11771.277996454,836.4469810065009,-57547.53888220059,-54044.662898142684,-33013.21363606616,-30263.27851572973,-4606.001628160671,-20213.822449901396,0.0,0.0,0.0,193.0,1.0,155.0,0.0,3.0,3.0,252.0,411.0,3.0,1020.0,1744252870.5078847,0.0,2025-04-09 22:41:10.507,RIGHT,37
116.0,11729.815510489407,850.1486003576041,-57546.644812422375,-54002.41810112216,-33010.53142673152,-30267.480643687326,-4436.418942978256,-20214.649464446244,0.0,0.0,0.0,193.0,1.0,154.0,0.0,3.0,3.0,249.0,410.0,3.0,1017.0,1744252870.5078936,0.0,2025-04-09 22:41:10.507,RIGHT,37
117.0,11669.957538838094,818.6996959089871,-57574.65154822488,-54052.26249125749,-33041.84622071341,-30292.067562588163,-4527.122321977892,-20242.879717693297,0.0,0.0,0.0,193.0,1.0,155.0,0.0,3.0,3.0,252.0,411.0,3.0,1020.0,1744252870.5079021,0.0,2025-04-09 22:41:10.507,RIGHT,37
118.0,11762.627871349798,831.9542803709842,-57560.18996956229,-53978.85936246626,-33077.65371533081,-30325.9081036935,-4419.878652081329,-20265.34322087088,0.0,0.0,0.0,193.0,1.0,155.0,0.0,3.0,3.0,252.0,411.0,3.0,1020.0,1744252870.5079107,0.0,2025-04-09 22:41:10.507,RIGHT,37
119.0,11777.558836645941,836.8046089177858,-57560.122914328924,-54051.07784880136,-33033.03963339802,-30263.09970177409,-4634.991840719204,-20222.070243605405,0.0,0.0,0.0,193.0,1.0,154.0,0.0,3.0,3.0,249.0,410.0,3.0,1017.0,1744252870.5079238,0.0,2025-04-09 22:41:10.507,RIGHT,37
120.0,11721.679475507675,840.7161641974645,-57558.44653349478,-54005.524993601444,-33026.84820018389,-30266.38540820902,-4476.808545208996,-20222.450223261145,0.0,0.0,0.0,193.0,1.0,154.0,0.0,3.0,3.0,250.0,410.0,3.0,1018.0,1744252870.5079327,0.0,2025-04-09 22:41:10.507,RIGHT,37
121.0,11665.151913780202,823.4382657335121,-57588.308464087066,-54067.21580829809,-33041.06390965747,-30291.86639688807,-4549.89874957785,-20252.110988153338,0.0,0.0,0.0,193.0,1.0,154.0,0.0,3.0,3.0,249.0,410.0,3.0,1017.0,1744252870.5079415,0.0,2025-04-09 22:41:10.507,RIGHT,37
122.0,11727.759149999518,818.4314749755234,-57574.115106357945,-53993.1421271732,-33082.12406422187,-30336.48047882086,-4438.855283123885,-20279.15659894426,0.0,0.0,0.0,193.0,1.0,155.0,0.0,3.0,3.0,252.0,411.0,3.0,1020.0,1744252870.5079503,0.0,2025-04-09 22:41:10.507,RIGHT,37
123.0,11789.002929807059,836.8493124066964,-57571.477600512226,-54061.42670648417,-33043.232028869636,-30286.010239840776,-4628.643945293898,-20234.944848411662,0.0,0.0,0.0,193.0,1.0,155.0,0.0,3.0,3.0,251.0,411.0,3.0,1019.0,1744252870.5079591,0.0,2025-04-09 22:41:10.507,RIGHT,37
124.0,11751.988440989071,852.4061265475901,-57535.893623339376,-53994.25971439597,-33003.33416501691,-30256.349474948584,-4487.805603481007,-20196.835124115365,0.0,0.0,0.0,193.0,1.0,154.0,0.0,3.0,3.0,248.0,410.0,3.0,1016.0,1744252870.507968,0.0,2025-04-09 22:41:10.507,RIGHT,37
125.0,11691.392861770733,838.1457135851042,-57576.05970812556,-54058.14100004924,-33031.698528730696,-30282.344553750107,-4539.594595383954,-20236.15184261225,0.0,0.0,0.0,193.0,1.0,154.0,0.0,3.0,3.0,249.0,410.0,3.0,1017.0,1744252870.5079768,0.0,2025-04-09 22:41:10.507,RIGHT,37
126.0,11720.65129526273,822.2759750218362,-57565.509684742654,-53997.21014466407,-33074.70328506271,-30325.75164148231,-4465.610321236887,-20270.372363373324,0.0,0.0,0.0,193.0,1.0,154.0,0.0,3.0,3.0,250.0,410.0,3.0,1018.0,1744252870.5079856,0.0,2025-04-09 22:41:10.507,RIGHT,37
127.0,11797.09426129988,840.6044054751881,-57577.624330237435,-54054.58707268084,-33065.87434600286,-30315.492190777328,-4603.1182531259365,-20275.62502332032,0.0,0.0,0.0,193.0,1.0,154.0,0.0,3.0,3.0,252.0,410.0,3.0,1020.0,1744252870.5079944,0.0,2025-04-09 22:41:10.507,RIGHT,37
128.0,11756.19056894667,852.6743474810538,-57535.08896053898,-54005.16736569016,-33008.966804619646,-30264.396102952494,-4545.495455920155,-20222.98666512807,0.0,0.0,0.0,193.0,1.0,154.0,0.0,3.0,3.0,252.0,410.0,3.0,1020.0,1744252870.5080032,0.0,2025-04-09 22:41:10.508,RIGHT,37
129.0,11704.89331542174,853.5907690037214,-57564.39209751989,-54044.193511509126,-33019.315662302455,-30273.80618736818,-4512.906612504317,-20218.225743559095,0.0,0.0,0.0,193.0,1.0,155.0,0.0,3.0,3.0,252.0,411.0,3.0,1020.0,1744252870.5080118,0.0,2025-04-09 22:41:10.508,RIGHT,37
130.0,11697.383129284755,816.5986319301883,-57568.34835628848,-54016.38794140673,-33062.00749421209,-30320.700147235413,-4484.117565645882,-20256.67074402222,0.0,0.0,0.0,193.0,1.0,154.0,0.0,3.0,3.0,250.0,410.0,3.0,1018.0,1744252870.5080204,0.0,2025-04-09 22:41:10.508,RIGHT,37
131.0,11797.451889211165,839.5315217413332,-57578.22782733772,-54038.382057950745,-33072.78103503955,-30321.415403057985,-4544.668441375308,-20268.606575561356,0.0,0.0,0.0,193.0,1.0,154.0,0.0,3.0,3.0,249.0,410.0,3.0,1017.0,1744252870.5080292,0.0,2025-04-09 22:41:10.508,RIGHT,37
132.0,11768.215807463625,851.959091658484,-57534.19489076077,-54017.751397818494,-33003.378868505824,-30256.237716226307,-4587.807308174051,-20213.19660105665,0.0,0.0,0.0,193.0,1.0,155.0,0.0,3.0,3.0,252.0,411.0,3.0,1020.0,1744252870.5080378,0.0,2025-04-09 22:41:10.508,RIGHT,37
133.0,11719.623115017786,856.764716716375,-57559.25119629517,-54031.78829333643,-33015.80643842297,-30276.019010069253,-4490.934847704751,-20223.880734906284,0.0,0.0,0.0,193.0,1.0,155.0,0.0,3.0,3.0,251.0,411.0,3.0,1019.0,1744252870.5080466,0.0,2025-04-09 22:41:10.508,RIGHT,37
134.0,11688.040100102437,820.8678151211519,-57566.649623709876,-54030.067209013374,-33051.412767340276,-30317.660309989493,-4521.623792841887,-20267.734857527597,0.0,0.0,0.0,193.0,1.0,154.0,0.0,3.0,3.0,249.0,410.0,3.0,1017.0,1744252870.5080595,0.0,2025-04-09 22:41:10.508,RIGHT,37
135.0,11794.344996731877,840.4479432640009,-57569.17537083333,-54010.88941227072,-33078.77130255357,-30341.129641667565,-4500.501394331622,-20286.35386065887,0.0,0.0,0.0,193.0,1.0,154.0,0.0,3.0,3.0,249.0,410.0,3.0,1017.0,1744252870.5080683,0.0,2025-04-09 22:41:10.508,RIGHT,37
136.0,11773.84844706636,847.6005014896991,-57538.57583267401,-54028.01084852348,-33010.59848196489,-30266.98890530931,-4631.572023817543,-20224.52893549549,0.0,0.0,0.0,193.0,1.0,155.0,0.0,3.0,3.0,250.0,411.0,3.0,1018.0,1744252870.5080771,0.0,2025-04-09 22:41:10.508,RIGHT,37
137.0,11725.903955209727,855.8706469381627,-57555.22788229321,-54007.894278513704,-33016.90167390128,-30283.86447237307,-4480.071899899471,-20230.42979603169,0.0,0.0,0.0,193.0,1.0,155.0,0.0,2.0,3.0,251.0,411.0,2.0,1019.0,1744252870.5080857,0.0,2025-04-09 22:41:10.508,RIGHT,37
138.0,11683.234475044546,821.9183471105513,-57569.75651618916,-54028.21201422358,-33041.28742710203,-30305.47860926135,-4545.383697197878,-20238.834051946887,0.0,0.0,0.0,193.0,1.0,155.0,0.0,2.0,3.0,252.0,411.0,2.0,1020.0,1744252870.5080945,0.0,2025-04-09 22:41:10.508,RIGHT,37
139.0,11785.873685583316,841.6102339756768,-57561.15109457387,-53968.555208272366,-33075.44089262973,-30339.408557344505,-4461.609358979387,-20258.794159745474,0.0,0.0,0.0,193.0,1.0,155.0,0.0,2.0,3.0,251.0,411.0,2.0,1019.0,1744252870.5081031,0.0,2025-04-09 22:41:10.508,RIGHT,37
140.0,11778.18468549069,844.1136293546713,-57556.658393938356,-54031.251851469504,-33027.228179839636,-30287.016068341265,-4671.514591159176,-20226.182964585183,0.0,0.0,0.0,193.0,1.0,155.0,0.0,2.0,3.0,250.0,411.0,2.0,1018.0,1744252870.5081117,0.0,2025-04-09 22:41:10.508,RIGHT,37
141.0,11738.935022227171,865.7054144984978,-57546.980088589204,-53973.91962694164,-33008.16214181926,-30280.55641419368,-4480.094251643926,-20204.814696885907,0.0,0.0,0.0,193.0,1.0,154.0,0.0,2.0,3.0,251.0,410.0,2.0,1019.0,1744252870.5081203,0.0,2025-04-09 22:41:10.508,RIGHT,37
142.0,11683.457992489099,841.8337514202299,-57571.65641446786,-54018.28783968542,-33027.94343566221,-30297.38727776853,-4553.229159501691,-20224.841859917862,0.0,0.0,0.0,193.0,1.0,154.0,0.0,2.0,3.0,250.0,410.0,2.0,1018.0,1744252870.5081291,0.0,2025-04-09 22:41:10.508,RIGHT,37
143.0,11769.288691197478,846.7287834559421,-57559.74293467319,-53939.050905591364,-33069.160052437794,-30331.697205507426,-4438.788227890519,-20253.519148054023,0.0,0.0,0.0,193.0,1.0,155.0,0.0,2.0,3.0,252.0,411.0,2.0,1020.0,1744252870.5081377,0.0,2025-04-09 22:41:10.508,RIGHT,37
144.0,11797.42953746671,849.0086613903835,-57559.76528641764,-54010.352970403794,-33021.43907802571,-30277.404818225485,-4646.748858302696,-20209.70972892162,0.0,0.0,0.0,193.0,1.0,155.0,0.0,2.0,3.0,251.0,411.0,2.0,1019.0,1744252870.5081463,0.0,2025-04-09 22:41:10.508,RIGHT,37
145.0,11750.781446788484,859.5139812843778,-57545.54957694407,-53948.75156268496,-33000.361383004354,-30271.436902455916,-4469.655986983298,-20190.196656012136,0.0,0.0,0.0,193.0,1.0,155.0,0.0,2.0,3.0,252.0,411.0,2.0,1020.0,1744252870.508155,0.0,2025-04-09 22:41:10.508,RIGHT,37
146.0,11688.330672780356,840.4255915195456,-57584.55337101858,-54012.00699949348,-33027.87638042884,-30290.771161409757,-4542.746191352152,-20214.113022579317,0.0,0.0,0.0,193.0,1.0,154.0,0.0,2.0,3.0,248.0,410.0,2.0,1016.0,1744252870.5081637,0.0,2025-04-09 22:41:10.508,RIGHT,37
147.0,11743.293612395957,831.0825623372272,-57574.38332729141,-53937.86626313523,-33072.60222108391,-30331.697205507426,-4434.161416788271,-20248.46765380712,0.0,0.0,0.0,193.0,1.0,154.0,0.0,2.0,3.0,249.0,410.0,2.0,1017.0,1744252870.5081725,0.0,2025-04-09 22:41:10.508,RIGHT,37
148.0,11802.481031713609,844.6277194771433,-57580.30653957207,-54003.37922613374,-33043.34378759191,-30289.899443376,-4606.493366538688,-20217.644598203256,0.0,0.0,0.0,193.0,1.0,154.0,0.0,2.0,3.0,251.0,410.0,2.0,1019.0,1744252870.508181,0.0,2025-04-09 22:41:10.508,RIGHT,37
149.0,11755.765885802019,864.7442894869197,-57546.711867655744,-53940.8837486367,-33000.76371440455,-30256.37182669304,-4488.2973418590245,-20182.28413847496,0.0,0.0,0.0,193.0,1.0,155.0,0.0,2.0,3.0,250.0,411.0,2.0,1018.0,1744252870.508194,0.0,2025-04-09 22:41:10.508,RIGHT,37
150.0,11692.041062359938,856.8988271831068,-57583.48048728472,-53997.50071734199,-33017.34870879039,-30270.65459139998,-4506.156385678814,-20190.15195252323,0.0,0.0,0.0,193.0,1.0,155.0,0.0,2.0,3.0,251.0,411.0,2.0,1019.0,1744252870.5082028,0.0,2025-04-09 22:41:10.508,RIGHT,37
151.0,11725.03223717597,843.2195595764589,-57564.883835897905,-53935.29581252287,-33047.05417717149,-30306.931472650944,-4434.273175510547,-20220.662083704723,0.0,0.0,0.0,193.0,1.0,155.0,0.0,2.0,3.0,252.0,411.0,2.0,1020.0,1744252870.5082114,0.0,2025-04-09 22:41:10.508,RIGHT,37
152.0,11803.911543358749,850.6850422245315,-57583.81576345155,-53988.44826083759,-33050.362235350876,-30299.28717604723,-4551.776296112096,-20224.43952851767,0.0,0.0,0.0,193.0,1.0,155.0,0.0,2.0,3.0,250.0,411.0,2.0,1018.0,1744252870.50822,0.0,2025-04-09 22:41:10.508,RIGHT,37
153.0,11767.500551641055,863.3808330751459,-57538.91110884084,-53944.16945507163,-32987.17385377573,-30234.444765382385,-4521.333220163968,-20161.206443453604,0.0,0.0,0.0,193.0,1.0,155.0,0.0,2.0,3.0,250.0,411.0,2.0,1018.0,1744252870.5082285,0.0,2025-04-09 22:41:10.508,RIGHT,37
154.0,11719.489004551055,867.3370918437353,-57574.09275461349,-53981.04983342288,-33005.81520865145,-30257.154137748974,-4480.004844666105,-20187.626205399778,0.0,0.0,0.0,193.0,1.0,154.0,0.0,2.0,3.0,249.0,410.0,2.0,1017.0,1744252870.5082374,0.0,2025-04-09 22:41:10.508,RIGHT,37
155.0,11705.228591588568,831.8872251376182,-57581.24531283919,-53964.844818692785,-33049.73638650613,-30305.523312750258,-4474.461612041189,-20227.077034363396,0.0,0.0,0.0,193.0,1.0,154.0,0.0,2.0,3.0,249.0,410.0,2.0,1017.0,1744252870.508246,0.0,2025-04-09 22:41:10.508,RIGHT,37
156.0,11817.121424331835,860.2962923403136,-57571.92463540133,-53960.933263413106,-33048.127060905346,-30298.84014115812,-4497.439205341245,-20226.92057215221,0.0,0.0,0.0,193.0,1.0,154.0,0.0,2.0,3.0,250.0,410.0,2.0,1018.0,1744252870.5082548,0.0,2025-04-09 22:41:10.508,RIGHT,37
157.0,11772.820266821416,855.602426004699,-57546.55540544455,-53964.26367333695,-32997.43330448071,-30243.005483508765,-4582.264075549135,-20186.821542599388,0.0,0.0,0.0,193.0,1.0,155.0,0.0,2.0,3.0,252.0,411.0,2.0,1020.0,1744252870.5082633,0.0,2025-04-09 22:41:10.508,RIGHT,37
158.0,11719.332542339867,863.0902603972269,-57575.92559765883,-53976.26656010945,-33009.86087439786,-30265.714855875358,-4469.700690472208,-20196.365737481803,0.0,0.0,0.0,193.0,1.0,156.0,0.0,2.0,3.0,252.0,412.0,2.0,1020.0,1744252870.5082724,0.0,2025-04-09 22:41:10.508,RIGHT,37
159.0,11678.630015686753,819.1243790536379,-57592.80116472259,-53993.83503125132,-33049.82579348395,-30308.94312965192,-4510.89495550334,-20236.867098434817,0.0,0.0,0.0,193.0,1.0,155.0,0.0,2.0,3.0,250.0,411.0,2.0,1018.0,1744252870.5082812,0.0,2025-04-09 22:41:10.508,RIGHT,37
160.0,11794.47910719861,844.6277194771433,-57581.40177505038,-53958.16164710065,-33067.751892537104,-30327.495077549826,-4470.348891061412,-20253.787368987487,0.0,0.0,0.0,193.0,1.0,154.0,0.0,2.0,3.0,249.0,410.0,2.0,1017.0,1744252870.5082896,0.0,2025-04-09 22:41:10.508,RIGHT,37
161.0,11784.130249515802,862.956149930495,-57544.834321121496,-53980.80396423388,-32992.78414163401,-30250.89564930149,-4619.636192278408,-20189.816676356397,0.0,0.0,0.0,193.0,1.0,154.0,0.0,2.0,3.0,250.0,410.0,2.0,1018.0,1744252870.5082984,0.0,2025-04-09 22:41:10.508,RIGHT,37
162.0,11731.916574468205,870.0640046672827,-57560.36878351794,-53960.46387677955,-33001.36721150485,-30264.910193074968,-4458.54716998901,-20196.924531093184,0.0,0.0,0.0,193.0,1.0,155.0,0.0,2.0,3.0,251.0,411.0,2.0,1019.0,1744252870.5083072,0.0,2025-04-09 22:41:10.508,RIGHT,37
163.0,11686.743698924029,836.312870539769,-57578.049013382086,-53993.58916206231,-33028.21165659567,-30284.04328632871,-4529.51395863461,-20216.705824936133,0.0,0.0,0.0,193.0,1.0,155.0,0.0,2.0,3.0,251.0,411.0,2.0,1019.0,1744252870.508316,0.0,2025-04-09 22:41:10.508,RIGHT,37
164.0,11777.089450012381,843.3313182987355,-57575.165638347346,-53940.74963816997,-33072.244593172625,-30331.853667718613,-4436.217777278159,-20263.95741271465,0.0,0.0,0.0,193.0,1.0,154.0,0.0,2.0,3.0,251.0,410.0,2.0,1019.0,1744252870.508329,0.0,2025-04-09 22:41:10.508,RIGHT,37
165.0,11782.85620008185,850.8638561801739,-57559.74293467319,-54002.954542989086,-33008.87739764183,-30268.59823091009,-4641.160922188869,-20219.924476137698,0.0,0.0,0.0,193.0,1.0,155.0,0.0,2.0,3.0,249.0,411.0,2.0,1017.0,1744252870.5083375,0.0,2025-04-09 22:41:10.508,RIGHT,37
166.0,11745.528786841487,873.1485454021151,-57541.45920770874,-53938.53681546889,-32988.78317937651,-30244.726567831825,-4442.655079681287,-20158.501882374512,0.0,0.0,0.0,193.0,1.0,154.0,0.0,2.0,3.0,249.0,410.0,2.0,1017.0,1744252870.5083463,0.0,2025-04-09 22:41:10.508,RIGHT,37
167.0,11683.323882022367,842.2360828204254,-57576.95377790377,-54002.90983950017,-33020.88028441433,-30272.33097223413,-4538.342897694457,-20189.973138567584,0.0,0.0,0.0,193.0,1.0,155.0,0.0,2.0,3.0,252.0,411.0,2.0,1020.0,1744252870.5083551,0.0,2025-04-09 22:41:10.508,RIGHT,37
168.0,11764.058382994937,846.4158590335678,-57560.078210840016,-53926.64568741866,-33058.49827033261,-30313.636995987537,-4427.724114385142,-20228.52989775299,0.0,0.0,0.0,193.0,1.0,155.0,0.0,2.0,3.0,251.0,411.0,2.0,1019.0,1744252870.5083637,0.0,2025-04-09 22:41:10.508,RIGHT,37
169.0,11800.022339823527,856.6306062496432,-57561.91105388535,-54003.848612767295,-33017.7957436795,-30268.508823932272,-4638.188140176313,-20205.440545730657,0.0,0.0,0.0,193.0,1.0,155.0,0.0,2.0,3.0,251.0,411.0,2.0,1019.0,1744252870.5083723,0.0,2025-04-09 22:41:10.508,RIGHT,37
170.0,11754.46948462361,870.6898535120313,-57534.0831320385,-53939.65440269165,-32981.16123451725,-30250.672131856936,-4472.941693418228,-20178.75256285102,0.0,0.0,0.0,193.0,1.0,155.0,0.0,2.0,3.0,250.0,411.0,2.0,1018.0,1744252870.5083811,0.0,2025-04-09 22:41:10.508,RIGHT,37
171.0,11681.088707576837,841.2749578088473,-57581.40177505038,-54015.6503338397,-33015.046479111494,-30286.390219496516,-4536.331240693479,-20215.43177550218,0.0,0.0,0.0,193.0,1.0,154.0,0.0,2.0,3.0,250.0,410.0,2.0,1018.0,1744252870.5083904,0.0,2025-04-09 22:41:10.508,RIGHT,37
172.0,11724.406388331223,824.9581843564731,-57570.695289456286,-53948.43863826259,-33060.152299422305,-30332.591275285635,-4448.69005068422,-20252.513319553535,0.0,0.0,0.0,193.0,1.0,155.0,0.0,2.0,3.0,251.0,411.0,2.0,1019.0,1744252870.5083995,0.0,2025-04-09 22:41:10.508,RIGHT,37
173.0,11791.752194375062,841.476123508945,-57577.98195814872,-54013.3481041608,-33038.94049393421,-30298.43780975793,-4624.285355125112,-20237.403540301748,0.0,0.0,0.0,193.0,1.0,155.0,0.0,2.0,3.0,252.0,411.0,2.0,1020.0,1744252870.5084083,0.0,2025-04-09 22:41:10.508,RIGHT,37
174.0,11747.316926397913,852.4284782920455,-57539.73812338569,-53955.59119648829,-32991.979478833615,-30255.813033081657,-4526.876452788884,-20181.52417916348,0.0,0.0,0.0,193.0,1.0,155.0,0.0,2.0,3.0,252.0,411.0,2.0,1020.0,1744252870.508417,0.0,2025-04-09 22:41:10.508,RIGHT,37
175.0,11693.963312383094,847.3099288117801,-57574.24921682468,-54007.33548490232,-33007.87156914134,-30280.064675815665,-4530.340973179456,-20211.363758011314,0.0,0.0,0.0,193.0,1.0,154.0,0.0,2.0,3.0,250.0,410.0,2.0,1018.0,1744252870.5084255,0.0,2025-04-09 22:41:10.508,RIGHT,37
176.0,11704.915667166195,821.2701465213474,-57569.60005397798,-53961.02267039093,-33046.69654926021,-30319.090821634632,-4470.348891061412,-20245.651334005754,0.0,0.0,0.0,193.0,1.0,154.0,0.0,2.0,3.0,249.0,410.0,2.0,1017.0,1744252870.508434,0.0,2025-04-09 22:41:10.508,RIGHT,37
177.0,11785.828982094406,834.055344349783,-57586.565028019555,-54003.848612767295,-33055.793709253514,-30313.636995987537,-4571.646996932865,-20244.44433980517,0.0,0.0,0.0,193.0,1.0,154.0,0.0,2.0,3.0,250.0,410.0,2.0,1018.0,1744252870.5084429,0.0,2025-04-09 22:41:10.508,RIGHT,37
178.0,11741.147844928248,837.6986786959981,-57552.791542147585,-53979.73108050002,-33004.5411592175,-30267.257126242774,-4582.152316826859,-20208.525086465488,0.0,0.0,0.0,193.0,1.0,155.0,0.0,2.0,3.0,251.0,411.0,2.0,1019.0,1744252870.5084512,0.0,2025-04-09 22:41:10.508,RIGHT,37
179.0,11694.857382161306,846.3711555446572,-57581.15590586137,-54005.59204883481,-33016.23112156762,-30284.311507262173,-4524.261298687613,-20221.15382208274,0.0,0.0,0.0,193.0,1.0,154.0,0.0,2.0,3.0,250.0,410.0,2.0,1018.0,1744252870.508464,0.0,2025-04-09 22:41:10.508,RIGHT,37
180.0,11684.061489589392,820.0408005763055,-57576.66320522586,-53983.30735961287,-33040.46041255718,-30310.016013385775,-4512.101949703926,-20231.81560418792,0.0,0.0,0.0,193.0,1.0,154.0,0.0,2.0,3.0,249.0,410.0,2.0,1017.0,1744252870.5084727,0.0,2025-04-09 22:41:10.508,RIGHT,37
181.0,11782.677386126208,833.9882891164171,-57588.84490595399,-53990.504621327476,-33064.17561342426,-30332.032481674254,-4525.423589399289,-20254.994363188074,0.0,0.0,0.0,193.0,1.0,154.0,0.0,2.0,3.0,249.0,410.0,2.0,1017.0,1744252870.5084815,0.0,2025-04-09 22:41:10.508,RIGHT,37
182.0,11760.169179459714,845.4323822775343,-57547.04714382257,-53989.655255038175,-32990.638374166294,-30255.52246040374,-4618.518605055643,-20180.630109385267,0.0,0.0,0.0,193.0,1.0,154.0,0.0,2.0,3.0,251.0,410.0,2.0,1019.0,1744252870.50849,0.0,2025-04-09 22:41:10.508,RIGHT,37
183.0,11712.26939109199,857.1893998610259,-57570.628234222924,-53991.063414938864,-33007.91627263025,-30278.053018814688,-4502.915382732795,-20198.690318905155,0.0,0.0,0.0,193.0,1.0,155.0,0.0,2.0,3.0,252.0,411.0,2.0,1020.0,1744252870.5084987,0.0,2025-04-09 22:41:10.508,RIGHT,37
184.0,11659.742791622019,807.6355824036101,-57597.740900247205,-54022.33350543184,-33054.54201156402,-30324.96933042638,-4572.250494033157,-20257.073075422417,0.0,0.0,0.0,193.0,1.0,155.0,0.0,2.0,3.0,252.0,411.0,2.0,1020.0,1744252870.5085073,0.0,2025-04-09 22:41:10.508,RIGHT,37
185.0,11775.56953138942,831.2613762928696,-57582.02762389513,-53970.96919667354,-33068.98123848215,-30335.161725897997,-4502.669513543787,-20258.10125566736,0.0,0.0,0.0,193.0,1.0,154.0,0.0,2.0,3.0,250.0,410.0,2.0,1018.0,1744252870.5085156,0.0,2025-04-09 22:41:10.508,RIGHT,37
186.0,11766.919406285217,840.4255915195456,-57556.05489683806,-54006.55317384639,-33002.10481907187,-30258.428187182926,-4665.21139922278,-20190.53193217897,0.0,0.0,0.0,193.0,1.0,154.0,0.0,2.0,3.0,249.0,410.0,2.0,1017.0,1744252870.5085244,0.0,2025-04-09 22:41:10.508,RIGHT,37
187.0,11723.691132508653,859.7374987289309,-57560.122914328924,-53971.21506586255,-33003.289461528,-30263.591440152104,-4499.540269320044,-20185.726307121076,0.0,0.0,0.0,193.0,1.0,154.0,0.0,2.0,3.0,250.0,410.0,2.0,1018.0,1744252870.5085328,0.0,2025-04-09 22:41:10.508,RIGHT,37
188.0,11671.365698738779,826.1875303015149,-57585.805068708076,-54019.04779899691,-33036.12417413285,-30298.147237080007,-4585.102747094959,-20222.964313383618,0.0,0.0,0.0,193.0,1.0,155.0,0.0,2.0,3.0,251.0,411.0,2.0,1019.0,1744252870.5085416,0.0,2025-04-09 22:41:10.508,RIGHT,37
189.0,11762.292595182967,835.3070420392802,-57577.132591859416,-53955.36767904374,-33076.89375601933,-30335.921685209476,-4481.949446433717,-20258.034200433995,0.0,0.0,0.0,193.0,1.0,155.0,0.0,2.0,3.0,251.0,411.0,2.0,1019.0,1744252870.5085502,0.0,2025-04-09 22:41:10.508,RIGHT,37
190.0,11776.307138956445,838.1680653295596,-57573.01987087964,-54027.11677874527,-33027.071717628445,-30273.98500132382,-4695.900344359916,-20221.24322906056,0.0,0.0,0.0,193.0,1.0,154.0,0.0,2.0,3.0,250.0,410.0,2.0,1018.0,1744252870.5085588,0.0,2025-04-09 22:41:10.508,RIGHT,37
191.0,11734.039990191459,850.5509317577996,-57559.43001025081,-53970.790382717896,-33013.10187734388,-30268.531175676726,-4526.429417899778,-20218.650426703745,0.0,0.0,0.0,193.0,1.0,154.0,0.0,2.0,3.0,250.0,410.0,2.0,1018.0,1744252870.508567,0.0,2025-04-09 22:41:10.508,RIGHT,37
192.0,11666.403611469701,822.0971610661937,-57596.75742349117,-54036.95154630561,-33043.45554631419,-30292.313431777173,-4614.942325942794,-20243.10323513785,0.0,0.0,0.0,193.0,1.0,155.0,0.0,2.0,3.0,251.0,411.0,2.0,1019.0,1744252870.508576,0.0,2025-04-09 22:41:10.508,RIGHT,37
193.0,11735.470501836598,826.478102979434,-57578.36193780446,-53958.31810931183,-33075.038561229536,-30333.418289830483,-4485.4810220576555,-20263.353915614356,0.0,0.0,0.0,193.0,1.0,155.0,0.0,2.0,3.0,252.0,411.0,2.0,1020.0,1744252870.9873757,0.0,2025-04-09 22:41:10.987,RIGHT,37
194.0,11781.85037158136,837.6986786959981,-57582.228789595225,-54033.151749748205,-33039.387528823325,-30290.011202098278,-4681.014082552681,-20239.124624624805,0.0,0.0,0.0,193.0,1.0,155.0,0.0,2.0,3.0,250.0,411.0,2.0,1018.0,1744252870.9874437,0.0,2025-04-09 22:41:10.987,RIGHT,37
195.0,11736.252812892535,848.0698881232606,-57556.59133870499,-53971.21506586255,-33012.27486279904,-30261.55743140667,-4535.012487770616,-20197.438621215657,0.0,0.0,0.0,193.0,1.0,155.0,0.0,2.0,3.0,250.0,411.0,2.0,1018.0,1744252870.9874637,0.0,2025-04-09 22:41:10.987,RIGHT,37
196.0,11686.229608801557,841.9678618869617,-57588.6437402539,-54030.69305785812,-33029.329243818436,-30278.45535021488,-4589.662502963842,-20223.99249362856,0.0,0.0,0.0,193.0,1.0,154.0,0.0,2.0,3.0,251.0,410.0,2.0,1019.0,1744252870.9874842,0.0,2025-04-09 22:41:10.987,RIGHT,37
197.0,11728.563812799908,829.2720710363474,-57570.67293771183,-53959.30158606787,-33066.47784310315,-30315.603949499604,-4502.98243796616,-20253.787368987487,0.0,0.0,0.0,193.0,1.0,155.0,0.0,2.0,3.0,252.0,411.0,2.0,1020.0,1744252870.987502,0.0,2025-04-09 22:41:10.987,RIGHT,37
198.0,11796.66957815523,844.0465741213053,-57583.838115196006,-54020.38890366422,-33055.74900576461,-30297.767257424268,-4663.669128855363,-20251.842767219874,0.0,0.0,0.0,193.0,1.0,155.0,0.0,2.0,3.0,252.0,411.0,2.0,1020.0,1744252870.98752,0.0,2025-04-09 22:41:10.987,RIGHT,37
199.0,11751.831978777884,853.5460655148108,-57545.05783856605,-53969.09165013929,-33005.479932484624,-30250.001579523276,-4589.506040752654,-20193.214141513603,0.0,0.0,0.0,193.0,1.0,156.0,0.0,2.0,3.0,252.0,412.0,2.0,1020.0,1744252870.9875376,0.0,2025-04-09 22:41:10.987,RIGHT,37
200.0,11692.421042015678,843.2419113209143,-57584.08398438502,-54021.394732164714,-33023.58484549342,-30278.47770195934,-4565.835543374485,-20213.28600803447,0.0,0.0,0.0,193.0,1.0,156.0,0.0,2.0,3.0,252.0,412.0,2.0,1020.0,1744252870.987555,0.0,2025-04-09 22:41:10.987,RIGHT,37
201.0,11696.064376361892,819.7278761539312,-57577.95960640426,-53978.03234792142,-33061.895735489816,-30310.351289552607,-4531.145635979848,-20240.421025803214,0.0,0.0,0.0,193.0,1.0,155.0,0.0,2.0,3.0,250.0,411.0,2.0,1018.0,1744252870.987564,0.0,2025-04-09 22:41:10.987,RIGHT,37
202.0,11795.440232210189,848.2039985899925,-57579.90420817187,-53992.15865041717,-33061.00166571161,-30297.029649857242,-4602.872383936928,-20231.167403598716,0.0,0.0,0.0,193.0,1.0,155.0,0.0,2.0,3.0,251.0,411.0,2.0,1019.0,1744252870.987573,0.0,2025-04-09 22:41:10.987,RIGHT,37
203.0,11756.816417791417,850.3944695466125,-57545.14724554387,-53966.99058616049,-33001.65778418276,-30245.79945156568,-4630.007401705671,-20188.989661811553,0.0,0.0,0.0,193.0,1.0,156.0,0.0,2.0,3.0,252.0,412.0,2.0,1020.0,1744252870.987582,0.0,2025-04-09 22:41:10.987,RIGHT,37
204.0,11701.495850264531,845.0747543662494,-57582.02762389513,-53992.181002161626,-33022.37785129283,-30268.195899509898,-4555.643147902864,-20200.99254858405,0.0,0.0,0.0,193.0,1.0,156.0,0.0,2.0,3.0,252.0,412.0,2.0,1020.0,1744252870.987591,0.0,2025-04-09 22:41:10.987,RIGHT,37
205.0,11675.746640652018,811.8377103612078,-57588.174353620336,-53984.20142939108,-33058.87824998835,-30304.897463905512,-4574.150392311859,-20242.76795897102,0.0,0.0,0.0,193.0,1.0,156.0,0.0,2.0,3.0,252.0,412.0,2.0,1020.0,1744252870.9876,0.0,2025-04-09 22:41:10.987,RIGHT,37
206.0,11778.542313401977,827.6627454355652,-57595.34926359049,-53976.13244964272,-33083.9569072672,-30319.38139431255,-4563.846238117962,-20250.76988348602,0.0,0.0,0.0,193.0,1.0,156.0,0.0,2.0,3.0,250.0,412.0,2.0,1018.0,1744252870.9876091,0.0,2025-04-09 22:41:10.987,RIGHT,37
207.0,11765.175970217702,843.3536700431907,-57555.652565437864,-53982.77091774594,-33011.64901395429,-30243.7877945647,-4681.103489530503,-20187.335632721857,0.0,0.0,0.0,193.0,1.0,155.0,0.0,2.0,3.0,250.0,411.0,2.0,1018.0,1744252870.987618,0.0,2025-04-09 22:41:10.987,RIGHT,37
208.0,11718.08084465037,858.798725461808,-57576.93142615932,-53973.76316473045,-33023.00370013758,-30263.770254107745,-4542.321508207501,-20196.365737481803,0.0,0.0,0.0,193.0,1.0,155.0,0.0,2.0,3.0,252.0,411.0,2.0,1020.0,1744252870.9876268,0.0,2025-04-09 22:41:10.987,RIGHT,37
209.0,11669.868131860272,821.8512918771854,-57587.16852511985,-53993.097423684296,-33044.23785737012,-30287.28428927473,-4589.617799474931,-20214.13537432377,0.0,0.0,0.0,193.0,1.0,155.0,0.0,2.0,3.0,252.0,411.0,2.0,1020.0,1744252870.9876404,0.0,2025-04-09 22:41:10.987,RIGHT,37
210.0,11764.572473117409,827.1039518241826,-57586.60973150846,-53949.62328071872,-33084.09101773394,-30327.00333917181,-4525.13301672137,-20257.430703333703,0.0,0.0,0.0,193.0,1.0,155.0,0.0,2.0,3.0,251.0,411.0,2.0,1019.0,1744252870.9876492,0.0,2025-04-09 22:41:10.987,RIGHT,37
211.0,11763.320775427912,837.5869199737216,-57558.96062361725,-53991.73396727252,-33016.47699075663,-30245.17360272093,-4718.989696382248,-20195.67283340369,0.0,0.0,0.0,193.0,1.0,156.0,0.0,2.0,3.0,252.0,412.0,2.0,1020.0,1744252870.987658,0.0,2025-04-09 22:41:10.987,RIGHT,37
212.0,11725.702789509629,860.184533618037,-57549.39407699038,-53943.49890273797,-33003.55768246146,-30246.40294866597,-4534.140769736859,-20184.116981520296,0.0,0.0,0.0,193.0,1.0,155.0,0.0,2.0,3.0,252.0,411.0,2.0,1020.0,1744252870.9876666,0.0,2025-04-09 22:41:10.987,RIGHT,37
213.0,11667.11886729227,822.8347686332189,-57581.53588551711,-54003.37922613374,-33035.297159588,-30287.261937530275,-4616.4398928212995,-20222.159650583228,0.0,0.0,0.0,193.0,1.0,155.0,0.0,2.0,3.0,251.0,411.0,2.0,1019.0,1744252870.9876757,0.0,2025-04-09 22:41:10.987,RIGHT,37
214.0,11755.408257890733,826.8580826351741,-57570.38236503391,-53936.6816206791,-33073.58569783994,-30329.327920595162,-4504.055321700015,-20251.35102884186,0.0,0.0,0.0,193.0,1.0,155.0,0.0,2.0,3.0,251.0,411.0,2.0,1019.0,1744252870.9876845,0.0,2025-04-09 22:41:10.987,RIGHT,37
215.0,11788.444136195676,846.9970043894058,-57555.67491718232,-53997.61247606426,-33013.928891888725,-30256.058902270666,-4715.12284459148,-20195.561074681413,0.0,0.0,0.0,193.0,1.0,155.0,0.0,2.0,3.0,251.0,411.0,2.0,1019.0,1744252870.9876938,0.0,2025-04-09 22:41:10.987,RIGHT,37
216.0,11741.70663853963,860.5198097848667,-57539.76047513014,-53938.96149861354,-32996.15925504676,-30247.364073677552,-4545.13782800887,-20190.12960077877,0.0,0.0,0.0,193.0,1.0,156.0,0.0,2.0,3.0,251.0,412.0,2.0,1019.0,1744252870.9877028,0.0,2025-04-09 22:41:10.987,RIGHT,37
217.0,11667.811771370385,826.6569169350764,-57589.6942722433,-54019.60659260829,-33032.659653742274,-30287.217234041364,-4633.673087796341,-20235.995380401062,0.0,0.0,0.0,193.0,1.0,155.0,0.0,2.0,3.0,252.0,411.0,2.0,1020.0,1744252870.9877114,0.0,2025-04-09 22:41:10.987,RIGHT,37
218.0,11731.626001790286,825.1817018010262,-57572.75164994618,-53942.94010912658,-33068.601258826406,-30325.125792637566,-4520.483853874666,-20252.133339897795,0.0,0.0,0.0,193.0,1.0,156.0,0.0,2.0,3.0,252.0,412.0,2.0,1020.0,1744252870.9877203,0.0,2025-04-09 22:41:10.987,RIGHT,37
219.0,11791.081642041403,846.4829142669338,-57570.85175166748,-54006.15084244619,-33031.609121752874,-30275.907251346976,-4706.562126465097,-20217.309322036424,0.0,0.0,0.0,193.0,1.0,155.0,0.0,2.0,3.0,250.0,411.0,2.0,1018.0,1744252870.987729,0.0,2025-04-09 22:41:10.987,RIGHT,37
220.0,11753.75422880104,863.1126121416822,-57532.96554481573,-53938.559167213345,-32987.19620552018,-30237.529306117216,-4571.624645188409,-20176.33857444985,0.0,0.0,0.0,193.0,1.0,154.0,0.0,2.0,3.0,249.0,410.0,2.0,1017.0,1744252870.9877377,0.0,2025-04-09 22:41:10.987,RIGHT,37
221.0,11691.83989665984,849.1651236015706,-57572.41637377934,-53999.40061562069,-33012.23015931012,-30262.04916978469,-4607.588602016998,-20213.218952801104,0.0,0.0,0.0,193.0,1.0,155.0,0.0,2.0,3.0,251.0,411.0,2.0,1019.0,1744252870.9877467,0.0,2025-04-09 22:41:10.987,RIGHT,37
222.0,11712.828184703372,823.1923965445038,-57565.509684742654,-53944.05769634935,-33059.526450577556,-30306.506789506293,-4539.035801772571,-20242.76795897102,0.0,0.0,0.0,193.0,1.0,155.0,0.0,2.0,3.0,251.0,411.0,2.0,1019.0,1744252870.9877555,0.0,2025-04-09 22:41:10.987,RIGHT,37
223.0,11795.395528721278,840.8279229197411,-57572.34931854598,-53995.35494987428,-33046.92006670476,-30287.664268930468,-4661.836285810028,-20218.29279879246,0.0,0.0,0.0,193.0,1.0,155.0,0.0,2.0,3.0,252.0,411.0,2.0,1020.0,1744252870.9877644,0.0,2025-04-09 22:41:10.987,RIGHT,37
224.0,11761.71144982713,859.0669463952717,-57522.63903887738,-53942.62718470421,-32979.19428100518,-30231.60609383656,-4596.4797850227105,-20168.51546389049,0.0,0.0,0.0,193.0,1.0,156.0,0.0,2.0,3.0,252.0,412.0,2.0,1020.0,1744252870.9877777,0.0,2025-04-09 22:41:10.987,RIGHT,37
225.0,11701.585257242354,855.9153504270733,-57564.548559731076,-53988.71648177105,-33006.06107784046,-30259.098739516587,-4565.388508485378,-20193.504714191524,0.0,0.0,0.0,193.0,1.0,155.0,0.0,2.0,3.0,252.0,411.0,2.0,1020.0,1744252870.9877863,0.0,2025-04-09 22:41:10.987,RIGHT,37
226.0,11687.54836172442,814.4752162069341,-57576.26087382566,-53971.99737691849,-33060.17465116676,-30309.300757563207,-4558.571226426509,-20235.95067691215,0.0,0.0,0.0,193.0,1.0,155.0,0.0,2.0,3.0,252.0,411.0,2.0,1020.0,1744252870.987795,0.0,2025-04-09 22:41:10.987,RIGHT,37
227.0,11800.245857268079,848.1145916121712,-57570.5388272451,-53976.91476069865,-33057.04540694301,-30296.18028356794,-4601.732444969707,-20227.635827974776,0.0,0.0,0.0,193.0,1.0,155.0,0.0,2.0,3.0,250.0,411.0,2.0,1018.0,1744252870.987804,0.0,2025-04-09 22:41:10.987,RIGHT,37
228.0,11764.863045795328,852.249664336403,-57529.63513489189,-53961.5367605134,-32989.96782183264,-30231.494335114283,-4649.296957170601,-20174.997469782527,0.0,0.0,0.0,193.0,1.0,155.0,0.0,2.0,3.0,250.0,411.0,2.0,1018.0,1744252870.9878128,0.0,2025-04-09 22:41:10.987,RIGHT,37
229.0,11714.191641115147,854.9989289044057,-57558.44653349478,-53973.91962694164,-33009.48089474212,-30255.23188772582,-4561.342842738967,-20198.690318905155,0.0,0.0,0.0,193.0,1.0,155.0,0.0,2.0,3.0,250.0,411.0,2.0,1018.0,1744252870.987821,0.0,2025-04-09 22:41:10.987,RIGHT,37
230.0,11684.843800645329,823.7288384114312,-57562.49219924119,-53972.802039718874,-33037.88996194481,-30288.446579986405,-4586.823831418018,-20230.742720454065,0.0,0.0,0.0,193.0,1.0,154.0,0.0,2.0,3.0,250.0,410.0,2.0,1018.0,1744252870.98783,0.0,2025-04-09 22:41:10.987,RIGHT,37
231.0,11787.661825139741,843.1748560875483,-57566.31434754305,-53954.5853679878,-33066.58960182543,-30316.676833233458,-4555.978424069694,-20260.336430112893,0.0,0.0,0.0,193.0,1.0,155.0,0.0,2.0,3.0,249.0,411.0,2.0,1017.0,1744252870.987839,0.0,2025-04-09 22:41:10.987,RIGHT,37
232.0,11779.346976202367,858.0834696392382,-57524.91891681182,-53969.22576060602,-32989.543138687986,-30236.590532850092,-4692.54758269162,-20190.978967068073,0.0,0.0,0.0,193.0,1.0,154.0,0.0,2.0,3.0,249.0,410.0,2.0,1017.0,1744252870.9878476,0.0,2025-04-09 22:41:10.987,RIGHT,37
233.0,11731.469539579099,866.4877255544336,-57542.375629231414,-53955.01005113245,-33002.30598477197,-30258.584649394114,-4544.154351252836,-20204.34531025235,0.0,0.0,0.0,193.0,1.0,155.0,0.0,2.0,3.0,252.0,411.0,2.0,1020.0,1744252870.9878564,0.0,2025-04-09 22:41:10.987,RIGHT,37
234.0,11679.457030231599,835.217635061459,-57561.24050155169,-53989.387034104715,-33031.43030779723,-30285.540853207214,-4612.617744519442,-20227.613476230323,0.0,0.0,0.0,193.0,1.0,155.0,0.0,2.0,3.0,252.0,411.0,2.0,1020.0,1744252870.9878654,0.0,2025-04-09 22:41:10.987,RIGHT,37
235.0,11775.301310455956,845.4770857664449,-57557.15013231637,-53935.4299229896,-33068.5565553375,-30320.43192630195,-4520.103874218926,-20253.45209282066,0.0,0.0,0.0,193.0,1.0,155.0,0.0,2.0,3.0,252.0,411.0,2.0,1020.0,1744252870.987874,0.0,2025-04-09 22:41:10.987,RIGHT,37
236.0,11780.397508191767,851.7355742139309,-57540.87806235291,-53992.42687135063,-33009.3914877643,-30252.23675396881,-4729.6067749985195,-20209.754432410533,0.0,0.0,0.0,193.0,1.0,154.0,0.0,2.0,3.0,250.0,410.0,2.0,1018.0,1744252870.9878829,0.0,2025-04-09 22:41:10.987,RIGHT,37
237.0,11731.782464001473,858.8881324396292,-57541.414504219836,-53949.13154234071,-33008.09508658589,-30260.149271505987,-4557.945377581761,-20209.150935310237,0.0,0.0,0.0,193.0,1.0,154.0,0.0,2.0,3.0,248.0,410.0,2.0,1016.0,1744252870.9878917,0.0,2025-04-09 22:41:10.987,RIGHT,37
238.0,11659.921605577661,816.9339080970178,-57583.63694949591,-54018.91368853017,-33045.668369015264,-30297.23081555734,-4650.995689749204,-20247.10419739535,0.0,0.0,0.0,193.0,1.0,154.0,0.0,2.0,3.0,249.0,410.0,2.0,1017.0,1744252870.9879005,0.0,2025-04-09 22:41:10.987,RIGHT,37
239.0,11739.918498983205,821.0466290767944,-57568.70598419976,-53945.24233880548,-33079.508910120596,-30333.708862508403,-4528.821054556496,-20270.372363373324,0.0,0.0,0.0,193.0,1.0,154.0,0.0,2.0,3.0,251.0,410.0,2.0,1019.0,1744252870.9879131,0.0,2025-04-09 22:41:10.987,RIGHT,37
240.0,11771.121534242813,828.1991873024926,-57563.67684169732,-54015.78444430643,-33028.70339497369,-30274.23087051283,-4735.820559957095,-20222.830202916884,0.0,0.0,0.0,193.0,1.0,155.0,0.0,2.0,3.0,251.0,411.0,2.0,1019.0,1744252870.987922,0.0,2025-04-09 22:41:10.987,RIGHT,37
241.0,11737.728028026584,854.7083562264868,-57531.24446049267,-53943.521254482424,-32990.727781144116,-30248.928695789422,-4553.586787412976,-20186.732135621565,0.0,0.0,0.0,193.0,1.0,154.0,0.0,2.0,3.0,250.0,410.0,2.0,1018.0,1744252870.9879308,0.0,2025-04-09 22:41:10.987,RIGHT,37
242.0,11676.484248219043,833.4518472494898,-57574.78565869161,-54017.03614199593,-33023.651900726785,-30280.869338616056,-4627.973392960238,-20229.13339485328,0.0,0.0,0.0,193.0,1.0,154.0,0.0,2.0,3.0,250.0,410.0,2.0,1018.0,1744252870.9879394,0.0,2025-04-09 22:41:10.987,RIGHT,37
243.0,11736.543385570454,832.088390837716,-57554.66908868183,-53938.827388146805,-33059.928781977746,-30314.732231465845,-4526.362362666412,-20244.064360149427,0.0,0.0,0.0,193.0,1.0,154.0,0.0,2.0,3.0,249.0,410.0,2.0,1017.0,1744252870.987948,0.0,2025-04-09 22:41:10.987,RIGHT,37
244.0,11792.512153686543,837.1622368290707,-57568.28130105511,-54013.012827993974,-33043.74611899211,-30285.362039251573,-4712.440635256843,-20232.44145303267,0.0,0.0,0.0,193.0,1.0,154.0,0.0,2.0,3.0,249.0,410.0,2.0,1017.0,1744252870.9879568,0.0,2025-04-09 22:41:10.987,RIGHT,37
245.0,11745.618193819308,848.0475363788053,-57532.27264073761,-53954.96534764354,-33000.69665917118,-30251.40973942396,-4607.968581672738,-20195.382260725768,0.0,0.0,0.0,193.0,1.0,155.0,0.0,2.0,3.0,251.0,411.0,2.0,1019.0,1744252870.9879656,0.0,2025-04-09 22:41:10.987,RIGHT,37
246.0,11691.83989665984,848.02518463435,-57561.754591674166,-54000.62996156573,-33016.40993552327,-30262.27268722924,-4621.692552768297,-20203.85357187433,0.0,0.0,0.0,193.0,1.0,155.0,0.0,2.0,3.0,251.0,411.0,2.0,1019.0,1744252870.987975,0.0,2025-04-09 22:41:10.987,RIGHT,37
247.0,11713.677550992674,833.6753646940429,-57546.15307404436,-53942.336612026294,-33050.071662672955,-30299.018955113766,-4550.792819356063,-20232.754377455043,0.0,0.0,0.0,193.0,1.0,155.0,0.0,2.0,3.0,250.0,411.0,2.0,1018.0,1744252870.9879832,0.0,2025-04-09 22:41:10.987,RIGHT,37
248.0,11807.15254630477,856.8541236941962,-57551.15986480235,-53985.14020265821,-33040.862743957376,-30287.217234041364,-4657.567102619065,-20232.732025710586,0.0,0.0,0.0,193.0,1.0,154.0,0.0,2.0,3.0,250.0,410.0,2.0,1018.0,1744252870.9879918,0.0,2025-04-09 22:41:10.987,RIGHT,37
249.0,11774.988386033581,866.1748011320593,-57507.506907881136,-53948.32687954031,-32982.748208373574,-30233.148364203975,-4640.088038455015,-20182.70882161961,0.0,0.0,0.0,193.0,1.0,154.0,0.0,2.0,3.0,250.0,410.0,2.0,1018.0,1744252870.9880004,0.0,2025-04-09 22:41:10.988,RIGHT,37
250.0,11714.146937626236,861.5032865409001,-57548.07532406752,-53991.39869110569,-33008.966804619646,-30266.36305646456,-4600.905430424861,-20219.209220315126,0.0,0.0,0.0,193.0,1.0,154.0,0.0,2.0,3.0,251.0,410.0,2.0,1019.0,1744252870.9880092,0.0,2025-04-09 22:41:10.988,RIGHT,37
251.0,11700.534725252954,829.0485535917943,-57549.97522234622,-53972.01972866294,-33045.4001480818,-30306.931472650944,-4594.892811166384,-20256.000191688563,0.0,0.0,0.0,193.0,1.0,155.0,0.0,2.0,3.0,250.0,411.0,2.0,1018.0,1744252870.988018,0.0,2025-04-09 22:41:10.988,RIGHT,37
252.0,11806.95138060467,847.6452049786097,-57549.01409733464,-53972.332653085316,-33051.479822573645,-30305.299795305706,-4607.275677594624,-20251.842767219874,0.0,0.0,0.0,193.0,1.0,155.0,0.0,2.0,3.0,251.0,411.0,2.0,1019.0,1744252870.9880266,0.0,2025-04-09 22:41:10.988,RIGHT,37
253.0,11776.083621511892,852.4284782920455,-57511.35140792745,-53967.77289721643,-32986.48094969761,-30235.964684005343,-4677.504858673198,-20181.300661718924,0.0,0.0,0.0,193.0,1.0,155.0,0.0,2.0,3.0,252.0,411.0,2.0,1020.0,1744252870.9880352,0.0,2025-04-09 22:41:10.988,RIGHT,37
254.0,11722.46178656361,859.4022225621012,-57544.76726588813,-53979.373452588734,-33012.63249071032,-30265.044303541697,-4584.923933139316,-20212.168420811704,0.0,0.0,0.0,193.0,1.0,154.0,0.0,2.0,3.0,249.0,410.0,2.0,1017.0,1744252870.9880478,0.0,2025-04-09 22:41:10.988,RIGHT,37
255.0,11679.524085464966,818.990268586906,-57562.7380684302,-53997.634827808724,-33049.42346208375,-30306.439734272928,-4636.087076197515,-20267.310174382947,0.0,0.0,0.0,193.0,1.0,154.0,0.0,2.0,3.0,249.0,410.0,2.0,1017.0,1744252870.9880567,0.0,2025-04-09 22:41:10.988,RIGHT,37
0.0,11789.271150740524,842.571358987255,-57557.708925927756,-53961.91674016914,-33070.67997106075,-30324.38818507054,-4576.877305135406,-20279.06719196644,0.0,0.0,0.0,193.0,1.0,154.0,0.0,2.0,3.0,249.0,410.0,2.0,1017.0,1744252870.9880652,0.0,2025-04-09 22:41:10.988,RIGHT,37
1.0,11774.943682544672,846.9970043894058,-57527.60112614645,-53990.45991783857,-33000.40608649327,-30244.1901259649,-4717.805053926117,-20191.493057190546,0.0,0.0,0.0,193.0,1.0,154.0,0.0,2.0,3.0,250.0,410.0,2.0,1018.0,1744252870.988074,0.0,2025-04-09 22:41:10.988,RIGHT,37
2.0,11730.70958026762,857.1446963721153,-57538.48642569619,-53965.135391370706,-33007.849217396884,-30258.69640811639,-4561.253435761147,-20198.95853983862,0.0,0.0,0.0,193.0,1.0,154.0,0.0,2.0,3.0,250.0,410.0,2.0,1018.0,1744252870.988083,0.0,2025-04-09 22:41:10.988,RIGHT,37
3.0,11678.853533131307,822.8571203776742,-57561.73223992971,-54005.59204883481,-33036.235932855125,-30288.737152664326,-4637.227015164735,-20238.968162413617,0.0,0.0,0.0,193.0,1.0,155.0,0.0,2.0,3.0,251.0,411.0,2.0,1019.0,1744252870.9880917,0.0,2025-04-09 22:41:10.988,RIGHT,37
4.0,11766.829999307394,827.1933588020038,-57560.122914328924,-53952.14902784217,-33079.508910120596,-30327.718594994378,-4542.61208088542,-20261.05168593546,0.0,0.0,0.0,193.0,1.0,155.0,0.0,2.0,3.0,252.0,411.0,2.0,1020.0,1744252870.9881,0.0,2025-04-09 22:41:10.988,RIGHT,37
5.0,11783.862028582338,844.8512369216963,-57538.262908251636,-54005.86026976827,-33012.49838024359,-30250.202745223374,-4746.594100784552,-20205.75347015303,0.0,0.0,0.0,193.0,1.0,155.0,0.0,1.0,3.0,250.0,411.0,1.0,1018.0,1744252870.9881089,0.0,2025-04-09 22:41:10.988,RIGHT,37
6.0,11740.097312938848,860.0727748957605,-57529.50102442515,-53952.43960052009,-33000.71901091564,-30252.12499524653,-4565.947302096761,-20202.84774337384,0.0,0.0,0.0,193.0,1.0,154.0,0.0,2.0,3.0,249.0,410.0,2.0,1017.0,1744252870.9881172,0.0,2025-04-09 22:41:10.988,RIGHT,37
7.0,11675.657233674197,825.1593500565708,-57567.00725162116,-54019.159557719184,-33029.99979615209,-30280.93639384942,-4653.566140361565,-20236.129490867796,0.0,0.0,0.0,193.0,1.0,154.0,0.0,2.0,3.0,249.0,410.0,2.0,1017.0,1744252870.988126,0.0,2025-04-09 22:41:10.988,RIGHT,37
8.0,11762.560816116431,837.3186990402579,-57539.91693734133,-53930.53489095389,-33055.033749942035,-30308.652556974004,-4525.602403354932,-20249.942868941172,0.0,0.0,0.0,193.0,1.0,155.0,0.0,2.0,3.0,252.0,411.0,2.0,1020.0,1744252870.9881349,0.0,2025-04-09 22:41:10.988,RIGHT,37
9.0,11800.3352642459,851.7802777028415,-57542.75560888715,-54004.54151684541,-33021.99787163709,-30261.60213489558,-4744.805961228128,-20225.132432595783,0.0,0.0,0.0,193.0,1.0,155.0,0.0,2.0,3.0,252.0,411.0,2.0,1020.0,1744252870.9881437,0.0,2025-04-09 22:41:10.988,RIGHT,37
10.0,11750.647336321752,862.0173766633721,-57518.615724875424,-53939.8332166473,-32994.30406025697,-30241.46321314135,-4586.4438517622775,-20190.12960077877,0.0,0.0,0.0,193.0,1.0,156.0,0.0,2.0,3.0,252.0,412.0,2.0,1020.0,1744252870.9881525,0.0,2025-04-09 22:41:10.988,RIGHT,37
11.0,11681.803963399407,834.1447513276042,-57567.09665859898,-54015.00213325049,-33027.496400773096,-30275.37080948005,-4643.887835012417,-20222.941961639164,0.0,0.0,0.0,193.0,1.0,155.0,0.0,2.0,3.0,250.0,411.0,2.0,1018.0,1744252870.988161,0.0,2025-04-09 22:41:10.988,RIGHT,37
12.0,11728.854385477827,827.7521524133864,-57553.372687503426,-53945.421152761126,-33071.68579956124,-30321.013071657788,-4566.930778852794,-20268.047781949972,0.0,0.0,0.0,193.0,1.0,155.0,0.0,2.0,3.0,250.0,411.0,2.0,1018.0,1744252870.98817,0.0,2025-04-09 22:41:10.988,RIGHT,37
13.0,11794.412051965244,844.2924433103137,-57563.207455063755,-54008.38601689172,-33053.04444468551,-30294.36979226706,-4730.7243622212845,-20260.403485346258,0.0,0.0,0.0,193.0,1.0,155.0,0.0,2.0,3.0,249.0,411.0,2.0,1017.0,1744252870.9881833,0.0,2025-04-09 22:41:10.988,RIGHT,37
14.0,11756.637603835774,864.7442894869197,-57517.833413819484,-53943.76712367143,-32994.79579863499,-30236.478774127816,-4621.647849279386,-20188.252054244527,0.0,0.0,0.0,193.0,1.0,154.0,0.0,2.0,3.0,250.0,410.0,2.0,1018.0,1744252870.9881916,0.0,2025-04-09 22:41:10.988,RIGHT,37
15.0,11704.848611932828,862.7996877193079,-57548.14237930088,-53988.9399992156,-33009.21267380866,-30245.97826552132,-4614.517642798143,-20190.196656012136,0.0,0.0,0.0,193.0,1.0,155.0,0.0,2.0,3.0,252.0,411.0,2.0,1020.0,1744252870.9882004,0.0,2025-04-09 22:41:10.988,RIGHT,37
16.0,11715.51039403801,835.2846902948249,-57540.52043444162,-53944.30356553836,-33049.42346208375,-30288.04424858621,-4579.648921447864,-20224.975970384596,0.0,0.0,0.0,193.0,1.0,156.0,0.0,2.0,3.0,251.0,412.0,2.0,1019.0,1744252870.9882092,0.0,2025-04-09 22:41:10.988,RIGHT,37
17.0,11807.443118982688,851.6238154916543,-57552.500969469664,-53981.608627034264,-33057.73831102113,-30284.110341562075,-4678.801259851606,-20230.228630331592,0.0,0.0,0.0,193.0,1.0,154.0,0.0,2.0,3.0,248.0,410.0,2.0,1016.0,1744252870.988218,0.0,2025-04-09 22:41:10.988,RIGHT,37
18.0,11764.348955672856,855.4236120490566,-57515.106500995935,-53955.81471393284,-32992.69473465619,-30231.874314770022,-4676.2531609837015,-20183.58053965337,0.0,0.0,0.0,193.0,1.0,154.0,0.0,2.0,3.0,250.0,410.0,2.0,1018.0,1744252870.9882267,0.0,2025-04-09 22:41:10.988,RIGHT,37
19.0,11710.615362002298,864.4537168090006,-57550.355202001956,-53986.168382903146,-33010.55377847597,-30260.8421755841,-4604.660523493352,-20216.01292085802,0.0,0.0,0.0,193.0,1.0,154.0,0.0,2.0,3.0,250.0,410.0,2.0,1018.0,1744252870.9882355,0.0,2025-04-09 22:41:10.988,RIGHT,37
20.0,11687.973044869072,833.8094751607747,-57555.183178804305,-53972.10913564076,-33048.819964983464,-30288.781856153233,-4611.991895674693,-20229.37926404229,0.0,0.0,0.0,193.0,1.0,155.0,0.0,2.0,3.0,252.0,411.0,2.0,1020.0,1744252870.9882443,0.0,2025-04-09 22:41:10.988,RIGHT,37
21.0,11795.95432233266,850.0368416353276,-57560.86052189595,-53969.315167583845,-33067.97540998166,-30303.08697260463,-4622.608974290964,-20246.590107272878,0.0,0.0,0.0,193.0,1.0,155.0,0.0,2.0,3.0,252.0,411.0,2.0,1020.0,1744252870.9882584,0.0,2025-04-09 22:41:10.988,RIGHT,37
22.0,11768.215807463625,846.2146933334701,-57529.523376169614,-53982.390938090204,-33003.8929586283,-30237.574009606127,-4730.478493032276,-20188.788496111454,0.0,0.0,0.0,193.0,1.0,155.0,0.0,2.0,3.0,252.0,411.0,2.0,1020.0,1744252870.988267,0.0,2025-04-09 22:41:10.988,RIGHT,37
23.0,11720.159556884713,851.9143881695734,-57550.422257235325,-53979.88754271121,-33015.67232795624,-30255.74597784829,-4608.236802606202,-20196.119868292793,0.0,0.0,0.0,193.0,1.0,154.0,0.0,2.0,3.0,249.0,410.0,2.0,1017.0,1744252870.9882755,0.0,2025-04-09 22:41:10.988,RIGHT,37
24.0,11675.187847040635,815.5257481963334,-57568.39305977739,-54002.68632205562,-33050.138717906324,-30291.978155610344,-4666.574855634553,-20234.318999566913,0.0,0.0,0.0,193.0,1.0,153.0,0.0,2.0,3.0,250.0,409.0,2.0,1018.0,1744252870.9882846,0.0,2025-04-09 22:41:10.988,RIGHT,37
25.0,11773.915502299727,833.0718675937495,-57568.05778361056,-53965.91770242664,-33082.19111945524,-30329.551438039714,-4607.700360739274,-20277.748439043575,0.0,0.0,0.0,193.0,1.0,154.0,0.0,2.0,3.0,249.0,410.0,2.0,1017.0,1744252870.9882936,0.0,2025-04-09 22:41:10.988,RIGHT,37
26.0,11772.350880187856,844.6277194771433,-57541.05687630855,-54004.94384824561,-33009.81617090895,-30250.850945812577,-4780.166420956423,-20215.074147590894,0.0,0.0,0.0,193.0,1.0,154.0,0.0,2.0,3.0,251.0,410.0,2.0,1019.0,1744252870.9883025,0.0,2025-04-09 22:41:10.988,RIGHT,37
27.0,11735.962240214616,859.6704434955649,-57542.08505655349,-53963.302548325366,-33006.306947029465,-30242.625503853025,-4602.715921725741,-20183.446429186635,0.0,0.0,0.0,193.0,1.0,154.0,0.0,2.0,3.0,250.0,410.0,2.0,1018.0,1744252870.9883113,0.0,2025-04-09 22:41:10.988,RIGHT,37
28.0,11676.171323796669,820.3984284875904,-57570.5388272451,-54012.096406471304,-33036.68296774423,-30269.782873366225,-4683.383367464944,-20215.00709235753,0.0,0.0,0.0,193.0,1.0,154.0,0.0,2.0,3.0,250.0,410.0,2.0,1018.0,1744252870.9883769,0.0,2025-04-09 22:41:10.988,RIGHT,37
29.0,11758.872778281306,822.3206785107468,-57564.257987053155,-53952.93133889811,-33077.72077056417,-30315.53689426624,-4578.732499925197,-20254.01088643204,0.0,0.0,0.0,193.0,1.0,155.0,0.0,2.0,3.0,251.0,411.0,2.0,1019.0,1744252870.9883857,0.0,2025-04-09 22:41:10.988,RIGHT,37
30.0,11782.56562740393,839.3080042967802,-57544.94607984377,-54011.537612859924,-33012.49838024359,-30241.440861396895,-4786.268447192722,-20194.152914780727,0.0,0.0,0.0,193.0,1.0,154.0,0.0,2.0,3.0,248.0,410.0,2.0,1016.0,1744252870.9883945,0.0,2025-04-09 22:41:10.988,RIGHT,37
31.0,11734.688190780664,850.4615247799784,-57533.12200702692,-53953.646594720674,-32998.260319025554,-30239.339797418095,-4603.632343248409,-20184.13933326475,0.0,0.0,0.0,193.0,1.0,154.0,0.0,2.0,3.0,249.0,410.0,2.0,1017.0,1744252870.988403,0.0,2025-04-09 22:41:10.988,RIGHT,37
32.0,11662.648518401209,819.6161174316546,-57580.485353527714,-54031.184796236135,-33037.979368922635,-30278.924736848443,-4693.240486769734,-20224.685397706675,0.0,0.0,0.0,193.0,1.0,154.0,0.0,2.0,3.0,250.0,410.0,2.0,1018.0,1744252870.988412,0.0,2025-04-09 22:41:10.988,RIGHT,37
33.0,11727.870908721794,814.3634574846575,-57568.2365975662,-53960.016841890436,-33083.19694795572,-30326.24337986033,-4597.5973722454755,-20265.030296448505,0.0,0.0,0.0,193.0,1.0,154.0,0.0,2.0,3.0,249.0,410.0,2.0,1017.0,1744252870.9884207,0.0,2025-04-09 22:41:10.988,RIGHT,37
34.0,11785.091374527381,835.6423182061098,-57560.65935619585,-54024.546328132914,-33039.43223231223,-30276.46604495836,-4799.388921187988,-20233.96137165563,0.0,0.0,0.0,193.0,1.0,154.0,0.0,2.0,3.0,252.0,410.0,2.0,1020.0,1744252870.9884293,0.0,2025-04-09 22:41:10.988,RIGHT,37
35.0,11744.969993230105,847.7793154453416,-57525.254192978646,-53956.97700464452,-32996.29336551349,-30248.36990217804,-4632.868424995951,-20189.70491763412,0.0,0.0,0.0,193.0,1.0,154.0,0.0,2.0,3.0,251.0,410.0,2.0,1019.0,1744252870.988438,0.0,2025-04-09 22:41:10.988,RIGHT,37
36.0,11679.032347086948,829.1826640585261,-57568.01308012165,-54025.999191522504,-33021.05909836997,-30278.23183277033,-4677.527210417654,-20221.824374416396,0.0,0.0,0.0,193.0,1.0,154.0,0.0,2.0,3.0,251.0,410.0,2.0,1019.0,1744252870.9884467,0.0,2025-04-09 22:41:10.988,RIGHT,37
37.0,11714.236344604058,814.8998993515848,-57552.456265980756,-53959.54745525688,-33060.73344477814,-30317.727365222858,-4602.760625214652,-20256.804854488953,0.0,0.0,0.0,193.0,1.0,155.0,0.0,2.0,3.0,251.0,411.0,2.0,1019.0,1744252870.9884555,0.0,2025-04-09 22:41:10.988,RIGHT,37
38.0,11789.069985040425,838.9950798744059,-57559.944100373286,-54013.03517973843,-33047.009473682585,-30287.12782706354,-4742.213158871313,-20238.76699671352,0.0,0.0,0.0,193.0,1.0,154.0,0.0,2.0,3.0,251.0,410.0,2.0,1019.0,1744252870.988464,0.0,2025-04-09 22:41:10.988,RIGHT,37
39.0,11751.742571800063,849.6568619795873,-57518.23574521968,-53964.17426635913,-32995.57810969092,-30242.26787594174,-4680.902323830405,-20198.913836349708,0.0,0.0,0.0,193.0,1.0,155.0,0.0,2.0,3.0,252.0,411.0,2.0,1020.0,1744252870.9884727,0.0,2025-04-09 22:41:10.988,RIGHT,37
40.0,11689.917646636683,838.4362862630232,-57559.854693395464,-54016.61145885128,-33019.78504893602,-30268.732341376824,-4669.5029341581985,-20218.739833681564,0.0,0.0,0.0,193.0,1.0,154.0,0.0,2.0,3.0,248.0,410.0,2.0,1016.0,1744252870.9884815,0.0,2025-04-09 22:41:10.988,RIGHT,37
41.0,11693.583332727354,811.7706551278419,-57551.741010158185,-53976.15480138717,-33053.69264527472,-30302.237606315328,-4632.443741851299,-20239.705769980643,0.0,0.0,0.0,193.0,1.0,154.0,0.0,2.0,3.0,250.0,410.0,2.0,1018.0,1744252870.9884903,0.0,2025-04-09 22:41:10.988,RIGHT,37
42.0,11792.445098453176,832.088390837716,-57559.89939688437,-53999.26650515396,-33061.56045932299,-30306.797362184214,-4694.805108881606,-20252.289802108982,0.0,0.0,0.0,193.0,1.0,154.0,0.0,2.0,3.0,250.0,410.0,2.0,1018.0,1744252870.9884992,0.0,2025-04-09 22:41:10.988,RIGHT,37
43.0,11753.307193911935,840.5597019862774,-57521.901431310354,-53979.172286888635,-32997.790932391996,-30249.062806256155,-4722.521272006187,-20206.736946909066,0.0,0.0,0.0,193.0,1.0,155.0,0.0,2.0,3.0,251.0,411.0,2.0,1019.0,1744252870.9885137,0.0,2025-04-09 22:41:10.988,RIGHT,37
44.0,11704.26746657699,846.9299491560399,-57547.67299266732,-53994.63969405171,-33010.59848196489,-30264.46315818586,-4634.745971530196,-20221.24322906056,0.0,0.0,0.0,193.0,1.0,155.0,0.0,1.0,3.0,251.0,411.0,1.0,1019.0,1744252870.9885225,0.0,2025-04-09 22:41:10.988,RIGHT,37
45.0,11680.418155243178,821.1136843101602,-57549.46113222375,-53984.492002069,-33043.075566658445,-30290.011202098278,-4645.519512357654,-20245.87485145031,0.0,0.0,0.0,193.0,1.0,155.0,0.0,2.0,3.0,251.0,411.0,2.0,1019.0,1744252870.9885314,0.0,2025-04-09 22:41:10.988,RIGHT,37
46.0,11788.064156539936,841.0514403642942,-57548.29884151207,-53963.32490006983,-33064.22031691317,-30299.91302489198,-4608.639134006397,-20246.031313661493,0.0,0.0,0.0,193.0,1.0,155.0,0.0,2.0,3.0,251.0,411.0,2.0,1019.0,1744252870.98854,0.0,2025-04-09 22:41:10.988,RIGHT,37
47.0,11761.80085680495,840.3361845417244,-57521.23087897669,-53985.90016196969,-32999.15438880377,-30238.870410784533,-4724.376466795978,-20198.75737413852,0.0,0.0,0.0,193.0,1.0,155.0,0.0,2.0,3.0,252.0,411.0,2.0,1020.0,1744252870.9885485,0.0,2025-04-09 22:41:10.988,RIGHT,37
48.0,11718.661990006209,853.993100403917,-57536.07243729501,-53970.41040306216,-33001.90365337177,-30253.331989447117,-4566.126116052404,-20198.399746227235,0.0,0.0,0.0,193.0,1.0,155.0,0.0,2.0,3.0,249.0,411.0,2.0,1017.0,1744252870.988557,0.0,2025-04-09 22:41:10.988,RIGHT,37
49.0,11670.583387682842,816.5315766968223,-57555.04906833757,-54002.12752844424,-33033.62077875385,-30288.98302185333,-4619.032695178115,-20234.877793178297,0.0,0.0,0.0,193.0,1.0,154.0,0.0,2.0,3.0,250.0,410.0,2.0,1018.0,1744252870.9885657,0.0,2025-04-09 22:41:10.988,RIGHT,37
50.0,11775.077793011404,841.4537717644897,-57542.308573998045,-53947.432809762104,-33063.46035760169,-30312.072373875664,-4529.402199912333,-20252.781540486998,0.0,0.0,0.0,193.0,1.0,154.0,0.0,2.0,3.0,251.0,410.0,2.0,1019.0,1744252870.9885743,0.0,2025-04-09 22:41:10.988,RIGHT,37
51.0,11777.201208734657,851.4673532804673,-57520.89560280986,-53995.4443568521,-33000.80841789346,-30235.808221794156,-4710.898364889427,-20184.675775131676,0.0,0.0,0.0,193.0,1.0,155.0,0.0,2.0,3.0,251.0,411.0,2.0,1019.0,1744252870.9885828,0.0,2025-04-09 22:41:10.988,RIGHT,37
52.0,11733.525900068988,861.8162109632744,-57523.42134993331,-53955.904120910665,-32997.56741494744,-30244.860678298555,-4530.519787135099,-20180.719516363086,0.0,0.0,0.0,193.0,1.0,155.0,0.0,2.0,3.0,251.0,411.0,2.0,1019.0,1744252870.9885914,0.0,2025-04-09 22:41:10.988,RIGHT,37
53.0,11663.050849801404,818.6102889311659,-57563.833303908505,-54019.74070307502,-33038.94049393421,-30282.255146772284,-4592.7246919542185,-20228.060511119427,0.0,0.0,0.0,193.0,1.0,155.0,0.0,2.0,3.0,251.0,411.0,2.0,1019.0,1744252870.9886,0.0,2025-04-09 22:41:10.988,RIGHT,37
54.0,11735.492853581054,812.9776493284285,-57559.072382339524,-53955.479437766015,-33083.37576191137,-30326.221028115873,-4443.884425626329,-20269.00890696155,0.0,0.0,0.0,193.0,1.0,155.0,0.0,2.0,3.0,252.0,411.0,2.0,1020.0,1744252870.9886088,0.0,2025-04-09 22:41:10.988,RIGHT,37
55.0,11768.729897586096,824.4664459784564,-57548.54471070108,-54022.15469147619,-33026.91525541726,-30256.237716226307,-4637.137608186914,-20216.28114179148,0.0,0.0,0.0,193.0,1.0,155.0,0.0,2.0,3.0,251.0,411.0,2.0,1019.0,1744252870.9886172,0.0,2025-04-09 22:41:10.988,RIGHT,37
56.0,11734.79994950294,845.2759200663472,-57518.99570453116,-53949.332708040805,-32993.655859667764,-30233.014253737245,-4438.899986612795,-20173.790475581944,0.0,0.0,0.0,193.0,1.0,155.0,0.0,2.0,3.0,252.0,411.0,2.0,1020.0,1744252870.988626,0.0,2025-04-09 22:41:10.988,RIGHT,37
57.0,11672.706803406098,829.316774525258,-57550.62342293542,-54009.21303143657,-33015.58292097842,-30251.432091168415,-4496.031045440561,-20195.963406081606,0.0,0.0,0.0,193.0,1.0,155.0,0.0,2.0,3.0,252.0,411.0,2.0,1020.0,1744252871.160378,0.0,2025-04-09 22:41:11.160,RIGHT,37
58.0,11733.436493091165,825.3828675011239,-57533.8819663384,-53935.20640554505,-33054.98904645313,-30295.37562076755,-4380.561933584444,-20232.463804777122,0.0,0.0,0.0,193.0,1.0,155.0,0.0,2.0,3.0,251.0,411.0,2.0,1019.0,1744252871.1604404,0.0,2025-04-09 22:41:11.160,RIGHT,37
59.0,11786.991272806083,834.9047106390847,-57549.34937350147,-54015.940906517615,-33038.98519742313,-30268.777044865736,-4576.273808035113,-20227.836993674875,0.0,0.0,0.0,193.0,1.0,154.0,0.0,2.0,3.0,250.0,410.0,2.0,1018.0,1744252871.1604514,0.0,2025-04-09 22:41:11.160,RIGHT,37
60.0,11743.964164729616,852.5625887587773,-57510.68085559379,-53948.79626617388,-32993.49939745657,-30230.89083801399,-4443.862073881874,-20181.680641374667,0.0,0.0,0.0,193.0,1.0,154.0,0.0,2.0,3.0,249.0,410.0,2.0,1017.0,1744252871.160461,0.0,2025-04-09 22:41:11.160,RIGHT,37
61.0,11679.434678487145,833.6753646940429,-57552.41156249185,-54011.15763320418,-33018.22042682415,-30262.965591307355,-4464.269216569569,-20215.789403413466,0.0,0.0,0.0,193.0,1.0,154.0,0.0,2.0,3.0,249.0,410.0,2.0,1017.0,1744252871.1604705,0.0,2025-04-09 22:41:11.160,RIGHT,37
62.0,11705.228591588568,810.8542336051743,-57544.81196937704,-53957.60285348927,-33063.706226790695,-30311.155952352998,-4400.522041383033,-20255.463749821636,0.0,0.0,0.0,193.0,1.0,154.0,0.0,2.0,3.0,249.0,410.0,2.0,1017.0,1744252871.16048,0.0,2025-04-09 22:41:11.160,RIGHT,37
63.0,11797.317778744433,842.4596002649785,-57542.12976004241,-53993.79032776241,-33048.70820626119,-30280.042324071208,-4517.488720117655,-20239.996342658564,0.0,0.0,0.0,193.0,1.0,154.0,0.0,1.0,3.0,251.0,410.0,1.0,1019.0,1744252871.160489,0.0,2025-04-09 22:41:11.160,RIGHT,37
64.0,11761.353821915845,857.8376004502297,-57498.543858354555,-53946.20346381706,-32991.53244394451,-30221.905436742956,-4467.241998582125,-20175.735077349553,0.0,0.0,0.0,193.0,1.0,154.0,0.0,2.0,3.0,252.0,410.0,2.0,1020.0,1744252871.1604984,0.0,2025-04-09 22:41:11.160,RIGHT,37
65.0,11714.83984170435,861.5256382853554,-57530.372742458916,-53982.63680727921,-33009.883226142316,-30244.011312009254,-4435.346059244402,-20203.22772302958,0.0,0.0,0.0,193.0,1.0,154.0,0.0,2.0,3.0,250.0,410.0,2.0,1018.0,1744252871.1605074,0.0,2025-04-09 22:41:11.160,RIGHT,37
66.0,11702.769899698485,830.7919896593082,-57536.6312309064,-53960.73209771301,-33054.58671505293,-30288.714800919868,-4426.003030062083,-20244.801967716452,0.0,0.0,0.0,193.0,1.0,154.0,0.0,1.0,3.0,250.0,410.0,1.0,1018.0,1744252871.1605165,0.0,2025-04-09 22:41:11.160,RIGHT,37
67.0,11801.654017168763,856.2059231049924,-57540.52043444162,-53972.176190874125,-33060.95696222269,-30292.8498736441,-4461.385841534834,-20250.613421274833,0.0,0.0,0.0,193.0,1.0,154.0,0.0,2.0,3.0,249.0,410.0,2.0,1017.0,1744252871.160525,0.0,2025-04-09 22:41:11.160,RIGHT,37
68.0,11767.433496407688,862.1738388745594,-57494.29702690805,-53956.19469358858,-32981.205938006155,-30221.74897453177,-4498.93677221975,-20184.3628507093,0.0,0.0,0.0,193.0,1.0,154.0,0.0,2.0,3.0,250.0,410.0,2.0,1018.0,1744252871.160534,0.0,2025-04-09 22:41:11.160,RIGHT,37
69.0,11712.448205047633,862.1961906190146,-57529.2775069806,-53976.221856620534,-33002.395391749786,-30254.963666792355,-4400.320875682935,-20207.362795753812,0.0,0.0,0.0,193.0,1.0,154.0,0.0,2.0,3.0,249.0,410.0,2.0,1017.0,1744252871.1605427,0.0,2025-04-09 22:41:11.160,RIGHT,37
70.0,11672.885617361739,819.3031930092803,-57544.00730657665,-53986.503659069975,-33038.35934857838,-30289.742981164814,-4434.630803421832,-20229.423967531202,0.0,0.0,0.0,193.0,1.0,155.0,0.0,11.0,3.0,249.0,411.0,11.0,1017.0,1744252871.160552,0.0,2025-04-09 22:41:11.160,RIGHT,37
71.0,11779.503438413554,833.4071437605792,-57543.13558854289,-53958.09459186728,-33064.57794482445,-30301.745867937312,-4392.430709890212,-20231.346217554357,0.0,0.0,0.0,193.0,1.0,155.0,0.0,22.0,3.0,251.0,411.0,22.0,1019.0,1744252871.160561,0.0,2025-04-09 22:41:11.160,RIGHT,37
72.0,11755.98940324657,828.6015187026882,-57522.728445855195,-53993.79032776241,-33007.58099646342,-30236.41171889445,-4556.559569425532,-20188.207350755616,0.0,0.0,0.0,193.0,1.0,155.0,0.0,32.0,3.0,252.0,411.0,32.0,1020.0,1744252871.16057,0.0,2025-04-09 22:41:11.160,RIGHT,37
73.0,11709.386016057255,842.5266554983444,-57532.07147503752,-53971.550342029375,-33006.41870575174,-30252.907306302466,-4404.098320495882,-20197.796249126943,0.0,0.0,0.0,193.0,1.0,155.0,0.0,38.0,3.0,252.0,411.0,38.0,1020.0,1744252871.1606064,0.0,2025-04-09 22:41:11.160,RIGHT,37
74.0,11649.349230450302,803.0534747902722,-57563.76624867514,-54019.83011005284,-33043.27673235854,-30297.879016146544,-4475.1545161193035,-20247.037142161982,0.0,0.0,0.0,193.0,1.0,155.0,0.0,39.0,3.0,252.0,411.0,39.0,1020.0,1744252871.1606157,0.0,2025-04-09 22:41:11.160,RIGHT,37
75.0,11746.601670575343,809.0213905598391,-57560.346431773476,-53969.00224316147,-33078.950116509215,-30335.47465032037,-4378.10324169436,-20272.09344769638,0.0,0.0,0.0,193.0,1.0,154.0,0.0,39.0,3.0,249.0,410.0,39.0,1017.0,1744252871.1606245,0.0,2025-04-09 22:41:11.160,RIGHT,37
76.0,11761.264414938023,825.4499227344899,-57538.28525999609,-54021.66295309817,-33009.63735695331,-30256.12595750403,-4575.357386512445,-20209.732080666075,0.0,0.0,0.0,193.0,1.0,154.0,0.0,39.0,3.0,249.0,410.0,39.0,1017.0,1744252871.1606336,0.0,2025-04-09 22:41:11.160,RIGHT,37
77.0,11716.762091727507,842.9736903874506,-57534.23959424968,-53973.67375775263,-33001.993060349596,-30258.785815094212,-4393.0342069905055,-20202.22189452909,0.0,0.0,0.0,193.0,1.0,154.0,0.0,38.0,3.0,250.0,410.0,38.0,1018.0,1744252871.1606424,0.0,2025-04-09 22:41:11.160,RIGHT,37
78.0,11657.708782876585,818.766751142353,-57561.64283295189,-54028.74845609051,-33026.75879320607,-30275.86254785807,-4480.004844666105,-20222.18200232768,0.0,0.0,0.0,193.0,1.0,154.0,0.0,38.0,3.0,249.0,410.0,38.0,1017.0,1744252871.1606512,0.0,2025-04-09 22:41:11.160,RIGHT,37
79.0,11736.789254759462,823.3935622446015,-57544.58845193249,-53950.53970224139,-33065.76258728059,-30312.340594809128,-4364.2675118765255,-20246.09836889486,0.0,0.0,0.0,193.0,1.0,155.0,0.0,39.0,3.0,251.0,411.0,39.0,1019.0,1744252871.16066,0.0,2025-04-09 22:41:11.160,RIGHT,37
80.0,11768.439324908177,823.3265070112357,-57548.85763512345,-54030.469540413564,-33029.530409518535,-30266.698332631393,-4584.856877905951,-20225.802984929443,0.0,0.0,0.0,193.0,1.0,155.0,0.0,39.0,3.0,251.0,411.0,39.0,1019.0,1744252871.1606686,0.0,2025-04-09 22:41:11.160,RIGHT,37
81.0,11728.832033733373,843.085449109727,-57521.543803399065,-53964.82246694833,-33000.58490044891,-30245.79945156568,-4423.700800383187,-20195.784592125965,0.0,0.0,0.0,193.0,1.0,155.0,0.0,39.0,3.0,252.0,411.0,39.0,1020.0,1744252871.1606774,0.0,2025-04-09 22:41:11.160,RIGHT,37
82.0,11672.907969106194,832.9824606159283,-57552.97035610323,-54026.088598500326,-33015.58292097842,-30266.631277398024,-4473.858114940896,-20218.538667981466,0.0,0.0,0.0,193.0,1.0,154.0,0.0,39.0,3.0,249.0,410.0,39.0,1017.0,1744252871.160686,0.0,2025-04-09 22:41:11.160,RIGHT,37
83.0,11721.523013296488,819.1914342870039,-57540.78865537509,-53957.82637093382,-33059.81702325547,-30313.122905865064,-4376.113936437838,-20261.4316655912,0.0,0.0,0.0,193.0,1.0,154.0,0.0,40.0,3.0,249.0,410.0,40.0,1017.0,1744252871.1606948,0.0,2025-04-09 22:41:11.160,RIGHT,37
84.0,11777.447077923665,829.0038501028837,-57555.09377182648,-54031.251851469504,-33046.74125274912,-30287.597213697103,-4558.99590957116,-20254.457921321147,0.0,0.0,0.0,193.0,1.0,154.0,0.0,40.0,3.0,250.0,410.0,40.0,1018.0,1744252871.1607034,0.0,2025-04-09 22:41:11.160,RIGHT,37
85.0,11732.430664590676,841.6772892090428,-57516.04527426306,-53970.74567922899,-32996.00279283557,-30243.31840793114,-4439.1682075462595,-20190.88956009025,0.0,0.0,0.0,193.0,1.0,154.0,0.0,40.0,3.0,252.0,410.0,40.0,1020.0,1744252871.160712,0.0,2025-04-09 22:41:11.160,RIGHT,37
86.0,11679.144105809226,835.8881873951182,-57549.39407699038,-54020.09833098631,-33014.2418163111,-30258.539945905206,-4439.861111624374,-20196.09751654834,0.0,0.0,0.0,193.0,1.0,154.0,0.0,40.0,3.0,252.0,410.0,40.0,1020.0,1744252871.1607208,0.0,2025-04-09 22:41:11.160,RIGHT,37
87.0,11693.69509144963,812.4635592059565,-57543.31440249854,-53971.46093505155,-33058.4535668437,-30302.19290282642,-4400.9020210387735,-20238.319961824414,0.0,0.0,0.0,193.0,1.0,154.0,0.0,41.0,3.0,252.0,410.0,41.0,1020.0,1744252871.1607296,0.0,2025-04-09 22:41:11.160,RIGHT,37
88.0,11788.622950151319,839.0621351077718,-57541.97329783122,-53997.52306908644,-33045.333092848436,-30280.51171070477,-4499.786138509052,-20233.179060599694,0.0,0.0,0.0,193.0,1.0,154.0,0.0,41.0,3.0,250.0,410.0,41.0,1018.0,1744252871.1607437,0.0,2025-04-09 22:41:11.160,RIGHT,37
89.0,11753.575414845398,844.7171264549645,-57499.28146592158,-53962.609644247255,-32983.172891518225,-30229.259160668753,-4475.579199263954,-20183.826408842375,0.0,0.0,0.0,193.0,1.0,154.0,0.0,41.0,3.0,249.0,410.0,41.0,1017.0,1744252871.1607525,0.0,2025-04-09 22:41:11.160,RIGHT,37
90.0,11695.4608792616,835.1282280836377,-57537.50294894016,-53999.40061562069,-33007.089258085405,-30253.287285958206,-4421.040942793005,-20198.623263671787,0.0,0.0,0.0,193.0,1.0,155.0,0.0,41.0,3.0,252.0,411.0,41.0,1020.0,1744252871.160761,0.0,2025-04-09 22:41:11.160,RIGHT,37
91.0,11679.769954653973,804.2604689908587,-57534.5301669276,-53977.60766477676,-33037.33116833343,-30288.223062541852,-4411.8767275663295,-20220.818545915907,0.0,0.0,0.0,193.0,1.0,155.0,0.0,41.0,3.0,252.0,411.0,41.0,1020.0,1744252871.16077,0.0,2025-04-09 22:41:11.160,RIGHT,37
92.0,11791.506325186054,838.92802464104,-57532.160882015334,-53974.97015893104,-33047.47886031614,-30301.85762665959,-4425.511291684066,-20243.10323513785,0.0,0.0,0.0,193.0,1.0,155.0,0.0,41.0,3.0,251.0,411.0,41.0,1019.0,1744252871.1607785,0.0,2025-04-09 22:41:11.160,RIGHT,37
93.0,11753.687173567674,838.8162659187634,-57508.33392242598,-53985.92251371414,-32993.00765907856,-30251.834422568612,-4524.127188220881,-20210.514391722012,0.0,0.0,0.0,193.0,1.0,155.0,0.0,42.0,3.0,251.0,411.0,42.0,1019.0,1744252871.1607873,0.0,2025-04-09 22:41:11.160,RIGHT,37
94.0,11700.065338619392,841.8337514202299,-57536.76534137313,-53993.365644617756,-33008.65388019727,-30272.621544912046,-4418.135216013815,-20222.33846453887,0.0,0.0,0.0,193.0,1.0,154.0,0.0,42.0,3.0,250.0,410.0,42.0,1018.0,1744252871.160796,0.0,2025-04-09 22:41:11.160,RIGHT,37
95.0,11666.224797514058,811.413027216557,-57544.38728623239,-54000.62996156573,-33037.46527880016,-30292.559300966182,-4463.576312491455,-20230.027464631494,0.0,0.0,0.0,193.0,1.0,154.0,0.0,42.0,3.0,249.0,410.0,42.0,1017.0,1744252871.160805,0.0,2025-04-09 22:41:11.160,RIGHT,37
96.0,11774.09431625537,828.9144431250625,-57537.72646638471,-53962.810809947354,-33062.40982561229,-30315.04515588822,-4405.886460052307,-20244.176118871703,0.0,0.0,0.0,193.0,1.0,154.0,0.0,42.0,3.0,251.0,410.0,42.0,1019.0,1744252871.1608136,0.0,2025-04-09 22:41:11.160,RIGHT,37
97.0,11763.968976017115,830.5014169813892,-57510.23382070468,-53997.277199897435,-32994.90755735726,-30246.067672499143,-4573.725709167208,-20200.99254858405,0.0,0.0,0.0,193.0,1.0,154.0,0.0,42.0,3.0,251.0,410.0,42.0,1019.0,1744252871.1608224,0.0,2025-04-09 22:41:11.160,RIGHT,37
98.0,11715.353931826823,843.0630973652718,-57521.56615514352,-53967.281158838414,-32997.634470180805,-30257.109434260066,-4406.557012385966,-20197.08099330437,0.0,0.0,0.0,193.0,1.0,155.0,0.0,42.0,3.0,251.0,411.0,42.0,1019.0,1744252871.1608312,0.0,2025-04-09 22:41:11.160,RIGHT,37
99.0,11661.441524200622,816.1292452966268,-57544.275527510115,-54008.184851191625,-33022.6460722263,-30279.349419993094,-4480.228362110658,-20210.603798699834,0.0,0.0,0.0,193.0,1.0,155.0,0.0,42.0,3.0,251.0,411.0,42.0,1019.0,1744252871.6318135,0.0,2025-04-09 22:41:11.631,RIGHT,37
100.0,11761.286766682479,831.8425216487076,-57528.85282383595,-53935.832254389796,-33053.89381097482,-30312.25118783131,-4378.751442283564,-20240.890412436773,0.0,0.0,0.0,193.0,1.0,154.0,0.0,42.0,3.0,249.0,410.0,42.0,1017.0,1744252871.6318471,0.0,2025-04-09 22:41:11.631,RIGHT,37
101.0,11758.828074792395,824.6452599340988,-57531.95971631524,-54010.68824657062,-33009.81617090895,-30258.629352883025,-4598.446738534777,-20202.825391629387,0.0,0.0,0.0,193.0,1.0,154.0,0.0,43.0,3.0,250.0,410.0,43.0,1018.0,1744252871.6318667,0.0,2025-04-09 22:41:11.631,RIGHT,37
102.0,11715.041007404448,834.1447513276042,-57522.08024526599,-53955.4347342771,-32991.15246428877,-30258.025855782733,-4416.503538668578,-20182.172379752683,0.0,0.0,0.0,193.0,1.0,154.0,0.0,43.0,3.0,248.0,410.0,43.0,1016.0,1744252871.631884,0.0,2025-04-09 22:41:11.631,RIGHT,37
103.0,11649.863320572773,802.9417160679956,-57565.599091720476,-54021.73000833154,-33027.429345539735,-30299.398934769506,-4504.457653100211,-20230.832127431888,0.0,0.0,0.0,193.0,1.0,154.0,0.0,42.0,3.0,249.0,410.0,42.0,1017.0,1744252871.6319313,0.0,2025-04-09 22:41:11.631,RIGHT,37
104.0,11725.859251720816,805.3557044691688,-57550.10933281295,-53939.85556839175,-33065.29320064702,-30339.609723044603,-4395.828175047419,-20265.857310993353,0.0,0.0,0.0,193.0,1.0,154.0,0.0,43.0,3.0,251.0,410.0,43.0,1019.0,1744252871.631948,0.0,2025-04-09 22:41:11.631,RIGHT,37
105.0,11774.116667999824,823.058286077772,-57548.2317862787,-54004.407406378676,-33021.64024372581,-30279.148254293,-4596.457433278255,-20207.653368431733,0.0,0.0,0.0,193.0,1.0,154.0,0.0,43.0,3.0,252.0,410.0,43.0,1020.0,1744252871.6319573,0.0,2025-04-09 22:41:11.631,RIGHT,37
106.0,11732.363609357311,845.3876787886237,-57517.65459986385,-53930.84781537626,-32983.731685129605,-30252.66143711346,-4439.101152312894,-20165.98971676704,0.0,0.0,0.0,193.0,1.0,154.0,0.0,43.0,3.0,250.0,410.0,43.0,1018.0,1744252871.6319664,0.0,2025-04-09 22:41:11.631,RIGHT,37
107.0,11680.708727921097,841.699640953498,-57546.5330537001,-53978.68054851062,-32998.75205740357,-30264.28434423022,-4481.770632478075,-20177.545568650436,0.0,0.0,0.0,193.0,1.0,154.0,0.0,43.0,3.0,249.0,410.0,43.0,1017.0,1744252871.6319757,0.0,2025-04-09 22:41:11.631,RIGHT,37
108.0,11723.065283663904,835.5976147171992,-57530.86448083693,-53900.76236733942,-33039.63339801233,-30300.114190592074,-4391.201363945171,-20203.585350940866,0.0,0.0,0.0,193.0,1.0,154.0,0.0,43.0,3.0,249.0,410.0,43.0,1017.0,1744252871.6319847,0.0,2025-04-09 22:41:11.631,RIGHT,37
109.0,11787.170086761724,844.7618299438751,-57550.89164386888,-53965.80594370436,-33031.20679035268,-30279.170606037453,-4555.66549964732,-20206.289912019958,0.0,0.0,0.0,193.0,1.0,154.0,0.0,43.0,3.0,249.0,410.0,43.0,1017.0,1744252871.6319938,0.0,2025-04-09 22:41:11.631,RIGHT,37
110.0,11742.712467040119,846.0805828667383,-57520.359160942935,-53916.02860880239,-32984.20107176317,-30243.251352697775,-4476.31680683098,-20171.152969736217,0.0,0.0,0.0,193.0,1.0,154.0,0.0,43.0,3.0,252.0,410.0,43.0,1020.0,1744252871.6320028,0.0,2025-04-09 22:41:11.632,RIGHT,37
111.0,11685.961387868094,834.7258966834422,-57561.50872248515,-53966.40944080466,-33002.17187430523,-30265.80426285318,-4472.382899806846,-20192.588292668857,0.0,0.0,0.0,193.0,1.0,155.0,0.0,43.0,3.0,251.0,411.0,43.0,1019.0,1744252871.632012,0.0,2025-04-09 22:41:11.632,RIGHT,37
112.0,11691.370510026278,808.3731899706353,-57559.13943757289,-53923.78466412838,-33044.3496160924,-30305.925644150455,-4440.084629068927,-20228.552249497443,0.0,0.0,0.0,193.0,1.0,154.0,0.0,43.0,3.0,252.0,410.0,43.0,1020.0,1744252871.6320212,0.0,2025-04-09 22:41:11.632,RIGHT,37
113.0,11785.873685583316,833.4518472494898,-57563.3862690194,-53945.51055973895,-33045.10957540388,-30287.57486195265,-4525.647106843842,-20219.209220315126,0.0,0.0,0.0,193.0,1.0,154.0,0.0,43.0,3.0,250.0,410.0,43.0,1018.0,1744252871.63203,0.0,2025-04-09 22:41:11.632,RIGHT,37
114.0,11747.540443842465,841.0514403642942,-57524.44953017826,-53917.43676870308,-32978.38961820479,-30226.822820523124,-4530.452731901733,-20161.94405102063,0.0,0.0,0.0,193.0,1.0,154.0,0.0,43.0,3.0,249.0,410.0,43.0,1017.0,1744252871.6320388,0.0,2025-04-09 22:41:11.632,RIGHT,37
115.0,11683.815620400384,836.5587397287775,-57569.845923166984,-53951.25495806396,-33009.12326683084,-30262.116225018053,-4468.091364871427,-20192.3647752243,0.0,0.0,0.0,193.0,1.0,154.0,0.0,43.0,3.0,251.0,410.0,43.0,1019.0,1744252871.6320477,0.0,2025-04-09 22:41:11.632,RIGHT,37
116.0,11662.715573634574,810.2283847604257,-57577.51257151516,-53941.77781841491,-33050.496345817606,-30297.208463812887,-4497.819184996985,-20229.356912297837,0.0,0.0,0.0,193.0,1.0,154.0,0.0,43.0,3.0,251.0,410.0,43.0,1019.0,1744252871.6320565,0.0,2025-04-09 22:41:11.632,RIGHT,37
117.0,11774.38488893329,827.9980216023948,-57577.132591859416,-53929.48435896449,-33067.550726837006,-30305.210388327887,-4491.963027949694,-20232.307342565935,0.0,0.0,0.0,193.0,1.0,155.0,0.0,43.0,3.0,251.0,411.0,43.0,1019.0,1744252871.6320653,0.0,2025-04-09 22:41:11.632,RIGHT,37
118.0,11751.630813077785,829.6520506920875,-57538.66523965183,-53939.76616141393,-32990.39250497729,-30234.26595142674,-4584.320436039024,-20162.480492887556,0.0,0.0,0.0,193.0,1.0,155.0,0.0,44.0,3.0,252.0,411.0,44.0,1020.0,1744252871.6320798,0.0,2025-04-09 22:41:11.632,RIGHT,37
119.0,11705.340350310846,844.3594985436796,-57554.15499855936,-53932.83712063279,-32994.66168816825,-30252.348512691085,-4441.559844202977,-20178.014955283994,0.0,0.0,0.0,193.0,1.0,155.0,0.0,43.0,3.0,252.0,411.0,43.0,1020.0,1744252871.632089,0.0,2025-04-09 22:41:11.632,RIGHT,37
120.0,11662.313242234379,812.3965039725905,-57569.95768188926,-53954.47360926552,-33027.92108391775,-30282.009277583278,-4500.791967009541,-20212.816621400907,0.0,0.0,0.0,193.0,1.0,154.0,0.0,43.0,3.0,249.0,410.0,43.0,1017.0,1744252871.6320977,0.0,2025-04-09 22:41:11.632,RIGHT,37
121.0,11760.28093818199,820.9348703545178,-57568.10248709947,-53912.98877155648,-33060.845203500416,-30309.121943607563,-4430.16045453077,-20235.615400745322,0.0,0.0,0.0,193.0,1.0,154.0,0.0,44.0,3.0,251.0,410.0,44.0,1019.0,1744252871.6321065,0.0,2025-04-09 22:41:11.632,RIGHT,37
122.0,11754.380077645788,824.1758733005373,-57547.53888220059,-53960.665042479646,-32996.9862695916,-30242.22317245283,-4613.042427664092,-20180.22777798507,0.0,0.0,0.0,193.0,1.0,155.0,0.0,44.0,3.0,251.0,411.0,44.0,1019.0,1744252871.6321156,0.0,2025-04-09 22:41:11.632,RIGHT,37
123.0,11709.765995712996,837.7210304404534,-57551.76336190264,-53926.176300785104,-32994.61698467934,-30248.28049520022,-4439.794056391008,-20170.19184472464,0.0,0.0,0.0,193.0,1.0,155.0,0.0,44.0,3.0,250.0,411.0,44.0,1018.0,1744252871.6321242,0.0,2025-04-09 22:41:11.632,RIGHT,37
124.0,11666.470666703066,818.3644197421575,-57566.44845800978,-53963.39195530319,-33013.72772618863,-30261.110396517564,-4522.2272899421805,-20187.84972284433,0.0,0.0,0.0,193.0,1.0,155.0,0.0,43.0,3.0,251.0,411.0,43.0,1019.0,1744252871.6321332,0.0,2025-04-09 22:41:11.632,RIGHT,37
125.0,11755.631775335285,831.4625419929674,-57550.9363473578,-53890.43586140107,-33046.74125274912,-30291.106437576585,-4396.945762270184,-20201.707804406622,0.0,0.0,0.0,193.0,1.0,154.0,0.0,44.0,3.0,252.0,410.0,44.0,1020.0,1744252871.6321418,0.0,2025-04-09 22:41:11.632,RIGHT,37
126.0,11772.440287165677,834.3012135387914,-57550.15403630186,-53968.10817338326,-33005.81520865145,-30240.524439874225,-4631.3932098619,-20180.42894368517,0.0,0.0,0.0,193.0,1.0,154.0,0.0,44.0,3.0,249.0,410.0,44.0,1017.0,1744252871.6321504,0.0,2025-04-09 22:41:11.632,RIGHT,37
127.0,11728.027370932981,849.0757166237494,-57537.57000417352,-53914.41928320161,-32994.28170851251,-30243.050186997676,-4468.717213716175,-20180.80892334091,0.0,0.0,0.0,193.0,1.0,154.0,0.0,44.0,3.0,250.0,410.0,44.0,1018.0,1744252871.6321592,0.0,2025-04-09 22:41:11.632,RIGHT,37
128.0,11664.906044591195,823.5053209668781,-57569.53299874461,-53979.26169386646,-33011.71606918765,-30270.878108844532,-4530.340973179456,-20204.09944106334,0.0,0.0,0.0,193.0,1.0,154.0,0.0,44.0,3.0,250.0,410.0,44.0,1018.0,1744252871.632168,0.0,2025-04-09 22:41:11.632,RIGHT,37
129.0,11732.073036679392,825.0028878453837,-57545.035486821595,-53893.29688469135,-33044.43902307022,-30299.37658302505,-4407.562840886455,-20213.71069117912,0.0,0.0,0.0,193.0,1.0,155.0,0.0,44.0,3.0,251.0,411.0,44.0,1019.0,1744252871.6321769,0.0,2025-04-09 22:41:11.632,RIGHT,37
130.0,11789.204095507157,841.8337514202299,-57545.035486821595,-53961.17913260211,-33011.93958663221,-30251.029759768222,-4608.907354939861,-20185.65925188771,0.0,0.0,0.0,193.0,1.0,155.0,0.0,44.0,3.0,251.0,411.0,44.0,1019.0,1744252871.6321857,0.0,2025-04-09 22:41:11.632,RIGHT,37
131.0,11742.444246106656,848.9863096459281,-57520.94030629878,-53906.10443426424,-32980.26716473904,-30233.997730493276,-4480.36247257739,-20167.442580156636,0.0,0.0,0.0,193.0,1.0,154.0,0.0,44.0,3.0,250.0,410.0,44.0,1018.0,1744252871.6321945,0.0,2025-04-09 22:41:11.632,RIGHT,37
132.0,11675.389012740734,832.1777978155372,-57563.09569634148,-53972.667929252144,-33007.42453425223,-30259.858698828066,-4524.708333576719,-20192.789458368952,0.0,0.0,0.0,193.0,1.0,154.0,0.0,44.0,3.0,250.0,410.0,44.0,1018.0,1744252871.632203,0.0,2025-04-09 22:41:11.632,RIGHT,37
133.0,11706.100309622325,812.575317928233,-57550.57871944651,-53910.86535583322,-33049.222296383654,-30300.67298420346,-4448.511236728577,-20220.32680753789,0.0,0.0,0.0,193.0,1.0,154.0,0.0,44.0,3.0,249.0,410.0,44.0,1017.0,1744252871.6322172,0.0,2025-04-09 22:41:11.632,RIGHT,37
134.0,11786.790107105984,830.9037483815847,-57556.72544917172,-53961.983795402506,-33034.626607254344,-30276.778969380735,-4584.856877905951,-20210.42498474419,0.0,0.0,0.0,193.0,1.0,154.0,0.0,44.0,3.0,249.0,410.0,44.0,1017.0,1744252871.632226,0.0,2025-04-09 22:41:11.632,RIGHT,37
135.0,11747.406333375733,842.1690275870595,-57513.89950679535,-53912.564088411826,-32975.975629803615,-30231.18141069191,-4525.825920799484,-20166.995545267528,0.0,0.0,0.0,193.0,1.0,155.0,0.0,44.0,3.0,252.0,411.0,44.0,1020.0,1744252871.6322348,0.0,2025-04-09 22:41:11.632,RIGHT,37
136.0,11692.64455946023,843.3089665542801,-57545.97426008872,-53955.21121683255,-32987.17385377573,-30258.539945905206,-4492.343007605435,-20195.47166770359,0.0,0.0,0.0,193.0,1.0,155.0,0.0,44.0,3.0,252.0,411.0,44.0,1020.0,1744252871.6322436,0.0,2025-04-09 22:41:11.632,RIGHT,37
137.0,11689.135335580748,820.286669765314,-57543.40380947636,-53918.82257685931,-33024.81419143846,-30291.91110037698,-4461.989338635128,-20211.251999289037,0.0,0.0,0.0,193.0,1.0,155.0,0.0,44.0,3.0,251.0,411.0,44.0,1019.0,1744252871.6322525,0.0,2025-04-09 22:41:11.632,RIGHT,37
138.0,11796.647226410774,845.3206235552578,-57545.303707755054,-53931.987754343485,-33030.62564499684,-30279.215309526364,-4522.428455642278,-20203.33948175186,0.0,0.0,0.0,193.0,1.0,155.0,0.0,44.0,3.0,250.0,411.0,44.0,1018.0,1744252871.6322613,0.0,2025-04-09 22:41:11.632,RIGHT,37
139.0,11762.359650416332,851.668518980565,-57508.2221637037,-53918.82257685931,-32967.504318655054,-30223.760631532747,-4568.070717820015,-20163.79924581042,0.0,0.0,0.0,193.0,1.0,155.0,0.0,44.0,3.0,249.0,411.0,44.0,1017.0,1744252871.63227,0.0,2025-04-09 22:41:11.632,RIGHT,37
140.0,11707.419062545188,853.9707486594616,-57542.308573998045,-53941.9342806261,-32984.715161885644,-30254.717797603345,-4480.630693510854,-20194.331728736368,0.0,0.0,0.0,193.0,1.0,155.0,0.0,44.0,3.0,249.0,411.0,44.0,1017.0,1744252871.6322792,0.0,2025-04-09 22:41:11.632,RIGHT,37
141.0,11674.763163895985,812.5082626948671,-57552.366859002934,-53940.77198991442,-33023.89776991579,-30284.244452028808,-4510.157347936314,-20215.47647899109,0.0,0.0,0.0,193.0,1.0,154.0,0.0,44.0,3.0,250.0,410.0,44.0,1018.0,1744252871.632288,0.0,2025-04-09 22:41:11.632,RIGHT,37
142.0,11786.767755361529,841.2973095533025,-57543.3814577319,-53911.93823956708,-33040.03572941253,-30287.977193352843,-4483.290551101035,-20214.694167935155,0.0,0.0,0.0,193.0,1.0,155.0,0.0,44.0,3.0,252.0,411.0,44.0,1020.0,1744252871.6322968,0.0,2025-04-09 22:41:11.632,RIGHT,37
143.0,11764.304252183945,846.7064317114869,-57508.110404981424,-53927.6291641747,-32967.52667039951,-30214.462305839337,-4603.051197892571,-20158.993620752528,0.0,0.0,0.0,193.0,1.0,155.0,0.0,44.0,3.0,250.0,411.0,44.0,1018.0,1744252871.6323056,0.0,2025-04-09 22:41:11.632,RIGHT,37
144.0,11697.204315329112,838.8386176632188,-57541.749780386664,-53931.65247817666,-32988.5373101875,-30251.32033244614,-4454.1438763313145,-20178.774914595477,0.0,0.0,0.0,193.0,1.0,155.0,0.0,44.0,3.0,251.0,411.0,44.0,1019.0,1744252871.6323144,0.0,2025-04-09 22:41:11.632,RIGHT,37
145.0,11651.606756640287,807.9708585704396,-57557.060725338546,-53960.218007590534,-33017.88515065732,-30278.544757192703,-4526.094141732949,-20206.468725975603,0.0,0.0,0.0,193.0,1.0,154.0,0.0,44.0,3.0,249.0,410.0,44.0,1017.0,1744252871.6323233,0.0,2025-04-09 22:41:11.632,RIGHT,37
146.0,11757.777542802995,824.6899634230094,-57543.47086470972,-53903.95866679653,-33045.601313781895,-30307.982004640344,-4434.563748188466,-20230.161575098227,0.0,0.0,0.0,193.0,1.0,154.0,0.0,44.0,3.0,250.0,410.0,44.0,1018.0,1744252871.632332,0.0,2025-04-09 22:41:11.632,RIGHT,37
147.0,11761.622042849309,830.3226030257467,-57523.73427435569,-53957.40168778917,-32979.127225771816,-30236.143497960988,-4628.688648782808,-20178.32787970637,0.0,0.0,0.0,193.0,1.0,154.0,0.0,44.0,3.0,249.0,410.0,44.0,1017.0,1744252871.632341,0.0,2025-04-09 22:41:11.632,RIGHT,37
148.0,11727.647391277242,855.0212806488611,-57510.16676547132,-53899.73418709447,-32960.48587089609,-30224.006500721756,-4436.284832511525,-20155.663210828687,0.0,0.0,0.0,193.0,1.0,155.0,0.0,44.0,3.0,252.0,411.0,44.0,1020.0,1744252871.6323547,0.0,2025-04-09 22:41:11.632,RIGHT,37
149.0,11658.4016869547,813.4023324730794,-57552.88094912541,-53965.94005417109,-33002.395391749786,-30262.18328025142,-4526.921156277795,-20197.70684214912,0.0,0.0,0.0,193.0,1.0,155.0,0.0,44.0,3.0,252.0,411.0,44.0,1020.0,1744252871.632364,0.0,2025-04-09 22:41:11.632,RIGHT,37
150.0,11737.973897215594,815.9727830854396,-57545.035486821595,-53895.01796901441,-33052.06096792948,-30308.76431569628,-4427.634707407321,-20236.487118779078,0.0,0.0,0.0,193.0,1.0,154.0,0.0,44.0,3.0,249.0,410.0,44.0,1017.0,1744252871.6323726,0.0,2025-04-09 22:41:11.632,RIGHT,37
151.0,11764.483066139588,826.3886960016127,-57541.36980073092,-53967.147048371684,-33008.25154879708,-30244.79362306519,-4649.296957170601,-20183.155856508714,0.0,0.0,0.0,193.0,1.0,154.0,0.0,44.0,3.0,249.0,410.0,44.0,1017.0,1744252871.6323817,0.0,2025-04-09 22:41:11.632,RIGHT,37
152.0,11720.427777818177,842.2584345648808,-57516.87228880791,-53903.15400399614,-32977.87552808232,-30231.002596736267,-4457.518989744066,-20153.048056727417,0.0,0.0,0.0,193.0,1.0,154.0,0.0,44.0,3.0,248.0,410.0,44.0,1016.0,1744252871.6323903,0.0,2025-04-09 22:41:11.632,RIGHT,37
153.0,11654.601890397298,815.6151551741547,-57564.21328356425,-53980.73690900051,-33014.57709247793,-30272.643896656504,-4537.4711796607,-20215.38707201327,0.0,0.0,0.0,193.0,1.0,154.0,0.0,44.0,3.0,252.0,410.0,44.0,1020.0,1744252871.6323988,0.0,2025-04-09 22:41:11.632,RIGHT,37
154.0,11716.002132416026,812.6870766505095,-57547.31536475603,-53903.891611563165,-33054.29614237501,-30306.551492995204,-4433.759085388075,-20235.682455978687,0.0,0.0,0.0,193.0,1.0,155.0,0.0,44.0,3.0,251.0,411.0,44.0,1019.0,1744252871.6324077,0.0,2025-04-09 22:41:11.632,RIGHT,37
155.0,11771.456810409643,821.6501261770876,-57555.22788229321,-53972.06443215185,-33028.03284264002,-30261.60213489558,-4615.858747465461,-20205.19467654165,0.0,0.0,0.0,193.0,1.0,155.0,0.0,44.0,3.0,252.0,411.0,44.0,1020.0,1744252871.6324167,0.0,2025-04-09 22:41:11.632,RIGHT,37
156.0,11730.061379678415,835.0388211058165,-57518.19104173077,-53909.21132674353,-32980.69184788369,-30221.279587898207,-4486.799774980518,-20156.445521884623,0.0,0.0,0.0,193.0,1.0,155.0,0.0,44.0,3.0,250.0,411.0,44.0,1018.0,1744252871.6324255,0.0,2025-04-09 22:41:11.632,RIGHT,37
157.0,11675.545474951921,834.2788617943361,-57551.741010158185,-53966.096516382284,-32997.56741494744,-30242.401986408473,-4513.912441004806,-20180.563054151902,0.0,0.0,0.0,193.0,1.0,154.0,0.0,44.0,3.0,250.0,410.0,44.0,1018.0,1744252871.6324341,0.0,2025-04-09 22:41:11.632,RIGHT,37
158.0,11694.969140883582,809.9378120825068,-57543.292050754084,-53915.559222168835,-33038.69462474521,-30289.18418755343,-4448.377126261846,-20220.34915928235,0.0,0.0,0.0,193.0,1.0,155.0,0.0,44.0,3.0,250.0,411.0,44.0,1018.0,1744252871.6324427,0.0,2025-04-09 22:41:11.632,RIGHT,37
159.0,11775.99421453407,826.5004547238892,-57554.333812515004,-53962.7884582029,-33037.57703752244,-30276.019010069253,-4571.5352382105875,-20223.05372036144,0.0,0.0,0.0,193.0,1.0,154.0,0.0,44.0,3.0,250.0,410.0,44.0,1018.0,1744252871.6324515,0.0,2025-04-09 22:41:11.632,RIGHT,37
160.0,11738.823263504895,839.8667979081629,-57511.574925372,-53919.29196349287,-32980.96006881715,-30222.330119887607,-4539.907519806328,-20175.846836071833,0.0,0.0,0.0,193.0,1.0,154.0,0.0,44.0,3.0,251.0,410.0,44.0,1019.0,1744252871.6324604,0.0,2025-04-09 22:41:11.632,RIGHT,37
161.0,11677.601835441808,827.863911135663,-57556.993670105185,-53969.35987107276,-33010.48672324261,-30259.65753312797,-4511.677266559275,-20209.86619113281,0.0,0.0,0.0,193.0,1.0,155.0,0.0,44.0,3.0,250.0,411.0,44.0,1018.0,1744252871.6324694,0.0,2025-04-09 22:41:11.632,RIGHT,37
162.0,11669.465800460077,801.7123701229538,-57555.183178804305,-53945.689373694586,-33043.74611899211,-30295.979117867842,-4494.421719839778,-20240.86806069232,0.0,0.0,0.0,193.0,1.0,155.0,0.0,44.0,3.0,251.0,411.0,44.0,1019.0,1744252871.632478,0.0,2025-04-09 22:41:11.632,RIGHT,37
163.0,11779.95047330266,833.1612745715707,-57551.00340259116,-53943.90123413816,-33046.987121938124,-30287.105475319087,-4520.148577707837,-20233.514336766522,0.0,0.0,0.0,193.0,1.0,155.0,0.0,44.0,3.0,251.0,411.0,44.0,1019.0,1744252871.6324916,0.0,2025-04-09 22:41:11.632,RIGHT,37
164.0,11748.166292687214,840.0679636082607,-57511.93255328329,-53935.139350311685,-32976.13209201481,-30217.189218662887,-4575.692662679275,-20159.552414363912,0.0,0.0,0.0,193.0,1.0,155.0,0.0,44.0,3.0,251.0,411.0,44.0,1019.0,1744252871.6325004,0.0,2025-04-09 22:41:11.632,RIGHT,37
165.0,11698.679530463163,847.667556723065,-57540.073399552515,-53947.365754528735,-32989.78900787699,-30244.346588176086,-4474.305149830002,-20185.18986525415,0.0,0.0,0.0,193.0,1.0,154.0,0.0,44.0,3.0,250.0,410.0,44.0,1018.0,1744252871.6325092,0.0,2025-04-09 22:41:11.632,RIGHT,37
166.0,11665.509541691488,811.5024341943782,-57550.846940379975,-53956.14999009967,-33026.62468273934,-30283.015106083767,-4524.663630087809,-20226.85351691884,0.0,0.0,0.0,193.0,1.0,154.0,0.0,44.0,3.0,250.0,410.0,44.0,1018.0,1744252871.632518,0.0,2025-04-09 22:41:11.632,RIGHT,37
167.0,11760.28093818199,820.4207802320458,-57556.211359049244,-53931.04898107636,-33055.57019180896,-30307.825542429156,-4479.960141177195,-20243.39380781577,0.0,0.0,0.0,193.0,1.0,154.0,0.0,44.0,3.0,250.0,410.0,44.0,1018.0,1744252871.6325269,0.0,2025-04-09 22:41:11.632,RIGHT,37
168.0,11755.721182313107,836.6034432176881,-57515.330018440494,-53949.891501652186,-32973.49458616908,-30227.783945534702,-4621.759608001663,-20189.302586233927,0.0,0.0,0.0,193.0,1.0,155.0,0.0,44.0,3.0,252.0,411.0,44.0,1020.0,1744252871.6325357,0.0,2025-04-09 22:41:11.632,RIGHT,37
169.0,11715.398635315732,853.1437341146153,-57522.34846619946,-53919.56018442634,-32977.1826240042,-30227.851000768067,-4459.530646745044,-20175.109228504807,0.0,0.0,0.0,193.0,1.0,154.0,0.0,44.0,3.0,250.0,410.0,44.0,1018.0,1744252871.6325445,0.0,2025-04-09 22:41:11.632,RIGHT,37
170.0,11649.572747894854,807.5685271702441,-57556.45722823826,-53968.66696699464,-33023.04840362649,-30264.08317853012,-4548.647051888353,-20216.258790047024,0.0,0.0,0.0,193.0,1.0,154.0,0.0,44.0,3.0,249.0,410.0,44.0,1017.0,1744252871.632553,0.0,2025-04-09 22:41:11.632,RIGHT,37
171.0,11746.914594997716,817.9620883419619,-57542.375629231414,-53904.6739226191,-33052.30683711849,-30294.28038528924,-4452.400440263801,-20231.659141976732,0.0,0.0,0.0,193.0,1.0,154.0,0.0,44.0,3.0,249.0,410.0,44.0,1017.0,1744252871.6325617,0.0,2025-04-09 22:41:11.632,RIGHT,37
172.0,11763.857217294839,831.8425216487076,-57522.81785283302,-53956.01587963294,-32989.36432473234,-30223.02302396572,-4651.263910682668,-20176.33857444985,0.0,0.0,0.0,193.0,1.0,154.0,0.0,44.0,3.0,249.0,410.0,44.0,1017.0,1744252871.6325705,0.0,2025-04-09 22:41:11.632,RIGHT,37
173.0,11713.74460622604,840.9173298975624,-57522.728445855195,-53913.56991691231,-32983.0834845404,-30232.41075663695,-4473.433431796245,-20172.04703951443,0.0,0.0,0.0,193.0,1.0,155.0,0.0,44.0,3.0,252.0,411.0,44.0,1020.0,1744252871.632579,0.0,2025-04-09 22:41:11.632,RIGHT,37
174.0,11650.779742095441,815.0340098183167,-57551.137513057896,-53970.432754806614,-33002.4400952387,-30253.734320847314,-4552.916235079317,-20195.65048165923,0.0,0.0,0.0,193.0,1.0,155.0,0.0,44.0,3.0,251.0,411.0,44.0,1019.0,1744252871.6325881,0.0,2025-04-09 22:41:11.632,RIGHT,37
175.0,11725.568679042897,813.3352772397134,-57541.258042008645,-53900.2706289614,-33048.70820626119,-30301.65646095949,-4440.174036046748,-20237.4258920462,0.0,0.0,0.0,193.0,1.0,155.0,0.0,44.0,3.0,252.0,411.0,44.0,1020.0,1744252871.6325967,0.0,2025-04-09 22:41:11.632,RIGHT,37
176.0,11766.360612673834,823.572376200244,-57543.89554785437,-53977.89823745468,-33012.1407523323,-30253.8907830585,-4630.722657528241,-20208.48038297658,0.0,0.0,0.0,193.0,1.0,154.0,0.0,44.0,3.0,250.0,410.0,44.0,1018.0,1744252871.6326056,0.0,2025-04-09 22:41:11.632,RIGHT,37
177.0,11731.626001790286,847.1087631116824,-57507.48455613668,-53900.13651849467,-32973.04755127997,-30223.380651877007,-4406.0652740079495,-20167.442580156636,0.0,0.0,0.0,193.0,1.0,154.0,0.0,44.0,3.0,250.0,410.0,44.0,1018.0,1744252871.632615,0.0,2025-04-09 22:41:11.632,RIGHT,37
178.0,11663.274367245956,822.8571203776742,-57549.77405664612,-53967.370565816236,-33002.6412609388,-30250.716835345847,-4453.40626876429,-20196.72336539309,0.0,0.0,0.0,193.0,1.0,154.0,0.0,44.0,3.0,250.0,410.0,44.0,1018.0,1744252871.6326327,0.0,2025-04-09 22:41:11.632,RIGHT,37
179.0,11707.754338712019,816.5539284412777,-57533.94902157176,-53895.688521348064,-33039.4992875456,-30294.235681800328,-4346.833151201386,-20231.86030767683,0.0,0.0,0.0,193.0,1.0,154.0,0.0,44.0,3.0,249.0,410.0,44.0,1017.0,1744252871.6326413,0.0,2025-04-09 22:41:11.632,RIGHT,37
180.0,11771.233292965091,834.1000478386936,-57540.34162048598,-53958.25105407847,-33020.366194291855,-30263.189108751907,-4509.41974036929,-20214.76122316852,0.0,0.0,0.0,193.0,1.0,155.0,0.0,44.0,3.0,251.0,411.0,44.0,1019.0,1744252871.6326504,0.0,2025-04-09 22:41:11.632,RIGHT,37
181.0,11720.897164451739,833.7647716718641,-57513.4748236507,-53911.066521533314,-32987.46442645364,-30231.89666651448,-4419.856300336874,-20168.80603656841,0.0,0.0,0.0,193.0,1.0,155.0,0.0,44.0,3.0,251.0,411.0,44.0,1019.0,1744252871.632659,0.0,2025-04-09 22:41:11.632,RIGHT,37
182.0,11667.476495203555,828.7579809138753,-57548.835283379,-53964.37543205923,-33003.46827548365,-30247.587591122105,-4424.706628883676,-20189.52610367848,0.0,0.0,0.0,193.0,1.0,155.0,0.0,44.0,3.0,252.0,411.0,44.0,1020.0,1744252871.6326678,0.0,2025-04-09 22:41:11.632,RIGHT,37
183.0,11688.88946639174,808.7531696263754,-57538.397018718366,-53914.53104192389,-33040.371005579356,-30283.75271365079,-4382.908866752251,-20229.71454020912,0.0,0.0,0.0,193.0,1.0,154.0,0.0,44.0,3.0,250.0,410.0,44.0,1018.0,1744252871.6326764,0.0,2025-04-09 22:41:11.632,RIGHT,37
184.0,11786.611293150341,832.4907222379115,-57542.934422842794,-53945.95759462805,-33036.32533983295,-30270.27461174424,-4479.334292332446,-20226.6747029632,0.0,0.0,0.0,193.0,1.0,155.0,0.0,44.0,3.0,251.0,411.0,44.0,1019.0,1744252871.632685,0.0,2025-04-09 22:41:11.632,RIGHT,37
185.0,11749.954432243638,840.7161641974645,-57500.779032800085,-53913.458158190035,-32962.85515580835,-30216.60807330705,-4448.064201839471,-20175.153931993715,0.0,0.0,0.0,193.0,1.0,154.0,0.0,44.0,3.0,249.0,410.0,44.0,1017.0,1744252871.6326938,0.0,2025-04-09 22:41:11.632,RIGHT,37
186.0,11683.592102955832,835.6199664616545,-57543.26969900962,-53950.56205398584,-32989.27491775453,-30240.79266080769,-4379.466698106134,-20178.931376806664,0.0,0.0,0.0,193.0,1.0,154.0,0.0,44.0,3.0,252.0,410.0,44.0,1020.0,1744252871.6327028,0.0,2025-04-09 22:41:11.632,RIGHT,37
187.0,11664.861341102283,807.0767887922274,-57547.069495567026,-53934.69231542257,-33031.832639197426,-30275.86254785807,-4392.900096523774,-20207.60866494282,0.0,0.0,0.0,193.0,1.0,155.0,0.0,44.0,3.0,251.0,411.0,44.0,1019.0,1744252871.6327116,0.0,2025-04-09 22:41:11.632,RIGHT,37
188.0,11769.623967364309,821.9630505994619,-57556.27841428261,-53937.799207901866,-33056.643075542815,-30290.41353349847,-4418.381085202824,-20222.517278494513,0.0,0.0,0.0,193.0,1.0,155.0,0.0,44.0,3.0,252.0,411.0,44.0,1020.0,1744252871.6327207,0.0,2025-04-09 22:41:11.632,RIGHT,37
189.0,11737.504510582032,818.3867714866128,-57524.38247494489,-53947.00812661745,-32993.521749201034,-30230.510858358248,-4514.2477171716355,-20176.360926194302,0.0,0.0,0.0,193.0,1.0,155.0,0.0,44.0,3.0,251.0,411.0,44.0,1019.0,1744252871.6327293,0.0,2025-04-09 22:41:11.632,RIGHT,37
190.0,11693.60568447181,834.4129722610679,-57541.83918736449,-53943.00716435995,-32999.19909229268,-30242.69255908639,-4383.445308619179,-20182.99939429753,0.0,0.0,0.0,193.0,1.0,156.0,0.0,44.0,3.0,252.0,412.0,44.0,1020.0,1744252871.632738,0.0,2025-04-09 22:41:11.632,RIGHT,37
191.0,11657.418210198666,802.6958468789873,-57550.5340159576,-53957.02170813343,-33025.37298504984,-30271.07927454463,-4426.405361462279,-20207.921589365196,0.0,0.0,0.0,193.0,1.0,155.0,0.0,44.0,3.0,250.0,411.0,44.0,1018.0,1744252871.632751,0.0,2025-04-09 22:41:11.632,RIGHT,37
192.0,11769.33339468639,819.5937656871994,-57543.26969900962,-53918.86728034822,-33050.16106965078,-30296.068524845665,-4366.078003177405,-20231.212107087627,0.0,0.0,0.0,193.0,1.0,155.0,0.0,44.0,3.0,248.0,411.0,44.0,1016.0,1744252871.6327596,0.0,2025-04-09 22:41:11.632,RIGHT,37
193.0,11754.000097990049,825.092294823205,-57524.762454600634,-53963.995452403484,-32990.28074625501,-30232.07548047012,-4546.166008253814,-20189.45904844511,0.0,0.0,0.0,193.0,1.0,155.0,0.0,44.0,3.0,251.0,411.0,44.0,1019.0,1744252871.6327732,0.0,2025-04-09 22:41:11.632,RIGHT,37
194.0,11708.089614878847,841.3196612977579,-57528.271678480116,-53927.40564673015,-32987.12915028681,-30236.255256683264,-4376.873895749319,-20179.22194948458,0.0,0.0,0.0,193.0,1.0,155.0,0.0,44.0,3.0,252.0,411.0,44.0,1020.0,1744252871.632782,0.0,2025-04-09 22:41:11.632,RIGHT,37
195.0,11649.572747894854,804.0816550352163,-57556.859559638455,-53976.44537406509,-33019.98621463611,-30268.24060299881,-4460.201199078703,-20213.040138845463,0.0,0.0,0.0,193.0,1.0,155.0,0.0,44.0,3.0,252.0,411.0,44.0,1020.0,1744252871.6327906,0.0,2025-04-09 22:41:11.632,RIGHT,37
196.0,11742.310135639922,812.1059312946716,-57544.409637976845,-53914.28517273488,-33057.04540694301,-30309.658385474493,-4359.841866474374,-20249.96522068563,0.0,0.0,0.0,193.0,1.0,155.0,0.0,44.0,3.0,251.0,411.0,44.0,1019.0,1744252871.6327991,0.0,2025-04-09 22:41:11.632,RIGHT,37
197.0,11765.019508006515,824.9134808675625,-57527.62347789091,-53973.20437111907,-32997.43330448071,-30241.440861396895,-4570.66352017683,-20201.126659050784,0.0,0.0,0.0,193.0,1.0,155.0,0.0,44.0,3.0,252.0,411.0,44.0,1020.0,1744252871.632808,0.0,2025-04-09 22:41:11.632,RIGHT,37
198.0,11719.310190595412,835.6870216950205,-57518.10163475295,-53920.588364671275,-32987.17385377573,-30243.720739331337,-4393.5035936240665,-20194.42113571419,0.0,0.0,0.0,193.0,1.0,155.0,0.0,45.0,3.0,252.0,411.0,45.0,1020.0,1744252871.6328168,0.0,2025-04-09 22:41:11.632,RIGHT,37
199.0,11660.033364299938,817.2468325193921,-57549.84111187948,-53981.832144478816,-33012.00664186557,-30257.042379026698,-4477.009710909094,-20205.10526956383,0.0,0.0,0.0,193.0,1.0,154.0,0.0,44.0,3.0,249.0,410.0,44.0,1017.0,1744252871.632826,0.0,2025-04-09 22:41:11.632,RIGHT,37
200.0,11725.456920320621,818.4985302088893,-57531.73619887068,-53903.265762718416,-33047.54591554951,-30294.66036494498,-4354.522151294012,-20227.90404890824,0.0,0.0,0.0,193.0,1.0,155.0,0.0,44.0,3.0,251.0,411.0,44.0,1019.0,1744252871.6328351,0.0,2025-04-09 22:41:11.632,RIGHT,37
201.0,11768.662842352729,828.3109460247691,-57532.160882015334,-53975.66306300915,-33007.513941230056,-30246.090024243596,-4551.061040289526,-20194.912874092206,0.0,0.0,0.0,193.0,1.0,155.0,0.0,44.0,3.0,253.0,411.0,44.0,1021.0,1744252871.6328437,0.0,2025-04-09 22:41:11.632,RIGHT,37
202.0,11726.529804054477,840.1573705860819,-57504.13179446838,-53910.68654187758,-32973.62869663581,-30223.40300362146,-4399.560916371455,-20166.90613828971,0.0,0.0,0.0,193.0,1.0,155.0,0.0,44.0,3.0,252.0,411.0,44.0,1020.0,1744252871.6328526,0.0,2025-04-09 22:41:11.632,RIGHT,37
203.0,11662.559111423387,825.0028878453837,-57546.60010893347,-53978.993472933,-33002.77537140553,-30255.32129470364,-4461.654062468298,-20213.37541501229,0.0,0.0,0.0,193.0,1.0,154.0,0.0,44.0,3.0,249.0,410.0,44.0,1017.0,1744252871.6328611,0.0,2025-04-09 22:41:11.632,RIGHT,37
204.0,11694.79032692794,806.0933120361939,-57537.23472800669,-53918.24143150347,-33045.86953471536,-30304.651594716503,-4380.427823117712,-20253.474444565112,0.0,0.0,0.0,193.0,1.0,154.0,0.0,44.0,3.0,250.0,410.0,44.0,1018.0,1744252871.63287,0.0,2025-04-09 22:41:11.632,RIGHT,37
205.0,11776.3294907009,831.3954867596015,-57536.11714078393,-53965.20244660407,-33021.95316814818,-30262.563259907158,-4521.221461441692,-20214.828278401885,0.0,0.0,0.0,193.0,1.0,155.0,0.0,45.0,3.0,249.0,411.0,45.0,1017.0,1744252871.6328788,0.0,2025-04-09 22:41:11.632,RIGHT,37
206.0,11742.243080406557,851.4673532804673,-57490.161954183815,-53904.226887729994,-32968.778368089006,-30211.422468593417,-4446.007841349583,-20159.46300738609,0.0,0.0,0.0,193.0,1.0,155.0,0.0,45.0,3.0,250.0,411.0,45.0,1018.0,1744252871.6328878,0.0,2025-04-09 22:41:11.632,RIGHT,37
207.0,11677.959463353094,835.3964490171014,-57536.11714078393,-53962.96727215854,-32997.5897666919,-30244.74891957628,-4447.0360215945275,-20199.293816005447,0.0,0.0,0.0,193.0,1.0,155.0,0.0,44.0,3.0,251.0,411.0,44.0,1019.0,1744252871.6328967,0.0,2025-04-09 22:41:11.632,RIGHT,37
208.0,11678.630015686753,804.4616346909565,-57533.77020761612,-53927.584460685786,-33037.24176135561,-30289.072428831154,-4411.787320588508,-20237.738816468576,0.0,0.0,0.0,193.0,1.0,155.0,0.0,44.0,3.0,252.0,411.0,44.0,1020.0,1744252871.63291,0.0,2025-04-09 22:41:11.632,RIGHT,37
209.0,11783.90673207125,826.8133791462635,-57531.95971631524,-53946.471684750526,-33032.12321187535,-30270.788701866713,-4470.706518972697,-20218.963351126116,0.0,0.0,0.0,193.0,1.0,156.0,0.0,44.0,3.0,251.0,412.0,44.0,1019.0,1744252871.6329188,0.0,2025-04-09 22:41:11.632,RIGHT,37
210.0,11753.642470078763,845.6111962331768,-57487.39033787136,-53919.2249082595,-32964.68799885368,-30207.086230169087,-4484.631655768354,-20166.32499293387,0.0,0.0,0.0,193.0,1.0,156.0,0.0,44.0,3.0,252.0,412.0,44.0,1020.0,1744252871.6329274,0.0,2025-04-09 22:41:11.632,RIGHT,37
211.0,11705.183888099658,853.993100403917,-57516.08997775197,-53939.050905591364,-32980.49068218359,-30227.225151923318,-4412.234355477614,-20182.6641181307,0.0,0.0,0.0,193.0,1.0,156.0,0.0,44.0,3.0,252.0,412.0,44.0,1020.0,1744252871.6329365,0.0,2025-04-09 22:41:11.632,RIGHT,37
212.0,11677.847704630818,818.185605786515,-57524.695399367265,-53935.00523984495,-33018.95803439117,-30270.118149533053,-4436.128370300337,-20220.10329009334,0.0,0.0,0.0,193.0,1.0,155.0,0.0,44.0,3.0,251.0,411.0,44.0,1019.0,1744252871.6329448,0.0,2025-04-09 22:41:11.632,RIGHT,37
213.0,11779.436383180187,833.8988821385959,-57532.67497213781,-53929.95374559805,-33045.534258548534,-30291.687582932424,-4430.786303375519,-20234.207240844637,0.0,0.0,0.0,193.0,1.0,155.0,0.0,44.0,3.0,251.0,411.0,44.0,1019.0,1744252871.6329536,0.0,2025-04-09 22:41:11.632,RIGHT,37
214.0,11756.212920691123,840.380888030635,-57498.85678277693,-53943.096571337774,-32974.925097814215,-30218.12799193001,-4544.109647763926,-20163.329859176858,0.0,0.0,0.0,193.0,1.0,155.0,0.0,44.0,3.0,253.0,411.0,44.0,1021.0,1744252871.6329625,0.0,2025-04-09 22:41:11.632,RIGHT,37
215.0,11711.2635625915,852.7414027144198,-57515.93351554078,-53930.870167120716,-32987.15150203127,-30233.304826415162,-4416.525890413033,-20182.70882161961,0.0,0.0,0.0,193.0,1.0,156.0,0.0,44.0,3.0,252.0,412.0,44.0,1020.0,1744252871.6329713,0.0,2025-04-09 22:41:11.632,RIGHT,37
216.0,11665.353079480301,814.6763819070318,-57534.30664948305,-53956.038231377395,-33020.72382220314,-30269.760521621767,-4481.792984222529,-20232.597915243856,0.0,0.0,0.0,193.0,1.0,155.0,0.0,44.0,3.0,252.0,411.0,44.0,1020.0,1744252871.63298,0.0,2025-04-09 22:41:11.632,RIGHT,37
217.0,11767.545255129964,828.3109460247691,-57529.791597103074,-53911.647666889156,-33051.21160164018,-30304.338670294128,-4397.01281750355,-20256.201357388658,0.0,0.0,0.0,193.0,1.0,155.0,0.0,44.0,3.0,249.0,411.0,44.0,1017.0,1744252871.6329887,0.0,2025-04-09 22:41:11.632,RIGHT,37
218.0,11769.288691197478,835.3070420392802,-57506.81400380302,-53954.987699387995,-32986.57035667543,-30224.721756544324,-4587.896715151873,-20179.959557051607,0.0,0.0,0.0,193.0,1.0,155.0,0.0,44.0,3.0,251.0,411.0,44.0,1019.0,1744252871.6329975,0.0,2025-04-09 22:41:11.632,RIGHT,37
219.0,11720.405426073721,843.7783531878416,-57510.03265500459,-53915.268649490914,-32987.084446797904,-30228.432146123905,-4411.2285269771255,-20166.4591034006,0.0,0.0,0.0,193.0,1.0,155.0,0.0,44.0,3.0,252.0,411.0,44.0,1020.0,1744252872.1128323,0.0,2025-04-09 22:41:12.112,RIGHT,37
220.0,11660.994489311515,813.6258499176324,-57536.854748350954,-53969.605740261766,-33013.88418839982,-30258.7411116053,-4487.98441743665,-20205.798173641942,0.0,0.0,0.0,193.0,1.0,155.0,0.0,44.0,3.0,252.0,411.0,44.0,1020.0,1744252872.1128712,0.0,2025-04-09 22:41:12.112,RIGHT,37
221.0,11745.998173475049,817.023315074839,-57525.83533833449,-53900.91882955061,-33056.06193018698,-30296.493207990316,-4380.740747540087,-20227.367607041313,0.0,0.0,0.0,193.0,1.0,155.0,0.0,44.0,3.0,251.0,411.0,44.0,1019.0,1744252872.1128912,0.0,2025-04-09 22:41:12.112,RIGHT,37
222.0,11770.942720287172,832.8930536381071,-57514.838280062475,-53968.599911761274,-32998.08150506992,-30234.802393293667,-4595.093976866481,-20191.269539745994,0.0,0.0,0.0,193.0,1.0,155.0,0.0,45.0,3.0,249.0,411.0,45.0,1017.0,1744252872.1129448,0.0,2025-04-09 22:41:12.112,RIGHT,37
223.0,11731.804815745929,852.540237014322,-57490.96661698421,-53901.81289932882,-32972.555812901956,-30218.865599497036,-4418.090512524905,-20172.80699882591,0.0,0.0,0.0,193.0,1.0,155.0,0.0,44.0,3.0,251.0,411.0,44.0,1019.0,1744252872.1129649,0.0,2025-04-09 22:41:12.112,RIGHT,37
224.0,11664.995451569015,818.3197162532468,-57536.497120439664,-53974.34431008629,-33011.24668255409,-30247.69934984438,-4503.3847693663565,-20200.3666997393,0.0,0.0,0.0,193.0,1.0,156.0,0.0,44.0,3.0,252.0,412.0,44.0,1020.0,1744252872.1129825,0.0,2025-04-09 22:41:12.112,RIGHT,37
225.0,11726.865080221305,809.3119632377582,-57524.49423366717,-53904.60686738573,-33052.28448537403,-30295.62148995656,-4398.0857012374045,-20240.935115925684,0.0,0.0,0.0,193.0,1.0,156.0,0.0,44.0,3.0,253.0,412.0,44.0,1021.0,1744252872.113,0.0,2025-04-09 22:41:12.113,RIGHT,37
226.0,11783.929083815705,826.5451582127998,-57525.52241391211,-53973.18201937462,-33017.371060534846,-30247.542887633193,-4589.349578541467,-20207.56396145391,0.0,0.0,0.0,193.0,1.0,156.0,0.0,44.0,3.0,252.0,412.0,44.0,1020.0,1744252872.1130087,0.0,2025-04-09 22:41:12.113,RIGHT,37
227.0,11738.152711171237,842.4596002649785,-57493.09003270746,-53910.99946629995,-32977.495548426574,-30219.200875663864,-4448.846512895407,-20171.778818580966,0.0,0.0,0.0,193.0,1.0,155.0,0.0,45.0,3.0,249.0,411.0,45.0,1017.0,1744252872.1130185,0.0,2025-04-09 22:41:12.113,RIGHT,37
228.0,11669.152876037702,829.0932570807049,-57538.79935011856,-53980.62515027823,-33007.06690634095,-30254.449576669882,-4490.957199449205,-20212.32488302289,0.0,0.0,0.0,193.0,1.0,154.0,0.0,44.0,3.0,249.0,410.0,44.0,1017.0,1744252872.1130273,0.0,2025-04-09 22:41:12.113,RIGHT,37
229.0,11699.752414197019,812.1282830391268,-57527.39996044636,-53922.1753385276,-33048.97642719465,-30299.42128651396,-4426.718285884654,-20251.99922943106,0.0,0.0,0.0,193.0,1.0,154.0,0.0,44.0,3.0,249.0,410.0,44.0,1017.0,1744252872.1130362,0.0,2025-04-09 22:41:12.113,RIGHT,37
230.0,11786.588941405886,832.73659142692,-57529.12104476942,-53967.079993138315,-33032.167915364254,-30273.403855967983,-4553.720897879708,-20238.275258335503,0.0,0.0,0.0,193.0,1.0,155.0,0.0,44.0,3.0,251.0,411.0,44.0,1019.0,1744252872.1130452,0.0,2025-04-09 22:41:12.113,RIGHT,37
231.0,11749.172121187703,846.9746526449505,-57487.59150357146,-53919.87310884871,-32977.450844937666,-30224.162962932944,-4498.869716986384,-20189.10142053383,0.0,0.0,0.0,193.0,1.0,154.0,0.0,45.0,3.0,250.0,410.0,45.0,1018.0,1744252872.1130543,0.0,2025-04-09 22:41:12.113,RIGHT,37
232.0,11696.17613508417,842.8842834096293,-57522.08024526599,-53959.323937812325,-32998.77440914803,-30242.401986408473,-4475.378033563857,-20205.127621308282,0.0,0.0,0.0,193.0,1.0,154.0,0.0,44.0,3.0,249.0,410.0,44.0,1017.0,1744252872.113063,0.0,2025-04-09 22:41:12.113,RIGHT,37
233.0,11681.871018632773,801.8241288452302,-57527.24349823517,-53932.881824121694,-33044.3496160924,-30282.590422939116,-4444.957309360184,-20229.20045008665,0.0,0.0,0.0,193.0,1.0,155.0,0.0,44.0,3.0,249.0,411.0,44.0,1017.0,1744252872.1130724,0.0,2025-04-09 22:41:12.113,RIGHT,37
234.0,11788.801764106962,832.2448530489032,-57525.83533833449,-53941.04021084788,-33038.98519742313,-30279.170606037453,-4459.5977019784095,-20230.161575098227,0.0,0.0,0.0,193.0,1.0,154.0,0.0,44.0,3.0,251.0,410.0,44.0,1019.0,1744252872.1130815,0.0,2025-04-09 22:41:12.113,RIGHT,37
235.0,11757.621080591809,848.0922398677159,-57484.32814888098,-53924.45521646205,-32966.744359343575,-30212.204779649353,-4482.21766736718,-20169.476588902067,0.0,0.0,0.0,193.0,1.0,155.0,0.0,44.0,3.0,252.0,411.0,44.0,1020.0,1744252872.1130903,0.0,2025-04-09 22:41:12.113,RIGHT,37
236.0,11711.487080036055,855.2447980934141,-57512.29018119457,-53939.34147826928,-32984.156368274256,-30232.678977570413,-4389.68144532221,-20183.781705353464,0.0,0.0,0.0,193.0,1.0,156.0,0.0,44.0,3.0,252.0,412.0,44.0,1020.0,1744252872.113099,0.0,2025-04-09 22:41:12.113,RIGHT,37
237.0,11678.07122207537,811.3906754721016,-57527.28820172408,-53946.35992602825,-33026.57997925043,-30274.968478079856,-4427.344134729402,-20225.445357018158,0.0,0.0,0.0,193.0,1.0,155.0,0.0,44.0,3.0,249.0,411.0,44.0,1017.0,1744252872.1131136,0.0,2025-04-09 22:41:12.113,RIGHT,37
238.0,11781.738612859084,829.1156088251602,-57528.115216268925,-53927.517405452425,-33052.77622375205,-30290.122960820554,-4400.9020210387735,-20236.24124959007,0.0,0.0,0.0,193.0,1.0,155.0,0.0,44.0,3.0,249.0,411.0,44.0,1017.0,1744252872.1131227,0.0,2025-04-09 22:41:12.113,RIGHT,37
239.0,11767.4781998966,842.7278211984421,-57491.704224551235,-53946.98577487299,-32978.16610076024,-30212.093020927077,-4533.984307525672,-20171.60000462532,0.0,0.0,0.0,193.0,1.0,155.0,0.0,45.0,3.0,249.0,411.0,45.0,1017.0,1744252872.1131315,0.0,2025-04-09 22:41:12.113,RIGHT,37
240.0,11713.968123670593,850.9085596690845,-57509.00447475964,-53932.85947237724,-32983.8881473408,-30229.683843813404,-4376.180991671204,-20174.259862215506,0.0,0.0,0.0,193.0,1.0,155.0,0.0,44.0,3.0,251.0,411.0,44.0,1019.0,1744252872.1131406,0.0,2025-04-09 22:41:12.113,RIGHT,37
241.0,11662.4026492122,811.5694894277441,-57533.926669827306,-53974.85840020877,-33021.08145011443,-30269.60405941058,-4456.356699032391,-20227.077034363396,0.0,0.0,0.0,193.0,1.0,155.0,0.0,44.0,3.0,252.0,411.0,44.0,1020.0,1744252872.1131496,0.0,2025-04-09 22:41:12.113,RIGHT,37
242.0,11764.483066139588,823.1253413111378,-57528.80812034704,-53922.71178039453,-33058.20769765469,-30300.89650164801,-4369.251950890059,-20250.836938719385,0.0,0.0,0.0,193.0,1.0,155.0,0.0,44.0,3.0,250.0,411.0,44.0,1018.0,1744252872.1131582,0.0,2025-04-09 22:41:12.113,RIGHT,37
243.0,11773.289653454978,837.1622368290707,-57504.15414621284,-53971.4385833071,-32987.084446797904,-30226.956930989854,-4536.599461626943,-20185.79336235444,0.0,0.0,0.0,193.0,1.0,154.0,0.0,45.0,3.0,249.0,410.0,45.0,1017.0,1744252872.1131673,0.0,2025-04-09 22:41:12.113,RIGHT,37
244.0,11734.732894269573,859.9610161734839,-57491.10072745094,-53915.67098089111,-32972.08642626839,-30222.821858265623,-4326.828339913885,-20169.431885413156,0.0,0.0,0.0,193.0,1.0,154.0,0.0,45.0,3.0,250.0,410.0,45.0,1018.0,1744252872.113176,0.0,2025-04-09 22:41:12.113,RIGHT,37
245.0,11666.627128914253,819.9737453429395,-57527.7799401021,-53979.06052816636,-33007.4915894856,-30259.478719172326,-4406.3558466858685,-20214.068319090406,0.0,0.0,0.0,193.0,1.0,155.0,0.0,44.0,3.0,252.0,411.0,44.0,1020.0,1744252872.113185,0.0,2025-04-09 22:41:12.113,RIGHT,37
246.0,11749.865025265817,825.1593500565708,-57510.45733814924,-53900.114166750216,-33043.38849108082,-30293.85570214459,-4279.442641668635,-20237.850575190852,0.0,0.0,0.0,193.0,1.0,155.0,0.0,44.0,3.0,250.0,411.0,44.0,1018.0,1744252872.1131938,0.0,2025-04-09 22:41:12.113,RIGHT,37
247.0,11785.04667103847,840.5597019862774,-57503.81887004601,-53962.810809947354,-32994.773446890526,-30223.69357629938,-4479.3789958213565,-20186.821542599388,0.0,0.0,0.0,193.0,1.0,154.0,0.0,45.0,3.0,249.0,410.0,45.0,1017.0,1744252872.1132023,0.0,2025-04-09 22:41:12.113,RIGHT,37
248.0,11733.3694378578,846.1252863556489,-57490.94426523975,-53906.84204183127,-32979.77542636102,-30214.12702967251,-4311.070360072895,-20157.89838527422,0.0,0.0,0.0,193.0,1.0,154.0,0.0,45.0,3.0,251.0,410.0,45.0,1019.0,1744252872.1132112,0.0,2025-04-09 22:41:12.113,RIGHT,37
249.0,11670.650442916209,824.1535215560821,-57529.18810000278,-53975.86422870925,-33005.34582201789,-30238.870410784533,-4375.264570148536,-20187.112115277305,0.0,0.0,0.0,193.0,1.0,155.0,0.0,44.0,3.0,251.0,411.0,44.0,1019.0,1744252872.11322,0.0,2025-04-09 22:41:12.113,RIGHT,37
250.0,11721.545365040942,819.5043587093782,-57510.59144861597,-53898.81776557181,-33040.10278464589,-30276.689562402913,-4258.521408858467,-20211.90019987824,0.0,0.0,0.0,193.0,1.0,155.0,0.0,44.0,3.0,252.0,411.0,44.0,1020.0,1744252872.1132293,0.0,2025-04-09 22:41:12.113,RIGHT,37
251.0,11784.465525682632,836.670498451054,-57516.11232949643,-53965.962405915554,-33014.13005758882,-30241.0385299967,-4439.123504057348,-20199.51733345,0.0,0.0,0.0,193.0,1.0,155.0,0.0,44.0,3.0,250.0,411.0,44.0,1018.0,1744252872.113238,0.0,2025-04-09 22:41:12.113,RIGHT,37
252.0,11740.387885616767,843.6889462100204,-57481.17655291278,-53908.18314649858,-32971.23705997909,-30208.315576114128,-4328.616479470311,-20169.14131273524,0.0,0.0,0.0,193.0,1.0,155.0,0.0,45.0,3.0,250.0,411.0,45.0,1018.0,1744252872.113252,0.0,2025-04-09 22:41:12.113,RIGHT,37
253.0,11679.009995342494,834.9047106390847,-57518.59337313096,-53967.52702802742,-32992.38181023381,-30234.51182061575,-4352.465790804123,-20194.152914780727,0.0,0.0,0.0,193.0,1.0,155.0,0.0,44.0,3.0,251.0,411.0,44.0,1019.0,1744252872.1132607,0.0,2025-04-09 22:41:12.113,RIGHT,37
254.0,11698.858344418806,813.2011667729815,-57509.51856488211,-53917.034437302886,-33031.72088047515,-30278.07537055914,-4284.337673704347,-20219.47744124859,0.0,0.0,0.0,193.0,1.0,155.0,0.0,44.0,3.0,252.0,411.0,44.0,1020.0,1744252872.1132693,0.0,2025-04-09 22:41:12.113,RIGHT,37
