Sample Index,EXG Channel 0,EXG Channel 1,EXG Channel 2,EXG Channel 3,EXG Channel 4,EXG Channel 5,EXG Channel 6,EXG Channel 7,Accel Channel 0,Accel Channel 1,Accel Channel 2,Not Used,Digital Channel 0 (D11),Digital Channel 1 (D12),Digital Channel 2 (D13),Digital Channel 3 (D17),Not Used,Digital Channel 4 (D18),Analog Channel 0,Analog Channel 1,Analog Channel 2,Timestamp,Marker Channel,Timestamp (Formatted),Stimulus_Direction,Stimulus_Number
11.0,7392.459498937071,-10608.584953377838,-21368.46886497365,-23704.74025067571,14370.31648997265,13128.922954669351,32338.034491304697,52334.128598466945,0.0,0.0,0.0,193.0,0.0,193.0,0.0,1.0,0.0,179.0,193.0,1.0,179.0,1744418846.2567644,0.0,2025-04-11 20:47:26.256,RIGHT,40
12.0,7372.901722538677,-10645.174759051175,-21346.631210640815,-23750.449568086813,14516.116919054619,12966.09049631244,32703.820789315796,52319.73407503773,0.0,0.0,0.0,193.0,0.0,193.0,0.0,1.0,0.0,179.0,193.0,1.0,179.0,1744418846.2567961,0.0,2025-04-11 20:47:26.256,RIGHT,40
13.0,7368.498428880982,-10627.561584420393,-21384.048030858998,-23754.89756523342,14428.05104590071,12813.361026449327,32685.760579795908,52179.5662855585,0.0,0.0,0.0,193.0,0.0,193.0,0.0,1.0,0.0,178.0,193.0,1.0,178.0,1744418846.256827,0.0,2025-04-11 20:47:26.256,RIGHT,40
14.0,7367.090268980297,-10608.62965686675,-21405.818629958467,-23717.570151993055,14308.335102598085,13037.236098913681,32443.065338500186,52248.074382314015,0.0,0.0,0.0,193.0,0.0,193.0,0.0,1.0,0.0,179.0,193.0,1.0,179.0,1744418846.2568588,0.0,2025-04-11 20:47:26.256,RIGHT,40
15.0,7381.954179043077,-10599.532496873439,-21363.104446304376,-23703.06386984156,14335.939507000388,13135.181443116839,32294.381534383483,52324.22677567325,0.0,0.0,0.0,193.0,0.0,193.0,0.0,1.0,0.0,179.0,193.0,1.0,179.0,1744418846.2568908,0.0,2025-04-11 20:47:26.256,RIGHT,40
16.0,7369.236036448006,-10635.71997114658,-21327.22989645361,-23740.480690059747,14508.8749538511,13010.615171267411,32631.199971580503,52331.692258321316,0.0,0.0,0.0,193.0,0.0,193.0,0.0,1.0,0.0,179.0,193.0,1.0,179.0,1744418846.2569373,0.0,2025-04-11 20:47:26.256,RIGHT,40
17.0,7371.627673104725,-10637.463407214094,-21361.808045125967,-23750.65073378691,14453.107351435108,12826.526203933503,32705.050135260837,52195.32426539949,0.0,0.0,0.0,193.0,0.0,192.0,0.0,1.0,0.0,178.0,192.0,1.0,178.0,1744418846.2569687,0.0,2025-04-11 20:47:26.256,RIGHT,40
18.0,7362.754030555968,-10617.235078482043,-21399.358975810883,-23721.03467238363,14337.92881225691,13020.04760742755,32504.666746219013,52240.89947234386,0.0,0.0,0.0,193.0,0.0,193.0,0.0,1.0,0.0,179.0,193.0,1.0,179.0,1744418846.2570078,0.0,2025-04-11 20:47:26.257,RIGHT,40
19.0,7374.756917328467,-10597.453784639096,-21379.957661623677,-23704.248512297694,14325.098910939565,13160.953004473808,32314.609863115536,52338.57659561355,0.0,0.0,0.0,193.0,0.0,193.0,0.0,1.0,0.0,179.0,193.0,1.0,179.0,1744418846.2570395,0.0,2025-04-11 20:47:26.257,RIGHT,40
20.0,7371.27004519344,-10630.042628054933,-21325.464108641638,-23721.61581773947,14504.672825893502,13062.761791081643,32582.11554075665,52349.7077643523,0.0,0.0,0.0,193.0,0.0,193.0,0.0,1.0,0.0,179.0,193.0,1.0,179.0,1744418846.2571263,0.0,2025-04-11 20:47:26.257,RIGHT,40
21.0,7367.98433875851,-10643.990116595045,-21359.23759451361,-23751.32128612057,14475.34733716814,12847.983878610597,32748.56898171532,52220.84995756745,0.0,0.0,0.0,193.0,0.0,193.0,0.0,1.0,0.0,179.0,193.0,1.0,179.0,1744418846.2571585,0.0,2025-04-11 20:47:26.257,RIGHT,40
22.0,7366.196199202085,-10631.897822844723,-21395.447420531204,-23717.12311710395,14344.433169893406,12973.7124411717,32558.310932911747,52208.154166716835,0.0,0.0,0.0,193.0,0.0,193.0,0.0,1.0,0.0,179.0,193.0,1.0,179.0,1744418846.25719,0.0,2025-04-11 20:47:26.257,RIGHT,40
23.0,7375.181600473118,-10615.245773225519,-21389.501856506093,-23699.956977362275,14293.068861135109,13157.846111994519,32332.7818313577,52321.902194249895,0.0,0.0,0.0,193.0,0.0,193.0,0.0,1.0,0.0,179.0,193.0,1.0,179.0,1744418846.2572217,0.0,2025-04-11 20:47:26.257,RIGHT,40
24.0,7377.819106318844,-10613.14470924672,-21332.035521511498,-23715.960826392275,14472.57572085568,13088.198076271783,32525.38681332908,52359.14020051244,0.0,0.0,0.0,193.0,0.0,193.0,0.0,1.0,0.0,179.0,193.0,1.0,179.0,1744418846.2572532,0.0,2025-04-11 20:47:26.257,RIGHT,40
25.0,7358.373088642727,-10621.526613417462,-21349.693399631193,-23755.724579778263,14497.877895579088,12864.904149163265,32773.69234248309,52262.133629576405,0.0,0.0,0.0,193.0,0.0,193.0,0.0,1.0,0.0,178.0,193.0,1.0,178.0,1744418846.2572937,0.0,2025-04-11 20:47:26.257,RIGHT,40
26.0,7357.993108986987,-10617.883279071246,-21386.685536704725,-23727.11434687547,14366.18141724842,12909.98761772962,32602.45562821098,52201.35923640242,0.0,0.0,0.0,193.0,0.0,192.0,0.0,1.0,0.0,178.0,192.0,1.0,178.0,1744418846.257331,0.0,2025-04-11 20:47:26.257,RIGHT,40
27.0,7380.277798208928,-10599.778366062446,-21377.56602496696,-23692.60325343648,14299.908494938434,13137.818948962564,32350.59617168858,52307.12769116494,0.0,0.0,0.0,193.0,0.0,193.0,0.0,1.0,0.0,179.0,193.0,1.0,179.0,1744418846.2573645,0.0,2025-04-11 20:47:26.257,RIGHT,40
28.0,7385.396347689194,-10614.418758680673,-21321.709015573146,-23700.247550040192,14448.48054033286,13120.339884798514,32456.65519912901,52354.759258599195,0.0,0.0,0.0,193.0,0.0,193.0,0.0,1.0,0.0,179.0,193.0,1.0,179.0,1744418846.257398,0.0,2025-04-11 20:47:26.257,RIGHT,40
29.0,7369.213684703552,-10639.519767703983,-21334.136585490298,-23746.582716296045,14524.856451136644,12909.652341562789,32771.6359819932,52285.40179555438,0.0,0.0,0.0,193.0,0.0,192.0,0.0,1.0,0.0,178.0,192.0,1.0,178.0,1744418846.2574337,0.0,2025-04-11 20:47:26.257,RIGHT,40
30.0,7366.307957924361,-10622.353627962308,-21383.42218201425,-23732.5011172892,14401.430118254439,12882.718489494144,32654.98222768095,52194.69841655474,0.0,0.0,0.0,193.0,0.0,192.0,0.0,1.0,0.0,178.0,192.0,1.0,178.0,1744418846.257472,0.0,2025-04-11 20:47:26.257,RIGHT,40
31.0,7379.227266219529,-10602.460575397085,-21398.643719988315,-23700.046384340094,14303.842401962567,13118.507041753179,32395.65728851048,52295.616542770455,0.0,0.0,0.0,193.0,0.0,193.0,0.0,1.0,0.0,178.0,193.0,1.0,178.0,1744418846.257528,0.0,2025-04-11 20:47:26.257,RIGHT,40
32.0,7381.6189028762465,-10615.91632555918,-21350.252193242573,-23705.723727431745,14409.722615447357,13128.542975013612,32402.519274058257,52352.389973686935,0.0,0.0,0.0,193.0,0.0,192.0,0.0,1.0,0.0,178.0,192.0,1.0,178.0,1744418846.2575617,0.0,2025-04-11 20:47:26.257,RIGHT,40
33.0,7360.585911343803,-10641.084389815855,-21343.79253909499,-23757.51271933469,14525.482299981393,12942.308240211993,32767.836185435797,52310.860432488975,0.0,0.0,0.0,193.0,0.0,192.0,0.0,1.0,0.0,178.0,192.0,1.0,178.0,1744418846.2575948,0.0,2025-04-11 20:47:26.257,RIGHT,40
34.0,7373.907551039166,-10616.944505804124,-21388.585434983426,-23754.584640811045,14399.507868231281,12841.34541050737,32707.441771917558,52179.208657647214,0.0,0.0,0.0,193.0,0.0,193.0,0.0,1.0,0.0,179.0,193.0,1.0,179.0,1744418846.25763,0.0,2025-04-11 20:47:26.257,RIGHT,40
35.0,7379.65194936418,-10584.71329029957,-21411.71949049467,-23717.45839327078,14286.855076176535,13078.028032544618,32464.05362654372,52264.32410053303,0.0,0.0,0.0,193.0,0.0,193.0,0.0,1.0,0.0,179.0,193.0,1.0,179.0,1744418846.2576835,0.0,2025-04-11 20:47:26.257,RIGHT,40
36.0,7389.442013435604,-10585.316787399863,-21362.255080015075,-23698.660576183865,14362.649841624481,13138.17657687385,32387.387143062017,52343.65044160491,0.0,0.0,0.0,193.0,0.0,192.0,0.0,1.0,0.0,178.0,192.0,1.0,178.0,1744418846.2577195,0.0,2025-04-11 20:47:26.257,RIGHT,40
37.0,7369.303091681372,-10636.77050313598,-21341.825585582923,-23741.30770460459,14530.667904695023,12993.650197225834,32762.71763595553,52338.59894735801,0.0,0.0,0.0,193.0,0.0,193.0,0.0,1.0,0.0,179.0,193.0,1.0,179.0,1744418846.2577512,0.0,2025-04-11 20:47:26.257,RIGHT,40
38.0,7365.436239890604,-10640.257375271009,-21384.651527959293,-23744.83928022853,14426.799348211212,12831.220070269117,32777.67095299613,52198.028826478585,0.0,0.0,0.0,193.0,0.0,193.0,0.0,1.0,0.0,179.0,193.0,1.0,179.0,1744418846.2577856,0.0,2025-04-11 20:47:26.257,RIGHT,40
39.0,7363.692803823091,-10624.924078574668,-21413.66409226228,-23706.461334998767,14302.680111250891,13055.20690145575,32561.753101557864,52272.39308028139,0.0,0.0,0.0,193.0,0.0,193.0,0.0,1.0,0.0,179.0,193.0,1.0,179.0,1744418846.2578216,0.0,2025-04-11 20:47:26.257,RIGHT,40
40.0,7384.74814709999,-10607.959104533089,-21383.355126780883,-23698.16883780585,14326.618829562525,13161.60120506301,32409.090686928117,52363.34232847003,0.0,0.0,0.0,193.0,0.0,193.0,0.0,1.0,0.0,178.0,193.0,1.0,178.0,1744418846.2578554,0.0,2025-04-11 20:47:26.257,RIGHT,40
41.0,7368.721946325535,-10647.789913152446,-21352.71088513266,-23742.537050549636,14498.526096168292,13023.24390688466,32720.897522079653,52365.55515117111,0.0,0.0,0.0,193.0,0.0,193.0,0.0,1.0,0.0,179.0,193.0,1.0,179.0,1744418846.2578902,0.0,2025-04-11 20:47:26.257,RIGHT,40
42.0,7370.4653823930485,-10649.131017819765,-21385.18796982622,-23761.737199036743,14435.42712157096,12813.517488660515,32800.31327012936,52222.5263384016,0.0,0.0,0.0,193.0,0.0,193.0,0.0,1.0,0.0,178.0,193.0,1.0,178.0,1744418846.2579324,0.0,2025-04-11 20:47:26.257,RIGHT,40
43.0,7380.9707022870425,-10622.018351795477,-21413.9546649402,-23725.527373019144,14315.73353001279,12999.506354273124,32596.46536069696,52253.43880098329,0.0,0.0,0.0,193.0,0.0,193.0,0.0,1.0,0.0,178.0,193.0,1.0,178.0,1744418846.2579684,0.0,2025-04-11 20:47:26.257,RIGHT,40
44.0,7399.455594951582,-10592.961084003578,-21385.858522159877,-23706.282521043126,14301.584875772582,13157.80140850561,32387.61066050657,52348.59017712953,0.0,0.0,0.0,193.0,0.0,193.0,0.0,1.0,0.0,179.0,193.0,1.0,179.0,1744418846.2580104,0.0,2025-04-11 20:47:26.258,RIGHT,40
45.0,7382.647083121191,-10625.639334397238,-21335.522393646526,-23733.194021367315,14482.052860504731,13074.854084831964,32646.466213043477,52366.69509013833,0.0,0.0,0.0,193.0,0.0,193.0,0.0,1.0,0.0,179.0,193.0,1.0,179.0,1744418846.258049,0.0,2025-04-11 20:47:26.258,RIGHT,40
46.0,7371.158286471163,-10639.877395615267,-21375.576719710436,-23773.717734064787,14459.298784649229,12858.288032804494,32835.00317752399,52248.700231158764,0.0,0.0,0.0,193.0,0.0,192.0,0.0,1.0,0.0,178.0,192.0,1.0,178.0,1744418846.2581089,0.0,2025-04-11 20:47:26.258,RIGHT,40
47.0,7385.373995944738,-10613.748206347014,-21414.62521727386,-23738.69255050332,14328.116396441032,12960.122580542873,32646.242695598925,52224.89562331386,0.0,0.0,0.0,193.0,0.0,192.0,0.0,1.0,0.0,178.0,192.0,1.0,178.0,1744418846.2581568,0.0,2025-04-11 20:47:26.258,RIGHT,40
48.0,7411.033798579431,-10574.878522739235,-21394.933330408734,-23705.857837898475,14282.094154607554,13152.45934158079,32398.607718778578,52324.38323788443,0.0,0.0,0.0,193.0,0.0,192.0,0.0,1.0,0.0,178.0,192.0,1.0,178.0,1744418846.2581954,0.0,2025-04-11 20:47:26.258,RIGHT,40
49.0,7394.694673382602,-10598.638427095226,-21343.434911183707,-23726.421442797357,14446.446531587426,13092.221390273739,32577.891061054597,52360.79422960213,0.0,0.0,0.0,193.0,0.0,193.0,0.0,1.0,0.0,179.0,193.0,1.0,179.0,1744418846.258229,0.0,2025-04-11 20:47:26.258,RIGHT,40
50.0,7390.60430414728,-10620.72195061707,-21353.783768866513,-23757.535071079146,14481.739936082357,12863.563044495946,32835.89724730221,52259.02673709712,0.0,0.0,0.0,193.0,0.0,193.0,0.0,1.0,0.0,178.0,193.0,1.0,178.0,1744418846.258279,0.0,2025-04-11 20:47:26.258,RIGHT,40
51.0,7400.170850774151,-10593.497525870505,-21386.529074493537,-23729.863611443474,14356.41370492145,12912.714530553167,32678.04922795883,52191.85974500892,0.0,0.0,0.0,193.0,0.0,192.0,0.0,1.0,0.0,178.0,192.0,1.0,178.0,1744418846.2583122,0.0,2025-04-11 20:47:26.258,RIGHT,40
52.0,7410.922039857154,-10577.896008240701,-21394.821571686458,-23708.07066059955,14277.668509205403,13150.335925857536,32428.33553890414,52314.86139474648,0.0,0.0,0.0,193.0,0.0,192.0,0.0,0.0,0.0,178.0,192.0,0.0,178.0,1744418846.258344,0.0,2025-04-11 20:47:26.258,RIGHT,40
53.0,7403.367150231261,-10608.450842911107,-21345.044236784488,-23724.9015241744,14410.571981736659,13122.038617377117,32496.486007748368,52368.03619480565,0.0,0.0,0.0,193.0,0.0,193.0,0.0,0.0,0.0,179.0,193.0,0.0,179.0,1744418846.2583804,0.0,2025-04-11 20:47:26.258,RIGHT,40
54.0,7390.514897169459,-10636.524633946972,-21352.308553732462,-23767.571004339577,14492.58053214318,12905.964303727664,32800.26856664045,52301.58445854002,0.0,0.0,0.0,193.0,0.0,192.0,0.0,0.0,0.0,178.0,192.0,0.0,178.0,1744418846.2584195,0.0,2025-04-11 20:47:26.258,RIGHT,40
55.0,7406.809318877378,-10610.887183056735,-21383.824513414445,-23735.138623134928,14377.424344709438,12869.486256776603,32676.55166108032,52194.586657832464,0.0,0.0,0.0,193.0,0.0,192.0,0.0,0.0,0.0,179.0,192.0,0.0,179.0,1744418846.258454,0.0,2025-04-11 20:47:26.258,RIGHT,40
56.0,7407.435167722127,-10581.204066420087,-21396.408545542785,-23703.06386984156,14281.267140062708,13114.729596940231,32420.51242834478,52296.75648173768,0.0,0.0,0.0,193.0,0.0,193.0,0.0,0.0,0.0,179.0,193.0,0.0,179.0,1744418846.2584856,0.0,2025-04-11 20:47:26.258,RIGHT,40
57.0,7407.636333422224,-10568.195351147098,-21351.012152554056,-23708.182419321827,14372.8422370961,13124.832585434031,32390.65049775249,52344.276290449656,0.0,0.0,0.0,193.0,0.0,192.0,0.0,1.0,0.0,178.0,192.0,1.0,178.0,1744418846.2585225,0.0,2025-04-11 20:47:26.258,RIGHT,40
58.0,7397.13101352823,-10604.673398098159,-21344.41838793974,-23754.07055068857,14498.146116512551,12934.395722674815,32740.678815922598,52299.70691200578,0.0,0.0,0.0,193.0,0.0,193.0,0.0,0.0,0.0,179.0,193.0,0.0,179.0,1744418846.2585628,0.0,2025-04-11 20:47:26.258,RIGHT,40
59.0,7402.428376964138,-10611.468328412573,-21391.245292573607,-23750.56132680909,14391.416536738461,12823.598125409857,32690.18622519806,52170.22325637618,0.0,0.0,0.0,193.0,0.0,193.0,0.0,0.0,0.0,179.0,193.0,0.0,179.0,1744418846.258607,0.0,2025-04-11 20:47:26.258,RIGHT,40
60.0,7404.261220009473,-10589.518915357461,-21410.557199782994,-23706.573093721046,14286.497448265249,13071.031936530106,32441.32190243267,52255.94219636228,0.0,0.0,0.0,193.0,0.0,193.0,0.0,0.0,0.0,179.0,193.0,0.0,179.0,1744418846.2586715,0.0,2025-04-11 20:47:26.258,RIGHT,40
61.0,7420.510938228481,-10573.42565934964,-21354.9907630671,-23696.626567438434,14357.821864822134,13143.451588565302,32330.546656912167,52324.0479617176,0.0,0.0,0.0,193.0,0.0,193.0,0.0,0.0,0.0,178.0,193.0,0.0,178.0,1744418846.2587469,0.0,2025-04-11 20:47:26.258,RIGHT,40
62.0,7393.264161737462,-10604.673398098159,-21331.834355811403,-23741.710036004788,14525.035265092287,13006.994188665652,32691.974364754486,52327.53483385263,0.0,0.0,0.0,193.0,0.0,193.0,0.0,0.0,0.0,179.0,193.0,0.0,179.0,1744418846.2589,0.0,2025-04-11 20:47:26.258,RIGHT,40
63.0,7391.118394269753,-10603.533459130938,-21374.32502202094,-23752.88590823244,14428.341618578628,12833.455244714647,32715.398992943647,52191.569172331,0.0,0.0,0.0,193.0,0.0,193.0,0.0,0.0,0.0,179.0,193.0,0.0,179.0,1744418846.2589502,0.0,2025-04-11 20:47:26.258,RIGHT,40
64.0,7404.0377025649195,-10583.550999587895,-21396.85558043189,-23710.037614111618,14299.752032727247,13033.995095967663,32477.822301128188,52240.810065366044,0.0,0.0,0.0,193.0,0.0,193.0,0.0,0.0,0.0,179.0,193.0,0.0,179.0,1744418846.25901,0.0,2025-04-11 20:47:26.259,RIGHT,40
65.0,7426.791778420423,-10565.42373483464,-21357.136530534808,-23689.608119679466,14321.969666715822,13152.280527625147,32305.91503452242,52324.51734835117,0.0,0.0,0.0,193.0,0.0,193.0,0.0,0.0,0.0,179.0,193.0,0.0,179.0,1744418846.2591865,0.0,2025-04-11 20:47:26.259,RIGHT,40
66.0,7400.7519961299895,-10612.80943307989,-21325.21823945263,-23728.567210265068,14508.62908466209,13042.377000138404,32632.496372758913,52341.9517090263,0.0,0.0,0.0,193.0,0.0,193.0,0.0,0.0,0.0,179.0,193.0,0.0,179.0,1744418846.2592385,0.0,2025-04-11 20:47:26.259,RIGHT,40
67.0,7386.491583167503,-10619.045569782922,-21359.70698114717,-23750.538975064635,14456.035429958753,12840.697209918168,32748.747795670963,52213.51858538611,0.0,0.0,0.0,193.0,0.0,192.0,0.0,0.0,0.0,178.0,192.0,0.0,178.0,1744418846.2592816,0.0,2025-04-11 20:47:26.259,RIGHT,40
68.0,7383.965836044054,-10590.368281646763,-21392.74285945211,-23715.98317813673,14328.608134819047,12999.685168228767,32543.938761226986,52231.28822222808,0.0,0.0,0.0,193.0,0.0,193.0,0.0,0.0,0.0,179.0,193.0,0.0,179.0,1744418846.259338,0.0,2025-04-11 20:47:26.259,RIGHT,40
69.0,7418.923964372154,-10553.264385850953,-21364.75847539407,-23686.903558600374,14308.938599698378,13157.466132338779,32319.929578295898,52323.46681636177,0.0,0.0,0.0,193.0,0.0,193.0,0.0,0.0,0.0,178.0,193.0,0.0,178.0,1744418846.2593749,0.0,2025-04-11 20:47:26.259,RIGHT,40
70.0,7412.017275335465,-10592.938732259123,-21318.73623356059,-23717.279579315138,14491.44059317596,13081.783125613108,32569.91148828405,52350.53477889714,0.0,0.0,0.0,193.0,0.0,192.0,0.0,0.0,0.0,178.0,192.0,0.0,178.0,1744418846.2594156,0.0,2025-04-11 20:47:26.259,RIGHT,40
71.0,7397.443937950604,-10625.706389630603,-21356.84595785689,-23758.8091205131,14473.20156970043,12853.236538557594,32768.618496491734,52233.322230973514,0.0,0.0,0.0,193.0,0.0,192.0,0.0,0.0,0.0,178.0,192.0,0.0,178.0,1744418846.259462,0.0,2025-04-11 20:47:26.259,RIGHT,40
72.0,7401.13197578573,-10600.359511418284,-21391.669975718258,-23726.108518374982,14350.468140896339,12952.299469983516,32587.949346059486,52203.03561723657,0.0,0.0,0.0,193.0,0.0,193.0,0.0,0.0,0.0,178.0,193.0,0.0,178.0,1744418846.2595253,0.0,2025-04-11 20:47:26.259,RIGHT,40
73.0,7409.916211356665,-10573.649176794193,-21383.399830269795,-23703.533256475122,14297.11452688152,13159.678955039853,32352.607828689557,52320.2481651602,0.0,0.0,0.0,193.0,0.0,192.0,0.0,0.0,0.0,178.0,192.0,0.0,178.0,1744418846.2595804,0.0,2025-04-11 20:47:26.259,RIGHT,40
74.0,7405.490565954515,-10580.75703153098,-21325.575867363914,-23711.49047750121,14462.942118995443,13106.817079403054,32500.95635663943,52359.36371795699,0.0,0.0,0.0,193.0,0.0,192.0,0.0,0.0,0.0,179.0,192.0,0.0,179.0,1744418846.2596323,0.0,2025-04-11 20:47:26.259,RIGHT,40
75.0,7385.016368033454,-10623.895898329723,-21357.85178635738,-23771.639021830444,14498.637854890569,12886.02654767353,32785.538767044396,52282.80899319756,0.0,0.0,0.0,193.0,0.0,193.0,0.0,0.0,0.0,179.0,193.0,0.0,179.0,1744418846.259684,0.0,2025-04-11 20:47:26.259,RIGHT,40
76.0,7387.676225623635,-10614.999904036511,-21397.45907753218,-23748.169690152372,14366.404934692971,12891.972111698642,32622.348680776202,52204.466128881715,0.0,0.0,0.0,193.0,0.0,192.0,0.0,0.0,0.0,178.0,192.0,0.0,178.0,1744418846.25972,0.0,2025-04-11 20:47:26.259,RIGHT,40
77.0,7405.535269443425,-10577.0466419514,-21398.95664441069,-23709.992910622706,14282.675299963392,13115.936591140819,32351.669055422433,52307.217098142755,0.0,0.0,0.0,193.0,0.0,193.0,0.0,0.0,0.0,179.0,193.0,0.0,179.0,1744418846.2598116,0.0,2025-04-11 20:47:26.259,RIGHT,40
78.0,7414.878298625744,-10577.538380329417,-21339.27748671502,-23712.272788557148,14419.244458585317,13107.174707314338,32403.79332349221,52352.21115973129,0.0,0.0,0.0,193.0,0.0,193.0,0.0,0.0,0.0,179.0,193.0,0.0,179.0,1744418846.2598457,0.0,2025-04-11 20:47:26.259,RIGHT,40
79.0,7392.4147954481605,-10615.603401136805,-21343.993704795088,-23761.51368159219,14517.212154532928,12913.474489864648,32748.39016775968,52304.60194404149,0.0,0.0,0.0,193.0,0.0,192.0,0.0,0.0,0.0,178.0,192.0,0.0,178.0,1744418846.2598796,0.0,2025-04-11 20:47:26.259,RIGHT,40
80.0,7392.168926259152,-10604.405177164695,-21388.13840009432,-23748.46026283029,14391.572998949649,12856.96927988163,32653.283495102347,52201.448643380245,0.0,0.0,0.0,193.0,0.0,193.0,0.0,0.0,0.0,179.0,193.0,0.0,179.0,1744418846.2599115,0.0,2025-04-11 20:47:26.259,RIGHT,40
81.0,7408.016313077965,-10571.592816304305,-21405.013967158076,-23711.870457156954,14286.095116865054,13091.059099562062,32397.244262366807,52302.746749251695,0.0,0.0,0.0,193.0,0.0,193.0,0.0,0.0,0.0,179.0,193.0,0.0,179.0,1744418846.2599626,0.0,2025-04-11 20:47:26.259,RIGHT,40
82.0,7412.464310224571,-10581.360528631274,-21358.499986946583,-23716.74313744821,14369.735344616813,13114.617838217955,32352.11609031154,52364.057584292605,0.0,0.0,0.0,193.0,0.0,192.0,0.0,0.0,0.0,178.0,192.0,0.0,178.0,1744418846.2599943,0.0,2025-04-11 20:47:26.259,RIGHT,40
83.0,7395.298170482894,-10612.071825512867,-21344.954829806666,-23761.84895775902,14505.164564271518,12937.480263409647,32704.603100371733,52333.54745311111,0.0,0.0,0.0,193.0,0.0,193.0,0.0,0.0,0.0,179.0,193.0,0.0,179.0,1744418846.2600257,0.0,2025-04-11 20:47:26.260,RIGHT,40
84.0,7401.914286841666,-10592.29053166992,-21378.258929045074,-23750.606030298,14405.744004934313,12812.131680504284,32663.83351848525,52193.73729154316,0.0,0.0,0.0,193.0,0.0,193.0,0.0,0.0,0.0,179.0,193.0,0.0,179.0,1744418846.2600582,0.0,2025-04-11 20:47:26.260,RIGHT,40
85.0,7406.60815317728,-10577.47132509605,-21408.322025337464,-23719.11242236047,14292.219494845807,13050.378924653403,32434.012881995786,52279.36682455145,0.0,0.0,0.0,193.0,0.0,193.0,0.0,0.0,0.0,178.0,193.0,0.0,178.0,1744418846.2600896,0.0,2025-04-11 20:47:26.260,RIGHT,40
86.0,7423.930755130144,-10570.51993257045,-21363.953812593678,-23706.304872787583,14334.285477910696,13133.482710538234,32307.837284545578,52355.69803186632,0.0,0.0,0.0,193.0,0.0,192.0,0.0,0.0,0.0,178.0,192.0,0.0,178.0,1744418846.2601209,0.0,2025-04-11 20:47:26.260,RIGHT,40
87.0,7407.993961333509,-10601.834726552335,-21325.955847019657,-23738.759605736686,14508.070291050708,13003.820240952999,32648.83549795574,52348.41136317389,0.0,0.0,0.0,193.0,0.0,193.0,0.0,0.0,0.0,178.0,193.0,0.0,178.0,1744418846.2601516,0.0,2025-04-11 20:47:26.260,RIGHT,40
88.0,7393.5323826709255,-10606.595648121316,-21374.146208065296,-23759.926707735864,14421.323170819662,12831.220070269117,32699.03751600236,52212.423349907804,0.0,0.0,0.0,193.0,0.0,193.0,0.0,0.0,0.0,179.0,193.0,0.0,179.0,1744418846.2601824,0.0,2025-04-11 20:47:26.260,RIGHT,40
89.0,7394.135879771219,-10595.33036891584,-21403.136420623832,-23724.052157885097,14303.171849628909,13034.91151749033,32477.487024961356,52265.24052205569,0.0,0.0,0.0,193.0,0.0,192.0,0.0,0.0,0.0,178.0,192.0,0.0,178.0,1744418846.260213,0.0,2025-04-11 20:47:26.260,RIGHT,40
90.0,7412.41960673566,-10578.857133252279,-21374.66029818777,-23700.806343651577,14311.263181121729,13160.394210862425,32301.802313542645,52364.92930232636,0.0,0.0,0.0,193.0,0.0,192.0,0.0,0.0,0.0,178.0,192.0,0.0,178.0,1744418846.260245,0.0,2025-04-11 20:47:26.260,RIGHT,40
91.0,7403.992999076009,-10599.130165473243,-21325.061777241444,-23726.399091052903,14493.608712388124,13035.716180290721,32587.7928838483,52368.527933183665,0.0,0.0,0.0,193.0,0.0,193.0,0.0,0.0,0.0,179.0,193.0,0.0,179.0,1744418846.2602763,0.0,2025-04-11 20:47:26.260,RIGHT,40
92.0,7395.611094905269,-10609.791947578424,-21361.9421555927,-23761.26781240318,14444.077246675164,12824.738064377078,32723.825600603297,52241.4806176997,0.0,0.0,0.0,193.0,0.0,193.0,0.0,0.0,0.0,179.0,193.0,0.0,179.0,1744418846.2603204,0.0,2025-04-11 20:47:26.260,RIGHT,40
93.0,7389.911400069166,-10595.822107293858,-21397.45907753218,-23727.69549223131,14317.186393402386,12961.37427823237,32524.604502273145,52248.633175925395,0.0,0.0,0.0,193.0,0.0,193.0,0.0,0.0,0.0,179.0,193.0,0.0,179.0,1744418846.2603514,0.0,2025-04-11 20:47:26.260,RIGHT,40
94.0,7416.241755037518,-10563.345022600297,-21370.74874290809,-23697.252416283183,14299.997901916255,13122.463300521767,32301.601147842546,52345.93031953935,0.0,0.0,0.0,193.0,0.0,192.0,0.0,0.0,0.0,178.0,192.0,0.0,178.0,1744418846.260382,0.0,2025-04-11 20:47:26.260,RIGHT,40
95.0,7418.745150416512,-10586.210857178075,-21322.871306284822,-23723.739233462722,14482.43284016047,13055.34101192248,32529.499534308856,52371.00897681821,0.0,0.0,0.0,193.0,0.0,193.0,0.0,0.0,0.0,178.0,193.0,0.0,178.0,1744418846.2604136,0.0,2025-04-11 20:47:26.260,RIGHT,40
96.0,7398.4050629621825,-10618.285610471441,-21354.051989799977,-23764.93349849385,14477.135476724563,12844.049971586463,32756.928534141607,52266.00048136717,0.0,0.0,0.0,193.0,0.0,193.0,0.0,0.0,0.0,179.0,193.0,0.0,179.0,1744418846.2604585,0.0,2025-04-11 20:47:26.260,RIGHT,40
97.0,7391.185449503118,-10605.790985320924,-21390.37357453985,-23733.663408000877,14340.052227980164,12920.090606223417,32586.138854758607,52228.784826849085,0.0,0.0,0.0,193.0,0.0,193.0,0.0,0.0,0.0,178.0,193.0,0.0,178.0,1744418846.2604895,0.0,2025-04-11 20:47:26.260,RIGHT,40
98.0,7412.7995863914,-10561.646290021694,-21383.019850614055,-23701.25337854068,14279.88133190648,13129.906431425385,32329.40671794495,52335.045019989615,0.0,0.0,0.0,193.0,0.0,192.0,0.0,0.0,0.0,178.0,192.0,0.0,178.0,1744418846.2605202,0.0,2025-04-11 20:47:26.260,RIGHT,40
99.0,7414.319505014361,-10573.202141905087,-21320.59142835038,-23712.272788557148,14440.076284417664,13088.220428016237,32447.893315302532,52362.5600174141,0.0,0.0,0.0,193.0,0.0,193.0,0.0,0.0,0.0,179.0,193.0,0.0,179.0,1744418846.2605565,0.0,2025-04-11 20:47:26.260,RIGHT,40
100.0,7395.968722816554,-10619.246735483019,-21344.239573984098,-23764.352353138012,14494.614540888613,12885.177181384228,32752.502888739455,52291.36971132395,0.0,0.0,0.0,193.0,0.0,192.0,0.0,0.0,0.0,178.0,192.0,0.0,178.0,1744418846.260588,0.0,2025-04-11 20:47:26.260,RIGHT,40
101.0,7404.954124087588,-10596.515011371972,-21385.36678378186,-23741.575925538054,14353.575033375626,12883.83607671691,32609.921110859053,52213.33977143047,0.0,0.0,0.0,193.0,0.0,192.0,0.0,0.0,0.0,178.0,192.0,0.0,178.0,1744418846.260619,0.0,2025-04-11 20:47:26.260,RIGHT,40
102.0,7428.8034354214,-10564.529665056429,-21391.93819665172,-23707.4448117548,14261.172921797386,13115.198983573793,32347.958665842852,52319.532909337635,0.0,0.0,0.0,193.0,0.0,193.0,0.0,0.0,0.0,179.0,193.0,0.0,179.0,1744418846.26065,0.0,2025-04-11 20:47:26.260,RIGHT,40
103.0,7422.768464418467,-10572.576293060338,-21337.17642273622,-23715.513791503166,14384.08516455712,13116.048349863095,32379.049942380185,52370.31607274009,0.0,0.0,0.0,193.0,0.0,192.0,0.0,0.0,0.0,178.0,192.0,0.0,178.0,1744418846.260681,0.0,2025-04-11 20:47:26.260,RIGHT,40
104.0,7394.4711559380485,-10603.95814227559,-21330.9849895221,-23753.64586754392,14499.554276413237,12927.51138538258,32723.49032443647,52325.344362896016,0.0,0.0,0.0,193.0,0.0,192.0,0.0,0.0,0.0,178.0,192.0,0.0,178.0,1744418846.2607117,0.0,2025-04-11 20:47:26.260,RIGHT,40
105.0,7403.233039764529,-10583.886275754723,-21364.51260620506,-23731.003550410696,14392.400013494494,12851.560157723447,32638.93367516204,52202.90150676984,0.0,0.0,0.0,193.0,0.0,193.0,0.0,0.0,0.0,179.0,193.0,0.0,179.0,1744418846.7351465,0.0,2025-04-11 20:47:26.735,RIGHT,40
106.0,7418.164005060674,-10555.499560296485,-21384.450362259195,-23694.92783485983,14291.504239023237,13094.16599204135,32384.83904419411,52292.91198169136,0.0,0.0,0.0,193.0,0.0,193.0,0.0,0.0,0.0,179.0,193.0,0.0,179.0,1744418846.7352865,0.0,2025-04-11 20:47:26.735,RIGHT,40
107.0,7420.8015109064,-10554.113752140254,-21338.69634135918,-23694.726669159732,14375.278577241728,13136.589603017523,32336.313406981637,52356.52504641117,0.0,0.0,0.0,193.0,0.0,192.0,0.0,0.0,0.0,178.0,192.0,0.0,178.0,1744418846.7353652,0.0,2025-04-11 20:47:26.735,RIGHT,40
108.0,7408.7315689005345,-10580.779383275436,-21309.192038678175,-23729.193059109817,14520.229640034395,12968.6609469248,32704.625452116186,52332.09458972151,0.0,0.0,0.0,193.0,0.0,193.0,0.0,0.0,0.0,178.0,193.0,0.0,178.0,1744418846.7354028,0.0,2025-04-11 20:47:26.735,RIGHT,40
109.0,7407.278705510939,-10586.0990984558,-21350.27454498703,-23731.562344022077,14415.198792838908,12827.82260511191,32691.8179025433,52197.62649507839,0.0,0.0,0.0,193.0,0.0,193.0,0.0,0.0,0.0,178.0,193.0,0.0,178.0,1744418846.7354388,0.0,2025-04-11 20:47:26.735,RIGHT,40
110.0,7403.992999076009,-10571.257540137476,-21385.99263262661,-23704.516733231158,14290.788983200668,13051.20593919825,32458.018655540785,52275.00823438266,0.0,0.0,0.0,193.0,0.0,192.0,0.0,0.0,0.0,178.0,192.0,0.0,178.0,1744418846.7354753,0.0,2025-04-11 20:47:26.735,RIGHT,40
111.0,7425.607135964291,-10543.273156079431,-21345.155995506764,-23690.904520857875,14328.429320863406,13137.662486751376,32320.309557951638,52355.13923825494,0.0,0.0,0.0,193.0,0.0,192.0,0.0,0.0,0.0,178.0,192.0,0.0,178.0,1744418846.7355344,0.0,2025-04-11 20:47:26.735,RIGHT,40
112.0,7415.079464325841,-10574.029156449933,-21310.868419512324,-23725.527373019144,14509.031416062286,13010.48106080068,32659.921963205576,52358.469648178776,0.0,0.0,0.0,193.0,0.0,193.0,0.0,0.0,0.0,179.0,193.0,0.0,179.0,1744418846.735571,0.0,2025-04-11 20:47:26.735,RIGHT,40
113.0,7413.671304425157,-10586.836706022825,-21354.230803755618,-23740.95007669331,14439.249269872818,12826.079169044397,32732.4757257075,52223.53216690209,0.0,0.0,0.0,193.0,0.0,192.0,0.0,0.0,0.0,179.0,192.0,0.0,179.0,1744418846.7356071,0.0,2025-04-11 20:47:26.735,RIGHT,40
114.0,7421.405008006694,-10557.533569041916,-21381.23171105763,-23694.167875548348,14315.755881757246,13014.057339913528,32507.728935209387,52255.11518181744,0.0,0.0,0.0,193.0,0.0,193.0,0.0,0.0,0.0,178.0,193.0,0.0,178.0,1744418846.735651,0.0,2025-04-11 20:47:26.735,RIGHT,40
115.0,7435.486607013537,-10542.781417701413,-21358.32117299094,-23679.661593396857,14313.945390456367,13162.159998674393,32320.980110285298,52354.78161034365,0.0,0.0,0.0,193.0,0.0,192.0,0.0,0.0,0.0,178.0,192.0,0.0,178.0,1744418846.7356873,0.0,2025-04-11 20:47:26.735,RIGHT,40
116.0,7423.70723768559,-10570.296415125897,-21314.779974792003,-23709.92585538934,14494.413375188517,13056.458599145246,32599.706363642978,52371.388956473944,0.0,0.0,0.0,193.0,0.0,192.0,0.0,0.0,0.0,178.0,192.0,0.0,178.0,1744418846.7357228,0.0,2025-04-11 20:47:26.735,RIGHT,40
117.0,7421.9414498736205,-10569.625862792238,-21337.04231226949,-23731.4505852998,14465.95960449691,12838.640849428279,32742.95869385704,52234.68568738529,0.0,0.0,0.0,193.0,0.0,193.0,0.0,0.0,0.0,178.0,193.0,0.0,178.0,1744418846.735759,0.0,2025-04-11 20:47:26.735,RIGHT,40
118.0,7426.434150509138,-10552.571481772839,-21365.697248661192,-23691.418610980345,14345.260184438252,12980.61913020839,32546.66567405053,52222.61574537942,0.0,0.0,0.0,193.0,0.0,193.0,0.0,0.0,0.0,179.0,193.0,0.0,179.0,1744418846.735794,0.0,2025-04-11 20:47:26.735,RIGHT,40
119.0,7430.524519744458,-10534.690086208593,-21348.732274619615,-23676.085314284006,14300.668454249913,13160.438914351334,32317.694403850368,52324.87497626245,0.0,0.0,0.0,193.0,0.0,192.0,0.0,0.0,0.0,178.0,192.0,0.0,178.0,1744418846.735829,0.0,2025-04-11 20:47:26.735,RIGHT,40
120.0,7416.688789926624,-10569.558807558871,-21301.659500796737,-23703.041518097107,14468.753572553824,13086.991082071196,32522.972824927907,52362.06827903608,0.0,0.0,0.0,193.0,0.0,192.0,0.0,0.0,0.0,178.0,192.0,0.0,178.0,1744418846.7358654,0.0,2025-04-11 20:47:26.735,RIGHT,40
121.0,7414.878298625744,-10584.75799378848,-21326.246419697574,-23739.050178414607,14482.678709349479,12863.11600960684,32765.01986563443,52264.994652866684,0.0,0.0,0.0,193.0,0.0,193.0,0.0,0.0,0.0,179.0,193.0,0.0,179.0,1744418846.735901,0.0,2025-04-11 20:47:26.735,RIGHT,40
122.0,7424.131920830241,-10557.175941130632,-21354.94605957819,-23701.58865470751,14356.950146788377,12925.432673148236,32587.63642163711,52204.6225910929,0.0,0.0,0.0,193.0,0.0,193.0,0.0,0.0,0.0,179.0,193.0,0.0,179.0,1744418846.7359517,0.0,2025-04-11 20:47:26.735,RIGHT,40
123.0,7435.106627357796,-10535.964135642545,-21357.78473112401,-23676.711163128755,14287.927959910388,13143.40688507639,32331.01604354573,52304.33372310802,0.0,0.0,0.0,193.0,0.0,193.0,0.0,0.0,0.0,178.0,193.0,0.0,178.0,1744418846.7359881,0.0,2025-04-11 20:47:26.735,RIGHT,40
124.0,7431.530348244947,-10544.1895776021,-21306.26396015453,-23690.859817368964,14426.084092388643,13103.01728284565,32434.37050990707,52337.570767113066,0.0,0.0,0.0,193.0,0.0,193.0,0.0,0.0,0.0,179.0,193.0,0.0,179.0,1744418846.7360244,0.0,2025-04-11 20:47:26.736,RIGHT,40
125.0,7420.198013806107,-10569.603511047782,-21311.337806145886,-23726.063814886074,14497.117936267608,12893.179105899228,32747.853725892754,52263.810010410554,0.0,0.0,0.0,193.0,0.0,192.0,0.0,0.0,0.0,178.0,192.0,0.0,178.0,1744418846.7360606,0.0,2025-04-11 20:47:26.736,RIGHT,40
126.0,7419.482757983537,-10564.440258078606,-21359.125835791332,-23711.758698434674,14373.043402796198,12890.87687622033,32635.02211988236,52184.93070422777,0.0,0.0,0.0,193.0,0.0,193.0,0.0,0.0,0.0,179.0,193.0,0.0,179.0,1744418846.736111,0.0,2025-04-11 20:47:26.736,RIGHT,40
127.0,7436.157159347196,-10531.203214073565,-21371.061667330465,-23683.93077658782,14279.88133190648,13131.60516400399,32372.813805677153,52288.6427985004,0.0,0.0,0.0,193.0,0.0,193.0,0.0,0.0,0.0,179.0,193.0,0.0,179.0,1744418846.73616,0.0,2025-04-11 20:47:26.736,RIGHT,40
128.0,7447.400086808216,-10530.666772206638,-21312.924780002213,-23689.205788279272,14403.598237466604,13142.959850187284,32381.285116825715,52338.59894735801,0.0,0.0,0.0,193.0,0.0,192.0,0.0,0.0,0.0,178.0,192.0,0.0,178.0,1744418846.736245,0.0,2025-04-11 20:47:26.736,RIGHT,40
129.0,7414.408911992182,-10573.984452961024,-21311.40486137925,-23737.306742347093,14520.050826078752,12955.51812118508,32730.508772195433,52291.05678690157,0.0,0.0,0.0,193.0,0.0,192.0,0.0,0.0,0.0,178.0,192.0,0.0,178.0,1744418846.736303,0.0,2025-04-11 20:47:26.736,RIGHT,40
130.0,7412.576068946847,-10569.37999360323,-21350.676876387224,-23722.04050088412,14401.385414765527,12862.40075378427,32651.249486356915,52169.39624183134,0.0,0.0,0.0,193.0,0.0,193.0,0.0,0.0,0.0,179.0,193.0,0.0,179.0,1744418846.7363608,0.0,2025-04-11 20:47:26.736,RIGHT,40
131.0,7426.367095275771,-10543.429618290618,-21371.66516443076,-23688.87051211244,14301.428413561394,13104.961884613263,32409.18009390594,52269.95674013576,0.0,0.0,0.0,193.0,0.0,193.0,0.0,0.0,0.0,178.0,193.0,0.0,178.0,1744418846.7364159,0.0,2025-04-11 20:47:26.736,RIGHT,40
132.0,7431.128016844752,-10553.152627128677,-21333.17546047872,-23695.218407537748,14368.885978327511,13155.141550915427,32341.990750073288,52343.225758460256,0.0,0.0,0.0,193.0,0.0,193.0,0.0,0.0,0.0,179.0,193.0,0.0,179.0,1744418846.7364705,0.0,2025-04-11 20:47:26.736,RIGHT,40
133.0,7403.590667675814,-10598.705482328593,-21324.055948740956,-23744.280486617146,14507.578552672692,12995.326578059981,32713.00735628693,52336.92256652386,0.0,0.0,0.0,193.0,0.0,192.0,0.0,0.0,0.0,179.0,192.0,0.0,179.0,1744418846.736524,0.0,2025-04-11 20:47:26.736,RIGHT,40
134.0,7410.117377056763,-10576.309034384374,-21353.64965839978,-23737.060873158083,14413.27654281575,12843.625288441812,32733.727423397,52196.01716947761,0.0,0.0,0.0,193.0,0.0,193.0,0.0,0.0,0.0,179.0,193.0,0.0,179.0,1744418846.7365777,0.0,2025-04-11 20:47:26.736,RIGHT,40
135.0,7406.831670621833,-10546.51415902545,-21383.824513414445,-23705.231989053726,14293.046509390655,13065.712221349744,32528.67251976401,52263.11710633244,0.0,0.0,0.0,193.0,0.0,193.0,0.0,0.0,0.0,178.0,193.0,0.0,178.0,1744418846.7366357,0.0,2025-04-11 20:47:26.736,RIGHT,40
136.0,7435.419551780171,-10529.996219872979,-21338.94221054819,-23687.618814422945,14321.254410893252,13161.064763196084,32380.279288325226,52340.02945900315,0.0,0.0,0.0,193.0,0.0,192.0,0.0,0.0,0.0,178.0,192.0,0.0,178.0,1744418846.736689,0.0,2025-04-11 20:47:26.736,RIGHT,40
137.0,7425.8753568977545,-10572.66570003816,-21292.361175103328,-23715.40203278089,14511.668921908013,13035.6267733129,32708.738173095964,52341.750543326205,0.0,0.0,0.0,193.0,0.0,193.0,0.0,0.0,0.0,178.0,193.0,0.0,178.0,1744418846.736771,0.0,2025-04-11 20:47:26.736,RIGHT,40
138.0,7419.728627172545,-10566.764839501959,-21329.867402299333,-23727.807250953585,14448.14526416603,12842.485349474591,32792.71367701455,52197.671198567296,0.0,0.0,0.0,193.0,0.0,193.0,0.0,0.0,0.0,179.0,193.0,0.0,179.0,1744418846.7368267,0.0,2025-04-11 20:47:26.736,RIGHT,40
139.0,7417.448749238104,-10550.492769538496,-21370.435818485716,-23697.274768027637,14315.621771290515,13021.232249883682,32586.78705534781,52226.57200414801,0.0,0.0,0.0,193.0,0.0,192.0,0.0,0.0,0.0,178.0,192.0,0.0,178.0,1744418846.7368813,0.0,2025-04-11 20:47:26.736,RIGHT,40
140.0,7426.121226086763,-10541.820292689836,-21355.594260167392,-23686.277709755625,14299.327349582596,13166.69740279882,32394.629108265533,52332.34045891053,0.0,0.0,0.0,193.0,0.0,192.0,0.0,0.0,0.0,178.0,192.0,0.0,178.0,1744418846.7369375,0.0,2025-04-11 20:47:26.736,RIGHT,40
141.0,7423.37196151876,-10563.27796736693,-21297.658538539235,-23704.53908497561,14477.62721510258,13067.299195206071,32656.390387581636,52349.528950396656,0.0,0.0,0.0,193.0,0.0,193.0,0.0,0.0,0.0,179.0,193.0,0.0,179.0,1744418846.7370193,0.0,2025-04-11 20:47:26.737,RIGHT,40
142.0,7406.719911899557,-10584.780345532936,-21337.332884947406,-23746.828585485055,14453.263813646296,12852.387172268292,32845.1508695067,52235.26683274112,0.0,0.0,0.0,193.0,0.0,193.0,0.0,0.0,0.0,179.0,193.0,0.0,179.0,1744418846.737074,0.0,2025-04-11 20:47:26.737,RIGHT,40
143.0,7408.776272389445,-10570.89991222619,-21378.281280789528,-23721.03467238363,14322.9307917274,12968.772705647078,32661.03955042834,52222.705152357245,0.0,0.0,0.0,193.0,0.0,193.0,0.0,0.0,0.0,179.0,193.0,0.0,179.0,1744418846.7371302,0.0,2025-04-11 20:47:26.737,RIGHT,40
144.0,7425.830653408844,-10543.809597946358,-21355.70601888967,-23684.44486671029,14289.090250622065,13164.931614986852,32418.590178321625,52323.95855473978,0.0,0.0,0.0,193.0,0.0,193.0,0.0,0.0,0.0,179.0,193.0,0.0,179.0,1744418846.7371857,0.0,2025-04-11 20:47:26.737,RIGHT,40
145.0,7406.161118288174,-10559.94755744309,-21300.631320551794,-23702.348614018993,14459.410543371505,13109.745157926698,32609.58583469222,52361.15185751342,0.0,0.0,0.0,193.0,0.0,193.0,0.0,0.0,0.0,178.0,193.0,0.0,178.0,1744418846.7372391,0.0,2025-04-11 20:47:26.737,RIGHT,40
146.0,7400.349664729794,-10574.409136105674,-21327.8333935539,-23745.88981221793,14484.444497161448,12886.630044773823,32872.46470123109,52266.84984765647,0.0,0.0,0.0,193.0,0.0,193.0,0.0,0.0,0.0,179.0,193.0,0.0,179.0,1744418846.7372932,0.0,2025-04-11 20:47:26.737,RIGHT,40
147.0,7398.56152517337,-10573.179790160631,-21372.201606297687,-23727.427271297845,14357.732457844313,12919.777681801044,32722.79742035835,52212.512756885626,0.0,0.0,0.0,193.0,0.0,193.0,0.0,0.0,0.0,179.0,193.0,0.0,179.0,1744418846.7373471,0.0,2025-04-11 20:47:26.737,RIGHT,40
148.0,7411.480833468537,-10538.378124043718,-21361.808045125967,-23687.819980123044,14283.211741830319,13140.009419919184,32467.33933297865,52320.851662260495,0.0,0.0,0.0,193.0,0.0,193.0,0.0,0.0,0.0,179.0,193.0,0.0,179.0,1744418846.7374008,0.0,2025-04-11 20:47:26.737,RIGHT,40
149.0,7415.302981770395,-10551.90092943918,-21301.74890777456,-23689.96574759075,14433.99660992582,13128.475919780245,32554.28761890979,52362.112982524995,0.0,0.0,0.0,193.0,0.0,193.0,0.0,0.0,0.0,179.0,193.0,0.0,179.0,1744418846.7374585,0.0,2025-04-11 20:47:26.737,RIGHT,40
150.0,7389.263199479962,-10601.030063751945,-21324.279466185508,-23745.5545360511,14508.584381173181,12937.279097709548,32892.80478868542,52311.709798778276,0.0,0.0,0.0,193.0,0.0,193.0,0.0,0.0,0.0,179.0,193.0,0.0,179.0,1744418846.7375133,0.0,2025-04-11 20:47:26.737,RIGHT,40
151.0,7388.6597023796685,-10582.14283968721,-21372.112199319865,-23732.12113763346,14377.960786576366,12903.572667070946,32783.88473795471,52218.14539648836,0.0,0.0,0.0,193.0,0.0,193.0,0.0,0.0,0.0,178.0,193.0,0.0,178.0,1744418846.7375684,0.0,2025-04-11 20:47:26.737,RIGHT,40
152.0,7412.486661969026,-10544.413095046652,-21382.66222270277,-23698.325300017037,14279.993090628755,13133.013323904674,32518.256606847837,52314.45906334628,0.0,0.0,0.0,193.0,0.0,192.0,0.0,0.0,0.0,178.0,192.0,0.0,178.0,1744418846.7376428,0.0,2025-04-11 20:47:26.737,RIGHT,40
153.0,7421.51676672897,-10545.08364738031,-21326.045253997476,-23696.805381394075,14382.98992907881,13148.503082812202,32500.777542683787,52369.17613377287,0.0,0.0,0.0,193.0,0.0,193.0,0.0,0.0,0.0,179.0,193.0,0.0,179.0,1744418846.7376974,0.0,2025-04-11 20:47:26.737,RIGHT,40
154.0,7391.028987291931,-10592.357586903285,-21321.485498128593,-23739.385454581436,14512.406529475038,12977.199313306728,32865.5580121944,52345.12565673896,0.0,0.0,0.0,193.0,0.0,193.0,0.0,0.0,0.0,178.0,193.0,0.0,178.0,1744418846.7377543,0.0,2025-04-11 20:47:26.737,RIGHT,40
155.0,7387.944446557099,-10591.731738058537,-21368.647678929294,-23731.60704751099,14390.366004749061,12864.278300318516,32811.35503189028,52220.98406803418,0.0,0.0,0.0,193.0,0.0,192.0,0.0,0.0,0.0,178.0,192.0,0.0,178.0,1744418846.737812,0.0,2025-04-11 20:47:26.737,RIGHT,40
156.0,7391.36426345876,-10555.521912040938,-21387.981937883134,-23693.542026703602,14284.932826153377,13099.865686877452,32567.29633418278,52306.524194064645,0.0,0.0,0.0,193.0,0.0,193.0,0.0,0.0,0.0,179.0,193.0,0.0,179.0,1744418846.7378871,0.0,2025-04-11 20:47:26.737,RIGHT,40
157.0,7408.664513667169,-10531.180862329109,-21336.50587040256,-23685.741267888698,14358.514768900248,13166.205664420804,32470.267411502293,52372.70770939681,0.0,0.0,0.0,193.0,0.0,192.0,0.0,0.0,0.0,178.0,192.0,0.0,178.0,1744418846.7379456,0.0,2025-04-11 20:47:26.737,RIGHT,40
158.0,7398.22624900654,-10574.632653550227,-21311.1813439347,-23731.003550410696,14522.06248307973,13014.370264335903,32820.854523283786,52360.16838075738,0.0,0.0,0.0,193.0,0.0,193.0,0.0,0.0,0.0,179.0,193.0,0.0,179.0,1744418846.737997,0.0,2025-04-11 20:47:26.737,RIGHT,40
159.0,7402.517783941959,-10570.922263970646,-21343.27844897252,-23733.953980678794,14424.09478713212,12847.939175121686,32827.67180534265,52211.97631501869,0.0,0.0,0.0,193.0,0.0,193.0,0.0,0.0,0.0,179.0,193.0,0.0,179.0,1744418846.738046,0.0,2025-04-11 20:47:26.738,RIGHT,40
160.0,7409.066845067364,-10545.597737502783,-21361.070437558945,-23689.16108479036,14311.553753799648,13066.11455274994,32592.620860650644,52260.97133886473,0.0,0.0,0.0,193.0,0.0,193.0,0.0,0.0,0.0,179.0,193.0,0.0,179.0,1744418846.7380943,0.0,2025-04-11 20:47:26.738,RIGHT,40
161.0,7419.214537050073,-10543.049638634879,-21331.74494883358,-23677.135846273406,14332.586745332092,13187.953911775818,32442.864172800088,52355.98860454424,0.0,0.0,0.0,193.0,0.0,192.0,0.0,0.0,0.0,178.0,192.0,0.0,178.0,1744418846.7381427,0.0,2025-04-11 20:47:26.738,RIGHT,40
162.0,7404.663551409669,-10576.264330895465,-21296.138619916277,-23719.201829338293,14501.25300899184,13076.73163136621,32763.499947011467,52370.65134890692,0.0,0.0,0.0,193.0,0.0,193.0,0.0,0.0,0.0,179.0,193.0,0.0,179.0,1744418846.7381911,0.0,2025-04-11 20:47:26.738,RIGHT,40
163.0,7394.694673382602,-10588.33427290133,-21339.769225093034,-23742.78291973864,14439.696304761925,12865.753515452567,32869.11193956279,52237.90433858685,0.0,0.0,0.0,193.0,0.0,193.0,0.0,0.0,0.0,179.0,193.0,0.0,179.0,1744418846.7382402,0.0,2025-04-11 20:47:26.738,RIGHT,40
164.0,7394.337045471317,-10569.737621514514,-21375.017926099055,-23703.332090775024,14309.206820631842,13023.042741184563,32660.50310856141,52259.25025454167,0.0,0.0,0.0,193.0,0.0,193.0,0.0,0.0,0.0,179.0,193.0,0.0,179.0,1744418846.7382915,0.0,2025-04-11 20:47:26.738,RIGHT,40
165.0,7415.146519559207,-10537.148778098677,-21347.346466463383,-23683.059058554063,14290.87839017849,13175.99572849223,32437.589161108634,52352.07704926456,0.0,0.0,0.0,193.0,0.0,193.0,0.0,0.0,0.0,178.0,193.0,0.0,178.0,1744418846.7383401,0.0,2025-04-11 20:47:26.738,RIGHT,40
166.0,7407.122243299752,-10566.317804612852,-21301.368928118816,-23711.825753668043,14474.788543556757,13089.315663494548,32680.552623337822,52378.049776321626,0.0,0.0,0.0,193.0,0.0,193.0,0.0,0.0,0.0,179.0,193.0,0.0,179.0,1744418846.7383883,0.0,2025-04-11 20:47:26.738,RIGHT,40
167.0,7381.50714415397,-10594.637464837726,-21337.735216347603,-23750.427216342356,14463.992650984843,12871.766134711044,32882.63474495825,52268.12389709042,0.0,0.0,0.0,193.0,0.0,193.0,0.0,0.0,0.0,179.0,193.0,0.0,179.0,1744418846.738456,0.0,2025-04-11 20:47:26.738,RIGHT,40
168.0,7384.03289127742,-10578.253636151987,-21372.514530720062,-23716.27375081465,14323.578992316603,12963.631804422355,32696.355306667723,52236.04914379706,0.0,0.0,0.0,193.0,0.0,193.0,0.0,0.0,0.0,178.0,193.0,0.0,178.0,1744418846.7385044,0.0,2025-04-11 20:47:26.738,RIGHT,40
169.0,7413.738359658523,-10544.144874113188,-21365.786655639014,-23693.25145402568,14267.25259628923,13162.115295185482,32449.122661247573,52335.179130456345,0.0,0.0,0.0,193.0,0.0,192.0,0.0,0.0,0.0,178.0,192.0,0.0,178.0,1744418846.7385554,0.0,2025-04-11 20:47:26.738,RIGHT,40
170.0,7420.890917884221,-10544.122522368732,-21308.163858433232,-23712.049271112595,14428.363970323084,13109.298123037592,32602.522683444346,52368.77380237267,0.0,0.0,0.0,193.0,0.0,193.0,0.0,0.0,0.0,179.0,193.0,0.0,179.0,1744418846.7386084,0.0,2025-04-11 20:47:26.738,RIGHT,40
171.0,7397.645103650702,-10586.61318857827,-21323.69832082967,-23748.348504108013,14476.777848813279,12899.12466992434,32889.09439910584,52286.675844988335,0.0,0.0,0.0,193.0,0.0,193.0,0.0,0.0,0.0,178.0,193.0,0.0,178.0,1744418846.7386785,0.0,2025-04-11 20:47:26.738,RIGHT,40
172.0,7385.597513389292,-10582.925150743145,-21356.242460756595,-23712.451602512792,14360.951109045876,12933.009914518585,32749.843031149274,52222.68280061279,0.0,0.0,0.0,193.0,0.0,192.0,0.0,0.0,0.0,178.0,192.0,0.0,178.0,1744418846.738727,0.0,2025-04-11 20:47:26.738,RIGHT,40
173.0,7410.653818923691,-10541.686182223104,-21357.382399723818,-23680.153331774873,14281.133029595976,13167.390306876936,32489.221690800394,52325.16554894037,0.0,0.0,0.0,193.0,0.0,192.0,0.0,0.0,0.0,178.0,192.0,0.0,178.0,1744418846.7387793,0.0,2025-04-11 20:47:26.738,RIGHT,40
174.0,7418.432225994137,-10546.983545659012,-21306.778050277004,-23695.576035449034,14418.082167873643,13159.41073410639,32557.126290455617,52372.0595088076,0.0,0.0,0.0,193.0,0.0,193.0,0.0,0.0,0.0,179.0,193.0,0.0,179.0,1744418846.738828,0.0,2025-04-11 20:47:26.738,RIGHT,40
175.0,7392.459498937071,-10583.372185632252,-21317.79746029347,-23743.676989516855,14501.498878180848,12957.79799911952,32894.659983475205,52318.39297037041,0.0,0.0,0.0,193.0,0.0,193.0,0.0,0.0,0.0,178.0,193.0,0.0,178.0,1744418846.7388897,0.0,2025-04-11 20:47:26.738,RIGHT,40
176.0,7389.330254713328,-10575.32555762834,-21361.830396870424,-23728.41074805388,14377.290234242706,12901.31514088096,32786.790464733895,52214.43500690878,0.0,0.0,0.0,193.0,0.0,192.0,0.0,0.0,0.0,178.0,192.0,0.0,178.0,1744418846.738937,0.0,2025-04-11 20:47:26.738,RIGHT,40
177.0,7405.535269443425,-10546.447103792085,-21374.32502202094,-23697.565340705558,14280.708346451325,13141.775207731154,32533.455793077446,52317.074217447545,0.0,0.0,0.0,193.0,0.0,192.0,0.0,0.0,0.0,178.0,192.0,0.0,178.0,1744418846.7389834,0.0,2025-04-11 20:47:26.738,RIGHT,40
178.0,7412.75488290249,-10546.156531114166,-21321.66431208424,-23699.30877677307,14375.74796387529,13162.517626585679,32503.660917718524,52378.42975597737,0.0,0.0,0.0,193.0,0.0,193.0,0.0,0.0,0.0,179.0,193.0,0.0,179.0,1744418846.7390296,0.0,2025-04-11 20:47:26.739,RIGHT,40
179.0,7388.637350635213,-10578.007766962977,-21306.621588065816,-23742.961733694287,14511.221887018906,12980.239150552648,32860.752387136505,52348.970156785275,0.0,0.0,0.0,193.0,0.0,193.0,0.0,0.0,0.0,179.0,193.0,0.0,179.0,1744418846.7390797,0.0,2025-04-11 20:47:26.739,RIGHT,40
180.0,7395.32052222735,-10571.749278515492,-21352.08503628791,-23739.966599937274,14403.598237466604,12858.35508803786,32817.30059591539,52217.63130636589,0.0,0.0,0.0,193.0,0.0,193.0,0.0,0.0,0.0,178.0,193.0,0.0,178.0,1744418846.7391272,0.0,2025-04-11 20:47:26.739,RIGHT,40
181.0,7403.188336275618,-10550.269252093942,-21373.542710965005,-23702.438020996815,14304.468250807317,13098.479878721224,32572.97367727443,52294.32014159205,0.0,0.0,0.0,193.0,0.0,193.0,0.0,0.0,0.0,179.0,193.0,0.0,179.0,1744418846.739174,0.0,2025-04-11 20:47:26.739,RIGHT,40
182.0,7416.5993829488025,-10542.51319676795,-21333.264867456543,-23695.240759282206,14362.89571081349,13176.487466870245,32464.05362654372,52367.67856689436,0.0,0.0,0.0,193.0,0.0,193.0,0.0,0.0,0.0,179.0,193.0,0.0,179.0,1744418846.739221,0.0,2025-04-11 20:47:26.739,RIGHT,40
183.0,7389.218495991051,-10585.205028677587,-21305.928683987702,-23741.106538904496,14519.424977234004,13035.67147680181,32816.96531974856,52364.70578488181,0.0,0.0,0.0,193.0,0.0,193.0,0.0,0.0,0.0,179.0,193.0,0.0,179.0,1744418846.739286,0.0,2025-04-11 20:47:26.739,RIGHT,40
184.0,7396.505164683482,-10584.914455999668,-21341.55736464946,-23745.755701751197,14425.167670865974,12853.080076346407,32843.74270960602,52215.61964936491,0.0,0.0,0.0,193.0,0.0,193.0,0.0,0.0,0.0,179.0,193.0,0.0,179.0,1744418846.739333,0.0,2025-04-11 20:47:26.739,RIGHT,40
185.0,7409.938563101121,-10547.9893741595,-21364.736123649614,-23700.091087829005,14310.614980532526,13057.531482879102,32617.78892490732,52260.4348969978,0.0,0.0,0.0,193.0,0.0,193.0,0.0,0.0,0.0,179.0,193.0,0.0,179.0,1744418846.739382,0.0,2025-04-11 20:47:26.739,RIGHT,40
186.0,7420.8015109064,-10526.688161693593,-21334.293047701485,-23688.959919090263,14319.779195759202,13189.406775165413,32446.865135057586,52351.45120041981,0.0,0.0,0.0,193.0,0.0,193.0,0.0,0.0,0.0,178.0,193.0,0.0,178.0,1744418846.7394516,0.0,2025-04-11 20:47:26.739,RIGHT,40
187.0,7405.9152490991655,-10565.490790068006,-21293.434058837185,-23726.35438756399,14500.448346191448,13085.784087870608,32753.10638583975,52366.96331107179,0.0,0.0,0.0,193.0,0.0,193.0,0.0,0.0,0.0,178.0,193.0,0.0,178.0,1744418846.739504,0.0,2025-04-11 20:47:26.739,RIGHT,40
188.0,7398.56152517337,-10588.04370022341,-21330.806175566457,-23752.66239078789,14444.837205986645,12878.69517549219,32876.9574018666,52232.495216428666,0.0,0.0,0.0,193.0,0.0,193.0,0.0,0.0,0.0,178.0,193.0,0.0,178.0,1744418846.739551,0.0,2025-04-11 20:47:26.739,RIGHT,40
189.0,7396.549868172392,-10578.298339640896,-21375.554367965982,-23723.69452997381,14304.8258787186,13024.808528996531,32676.641068058143,52241.994707822174,0.0,0.0,0.0,193.0,0.0,193.0,0.0,0.0,0.0,178.0,193.0,0.0,178.0,1744418846.739601,0.0,2025-04-11 20:47:26.739,RIGHT,40
190.0,7421.203842306596,-10545.396571802685,-21352.956754321665,-23692.335032503015,14278.294358050152,13182.500086128723,32448.072129258173,52343.561034627084,0.0,0.0,0.0,193.0,0.0,192.0,0.0,0.0,0.0,178.0,192.0,0.0,178.0,1744418846.739648,0.0,2025-04-11 20:47:26.739,RIGHT,40
191.0,7414.163042803174,-10555.65602250767,-21295.959805960632,-23706.729555932234,14470.497008621338,13098.97161709924,32672.930678478562,52368.259712250205,0.0,0.0,0.0,193.0,0.0,193.0,0.0,0.0,0.0,178.0,193.0,0.0,178.0,1744418846.7396953,0.0,2025-04-11 20:47:26.739,RIGHT,40
192.0,7383.205876732573,-10584.825049021847,-21337.958733792155,-23754.51758557768,14469.021793487287,12880.50566679307,32892.447160774136,52263.78765866609,0.0,0.0,0.0,193.0,0.0,193.0,0.0,0.0,0.0,179.0,193.0,0.0,179.0,1744418846.739742,0.0,2025-04-11 20:47:26.739,RIGHT,40
193.0,7392.727719870534,-10561.512179554962,-21370.480521974627,-23716.8995996594,14337.682943067903,12964.19059803374,32702.90436779313,52213.00449526364,0.0,0.0,0.0,193.0,0.0,192.0,0.0,0.0,0.0,178.0,192.0,0.0,178.0,1744418846.7397885,0.0,2025-04-11 20:47:26.739,RIGHT,40
194.0,7404.484737454026,-10539.115731610744,-21373.118027820354,-23696.55951220507,14276.305052793628,13178.141495959939,32456.834013084655,52319.91288899337,0.0,0.0,0.0,193.0,0.0,192.0,0.0,0.0,0.0,178.0,192.0,0.0,178.0,1744418846.7398353,0.0,2025-04-11 20:47:26.739,RIGHT,40
195.0,7401.6907693971125,-10559.098191153787,-21318.847992282866,-23721.325245061547,14431.269697102272,13128.162995357872,32596.621822908146,52358.49199992323,0.0,0.0,0.0,193.0,0.0,193.0,0.0,0.0,0.0,178.0,193.0,0.0,178.0,1744418846.7398856,0.0,2025-04-11 20:47:26.739,RIGHT,40
196.0,7385.46340292256,-10590.256522924486,-21334.047178512476,-23767.302783406114,14482.857523305122,12901.225733903138,32884.02055311448,52271.63312096991,0.0,0.0,0.0,193.0,0.0,193.0,0.0,0.0,0.0,179.0,193.0,0.0,179.0,1744418846.7399378,0.0,2025-04-11 20:47:26.739,RIGHT,40
197.0,7383.362338943761,-10582.679281554138,-21373.162731309265,-23744.146376150416,14353.93266128691,12895.973073956142,32735.58261818679,52182.449660593236,0.0,0.0,0.0,193.0,0.0,193.0,0.0,0.0,0.0,179.0,193.0,0.0,179.0,1744418846.739985,0.0,2025-04-11 20:47:26.739,RIGHT,40
198.0,7394.292341982406,-10552.079743394821,-21375.353202265884,-23708.31652978856,14267.63257594497,13134.622649505454,32476.905879605518,52297.24822011569,0.0,0.0,0.0,193.0,0.0,192.0,0.0,0.0,0.0,178.0,192.0,0.0,178.0,1744418846.7400508,0.0,2025-04-11 20:47:26.740,RIGHT,40
199.0,7409.089196811819,-10550.068086393845,-21315.115250958832,-23710.194076322805,14400.312531031674,13132.856861693486,32514.099182379152,52347.24907246221,0.0,0.0,0.0,193.0,0.0,192.0,0.0,0.0,0.0,178.0,192.0,0.0,178.0,1744418846.7401006,0.0,2025-04-11 20:47:26.740,RIGHT,40
200.0,7398.628580406736,-10589.943598502112,-21317.0822044709,-23761.580736825556,14500.425994446994,12933.591059874423,32854.15862252219,52289.894496189896,0.0,0.0,0.0,193.0,0.0,193.0,0.0,0.0,0.0,179.0,193.0,0.0,179.0,1744418846.7401495,0.0,2025-04-11 20:47:26.740,RIGHT,40
201.0,7402.8083566198775,-10578.544208829906,-21359.90814684727,-23741.218297626772,14373.401030707482,12868.078096875919,32765.690417968086,52178.35929135791,0.0,0.0,0.0,193.0,0.0,193.0,0.0,0.0,0.0,179.0,193.0,0.0,179.0,1744418846.7402,0.0,2025-04-11 20:47:26.740,RIGHT,40
202.0,7404.752958387489,-10541.864996178747,-21382.595167469404,-23705.611968709465,14264.749200910235,13111.73446318322,32519.19538011496,52278.9421414068,0.0,0.0,0.0,193.0,0.0,192.0,0.0,0.0,0.0,178.0,192.0,0.0,178.0,1744418846.740269,0.0,2025-04-11 20:47:26.740,RIGHT,40
203.0,7409.402121234193,-10529.325667539319,-21328.034559254,-23697.11830581645,14358.648879366981,13149.598318290511,32463.51718467679,52334.08389497804,0.0,0.0,0.0,193.0,0.0,193.0,0.0,0.0,0.0,178.0,193.0,0.0,178.0,1744418846.7403162,0.0,2025-04-11 20:47:26.740,RIGHT,40
204.0,7377.372071429739,-10576.353737873285,-21319.339730660886,-23751.18717565384,14500.023663046797,12980.172095319283,32829.25877919898,52317.007162214184,0.0,0.0,0.0,193.0,0.0,193.0,0.0,0.0,0.0,178.0,193.0,0.0,178.0,1744418846.7403665,0.0,2025-04-11 20:47:26.740,RIGHT,40
205.0,7386.580990145325,-10575.012633205966,-21359.528167191525,-23749.89077447543,14394.836353640123,12836.629192427301,32796.73699101651,52174.42538433378,0.0,0.0,0.0,193.0,0.0,192.0,0.0,0.0,0.0,178.0,192.0,0.0,178.0,1744418846.7404134,0.0,2025-04-11 20:47:26.740,RIGHT,40
206.0,7396.013426305464,-10558.070010908845,-21383.243368058607,-23723.40395729589,14284.508143008727,13062.985308526197,32563.96592425894,52244.96748983473,0.0,0.0,0.0,193.0,0.0,192.0,0.0,0.0,0.0,178.0,192.0,0.0,178.0,1744418846.74046,0.0,2025-04-11 20:47:26.740,RIGHT,40
207.0,7407.099891555297,-10550.336307327309,-21344.396036195285,-23718.06189037107,14325.657704550948,13154.359239859492,32440.56194312119,52329.233566431234,0.0,0.0,0.0,193.0,0.0,193.0,0.0,0.0,0.0,178.0,193.0,0.0,178.0,1744418846.7405066,0.0,2025-04-11 20:47:26.740,RIGHT,40
208.0,7396.505164683482,-10577.516028584962,-21306.241608410073,-23746.98504769624,14496.223866489396,13018.058302171028,32765.91393541264,52319.68937154882,0.0,0.0,0.0,193.0,0.0,192.0,0.0,0.0,0.0,178.0,192.0,0.0,178.0,1744418846.7405531,0.0,2025-04-11 20:47:26.740,RIGHT,40
209.0,7403.70242639809,-10569.022365691944,-21341.13268150481,-23756.41748385638,14429.973295923864,12835.39984648226,32816.6970988151,52175.54297155655,0.0,0.0,0.0,193.0,0.0,192.0,0.0,0.0,0.0,178.0,192.0,0.0,178.0,1744418846.7405994,0.0,2025-04-11 20:47:26.740,RIGHT,40
210.0,7412.240792780018,-10541.060333378355,-21372.693344675703,-23719.291236316116,14309.45268982085,13025.702598774744,32593.850206595685,52212.15512897434,0.0,0.0,0.0,193.0,0.0,193.0,0.0,0.0,0.0,179.0,193.0,0.0,179.0,1744418846.7406485,0.0,2025-04-11 20:47:26.740,RIGHT,40
211.0,7420.42153125066,-10532.946650141079,-21355.661315400757,-23709.769393178154,14310.033835176688,13165.021021964672,32413.51633233027,52313.56499356806,0.0,0.0,0.0,193.0,0.0,193.0,0.0,0.0,0.0,179.0,193.0,0.0,179.0,1744418846.740697,0.0,2025-04-11 20:47:26.740,RIGHT,40
212.0,7406.541097943914,-10563.702650511581,-21315.159954447743,-23745.129852906448,14481.047032004242,13052.882320032397,32695.37182991169,52329.07710422005,0.0,0.0,0.0,193.0,0.0,192.0,0.0,0.0,0.0,178.0,192.0,0.0,178.0,1744418846.740744,0.0,2025-04-11 20:47:26.740,RIGHT,40
213.0,7385.798679089389,-10568.374165102741,-21347.12294901883,-23762.631268814956,14445.440703086937,12842.753570408055,32834.55614263489,52195.81600377751,0.0,0.0,0.0,193.0,0.0,193.0,0.0,0.0,0.0,179.0,193.0,0.0,179.0,1744418846.7408085,0.0,2025-04-11 20:47:26.740,RIGHT,40
214.0,7376.992091773998,-10554.113752140254,-21392.072307118455,-23736.189155124328,14311.911381710934,12986.005900622118,32643.448727542014,52200.28635266857,0.0,0.0,0.0,193.0,0.0,193.0,0.0,0.0,0.0,179.0,193.0,0.0,179.0,1744418846.7408552,0.0,2025-04-11 20:47:26.740,RIGHT,40
215.0,7406.541097943914,-10524.162414570143,-21370.793446397,-23710.238779811716,14277.132067338476,13161.288280640636,32408.643652039013,52301.18212713982,0.0,0.0,0.0,193.0,0.0,193.0,0.0,0.0,0.0,178.0,193.0,0.0,178.0,1744418846.7409017,0.0,2025-04-11 20:47:26.740,RIGHT,40
216.0,7408.642161922713,-10547.832911948313,-21312.701262557657,-23727.203753853293,14460.416371871994,13091.796707129086,32613.67620392754,52329.7029530648,0.0,0.0,0.0,193.0,0.0,192.0,0.0,0.0,0.0,178.0,192.0,0.0,178.0,1744418846.7409508,0.0,2025-04-11 20:47:26.740,RIGHT,40
217.0,7398.852097851289,-10583.752165287991,-21334.203640723663,-23763.905318248908,14475.570854612692,12876.795277213489,32838.467697914566,52216.80429182104,0.0,0.0,0.0,193.0,0.0,193.0,0.0,0.0,0.0,179.0,193.0,0.0,179.0,1744418846.741021,0.0,2025-04-11 20:47:26.741,RIGHT,40
218.0,7399.030911806931,-10573.13508667172,-21377.208397055674,-23741.106538904496,14341.50509136976,12955.384010718348,32671.254297644413,52175.47591632318,0.0,0.0,0.0,193.0,0.0,193.0,0.0,0.0,0.0,179.0,193.0,0.0,179.0,1744418846.741068,0.0,2025-04-11 20:47:26.741,RIGHT,40
219.0,7409.938563101121,-10547.385877059207,-21380.00236511259,-23719.760622949678,14270.9182823799,13175.36987964748,32426.726213303355,52298.99165618321,0.0,0.0,0.0,193.0,0.0,193.0,0.0,0.0,0.0,178.0,193.0,0.0,178.0,1744418846.7411149,0.0,2025-04-11 20:47:26.741,RIGHT,40
220.0,7404.6859031541235,-10558.13706614221,-21327.632227853803,-23734.065739401074,14413.812984682678,13126.039579634617,32536.495630323367,52340.297679936615,0.0,0.0,0.0,193.0,0.0,193.0,0.0,0.0,0.0,179.0,193.0,0.0,179.0,1744418846.7411656,0.0,2025-04-11 20:47:26.741,RIGHT,40
221.0,7388.838516335311,-10574.431487850128,-21337.064664013942,-23774.343582909536,14471.972223755387,12898.69998677969,32833.840886812315,52258.62440569692,0.0,0.0,0.0,193.0,0.0,193.0,0.0,0.0,0.0,179.0,193.0,0.0,179.0,1744418846.741213,0.0,2025-04-11 20:47:26.741,RIGHT,40
222.0,7404.261220009473,-10549.106961382266,-21370.033487085522,-23747.610896540988,14356.234890965807,12889.826344230933,32696.064733989806,52162.511904539104,0.0,0.0,0.0,193.0,0.0,193.0,0.0,0.0,0.0,178.0,193.0,0.0,178.0,1744418846.74126,0.0,2025-04-11 20:47:26.741,RIGHT,40
223.0,7423.774292918956,-10522.441330247084,-21374.70500167668,-23712.831582168532,14276.081535349076,13140.657620508387,32436.13629771904,52268.16860057934,0.0,0.0,0.0,193.0,0.0,193.0,0.0,0.0,0.0,179.0,193.0,0.0,179.0,1744418846.7413068,0.0,2025-04-11 20:47:26.741,RIGHT,40
224.0,7420.42153125066,-10528.386894272197,-21316.344596903873,-23712.60806472398,14401.586580465626,13144.83739672153,32456.409329940005,52321.52221459415,0.0,0.0,0.0,193.0,0.0,193.0,0.0,0.0,0.0,179.0,193.0,0.0,179.0,1744418846.7413533,0.0,2025-04-11 20:47:26.741,RIGHT,40
225.0,7398.9862083180205,-10566.943653457602,-21311.15899219024,-23757.80329201261,14522.196593546463,12964.145894544828,32814.50662785848,52279.880914673915,0.0,0.0,0.0,193.0,0.0,193.0,0.0,0.0,0.0,178.0,193.0,0.0,178.0,1744418847.2146604,0.0,2025-04-11 20:47:27.214,RIGHT,40
226.0,7396.41575770566,-10569.46940058105,-21354.11904503334,-23747.677951774356,14397.205638552385,12879.16456212575,32741.90816186764,52161.34961382743,0.0,0.0,0.0,193.0,0.0,192.0,0.0,0.0,0.0,178.0,192.0,0.0,178.0,1744418847.2148511,0.0,2025-04-11 20:47:27.214,RIGHT,40
227.0,7402.830708364333,-10544.457798535563,-21377.789542411512,-23715.69260545881,14286.229227331785,13114.953114384785,32488.886414633565,52252.92471086082,0.0,0.0,0.0,193.0,0.0,193.0,0.0,0.0,0.0,179.0,193.0,0.0,179.0,1744418847.2149048,0.0,2025-04-11 20:47:27.214,RIGHT,40
228.0,7421.695580684613,-10528.588059972295,-21323.474803385117,-23705.634320453923,14373.915120829955,13157.577891061055,32414.253939897295,52321.11988319396,0.0,0.0,0.0,193.0,0.0,192.0,0.0,0.0,0.0,178.0,192.0,0.0,178.0,1744418847.215132,0.0,2025-04-11 20:47:27.215,RIGHT,40
229.0,7397.622751906247,-10563.590891789305,-21298.552608317448,-23741.531222049147,14534.579459974702,13005.340159575959,32777.983877418505,52308.692313276806,0.0,0.0,0.0,193.0,0.0,192.0,0.0,0.0,0.0,178.0,192.0,0.0,178.0,1744418847.2151804,0.0,2025-04-11 20:47:27.215,RIGHT,40
230.0,7391.900705325688,-10569.894083725701,-21344.373684450828,-23746.31449536258,14426.017037155276,12859.763247938545,32776.10633088426,52179.05219543603,0.0,0.0,0.0,193.0,0.0,193.0,0.0,1.0,0.0,179.0,193.0,1.0,179.0,1744418847.2152193,0.0,2025-04-11 20:47:27.215,RIGHT,40
231.0,7391.341911714306,-10548.570519515339,-21377.56602496696,-23712.4963060017,14298.992073415766,13083.884189591909,32537.568514057224,52246.66622241333,0.0,0.0,0.0,193.0,0.0,193.0,0.0,2.0,0.0,179.0,193.0,2.0,179.0,1744418847.2152631,0.0,2025-04-11 20:47:27.215,RIGHT,40
232.0,7403.65772290918,-10533.773664685925,-21342.496137916583,-23702.952111119284,14331.715027298336,13178.588530849043,32398.02657342274,52335.4026479009,0.0,0.0,0.0,193.0,0.0,192.0,0.0,3.0,0.0,178.0,192.0,3.0,178.0,1744418847.2154045,0.0,2025-04-11 20:47:27.215,RIGHT,40
233.0,7399.902629840688,-10571.682223282127,-21307.06862295492,-23739.810137726086,14510.886610852076,13039.180700681294,32725.94901632655,52338.17426421336,0.0,0.0,0.0,193.0,0.0,193.0,0.0,4.0,0.0,179.0,193.0,4.0,179.0,1744418847.215442,0.0,2025-04-11 20:47:27.215,RIGHT,40
234.0,7395.007597804975,-10582.411060620674,-21346.1394722628,-23761.51368159219,14440.031580928753,12843.960564608642,32800.40267710718,52199.347579401445,0.0,0.0,0.0,193.0,0.0,193.0,0.0,5.0,0.0,179.0,193.0,5.0,179.0,1744418847.2154777,0.0,2025-04-11 20:47:27.215,RIGHT,40
235.0,7382.535324398915,-10551.453894550074,-21372.916862120255,-23725.370910807957,14309.385634587483,13026.283744130582,32583.50134891288,52232.070533284015,0.0,0.0,0.0,193.0,0.0,192.0,0.0,6.0,0.0,179.0,192.0,6.0,179.0,1744418847.2155173,0.0,2025-04-11 20:47:27.215,RIGHT,40
236.0,7394.448804193593,-10529.057446605855,-21338.02578902552,-23698.951148861786,14308.580971787092,13171.503027856712,32386.761294217267,52329.77000829816,0.0,0.0,0.0,193.0,0.0,193.0,0.0,7.0,0.0,179.0,193.0,7.0,179.0,1744418847.2155533,0.0,2025-04-11 20:47:27.215,RIGHT,40
237.0,7384.2564087219735,-10566.876598224235,-21290.505980313537,-23728.298989331604,14493.362843199116,13081.87253259093,32662.291248117835,52354.73690685474,0.0,0.0,0.0,193.0,0.0,193.0,0.0,8.0,0.0,179.0,193.0,8.0,179.0,1744418847.2155907,0.0,2025-04-11 20:47:27.215,RIGHT,40
238.0,7377.729699341024,-10576.554903573384,-21328.16866972073,-23759.502024591213,14462.785656784255,12860.210282827651,32830.37636642175,52235.26683274112,0.0,0.0,0.0,193.0,0.0,192.0,0.0,9.0,0.0,178.0,192.0,9.0,178.0,1744418847.215639,0.0,2025-04-11 20:47:27.215,RIGHT,40
239.0,7388.369129701749,-10542.356734556763,-21352.487367688103,-23712.98804437972,14344.611983849049,12979.456839496714,32643.448727542014,52219.553556389044,0.0,0.0,0.0,193.0,0.0,193.0,0.0,10.0,0.0,178.0,193.0,10.0,178.0,1744418847.2156904,0.0,2025-04-11 20:47:27.215,RIGHT,40
240.0,7409.13390030073,-10517.523946466918,-21340.32801870442,-23684.176645776828,14304.065919407121,13171.525379601168,32423.395803379513,52322.93037449484,0.0,0.0,0.0,193.0,0.0,192.0,0.0,10.0,0.0,179.0,192.0,10.0,179.0,1744418847.2157276,0.0,2025-04-11 20:47:27.215,RIGHT,40
241.0,7410.340894501316,-10548.27994683742,-21287.48849481207,-23699.867570384453,14472.843941789144,13110.21454456026,32622.952177876497,52355.34040395504,0.0,0.0,0.0,193.0,0.0,192.0,0.0,11.0,0.0,178.0,192.0,11.0,178.0,1744418847.2157912,0.0,2025-04-11 20:47:27.215,RIGHT,40
242.0,7403.300094997895,-10574.252673894487,-21311.31545440143,-23741.30770460459,14497.184991500973,12899.974036213642,32886.970983382584,52266.55927497856,0.0,0.0,0.0,193.0,0.0,193.0,0.0,11.0,0.0,179.0,193.0,11.0,179.0,1744418847.2158363,0.0,2025-04-11 20:47:27.215,RIGHT,40
243.0,7403.65772290918,-10558.762914986959,-21355.437797956205,-23721.61581773947,14360.571129390137,12948.812597848488,32733.548609441354,52204.4214253928,0.0,0.0,0.0,193.0,0.0,193.0,0.0,12.0,0.0,179.0,193.0,12.0,179.0,1744418847.216144,0.0,2025-04-11 20:47:27.216,RIGHT,40
244.0,7404.752958387489,-10529.213908817042,-21366.680725417224,-23702.102744829983,14277.310881294117,13164.752801031209,32483.47729247538,52312.22388890075,0.0,0.0,0.0,193.0,0.0,192.0,0.0,12.0,0.0,178.0,192.0,12.0,178.0,1744418847.2161913,0.0,2025-04-11 20:47:27.216,RIGHT,40
245.0,7403.031874064431,-10555.208987618566,-21317.12690795981,-23720.11825086096,14415.534069005736,13125.525489512145,32579.142758744096,52357.82144758957,0.0,0.0,0.0,193.0,0.0,193.0,0.0,12.0,0.0,179.0,193.0,12.0,179.0,1744418847.2162335,0.0,2025-04-11 20:47:27.216,RIGHT,40
246.0,7390.22432449154,-10582.947502487601,-21322.916009773733,-23757.915050734886,14492.692290865458,12902.768004270554,32891.12840785127,52284.39596705389,0.0,0.0,0.0,193.0,0.0,193.0,0.0,13.0,0.0,179.0,193.0,13.0,179.0,1744418847.2162774,0.0,2025-04-11 20:47:27.216,RIGHT,40
247.0,7385.776327344934,-10561.445124321595,-21360.75751313657,-23734.13279463444,14368.729516116324,12882.673786005234,32778.00622916296,52191.07743395298,0.0,0.0,0.0,193.0,0.0,193.0,0.0,13.0,0.0,179.0,193.0,13.0,179.0,1744418847.2163844,0.0,2025-04-11 20:47:27.216,RIGHT,40
248.0,7385.150478500185,-10541.306202567364,-21378.683612189725,-23707.802439666088,14275.232169059775,13128.945306413807,32534.95335995595,52299.34928409449,0.0,0.0,0.0,193.0,0.0,193.0,0.0,13.0,0.0,179.0,193.0,13.0,179.0,1744418847.2164311,0.0,2025-04-11 20:47:27.216,RIGHT,40
249.0,7399.075615295842,-10541.08268512281,-21321.0831667284,-23707.623625710443,14391.505943716282,13135.40496056139,32533.656958777545,52355.2062934883,0.0,0.0,0.0,193.0,0.0,193.0,0.0,13.0,0.0,179.0,193.0,13.0,179.0,1744418847.2165494,0.0,2025-04-11 20:47:27.216,RIGHT,40
250.0,7381.864772065255,-10579.505333841484,-21310.041404967476,-23753.89173673293,14523.582401702692,12961.061353809995,32901.18669285616,52327.288964663625,0.0,0.0,0.0,193.0,0.0,193.0,0.0,14.0,0.0,179.0,193.0,14.0,179.0,1744418847.2165923,0.0,2025-04-11 20:47:27.216,RIGHT,40
251.0,7386.357472700772,-10561.243958621497,-21350.967449065145,-23750.337809364537,14398.27852228624,12851.940137379186,32831.13632573323,52195.83835552196,0.0,0.0,0.0,193.0,0.0,193.0,0.0,14.0,0.0,179.0,193.0,14.0,179.0,1744418847.2166345,0.0,2025-04-11 20:47:27.216,RIGHT,40
252.0,7392.370091959249,-10546.178882858621,-21372.98391735362,-23715.334977547525,14288.643215732958,13090.54500943959,32584.909508813562,52281.93727516381,0.0,0.0,0.0,193.0,0.0,193.0,0.0,14.0,0.0,179.0,193.0,14.0,179.0,1744418847.2166831,0.0,2025-04-11 20:47:27.216,RIGHT,40
253.0,7407.122243299752,-10549.844568949291,-21329.107442987854,-23709.814096667065,14350.89282404099,13142.445760064813,32492.306231535225,52346.84674106202,0.0,0.0,0.0,193.0,0.0,193.0,0.0,14.0,0.0,179.0,193.0,14.0,179.0,1744418847.216751,0.0,2025-04-11 20:47:27.216,RIGHT,40
254.0,7390.157269258174,-10577.828953007336,-21304.297006642464,-23749.868422730975,14517.703892910946,12989.693938457243,32854.15862252219,52335.55911011209,0.0,0.0,0.0,193.0,0.0,193.0,0.0,15.0,0.0,178.0,193.0,15.0,178.0,1744418847.216787,0.0,2025-04-11 20:47:27.216,RIGHT,40
255.0,7393.420623948649,-10565.289624367908,-21347.74879786358,-23752.528280321156,14424.8547464436,12830.393055724271,32866.25091627251,52194.85487876593,0.0,0.0,0.0,193.0,0.0,193.0,0.0,15.0,0.0,179.0,193.0,15.0,179.0,1744418847.2168224,0.0,2025-04-11 20:47:27.216,RIGHT,40
0.0,7400.193202518607,-10538.333420554807,-21372.939213864713,-23706.751907676688,14310.659684021437,13051.988250254184,32626.349643033704,52239.893643843374,0.0,0.0,0.0,193.0,0.0,193.0,0.0,15.0,0.0,179.0,193.0,15.0,179.0,1744418847.216862,0.0,2025-04-11 20:47:27.216,RIGHT,40
1.0,7400.707292641079,-10538.623993232726,-21345.804196095967,-23700.940454118307,14330.686847053392,13176.867446525985,32483.18671979746,52338.66600259137,0.0,0.0,0.0,193.0,0.0,192.0,0.0,15.0,0.0,178.0,192.0,15.0,178.0,1744418847.2169137,0.0,2025-04-11 20:47:27.216,RIGHT,40
2.0,7384.479926166526,-10584.221551921553,-21313.59533233587,-23741.195945882315,14499.666035135513,13042.600517582956,32809.18691267812,52351.182979486344,0.0,0.0,0.0,193.0,0.0,193.0,0.0,15.0,0.0,179.0,193.0,15.0,179.0,1744418847.2169836,0.0,2025-04-11 20:47:27.216,RIGHT,40
3.0,7376.992091773998,-10591.284703169431,-21351.146263020786,-23763.190062426336,14437.125854149564,12831.15301503575,32905.589986513856,52215.53024238709,0.0,0.0,0.0,193.0,0.0,193.0,0.0,15.0,0.0,179.0,193.0,15.0,179.0,1744418847.2170188,0.0,2025-04-11 20:47:27.217,RIGHT,40
4.0,7379.406080175171,-10558.159417886665,-21373.542710965005,-23720.475878772246,14315.442957334872,13004.200220608738,32685.872338518184,52231.62349839491,0.0,0.0,0.0,193.0,0.0,193.0,0.0,15.0,0.0,179.0,193.0,15.0,179.0,1744418847.2170544,0.0,2025-04-11 20:47:27.217,RIGHT,40
5.0,7408.686865411623,-10517.546298211373,-21339.12102450383,-23689.96574759075,14312.537230555681,13161.332984129547,32450.173193236973,52318.52708083714,0.0,0.0,0.0,193.0,0.0,192.0,0.0,15.0,0.0,178.0,192.0,15.0,178.0,1744418847.2170942,0.0,2025-04-11 20:47:27.217,RIGHT,40
6.0,7402.6295426642355,-10555.767781229948,-21292.07060242541,-23719.671215971855,14506.34920672765,13081.291387235093,32693.203710699527,52343.091647993526,0.0,0.0,0.0,193.0,0.0,193.0,0.0,15.0,0.0,179.0,193.0,15.0,179.0,1744418847.2171588,0.0,2025-04-11 20:47:27.217,RIGHT,40
7.0,7391.4760221810375,-10580.600569319793,-21332.437852911695,-23763.614745570987,14488.177238485485,12861.461980517148,32871.28005877496,52226.7284663592,0.0,0.0,0.0,193.0,0.0,193.0,0.0,15.0,0.0,179.0,193.0,15.0,179.0,1744418847.2172,0.0,2025-04-11 20:47:27.217,RIGHT,40
8.0,7397.980379817532,-10542.624955490226,-21358.164710779754,-23723.06868112906,14364.862664325556,12963.341231744436,32665.26403013039,52194.98898923266,0.0,0.0,0.0,193.0,0.0,192.0,0.0,16.0,0.0,178.0,192.0,16.0,178.0,1744418847.2172434,0.0,2025-04-11 20:47:27.217,RIGHT,40
9.0,7408.284534011428,-10517.881574378202,-21353.51554793305,-23702.482724485722,14315.755881757246,13157.712001527787,32428.670815070967,52313.14031042341,0.0,0.0,0.0,193.0,0.0,193.0,0.0,16.0,0.0,179.0,193.0,16.0,179.0,1744418847.2172847,0.0,2025-04-11 20:47:27.217,RIGHT,40
10.0,7415.392388748216,-10540.434484533607,-21293.791686748467,-23713.12215484645,14481.20349421543,13097.585808943011,32587.25644198137,52349.26072946319,0.0,0.0,0.0,193.0,0.0,193.0,0.0,16.0,0.0,179.0,193.0,16.0,179.0,1744418847.2173269,0.0,2025-04-11 20:47:27.217,RIGHT,40
11.0,7395.36522571626,-10574.051508194389,-21314.668216069727,-23756.864518745486,14508.584381173181,12877.398774313782,32849.19653525311,52252.09769631597,0.0,0.0,0.0,193.0,0.0,192.0,0.0,16.0,0.0,179.0,192.0,16.0,179.0,1744418847.2173707,0.0,2025-04-11 20:47:27.217,RIGHT,40
12.0,7394.202935004585,-10551.789170716902,-21352.84499559939,-23727.13669861993,14379.346594732595,12907.864202006365,32690.476797875977,52180.57211405899,0.0,0.0,0.0,193.0,0.0,192.0,0.0,16.0,0.0,179.0,192.0,16.0,179.0,1744418847.2174225,0.0,2025-04-11 20:47:27.217,RIGHT,40
13.0,7403.210688020074,-10523.290696536385,-21357.47180670164,-23700.15814306237,14296.667491992413,13134.309725083082,32434.683434329443,52291.97320842424,0.0,0.0,0.0,193.0,0.0,193.0,0.0,16.0,0.0,179.0,193.0,16.0,179.0,1744418847.2174728,0.0,2025-04-11 20:47:27.217,RIGHT,40
14.0,7400.304961240883,-10549.978679416023,-21303.246474653064,-23711.803401923586,14431.873194202566,13117.367102785958,32505.15848459703,52342.44344740432,0.0,0.0,0.0,193.0,0.0,192.0,0.0,16.0,0.0,178.0,192.0,16.0,178.0,1744418847.2175224,0.0,2025-04-11 20:47:27.217,RIGHT,40
15.0,7380.166039486652,-10584.75799378848,-21318.579771349403,-23768.107446206504,14519.11205281163,12917.676617822244,32832.790354822915,52291.32500783503,0.0,0.0,0.0,193.0,0.0,192.0,0.0,16.0,0.0,179.0,192.0,16.0,179.0,1744418847.21757,0.0,2025-04-11 20:47:27.217,RIGHT,40
16.0,7399.1650222736625,-10563.501484811484,-21351.123911276332,-23741.12889064895,14393.651711183991,12875.141248123795,32706.905330050628,52180.57211405899,0.0,0.0,0.0,193.0,0.0,193.0,0.0,16.0,0.0,179.0,193.0,16.0,179.0,1744418847.2176232,0.0,2025-04-11 20:47:27.217,RIGHT,40
17.0,7409.13390030073,-10532.231394318509,-21360.623402669837,-23704.047346597596,14297.762727470725,13128.83354769153,32453.972989794376,52279.07625187353,0.0,0.0,0.0,193.0,0.0,192.0,0.0,16.0,0.0,178.0,192.0,16.0,178.0,1744418847.2178192,0.0,2025-04-11 20:47:27.217,RIGHT,40
18.0,7412.8442898803105,-10525.637629704193,-21312.924780002213,-23710.30583504508,14389.114307059564,13152.012306691684,32430.391899394024,52332.385162399434,0.0,0.0,0.0,193.0,0.0,193.0,0.0,16.0,0.0,179.0,193.0,16.0,179.0,1744418847.2179239,0.0,2025-04-11 20:47:27.217,RIGHT,40
19.0,7384.2564087219735,-10565.021403434444,-21306.286311898984,-23758.205623412803,14522.509517968836,12976.171133061784,32790.32204035784,52298.32110384954,0.0,0.0,0.0,193.0,0.0,193.0,0.0,16.0,0.0,179.0,193.0,16.0,179.0,1744418847.218035,0.0,2025-04-11 20:47:27.218,RIGHT,40
20.0,7386.871562823244,-10570.944615715101,-21357.963545079656,-23758.675010046365,14409.119118347064,12853.951794380164,32742.62341769021,52171.9666924437,0.0,0.0,0.0,193.0,0.0,193.0,0.0,16.0,0.0,179.0,193.0,16.0,179.0,1744418847.2180977,0.0,2025-04-11 20:47:27.218,RIGHT,40
21.0,7396.572219916848,-10543.787246201902,-21374.548539465493,-23715.759660692176,14310.994960188265,13084.554741925567,32490.473388489892,52245.72744914621,0.0,0.0,0.0,193.0,0.0,193.0,0.0,16.0,0.0,178.0,193.0,16.0,178.0,1744418847.2181687,0.0,2025-04-11 20:47:27.218,RIGHT,40
22.0,7403.188336275618,-10536.031190875912,-21331.812004066946,-23708.294178044103,14376.016184808754,13161.98118471875,32394.56205303217,52328.71947630876,0.0,0.0,0.0,193.0,0.0,193.0,0.0,16.0,0.0,179.0,193.0,16.0,179.0,1744418847.218202,0.0,2025-04-11 20:47:27.218,RIGHT,40
23.0,7390.894876825199,-10568.62003429175,-21297.88205598379,-23747.141509907426,14540.860300166643,13013.610305024422,32747.451394492557,52319.041170959616,0.0,0.0,0.0,193.0,0.0,193.0,0.0,16.0,0.0,179.0,193.0,16.0,179.0,1744418847.218236,0.0,2025-04-11 20:47:27.218,RIGHT,40
24.0,7389.285551224417,-10569.603511047782,-21341.691475116193,-23762.385399625946,14447.787636254745,12839.82549188441,32774.31819132784,52176.19117214575,0.0,0.0,0.0,193.0,0.0,192.0,0.0,16.0,0.0,179.0,192.0,16.0,179.0,1744418847.2182739,0.0,2025-04-11 20:47:27.218,RIGHT,40
25.0,7402.897763597699,-10529.258612305954,-21366.680725417224,-23719.91708516086,14331.893841253977,13058.179683468305,32545.63749380559,52226.549652403555,0.0,0.0,0.0,193.0,0.0,193.0,0.0,16.0,0.0,179.0,193.0,16.0,179.0,1744418847.2183082,0.0,2025-04-11 20:47:27.218,RIGHT,40
26.0,7420.332124272839,-10497.206210757044,-21335.254172713063,-23708.428288510837,14350.401085662972,13181.94129251734,32375.40660803397,52309.42992084383,0.0,0.0,0.0,193.0,0.0,193.0,0.0,16.0,0.0,179.0,193.0,16.0,179.0,1744418847.2183454,0.0,2025-04-11 20:47:27.218,RIGHT,40
27.0,7414.498318970003,-10541.485016523005,-21296.093916427366,-23740.972428437763,14529.729131427901,13056.279785189605,32679.144463437136,52312.26859238966,0.0,0.0,0.0,193.0,0.0,193.0,0.0,16.0,0.0,178.0,193.0,16.0,178.0,1744418847.2183778,0.0,2025-04-11 20:47:27.218,RIGHT,40
28.0,7406.831670621833,-10563.099153411289,-21331.968466278133,-23757.244498401225,14478.990671514353,12849.213224555639,32792.311345614355,52174.02305293358,0.0,0.0,0.0,193.0,0.0,192.0,0.0,16.0,0.0,179.0,192.0,16.0,179.0,1744418847.2184095,0.0,2025-04-11 20:47:27.218,RIGHT,40
29.0,7394.6499698936905,-10550.9398044276,-21362.255080015075,-23721.280541572636,14352.815074064145,13013.744415491155,32566.737540571397,52193.31260839851,0.0,0.0,0.0,193.0,0.0,193.0,0.0,16.0,0.0,179.0,193.0,16.0,179.0,1744418847.218441,0.0,2025-04-11 20:47:27.218,RIGHT,40
30.0,7408.888031111722,-10522.41897850263,-21341.825585582923,-23694.726669159732,14328.161099929941,13180.89076052794,32319.14726723996,52295.37067358145,0.0,0.0,0.0,193.0,0.0,192.0,0.0,16.0,0.0,178.0,192.0,16.0,178.0,1744418847.2184727,0.0,2025-04-11 20:47:27.218,RIGHT,40
31.0,7389.799641346889,-10552.951461428578,-21297.88205598379,-23721.772279950656,14502.974093314899,13098.144602554394,32541.122441425618,52324.96438324027,0.0,0.0,0.0,193.0,0.0,193.0,0.0,16.0,0.0,179.0,193.0,16.0,179.0,1744418847.2185047,0.0,2025-04-11 20:47:27.218,RIGHT,40
32.0,7382.580027887825,-10576.309034384374,-21325.486460386095,-23755.232841400248,14492.736994354367,12863.272471818027,32732.073394307306,52207.41655914981,0.0,0.0,0.0,193.0,0.0,193.0,0.0,16.0,0.0,179.0,193.0,16.0,179.0,1744418847.2185557,0.0,2025-04-11 20:47:27.218,RIGHT,40
33.0,7385.776327344934,-10560.349888843286,-21364.55730969397,-23727.94136142032,14362.739248602302,12955.115789784884,32538.350825113157,52169.932683698265,0.0,0.0,0.0,193.0,0.0,193.0,0.0,16.0,0.0,179.0,193.0,16.0,179.0,1744418847.2185888,0.0,2025-04-11 20:47:27.218,RIGHT,40
34.0,7403.411853720171,-10525.905850637657,-21359.125835791332,-23701.365137262957,14303.574181029104,13167.993803977228,32284.032676700674,52277.39987103938,0.0,0.0,0.0,193.0,0.0,193.0,0.0,17.0,0.0,178.0,193.0,17.0,178.0,1744418847.2186208,0.0,2025-04-11 20:47:27.218,RIGHT,40
35.0,7395.387577460716,-10537.327592054318,-21303.53704733098,-23719.805326438585,14459.857578260611,13127.201870346293,32428.69316681542,52317.78947327012,0.0,0.0,0.0,193.0,0.0,192.0,0.0,17.0,0.0,179.0,192.0,17.0,179.0,1744418847.2186549,0.0,2025-04-11 20:47:27.218,RIGHT,40
36.0,7390.470193680549,-10574.47619133904,-21313.193000935677,-23754.51758557768,14517.927410355498,12910.971094485652,32711.95682429753,52229.12010301591,0.0,0.0,0.0,193.0,0.0,193.0,0.0,17.0,0.0,179.0,193.0,17.0,179.0,1744418847.2187064,0.0,2025-04-11 20:47:27.218,RIGHT,40
37.0,7400.953161830087,-10558.829970220324,-21350.207489753662,-23725.057986385586,14396.266865285263,12934.865109308375,32571.051427251274,52157.058078892005,0.0,0.0,0.0,193.0,0.0,193.0,0.0,17.0,0.0,179.0,193.0,17.0,179.0,1744418847.2187502,0.0,2025-04-11 20:47:27.218,RIGHT,40
38.0,7407.144595044208,-10527.828100660814,-21366.680725417224,-23700.560474462567,14306.658721763937,13168.731411544253,32319.5272468957,52273.175391337325,0.0,0.0,0.0,193.0,0.0,193.0,0.0,17.0,0.0,179.0,193.0,17.0,179.0,1744418847.2187862,0.0,2025-04-11 20:47:27.218,RIGHT,40
39.0,7404.305923498384,-10536.791150187391,-21311.471916612616,-23703.6450151974,14431.47086280237,13149.933594457341,32361.50382298277,52323.086836706025,0.0,0.0,0.0,193.0,0.0,193.0,0.0,17.0,0.0,179.0,193.0,17.0,179.0,1744418847.2188244,0.0,2025-04-11 20:47:27.218,RIGHT,40
40.0,7393.308865226372,-10564.820237734348,-21300.139582173775,-23736.144451635417,14539.385085032593,12961.79896137702,32697.09291423475,52269.08502210201,0.0,0.0,0.0,193.0,0.0,193.0,0.0,17.0,0.0,179.0,193.0,17.0,179.0,1744418847.2188594,0.0,2025-04-11 20:47:27.218,RIGHT,40
41.0,7392.548905914892,-10553.532606784416,-21340.059797770955,-23720.60998923898,14420.965542908376,12905.003178716086,32602.276814255336,52159.293253337535,0.0,0.0,0.0,193.0,0.0,193.0,0.0,17.0,0.0,178.0,193.0,17.0,178.0,1744418847.2188933,0.0,2025-04-11 20:47:27.218,RIGHT,40
42.0,7394.672321638146,-10526.0846645933,-21357.78473112401,-23695.01724183765,14315.30884686814,13142.959850187284,32344.292979752183,52255.09283007298,0.0,0.0,0.0,193.0,0.0,193.0,0.0,17.0,0.0,179.0,193.0,17.0,179.0,1744418847.218926,0.0,2025-04-11 20:47:27.218,RIGHT,40
43.0,7398.740339129012,-10530.89028965119,-21312.96948349112,-23701.65570994088,14404.894638645012,13172.79942903512,32307.546711867657,52328.74182805322,0.0,0.0,0.0,193.0,0.0,193.0,0.0,17.0,0.0,179.0,193.0,17.0,179.0,1744418847.2189596,0.0,2025-04-11 20:47:27.218,RIGHT,40
44.0,7385.530458155926,-10561.623938277238,-21299.78195426249,-23744.79457673962,14547.252899080862,12994.611322237412,32661.665399273086,52308.98288595473,0.0,0.0,0.0,193.0,0.0,193.0,0.0,17.0,0.0,179.0,193.0,17.0,179.0,1744418847.2189949,0.0,2025-04-11 20:47:27.218,RIGHT,40
45.0,7399.746167629501,-10542.982583401512,-21338.1375477478,-23739.251344114702,14444.47957807536,12856.25402405906,32616.760744662377,52166.57992202997,0.0,0.0,0.0,193.0,0.0,193.0,0.0,17.0,0.0,179.0,193.0,17.0,179.0,1744418847.2190304,0.0,2025-04-11 20:47:27.219,RIGHT,40
46.0,7402.897763597699,-10530.17503382862,-21363.12679804883,-23706.17076232085,14322.237887649286,13085.515866937145,32380.502805769782,52244.72162064572,0.0,0.0,0.0,193.0,0.0,193.0,0.0,17.0,0.0,179.0,193.0,17.0,179.0,1744418847.2190723,0.0,2025-04-11 20:47:27.219,RIGHT,40
47.0,7418.074598082852,-10525.414112259641,-21314.9811404921,-23690.92687260233,14365.689678870402,13167.166789432382,32257.43410079886,52320.47168260476,0.0,0.0,0.0,193.0,0.0,193.0,0.0,17.0,0.0,178.0,193.0,17.0,178.0,1744418847.2192256,0.0,2025-04-11 20:47:27.219,RIGHT,40
48.0,7398.449766451093,-10558.56174928686,-21279.844198208357,-23726.13087011944,14540.949707144466,13037.86194775843,32603.439104967012,52313.54264182361,0.0,0.0,0.0,193.0,0.0,192.0,0.0,17.0,0.0,179.0,192.0,17.0,179.0,1744418847.2192771,0.0,2025-04-11 20:47:27.219,RIGHT,40
49.0,7391.587780903314,-10563.009746433467,-21331.07439649992,-23749.689608775334,14451.587432812148,12858.802122926965,32649.818974711776,52171.85493372142,0.0,0.0,0.0,193.0,0.0,193.0,0.0,17.0,0.0,179.0,193.0,17.0,179.0,1744418847.2193193,0.0,2025-04-11 20:47:27.219,RIGHT,40
50.0,7394.851135593789,-10543.407266546163,-21366.188987039208,-23708.07066059955,14337.571184345627,13054.424590399813,32423.395803379513,52208.26592543911,0.0,0.0,0.0,193.0,0.0,192.0,0.0,17.0,0.0,179.0,192.0,17.0,179.0,1744418847.2193534,0.0,2025-04-11 20:47:27.219,RIGHT,40
51.0,7407.993961333509,-10530.689123951093,-21337.13171924731,-23689.183436534815,14351.518672885737,13181.382498905958,32249.09690011703,52303.26083937417,0.0,0.0,0.0,193.0,0.0,193.0,0.0,17.0,0.0,178.0,193.0,17.0,178.0,1744418847.2194118,0.0,2025-04-11 20:47:27.219,RIGHT,40
52.0,7377.9755685300315,-10577.605435562782,-21302.26299789703,-23730.623570754957,14528.723302927412,13068.863817317942,32552.901810753563,52326.57370884105,0.0,0.0,0.0,193.0,0.0,193.0,0.0,17.0,0.0,179.0,193.0,17.0,179.0,1744418847.219447,0.0,2025-04-11 20:47:27.219,RIGHT,40
53.0,7371.404155660171,-10585.942636244612,-21336.684684358203,-23761.536033336644,14483.8186483167,12847.983878610597,32682.027838471873,52190.22806766368,0.0,0.0,0.0,193.0,0.0,193.0,0.0,17.0,0.0,178.0,193.0,17.0,178.0,1744418847.2194817,0.0,2025-04-11 20:47:27.219,RIGHT,40
54.0,7378.288492952406,-10557.600624275283,-21365.42902772773,-23726.644960241912,14360.057039267665,12992.778479192077,32478.62696392858,52192.46324210921,0.0,0.0,0.0,193.0,0.0,192.0,0.0,17.0,0.0,179.0,192.0,17.0,179.0,1744418847.2195163,0.0,2025-04-11 20:47:27.219,RIGHT,40
55.0,7394.381748960227,-10526.79992041587,-21351.772111865535,-23709.41176526687,14321.343817871073,13160.953004473808,32253.075510630075,52302.478528318235,0.0,0.0,0.0,193.0,0.0,193.0,0.0,17.0,0.0,179.0,193.0,17.0,179.0,1744418847.2195508,0.0,2025-04-11 20:47:27.219,RIGHT,40
56.0,7388.547943657392,-10543.787246201902,-21295.892750727267,-23725.16974510786,14493.139325754562,13079.525599423123,32468.456920201414,52325.25495591819,0.0,0.0,0.0,193.0,0.0,193.0,0.0,17.0,0.0,179.0,193.0,17.0,179.0,1744418847.2195857,0.0,2025-04-11 20:47:27.219,RIGHT,40
57.0,7385.1951819890955,-10571.123429670743,-21319.8314690389,-23757.713885034787,14502.974093314899,12862.445457273181,32690.163873453603,52205.00257074864,0.0,0.0,0.0,193.0,0.0,193.0,0.0,17.0,0.0,179.0,193.0,17.0,179.0,1744418847.2196207,0.0,2025-04-11 20:47:27.219,RIGHT,40
58.0,7394.493507682504,-10555.633670763216,-21353.247326999586,-23723.806288696087,14382.922873845444,12944.923394313264,32521.654072005043,52158.734459726154,0.0,0.0,0.0,193.0,0.0,193.0,0.0,17.0,0.0,179.0,193.0,17.0,179.0,1744418847.2196553,0.0,2025-04-11 20:47:27.219,RIGHT,40
59.0,7400.394368218705,-10536.478225765017,-21355.951888078678,-23696.715974416256,14314.325370112107,13165.155132431404,32280.590508054556,52282.25019958618,0.0,0.0,0.0,193.0,0.0,193.0,0.0,17.0,0.0,179.0,193.0,17.0,179.0,1744418847.2196903,0.0,2025-04-11 20:47:27.219,RIGHT,40
60.0,7396.281647238929,-10551.789170716902,-21294.328128615398,-23701.611006451967,14470.698174321435,13127.69360872431,32392.617451264556,52317.565955825565,0.0,0.0,0.0,193.0,0.0,193.0,0.0,17.0,0.0,180.0,193.0,17.0,180.0,1744418847.2197258,0.0,2025-04-11 20:47:27.219,RIGHT,40
61.0,7383.3176354548505,-10580.600569319793,-21305.101669442854,-23744.973390695264,14535.428826264004,12922.951629513696,32689.828597286774,52236.272661241615,0.0,0.0,0.0,193.0,0.0,193.0,0.0,17.0,0.0,179.0,193.0,17.0,179.0,1744418847.2197597,0.0,2025-04-11 20:47:27.219,RIGHT,40
62.0,7371.471210893537,-10568.172999402643,-21354.61078341136,-23732.903448689398,14404.13467933353,12925.186803959228,32568.570383616734,52161.75194522762,0.0,0.0,0.0,193.0,0.0,193.0,0.0,17.0,0.0,179.0,193.0,17.0,179.0,1744418847.2198102,0.0,2025-04-11 20:47:27.219,RIGHT,40
63.0,7400.014388562965,-10521.770777913425,-21357.27064100154,-23691.329204002526,14310.033835176688,13149.5536148016,32299.88006351949,52268.90620814636,0.0,0.0,0.0,193.0,0.0,193.0,0.0,17.0,0.0,179.0,193.0,17.0,179.0,1744418847.2198443,0.0,2025-04-11 20:47:27.219,RIGHT,40
64.0,7410.22913577904,-10524.587097714793,-21295.088087926877,-23693.676137170332,14444.211357141896,13146.200853133305,32315.950967782854,52310.234583644225,0.0,0.0,0.0,193.0,0.0,193.0,0.0,17.0,0.0,178.0,193.0,17.0,178.0,1744418847.219879,0.0,2025-04-11 20:47:27.219,RIGHT,40
65.0,7381.46244066506,-10563.590891789305,-21304.45346885365,-23751.008361698194,14548.169320603529,12952.344173472426,32667.901535976118,52265.844019155986,0.0,0.0,0.0,193.0,0.0,193.0,0.0,17.0,0.0,179.0,193.0,17.0,179.0,1744418847.2199132,0.0,2025-04-11 20:47:27.219,RIGHT,40
66.0,7386.849211078788,-10533.326629796818,-21345.670085629237,-23741.97825693825,14421.747853964313,12866.804047441967,32581.556747145267,52138.394372271825,0.0,0.0,0.0,193.0,0.0,193.0,0.0,17.0,0.0,179.0,193.0,17.0,179.0,1744418847.2199616,0.0,2025-04-11 20:47:27.219,RIGHT,40
67.0,7393.375920459738,-10522.955420369557,-21373.02862084253,-23713.658596713376,14307.776308986702,13120.205774331782,32338.794450616177,52241.4806176997,0.0,0.0,0.0,193.0,0.0,193.0,0.0,17.0,0.0,179.0,193.0,17.0,179.0,1744418847.219996,0.0,2025-04-11 20:47:27.219,RIGHT,40
68.0,7388.279722723928,-10547.542339270394,-21324.838259796892,-23707.288349543614,14386.588559936114,13168.686708055344,32282.19983365534,52316.873051747454,0.0,0.0,0.0,193.0,0.0,193.0,0.0,17.0,0.0,179.0,193.0,17.0,179.0,1744418847.2200303,0.0,2025-04-11 20:47:27.220,RIGHT,40
69.0,7354.238015918496,-10590.927075258145,-21298.619663550817,-23748.88494597494,14543.698971712467,13004.937828175764,32645.75095722091,52299.818670728055,0.0,0.0,0.0,193.0,0.0,193.0,0.0,17.0,0.0,179.0,193.0,17.0,179.0,1744418847.2200644,0.0,2025-04-11 20:47:27.220,RIGHT,40
70.0,7377.059147007364,-10570.832856992825,-21325.821736552924,-23738.26786735867,14447.362953110094,12857.63983221529,32614.905549872587,52148.47500902117,0.0,0.0,0.0,193.0,0.0,193.0,0.0,17.0,0.0,178.0,193.0,17.0,178.0,1744418847.2200983,0.0,2025-04-11 20:47:27.220,RIGHT,40
71.0,7385.1951819890955,-10550.112789882754,-21353.98493456661,-23697.07360232754,14334.061960466142,13099.105727565971,32389.801131463188,52223.465111668724,0.0,0.0,0.0,193.0,0.0,193.0,0.0,17.0,0.0,179.0,193.0,17.0,179.0,1744418847.220132,0.0,2025-04-11 20:47:27.220,RIGHT,40
72.0,7399.075615295842,-10534.555975741861,-21319.071509727422,-23688.91521560135,14361.845178824089,13188.199780964826,32264.363141580005,52307.75354000968,0.0,0.0,0.0,193.0,0.0,193.0,0.0,17.0,0.0,179.0,193.0,17.0,179.0,1744418847.2201662,0.0,2025-04-11 20:47:27.220,RIGHT,40
73.0,7399.746167629501,-10552.593833517294,-21276.44673305115,-23715.513791503166,14535.205308819452,13053.508168877146,32593.850206595685,52300.645685272895,0.0,0.0,0.0,193.0,0.0,193.0,0.0,17.0,0.0,178.0,193.0,17.0,178.0,1744418847.2202003,0.0,2025-04-11 20:47:27.220,RIGHT,40
74.0,7406.630504921735,-10550.291603838397,-21315.003492236556,-23727.36021606448,14472.709831322412,12861.93136715071,32649.371939822668,52149.436134032745,0.0,0.0,0.0,193.0,0.0,193.0,0.0,17.0,0.0,179.0,193.0,17.0,179.0,1744418847.2202344,0.0,2025-04-11 20:47:27.220,RIGHT,40
75.0,7413.358380002783,-10518.46271973404,-21332.92959128971,-23678.25343349617,14360.727591601324,13052.25647118765,32421.451201611904,52169.79857323153,0.0,0.0,0.0,193.0,0.0,193.0,0.0,17.0,0.0,179.0,193.0,17.0,179.0,1744418847.220276,0.0,2025-04-11 20:47:27.220,RIGHT,40
76.0,7409.759749145478,-10510.393739985675,-21315.31641665893,-23668.463369424746,14358.000678777777,13205.120051517493,32253.09786237453,52276.72931870572,0.0,0.0,0.0,193.0,0.0,193.0,0.0,17.0,0.0,179.0,193.0,17.0,179.0,1744418847.2203305,0.0,2025-04-11 20:47:27.220,RIGHT,40
77.0,7395.499336182993,-10546.312993325353,-21281.028840664487,-23708.987082122218,14525.012913347831,13090.813230373053,32543.894057738074,52302.36676959596,0.0,0.0,0.0,193.0,0.0,193.0,0.0,17.0,0.0,179.0,193.0,17.0,179.0,1744418847.2203832,0.0,2025-04-11 20:47:27.220,RIGHT,40
78.0,7383.65291162168,-10558.740563242503,-21321.01611149503,-23741.88884996043,14483.393965172048,12864.747686952078,32696.15414096763,52174.961826200706,0.0,0.0,0.0,193.0,0.0,193.0,0.0,17.0,0.0,179.0,193.0,17.0,179.0,1744418847.220415,0.0,2025-04-11 20:47:27.220,RIGHT,40
79.0,7387.8326878348225,-10541.216795589542,-21348.84403334189,-23702.30391053008,14355.676097354424,13004.311979331014,32491.970955368397,52162.154276627814,0.0,0.0,0.0,193.0,0.0,193.0,0.0,17.0,0.0,180.0,193.0,17.0,180.0,1744418847.2204473,0.0,2025-04-11 20:47:27.220,RIGHT,40
80.0,7403.769481631456,-10524.140062825689,-21333.108405245355,-23678.54400617409,14322.103777182554,13203.466022427801,32261.233897356262,52271.834286670004,0.0,0.0,0.0,193.0,0.0,193.0,0.0,17.0,0.0,179.0,193.0,17.0,179.0,1744418847.2204788,0.0,2025-04-11 20:47:27.220,RIGHT,40
81.0,7407.010484577476,-10526.46464424904,-21270.478817281582,-23692.312680758558,14504.941046826965,13137.662486751376,32449.569696136678,52293.023740413635,0.0,0.0,0.0,193.0,0.0,193.0,0.0,17.0,0.0,178.0,193.0,17.0,178.0,1744418847.2205236,0.0,2025-04-11 20:47:27.220,RIGHT,40
82.0,7397.2874757394175,-10548.481112537518,-21291.176532647198,-23726.063814886074,14524.20825054744,12920.89526902381,32687.70518156352,52182.74023327115,0.0,0.0,0.0,193.0,0.0,193.0,0.0,17.0,0.0,179.0,193.0,17.0,179.0,1744418847.220556,0.0,2025-04-11 20:47:27.220,RIGHT,40
83.0,7403.881240353733,-10537.75227519897,-21323.36304466284,-23698.191189550304,14396.51273447427,12985.156534332817,32524.15746738404,52126.726761666156,0.0,0.0,0.0,193.0,0.0,193.0,0.0,17.0,0.0,179.0,193.0,17.0,179.0,1744418847.220588,0.0,2025-04-11 20:47:27.220,RIGHT,40
84.0,7402.338969986316,-10519.155623812154,-21328.995684265577,-23684.690735899298,14322.282591138195,13213.345493477047,32292.548691338146,52253.9305393613,0.0,0.0,0.0,193.0,0.0,193.0,0.0,17.0,0.0,179.0,193.0,17.0,179.0,1744418847.2206197,0.0,2025-04-11 20:47:27.220,RIGHT,40
85.0,7397.332179228328,-10530.84558616228,-21272.669288238205,-23693.094991814494,14463.791485284744,13179.147324460428,32393.086837898118,52302.83615622952,0.0,0.0,0.0,193.0,0.0,193.0,0.0,17.0,0.0,179.0,193.0,17.0,179.0,1744418847.2206511,0.0,2025-04-11 20:47:27.220,RIGHT,40
86.0,7390.60430414728,-10565.356679601275,-21285.096858155353,-23734.646884756912,14533.39481751857,12962.7600863886,32703.50786489342,52228.829530338,0.0,0.0,0.0,193.0,0.0,193.0,0.0,17.0,0.0,179.0,193.0,17.0,179.0,1744418847.2206829,0.0,2025-04-11 20:47:27.220,RIGHT,40
87.0,7394.359397215771,-10549.777513715926,-21326.380530164308,-23710.26113155617,14406.727481690346,12937.882594809842,32572.616049363143,52132.96289836919,0.0,0.0,0.0,193.0,0.0,193.0,0.0,17.0,0.0,179.0,193.0,17.0,179.0,1744418847.2207148,0.0,2025-04-11 20:47:27.220,RIGHT,40
88.0,7395.8793158387325,-10521.70372268006,-21338.02578902552,-23682.276747498126,14314.817108490124,13173.738202302242,32314.63221485999,52237.85963509794,0.0,0.0,0.0,193.0,0.0,193.0,0.0,17.0,0.0,178.0,193.0,17.0,178.0,1744418847.2207463,0.0,2025-04-11 20:47:27.220,RIGHT,40
89.0,7405.557621187881,-10515.914620866135,-21274.9715179171,-23679.125151529926,14428.028694156254,13179.70611807181,32316.7779823277,52282.85369668647,0.0,0.0,0.0,193.0,0.0,193.0,0.0,17.0,0.0,179.0,193.0,17.0,179.0,1744418847.6956367,0.0,2025-04-11 20:47:27.695,RIGHT,40
90.0,7381.484792409515,-10556.594795774794,-21277.318451084906,-23727.78489920913,14539.698009454967,12992.197333836239,32671.589573811245,52242.352335733456,0.0,0.0,0.0,193.0,0.0,193.0,0.0,17.0,0.0,179.0,193.0,17.0,179.0,1744418847.695853,0.0,2025-04-11 20:47:27.695,RIGHT,40
91.0,7387.810336090367,-10541.954403156567,-21323.94419001868,-23718.08424211553,14422.150185364508,12886.987672685109,32596.26419499686,52117.11551155037,0.0,0.0,0.0,193.0,0.0,193.0,0.0,17.0,0.0,179.0,193.0,17.0,179.0,1744418847.695902,0.0,2025-04-11 20:47:27.695,RIGHT,40
92.0,7401.422548463649,-10513.277115020408,-21342.473786172126,-23679.415724207847,14319.399216103462,13120.339884798514,32346.72931989781,52206.50013762715,0.0,0.0,0.0,193.0,0.0,193.0,0.0,17.0,0.0,179.0,193.0,17.0,179.0,1744418847.696001,0.0,2025-04-11 20:47:27.696,RIGHT,40
93.0,7416.822900393356,-10511.645437675172,-21295.60217804935,-23674.990078805695,14398.122060075053,13180.17550470537,32273.05797017312,52273.44361227079,0.0,0.0,0.0,193.0,0.0,193.0,0.0,17.0,0.0,179.0,193.0,17.0,179.0,1744418847.6960483,0.0,2025-04-11 20:47:27.696,RIGHT,40
94.0,7387.69857736809,-10559.232301620521,-21283.129904643287,-23729.03659689863,14544.794207190778,13024.026217940596,32635.44680302701,52259.51847547513,0.0,0.0,0.0,193.0,0.0,193.0,0.0,17.0,0.0,178.0,193.0,17.0,178.0,1744418847.6960938,0.0,2025-04-11 20:47:27.696,RIGHT,40
95.0,7392.928885570632,-10550.9398044276,-21318.847992282866,-23730.69062598832,14453.95671772441,12867.07226837543,32632.429317525544,52119.663610418276,0.0,0.0,0.0,193.0,0.0,193.0,0.0,17.0,0.0,179.0,193.0,17.0,179.0,1744418847.696139,0.0,2025-04-11 20:47:27.696,RIGHT,40
96.0,7395.946371072098,-10529.392722772685,-21353.33673397741,-23701.78982040761,14339.068751224131,13083.235989002704,32406.252015382295,52182.85199199343,0.0,0.0,0.0,193.0,0.0,193.0,0.0,17.0,0.0,180.0,193.0,17.0,180.0,1744418847.6962042,0.0,2025-04-11 20:47:27.696,RIGHT,40
97.0,7410.296191012406,-10514.394702243175,-21317.663349826737,-23688.602291178977,14373.8927690855,13192.312501944603,32260.250420600227,52279.70210071828,0.0,0.0,0.0,193.0,0.0,193.0,0.0,17.0,0.0,179.0,193.0,17.0,179.0,1744418847.6962488,0.0,2025-04-11 20:47:27.696,RIGHT,40
98.0,7404.194164776107,-10550.112789882754,-21273.49630278305,-23716.720785703754,14567.436524324004,13075.412878443347,32586.518834414346,52291.1908973683,0.0,0.0,0.0,193.0,0.0,193.0,0.0,17.0,0.0,178.0,193.0,17.0,178.0,1744418847.6962943,0.0,2025-04-11 20:47:27.696,RIGHT,40
99.0,7399.768519373956,-10551.56565327235,-21310.153163689753,-23731.94232367782,14503.287017737273,12878.404602814271,32658.7596724939,52145.47987526416,0.0,0.0,0.0,193.0,0.0,193.0,0.0,17.0,0.0,179.0,193.0,17.0,179.0,1744418847.696339,0.0,2025-04-11 20:47:27.696,RIGHT,40
100.0,7393.577086159836,-10530.532661739906,-21350.006324053567,-23702.147448318894,14371.389373706506,13060.213692213738,32447.356873435605,52181.600294303935,0.0,0.0,0.0,193.0,0.0,193.0,0.0,17.0,0.0,179.0,193.0,17.0,179.0,1744418847.6963868,0.0,2025-04-11 20:47:27.696,RIGHT,40
101.0,7403.65772290918,-10521.770777913425,-21323.720672574123,-23683.14846553188,14355.094951998586,13213.546659177144,32245.028882626164,52287.83813570001,0.0,0.0,0.0,193.0,0.0,192.0,0.0,17.0,0.0,178.0,192.0,17.0,178.0,1744418847.6964357,0.0,2025-04-11 20:47:27.696,RIGHT,40
102.0,7392.07951928133,-10554.918414940646,-21268.0201253915,-23710.26113155617,14533.30541054075,13116.182460329826,32505.650222975044,52312.805034256584,0.0,0.0,0.0,193.0,0.0,193.0,0.0,17.0,0.0,179.0,193.0,17.0,179.0,1744418847.6964853,0.0,2025-04-11 20:47:27.696,RIGHT,40
103.0,7395.968722816554,-10548.034077648412,-21294.395183848763,-23733.88692544543,14508.316160239716,12889.602826786379,32663.69940801852,52176.839372734954,0.0,0.0,0.0,193.0,0.0,193.0,0.0,17.0,0.0,179.0,193.0,17.0,179.0,1744418847.6965322,0.0,2025-04-11 20:47:27.696,RIGHT,40
104.0,7393.8229553488445,-10528.051618105366,-21337.0870157584,-23705.50020998719,14379.279539499228,13016.58308703698,32480.19158604045,52162.69071849474,0.0,0.0,0.0,193.0,0.0,193.0,0.0,17.0,0.0,178.0,193.0,17.0,178.0,1744418847.6965764,0.0,2025-04-11 20:47:27.696,RIGHT,40
105.0,7412.03962707992,-10507.26449576193,-21327.78869006499,-23679.482779441212,14337.727646556814,13205.90236257343,32236.71403368879,52270.82845816952,0.0,0.0,0.0,193.0,0.0,192.0,0.0,17.0,0.0,179.0,192.0,17.0,179.0,1744418847.6966207,0.0,2025-04-11 20:47:27.696,RIGHT,40
106.0,7410.676170668146,-10534.84654841978,-21277.385506318275,-23701.856875640977,14507.712663139424,13143.876271709953,32415.662099797977,52307.015932442664,0.0,0.0,0.0,193.0,0.0,193.0,0.0,17.0,0.0,179.0,193.0,17.0,179.0,1744418847.6966624,0.0,2025-04-11 20:47:27.696,RIGHT,40
107.0,7399.969685074054,-10559.925205698635,-21301.860666496836,-23743.78874823913,14528.030398849298,12923.018684747063,32671.366056366693,52213.85386155294,0.0,0.0,0.0,193.0,0.0,193.0,0.0,17.0,0.0,179.0,193.0,17.0,179.0,1744418847.69673,0.0,2025-04-11 20:47:27.696,RIGHT,40
108.0,7397.198068761596,-10540.456836278063,-21340.015094282044,-23714.060928113573,14403.553533977692,12966.492827712635,32515.283824835282,52155.69462248023,0.0,0.0,0.0,193.0,0.0,192.0,0.0,17.0,0.0,178.0,192.0,17.0,178.0,1744418847.6967711,0.0,2025-04-11 20:47:27.696,RIGHT,40
109.0,7408.753920644989,-10513.925315609613,-21339.836280326403,-23679.996869563685,14324.294248139173,13190.054975754616,32263.558478779614,52264.05587959956,0.0,0.0,0.0,193.0,0.0,192.0,0.0,17.0,0.0,178.0,192.0,17.0,178.0,1744418847.6968114,0.0,2025-04-11 20:47:27.696,RIGHT,40
110.0,7407.591629933314,-10528.521004738928,-21279.97830867509,-23688.579939434523,14461.936290494954,13166.049202209617,32348.40570073196,52309.72049352175,0.0,0.0,0.0,193.0,0.0,193.0,0.0,17.0,0.0,179.0,193.0,17.0,179.0,1744418847.6968627,0.0,2025-04-11 20:47:27.696,RIGHT,40
111.0,7391.6548361366795,-10563.970871445044,-21288.74019250157,-23738.111405147483,14544.794207190778,12967.833932379954,32676.149329680127,52251.56125444904,0.0,0.0,0.0,193.0,0.0,193.0,0.0,17.0,0.0,179.0,193.0,17.0,179.0,1744418847.6970923,0.0,2025-04-11 20:47:27.697,RIGHT,40
112.0,7392.191278003607,-10562.026269677433,-21340.529184404517,-23728.74602422071,14415.936400405932,12936.161510486783,32561.216659690937,52156.432230047256,0.0,0.0,0.0,193.0,0.0,193.0,0.0,17.0,0.0,179.0,193.0,17.0,179.0,1744418847.6971283,0.0,2025-04-11 20:47:27.697,RIGHT,40
113.0,7389.218495991051,-10538.266365321442,-21361.584527681414,-23708.182419321827,14322.751977771757,13173.648795324421,32305.423296144403,52262.64771969888,0.0,0.0,0.0,193.0,0.0,192.0,0.0,17.0,0.0,179.0,192.0,17.0,179.0,1744418847.6971638,0.0,2025-04-11 20:47:27.697,RIGHT,40
114.0,7400.729644385535,-10524.005952358955,-21305.325186887407,-23707.623625710443,14420.876135930555,13182.120106472983,32282.40099935544,52319.108226192984,0.0,0.0,0.0,193.0,0.0,193.0,0.0,17.0,0.0,179.0,193.0,17.0,179.0,1744418847.697199,0.0,2025-04-11 20:47:27.697,RIGHT,40
115.0,7386.357472700772,-10553.867882951246,-21285.87916921129,-23738.960771436785,14555.098361384675,13008.223534610694,32640.543000762824,52282.69723447529,0.0,0.0,0.0,193.0,0.0,193.0,0.0,17.0,0.0,179.0,193.0,17.0,179.0,1744418847.697235,0.0,2025-04-11 20:47:27.697,RIGHT,40
116.0,7389.12908901323,-10553.376144573229,-21332.259038956054,-23730.109480632484,14442.982011196855,12904.17616417124,32590.02805829383,52153.2582823346,0.0,0.0,0.0,193.0,0.0,193.0,0.0,17.0,0.0,179.0,193.0,17.0,179.0,1744418847.6972704,0.0,2025-04-11 20:47:27.697,RIGHT,40
117.0,7388.123260512742,-10530.376199528719,-21366.636021928316,-23702.013337852164,14317.49931782476,13151.833492736041,32354.887706624,52247.739106147186,0.0,0.0,0.0,193.0,0.0,192.0,0.0,17.0,0.0,178.0,192.0,17.0,178.0,1744418847.6973064,0.0,2025-04-11 20:47:27.697,RIGHT,40
118.0,7406.183470032629,-10509.611428929738,-21317.68570157119,-23691.373907491437,14377.826676109635,13203.71189161681,32248.940437905843,52316.91775523636,0.0,0.0,0.0,193.0,0.0,193.0,0.0,17.0,0.0,179.0,193.0,17.0,179.0,1744418847.6973407,0.0,2025-04-11 20:47:27.697,RIGHT,40
119.0,7386.22336223404,-10556.818313219346,-21288.628433779293,-23728.343692820516,14547.319954314227,13048.903709519353,32601.896834599596,52309.07229293255,0.0,0.0,0.0,193.0,0.0,193.0,0.0,17.0,0.0,179.0,193.0,17.0,179.0,1744418847.6973853,0.0,2025-04-11 20:47:27.697,RIGHT,40
120.0,7392.615961148258,-10559.366412087253,-21326.089957486387,-23736.41267256888,14453.777903768767,12879.030451659019,32611.709250415475,52163.785953973056,0.0,0.0,0.0,193.0,0.0,192.0,0.0,17.0,0.0,178.0,192.0,17.0,178.0,1744418847.6974201,0.0,2025-04-11 20:47:27.697,RIGHT,40
121.0,7398.60622866228,-10525.257650048454,-21355.99659156759,-23706.103707087485,14337.101797712065,13093.584846685511,32380.927488914433,52216.11138774292,0.0,0.0,0.0,193.0,0.0,192.0,0.0,17.0,0.0,179.0,192.0,17.0,179.0,1744418847.697454,0.0,2025-04-11 20:47:27.697,RIGHT,40
122.0,7416.1299963152405,-10502.45887070404,-21325.285294685997,-23690.41278247986,14353.887957798,13202.571952649589,32212.28357699914,52301.271534117644,0.0,0.0,0.0,193.0,0.0,192.0,0.0,17.0,0.0,179.0,192.0,17.0,179.0,1744418847.6975212,0.0,2025-04-11 20:47:27.697,RIGHT,40
123.0,7399.299132740394,-10538.266365321442,-21281.699392998147,-23720.587637494522,14540.770893188823,13078.430363944814,32514.210941101428,52297.91877244935,0.0,0.0,0.0,193.0,0.0,193.0,0.0,17.0,0.0,179.0,193.0,17.0,179.0,1744418847.6975608,0.0,2025-04-11 20:47:27.697,RIGHT,40
124.0,7381.9094755541655,-10563.18856038911,-21324.391224907784,-23750.203698897803,14493.228732732385,12881.109163893363,32628.182486079037,52161.953110927716,0.0,0.0,0.0,193.0,0.0,193.0,0.0,17.0,0.0,178.0,193.0,17.0,178.0,1744418847.6975963,0.0,2025-04-11 20:47:27.697,RIGHT,40
125.0,7371.761783571456,-10555.343098085297,-21375.576719710436,-23732.7022829893,14351.742190330291,13048.859006030441,32435.197524451916,52194.54195434356,0.0,0.0,0.0,193.0,0.0,192.0,0.0,17.0,0.0,179.0,192.0,17.0,179.0,1744418847.697632,0.0,2025-04-11 20:47:27.697,RIGHT,40
126.0,7397.2874757394175,-10516.585173199794,-21350.587469409405,-23711.60223622349,14322.886088238489,13202.147269504938,32213.26705375517,52295.281266603626,0.0,0.0,0.0,193.0,0.0,193.0,0.0,17.0,0.0,179.0,193.0,17.0,179.0,1744418847.6977503,0.0,2025-04-11 20:47:27.697,RIGHT,40
127.0,7398.203897262085,-10535.628859475715,-21288.136695401277,-23724.45448928529,14513.702930653446,13112.06973935005,32451.223725226373,52308.40174059889,0.0,0.0,0.0,193.0,0.0,192.0,0.0,17.0,0.0,179.0,192.0,17.0,179.0,1744418847.697788,0.0,2025-04-11 20:47:27.697,RIGHT,40
128.0,7379.316673197351,-10563.23326387802,-21318.244495182575,-23755.679876289356,14509.277285251295,12902.857411248377,32661.710102761997,52204.08614922597,0.0,0.0,0.0,193.0,0.0,192.0,0.0,17.0,0.0,179.0,192.0,17.0,179.0,1744418847.6978247,0.0,2025-04-11 20:47:27.697,RIGHT,40
129.0,7365.927978268622,-10563.94851970059,-21364.669068416246,-23735.630361512944,14375.703260386379,13009.47523230019,32492.86502514661,52194.13962294336,0.0,0.0,0.0,193.0,0.0,193.0,0.0,17.0,0.0,178.0,193.0,17.0,178.0,1744418847.6978605,0.0,2025-04-11 20:47:27.697,RIGHT,40
130.0,7387.564466901358,-10536.254708320464,-21354.18610026671,-23713.904465902386,14316.918172468922,13202.303731716125,32248.24753382773,52305.80893824207,0.0,0.0,0.0,193.0,0.0,193.0,0.0,17.0,0.0,179.0,193.0,17.0,179.0,1744418847.6978955,0.0,2025-04-11 20:47:27.697,RIGHT,40
131.0,7389.50906866897,-10550.403362560673,-21292.65174778125,-23724.946227663306,14480.823514559688,13136.32138208406,32395.433771065924,52330.61937458746,0.0,0.0,0.0,193.0,0.0,193.0,0.0,17.0,0.0,179.0,193.0,17.0,179.0,1744418847.69793,0.0,2025-04-11 20:47:27.697,RIGHT,40
132.0,7366.59853060228,-10584.020386221455,-21317.059852726445,-23770.65554507441,14518.329741755695,12916.6484375773,32679.90442274862,52241.12298978842,0.0,0.0,0.0,193.0,0.0,192.0,0.0,17.0,0.0,179.0,192.0,17.0,179.0,1744418847.6979656,0.0,2025-04-11 20:47:27.697,RIGHT,40
133.0,7370.867713793245,-10563.792057489403,-21355.348390978383,-23744.548707550613,14392.645882683502,12943.291716968026,32545.92806648351,52174.827715733976,0.0,0.0,0.0,193.0,0.0,193.0,0.0,17.0,0.0,179.0,193.0,17.0,179.0,1744418847.6979997,0.0,2025-04-11 20:47:27.697,RIGHT,40
134.0,7398.852097851289,-10523.357751769752,-21356.734199134615,-23705.96959662075,14319.488623081283,13163.903434741907,32296.661412317924,52272.77305993713,0.0,0.0,0.0,193.0,0.0,193.0,0.0,17.0,0.0,179.0,193.0,17.0,179.0,1744418847.6980343,0.0,2025-04-11 20:47:27.698,RIGHT,40
135.0,7413.6042491917915,-10523.93889712559,-21308.007396222045,-23710.819925167554,14447.09473217663,13144.45741706579,32369.21517481985,52315.17431916885,0.0,0.0,0.0,193.0,0.0,193.0,0.0,17.0,0.0,179.0,193.0,17.0,179.0,1744418847.6980696,0.0,2025-04-11 20:47:27.698,RIGHT,40
136.0,7395.074653038341,-10537.975792643523,-21300.899541485258,-23750.270754131172,14550.06921888223,12952.99237406163,32715.48839992147,52257.57387370752,0.0,0.0,0.0,193.0,0.0,193.0,0.0,17.0,0.0,179.0,193.0,17.0,179.0,1744418847.698105,0.0,2025-04-11 20:47:27.698,RIGHT,40
137.0,7388.6597023796685,-10533.0360571189,-21332.70607384516,-23728.03076839814,14437.729351249856,12909.518231096057,32630.819991924764,52157.23689284765,0.0,0.0,0.0,193.0,0.0,192.0,0.0,17.0,0.0,179.0,192.0,17.0,179.0,1744418847.6981623,0.0,2025-04-11 20:47:27.698,RIGHT,40
138.0,7382.244751720996,-10538.445179277085,-21356.46597820115,-23704.15910531987,14333.324352899117,13155.521530571168,32405.626166537546,52274.5388477491,0.0,0.0,0.0,193.0,0.0,193.0,0.0,17.0,0.0,179.0,193.0,17.0,179.0,1744418847.698198,0.0,2025-04-11 20:47:27.698,RIGHT,40
139.0,7392.5936094038025,-10536.925260654123,-21306.129849687797,-23705.142582075907,14420.51850801927,13179.437897138347,32374.8925179115,52333.45804613329,0.0,0.0,0.0,193.0,0.0,192.0,0.0,17.0,0.0,178.0,192.0,17.0,178.0,1744418847.698232,0.0,2025-04-11 20:47:27.698,RIGHT,40
140.0,7378.400251674682,-10567.61420579126,-21289.36604134632,-23751.008361698194,14562.340326588193,13005.451918298235,32729.19001927257,52295.482432303725,0.0,0.0,0.0,193.0,0.0,192.0,0.0,17.0,0.0,179.0,192.0,17.0,179.0,1744418847.6982682,0.0,2025-04-11 20:47:27.698,RIGHT,40
141.0,7376.545056884892,-10560.394592332195,-21331.096748244378,-23746.627419784956,14451.632136301057,12894.766079755555,32699.4174956581,52172.12315465488,0.0,0.0,0.0,193.0,0.0,193.0,0.0,17.0,0.0,179.0,193.0,17.0,179.0,1744418847.6983492,0.0,2025-04-11 20:47:27.698,RIGHT,40
142.0,7388.279722723928,-10536.27706006492,-21354.297858988986,-23701.432192496326,14334.710161055347,13132.83450994903,32462.891335832042,52256.188065551294,0.0,0.0,0.0,193.0,0.0,193.0,0.0,17.0,0.0,179.0,193.0,17.0,179.0,1744418847.6983836,0.0,2025-04-11 20:47:27.698,RIGHT,40
143.0,7405.378807232239,-10520.65319069066,-21310.1308119453,-23688.758753390164,14398.680853686436,13209.344531219547,32353.568953701135,52332.20634844379,0.0,0.0,0.0,193.0,0.0,192.0,0.0,17.0,0.0,179.0,192.0,17.0,179.0,1744418847.6984177,0.0,2025-04-11 20:47:27.698,RIGHT,40
144.0,7392.347740214795,-10545.41892354714,-21278.614852263316,-23724.78976545212,14561.401553321071,13063.745267837676,32704.223120715993,52321.92454599435,0.0,0.0,0.0,193.0,0.0,193.0,0.0,17.0,0.0,179.0,193.0,17.0,179.0,1744418847.6984518,0.0,2025-04-11 20:47:27.698,RIGHT,40
145.0,7393.800603604389,-10551.27508059443,-21321.59725685087,-23733.238724856226,14475.950834268431,12891.815649487455,32743.6292461907,52183.72371002719,0.0,0.0,0.0,193.0,0.0,193.0,0.0,17.0,0.0,179.0,193.0,17.0,179.0,1744418847.6984856,0.0,2025-04-11 20:47:27.698,RIGHT,40
146.0,7406.161118288174,-10530.487958250995,-21348.50875717506,-23696.335994760513,14355.720800843335,13095.663558919854,32515.14971436855,52228.67306812681,0.0,0.0,0.0,193.0,0.0,193.0,0.0,17.0,0.0,179.0,193.0,17.0,179.0,1744418847.6985192,0.0,2025-04-11 20:47:27.698,RIGHT,40
147.0,7414.587725947825,-10514.305295265352,-21319.36208240534,-23694.369041248447,14358.023030522232,13216.742958634253,32347.846907120576,52324.763217540174,0.0,0.0,0.0,193.0,0.0,193.0,0.0,17.0,0.0,179.0,193.0,17.0,179.0,1744418847.6985528,0.0,2025-04-11 20:47:27.698,RIGHT,40
148.0,7398.449766451093,-10542.624955490226,-21278.92777668569,-23729.662445743375,14539.027457121309,13100.938570611308,32651.27183810137,52340.67765959235,0.0,0.0,0.0,193.0,0.0,193.0,0.0,17.0,0.0,179.0,193.0,17.0,179.0,1744418847.6985867,0.0,2025-04-11 20:47:27.698,RIGHT,40
149.0,7383.65291162168,-10555.410153318662,-21313.818849780422,-23751.83537624304,14499.196648501951,12888.887570963809,32776.06162739535,52204.868460281905,0.0,0.0,0.0,193.0,0.0,193.0,0.0,17.0,0.0,179.0,193.0,17.0,179.0,1744418847.698621,0.0,2025-04-11 20:47:27.698,RIGHT,40
150.0,7378.22143771904,-10539.696876966582,-21344.150167006275,-23717.905428159887,14376.016184808754,13038.15252043635,32569.4868051394,52208.48944288367,0.0,0.0,0.0,193.0,0.0,193.0,0.0,17.0,0.0,179.0,193.0,17.0,179.0,1744418847.698655,0.0,2025-04-11 20:47:27.698,RIGHT,40
151.0,7389.799641346889,-10519.781472656903,-21320.54672486147,-23694.391392992904,14356.167835732442,13212.317313232103,32353.05486357866,52311.21806040026,0.0,0.0,0.0,193.0,0.0,193.0,0.0,17.0,0.0,179.0,193.0,17.0,179.0,1744418847.6986885,0.0,2025-04-11 20:47:27.698,RIGHT,40
152.0,7384.03289127742,-10548.816388704347,-21275.530311528484,-23720.475878772246,14528.030398849298,13129.50410002519,32579.76860758884,52336.11790372347,0.0,0.0,0.0,193.0,0.0,193.0,0.0,17.0,0.0,179.0,193.0,17.0,179.0,1744418847.6987388,0.0,2025-04-11 20:47:27.698,RIGHT,40
153.0,7374.0416615058975,-10573.000976204989,-21313.103593957854,-23755.165786166883,14520.833137134689,12910.881687507832,32800.04504919589,52234.95390831875,0.0,0.0,0.0,193.0,0.0,193.0,0.0,17.0,0.0,179.0,193.0,17.0,179.0,1744418847.6987734,0.0,2025-04-11 20:47:27.698,RIGHT,40
154.0,7393.062996037364,-10539.94274615559,-21334.203640723663,-23701.946282618796,14398.837315897623,12996.980607149675,32604.243767767402,52189.781032774576,0.0,0.0,0.0,193.0,0.0,193.0,0.0,17.0,0.0,179.0,193.0,17.0,179.0,1744418847.6988072,0.0,2025-04-11 20:47:27.698,RIGHT,40
155.0,7407.904554355688,-10520.98846685749,-21332.661370356247,-23677.605232906968,14341.12511171402,13215.267743500202,32348.517459454237,52303.55141205209,0.0,0.0,0.0,193.0,0.0,193.0,0.0,17.0,0.0,179.0,193.0,17.0,179.0,1744418847.6988409,0.0,2025-04-11 20:47:27.698,RIGHT,40
156.0,7407.993961333509,-10526.352885526763,-21277.11728538481,-23694.860779626462,14490.926503053488,13180.17550470537,32476.8164726277,52355.78743884414,0.0,0.0,0.0,193.0,0.0,193.0,0.0,17.0,0.0,178.0,193.0,17.0,178.0,1744418847.69912,0.0,2025-04-11 20:47:27.699,RIGHT,40
157.0,7402.8083566198775,-10541.283850822909,-21289.902483213245,-23732.679931244842,14545.822387435723,12965.241130023138,32750.044196849372,52266.84984765647,0.0,0.0,0.0,193.0,0.0,193.0,0.0,17.0,0.0,179.0,193.0,17.0,179.0,1744418847.699157,0.0,2025-04-11 20:47:27.699,RIGHT,40
158.0,7395.99107456101,-10535.159472842155,-21335.99178028009,-23715.111460102973,14422.954848164898,12966.42577247927,32594.856035096174,52180.72857627017,0.0,0.0,0.0,193.0,0.0,193.0,0.0,17.0,0.0,179.0,193.0,17.0,179.0,1744418847.6991913,0.0,2025-04-11 20:47:27.699,RIGHT,40
159.0,7399.969685074054,-10515.288772021386,-21343.03257978351,-23689.988099335205,14337.057094223153,13196.782850835663,32328.19972374436,52289.58157176752,0.0,0.0,0.0,193.0,0.0,193.0,0.0,17.0,0.0,179.0,193.0,17.0,179.0,1744418847.699227,0.0,2025-04-11 20:47:27.699,RIGHT,40
160.0,7397.600400161791,-10523.871841892224,-21287.220273878607,-23698.079430828027,14465.646680074535,13196.492278157744,32366.734131185312,52346.578520128554,0.0,0.0,0.0,193.0,0.0,193.0,0.0,17.0,0.0,178.0,193.0,17.0,178.0,1744418847.6992612,0.0,2025-04-11 20:47:27.699,RIGHT,40
161.0,7377.461478407559,-10555.544263785394,-21288.091991912366,-23746.493309318223,14563.524969044325,12999.416947295304,32711.912120808618,52296.957647437775,0.0,0.0,0.0,193.0,0.0,193.0,0.0,17.0,0.0,179.0,193.0,17.0,179.0,1744418847.6992967,0.0,2025-04-11 20:47:27.699,RIGHT,40
162.0,7385.6645686226575,-10534.533623997406,-21329.88975404379,-23732.36700682247,14436.678819260458,12918.213059689173,32615.956081861987,52177.15229715733,0.0,0.0,0.0,193.0,0.0,193.0,0.0,17.0,0.0,179.0,193.0,17.0,179.0,1744418847.6993313,0.0,2025-04-11 20:47:27.699,RIGHT,40
163.0,7401.757824630478,-10508.426786473607,-21339.411597181752,-23681.717953886742,14338.778178546212,13161.400039362912,32362.06261659415,52273.55537099307,0.0,0.0,0.0,193.0,0.0,193.0,0.0,17.0,0.0,179.0,193.0,17.0,179.0,1744418847.6993723,0.0,2025-04-11 20:47:27.699,RIGHT,40
164.0,7415.437092237126,-10505.632818416694,-21283.68869825467,-23664.373000189426,14431.314400591184,13202.571952649589,32304.238653688273,52327.981868741736,0.0,0.0,0.0,193.0,0.0,193.0,0.0,17.0,0.0,178.0,193.0,17.0,178.0,1744418847.6994066,0.0,2025-04-11 20:47:27.699,RIGHT,40
165.0,7384.122298255241,-10558.47234230904,-21279.397163319252,-23718.75479444919,14575.438448839004,13046.579128096,32677.445730858533,52318.191804670314,0.0,0.0,0.0,193.0,0.0,193.0,0.0,17.0,0.0,179.0,193.0,17.0,179.0,1744418847.6994412,0.0,2025-04-11 20:47:27.699,RIGHT,40
166.0,7392.526554170437,-10548.101132881777,-21321.17257370622,-23719.872381671954,14472.48631387786,12913.452138120192,32656.010407925896,52185.511849583614,0.0,0.0,0.0,193.0,0.0,193.0,0.0,17.0,0.0,179.0,193.0,17.0,179.0,1744418847.6994753,0.0,2025-04-11 20:47:27.699,RIGHT,40
167.0,7410.899688112699,-10513.388873742686,-21344.820719339936,-23693.49732321469,14356.972498532832,13149.5536148016,32413.493980585812,52253.41644923884,0.0,0.0,0.0,193.0,0.0,193.0,0.0,17.0,0.0,179.0,193.0,17.0,179.0,1744418847.699541,0.0,2025-04-11 20:47:27.699,RIGHT,40
168.0,7434.637240724235,-10484.085736761777,-21302.821791508413,-23686.411820222358,14398.725557175347,13234.222022798303,32277.349505108537,52326.238432674225,0.0,0.0,0.0,193.0,0.0,193.0,0.0,17.0,0.0,179.0,193.0,17.0,179.0,1744418847.699576,0.0,2025-04-11 20:47:27.699,RIGHT,40
169.0,7403.5683159313585,-10534.958307142057,-21275.552663272938,-23728.053120142595,14574.633786038612,13100.335073511014,32627.46723025647,52333.301583922104,0.0,0.0,0.0,193.0,0.0,193.0,0.0,17.0,0.0,179.0,193.0,17.0,179.0,1744418847.6996112,0.0,2025-04-11 20:47:27.699,RIGHT,40
170.0,7388.212667490562,-10548.950499171078,-21318.490364371584,-23743.967562194775,14494.301616466239,12902.566838570458,32681.580803582765,52191.18919267526,0.0,0.0,0.0,193.0,0.0,193.0,0.0,17.0,0.0,179.0,193.0,17.0,179.0,1744418847.699646,0.0,2025-04-11 20:47:27.699,RIGHT,40
171.0,7387.65387387918,-10528.051618105366,-21346.1394722628,-23707.914198388364,14373.646899896492,13087.952207082773,32457.012827040297,52226.90728031484,0.0,0.0,0.0,193.0,0.0,193.0,0.0,17.0,0.0,178.0,193.0,17.0,178.0,1744418847.6996987,0.0,2025-04-11 20:47:27.699,RIGHT,40
172.0,7409.268010767461,-10505.185783527588,-21312.96948349112,-23691.418610980345,14377.849027854088,13216.944124334352,32262.552650279125,52312.31329587857,0.0,0.0,0.0,193.0,0.0,193.0,0.0,17.0,0.0,179.0,193.0,17.0,179.0,1744418847.6997335,0.0,2025-04-11 20:47:27.699,RIGHT,40
173.0,7400.975513574543,-10542.244975834486,-21265.092046867856,-23718.97831189374,14556.97590791892,13108.44875674829,32546.28569439479,52320.76225528267,0.0,0.0,0.0,193.0,0.0,193.0,0.0,17.0,0.0,179.0,193.0,17.0,179.0,1744418847.6997688,0.0,2025-04-11 20:47:27.699,RIGHT,40
174.0,7388.235019235018,-10551.297432338886,-21304.095840942366,-23742.917030205375,14515.44636672096,12898.834097246421,32691.75084730993,52191.166840930804,0.0,0.0,0.0,193.0,0.0,192.0,0.0,17.0,0.0,178.0,192.0,17.0,178.0,1744418847.699803,0.0,2025-04-11 20:47:27.699,RIGHT,40
175.0,7385.485754667015,-10536.99231588749,-21342.943172805688,-23711.758698434674,14383.772240134746,13040.09712220396,32501.649260717546,52200.107538712924,0.0,0.0,0.0,193.0,0.0,193.0,0.0,17.0,0.0,179.0,193.0,17.0,179.0,1744418847.6998396,0.0,2025-04-11 20:47:27.699,RIGHT,40
176.0,7414.386560247727,-10513.277115020408,-21321.59725685087,-23679.6392416524,14350.624603107526,13216.765310378709,32265.257211358217,52299.528098050134,0.0,0.0,0.0,193.0,0.0,193.0,0.0,17.0,0.0,179.0,193.0,17.0,179.0,1744418847.6998756,0.0,2025-04-11 20:47:27.699,RIGHT,40
177.0,7414.386560247727,-10532.410208274152,-21265.472026523596,-23698.705279672777,14534.624163463614,13142.825739720553,32472.815510370197,52320.985772727225,0.0,0.0,0.0,193.0,0.0,193.0,0.0,17.0,0.0,178.0,193.0,17.0,178.0,1744418847.699911,0.0,2025-04-11 20:47:27.699,RIGHT,40
178.0,7408.41864447816,-10542.177920601122,-21294.88692222678,-23738.580791781045,14551.052695638264,12909.182954929229,32709.811056829818,52213.71975108621,0.0,0.0,0.0,193.0,0.0,193.0,0.0,17.0,0.0,179.0,193.0,17.0,179.0,1744418847.6999483,0.0,2025-04-11 20:47:27.699,RIGHT,40
179.0,7407.390464233215,-10515.378178999208,-21340.104501259866,-23719.671215971855,14419.892659174522,12977.959272618207,32549.861973507643,52176.43704133476,0.0,0.0,0.0,193.0,0.0,193.0,0.0,17.0,0.0,179.0,193.0,17.0,179.0,1744418847.700018,0.0,2025-04-11 20:47:27.700,RIGHT,40
180.0,7406.965781088565,-10497.74265262397,-21332.437852911695,-23687.50705570067,14351.183396718909,13188.624464109476,32292.124008193496,52283.88187693142,0.0,0.0,0.0,193.0,0.0,193.0,0.0,17.0,0.0,179.0,193.0,17.0,179.0,1744418847.7000773,0.0,2025-04-11 20:47:27.700,RIGHT,40
181.0,7393.375920459738,-10534.84654841978,-21282.861683709823,-23707.40010826589,14497.587322901169,13153.643984036922,32412.734021274333,52334.776799056155,0.0,0.0,0.0,193.0,0.0,193.0,0.0,17.0,0.0,179.0,193.0,17.0,179.0,1744418847.7001162,0.0,2025-04-11 20:47:27.700,RIGHT,40
182.0,7385.485754667015,-10562.026269677433,-21294.864570482325,-23753.914088477384,14558.048791652775,12929.612449361379,32709.43107717408,52262.84888539898,0.0,0.0,0.0,193.0,0.0,193.0,0.0,18.0,0.0,179.0,193.0,18.0,179.0,1744418847.7001848,0.0,2025-04-11 20:47:27.700,RIGHT,40
183.0,7387.966798301554,-10546.827083447824,-21331.297913944472,-23726.868477686465,14437.863461716588,12919.621219589857,32575.991162775896,52173.33014885547,0.0,0.0,0.0,193.0,0.0,193.0,0.0,17.0,0.0,179.0,193.0,17.0,179.0,1744418847.7002206,0.0,2025-04-11 20:47:27.700,RIGHT,40
184.0,7404.484737454026,-10521.122577324222,-21335.969428535635,-23687.752924889675,14352.904481041967,13155.901510226908,32313.11229623703,52271.16373433635,0.0,0.0,0.0,193.0,0.0,193.0,0.0,17.0,0.0,179.0,193.0,17.0,179.0,1744418847.7002552,0.0,2025-04-11 20:47:27.700,RIGHT,40
185.0,7407.569278188858,-10522.620144202727,-21281.475875553595,-23689.384602234913,14473.067459233698,13174.788734291642,32331.887761579488,52326.9536884968,0.0,0.0,0.0,193.0,0.0,193.0,0.0,17.0,0.0,179.0,193.0,17.0,179.0,1744418847.7002933,0.0,2025-04-11 20:47:27.700,RIGHT,40
186.0,7389.553772157881,-10554.314917840353,-21277.229044107087,-23734.780995223642,14589.207123423474,12991.146801846839,32681.357286138213,52287.3911008109,0.0,0.0,0.0,193.0,0.0,193.0,0.0,17.0,0.0,179.0,193.0,17.0,179.0,1744418847.7003455,0.0,2025-04-11 20:47:27.700,RIGHT,40
187.0,7383.474097666037,-10546.335345069809,-21322.133698717797,-23731.674102744353,14463.210339928906,12904.757309527078,32606.50129395739,52176.973483201684,0.0,0.0,0.0,193.0,0.0,192.0,0.0,17.0,0.0,179.0,192.0,17.0,179.0,1744418847.70038,0.0,2025-04-11 20:47:27.700,RIGHT,40
