Sample Index,EXG Channel 0,EXG Channel 1,EXG Channel 2,EXG Channel 3,EXG Channel 4,EXG Channel 5,EXG Channel 6,EXG Channel 7,Accel Channel 0,Accel Channel 1,Accel Channel 2,Not Used,Digital Channel 0 (D11),Digital Channel 1 (D12),Digital Channel 2 (D13),Digital Channel 3 (D17),Not Used,Digital Channel 4 (D18),Analog Channel 0,Analog Channel 1,Analog Channel 2,Timestamp,Marker Channel,Timestamp (Formatted),Stimulus_Direction,Stimulus_Number
139.0,11385.263369710849,639.3269466551479,-56282.74307045258,-52585.518668355784,-32353.30073276767,-29583.114931954737,-312.0750560849972,-19574.49550324625,0.0,0.0,0.0,193.0,1.0,155.0,0.0,10.0,3.0,252.0,411.0,10.0,1020.0,1744252910.1795657,0.0,2025-04-09 22:41:50.179,RIGHT,42
140.0,11481.755850524409,653.4756008953573,-56271.54484648047,-52529.86282466207,-32380.905137169975,-29608.327699700323,-250.83127627745586,-19592.01927089921,0.0,0.0,0.0,193.0,1.0,154.0,0.0,9.0,3.0,250.0,410.0,9.0,1018.0,1744252910.1795745,0.0,2025-04-09 22:41:50.179,RIGHT,42
141.0,11477.531370822355,655.4649061518796,-56256.70328816215,-52588.044415479235,-32322.92471205291,-29536.064509876313,-370.74838528017824,-19535.648171382927,0.0,0.0,0.0,193.0,1.0,154.0,0.0,8.0,3.0,250.0,410.0,8.0,1018.0,1744252910.1795893,0.0,2025-04-09 22:41:50.179,RIGHT,42
142.0,11425.608268452677,659.935255042941,-56259.92193936372,-52551.007574916795,-32322.567084141625,-29544.625228002697,-248.97608148766537,-19530.440214924838,0.0,0.0,0.0,193.0,1.0,155.0,0.0,8.0,3.0,252.0,411.0,8.0,1020.0,1744252910.6517613,0.0,2025-04-09 22:41:50.651,RIGHT,42
143.0,11374.936863772497,631.1909116734162,-56288.71098622215,-52607.490433155355,-32349.903267610465,-29573.391923116676,-322.4239137678044,-19568.706401432326,0.0,0.0,0.0,193.0,1.0,154.0,0.0,7.0,3.0,250.0,410.0,7.0,1018.0,1744252910.6517968,0.0,2025-04-09 22:41:50.651,RIGHT,42
144.0,11462.287481103836,637.9858419878295,-56269.60024471286,-52527.359429283075,-32381.55333775918,-29606.159580488158,-244.70689829670172,-19595.707308734334,0.0,0.0,0.0,193.0,1.0,154.0,0.0,7.0,3.0,250.0,410.0,7.0,1018.0,1744252910.651817,0.0,2025-04-09 22:41:50.651,RIGHT,42
145.0,11485.913274993096,644.0431647352177,-56269.28732029049,-52601.83544180816,-32341.74488088428,-29548.60383851574,-364.7804695106113,-19549.662715156403,0.0,0.0,0.0,193.0,1.0,155.0,0.0,6.0,3.0,250.0,411.0,6.0,1018.0,1744252910.6518376,0.0,2025-04-09 22:41:50.651,RIGHT,42
146.0,11444.4507890285,666.3725574460694,-56244.49923568955,-52534.981374142335,-32313.894607292965,-29530.543628995852,-208.5641275124702,-19522.23712470974,0.0,0.0,0.0,193.0,1.0,155.0,0.0,6.0,3.0,248.0,411.0,6.0,1016.0,1744252910.6518552,0.0,2025-04-09 22:41:50.651,RIGHT,42
147.0,11372.6346340936,637.516455354268,-56292.399024057275,-52609.166813989505,-32349.76915714373,-29569.435664348086,-295.6912273992571,-19574.45079975734,0.0,0.0,0.0,193.0,1.0,154.0,0.0,6.0,3.0,250.0,410.0,6.0,1018.0,1744252910.651873,0.0,2025-04-09 22:41:50.651,RIGHT,42
148.0,11426.569393464255,632.3979058740027,-56277.24454131658,-52536.814217187675,-32390.382276819026,-29611.501647412977,-245.39980237481623,-19597.227227357296,0.0,0.0,0.0,193.0,1.0,154.0,0.0,5.0,3.0,250.0,410.0,5.0,1018.0,1744252910.6518905,0.0,2025-04-09 22:41:50.651,RIGHT,42
149.0,11482.873437747174,642.970281001363,-56285.02294838703,-52612.94425880245,-32364.633067206512,-29581.170330187124,-373.7435190371894,-19580.44106727136,0.0,0.0,0.0,193.0,1.0,154.0,0.0,5.0,3.0,250.0,410.0,5.0,1018.0,1744252910.6519084,0.0,2025-04-09 22:41:50.651,RIGHT,42
150.0,11444.674306473054,655.2860921962372,-56245.86269210133,-52550.56054002768,-32318.16379048393,-29548.89441119366,-280.6708551252908,-19549.081569800564,0.0,0.0,0.0,193.0,1.0,155.0,0.0,5.0,3.0,250.0,411.0,5.0,1018.0,1744252910.651926,0.0,2025-04-09 22:41:50.651,RIGHT,42
151.0,11390.560733146756,647.2841676812372,-56280.731413451605,-52603.712988342406,-32338.481526193802,-29563.087768922782,-307.3811897493827,-19562.269099029196,0.0,0.0,0.0,193.0,1.0,154.0,0.0,5.0,3.0,249.0,410.0,5.0,1017.0,1744252910.6519349,0.0,2025-04-09 22:41:50.651,RIGHT,42
152.0,11411.101986301182,624.7536092702877,-56267.879160389806,-52546.805446959195,-32375.764235945255,-29600.01285076295,-264.8458200509334,-19586.699555718846,0.0,0.0,0.0,193.0,1.0,154.0,0.0,5.0,3.0,250.0,410.0,5.0,1018.0,1744252910.6519437,0.0,2025-04-09 22:41:50.651,RIGHT,42
153.0,11494.675158819577,646.1218769695613,-56275.92578839372,-52592.06772948119,-32370.712741698357,-29586.60180408976,-356.0409374285862,-19591.035794143176,0.0,0.0,0.0,193.0,1.0,154.0,0.0,5.0,3.0,249.0,410.0,5.0,1017.0,1744252910.6519525,0.0,2025-04-09 22:41:50.651,RIGHT,42
154.0,11459.247643857914,658.8847230535416,-56228.31657270391,-52547.297185337215,-32301.556444353635,-29533.18113484158,-298.1052158004303,-19537.816290595092,0.0,0.0,0.0,193.0,1.0,155.0,0.0,4.0,3.0,252.0,411.0,4.0,1020.0,1744252910.651961,0.0,2025-04-09 22:41:50.651,RIGHT,42
155.0,11400.037872795805,648.6699758374663,-56272.10364009186,-52593.27472368178,-32326.92567431041,-29562.23840263348,-282.5260499150813,-19560.257442028218,0.0,0.0,0.0,193.0,1.0,154.0,0.0,4.0,3.0,249.0,410.0,4.0,1017.0,1744252910.65197,0.0,2025-04-09 22:41:50.651,RIGHT,42
156.0,11393.309997714758,622.7419522693101,-56270.78488716899,-52564.3068628677,-32363.850756150576,-29596.369516416733,-284.94003831625446,-19584.240863828763,0.0,0.0,0.0,193.0,1.0,154.0,0.0,4.0,3.0,251.0,410.0,4.0,1019.0,1744252910.6520102,0.0,2025-04-09 22:41:50.652,RIGHT,42
157.0,11496.642112331643,649.2064177043936,-56272.88595114779,-52569.7606885148,-32376.904174912477,-29599.543464129387,-321.35103003394966,-19589.560579009125,0.0,0.0,0.0,193.0,1.0,154.0,0.0,4.0,3.0,250.0,410.0,4.0,1018.0,1744252910.6520195,0.0,2025-04-09 22:41:50.652,RIGHT,42
158.0,11461.862797959186,655.5543131297009,-56240.677087387696,-52567.95019721392,-32316.53211313869,-29544.111137880223,-349.4248210698153,-19547.740465133247,0.0,0.0,0.0,193.0,1.0,154.0,0.0,4.0,3.0,249.0,410.0,4.0,1017.0,1744252910.6520283,0.0,2025-04-09 22:41:50.652,RIGHT,42
159.0,11399.792003606797,647.3065194256925,-56281.1337448518,-52590.54781085823,-32346.595209431078,-29577.974030730016,-294.953619832232,-19575.92601489139,0.0,0.0,0.0,193.0,1.0,154.0,0.0,4.0,3.0,252.0,410.0,4.0,1020.0,1744252910.6520371,0.0,2025-04-09 22:41:50.652,RIGHT,42
160.0,11369.77361080332,616.6175742885559,-56289.9850356561,-52596.04633999424,-32379.7428464583,-29614.09444976979,-335.65614648534614,-19619.824841001613,0.0,0.0,0.0,193.0,1.0,154.0,0.0,4.0,3.0,249.0,410.0,4.0,1017.0,1744252910.652046,0.0,2025-04-09 22:41:50.652,RIGHT,42
161.0,11482.18053366906,644.0431647352177,-56276.685747705196,-52554.74031624083,-32393.35505883158,-29620.062365539357,-302.307343758028,-19612.40406184245,0.0,0.0,0.0,193.0,1.0,154.0,0.0,4.0,3.0,250.0,410.0,4.0,1018.0,1744252910.6520548,0.0,2025-04-09 22:41:50.652,RIGHT,42
162.0,11466.64607127262,652.6932898394215,-56246.28737524598,-52581.048319464724,-32321.918883552422,-29537.047986632348,-364.8698764884325,-19532.317761459086,0.0,0.0,0.0,193.0,1.0,154.0,0.0,4.0,3.0,250.0,410.0,4.0,1018.0,1744252910.6520636,0.0,2025-04-09 22:41:50.652,RIGHT,42
163.0,11422.099044573193,667.3783859465583,-56258.60318644085,-52558.16013314249,-32327.529171410704,-29549.65437050514,-258.1402967143413,-19538.464491184295,0.0,0.0,0.0,193.0,1.0,154.0,0.0,3.0,3.0,250.0,410.0,3.0,1018.0,1744252910.6520724,0.0,2025-04-09 22:41:50.652,RIGHT,42
164.0,11370.600625348166,632.2190919183603,-56282.474849519116,-52597.94623827294,-32363.962514872852,-29584.81366453334,-330.51524526062553,-19584.97847139579,0.0,0.0,0.0,193.0,1.0,154.0,0.0,3.0,3.0,248.0,410.0,3.0,1016.0,1744252910.6520813,0.0,2025-04-09 22:41:50.652,RIGHT,42
165.0,11472.725745764465,646.7700775587651,-56267.54388422298,-52532.79090318572,-32393.17624487594,-29614.76500210345,-265.1587444733077,-19606.16792513942,0.0,0.0,0.0,193.0,1.0,155.0,0.0,3.0,3.0,250.0,411.0,3.0,1018.0,1744252910.65209,0.0,2025-04-09 22:41:50.652,RIGHT,42
166.0,11480.146524923626,656.2025137189047,-56253.93167184969,-52592.82768879267,-32335.15111626996,-29546.055739647836,-384.87468777593233,-19550.556784934615,0.0,0.0,0.0,193.0,1.0,155.0,0.0,3.0,3.0,250.0,411.0,3.0,1018.0,1744252910.652099,0.0,2025-04-09 22:41:50.652,RIGHT,42
167.0,11443.154387850092,677.4366709514464,-56239.760665865026,-52537.88710092153,-32316.82268581661,-29540.6242657452,-255.88277052435527,-19541.25845924121,0.0,0.0,0.0,193.0,1.0,154.0,0.0,3.0,3.0,249.0,410.0,3.0,1017.0,1744252910.6521072,0.0,2025-04-09 22:41:50.652,RIGHT,42
168.0,11380.703613841964,640.0198507332624,-56277.08807910539,-52603.288305197755,-32351.713758911344,-29573.257812649947,-325.307288802539,-19575.635442213472,0.0,0.0,0.0,193.0,1.0,154.0,0.0,3.0,3.0,248.0,410.0,3.0,1016.0,1744252910.652116,0.0,2025-04-09 22:41:50.652,RIGHT,42
169.0,11456.096047889716,645.808952547187,-56261.441857986676,-52524.76662692626,-32391.186939619416,-29606.472504910533,-257.246226936129,-19602.099907648553,0.0,0.0,0.0,193.0,1.0,154.0,0.0,3.0,3.0,249.0,410.0,3.0,1017.0,1744252910.652125,0.0,2025-04-09 22:41:50.652,RIGHT,42
170.0,11485.08626044825,652.0450892502176,-56264.61580569933,-52600.18141271847,-32349.456232721357,-29553.498870551455,-385.7911092985999,-19560.659773428415,0.0,0.0,0.0,193.0,1.0,154.0,0.0,3.0,3.0,250.0,410.0,3.0,1018.0,1744252910.6521335,0.0,2025-04-09 22:41:50.652,RIGHT,42
171.0,11444.629602984143,670.6193888925778,-56238.084285030876,-52535.49546426481,-32315.280415449193,-29536.243323831957,-258.8108490480005,-19538.48684292875,0.0,0.0,0.0,193.0,1.0,154.0,0.0,3.0,3.0,249.0,410.0,3.0,1017.0,1744252910.6521473,0.0,2025-04-09 22:41:50.652,RIGHT,42
172.0,11385.732756344409,652.6485863505109,-56276.886913405295,-52599.95789527392,-32342.616598918034,-29561.456091577544,-310.8233583955,-19565.800674653136,0.0,0.0,0.0,193.0,1.0,154.0,0.0,3.0,3.0,250.0,410.0,3.0,1018.0,1744252910.652156,0.0,2025-04-09 22:41:50.652,RIGHT,42
173.0,11424.334219018725,633.6943070524105,-56272.10364009186,-52540.03286838924,-32392.572747775645,-29614.161505003158,-262.0965554829306,-19609.364224596527,0.0,0.0,0.0,193.0,1.0,154.0,0.0,3.0,3.0,250.0,410.0,3.0,1018.0,1744252910.6521647,0.0,2025-04-09 22:41:50.652,RIGHT,42
174.0,11488.550780838821,652.9615107728853,-56279.882047162304,-52606.79752907724,-32375.518366756245,-29583.33844939929,-392.3178186795496,-19606.033814672686,0.0,0.0,0.0,193.0,1.0,154.0,0.0,3.0,3.0,250.0,410.0,3.0,1018.0,1744252910.6521733,0.0,2025-04-09 22:41:50.652,RIGHT,42
175.0,11451.156312365094,669.3006359697147,-56235.2232617406,-52543.4526852909,-32318.96845328432,-29536.71271046552,-298.373436733894,-19546.73463663276,0.0,0.0,0.0,193.0,1.0,154.0,0.0,3.0,3.0,250.0,410.0,3.0,1018.0,1744252910.652182,0.0,2025-04-09 22:41:50.652,RIGHT,42
176.0,11391.141878502594,655.8895892965304,-56273.28828254799,-52600.3155231852,-32340.53788668369,-29559.71265551003,-305.9730298486984,-19562.246747284742,0.0,0.0,0.0,193.0,1.0,154.0,0.0,3.0,3.0,250.0,410.0,3.0,1018.0,1744252910.6521907,0.0,2025-04-09 22:41:50.652,RIGHT,42
177.0,11406.385768221113,634.0742867081508,-56264.504046977054,-52552.57219702866,-32378.93818365791,-29601.398658919177,-273.3394829439501,-19590.20877959833,0.0,0.0,0.0,193.0,1.0,155.0,0.0,3.0,3.0,251.0,411.0,3.0,1019.0,1744252910.6521995,0.0,2025-04-09 22:41:50.652,RIGHT,42
178.0,11492.41763262959,648.289996181726,-56273.95883488165,-52590.39134864704,-32381.68744822591,-29591.295670425377,-347.6366815133907,-19582.631538227983,0.0,0.0,0.0,193.0,1.0,155.0,0.0,3.0,3.0,251.0,411.0,3.0,1019.0,1744252910.6522083,0.0,2025-04-09 22:41:50.652,RIGHT,42
179.0,11455.26903334487,662.3045399552036,-56229.70238086014,-52557.44487731992,-32312.7770200702,-29537.383262799176,-315.2043003087402,-19535.603467894016,0.0,0.0,0.0,193.0,1.0,155.0,0.0,3.0,3.0,251.0,411.0,3.0,1019.0,1744252910.652217,0.0,2025-04-09 22:41:50.652,RIGHT,42
180.0,11411.280800256825,672.3181214711811,-56262.268872531524,-52589.094947468635,-32331.574837157114,-29560.293800865868,-284.6718173827908,-19560.749180406237,0.0,0.0,0.0,193.0,1.0,155.0,0.0,3.0,3.0,252.0,411.0,3.0,1020.0,1744252910.6522255,0.0,2025-04-09 22:41:50.652,RIGHT,42
181.0,11399.121451273139,638.5893390881228,-56268.080326089905,-52576.15328742901,-32375.25014582278,-29602.22567346402,-302.5755646914917,-19596.243750601265,0.0,0.0,0.0,193.0,1.0,155.0,0.0,3.0,3.0,252.0,411.0,3.0,1020.0,1744252910.6522343,0.0,2025-04-09 22:41:50.652,RIGHT,42
182.0,11487.142620938137,643.2608536792819,-56273.265930803536,-52579.28253165276,-32393.019782664753,-29612.842752080294,-325.2402335691731,-19610.21359088583,0.0,0.0,0.0,193.0,1.0,155.0,0.0,3.0,3.0,251.0,411.0,3.0,1019.0,1744252910.652243,0.0,2025-04-09 22:41:50.652,RIGHT,42
183.0,11448.429399541546,642.6573565789887,-56237.458436186134,-52581.160078187,-32321.695366107866,-29545.049911147347,-357.09146941798565,-19551.093226801542,0.0,0.0,0.0,193.0,1.0,155.0,0.0,3.0,3.0,252.0,411.0,3.0,1020.0,1744252910.6522515,0.0,2025-04-09 22:41:50.652,RIGHT,42
184.0,11411.213745023459,664.1150312560834,-56247.76259038003,-52570.006557703804,-32318.879046306498,-29554.638809518674,-266.7010148407239,-19557.06114257111,0.0,0.0,0.0,193.0,1.0,155.0,0.0,3.0,3.0,252.0,411.0,3.0,1020.0,1744252910.6522603,0.0,2025-04-09 22:41:50.652,RIGHT,42
185.0,11371.002956748362,626.6535075489888,-56261.710078920136,-52588.06676722369,-32355.647665935478,-29589.99926924697,-312.1868148072737,-19595.72966047879,0.0,0.0,0.0,193.0,1.0,155.0,0.0,3.0,3.0,252.0,411.0,3.0,1020.0,1744252910.652269,0.0,2025-04-09 22:41:50.652,RIGHT,42
186.0,11471.094068419226,635.2142256753714,-56264.4816952326,-52560.06003142119,-32391.611622764067,-29624.599769663786,-287.8010616065337,-19621.523573580216,0.0,0.0,0.0,193.0,1.0,155.0,0.0,3.0,3.0,252.0,411.0,3.0,1020.0,1744252910.6522832,0.0,2025-04-09 22:41:50.652,RIGHT,42
187.0,11457.817132212775,631.9285192404412,-56241.83937809937,-52601.92484878598,-32331.150154012463,-29555.689341508074,-387.55689711056914,-19563.63255544097,0.0,0.0,0.0,193.0,1.0,155.0,0.0,3.0,3.0,252.0,411.0,3.0,1020.0,1744252910.652292,0.0,2025-04-09 22:41:50.652,RIGHT,42
188.0,11414.700617158487,652.2686066947707,-56243.00166881105,-52568.97837745886,-32324.221113231317,-29560.71848401052,-264.13056422836354,-19554.803616381123,0.0,0.0,0.0,193.0,1.0,155.0,0.0,3.0,3.0,252.0,411.0,3.0,1020.0,1744252910.6523008,0.0,2025-04-09 22:41:50.652,RIGHT,42
189.0,11354.373258873613,613.3542195980812,-56266.49335223358,-52616.02879953728,-32350.707930410856,-29593.150865215168,-324.1897015797736,-19594.567369767115,0.0,0.0,0.0,193.0,1.0,155.0,0.0,3.0,3.0,251.0,411.0,3.0,1019.0,1744252910.65231,0.0,2025-04-09 22:41:50.652,RIGHT,42
190.0,11443.064980872272,621.3561441130811,-56257.932634107194,-52553.5556737847,-32390.06935239665,-29627.34903423179,-255.36868040188318,-19606.234980372785,0.0,0.0,0.0,193.0,1.0,155.0,0.0,3.0,3.0,250.0,411.0,3.0,1018.0,1744252910.6523192,0.0,2025-04-09 22:41:50.652,RIGHT,42
191.0,11459.024126413362,631.4591326068798,-56250.46715145912,-52623.44957869644,-32342.54954368467,-29570.821472504318,-403.76191184066676,-19581.335137049573,0.0,0.0,0.0,193.0,1.0,155.0,0.0,3.0,3.0,251.0,411.0,3.0,1019.0,1744252910.652328,0.0,2025-04-09 22:41:50.652,RIGHT,42
192.0,11425.07182658575,650.9945572608182,-56231.98225879458,-52561.95992969989,-32318.09673525056,-29563.020713689413,-268.28798869705065,-19571.992107867256,0.0,0.0,0.0,193.0,1.0,155.0,0.0,2.0,3.0,250.0,411.0,2.0,1018.0,1744252910.6523366,0.0,2025-04-09 22:41:50.652,RIGHT,42
193.0,11361.123485699116,617.9363272114191,-56270.89664589127,-52628.16579677651,-32349.657398421456,-29589.976917502514,-335.65614648534614,-19598.16600062442,0.0,0.0,0.0,193.0,1.0,155.0,0.0,2.0,3.0,250.0,411.0,2.0,1018.0,1744252910.6523457,0.0,2025-04-09 22:41:50.652,RIGHT,42
194.0,11430.5480039773,622.0937516801062,-56254.445761972165,-52548.750048726804,-32389.242337851807,-29625.940874331103,-264.2423229506401,-19614.79569849917,0.0,0.0,0.0,193.0,1.0,155.0,0.0,2.0,3.0,252.0,411.0,2.0,1020.0,1744252910.6523545,0.0,2025-04-09 22:41:50.652,RIGHT,42
195.0,11465.886111961141,624.4406848479134,-56264.2805295325,-52630.15510203304,-32361.436767749405,-29584.36662964423,-406.82410083104384,-19588.35358480854,0.0,0.0,0.0,193.0,1.0,155.0,0.0,2.0,3.0,252.0,411.0,2.0,1020.0,1744252910.6523633,0.0,2025-04-09 22:41:50.652,RIGHT,42
196.0,11419.483890471924,629.5145308392681,-56237.36902920831,-52568.66545303648,-32329.02673828921,-29560.18204214359,-287.3763784618829,-19557.418770482396,0.0,0.0,0.0,193.0,1.0,155.0,0.0,3.0,3.0,249.0,411.0,3.0,1017.0,1744252910.652372,0.0,2025-04-09 22:41:50.652,RIGHT,42
197.0,11366.15262820156,621.1996819018939,-56273.71296569264,-52631.0715235557,-32351.557296700157,-29586.400638389667,-335.41027729633777,-19595.662605245427,0.0,0.0,0.0,193.0,1.0,155.0,0.0,2.0,3.0,250.0,411.0,2.0,1018.0,1744252910.6523805,0.0,2025-04-09 22:41:50.652,RIGHT,42
198.0,11399.814355351253,608.392132329003,-56265.062840588434,-52569.47011583688,-32397.378372833537,-29636.53560120292,-284.2471342381399,-19631.06776846263,0.0,0.0,0.0,193.0,1.0,154.0,0.0,3.0,3.0,250.0,410.0,3.0,1018.0,1744252910.6523893,0.0,2025-04-09 22:41:50.652,RIGHT,42
199.0,11461.438114814535,617.5116440667682,-56281.89370416328,-52638.78287539278,-32387.96828841785,-29622.67751964063,-394.0389030026082,-19631.246582418273,0.0,0.0,0.0,193.0,1.0,154.0,0.0,3.0,3.0,250.0,410.0,3.0,1018.0,1744252910.652398,0.0,2025-04-09 22:41:50.652,RIGHT,42
200.0,11428.871623143152,636.063591964673,-56234.55270940694,-52578.03083396326,-32326.411584187936,-29566.686399780087,-315.07018984200835,-19575.702497446837,0.0,0.0,0.0,193.0,1.0,154.0,0.0,2.0,3.0,250.0,410.0,2.0,1018.0,1744252910.6524067,0.0,2025-04-09 22:41:50.652,RIGHT,42
201.0,11380.25657895286,643.8643507795753,-56264.504046977054,-52617.191090248954,-32343.06363380714,-29577.14701618517,-317.9759166211983,-19584.21851208431,0.0,0.0,0.0,193.0,1.0,155.0,0.0,2.0,3.0,250.0,411.0,2.0,1018.0,1744252910.6524203,0.0,2025-04-09 22:41:50.652,RIGHT,42
202.0,11379.675433597022,602.8488997040868,-56271.45543950265,-52587.79854629023,-32393.109189642575,-29631.953493589583,-299.20045127874033,-19620.36128286854,0.0,0.0,0.0,193.0,1.0,154.0,0.0,2.0,3.0,250.0,410.0,2.0,1018.0,1744252910.652429,0.0,2025-04-09 22:41:50.652,RIGHT,42
203.0,11477.643129544633,623.2560423917821,-56278.831515172904,-52615.090026270154,-32398.8982914565,-29623.593941163297,-366.1662776668403,-19624.608114315048,0.0,0.0,0.0,193.0,1.0,154.0,0.0,2.0,3.0,249.0,410.0,2.0,1017.0,1744252910.652438,0.0,2025-04-09 22:41:50.652,RIGHT,42
204.0,11446.283632073837,637.3152896541703,-56238.39720945325,-52589.11729921309,-32335.01700580323,-29559.064454920826,-351.950568193265,-19571.88034914498,0.0,0.0,0.0,193.0,1.0,154.0,0.0,2.0,3.0,249.0,410.0,2.0,1017.0,1744252910.6524467,0.0,2025-04-09 22:41:50.652,RIGHT,42
205.0,11399.367320462146,644.2219786908602,-56266.91803537823,-52611.401988435035,-32348.942142598888,-29577.728161541007,-308.43172173878213,-19598.16600062442,0.0,0.0,0.0,193.0,1.0,154.0,0.0,2.0,3.0,249.0,410.0,2.0,1017.0,1744252910.6524556,0.0,2025-04-09 22:41:50.652,RIGHT,42
206.0,11372.031136993306,607.5874695286119,-56276.261064560545,-52605.165851732,-32392.528044286737,-29615.301443970377,-331.23050108319535,-19628.899649250467,0.0,0.0,0.0,193.0,1.0,154.0,0.0,2.0,3.0,250.0,410.0,2.0,1018.0,1744252910.6524642,0.0,2025-04-09 22:41:50.652,RIGHT,42
207.0,11465.997870683417,621.8702342355531,-56285.73820420959,-52600.89666854104,-32418.523123088256,-29629.114822043757,-339.52299827611427,-19626.373902127016,0.0,0.0,0.0,193.0,1.0,154.0,0.0,2.0,3.0,250.0,410.0,2.0,1018.0,1744252910.6524727,0.0,2025-04-09 22:41:50.652,RIGHT,42
208.0,11446.641259985121,632.0179262182625,-56246.24267175706,-52610.46321516791,-32344.292979752183,-29558.70682700954,-391.73667332371156,-19577.133009091976,0.0,0.0,0.0,193.0,1.0,154.0,0.0,2.0,3.0,250.0,410.0,2.0,1018.0,1744252910.6524818,0.0,2025-04-09 22:41:50.652,RIGHT,42
209.0,11406.63163741012,647.12770547005,-56261.06187833093,-52599.734377829365,-32347.332816998103,-29576.364705129232,-296.3617797329163,-19590.11937262051,0.0,0.0,0.0,193.0,1.0,154.0,0.0,2.0,3.0,251.0,410.0,2.0,1019.0,1744252910.6524904,0.0,2025-04-09 22:41:50.652,RIGHT,42
210.0,11358.77655253131,618.7186382673548,-56282.1842768412,-52622.51080542932,-32383.632049993525,-29602.62800486422,-346.31792859052763,-19601.362300081528,0.0,0.0,0.0,193.0,1.0,154.0,0.0,2.0,3.0,250.0,410.0,2.0,1018.0,1744252910.6524992,0.0,2025-04-09 22:41:50.652,RIGHT,42
211.0,11465.237911371936,642.2326734343378,-56271.209570313644,-52571.50412458231,-32409.872997984054,-29629.56185693286,-299.1333960453744,-19624.183431170397,0.0,0.0,0.0,193.0,1.0,154.0,0.0,2.0,3.0,249.0,410.0,2.0,1017.0,1744252910.6525078,0.0,2025-04-09 22:41:50.652,RIGHT,42
212.0,11455.559606022789,636.2871094092261,-56261.41950624222,-52630.490378199866,-32358.933372370408,-29574.5318620839,-409.39455144340417,-19586.58779699657,0.0,0.0,0.0,193.0,1.0,154.0,0.0,2.0,3.0,251.0,410.0,2.0,1019.0,1744252910.6525168,0.0,2025-04-09 22:41:50.652,RIGHT,42
213.0,11417.852213126685,653.453249150902,-56257.70911666264,-52587.64208407904,-32348.91979085443,-29577.303478396356,-283.50952667111477,-19582.0727446166,0.0,0.0,0.0,193.0,1.0,154.0,0.0,2.0,3.0,249.0,410.0,2.0,1017.0,1744252910.6525257,0.0,2025-04-09 22:41:50.652,RIGHT,42
214.0,11357.681317052999,616.841091733109,-56289.605056000364,-52641.93447136098,-32381.530986014724,-29610.562874145853,-356.5550275510583,-19622.79762301417,0.0,0.0,0.0,193.0,1.0,155.0,0.0,2.0,3.0,252.0,411.0,2.0,1020.0,1744252910.6525345,0.0,2025-04-09 22:41:50.652,RIGHT,42
215.0,11449.435228042035,631.5708913291563,-56270.293148790974,-52565.24563613482,-32410.476495084346,-29638.524906459443,-285.56588716100305,-19639.784948800203,0.0,0.0,0.0,193.0,1.0,155.0,0.0,2.0,3.0,251.0,411.0,2.0,1019.0,1744252910.652543,0.0,2025-04-09 22:41:50.652,RIGHT,42
216.0,11468.344803851225,638.0528972211954,-56264.6828609327,-52634.75956139083,-32367.181166074417,-29576.923498740616,-418.84933934799903,-19599.060070402633,0.0,0.0,0.0,193.0,1.0,155.0,0.0,2.0,3.0,252.0,411.0,2.0,1020.0,1744252910.652557,0.0,2025-04-09 22:41:50.652,RIGHT,42
217.0,11428.82691965424,658.772964331265,-56240.43121819869,-52566.720851268874,-32335.620502903523,-29555.912858952626,-244.68454655224642,-19561.15151180643,0.0,0.0,0.0,193.0,1.0,155.0,0.0,2.0,3.0,252.0,411.0,2.0,1020.0,1744252910.6525655,0.0,2025-04-09 22:41:50.652,RIGHT,42
218.0,11360.274119409814,626.8993767379972,-56286.43110828771,-52639.364020748624,-32373.193785332896,-29589.75340005796,-323.1168178459189,-19601.27289310371,0.0,0.0,0.0,193.0,1.0,155.0,0.0,2.0,3.0,251.0,411.0,2.0,1019.0,1744252910.6525743,0.0,2025-04-09 22:41:50.652,RIGHT,42
219.0,11420.82499513924,620.4173708459581,-56273.95883488165,-52566.96672045788,-32418.098439943606,-29636.490897714008,-276.98281729016514,-19638.9355825109,0.0,0.0,0.0,193.0,1.0,155.0,0.0,2.0,3.0,251.0,411.0,2.0,1019.0,1744252910.652583,0.0,2025-04-09 22:41:50.652,RIGHT,42
220.0,11468.188341640038,634.1413419415167,-56276.97632038312,-52639.006392837335,-32388.527082029235,-29595.631908849708,-415.47422593524766,-19616.002692699756,0.0,0.0,0.0,193.0,1.0,154.0,0.0,2.0,3.0,251.0,410.0,2.0,1019.0,1744252910.652592,0.0,2025-04-09 22:41:50.652,RIGHT,42
221.0,11421.182623050527,641.0256792337512,-56247.76259038003,-52582.05414796522,-32345.231753019307,-29575.47063535102,-301.10034955744146,-19586.54309350766,0.0,0.0,0.0,193.0,1.0,155.0,0.0,2.0,3.0,252.0,411.0,2.0,1020.0,1744252910.6526005,0.0,2025-04-09 22:41:50.652,RIGHT,42
222.0,11360.810561276741,624.6418505480111,-56289.04626238898,-52645.55545396274,-32368.946953886385,-29596.995365261482,-333.73389646218976,-19608.64896877396,0.0,0.0,0.0,193.0,1.0,155.0,0.0,2.0,3.0,252.0,411.0,2.0,1020.0,1744252910.652609,0.0,2025-04-09 22:41:50.652,RIGHT,42
223.0,11384.72692784392,604.905260193975,-56285.24646583158,-52591.01719749179,-32415.237416653326,-29647.711473430572,-295.3783029768828,-19657.55458564217,0.0,0.0,0.0,193.0,1.0,155.0,0.0,2.0,3.0,252.0,411.0,2.0,1020.0,1744252910.652618,0.0,2025-04-09 22:41:50.652,RIGHT,42
224.0,11457.973594423962,625.8041412596872,-56295.8858961923,-52645.95778536294,-32407.056678182686,-29619.95060681708,-396.25172570368363,-19627.69265504988,0.0,0.0,0.0,193.0,1.0,155.0,0.0,2.0,3.0,252.0,411.0,2.0,1020.0,1744252910.6526268,0.0,2025-04-09 22:41:50.652,RIGHT,42
225.0,11426.792910908809,640.3104234111814,-56248.52254969151,-52593.40883414851,-32342.504840195757,-29559.869117721217,-323.854425412944,-19559.34102050555,0.0,0.0,0.0,193.0,1.0,155.0,0.0,2.0,3.0,252.0,411.0,2.0,1020.0,1744252910.6526353,0.0,2025-04-09 22:41:50.652,RIGHT,42
226.0,11377.529666129312,632.0179262182625,-56291.32614032342,-52645.89073012957,-32370.444520764893,-29593.843769293282,-324.05559111304177,-19593.62859649999,0.0,0.0,0.0,193.0,1.0,155.0,0.0,2.0,3.0,251.0,411.0,2.0,1019.0,1744252910.652644,0.0,2025-04-09 22:41:50.652,RIGHT,42
227.0,11382.022366764828,610.4037893299806,-56286.69932922117,-52608.876241311584,-32408.30837587218,-29636.110918058268,-319.51818698861445,-19639.852004033568,0.0,0.0,0.0,193.0,1.0,155.0,0.0,2.0,3.0,251.0,411.0,2.0,1019.0,1744252910.6526527,0.0,2025-04-09 22:41:50.652,RIGHT,42
228.0,11471.831675986252,626.9440802269078,-56284.88883792029,-52618.666305383005,-32408.97892820584,-29624.353900474776,-360.24306538618396,-19633.660570819447,0.0,0.0,0.0,193.0,1.0,155.0,0.0,2.0,3.0,250.0,411.0,2.0,1018.0,1744252910.652661,0.0,2025-04-09 22:41:50.652,RIGHT,42
229.0,11439.287536059324,635.9294814979412,-56235.24561348506,-52591.955970758914,-32332.53596216869,-29548.38032107119,-352.64347227137955,-19562.716133918304,0.0,0.0,0.0,193.0,1.0,155.0,0.0,2.0,3.0,252.0,411.0,2.0,1020.0,1744252910.65267,0.0,2025-04-09 22:41:50.652,RIGHT,42
230.0,11377.01557600684,629.6709930504553,-56274.94231163768,-52618.33102921618,-32358.039302592195,-29579.762170286438,-304.58722169246937,-19592.913340677424,0.0,0.0,0.0,193.0,1.0,155.0,0.0,2.0,3.0,252.0,411.0,2.0,1020.0,1744252910.6526785,0.0,2025-04-09 22:41:50.652,RIGHT,42
231.0,11350.752276271854,593.8858501775087,-56280.88787566279,-52616.766407104304,-32390.158759374473,-29607.63479562221,-326.0225446251088,-19609.27481761871,0.0,0.0,0.0,193.0,1.0,155.0,0.0,2.0,3.0,251.0,411.0,2.0,1019.0,1744252910.652692,0.0,2025-04-09 22:41:50.652,RIGHT,42
232.0,11450.999850153907,614.2035858873828,-56283.97241639763,-52600.628447607574,-32417.78551552123,-29628.39956622119,-320.3899050223714,-19621.16594566893,0.0,0.0,0.0,193.0,1.0,155.0,0.0,2.0,3.0,252.0,411.0,2.0,1020.0,1744252910.652701,0.0,2025-04-09 22:41:50.652,RIGHT,42
233.0,11432.671419700555,622.4066761024804,-56250.15422703674,-52621.057942039726,-32349.612694932544,-29560.38320784369,-395.7599873256668,-19571.545072978148,0.0,0.0,0.0,193.0,1.0,155.0,0.0,2.0,3.0,250.0,411.0,2.0,1018.0,1744252910.6527095,0.0,2025-04-09 22:41:50.652,RIGHT,42
234.0,11384.615169121644,631.5708913291563,-56268.19208481218,-52608.09393025564,-32360.49799448228,-29581.058571464848,-302.2179367802068,-19588.375936552995,0.0,0.0,0.0,193.0,1.0,154.0,0.0,2.0,3.0,249.0,410.0,2.0,1017.0,1744252910.6527183,0.0,2025-04-09 22:41:50.652,RIGHT,42
235.0,11345.253747135848,605.7546264832768,-56279.27855006201,-52627.15996827602,-32386.6942389839,-29599.543464129387,-349.40246932536,-19608.246637373762,0.0,0.0,0.0,193.0,1.0,154.0,0.0,2.0,3.0,250.0,410.0,2.0,1018.0,1744252910.652727,0.0,2025-04-09 22:41:50.652,RIGHT,42
236.0,11447.758847207886,624.9100714814748,-56269.24261680158,-52571.39236586003,-32420.244207411317,-29629.047766810392,-305.1013118149414,-19640.187280200396,0.0,0.0,0.0,193.0,1.0,154.0,0.0,2.0,3.0,250.0,410.0,2.0,1018.0,1744252910.6527357,0.0,2025-04-09 22:41:50.652,RIGHT,42
237.0,11456.520731034367,639.2151879328713,-56245.013325812026,-52616.3193722152,-32359.425110748427,-29546.301608836846,-428.30412725259396,-19563.945479863345,0.0,0.0,0.0,193.0,1.0,155.0,0.0,2.0,3.0,250.0,411.0,2.0,1018.0,1744252910.6527443,0.0,2025-04-09 22:41:50.652,RIGHT,42
238.0,11416.622867181644,651.3968886610137,-56240.65473564324,-52571.16884841548,-32344.136517540996,-29556.069321163814,-284.47065168269296,-19562.000878095732,0.0,0.0,0.0,193.0,1.0,155.0,0.0,2.0,3.0,250.0,411.0,2.0,1018.0,1744252910.652753,0.0,2025-04-09 22:41:50.652,RIGHT,42
239.0,11346.036058191785,608.1686148844499,-56279.6361779733,-52639.69929691545,-32376.07716036763,-29601.644528108183,-337.3325273194942,-19606.860829217534,0.0,0.0,0.0,193.0,1.0,154.0,0.0,2.0,3.0,250.0,410.0,2.0,1018.0,1744252910.6527617,0.0,2025-04-09 22:41:50.652,RIGHT,42
240.0,11424.6471434411,613.8683097205532,-56263.27470103201,-52567.21258964689,-32411.057640440184,-29638.279037270433,-265.94105552924344,-19626.30684689365,0.0,0.0,0.0,193.0,1.0,154.0,0.0,2.0,3.0,250.0,410.0,2.0,1018.0,1744252910.6527703,0.0,2025-04-09 22:41:50.652,RIGHT,42
241.0,11460.678155503054,629.939213983919,-56251.09300030387,-52633.01612532332,-32358.531040970214,-29575.358876628743,-402.5102141511696,-19584.039698128665,0.0,0.0,0.0,193.0,1.0,154.0,0.0,2.0,3.0,250.0,410.0,2.0,1018.0,1744252910.652779,0.0,2025-04-09 22:41:50.652,RIGHT,42
242.0,11424.669495185553,646.6583188364887,-56224.31561044641,-52566.854961735604,-32329.429069689402,-29559.556193298842,-277.7427766016456,-19558.804578638625,0.0,0.0,0.0,193.0,1.0,154.0,0.0,2.0,3.0,250.0,410.0,2.0,1018.0,1744252910.6527877,0.0,2025-04-09 22:41:50.652,RIGHT,42
243.0,11367.627843335611,628.2851848942262,-56259.4302009857,-52626.623526409094,-32355.200631046373,-29579.09161795278,-328.436533026282,-19575.076648602088,0.0,0.0,0.0,193.0,1.0,154.0,0.0,2.0,3.0,249.0,410.0,2.0,1017.0,1744252910.6527965,0.0,2025-04-09 22:41:50.652,RIGHT,42
244.0,11427.64227719811,625.5806238151341,-56239.60420365384,-52546.403115559,-32390.784608219223,-29613.37919394722,-264.53289562855906,-19602.9269221934,0.0,0.0,0.0,193.0,1.0,154.0,0.0,2.0,3.0,249.0,410.0,2.0,1017.0,1744252910.652805,0.0,2025-04-09 22:41:50.652,RIGHT,42
245.0,11484.348652881225,641.517417611768,-56246.197968268156,-52616.922869315495,-32365.303619540173,-29578.130492941204,-394.91062103636517,-19587.146590607954,0.0,0.0,0.0,193.0,1.0,154.0,0.0,2.0,3.0,249.0,410.0,2.0,1017.0,1744252910.652814,0.0,2025-04-09 22:41:50.652,RIGHT,42
246.0,11436.627678469144,645.4736763803573,-56218.52650863249,-52563.9045314675,-32326.411584187936,-29552.13541413968,-294.8865645988661,-19548.411017466908,0.0,0.0,0.0,193.0,1.0,154.0,0.0,2.0,3.0,250.0,410.0,2.0,1018.0,1744252910.6528273,0.0,2025-04-09 22:41:50.652,RIGHT,42
247.0,11378.021404507328,637.3599931430809,-56262.11241032033,-52626.89174734256,-32354.64183743499,-29579.22572841951,-329.3529545489496,-19583.570311495103,0.0,0.0,0.0,193.0,1.0,154.0,0.0,2.0,3.0,249.0,410.0,2.0,1017.0,1744252910.652836,0.0,2025-04-09 22:41:50.652,RIGHT,42
248.0,11404.485869942411,620.4844260793241,-56247.36025897983,-52564.53038031225,-32389.8458349521,-29614.250911980977,-292.2714104975951,-19618.014349700734,0.0,0.0,0.0,193.0,1.0,154.0,0.0,2.0,3.0,250.0,410.0,2.0,1018.0,1744252910.6528444,0.0,2025-04-09 22:41:50.652,RIGHT,42
249.0,11480.928835979563,637.3823448875362,-56261.88889287578,-52615.69352337045,-32391.45516055288,-29600.61634786324,-386.4169581433485,-19610.414756585928,0.0,0.0,0.0,193.0,1.0,154.0,0.0,2.0,3.0,249.0,410.0,2.0,1017.0,1744252910.6528533,0.0,2025-04-09 22:41:50.652,RIGHT,42
250.0,11439.622812226155,648.8487897931087,-56221.74515983405,-52577.27087465178,-32333.519438924726,-29551.241344361468,-339.5453500205696,-19554.982430336768,0.0,0.0,0.0,193.0,1.0,154.0,0.0,2.0,3.0,250.0,410.0,2.0,1018.0,1744252910.6528623,0.0,2025-04-09 22:41:50.652,RIGHT,42
251.0,11382.715270842942,643.4396676349244,-56262.09005857588,-52621.84025309566,-32360.229773548817,-29583.852539521762,-330.55994874953615,-19592.131029621487,0.0,0.0,0.0,193.0,1.0,154.0,0.0,2.0,3.0,249.0,410.0,2.0,1017.0,1744252910.652871,0.0,2025-04-09 22:41:50.652,RIGHT,42
252.0,11376.568541117733,610.873175963542,-56260.95011960866,-52592.22419169238,-32400.88759671302,-29622.67751964063,-335.8349604409886,-19624.02696895921,0.0,0.0,0.0,193.0,1.0,154.0,0.0,2.0,3.0,250.0,410.0,2.0,1018.0,1744252910.6528797,0.0,2025-04-09 22:41:50.652,RIGHT,42
253.0,11473.239835886936,629.4698273503575,-56266.3815935113,-52602.50599414182,-32410.968233462365,-29623.728051630027,-362.81351599854423,-19617.813184000635,0.0,0.0,0.0,193.0,1.0,154.0,0.0,2.0,3.0,249.0,410.0,2.0,1017.0,1744252910.6528883,0.0,2025-04-09 22:41:50.652,RIGHT,42
254.0,11447.043591385316,640.8915687670194,-56222.706284845626,-52590.23488643586,-32334.97230231432,-29558.773882242906,-359.9971961971755,-19559.67629667238,0.0,0.0,0.0,193.0,1.0,155.0,0.0,2.0,3.0,251.0,411.0,2.0,1019.0,1744252910.652897,0.0,2025-04-09 22:41:50.652,RIGHT,42
255.0,11394.606398893166,647.2171124478713,-56251.450628215156,-52600.069653996194,-32352.227849033818,-29580.65624006465,-298.90987860082134,-19581.49159926076,0.0,0.0,0.0,193.0,1.0,155.0,0.0,2.0,3.0,252.0,411.0,2.0,1020.0,1744252910.6529057,0.0,2025-04-09 22:41:50.652,RIGHT,42
0.0,11368.946596258475,622.3843243580252,-56256.56917769542,-52598.885011540064,-32386.31425932816,-29604.371440931733,-348.48604780269244,-19604.580951283093,0.0,0.0,0.0,193.0,1.0,155.0,0.0,2.0,3.0,252.0,411.0,2.0,1020.0,1744252910.6529143,0.0,2025-04-09 22:41:50.652,RIGHT,42
1.0,11480.928835979563,641.3609554005809,-56251.227110770604,-52565.73737451284,-32409.291852628216,-29623.795106863396,-330.85052142745513,-19623.26700964773,0.0,0.0,0.0,193.0,1.0,155.0,0.0,2.0,3.0,251.0,411.0,2.0,1019.0,1744252910.6529229,0.0,2025-04-09 22:41:50.652,RIGHT,42
2.0,11472.278710875358,652.9391590284299,-56218.07947374338,-52589.78785154675,-32333.899418580466,-29549.43085306059,-400.00681877217517,-19563.38668625196,0.0,0.0,0.0,193.0,1.0,155.0,0.0,2.0,3.0,251.0,411.0,2.0,1019.0,1744252910.6529317,0.0,2025-04-09 22:41:50.652,RIGHT,42
3.0,11432.961992378474,670.0158917922845,-56224.69559010215,-52568.039604191734,-32331.776002857212,-29560.450263077055,-285.8117563500114,-19568.281718287675,0.0,0.0,0.0,193.0,1.0,154.0,0.0,2.0,3.0,251.0,410.0,2.0,1019.0,1744252910.6529405,0.0,2025-04-09 22:41:50.652,RIGHT,42
4.0,11382.603512120666,633.3143273966704,-56245.929747334696,-52607.15515698853,-32365.571840473636,-29593.128513470714,-349.9389111922874,-19608.179582140398,0.0,0.0,0.0,193.0,1.0,154.0,0.0,2.0,3.0,251.0,410.0,2.0,1019.0,1744252910.652949,0.0,2025-04-09 22:41:50.652,RIGHT,42
5.0,11468.858893973696,639.7069263108881,-56245.23684325658,-52559.054202920706,-32408.330727616638,-29640.558915204874,-307.3811897493827,-19655.922908296932,0.0,0.0,0.0,193.0,1.0,155.0,0.0,2.0,3.0,252.0,411.0,2.0,1020.0,1744252910.6529627,0.0,2025-04-09 22:41:50.652,RIGHT,42
6.0,11467.137809650638,639.9304437554412,-56238.59837515335,-52626.89174734256,-32356.74290141379,-29577.526995840908,-438.6306331909458,-19611.800564742156,0.0,0.0,0.0,193.0,1.0,155.0,0.0,2.0,3.0,252.0,411.0,2.0,1020.0,1744252911.0047433,0.0,2025-04-09 22:41:51.004,RIGHT,42
7.0,11417.36047474867,647.4406298924243,-56233.21160473962,-52580.04249096424,-32341.431956461904,-29565.99349570197,-298.4851954561705,-19567.92409037639,0.0,0.0,0.0,193.0,1.0,155.0,0.0,2.0,3.0,252.0,411.0,2.0,1020.0,1744252911.004782,0.0,2025-04-09 22:41:51.004,RIGHT,42
8.0,11345.38785760258,606.3134200946594,-56275.14347733778,-52648.46118074193,-32377.55237550168,-29596.995365261482,-367.70854803425647,-19591.102849376544,0.0,0.0,0.0,193.0,1.0,155.0,0.0,2.0,3.0,251.0,411.0,2.0,1019.0,1744252911.0048025,0.0,2025-04-09 22:41:51.004,RIGHT,42
9.0,11426.725855675442,617.0199056887515,-56252.09882880436,-52565.22328439037,-32407.280195627238,-29629.785374377418,-292.85255585343316,-19620.49539333527,0.0,0.0,0.0,193.0,1.0,155.0,0.0,2.0,3.0,251.0,411.0,2.0,1019.0,1744252911.0048227,0.0,2025-04-09 22:41:51.004,RIGHT,42
10.0,11466.020222427873,631.9732227293518,-56250.48950320358,-52635.094837557655,-32366.622372463036,-29573.570737072318,-428.7735138861554,-19588.44299178636,0.0,0.0,0.0,193.0,1.0,155.0,0.0,2.0,3.0,252.0,411.0,2.0,1020.0,1744252911.00484,0.0,2025-04-09 22:41:51.004,RIGHT,42
11.0,11419.036855582817,639.6398710775222,-56229.85884307133,-52575.14745892852,-32338.86150584954,-29558.23744037598,-302.4861577136705,-19560.279793772675,0.0,0.0,0.0,193.0,1.0,155.0,0.0,2.0,3.0,250.0,411.0,2.0,1018.0,1744252911.0048575,0.0,2025-04-09 22:41:51.004,RIGHT,42
12.0,11361.145837443572,622.9878214583184,-56261.88889287578,-52636.7265149029,-32356.36292175805,-29581.058571464848,-354.29750136107225,-19588.755916208735,0.0,0.0,0.0,193.0,1.0,155.0,0.0,2.0,3.0,251.0,411.0,2.0,1019.0,1744252911.0048673,0.0,2025-04-09 22:41:51.004,RIGHT,42
13.0,11409.582067678222,613.7565509982767,-56243.06872404442,-52560.77528724376,-32394.450294309892,-29623.48218244102,-292.2490587531398,-19622.39529161397,0.0,0.0,0.0,193.0,1.0,155.0,0.0,2.0,3.0,252.0,411.0,2.0,1020.0,1744252911.0048766,0.0,2025-04-09 22:41:51.004,RIGHT,42
14.0,11469.887074218641,626.3182313821592,-56250.71302064813,-52626.19884326444,-32374.736055700312,-29591.72035357003,-412.3226299670494,-19604.849172216556,0.0,0.0,0.0,193.0,1.0,155.0,0.0,2.0,3.0,251.0,411.0,2.0,1019.0,1744252911.0048857,0.0,2025-04-09 22:41:51.004,RIGHT,42
15.0,11428.983381865428,638.4999321103015,-56213.184441707665,-52567.078479180156,-32327.551523155158,-29552.917725195617,-313.2149950522179,-19555.20594778132,0.0,0.0,0.0,193.0,1.0,154.0,0.0,2.0,3.0,249.0,410.0,2.0,1017.0,1744252911.0048947,0.0,2025-04-09 22:41:51.004,RIGHT,42
16.0,11365.325613656714,624.3512778700922,-56261.95594810915,-52629.931584588485,-32360.69916018238,-29580.14214994218,-337.75721046414503,-19580.463419015818,0.0,0.0,0.0,193.0,1.0,154.0,0.0,2.0,3.0,249.0,410.0,2.0,1017.0,1744252911.0049033,0.0,2025-04-09 22:41:51.004,RIGHT,42
17.0,11390.650140124577,608.9732776848409,-56248.52254969151,-52574.23103740586,-32392.97507917584,-29613.468600925044,-305.3471810039498,-19607.933712951388,0.0,0.0,0.0,193.0,1.0,155.0,0.0,2.0,3.0,251.0,411.0,2.0,1019.0,1744252911.004912,0.0,2025-04-09 22:41:51.004,RIGHT,42
18.0,11478.805420256307,632.8002372741983,-56253.64109917177,-52607.80335757773,-32389.667020996458,-29596.928310028114,-370.5919230689911,-19604.91622744992,0.0,0.0,0.0,193.0,1.0,154.0,0.0,2.0,3.0,251.0,410.0,2.0,1019.0,1744252911.0049212,0.0,2025-04-09 22:41:51.004,RIGHT,42
19.0,11440.762751193375,646.5689118586674,-56216.22427895359,-52575.952121728915,-32332.73712786879,-29542.099480879246,-342.62989075540196,-19551.182633779365,0.0,0.0,0.0,193.0,1.0,155.0,0.0,2.0,3.0,250.0,411.0,2.0,1018.0,1744252911.0049303,0.0,2025-04-09 22:41:51.004,RIGHT,42
20.0,11383.363471432147,642.5232461122569,-56256.09979106186,-52615.98409604837,-32355.178279301916,-29575.76120802894,-319.51818698861445,-19580.463419015818,0.0,0.0,0.0,193.0,1.0,154.0,0.0,2.0,3.0,249.0,410.0,2.0,1017.0,1744252911.0049613,0.0,2025-04-09 22:41:51.004,RIGHT,42
21.0,11375.808581806254,614.7400277543102,-56249.483674703086,-52587.97736024587,-32384.25789883827,-29604.617310120742,-320.2781463000949,-19598.769497724712,0.0,0.0,0.0,193.0,1.0,154.0,0.0,2.0,3.0,249.0,410.0,2.0,1017.0,1744252911.0049703,0.0,2025-04-09 22:41:51.004,RIGHT,42
22.0,11473.999795198417,635.907129753486,-56252.769381138016,-52588.35733990161,-32401.60285253559,-29612.14984800218,-338.3607075644383,-19607.754898995747,0.0,0.0,0.0,193.0,1.0,155.0,0.0,2.0,3.0,251.0,411.0,2.0,1019.0,1744252911.0049794,0.0,2025-04-09 22:41:51.004,RIGHT,42
23.0,11444.629602984143,640.4445338779133,-56219.755854577525,-52595.86752603859,-32339.040319805186,-29554.661161263128,-381.3431121519938,-19570.941575877856,0.0,0.0,0.0,193.0,1.0,155.0,0.0,2.0,3.0,252.0,411.0,2.0,1020.0,1744252911.0049913,0.0,2025-04-09 22:41:51.004,RIGHT,42
24.0,11400.641369896099,650.8380950496311,-56239.98418330958,-52594.347607415635,-32347.086947809097,-29568.161614914134,-306.7106374157235,-19581.893930660957,0.0,0.0,0.0,193.0,1.0,155.0,0.0,2.0,3.0,252.0,411.0,2.0,1020.0,1744252911.0050027,0.0,2025-04-09 22:41:51.005,RIGHT,42
25.0,11361.637575821589,610.6049550300784,-56255.31748000592,-52611.066712268206,-32383.31912557115,-29607.56774038884,-351.7270507487119,-19623.915210236933,0.0,0.0,0.0,193.0,1.0,155.0,0.0,2.0,3.0,251.0,411.0,2.0,1019.0,1744252911.005015,0.0,2025-04-09 22:41:51.005,RIGHT,42
26.0,11468.143638151127,629.1121994390726,-56251.785904381984,-52574.54396182823,-32409.895349728507,-29629.025415065935,-317.19360556526254,-19620.003654957254,0.0,0.0,0.0,193.0,1.0,155.0,0.0,2.0,3.0,251.0,411.0,2.0,1019.0,1744252911.0050268,0.0,2025-04-09 22:41:51.005,RIGHT,42
27.0,11463.293309604325,645.5630833581786,-56221.40988366722,-52606.998694777336,-32337.788622115688,-29551.33075133929,-406.51117640866954,-19558.134026304964,0.0,0.0,0.0,193.0,1.0,155.0,0.0,2.0,3.0,251.0,411.0,2.0,1019.0,1744252911.0050383,0.0,2025-04-09 22:41:51.005,RIGHT,42
28.0,11420.087387572215,661.0751940101617,-56226.21550872511,-52573.78400251675,-32338.168601771427,-29559.26562062092,-294.81950936550015,-19564.593680452548,0.0,0.0,0.0,193.0,1.0,154.0,0.0,2.0,3.0,249.0,410.0,2.0,1017.0,1744252911.0050497,0.0,2025-04-09 22:41:51.005,RIGHT,42
29.0,11360.855264765652,623.3678011140587,-56255.339831750374,-52622.46610194041,-32373.909041155464,-29590.848635536273,-361.628873542413,-19603.26219836023,0.0,0.0,0.0,193.0,1.0,154.0,0.0,2.0,3.0,249.0,410.0,2.0,1017.0,1744252911.005062,0.0,2025-04-09 22:41:51.005,RIGHT,42
30.0,11453.235024599437,630.8109320176759,-56247.516721191016,-52563.0551651782,-32410.45414333989,-29629.494801699497,-298.26167801161745,-19622.864678247533,0.0,0.0,0.0,193.0,1.0,154.0,0.0,2.0,3.0,250.0,410.0,2.0,1018.0,1744252911.0050745,0.0,2025-04-09 22:41:51.005,RIGHT,42
31.0,11474.335071365247,648.357051415092,-56232.71986636161,-52625.528290930786,-32352.965456600843,-29563.020713689413,-429.91345285337604,-19575.478980002285,0.0,0.0,0.0,193.0,1.0,154.0,0.0,2.0,3.0,249.0,410.0,2.0,1017.0,1744252911.0050864,0.0,2025-04-09 22:41:51.005,RIGHT,42
32.0,11427.239945797915,656.4036794190025,-56226.684895358674,-52575.50508683981,-32342.057805306653,-29561.679609022096,-299.7145414012124,-19561.17386355089,0.0,0.0,0.0,193.0,1.0,155.0,0.0,2.0,3.0,251.0,411.0,2.0,1019.0,1744252911.0050983,0.0,2025-04-09 22:41:51.005,RIGHT,42
33.0,11363.135142700094,627.9275569829413,-56266.403945255755,-52646.27070978531,-32373.126730099528,-29593.016754748438,-367.66384454534585,-19596.802544212645,0.0,0.0,0.0,193.0,1.0,155.0,0.0,2.0,3.0,251.0,411.0,2.0,1019.0,1744252911.0051112,0.0,2025-04-09 22:41:51.005,RIGHT,42
34.0,11439.511053503878,638.9916704883183,-56240.34181122087,-52557.75780174229,-32397.89246295601,-29622.476353940532,-282.5931051484472,-19620.674207290915,0.0,0.0,0.0,193.0,1.0,155.0,0.0,2.0,3.0,251.0,411.0,2.0,1019.0,1744252911.0051234,0.0,2025-04-09 22:41:51.005,RIGHT,42
35.0,11470.825847485763,639.9527954998965,-56245.54976767895,-52630.2221572664,-32368.410512019458,-29573.078998694302,-422.64913590540124,-19593.516837777715,0.0,0.0,0.0,193.0,1.0,155.0,0.0,2.0,3.0,252.0,411.0,2.0,1020.0,1744252911.0051432,0.0,2025-04-09 22:41:51.005,RIGHT,42
36.0,11433.006695867383,655.7331270853433,-56215.37491266429,-52561.758763999795,-32332.49125867978,-29548.93911468257,-304.02842808108664,-19561.799712395634,0.0,0.0,0.0,193.0,1.0,155.0,0.0,2.0,3.0,252.0,411.0,2.0,1020.0,1744252911.0051556,0.0,2025-04-09 22:41:51.005,RIGHT,42
37.0,11371.360584659647,635.907129753486,-56254.49046546107,-52628.70223864344,-32356.765253158243,-29582.3326208988,-349.6259867699131,-19602.993977426766,0.0,0.0,0.0,193.0,1.0,155.0,0.0,2.0,3.0,252.0,411.0,2.0,1020.0,1744252911.0051684,0.0,2025-04-09 22:41:51.005,RIGHT,42
38.0,11403.949428075484,616.4164085884581,-56245.41565721222,-52564.753897756804,-32399.300622856692,-29631.26058951147,-298.99928557864257,-19638.309733666152,0.0,0.0,0.0,193.0,1.0,156.0,0.0,2.0,3.0,252.0,412.0,2.0,1020.0,1744252911.0051808,0.0,2025-04-09 22:41:51.005,RIGHT,42
39.0,11469.75296375191,630.676821550944,-56261.66537543123,-52629.97628807739,-32391.83514020862,-29605.980766532513,-423.9902405727197,-19619.17664041241,0.0,0.0,0.0,193.0,1.0,156.0,0.0,2.0,3.0,252.0,412.0,2.0,1020.0,1744252911.0051932,0.0,2025-04-09 22:41:51.005,RIGHT,42
40.0,11433.431379012034,646.5242083697568,-56214.97258126409,-52566.095002424125,-32331.038395290187,-29549.2743908494,-337.6454517418685,-19547.025209310676,0.0,0.0,0.0,193.0,1.0,155.0,0.0,2.0,3.0,250.0,411.0,2.0,1018.0,1744252911.005205,0.0,2025-04-09 22:41:51.005,RIGHT,42
41.0,11377.842590551685,641.2491966783043,-56248.96958458061,-52612.81014833572,-32347.086947809097,-29569.681533537096,-334.02446914010875,-19555.138892547955,0.0,0.0,0.0,193.0,1.0,155.0,0.0,2.0,3.0,252.0,411.0,2.0,1020.0,1744252911.0052166,0.0,2025-04-09 22:41:51.005,RIGHT,42
42.0,11392.818259336742,622.8537109915866,-56237.74900886405,-52563.703365767404,-32378.714666213356,-29609.177065989625,-310.5551374620363,-19595.908474434433,0.0,0.0,0.0,193.0,1.0,155.0,0.0,2.0,3.0,250.0,411.0,2.0,1018.0,1744252911.0052283,0.0,2025-04-09 22:41:51.005,RIGHT,42
43.0,11486.025033715372,643.0149844902736,-56244.90156708975,-52591.196011447435,-32379.519329013747,-29604.036164764904,-368.6696730458347,-19594.612073256027,0.0,0.0,0.0,193.0,1.0,155.0,0.0,2.0,3.0,251.0,411.0,2.0,1019.0,1744252911.00524,0.0,2025-04-09 22:41:51.005,RIGHT,42
44.0,11439.891033159618,643.3502606571031,-56214.234973697065,-52569.090136181134,-32321.58360738559,-29555.3764170857,-351.50353330415885,-19538.95622956231,0.0,0.0,0.0,193.0,1.0,155.0,0.0,2.0,3.0,249.0,411.0,2.0,1017.0,1744252911.0052512,0.0,2025-04-09 22:41:51.005,RIGHT,42
45.0,11386.179791233515,644.6466618355109,-56250.55655843694,-52595.33108417167,-32342.41543321794,-29583.71842905503,-321.1722160783072,-19567.946442120843,0.0,0.0,0.0,193.0,1.0,154.0,0.0,2.0,3.0,249.0,410.0,2.0,1017.0,1744252911.005263,0.0,2025-04-09 22:41:51.005,RIGHT,42
46.0,11371.852323037663,623.099580180595,-56245.281546745486,-52569.090136181134,-32367.87407015253,-29607.14305724419,-330.62700398290207,-19590.387593553973,0.0,0.0,0.0,193.0,1.0,154.0,0.0,2.0,3.0,251.0,410.0,2.0,1019.0,1744252911.0052748,0.0,2025-04-09 22:41:51.005,RIGHT,42
47.0,11460.633452014143,628.5534058276899,-56265.04048884398,-52570.83357224865,-32404.866207226063,-29629.38304297722,-352.33054784900526,-19605.609131528036,0.0,0.0,0.0,193.0,1.0,154.0,0.0,2.0,3.0,251.0,410.0,2.0,1019.0,1744252911.0052836,0.0,2025-04-09 22:41:51.005,RIGHT,42
48.0,11443.55671925029,641.2939001672149,-56226.193156980655,-52572.956987971906,-32330.770174356723,-29552.157765884134,-402.6443246179014,-19531.91543005889,0.0,0.0,0.0,193.0,1.0,155.0,0.0,2.0,3.0,252.0,411.0,2.0,1020.0,1744252911.0052924,0.0,2025-04-09 22:41:51.005,RIGHT,42
49.0,11397.445070438991,646.9488915144076,-56246.689706646175,-52564.64213903453,-32334.92759882541,-29572.766074271927,-308.96816360570955,-19548.880404100466,0.0,0.0,0.0,193.0,1.0,155.0,0.0,2.0,3.0,252.0,411.0,2.0,1020.0,1744252911.0053012,0.0,2025-04-09 22:41:51.005,RIGHT,42
50.0,11352.249843150359,607.3863038285141,-56266.51570397803,-52584.40108113302,-32372.098549854585,-29601.063382752345,-364.0875654324967,-19583.190331839363,0.0,0.0,0.0,193.0,1.0,155.0,0.0,2.0,3.0,252.0,411.0,2.0,1020.0,1744252911.0053098,0.0,2025-04-09 22:41:51.005,RIGHT,42
51.0,11457.258338601392,630.0062692172849,-56256.680936417695,-52531.49450200731,-32395.45612281038,-29617.022528293437,-318.24413755466196,-19587.07953537459,0.0,0.0,0.0,193.0,1.0,155.0,0.0,2.0,3.0,251.0,411.0,2.0,1019.0,1744252911.005326,0.0,2025-04-09 22:41:51.005,RIGHT,42
52.0,11457.973594423962,638.4552286213909,-56230.3729331938,-52573.560485072194,-32325.49516266527,-29548.80500421584,-420.8386446045214,-19540.297334229628,0.0,0.0,0.0,193.0,1.0,154.0,0.0,2.0,3.0,252.0,410.0,2.0,1020.0,1744252911.0053349,0.0,2025-04-09 22:41:51.005,RIGHT,42
53.0,11418.031027082328,658.4376881644355,-56226.93076454768,-52531.53920549622,-32312.10646773654,-29550.86136470573,-288.20339300672924,-19529.233220724254,0.0,0.0,0.0,193.0,1.0,155.0,0.0,2.0,3.0,252.0,411.0,2.0,1020.0,1744252911.0053434,0.0,2025-04-09 22:41:51.005,RIGHT,42
54.0,11366.823180535219,632.9566994853855,-56250.33304099239,-52577.71790954089,-32337.900380837964,-29578.130492941204,-349.15660013635164,-19564.05723858562,0.0,0.0,0.0,193.0,1.0,155.0,0.0,2.0,3.0,252.0,411.0,2.0,1020.0,1744252911.005352,0.0,2025-04-09 22:41:51.005,RIGHT,42
55.0,11454.307908333292,640.0422024777178,-56239.693610631664,-52507.75694939577,-32379.005238891274,-29620.040013794904,-284.47065168269296,-19600.289416347674,0.0,0.0,0.0,193.0,1.0,155.0,0.0,2.0,3.0,249.0,411.0,2.0,1017.0,1744252911.0053606,0.0,2025-04-09 22:41:51.005,RIGHT,42
56.0,11463.405068326601,636.0859437091284,-56243.26988974451,-52585.27279916678,-32340.761404128243,-29567.826338747305,-429.399362730904,-19561.643250184447,0.0,0.0,0.0,193.0,1.0,155.0,0.0,2.0,3.0,252.0,411.0,2.0,1020.0,1744252911.0053692,0.0,2025-04-09 22:41:51.005,RIGHT,42
57.0,11422.054341084284,658.1694672309718,-56222.43806391217,-52518.5975454566,-32314.29693869316,-29548.4250245601,-288.71748312920136,-19522.997084021223,0.0,0.0,0.0,193.0,1.0,154.0,0.0,2.0,3.0,250.0,410.0,2.0,1018.0,1744252911.005378,0.0,2025-04-09 22:41:51.005,RIGHT,42
58.0,11359.000069975862,631.83911226262,-56258.156151551746,-52582.79175553224,-32343.06363380714,-29576.923498740616,-353.89516996087673,-19563.38668625196,0.0,0.0,0.0,193.0,1.0,154.0,0.0,2.0,3.0,250.0,410.0,2.0,1018.0,1744252911.0053864,0.0,2025-04-09 22:41:51.005,RIGHT,42
59.0,11425.630620197133,625.3124028816704,-56242.1746542662,-52508.11457730706,-32382.782683704223,-29621.96226381806,-286.92934357277676,-19601.183486125887,0.0,0.0,0.0,193.0,1.0,155.0,0.0,2.0,3.0,250.0,411.0,2.0,1018.0,1744252911.0053952,0.0,2025-04-09 22:41:51.005,RIGHT,42
60.0,11472.479876575457,634.1413419415167,-56250.04246831447,-52583.75288054382,-32359.156889814964,-29572.341391127276,-425.398400473404,-19564.146645563444,0.0,0.0,0.0,193.0,1.0,154.0,0.0,2.0,3.0,250.0,410.0,2.0,1018.0,1744252911.005404,0.0,2025-04-09 22:41:51.005,RIGHT,42
61.0,11431.330315033236,649.9440252714188,-56219.08530224387,-52521.92795538044,-32320.845999818564,-29545.832222203284,-313.75143691914525,-19532.76479634819,0.0,0.0,0.0,193.0,1.0,154.0,0.0,2.0,3.0,249.0,410.0,2.0,1017.0,1744252911.0054128,0.0,2025-04-09 22:41:51.005,RIGHT,42
62.0,11373.707517827454,641.1821414449385,-56256.546825950965,-52584.24461892183,-32339.286188994192,-29572.65431554965,-347.43551581329297,-19566.471226986796,0.0,0.0,0.0,193.0,1.0,154.0,0.0,2.0,3.0,250.0,410.0,2.0,1018.0,1744252911.0054293,0.0,2025-04-09 22:41:51.005,RIGHT,42
63.0,11405.73756763191,629.067495950162,-56244.14160777827,-52517.658772189476,-32378.871128424544,-29612.753345102472,-299.55807919002524,-19596.154343623442,0.0,0.0,0.0,193.0,1.0,155.0,0.0,2.0,3.0,251.0,411.0,2.0,1019.0,1744252911.005438,0.0,2025-04-09 22:41:51.005,RIGHT,42
64.0,11483.32047263628,649.1393624710278,-56250.668317159216,-52568.17371465847,-32366.331799785115,-29584.970126744527,-405.0359612746193,-19581.78217193868,0.0,0.0,0.0,193.0,1.0,154.0,0.0,2.0,3.0,251.0,410.0,2.0,1019.0,1744252911.005447,0.0,2025-04-09 22:41:51.005,RIGHT,42
65.0,11439.533405248334,651.8439235501198,-56215.911354531214,-52522.82202515865,-32315.079249749095,-29542.99355065746,-344.19451286727343,-19542.174880763876,0.0,0.0,0.0,193.0,1.0,154.0,0.0,2.0,3.0,250.0,410.0,2.0,1018.0,1744252911.0054553,0.0,2025-04-09 22:41:51.005,RIGHT,42
66.0,11376.881465540107,638.7681530437652,-56264.90637837725,-52578.58962757464,-32347.578686187113,-29568.31807712532,-350.56476003703597,-19569.82398865509,0.0,0.0,0.0,193.0,1.0,154.0,0.0,2.0,3.0,251.0,410.0,2.0,1019.0,1744252911.005469,0.0,2025-04-09 22:41:51.005,RIGHT,42
67.0,11378.893122541085,613.0189434312515,-56259.206683541146,-52542.603319001595,-32382.64857323749,-29605.243158965488,-336.52786451910316,-19601.049375659153,0.0,0.0,0.0,193.0,1.0,154.0,0.0,2.0,3.0,250.0,410.0,2.0,1018.0,1744252911.0054777,0.0,2025-04-09 22:41:51.005,RIGHT,42
68.0,11477.46431558899,633.7390105413211,-56258.44672422967,-52556.68491800844,-32380.502805769782,-29595.14017047169,-367.32856837851625,-19588.48769527527,0.0,0.0,0.0,193.0,1.0,154.0,0.0,2.0,3.0,249.0,410.0,2.0,1017.0,1744252911.0054865,0.0,2025-04-09 22:41:51.005,RIGHT,42
69.0,11434.660724957077,636.9800134873407,-56229.43415992668,-52547.96773767087,-32324.712851609333,-29540.37839655619,-376.33632139400504,-19541.43727319685,0.0,0.0,0.0,193.0,1.0,155.0,0.0,2.0,3.0,251.0,411.0,2.0,1019.0,1744252911.0054955,0.0,2025-04-09 22:41:51.005,RIGHT,42
70.0,11397.467422183445,657.454211408402,-56245.281546745486,-52552.92982493995,-32327.618578388523,-29550.771957727906,-313.2596985411285,-19550.44502621234,0.0,0.0,0.0,193.0,1.0,154.0,0.0,2.0,3.0,251.0,410.0,2.0,1019.0,1744252911.0055044,0.0,2025-04-09 22:41:51.005,RIGHT,42
71.0,11369.036003236295,622.3396208691146,-56253.21641602712,-52550.426429560954,-32367.65055270798,-29593.79906580437,-336.3937540523713,-19596.51197153473,0.0,0.0,0.0,193.0,1.0,155.0,0.0,2.0,3.0,252.0,411.0,2.0,1020.0,1744252911.005513,0.0,2025-04-09 22:41:51.005,RIGHT,42
72.0,11464.008565426895,630.1850831729273,-56266.09102083338,-52548.772400471265,-32403.011012436273,-29631.707624400573,-351.81645772653314,-19638.756768555257,0.0,0.0,0.0,193.0,1.0,155.0,0.0,2.0,3.0,251.0,411.0,2.0,1019.0,1744252911.0055218,0.0,2025-04-09 22:41:51.005,RIGHT,42
73.0,11450.93279492054,644.0878682241283,-56226.64019186976,-52557.31076685319,-32322.343566697073,-29540.892486678662,-405.17007174135114,-19543.00189530872,0.0,0.0,0.0,193.0,1.0,155.0,0.0,2.0,3.0,252.0,411.0,2.0,1020.0,1744252911.0055304,0.0,2025-04-09 22:41:51.005,RIGHT,42
74.0,11406.810451365764,655.9789962743516,-56242.5769856664,-52543.34092656862,-32328.467944677825,-29550.816661216817,-303.8272623809889,-19534.955267304813,0.0,0.0,0.0,193.0,1.0,155.0,0.0,2.0,3.0,252.0,411.0,2.0,1020.0,1744252911.0055387,0.0,2025-04-09 22:41:51.005,RIGHT,42
75.0,11362.553997344256,619.612708045567,-56260.033698085994,-52573.13580192754,-32358.64279969249,-29584.14311219968,-360.9583212087538,-19579.81521842661,0.0,0.0,0.0,193.0,1.0,155.0,0.0,2.0,3.0,251.0,411.0,2.0,1019.0,1744252911.0055475,0.0,2025-04-09 22:41:51.005,RIGHT,42
76.0,11453.637355999632,625.938251726419,-56260.726602164104,-52530.77924618474,-32394.964384432365,-29621.850505095783,-316.34423927596083,-19611.241771130775,0.0,0.0,0.0,193.0,1.0,155.0,0.0,2.0,3.0,250.0,411.0,2.0,1018.0,1744252911.005556,0.0,2025-04-09 22:41:51.005,RIGHT,42
77.0,11452.02803039885,636.8459030206088,-56241.995840310556,-52584.73635729985,-32333.944122069377,-29554.169422885112,-436.3507552565045,-19563.40903799642,0.0,0.0,0.0,193.0,1.0,154.0,0.0,2.0,3.0,252.0,410.0,2.0,1020.0,1744252911.005565,0.0,2025-04-09 22:41:51.005,RIGHT,42
78.0,11407.97274207744,651.0839642386394,-56241.88408158828,-52544.74908646931,-32326.29982546566,-29562.350161355756,-308.565832205514,-19563.9678316078,0.0,0.0,0.0,193.0,1.0,154.0,0.0,2.0,3.0,250.0,410.0,2.0,1018.0,1744252911.0055735,0.0,2025-04-09 22:41:51.005,RIGHT,42
79.0,11346.505444825345,614.002420187285,-56278.45153551716,-52606.23873546586,-32359.961552615354,-29598.917615284638,-384.4276528868262,-19610.615922286026,0.0,0.0,0.0,193.0,1.0,154.0,0.0,2.0,3.0,249.0,410.0,2.0,1017.0,1744252911.0055823,0.0,2025-04-09 22:41:51.005,RIGHT,42
80.0,11432.783178422831,615.4105800879694,-56262.782962654,-52530.1981008289,-32397.89246295601,-29625.47148769754,-313.3044020300391,-19616.807355500147,0.0,0.0,0.0,193.0,1.0,154.0,0.0,2.0,3.0,249.0,410.0,2.0,1017.0,1744252911.0055912,0.0,2025-04-09 22:41:51.005,RIGHT,42
81.0,11456.051344400805,619.9032807234861,-56261.3300992644,-52603.020084264295,-32355.06652057964,-29566.619344546718,-451.97462463076414,-19570.44983749984,0.0,0.0,0.0,193.0,1.0,154.0,0.0,2.0,3.0,250.0,410.0,2.0,1018.0,1744252911.0056045,0.0,2025-04-09 22:41:51.005,RIGHT,42
82.0,11418.343951504703,640.8915687670194,-56236.474959430096,-52536.54599625421,-32324.466982420327,-29551.442510061566,-314.73491367517875,-19538.73271211776,0.0,0.0,0.0,193.0,1.0,154.0,0.0,2.0,3.0,250.0,410.0,2.0,1018.0,1744252911.005613,0.0,2025-04-09 22:41:51.005,RIGHT,42
83.0,11357.077819952705,626.9217284824525,-56272.01423311404,-52597.834479550664,-32346.30463675316,-29574.3306963838,-370.7036817912676,-19568.10290433203,0.0,0.0,0.0,193.0,1.0,155.0,0.0,2.0,3.0,250.0,411.0,2.0,1018.0,1744252911.005622,0.0,2025-04-09 22:41:51.005,RIGHT,42
84.0,11402.250695496881,614.807082987676,-56267.40977375624,-52534.62374623105,-32396.305489099683,-29629.114822043757,-317.1041985874413,-19616.6285415445,0.0,0.0,0.0,193.0,1.0,155.0,0.0,2.0,3.0,250.0,411.0,2.0,1018.0,1744252911.0056305,0.0,2025-04-09 22:41:51.005,RIGHT,42
85.0,11453.279728088348,623.5242633252458,-56278.697404706174,-52613.279534969275,-32374.244317322293,-29598.448228651076,-442.89981638190943,-19599.574160525102,0.0,0.0,0.0,193.0,1.0,154.0,0.0,2.0,3.0,250.0,410.0,2.0,1018.0,1744252911.0056393,0.0,2025-04-09 22:41:51.005,RIGHT,42
86.0,11416.466404970457,632.8449407631089,-56242.84520659986,-52551.23109236135,-32331.708947623843,-29566.485234079988,-345.75913497914496,-19567.49940723174,0.0,0.0,0.0,193.0,1.0,154.0,0.0,2.0,3.0,250.0,410.0,2.0,1018.0,1744252911.005648,0.0,2025-04-09 22:41:51.005,RIGHT,42
87.0,11358.262462408837,619.098617923095,-56278.71975645063,-52608.965648289406,-32352.049035078173,-29588.90403376866,-372.87180100343244,-19595.08145988959,0.0,0.0,0.0,193.0,1.0,154.0,0.0,2.0,3.0,249.0,410.0,2.0,1017.0,1744252911.0056567,0.0,2025-04-09 22:41:51.005,RIGHT,42
88.0,11388.6384831236,607.2745451062376,-56259.6313666858,-52541.39632480101,-32381.665096481454,-29618.207170749567,-325.1955300802625,-19610.101832163553,0.0,0.0,0.0,193.0,1.0,154.0,0.0,2.0,3.0,249.0,410.0,2.0,1017.0,1744252911.0056655,0.0,2025-04-09 22:41:51.005,RIGHT,42
89.0,11474.782106254353,629.4474756059022,-56262.067706831425,-52581.07067120918,-32369.75161668678,-29595.184873960603,-406.4441211753036,-19599.820029714112,0.0,0.0,0.0,193.0,1.0,154.0,0.0,2.0,3.0,249.0,410.0,2.0,1017.0,1744252911.0056741,0.0,2025-04-09 22:41:51.005,RIGHT,42
90.0,11428.715160931964,633.4931413523128,-56225.902584302734,-52542.08922887912,-32317.023851516708,-29542.948847168547,-355.8174199840331,-19543.828909853568,0.0,0.0,0.0,193.0,1.0,154.0,0.0,2.0,3.0,250.0,410.0,2.0,1018.0,1744252911.005683,0.0,2025-04-09 22:41:51.005,RIGHT,42
91.0,11367.538436357789,627.5028738382905,-56266.605110955854,-52587.8656015236,-32341.946046584377,-29571.08969343778,-348.91073094734327,-19572.953232878834,0.0,0.0,0.0,193.0,1.0,154.0,0.0,2.0,3.0,249.0,410.0,2.0,1017.0,1744252911.47476,0.0,2025-04-09 22:41:51.474,RIGHT,42
92.0,11361.525817099311,600.7701874697432,-56265.532227222,-52561.73641225534,-32378.53585225771,-29614.116801514247,-346.8096669685444,-19616.717948522324,0.0,0.0,0.0,193.0,1.0,154.0,0.0,2.0,3.0,250.0,410.0,2.0,1018.0,1744252911.4747992,0.0,2025-04-09 22:41:51.474,RIGHT,42
93.0,11466.109629405693,623.5466150697011,-56268.32619527891,-52571.280607137756,-32388.66119249597,-29611.27812996842,-381.723091807734,-19612.135840908988,0.0,0.0,0.0,193.0,1.0,155.0,0.0,2.0,3.0,251.0,411.0,2.0,1019.0,1744252911.4748197,0.0,2025-04-09 22:41:51.474,RIGHT,42
94.0,11439.108722103683,633.4707896078575,-56229.03182852648,-52560.998804688315,-32322.857656819542,-29546.18985011457,-400.5879641280132,-19555.943555348345,0.0,0.0,0.0,193.0,1.0,154.0,0.0,2.0,3.0,249.0,410.0,2.0,1017.0,1744252911.47484,0.0,2025-04-09 22:41:51.474,RIGHT,42
95.0,11385.464535410945,640.4221821334579,-56260.592491697374,-52579.61780781959,-32339.77792737221,-29575.76120802894,-334.62796624040203,-19584.889064417966,0.0,0.0,0.0,193.0,1.0,154.0,0.0,2.0,3.0,250.0,410.0,2.0,1018.0,1744252911.4748576,0.0,2025-04-09 22:41:51.474,RIGHT,42
96.0,11346.48309308089,597.1045013790729,-56275.61286397134,-52592.04537773674,-32379.876956925033,-29611.747516601983,-365.8980567333766,-19609.16305889643,0.0,0.0,0.0,193.0,1.0,154.0,0.0,2.0,3.0,250.0,410.0,2.0,1018.0,1744252911.4749084,0.0,2025-04-09 22:41:51.474,RIGHT,42
97.0,11453.190321110525,622.294917380204,-56269.48848599059,-52561.84817097762,-32399.79236123471,-29621.850505095783,-343.7698297226226,-19610.392404841474,0.0,0.0,0.0,193.0,1.0,155.0,0.0,2.0,3.0,251.0,411.0,2.0,1019.0,1744252911.4749289,0.0,2025-04-09 22:41:51.474,RIGHT,42
98.0,11439.01931512586,631.0568012066843,-56239.335982720375,-52586.77036604528,-32330.59136040108,-29551.66602750612,-422.98441207223084,-19561.129160061977,0.0,0.0,0.0,193.0,1.0,155.0,0.0,2.0,3.0,251.0,411.0,2.0,1019.0,1744252911.474938,0.0,2025-04-09 22:41:51.474,RIGHT,42
99.0,11392.594741892188,638.6116908325781,-56251.56238693743,-52565.91618846848,-32333.944122069377,-29564.384170101188,-310.4657304842151,-19562.11263681801,0.0,0.0,0.0,193.0,1.0,155.0,0.0,2.0,3.0,251.0,411.0,2.0,1019.0,1744252911.4749467,0.0,2025-04-09 22:41:51.474,RIGHT,42
100.0,11346.281927380793,607.9450974398968,-56269.04145110148,-52598.661494095504,-32367.382331774515,-29589.46282738004,-367.01564395614196,-19586.58779699657,0.0,0.0,0.0,193.0,1.0,155.0,0.0,2.0,3.0,253.0,411.0,2.0,1021.0,1744252911.4749556,0.0,2025-04-09 22:41:51.474,RIGHT,42
101.0,11439.376943037147,618.8303969896314,-56266.76157316704,-52548.97356617136,-32411.41526835147,-29633.04872906789,-323.96618413522054,-19628.60907657255,0.0,0.0,0.0,193.0,1.0,155.0,0.0,2.0,3.0,250.0,411.0,2.0,1018.0,1744252911.4749644,0.0,2025-04-09 22:41:51.474,RIGHT,42
102.0,11461.147542136616,634.6554320639888,-56236.11733151881,-52594.81699404919,-32338.168601771427,-29554.974085685502,-437.624804690457,-19572.193273567354,0.0,0.0,0.0,193.0,1.0,155.0,0.0,2.0,3.0,251.0,411.0,2.0,1019.0,1744252911.4749734,0.0,2025-04-09 22:41:51.474,RIGHT,42
103.0,11405.268180998348,640.064554222173,-56241.45939844363,-52555.477923807855,-32336.44751744837,-29568.09455968077,-308.58818394996933,-19566.806503153624,0.0,0.0,0.0,193.0,1.0,155.0,0.0,2.0,3.0,250.0,411.0,2.0,1018.0,1744252911.4749825,0.0,2025-04-09 22:41:51.474,RIGHT,42
104.0,11335.15075864205,608.2133183733605,-56280.95493089616,-52624.16483451901,-32371.584459732112,-29602.024507763927,-384.87468777593233,-19608.626617029502,0.0,0.0,0.0,193.0,1.0,155.0,0.0,2.0,3.0,251.0,411.0,2.0,1019.0,1744252911.4749913,0.0,2025-04-09 22:41:51.474,RIGHT,42
105.0,11424.02129459635,621.1102749240727,-56253.395229982765,-52539.16115035548,-32397.333669344625,-29628.39956622119,-311.91859387381004,-19625.971570726822,0.0,0.0,0.0,193.0,1.0,155.0,0.0,1.0,3.0,251.0,411.0,1.0,1019.0,1744252911.475,0.0,2025-04-09 22:41:51.475,RIGHT,42
106.0,11465.41672532758,638.902263510497,-56244.432180456184,-52601.969552274895,-32350.618523433033,-29565.90408872415,-449.0688978515742,-19579.63640447097,0.0,0.0,0.0,193.0,1.0,155.0,0.0,2.0,3.0,251.0,411.0,2.0,1019.0,1744252911.4750092,0.0,2025-04-09 22:41:51.475,RIGHT,42
107.0,11418.031027082328,646.7030223253993,-56225.74612209155,-52540.234034089335,-32325.562217898634,-29555.75639674144,-320.7475329336564,-19560.190386794853,0.0,0.0,0.0,193.0,1.0,155.0,0.0,2.0,3.0,251.0,411.0,2.0,1019.0,1744252911.4750185,0.0,2025-04-09 22:41:51.475,RIGHT,42
108.0,11357.971889730918,626.6088040600782,-56264.74991616606,-52607.15515698853,-32349.724453654824,-29582.109103454248,-366.1662776668403,-19584.956119651335,0.0,0.0,0.0,193.0,1.0,155.0,0.0,2.0,3.0,249.0,411.0,2.0,1017.0,1744252911.4750268,0.0,2025-04-09 22:41:51.475,RIGHT,42
109.0,11414.342989247203,620.6855917794218,-56241.727619377096,-52524.856033904085,-32383.185015104416,-29616.843714337792,-299.4239687232934,-19606.749070495258,0.0,0.0,0.0,193.0,1.0,155.0,0.0,2.0,3.0,252.0,411.0,2.0,1020.0,1744252911.475036,0.0,2025-04-09 22:41:51.475,RIGHT,42
110.0,11471.27288237487,632.7331820408323,-56251.76355263753,-52593.3641306596,-32366.577668974125,-29589.552234357863,-426.47128420725875,-19591.952215665846,0.0,0.0,0.0,193.0,1.0,155.0,0.0,2.0,3.0,252.0,411.0,2.0,1020.0,1744252911.4750445,0.0,2025-04-09 22:41:51.475,RIGHT,42
111.0,11433.543137734312,652.4474206504132,-56210.971619006596,-52531.427446773945,-32313.984014270787,-29551.598972272754,-333.30921331753893,-19550.377970978974,0.0,0.0,0.0,193.0,1.0,155.0,0.0,2.0,3.0,251.0,411.0,2.0,1019.0,1744252911.4751105,0.0,2025-04-09 22:41:51.475,RIGHT,42
112.0,11375.138029472593,643.0596879791842,-56252.16588403772,-52589.76549980229,-32339.755575627754,-29575.537690584388,-357.2255798847175,-19577.490637003262,0.0,0.0,0.0,193.0,1.0,155.0,0.0,2.0,3.0,251.0,411.0,2.0,1019.0,1744252911.4751196,0.0,2025-04-09 22:41:51.475,RIGHT,42
113.0,11394.449936681978,624.9771267148408,-56241.81702635492,-52538.95998465538,-32377.35120980158,-29620.95643531757,-333.08569587298587,-19633.146480696974,0.0,0.0,0.0,193.0,1.0,155.0,0.0,2.0,3.0,252.0,411.0,2.0,1020.0,1744252911.4751284,0.0,2025-04-09 22:41:51.475,RIGHT,42
114.0,11475.027975443361,634.1860454304273,-56257.731468407095,-52582.56823808769,-32382.961497659864,-29609.266472967443,-412.74731311170024,-19621.92590498041,0.0,0.0,0.0,193.0,1.0,155.0,0.0,2.0,3.0,252.0,411.0,2.0,1020.0,1744252911.475137,0.0,2025-04-09 22:41:51.475,RIGHT,42
115.0,11435.063056357272,640.712754811377,-56220.13583423327,-52550.04644990522,-32325.74103185428,-29549.4755565495,-377.31979815003854,-19545.661752898905,0.0,0.0,0.0,193.0,1.0,155.0,0.0,2.0,3.0,251.0,411.0,2.0,1019.0,1744252911.4751458,0.0,2025-04-09 22:41:51.475,RIGHT,42
116.0,11388.280855212315,652.4697723948684,-56247.91905259121,-52577.1591159295,-32335.44168894788,-29563.490100322975,-341.0652686435305,-19557.64228792695,0.0,0.0,0.0,193.0,1.0,155.0,0.0,2.0,3.0,251.0,411.0,2.0,1019.0,1744252911.4751544,0.0,2025-04-09 22:41:51.475,RIGHT,42
117.0,11370.690032325987,618.7409900118101,-56251.651793915255,-52554.58385402964,-32378.155872601972,-29600.750458329974,-356.42091708432645,-19599.17182912491,0.0,0.0,0.0,193.0,1.0,154.0,0.0,2.0,3.0,252.0,410.0,2.0,1020.0,1744252911.4751627,0.0,2025-04-09 22:41:51.475,RIGHT,42
118.0,11471.496399819422,641.2268449338491,-56256.189198039676,-52557.44487731992,-32391.008125663775,-29614.362670703256,-379.174992939829,-19626.440957360384,0.0,0.0,0.0,193.0,1.0,155.0,0.0,2.0,3.0,252.0,411.0,2.0,1020.0,1744252911.4751716,0.0,2025-04-09 22:41:51.475,RIGHT,42
119.0,11441.947393649507,640.712754811377,-56220.89579354475,-52560.372955843566,-32324.221113231317,-29546.36866407021,-404.49951940769193,-19556.412941981907,0.0,0.0,0.0,193.0,1.0,155.0,0.0,2.0,3.0,252.0,411.0,2.0,1020.0,1744252911.4751804,0.0,2025-04-09 22:41:51.475,RIGHT,42
120.0,11394.49464017089,647.5076851257903,-56239.53714842047,-52561.11056341059,-32330.703119123355,-29556.13637639718,-320.68047770029045,-19542.10782553051,0.0,0.0,0.0,193.0,1.0,155.0,0.0,2.0,3.0,252.0,411.0,2.0,1020.0,1744252911.4751892,0.0,2025-04-09 22:41:51.475,RIGHT,42
121.0,11359.134180442594,613.1754056424387,-56253.41758172722,-52578.58962757464,-32367.337628285604,-29599.074077495825,-366.7697747671336,-19596.199047112354,0.0,0.0,0.0,193.0,1.0,155.0,0.0,2.0,3.0,252.0,411.0,2.0,1020.0,1744252911.475198,0.0,2025-04-09 22:41:51.475,RIGHT,42
122.0,11464.41089682709,636.4659233648686,-56248.03081131349,-52543.98912715782,-32395.947861188397,-29621.783449862418,-342.58518726649135,-19622.03766370269,0.0,0.0,0.0,193.0,1.0,155.0,0.0,2.0,3.0,252.0,411.0,2.0,1020.0,1744252911.4752069,0.0,2025-04-09 22:41:51.475,RIGHT,42
123.0,11447.960012907984,643.774943801754,-56224.15914823522,-52582.255313665315,-32335.508744181247,-29551.598972272754,-440.0834965805408,-19562.58202345157,0.0,0.0,0.0,193.0,1.0,154.0,0.0,2.0,3.0,250.0,410.0,2.0,1018.0,1744252911.4752157,0.0,2025-04-09 22:41:51.475,RIGHT,42
124.0,11405.849326354186,652.6038828616003,-56228.56244189292,-52552.25927260629,-32328.378537700006,-29559.3773793432,-317.3053642875391,-19558.268136771698,0.0,0.0,0.0,193.0,1.0,154.0,0.0,2.0,3.0,250.0,410.0,2.0,1018.0,1744252911.4752245,0.0,2025-04-09 22:41:51.475,RIGHT,42
125.0,11348.695915781966,615.7011527658883,-56252.210587526635,-52595.398139405035,-32357.368750258538,-29590.625118091717,-377.9232952503318,-19595.86377094552,0.0,0.0,0.0,193.0,1.0,154.0,0.0,2.0,3.0,249.0,410.0,2.0,1017.0,1744252911.4752333,0.0,2025-04-09 22:41:51.475,RIGHT,42
126.0,11442.305021560791,627.4134668604693,-56241.05706704344,-52528.81229267267,-32390.672849496947,-29623.213961507558,-310.62219269540225,-19620.763614268733,0.0,0.0,0.0,193.0,1.0,154.0,0.0,2.0,3.0,249.0,410.0,2.0,1017.0,1744252911.475247,0.0,2025-04-09 22:41:51.475,RIGHT,42
127.0,11456.632489756643,636.1977024314049,-56232.563404150416,-52592.58181960366,-32338.883857594,-29553.74473974046,-443.2127408042837,-19560.77153215069,0.0,0.0,0.0,193.0,1.0,154.0,0.0,4.0,3.0,248.0,410.0,4.0,1016.0,1744252911.4752665,0.0,2025-04-09 22:41:51.475,RIGHT,42
128.0,11420.087387572215,654.2132084623825,-56220.381703422274,-52533.68497296393,-32322.991767286276,-29547.866230948715,-311.67272468480166,-19545.594697665536,0.0,0.0,0.0,193.0,1.0,154.0,0.0,15.0,3.0,250.0,410.0,15.0,1018.0,1744252911.4752748,0.0,2025-04-09 22:41:51.475,RIGHT,42
129.0,11355.15556992955,621.9819929578297,-56259.6313666858,-52602.34953193063,-32355.7370729133,-29582.690248810086,-384.1370802089072,-19591.236959843274,0.0,0.0,0.0,193.0,1.0,154.0,0.0,26.0,3.0,250.0,410.0,26.0,1018.0,1744252911.4752836,0.0,2025-04-09 22:41:51.475,RIGHT,42
130.0,11426.457634741979,625.133588926028,-56243.26988974451,-52524.83368215963,-32394.539701287715,-29621.939912073605,-315.07018984200835,-19617.83553574509,0.0,0.0,0.0,193.0,1.0,154.0,0.0,35.0,3.0,252.0,410.0,35.0,1020.0,1744252911.4752924,0.0,2025-04-09 22:41:51.475,RIGHT,42
131.0,11465.528484049855,635.1024669530949,-56246.80146536845,-52601.120185985594,-32361.950857871874,-29575.180062673102,-460.58004624605735,-19593.338023822074,0.0,0.0,0.0,193.0,1.0,155.0,0.0,39.0,3.0,252.0,411.0,39.0,1020.0,1744252911.4753025,0.0,2025-04-09 22:41:51.475,RIGHT,42
132.0,11424.334219018725,647.3735746590585,-56215.55372661993,-52533.930842152935,-32322.164752741428,-29550.302571094344,-330.26937607161716,-19552.54609019114,0.0,0.0,0.0,193.0,1.0,154.0,0.0,39.0,3.0,249.0,410.0,39.0,1017.0,1744252911.4753113,0.0,2025-04-09 22:41:51.475,RIGHT,42
133.0,11359.402401376057,624.2842226367262,-56258.93846260768,-52604.18237497597,-32349.880915866008,-29580.700943553562,-378.88442026191,-19591.7734017102,0.0,0.0,0.0,193.0,1.0,154.0,0.0,39.0,3.0,250.0,410.0,39.0,1018.0,1744252911.47532,0.0,2025-04-09 22:41:51.475,RIGHT,42
134.0,11405.11171878716,617.2881266222151,-56237.48078793059,-52526.84533916061,-32379.60873599157,-29609.221769478536,-312.6785531852905,-19604.178619882896,0.0,0.0,0.0,193.0,1.0,154.0,0.0,38.0,3.0,250.0,410.0,38.0,1018.0,1744252911.475329,0.0,2025-04-09 22:41:51.475,RIGHT,42
135.0,11465.863760216685,627.7040395383882,-56251.60709042634,-52592.55946785921,-32370.31041029816,-29586.087713967292,-429.28760400862745,-19594.790887211668,0.0,0.0,0.0,193.0,1.0,154.0,0.0,38.0,3.0,250.0,410.0,38.0,1018.0,1744252911.475338,0.0,2025-04-09 22:41:51.475,RIGHT,42
136.0,11420.042684083306,635.4377431199244,-56217.14070047626,-52542.178635856944,-32322.142400996974,-29548.670893749106,-352.64347227137955,-19551.54026169065,0.0,0.0,0.0,193.0,1.0,155.0,0.0,38.0,3.0,251.0,411.0,38.0,1019.0,1744252911.4753468,0.0,2025-04-09 22:41:51.475,RIGHT,42
137.0,11363.828046778208,623.3901528585139,-56258.983166096594,-52596.40396790552,-32348.96449434334,-29572.006114960448,-368.9378939792984,-19579.949328893345,0.0,0.0,0.0,193.0,1.0,155.0,0.0,39.0,3.0,252.0,411.0,39.0,1020.0,1744252911.4753556,0.0,2025-04-09 22:41:51.475,RIGHT,42
138.0,11381.06124175325,604.324114838137,-56244.38747696728,-52545.06201089168,-32377.641782479503,-29604.125571742723,-335.1867598517847,-19599.73062273629,0.0,0.0,0.0,193.0,1.0,155.0,0.0,39.0,3.0,252.0,411.0,39.0,1020.0,1744252911.4753644,0.0,2025-04-09 22:41:51.475,RIGHT,42
139.0,11468.188341640038,621.1549784129833,-56249.88600610328,-52576.15328742901,-32377.038285379207,-29596.32481292782,-389.68031283382334,-19593.382727310986,0.0,0.0,0.0,193.0,1.0,155.0,0.0,39.0,3.0,252.0,411.0,39.0,1020.0,1744252911.4753733,0.0,2025-04-09 22:41:51.475,RIGHT,42
140.0,11429.36336152117,629.3804203725363,-56208.75879630552,-52550.53818828323,-32312.866427048022,-29536.735062209973,-371.15071668037376,-19545.281773243165,0.0,0.0,0.0,193.0,1.0,155.0,0.0,39.0,3.0,252.0,411.0,39.0,1020.0,1744252911.475382,0.0,2025-04-09 22:41:51.475,RIGHT,42
141.0,11380.68126209751,636.8235512761535,-56241.3252879769,-52577.002653718315,-32332.7818313577,-29556.337542097277,-337.82426569751095,-19569.242843299253,0.0,0.0,0.0,193.0,1.0,155.0,0.0,40.0,3.0,252.0,411.0,40.0,1020.0,1744252911.4753952,0.0,2025-04-09 22:41:51.475,RIGHT,42
142.0,11359.5812153317,600.4796147918242,-56248.18727352468,-52568.41958384748,-32373.506709755267,-29597.15182747267,-362.0982601759744,-19605.698538505858,0.0,0.0,0.0,193.0,1.0,155.0,0.0,40.0,3.0,252.0,411.0,40.0,1020.0,1744252911.4754045,0.0,2025-04-09 22:41:51.475,RIGHT,42
143.0,11457.92889093505,617.8916237225085,-56255.831570128394,-52569.22424664787,-32397.668945511457,-29620.867028339748,-380.85137377397706,-19635.9851522428,0.0,0.0,0.0,193.0,1.0,155.0,0.0,40.0,3.0,249.0,411.0,40.0,1017.0,1744252911.475413,0.0,2025-04-09 22:41:51.475,RIGHT,42
144.0,11428.581050465233,620.7302952683324,-56226.193156980655,-52582.948217743426,-32330.233732489796,-29555.957562441537,-426.6948016518118,-19586.476038274293,0.0,0.0,0.0,193.0,1.0,155.0,0.0,40.0,3.0,250.0,411.0,40.0,1018.0,1744252911.475422,0.0,2025-04-09 22:41:51.475,RIGHT,42
145.0,11391.477154669423,646.2559874362931,-56231.088189016366,-52562.54107505573,-32323.05882251964,-29547.575658270798,-320.9039951448435,-19556.34588674854,0.0,0.0,0.0,193.0,1.0,155.0,0.0,41.0,3.0,249.0,411.0,41.0,1017.0,1744252911.4754305,0.0,2025-04-09 22:41:51.475,RIGHT,42
146.0,11354.552072829256,612.3930945865029,-56239.60420365384,-52575.79565951773,-32350.104433310564,-29574.196585917067,-357.6502630293683,-19578.83174167058,0.0,0.0,0.0,193.0,1.0,154.0,0.0,41.0,3.0,250.0,410.0,41.0,1018.0,1744252911.4754393,0.0,2025-04-09 22:41:51.475,RIGHT,42
147.0,11460.633452014143,632.7555337852876,-56230.64115412726,-52531.53920549622,-32378.424093535436,-29602.069211252834,-319.3617247774273,-19598.59068376907,0.0,0.0,0.0,193.0,1.0,154.0,0.0,41.0,3.0,250.0,410.0,41.0,1018.0,1744252911.475448,0.0,2025-04-09 22:41:51.475,RIGHT,42
148.0,11446.194225096015,637.0470687207066,-56217.63243885427,-52584.7140055554,-32327.462116177336,-29543.41823380211,-437.58010120154637,-19562.76083740721,0.0,0.0,0.0,193.0,1.0,154.0,0.0,41.0,3.0,249.0,410.0,41.0,1017.0,1744252911.4754567,0.0,2025-04-09 22:41:51.475,RIGHT,42
149.0,11407.726872888432,652.4921241393238,-56219.912316788716,-52549.06297314918,-32326.63510163249,-29553.454167062544,-328.14596034836296,-19564.72779091928,0.0,0.0,0.0,193.0,1.0,154.0,0.0,41.0,3.0,251.0,410.0,41.0,1019.0,1744252911.4754655,0.0,2025-04-09 22:41:51.475,RIGHT,42
150.0,11348.718267526421,612.3483910975923,-56252.94819509366,-52603.53417438676,-32363.224907305826,-29595.184873960603,-392.9883710132088,-19606.21262862833,0.0,0.0,0.0,193.0,1.0,155.0,0.0,41.0,3.0,251.0,411.0,41.0,1019.0,1744252911.475474,0.0,2025-04-09 22:41:51.475,RIGHT,42
151.0,11434.414855768067,614.5165103097571,-56241.34763972135,-52537.12714161005,-32395.389067577016,-29631.707624400573,-317.953564876743,-19629.100814950565,0.0,0.0,0.0,193.0,1.0,155.0,0.0,42.0,3.0,251.0,411.0,42.0,1019.0,1744252911.4754827,0.0,2025-04-09 22:41:51.475,RIGHT,42
152.0,11460.387582825135,634.4319146194357,-56223.64505811275,-52596.023988249784,-32334.54761916967,-29558.304495609344,-439.56940645806867,-19571.63447995597,0.0,0.0,0.0,193.0,1.0,155.0,0.0,42.0,3.0,250.0,411.0,42.0,1018.0,1744252911.4754913,0.0,2025-04-09 22:41:51.475,RIGHT,42
153.0,11417.516936959855,648.6923275819215,-56213.09503472985,-52543.27387133526,-32317.470886405816,-29560.047931676858,-308.3870182498715,-19564.750142663735,0.0,0.0,0.0,193.0,1.0,155.0,0.0,42.0,3.0,251.0,411.0,42.0,1019.0,1744252911.4755,0.0,2025-04-09 22:41:51.475,RIGHT,42
154.0,11345.231395391393,614.4718068208465,-56258.75964865204,-52618.17456700499,-32356.094700824586,-29593.508493126454,-384.3829493979156,-19602.569294282115,0.0,0.0,0.0,193.0,1.0,155.0,0.0,42.0,3.0,251.0,411.0,42.0,1019.0,1744252911.4755087,0.0,2025-04-09 22:41:51.475,RIGHT,42
155.0,11411.101986301182,618.2716033782486,-56240.05123854295,-52538.87057767756,-32394.427942565435,-29627.81842086535,-321.1722160783072,-19622.574105569616,0.0,0.0,0.0,193.0,1.0,155.0,0.0,42.0,3.0,252.0,411.0,42.0,1020.0,1744252911.4755175,0.0,2025-04-09 22:41:51.475,RIGHT,42
156.0,11459.761733980386,635.4824466088351,-56238.710133875626,-52605.679941854476,-32355.91588686894,-29574.04012370588,-446.69961293931163,-19576.21658756931,0.0,0.0,0.0,193.0,1.0,155.0,0.0,42.0,3.0,252.0,411.0,42.0,1020.0,1744252911.475531,0.0,2025-04-09 22:41:51.475,RIGHT,42
157.0,11419.64035268311,643.7078885683881,-56213.676180085684,-52548.21360685988,-32322.365918441526,-29556.47165256401,-332.4598470282373,-19554.53539544766,0.0,0.0,0.0,193.0,1.0,155.0,0.0,42.0,3.0,252.0,411.0,42.0,1020.0,1744252911.47554,0.0,2025-04-09 22:41:51.475,RIGHT,42
158.0,11364.163322945038,628.5310540832346,-56252.56821543792,-52610.39615993454,-32344.918828596932,-29573.816606261327,-369.6531498018682,-19574.271985801697,0.0,0.0,0.0,193.0,1.0,155.0,0.0,42.0,3.0,252.0,411.0,42.0,1020.0,1744252911.4755487,0.0,2025-04-09 22:41:51.475,RIGHT,42
159.0,11400.708425129465,619.3221353676481,-56237.63725014177,-52543.0503538907,-32379.16170110246,-29611.30048171288,-316.92538463179886,-19606.63731177298,0.0,0.0,0.0,193.0,1.0,155.0,0.0,43.0,3.0,252.0,411.0,43.0,1020.0,1744252911.4755573,0.0,2025-04-09 22:41:51.475,RIGHT,42
160.0,11465.059097416293,630.0733244506508,-56258.5808346964,-52606.97634303288,-32379.98871564731,-29598.3364699288,-429.5111214531805,-19611.88997171998,0.0,0.0,0.0,193.0,1.0,155.0,0.0,42.0,3.0,249.0,411.0,42.0,1017.0,1744252911.475566,0.0,2025-04-09 22:41:51.475,RIGHT,42
161.0,11426.904669631085,643.0149844902736,-56219.46528189961,-52561.24467387732,-32326.188066743383,-29559.533841554385,-369.18376316830677,-19575.30016604664,0.0,0.0,0.0,193.0,1.0,155.0,0.0,43.0,3.0,252.0,411.0,43.0,1020.0,1744252911.475575,0.0,2025-04-09 22:41:51.475,RIGHT,42
162.0,11375.763878317342,638.9469669994077,-56248.81312236943,-52600.94137202995,-32341.476659950815,-29574.263641150435,-361.2935973755834,-19576.14953233594,0.0,0.0,0.0,193.0,1.0,154.0,0.0,43.0,3.0,249.0,410.0,43.0,1017.0,1744252911.4755836,0.0,2025-04-09 22:41:51.475,RIGHT,42
163.0,11383.475230154423,614.2482893762934,-56235.13385476278,-52555.813199974684,-32371.15977658746,-29605.936063043602,-334.7620767071339,-19594.790887211668,0.0,0.0,0.0,193.0,1.0,155.0,0.0,43.0,3.0,250.0,411.0,43.0,1018.0,1744252911.4755921,0.0,2025-04-09 22:41:51.475,RIGHT,42
164.0,11466.489609061433,627.0558389491844,-56254.78103813899,-52589.60903759111,-32392.50569254228,-29615.971996304037,-403.5383943961137,-19620.02600670171,0.0,0.0,0.0,193.0,1.0,154.0,0.0,43.0,3.0,249.0,410.0,43.0,1017.0,1744252911.475601,0.0,2025-04-09 22:41:51.475,RIGHT,42
165.0,11424.177756807538,630.2968418952039,-56219.979372022084,-52572.68876703844,-32328.53499991119,-29555.689341508074,-396.65405710387915,-19565.979488608777,0.0,0.0,0.0,193.0,1.0,154.0,0.0,43.0,3.0,250.0,410.0,43.0,1018.0,1744252911.4756095,0.0,2025-04-09 22:41:51.475,RIGHT,42
166.0,11376.367375417636,636.5106268537792,-56249.26015725853,-52594.70523532692,-32339.956741327853,-29582.265565665435,-340.66293724333497,-19595.617901756515,0.0,0.0,0.0,193.0,1.0,154.0,0.0,43.0,3.0,249.0,410.0,43.0,1017.0,1744252911.4756188,0.0,2025-04-09 22:41:51.475,RIGHT,42
167.0,11350.461703593935,601.5748502701343,-56257.70911666264,-52592.62652309257,-32378.379390046524,-29615.100278270278,-366.8368300004995,-19617.63437004499,0.0,0.0,0.0,193.0,1.0,154.0,0.0,43.0,3.0,249.0,410.0,43.0,1017.0,1744252911.4756274,0.0,2025-04-09 22:41:51.475,RIGHT,42
168.0,11458.867664202175,625.7817895152318,-56250.44479971466,-52563.74806925632,-32392.416285564457,-29611.501647412977,-352.15173389336275,-19597.204875612842,0.0,0.0,0.0,193.0,1.0,155.0,0.0,43.0,3.0,252.0,411.0,43.0,1020.0,1744252911.4756362,0.0,2025-04-09 22:41:51.475,RIGHT,42
169.0,11432.894937145107,627.4581703493799,-56227.26604071451,-52588.37969164606,-32337.02866280421,-29550.28021934989,-424.2808132506387,-19559.47513097228,0.0,0.0,0.0,193.0,1.0,155.0,0.0,43.0,3.0,251.0,411.0,43.0,1019.0,1744252911.4756448,0.0,2025-04-09 22:41:51.475,RIGHT,42
170.0,11392.885314570107,646.5912636031227,-56236.29614547446,-52571.280607137756,-32340.135555283494,-29559.019751431915,-331.27520457210596,-19570.82981715558,0.0,0.0,0.0,193.0,1.0,155.0,0.0,43.0,3.0,251.0,411.0,43.0,1019.0,1744252911.475654,0.0,2025-04-09 22:41:51.475,RIGHT,42
171.0,11344.404380846547,606.7604549837655,-56252.14353229327,-52600.94137202995,-32367.941125385896,-29590.222786691524,-375.9786934827201,-19601.518762292715,0.0,0.0,0.0,193.0,1.0,154.0,0.0,43.0,3.0,250.0,410.0,43.0,1018.0,1744252911.4756675,0.0,2025-04-09 22:41:51.475,RIGHT,42
172.0,11434.50426274589,615.8799667215308,-56256.14449455077,-52560.238845376836,-32411.951710218396,-29629.62891216623,-340.7523442211562,-19635.7839865427,0.0,0.0,0.0,193.0,1.0,154.0,0.0,44.0,3.0,250.0,410.0,44.0,1018.0,1744252911.4756763,0.0,2025-04-09 22:41:51.475,RIGHT,42
173.0,11438.058190114283,630.6097663175782,-56230.64115412726,-52604.91998254299,-32346.461098964348,-29554.236478118477,-459.10483111200705,-19581.402192282938,0.0,0.0,0.0,193.0,1.0,154.0,0.0,43.0,3.0,249.0,410.0,43.0,1017.0,1744252911.475685,0.0,2025-04-09 22:41:51.475,RIGHT,42
174.0,11394.941675059996,639.0363739772289,-56232.94338380616,-52565.64796753502,-32341.58841867309,-29563.490100322975,-326.5366347475809,-19568.035849098665,0.0,0.0,0.0,193.0,1.0,155.0,0.0,43.0,3.0,249.0,411.0,43.0,1017.0,1744252911.4756935,0.0,2025-04-09 22:41:51.475,RIGHT,42
175.0,11343.644421535066,609.26385036276,-56260.36897425282,-52619.0686367832,-32370.243355064795,-29589.90986226915,-391.69196983480094,-19596.154343623442,0.0,0.0,0.0,193.0,1.0,155.0,0.0,43.0,3.0,252.0,411.0,43.0,1020.0,1744252911.4757023,0.0,2025-04-09 22:41:51.475,RIGHT,42
176.0,11436.717085446964,625.066533692662,-56238.3748577088,-52539.65288873349,-32401.55814904668,-29625.53854293091,-319.6746491998016,-19629.480794606305,0.0,0.0,0.0,193.0,1.0,155.0,0.0,43.0,3.0,252.0,411.0,43.0,1020.0,1744252911.475711,0.0,2025-04-09 22:41:51.475,RIGHT,42
177.0,11465.729649749954,639.6622228219775,-56232.51870066151,-52609.166813989505,-32355.40179674647,-29567.89339398067,-463.3293108140601,-19596.422564556906,0.0,0.0,0.0,193.0,1.0,155.0,0.0,43.0,3.0,251.0,411.0,43.0,1019.0,1744252911.47572,0.0,2025-04-09 22:41:51.475,RIGHT,42
178.0,11424.490681229912,654.9731677738629,-56213.050331240935,-52545.64315624752,-32330.30078772316,-29555.868155463715,-331.6551842278462,-19573.936709634865,0.0,0.0,0.0,193.0,1.0,155.0,0.0,43.0,3.0,251.0,411.0,43.0,1019.0,1744252911.4757288,0.0,2025-04-09 22:41:51.475,RIGHT,42
179.0,11352.518064083823,623.7477807697989,-56256.7256399066,-52616.07350302619,-32363.247259050284,-29575.291821395378,-390.8426035454993,-19581.69276496086,0.0,0.0,0.0,193.0,1.0,155.0,0.0,44.0,3.0,252.0,411.0,44.0,1020.0,1744252911.475737,0.0,2025-04-09 22:41:51.475,RIGHT,42
180.0,11411.414910723557,622.7419522693101,-56238.68778213117,-52538.53530151073,-32397.668945511457,-29614.541484658897,-325.75432369164514,-19616.919114222423,0.0,0.0,0.0,193.0,1.0,155.0,0.0,44.0,3.0,252.0,411.0,44.0,1020.0,1744252911.475746,0.0,2025-04-09 22:41:51.475,RIGHT,42
181.0,11463.807399726797,634.7671907862652,-56244.76745662302,-52608.47390991139,-32371.56210798766,-29577.61640281873,-455.37208978797076,-19599.79767796966,0.0,0.0,0.0,193.0,1.0,155.0,0.0,44.0,3.0,252.0,411.0,44.0,1020.0,1744252911.4757545,0.0,2025-04-09 22:41:51.475,RIGHT,42
182.0,11419.170966049549,642.1209147120613,-56211.664523084706,-52551.72283073936,-32330.546656912167,-29549.721425738506,-356.21975138422863,-19564.124293818986,0.0,0.0,0.0,193.0,1.0,155.0,0.0,43.0,3.0,251.0,411.0,43.0,1019.0,1744252911.475766,0.0,2025-04-09 22:41:51.475,RIGHT,42
183.0,11357.748372286365,626.6311558045335,-56253.43993347167,-52618.48749142737,-32355.7370729133,-29578.66693480813,-390.9543622677758,-19599.39534656946,0.0,0.0,0.0,193.0,1.0,155.0,0.0,44.0,3.0,251.0,411.0,44.0,1019.0,1744252911.4757745,0.0,2025-04-09 22:41:51.475,RIGHT,42
184.0,11384.101078999172,604.5923357716007,-56242.644040899766,-52560.97645294386,-32390.561090774667,-29623.459830696564,-335.499684274159,-19634.50993710875,0.0,0.0,0.0,193.0,1.0,155.0,0.0,44.0,3.0,251.0,411.0,44.0,1019.0,1744252911.4757833,0.0,2025-04-09 22:41:51.475,RIGHT,42
185.0,11462.89097820413,622.8537109915866,-56254.95985209464,-52612.452520424435,-32388.303564584683,-29607.1877607331,-431.58983368752405,-19631.626562074016,0.0,0.0,0.0,193.0,1.0,155.0,0.0,44.0,3.0,251.0,411.0,44.0,1019.0,1744252911.475792,0.0,2025-04-09 22:41:51.475,RIGHT,42
186.0,11417.718102659954,628.3522401275922,-56217.43127315418,-52572.75582227181,-32335.44168894788,-29557.4774810645,-390.5073273786697,-19576.082477102576,0.0,0.0,0.0,193.0,1.0,154.0,0.0,44.0,3.0,250.0,410.0,44.0,1018.0,1744252911.4758055,0.0,2025-04-09 22:41:51.475,RIGHT,42
187.0,11374.06514573874,636.0188884757624,-56238.8218925979,-52599.667322596,-32335.866372092532,-29562.66308577813,-354.69983276126777,-19567.74527642075,0.0,0.0,0.0,193.0,1.0,154.0,0.0,44.0,3.0,249.0,410.0,44.0,1017.0,1744252911.475814,0.0,2025-04-09 22:41:51.475,RIGHT,42
188.0,11366.912587513041,603.2512311042823,-56240.18534900968,-52570.78886875974,-32377.150044101483,-29607.321871199834,-347.1672948798293,-19613.901628720956,0.0,0.0,0.0,193.0,1.0,155.0,0.0,44.0,3.0,252.0,411.0,44.0,1020.0,1744252911.4758227,0.0,2025-04-09 22:41:51.475,RIGHT,42
189.0,11454.911405433584,615.8352632326202,-56257.19502654017,-52593.25237193732,-32401.871073469054,-29616.888417826704,-399.96211528326455,-19635.493413864784,0.0,0.0,0.0,193.0,1.0,155.0,0.0,44.0,3.0,252.0,411.0,44.0,1020.0,1744252911.4758315,0.0,2025-04-09 22:41:51.475,RIGHT,42
190.0,11428.201070809493,631.8614640070754,-56213.98910450806,-52575.86271475109,-32328.087965022085,-29544.826393702795,-408.5675368985578,-19572.26032880072,0.0,0.0,0.0,193.0,1.0,154.0,0.0,44.0,3.0,251.0,410.0,44.0,1019.0,1744252911.47584,0.0,2025-04-09 22:41:51.475,RIGHT,42
191.0,11389.577256390723,645.518379869268,-56226.617840125306,-52575.192162417436,-32324.31052020914,-29553.051835662347,-326.6036899809468,-19574.11552359051,0.0,0.0,0.0,193.0,1.0,155.0,0.0,44.0,3.0,252.0,411.0,44.0,1020.0,1744252911.475849,0.0,2025-04-09 22:41:51.475,RIGHT,42
192.0,11342.303316867748,594.0199606442405,-56250.26598575902,-52592.85004053713,-32375.87599466753,-29608.86414156725,-372.1788969253179,-19627.022102716222,0.0,0.0,0.0,193.0,1.0,155.0,0.0,44.0,3.0,253.0,411.0,44.0,1021.0,1744252911.4758575,0.0,2025-04-09 22:41:51.475,RIGHT,42
193.0,11441.030972126839,610.9402311969079,-56253.84226487187,-52571.43706934894,-32406.252015382295,-29626.09733654229,-364.35578636596045,-19630.88895450699,0.0,0.0,0.0,193.0,1.0,155.0,0.0,44.0,3.0,252.0,411.0,44.0,1020.0,1744252911.4758663,0.0,2025-04-09 22:41:51.475,RIGHT,42
194.0,11429.899803388096,618.0927894226062,-56219.39822666624,-52595.48754638285,-32333.988825558285,-29543.28412333538,-433.9367668553313,-19548.63453491146,0.0,0.0,0.0,193.0,1.0,154.0,0.0,44.0,3.0,249.0,410.0,44.0,1017.0,1744252911.475875,0.0,2025-04-09 22:41:51.475,RIGHT,42
195.0,11388.884352312607,629.872158750553,-56227.869537814804,-52573.76165077229,-32330.546656912167,-29554.41529207412,-320.3004980445502,-19552.09905530203,0.0,0.0,0.0,193.0,1.0,154.0,0.0,44.0,3.0,249.0,410.0,44.0,1017.0,1744252911.4758835,0.0,2025-04-09 22:41:51.475,RIGHT,42
196.0,11330.501595795346,589.2813908197154,-56257.575006195904,-52619.426264694484,-32370.10924459806,-29596.503626883463,-386.1710889543401,-19605.31855885012,0.0,0.0,0.0,193.0,1.0,153.0,0.0,44.0,3.0,250.0,409.0,44.0,1018.0,1744252911.4758923,0.0,2025-04-09 22:41:51.475,RIGHT,42
197.0,11424.535384718822,606.9169171949527,-56249.72954389209,-52561.11056341059,-32405.26853862626,-29627.95253133208,-335.2538150851506,-19627.647951560968,0.0,0.0,0.0,193.0,1.0,154.0,0.0,44.0,3.0,249.0,410.0,44.0,1017.0,1744252911.475901,0.0,2025-04-09 22:41:51.475,RIGHT,42
198.0,11432.805530167287,617.1987196443939,-56235.60324139634,-52618.68865712746,-32347.891610609488,-29562.886603222683,-460.91532241288695,-19579.50229400424,0.0,0.0,0.0,193.0,1.0,154.0,0.0,44.0,3.0,251.0,410.0,44.0,1019.0,1744252911.4759095,0.0,2025-04-09 22:41:51.475,RIGHT,42
199.0,11395.455765182467,636.0859437091284,-56227.2213372256,-52567.011423946795,-32336.738090126288,-29565.725274768505,-330.60465223844676,-19577.982375381278,0.0,0.0,0.0,193.0,1.0,154.0,0.0,44.0,3.0,250.0,410.0,44.0,1018.0,1744252911.4759183,0.0,2025-04-09 22:41:51.475,RIGHT,42
200.0,11336.514215053823,610.8955277079973,-56256.63623292879,-52626.33295373118,-32363.49312823929,-29592.61442334824,-400.5432606391026,-19609.990073441277,0.0,0.0,0.0,193.0,1.0,154.0,0.0,44.0,3.0,249.0,410.0,44.0,1017.0,1744252911.4759269,0.0,2025-04-09 22:41:51.475,RIGHT,42
201.0,11411.906649101575,609.5097195517683,-56241.66056414373,-52550.985223172334,-32404.687393270422,-29628.556028432376,-335.96907090772044,-19639.628486589016,0.0,0.0,0.0,193.0,1.0,154.0,0.0,44.0,3.0,250.0,410.0,44.0,1018.0,1744252911.4759405,0.0,2025-04-09 22:41:51.475,RIGHT,42
202.0,11443.623774483654,612.6836672644218,-56244.40982871173,-52627.070561298206,-32371.092721354096,-29576.632926062695,-487.33508435905986,-19610.861791475036,0.0,0.0,0.0,193.0,1.0,155.0,0.0,44.0,3.0,250.0,411.0,44.0,1018.0,1744252911.475949,0.0,2025-04-09 22:41:51.475,RIGHT,42
203.0,11407.302189743781,634.9907082308183,-56216.80542430943,-52559.59064478763,-32336.089889537085,-29553.56592578482,-350.7212222482231,-19570.047506099643,0.0,0.0,0.0,193.0,1.0,155.0,0.0,44.0,3.0,253.0,411.0,44.0,1021.0,1744252911.4759576,0.0,2025-04-09 22:41:51.475,RIGHT,42
204.0,11352.29454663927,623.7924842587095,-56246.98027932409,-52618.50984317182,-32346.796375131176,-29575.157710928645,-389.1885744558066,-19595.752012223245,0.0,0.0,0.0,193.0,1.0,155.0,0.0,44.0,3.0,252.0,411.0,44.0,1020.0,1744252911.4759662,0.0,2025-04-09 22:41:51.475,RIGHT,42
205.0,11404.73173913142,621.8925859800084,-56226.46137791412,-52540.27873757824,-32380.502805769782,-29617.201342249078,-323.4297422682932,-19628.676131805914,0.0,0.0,0.0,193.0,1.0,155.0,0.0,44.0,3.0,250.0,411.0,44.0,1018.0,1744252911.475975,0.0,2025-04-09 22:41:51.475,RIGHT,42
206.0,11460.901672947606,630.2744901507485,-56238.10663677534,-52608.58566863366,-32366.868241652042,-29583.80783603285,-452.04167986413006,-19603.664529760426,0.0,0.0,0.0,193.0,1.0,155.0,0.0,44.0,3.0,250.0,411.0,44.0,1018.0,1744252911.4759836,0.0,2025-04-09 22:41:51.475,RIGHT,42
207.0,11417.248716026392,640.4668856223685,-56204.26609567,-52551.52166503926,-32322.880008564,-29549.05087340485,-360.91361771984316,-19568.214663054307,0.0,0.0,0.0,193.0,1.0,155.0,0.0,44.0,3.0,251.0,411.0,44.0,1019.0,1744252911.4759924,0.0,2025-04-09 22:41:51.475,RIGHT,42
208.0,11355.49084609638,630.9003389954971,-56248.52254969151,-52613.3689419471,-32347.712796653846,-29576.677629551607,-380.18082144031786,-19593.62859649999,0.0,0.0,0.0,193.0,1.0,154.0,0.0,44.0,3.0,250.0,410.0,44.0,1018.0,1744252911.4760013,0.0,2025-04-09 22:41:51.476,RIGHT,42
209.0,11375.428602150512,608.1015596510839,-56238.576023408896,-52562.339909355636,-32388.437675051413,-29624.175086519135,-354.208094383251,-19640.8354807896,0.0,0.0,0.0,193.0,1.0,155.0,0.0,44.0,3.0,252.0,411.0,44.0,1020.0,1744252911.4760098,0.0,2025-04-09 22:41:51.476,RIGHT,42
210.0,11455.738419978432,618.6515830339889,-56245.61682291232,-52603.578877875676,-32383.185015104416,-29608.931196800615,-426.0689528070632,-19631.291285907184,0.0,0.0,0.0,193.0,1.0,154.0,0.0,44.0,3.0,252.0,410.0,44.0,1020.0,1744252911.4760184,0.0,2025-04-09 22:41:51.476,RIGHT,42
211.0,11418.209841037971,630.5650628286676,-56207.2165259381,-52566.810258246696,-32328.803220844657,-29548.00034141545,-389.3003331780831,-19560.59271819505,0.0,0.0,0.0,193.0,1.0,154.0,0.0,44.0,3.0,249.0,410.0,44.0,1017.0,1744252911.4760275,0.0,2025-04-09 22:41:51.476,RIGHT,42
212.0,11372.992262004884,637.6505658209999,-56234.70917161813,-52594.83934579365,-32343.26479950724,-29556.628114775198,-361.0700799310303,-19556.725866404282,0.0,0.0,0.0,193.0,1.0,154.0,0.0,44.0,3.0,249.0,410.0,44.0,1017.0,1744252911.9541836,0.0,2025-04-09 22:41:51.954,RIGHT,42
213.0,11355.312032140737,602.2230508593382,-56239.55950016493,-52577.60615081861,-32380.949840658886,-29603.924406042628,-366.05451894456377,-19609.45363157435,0.0,0.0,0.0,193.0,1.0,155.0,0.0,44.0,3.0,250.0,411.0,44.0,1018.0,1744252911.9542208,0.0,2025-04-09 22:41:51.954,RIGHT,42
214.0,11452.273899587859,621.5573098131788,-56245.30389848995,-52580.26600840879,-32395.277308854736,-29609.892321812193,-387.91452502185405,-19623.423471858918,0.0,0.0,0.0,193.0,1.0,155.0,0.0,44.0,3.0,249.0,411.0,44.0,1017.0,1744252911.9542413,0.0,2025-04-09 22:41:51.954,RIGHT,42
215.0,11419.573297449744,623.7254290253436,-56213.050331240935,-52580.288360153245,-32336.961607570844,-29542.926495424093,-431.947461598809,-19569.82398865509,0.0,0.0,0.0,193.0,1.0,155.0,0.0,44.0,3.0,252.0,411.0,44.0,1020.0,1744252911.9542613,0.0,2025-04-09 22:41:51.954,RIGHT,42
216.0,11378.535494629801,640.8468652781088,-56230.73056110508,-52578.969607230385,-32338.97326457182,-29552.023655417404,-350.7212222482231,-19570.561596222116,0.0,0.0,0.0,193.0,1.0,155.0,0.0,44.0,3.0,252.0,411.0,44.0,1020.0,1744252911.9543068,0.0,2025-04-09 22:41:51.954,RIGHT,42
217.0,11353.412133862035,616.6622777774666,-56234.88798557377,-52583.082328210156,-32365.482433495814,-29581.215033676035,-380.1361179514072,-19597.696613990858,0.0,0.0,0.0,193.0,1.0,155.0,0.0,44.0,3.0,252.0,411.0,44.0,1020.0,1744252911.9543242,0.0,2025-04-09 22:41:51.954,RIGHT,42
218.0,11455.26903334487,633.6272518190447,-56230.21647098261,-52546.02313590326,-32391.343401830603,-29601.890397297193,-350.81062922604434,-19608.22428562931,0.0,0.0,0.0,193.0,1.0,155.0,0.0,44.0,3.0,251.0,411.0,44.0,1019.0,1744252911.9543417,0.0,2025-04-09 22:41:51.954,RIGHT,42
219.0,11447.31181231878,641.3609554005809,-56202.94734274714,-52580.713043297896,-32326.702156865857,-29536.869172676707,-442.22926404825023,-19567.879386887478,0.0,0.0,0.0,193.0,1.0,155.0,0.0,44.0,3.0,252.0,411.0,44.0,1020.0,1744252911.954359,0.0,2025-04-09 22:41:51.954,RIGHT,42
220.0,11399.63554139561,655.710775340888,-56215.55372661993,-52558.629519776056,-32332.31244472414,-29554.839975218772,-342.1381523773852,-19579.144666092954,0.0,0.0,0.0,193.0,1.0,154.0,0.0,44.0,3.0,250.0,410.0,44.0,1018.0,1744252911.954368,0.0,2025-04-09 22:41:51.954,RIGHT,42
221.0,11351.86986349462,620.7973505016984,-56237.70430537514,-52599.17558421798,-32360.69916018238,-29584.590147088787,-405.86297581946565,-19606.749070495258,0.0,0.0,0.0,193.0,1.0,155.0,0.0,44.0,3.0,250.0,411.0,44.0,1018.0,1744252911.9543772,0.0,2025-04-09 22:41:51.954,RIGHT,42
222.0,11445.300155317802,631.3920773735139,-56227.243688970055,-52540.301089322704,-32393.80209372069,-29626.991406320503,-344.19451286727343,-19643.920021524435,0.0,0.0,0.0,193.0,1.0,155.0,0.0,44.0,3.0,251.0,411.0,44.0,1019.0,1744252911.954386,0.0,2025-04-09 22:41:51.954,RIGHT,42
223.0,11446.529501262845,630.7215250398547,-56225.79082558046,-52614.486529169866,-32349.098604810075,-29569.927402726105,-477.5450202876354,-19599.127125635998,0.0,0.0,0.0,193.0,1.0,155.0,0.0,44.0,3.0,252.0,411.0,44.0,1020.0,1744252911.9543948,0.0,2025-04-09 22:41:51.954,RIGHT,42
224.0,11404.77644262033,643.1490949570054,-56213.966752763605,-52560.03767967674,-32330.099622023063,-29566.41817884662,-341.1993791102623,-19585.939596407366,0.0,0.0,0.0,193.0,1.0,154.0,0.0,44.0,3.0,249.0,410.0,44.0,1017.0,1744252911.9544048,0.0,2025-04-09 22:41:51.954,RIGHT,42
225.0,11335.329572597691,604.8158532161538,-56252.411753226734,-52627.674058398494,-32361.101491582573,-29599.901092040673,-408.36637119846006,-19621.16594566893,0.0,0.0,0.0,193.0,1.0,154.0,0.0,44.0,3.0,249.0,410.0,44.0,1017.0,1744252911.9544137,0.0,2025-04-09 22:41:51.954,RIGHT,42
226.0,11408.755053133376,610.9849346858185,-56230.30587796043,-52541.709249223386,-32391.544567530702,-29627.81842086535,-327.2071870812401,-19630.64308531798,0.0,0.0,0.0,193.0,1.0,154.0,0.0,44.0,3.0,250.0,410.0,44.0,1018.0,1744252911.9544225,0.0,2025-04-09 22:41:51.954,RIGHT,42
227.0,11448.764675708375,620.6855917794218,-56232.4739971726,-52615.96174430392,-32358.21811654784,-29577.169367929622,-467.30792132710474,-19602.189314626376,0.0,0.0,0.0,193.0,1.0,154.0,0.0,44.0,3.0,249.0,410.0,44.0,1017.0,1744252911.9544313,0.0,2025-04-09 22:41:51.954,RIGHT,42
228.0,11407.056320554771,632.0849814516284,-56206.009531737516,-52553.28745285123,-32328.02090978872,-29552.51539379542,-344.26156810063935,-19566.96296536481,0.0,0.0,0.0,193.0,1.0,154.0,0.0,44.0,3.0,249.0,410.0,44.0,1017.0,1744252911.95444,0.0,2025-04-09 22:41:51.954,RIGHT,42
229.0,11338.861148221631,608.4591875623688,-56249.46132295863,-52624.58951766366,-32356.944067113887,-29580.298612153365,-387.7804145551222,-19585.693727218357,0.0,0.0,0.0,193.0,1.0,154.0,0.0,44.0,3.0,249.0,410.0,44.0,1017.0,1744252911.9544492,0.0,2025-04-09 22:41:51.954,RIGHT,42
230.0,11381.77649757582,600.7925392141985,-56232.65281112824,-52552.16986562847,-32393.288003598216,-29622.43165045162,-324.6814399577904,-19613.946332209867,0.0,0.0,0.0,193.0,1.0,154.0,0.0,44.0,3.0,249.0,410.0,44.0,1017.0,1744252911.954458,0.0,2025-04-09 22:41:51.954,RIGHT,42
231.0,11453.79381821082,617.8916237225085,-56237.81606409742,-52612.81014833572,-32374.64664872249,-29594.179045460114,-441.91633962587593,-19611.778212997702,0.0,0.0,0.0,193.0,1.0,155.0,0.0,44.0,3.0,252.0,411.0,44.0,1020.0,1744252911.9544723,0.0,2025-04-09 22:41:51.954,RIGHT,42
232.0,11411.549021190289,626.6758592934441,-56200.86863051279,-52560.12708665456,-32326.6798051214,-29556.404597330642,-363.3499578654716,-19570.15926482192,0.0,0.0,0.0,193.0,1.0,155.0,0.0,44.0,3.0,251.0,411.0,44.0,1019.0,1744252911.9544811,0.0,2025-04-09 22:41:51.954,RIGHT,42
233.0,11354.730886784899,621.2890888797151,-56241.50410193254,-52614.64299138105,-32348.629218176513,-29579.00221097496,-375.4198998713374,-19594.813238956125,0.0,0.0,0.0,193.0,1.0,155.0,0.0,44.0,3.0,252.0,411.0,44.0,1020.0,1744252911.95449,0.0,2025-04-09 22:41:51.954,RIGHT,42
234.0,11368.767782302832,600.7925392141985,-56230.70820936063,-52564.73154601235,-32381.55333775918,-29613.222731736034,-342.7863529665891,-19617.41085260044,0.0,0.0,0.0,193.0,1.0,156.0,0.0,44.0,3.0,252.0,412.0,44.0,1020.0,1744252911.9544988,0.0,2025-04-09 22:41:51.954,RIGHT,42
235.0,11451.31277457628,609.2862021072152,-56245.05802930093,-52607.199860477434,-32392.17041637545,-29616.731955615516,-413.77549335664435,-19629.45844286185,0.0,0.0,0.0,193.0,1.0,155.0,0.0,44.0,3.0,251.0,411.0,44.0,1019.0,1744252911.9545076,0.0,2025-04-09 22:41:51.954,RIGHT,42
236.0,11416.287591014814,619.0762661786397,-56199.79574677894,-52573.33696762764,-32326.411584187936,-29551.688379250572,-384.4053011423709,-19564.616032197006,0.0,0.0,0.0,193.0,1.0,155.0,0.0,44.0,3.0,252.0,411.0,44.0,1020.0,1744252911.9545164,0.0,2025-04-09 22:41:51.954,RIGHT,42
237.0,11366.040869479284,623.1219319250503,-56227.109578503325,-52597.8121278062,-32337.20747675985,-29568.854518992248,-338.76303896463384,-19571.81329391161,0.0,0.0,0.0,193.0,1.0,154.0,0.0,44.0,3.0,250.0,410.0,44.0,1018.0,1744252911.954525,0.0,2025-04-09 22:41:51.954,RIGHT,42
238.0,11354.48501759589,600.323152580637,-56225.164976735716,-52579.997787475324,-32369.572802731134,-29600.01285076295,-348.7766204806114,-19597.942483179868,0.0,0.0,0.0,193.0,1.0,155.0,0.0,44.0,3.0,250.0,411.0,44.0,1018.0,1744252911.9545338,0.0,2025-04-09 22:41:51.954,RIGHT,42
239.0,11467.294271861825,626.9887837158184,-56221.7675115785,-52568.41958384748,-32383.25207033778,-29606.740725843996,-352.62112052692424,-19609.721852507813,0.0,0.0,0.0,193.0,1.0,154.0,0.0,44.0,3.0,250.0,410.0,44.0,1018.0,1744252911.9545424,0.0,2025-04-09 22:41:51.954,RIGHT,42
240.0,11437.298230802802,629.6709930504553,-56194.83365950986,-52582.14355494304,-32325.11518300953,-29548.80500421584,-402.5996211289908,-19571.075686344586,0.0,0.0,0.0,193.0,1.0,154.0,0.0,44.0,3.0,250.0,410.0,44.0,1018.0,1744252911.9545512,0.0,2025-04-09 22:41:51.954,RIGHT,42
241.0,11397.914457072551,643.7078885683881,-56211.306895173424,-52576.06388045119,-32330.948988312364,-29558.550364798353,-320.8816434003882,-19582.87740741699,0.0,0.0,0.0,193.0,1.0,154.0,0.0,44.0,3.0,249.0,410.0,44.0,1017.0,1744252911.9545598,0.0,2025-04-09 22:41:51.954,RIGHT,42
242.0,11345.633726791588,598.2220886018382,-56237.36902920831,-52604.13767148706,-32374.959573144864,-29604.125571742723,-375.1069754489631,-19632.632390574505,0.0,0.0,0.0,193.0,1.0,154.0,0.0,44.0,3.0,249.0,410.0,44.0,1017.0,1744252911.9545689,0.0,2025-04-09 22:41:51.954,RIGHT,42
243.0,11442.483835516434,614.8964899654973,-56236.18438675218,-52563.658662278496,-32408.37543110555,-29624.644473152697,-341.177027365807,-19636.32042840963,0.0,0.0,0.0,193.0,1.0,154.0,0.0,44.0,3.0,249.0,410.0,44.0,1017.0,1744252911.9545777,0.0,2025-04-09 22:41:51.954,RIGHT,42
244.0,11437.320582547258,623.4572080918799,-56209.87638352828,-52600.02495050728,-32340.671997150424,-29546.1227948812,-435.76960990066647,-19563.744314163247,0.0,0.0,0.0,193.0,1.0,154.0,0.0,44.0,3.0,250.0,410.0,44.0,1018.0,1744252911.9545863,0.0,2025-04-09 22:41:51.954,RIGHT,42
245.0,11381.955311531463,625.0441819482068,-56231.49052041656,-52579.21547641939,-32354.619485690535,-29567.222841647013,-323.0721143570083,-19570.15926482192,0.0,0.0,0.0,193.0,1.0,154.0,0.0,44.0,3.0,249.0,410.0,44.0,1017.0,1744252911.9545949,0.0,2025-04-09 22:41:51.954,RIGHT,42
246.0,11332.535604540779,598.7808822132209,-56252.836436371384,-52623.69544788545,-32376.010105134264,-29592.636775092695,-379.756138295667,-19604.13391639399,0.0,0.0,0.0,193.0,1.0,154.0,0.0,44.0,3.0,249.0,410.0,44.0,1017.0,1744252911.954609,0.0,2025-04-09 22:41:51.954,RIGHT,42
247.0,11439.689867459521,622.1161034245615,-56220.046427255445,-52536.68010672094,-32392.818616964654,-29612.082792768815,-303.2461170251509,-19623.9822654703,0.0,0.0,0.0,193.0,1.0,155.0,0.0,44.0,3.0,252.0,411.0,44.0,1020.0,1744252911.9546175,0.0,2025-04-09 22:41:51.954,RIGHT,42
248.0,11454.866701944675,626.0500104486955,-56213.56442136341,-52604.16002323151,-32345.812898375145,-29552.582449028785,-440.8211041475659,-19581.69276496086,0.0,0.0,0.0,193.0,1.0,155.0,0.0,44.0,3.0,252.0,411.0,44.0,1020.0,1744252911.954626,0.0,2025-04-09 22:41:51.954,RIGHT,42
249.0,11403.88237284212,637.5611588431786,-56204.89194451475,-52551.07463015016,-32334.681729636402,-29546.905105937138,-310.4880822286704,-19552.72490414678,0.0,0.0,0.0,193.0,1.0,155.0,0.0,44.0,3.0,252.0,411.0,44.0,1020.0,1744252911.954635,0.0,2025-04-09 22:41:51.954,RIGHT,42
250.0,11346.706610525443,613.9577166983744,-56235.06679952941,-52611.44669192394,-32355.98294210231,-29568.541594569877,-375.3751963824268,-19575.434276513373,0.0,0.0,0.0,193.0,1.0,155.0,0.0,44.0,3.0,252.0,411.0,44.0,1020.0,1744252911.9546435,0.0,2025-04-09 22:41:51.954,RIGHT,42
251.0,11413.381864235624,614.874138221042,-56213.87734578578,-52530.04163861772,-32388.728247729334,-29606.986595033002,-297.54642218904763,-19605.8773524615,0.0,0.0,0.0,193.0,1.0,155.0,0.0,44.0,3.0,251.0,411.0,44.0,1019.0,1744252911.9546523,0.0,2025-04-09 22:41:51.954,RIGHT,42
252.0,11453.212672854981,626.7876180157207,-56226.64019186976,-52612.18429949097,-32368.969305630842,-29571.022638204413,-448.19717981781724,-19595.86377094552,0.0,0.0,0.0,193.0,1.0,155.0,0.0,44.0,3.0,252.0,411.0,44.0,1020.0,1744252911.9546611,0.0,2025-04-09 22:41:51.954,RIGHT,42
253.0,11416.30994275927,643.9761095018517,-56188.798688506926,-52543.16211261298,-32321.941235296876,-29538.813774444316,-323.8320736684887,-19546.980505821768,0.0,0.0,0.0,193.0,1.0,155.0,0.0,44.0,3.0,252.0,411.0,44.0,1020.0,1744252911.95467,0.0,2025-04-09 22:41:51.954,RIGHT,42
254.0,11356.250805407859,628.0393157052179,-56225.142624991255,-52604.629409865076,-32342.437784962392,-29563.065417178324,-357.6055595404577,-19567.655869442926,0.0,0.0,0.0,193.0,1.0,154.0,0.0,44.0,3.0,249.0,410.0,44.0,1017.0,1744252911.9546857,0.0,2025-04-09 22:41:51.954,RIGHT,42
255.0,11392.482983169912,612.8177777311537,-56210.99397075105,-52538.31178406618,-32381.88861392601,-29608.081830511313,-310.01869559510897,-19606.145573394966,0.0,0.0,0.0,193.0,1.0,155.0,0.0,44.0,3.0,250.0,411.0,44.0,1018.0,1744252911.9546945,0.0,2025-04-09 22:41:51.954,RIGHT,42
0.0,11465.729649749954,634.6330803195334,-56219.0182470105,-52590.637217836054,-32369.662209708957,-29579.561004586343,-415.11659802396275,-19591.907512176935,0.0,0.0,0.0,193.0,1.0,154.0,0.0,44.0,3.0,248.0,410.0,44.0,1016.0,1744252911.9547033,0.0,2025-04-09 22:41:51.954,RIGHT,42
1.0,11429.698637687998,652.8050485616981,-56174.02418542197,-52534.66844971996,-32309.781886313187,-29527.973178383494,-338.2936523310724,-19537.838642339546,0.0,0.0,0.0,193.0,1.0,154.0,0.0,44.0,3.0,249.0,410.0,44.0,1017.0,1744252911.9547122,0.0,2025-04-09 22:41:51.954,RIGHT,42
2.0,11379.183695219004,649.8993217825082,-56208.31176141641,-52579.036662463746,-32327.618578388523,-29553.968257185013,-341.60171051045785,-19562.269099029196,0.0,0.0,0.0,193.0,1.0,154.0,0.0,44.0,3.0,250.0,410.0,44.0,1018.0,1744252911.954721,0.0,2025-04-09 22:41:51.954,RIGHT,42
3.0,11383.29641619878,619.5456528122012,-56203.26026716951,-52536.3001270652,-32365.124805584528,-29592.122684970225,-327.2965940590613,-19583.123276606,0.0,0.0,0.0,193.0,1.0,154.0,0.0,44.0,3.0,250.0,410.0,44.0,1018.0,1744252911.9547298,0.0,2025-04-09 22:41:51.954,RIGHT,42
4.0,11478.358385367203,637.4494001209022,-56206.50127011553,-52554.695612751915,-32362.241430549795,-29585.41716163363,-374.1458504373849,-19577.20006432534,0.0,0.0,0.0,193.0,1.0,154.0,0.0,44.0,3.0,250.0,410.0,44.0,1018.0,1744252911.9547386,0.0,2025-04-09 22:41:51.954,RIGHT,42
5.0,11440.472178515456,641.2268449338491,-56170.3584993313,-52537.77534219925,-32295.47676986179,-29535.617474987208,-363.9758067102202,-19527.400377678918,0.0,0.0,0.0,193.0,1.0,155.0,0.0,44.0,3.0,251.0,411.0,44.0,1019.0,1744252911.9547527,0.0,2025-04-09 22:41:51.954,RIGHT,42
6.0,11377.976701018419,634.9460047419077,-56213.3185521744,-52567.36905185808,-32320.44366841837,-29569.592126559273,-329.7329342046898,-19555.116540803498,0.0,0.0,0.0,193.0,1.0,155.0,0.0,44.0,3.0,251.0,411.0,44.0,1019.0,1744252911.9547615,0.0,2025-04-09 22:41:51.954,RIGHT,42
7.0,11353.143912928572,602.5136235372572,-56219.487633644065,-52553.68978425143,-32355.602962446566,-29595.363687916244,-355.66095777284596,-19574.763724179713,0.0,0.0,0.0,193.0,1.0,155.0,0.0,44.0,3.0,251.0,411.0,44.0,1019.0,1744252911.95477,0.0,2025-04-09 22:41:51.954,RIGHT,42
8.0,11458.867664202175,629.1792546724386,-56217.63243885427,-52528.4993682503,-32373.819634177642,-29606.785429332907,-354.0963356609745,-19592.77923021069,0.0,0.0,0.0,193.0,1.0,155.0,0.0,44.0,3.0,251.0,411.0,44.0,1019.0,1744252911.954779,0.0,2025-04-09 22:41:51.954,RIGHT,42
9.0,11434.772483679353,630.2744901507485,-56191.70441528612,-52543.87736843555,-32314.274586948704,-29541.205411101033,-418.6481736479013,-19540.029113296165,0.0,0.0,0.0,193.0,1.0,155.0,0.0,44.0,3.0,252.0,411.0,44.0,1020.0,1744252911.9547875,0.0,2025-04-09 22:41:51.954,RIGHT,42
10.0,11393.689977370499,641.9197490119635,-56207.015360238,-52529.70636245089,-32317.06855500562,-29556.963390942026,-318.7805794215893,-19548.455720955815,0.0,0.0,0.0,193.0,1.0,155.0,0.0,44.0,3.0,252.0,411.0,44.0,1020.0,1744252911.9547963,0.0,2025-04-09 22:41:51.954,RIGHT,42
11.0,11341.744523256366,602.2454026037935,-56225.54495639145,-52554.65090926301,-32352.25020077827,-29582.265565665435,-366.59096081149113,-19559.609241439015,0.0,0.0,0.0,193.0,1.0,155.0,0.0,44.0,3.0,252.0,411.0,44.0,1020.0,1744252911.9548051,0.0,2025-04-09 22:41:51.954,RIGHT,42
12.0,11436.582974980232,612.7283707533325,-56225.94728779165,-52509.27686801874,-32391.164587874962,-29613.490952669497,-326.08959985847474,-19577.758857936726,0.0,0.0,0.0,193.0,1.0,156.0,0.0,44.0,3.0,252.0,412.0,44.0,1020.0,1744252911.954814,0.0,2025-04-09 22:41:51.954,RIGHT,42
13.0,11438.013486625372,624.775961014743,-56204.48961311455,-52554.74031624083,-32326.366880699028,-29542.948847168547,-441.24578729221673,-19532.67538937037,0.0,0.0,0.0,193.0,1.0,155.0,0.0,44.0,3.0,252.0,411.0,44.0,1020.0,1744252911.9548228,0.0,2025-04-09 22:41:51.954,RIGHT,42
14.0,11393.086480270205,635.9741849868518,-56205.718959059595,-52510.8414901306,-32315.9286160384,-29544.625228002697,-306.9788583491872,-19524.405243921905,0.0,0.0,0.0,193.0,1.0,156.0,0.0,44.0,3.0,252.0,412.0,44.0,1020.0,1744252911.9548316,0.0,2025-04-09 22:41:51.954,RIGHT,42
15.0,11336.380104587091,600.7478357252879,-56239.85007284285,-52566.16205765749,-32344.360034985548,-29575.872966751216,-373.6541120593682,-19564.19134905235,0.0,0.0,0.0,193.0,1.0,156.0,0.0,44.0,3.0,252.0,412.0,44.0,1020.0,1744252911.9548404,0.0,2025-04-09 22:41:51.954,RIGHT,42
16.0,11430.749169677398,614.650620776489,-56220.64992435574,-52488.04271078619,-32371.875032410033,-29606.58426363281,-300.4968524571481,-19586.319576063106,0.0,0.0,0.0,193.0,1.0,155.0,0.0,44.0,3.0,251.0,411.0,44.0,1019.0,1744252911.9548492,0.0,2025-04-09 22:41:51.954,RIGHT,42
17.0,11445.747190206908,611.968411441852,-56222.147491234246,-52564.19510414542,-32328.602055144558,-29552.493042050966,-438.3847640019374,-19544.54416567614,0.0,0.0,0.0,193.0,1.0,154.0,0.0,44.0,3.0,249.0,410.0,44.0,1017.0,1744252911.9548578,0.0,2025-04-09 22:41:51.954,RIGHT,42
18.0,11398.585009406212,625.4688650928575,-56207.14947070473,-52507.019341828745,-32310.54184562467,-29547.530954781887,-312.0750560849972,-19529.43438642435,0.0,0.0,0.0,193.0,1.0,154.0,0.0,44.0,3.0,249.0,410.0,44.0,1017.0,1744252911.9548664,0.0,2025-04-09 22:41:51.954,RIGHT,42
19.0,11337.542395298768,603.228879359827,-56243.381648466784,-52572.35349087161,-32338.526229682713,-29572.52020508292,-375.755176038167,-19560.59271819505,0.0,0.0,0.0,193.0,1.0,154.0,0.0,44.0,3.0,250.0,410.0,44.0,1018.0,1744252911.9548752,0.0,2025-04-09 22:41:51.954,RIGHT,42
20.0,11404.821146109241,604.8829084495197,-56218.45945339912,-52487.90860031946,-32365.907116640465,-29605.0866967543,-296.7194076442013,-19586.476038274293,0.0,0.0,0.0,193.0,1.0,154.0,0.0,45.0,3.0,250.0,410.0,45.0,1018.0,1744252911.9548888,0.0,2025-04-09 22:41:51.954,RIGHT,42
21.0,11449.748152464408,614.292992865204,-56231.870500072306,-52563.83747623414,-32346.34934024207,-29567.55811781384,-435.8366651340324,-19571.232148555773,0.0,0.0,0.0,193.0,1.0,154.0,0.0,44.0,3.0,250.0,410.0,44.0,1018.0,1744252911.9548976,0.0,2025-04-09 22:41:51.954,RIGHT,42
22.0,11415.125300303138,631.1238564400502,-56192.442022853145,-52498.23510625781,-32299.410676885927,-29531.214181329513,-321.01575386712005,-19526.48395615625,0.0,0.0,0.0,193.0,1.0,154.0,0.0,44.0,3.0,249.0,410.0,44.0,1017.0,1744252911.9549065,0.0,2025-04-09 22:41:51.954,RIGHT,42
23.0,11354.037982706785,616.1258359105392,-56232.22812798359,-52560.26119712129,-32324.466982420327,-29553.94590544056,-348.82132396952204,-19546.689933143847,0.0,0.0,0.0,193.0,1.0,154.0,0.0,44.0,3.0,251.0,410.0,44.0,1019.0,1744252911.9549153,0.0,2025-04-09 22:41:51.954,RIGHT,42
24.0,11373.707517827454,590.3766262980255,-56230.395284938255,-52508.852184874086,-32371.472701009836,-29605.310214198857,-314.243175297162,-19593.248616844252,0.0,0.0,0.0,193.0,1.0,155.0,0.0,45.0,3.0,251.0,411.0,45.0,1019.0,1744252911.9549236,0.0,2025-04-09 22:41:51.954,RIGHT,42
25.0,11447.98236465244,603.8547282045756,-56244.94627057866,-52561.11056341059,-32367.27057305224,-29584.52309185542,-410.60154564399073,-19579.770514937703,0.0,0.0,0.0,193.0,1.0,155.0,0.0,44.0,3.0,251.0,411.0,44.0,1019.0,1744252911.9549325,0.0,2025-04-09 22:41:51.954,RIGHT,42
26.0,11406.788099621308,613.421274831447,-56206.277752670976,-52516.58588845562,-32309.96070026883,-29537.740890710462,-350.18478038129575,-19525.120499744477,0.0,0.0,0.0,193.0,1.0,155.0,0.0,44.0,3.0,251.0,411.0,44.0,1019.0,1744252911.9549408,0.0,2025-04-09 22:41:51.954,RIGHT,42
27.0,11351.5792908167,610.3367340966147,-56242.621689155305,-52561.95992969989,-32328.53499991119,-29561.590202044274,-340.35001282096067,-19543.605392409016,0.0,0.0,0.0,193.0,1.0,155.0,0.0,44.0,3.0,251.0,411.0,44.0,1019.0,1744252911.9549496,0.0,2025-04-09 22:41:51.954,RIGHT,42
28.0,11349.120598926616,589.2590390752601,-56233.85980532883,-52524.90073739299,-32358.240468292293,-29590.736876813997,-325.73197194718983,-19568.77345666569,0.0,0.0,0.0,193.0,1.0,155.0,0.0,44.0,3.0,251.0,411.0,44.0,1019.0,1744252911.9549584,0.0,2025-04-09 22:41:51.954,RIGHT,42
29.0,11445.970707651462,608.9509259403856,-56240.49827343205,-52541.10575212309,-32371.472701009836,-29590.245138435977,-371.08366144700784,-19574.11552359051,0.0,0.0,0.0,193.0,1.0,155.0,0.0,44.0,3.0,251.0,411.0,44.0,1019.0,1744252911.954967,0.0,2025-04-09 22:41:51.954,RIGHT,42
30.0,11421.607306195177,624.0160017032625,-56192.30791238641,-52519.93865012391,-32293.040429716162,-29516.93141662257,-372.4694696032369,-19508.91548501438,0.0,0.0,0.0,193.0,1.0,155.0,0.0,44.0,3.0,251.0,411.0,44.0,1019.0,1744252911.9549756,0.0,2025-04-09 22:41:51.954,RIGHT,42
31.0,11375.473305639423,631.5708913291563,-56218.88413654377,-52534.13200785303,-32306.138551966975,-29538.970236655503,-316.7465706761564,-19535.223488238276,0.0,0.0,0.0,193.0,1.0,155.0,0.0,44.0,3.0,250.0,411.0,44.0,1018.0,1744252911.9549844,0.0,2025-04-09 22:41:51.954,RIGHT,42
32.0,11343.599718046156,595.7857484562097,-56231.088189016366,-52540.859882934084,-32342.571895429122,-29582.623193576717,-342.7640012221338,-19576.864788158513,0.0,0.0,0.0,193.0,1.0,155.0,0.0,44.0,3.0,252.0,411.0,44.0,1020.0,1744252911.9549928,0.0,2025-04-09 22:41:51.954,RIGHT,42
33.0,11445.12134136216,615.2988213656928,-56229.79178783796,-52518.93282162343,-32363.135500328008,-29604.796124076383,-325.08377135798594,-19594.477962789293,0.0,0.0,0.0,193.0,1.0,155.0,0.0,45.0,3.0,252.0,411.0,45.0,1020.0,1744252911.9550016,0.0,2025-04-09 22:41:51.955,RIGHT,42
34.0,11421.36143700617,615.5446905547012,-56204.51196485901,-52547.47599929285,-32301.131761208984,-29538.031463388383,-401.14675773939587,-19537.033979539156,0.0,0.0,0.0,193.0,1.0,154.0,0.0,44.0,3.0,249.0,410.0,44.0,1017.0,1744252911.9550104,0.0,2025-04-09 22:41:51.955,RIGHT,42
35.0,11368.38780264709,617.131664411028,-56230.14941574925,-52539.16115035548,-32317.11325849453,-29558.572716542807,-301.5473844465476,-19530.753139347213,0.0,0.0,0.0,193.0,1.0,154.0,0.0,44.0,3.0,249.0,410.0,44.0,1017.0,1744252911.9550238,0.0,2025-04-09 22:41:51.955,RIGHT,42
36.0,11327.171185871504,589.5496117531791,-56244.54393917846,-52563.12222041157,-32343.331854740605,-29577.705809796553,-360.10895491945206,-19564.973660108288,0.0,0.0,0.0,193.0,1.0,154.0,0.0,44.0,3.0,250.0,410.0,44.0,1018.0,1744252911.9550323,0.0,2025-04-09 22:41:51.955,RIGHT,42
37.0,11437.119416847161,614.3600480985699,-56225.142624991255,-52496.24580100129,-32370.444520764893,-29596.883606539206,-309.0575705835308,-19581.893930660957,0.0,0.0,0.0,193.0,1.0,154.0,0.0,45.0,3.0,249.0,410.0,45.0,1017.0,1744252911.9550414,0.0,2025-04-09 22:41:51.955,RIGHT,42
38.0,11437.700562202997,623.5913185586118,-56214.257325441526,-52556.796676730715,-32321.471848663314,-29542.21123960152,-443.1456855709178,-19549.707418645314,0.0,0.0,0.0,193.0,1.0,154.0,0.0,44.0,3.0,249.0,410.0,44.0,1017.0,1744252911.9550502,0.0,2025-04-09 22:41:51.955,RIGHT,42
39.0,11390.650140124577,632.5990715741004,-56211.68687482916,-52514.395417499,-32310.363031669025,-29552.738911239972,-304.56486994801406,-19544.05242729812,0.0,0.0,0.0,193.0,1.0,154.0,0.0,44.0,3.0,250.0,410.0,44.0,1018.0,1744252911.9550588,0.0,2025-04-09 22:41:51.955,RIGHT,42
40.0,11326.992371915863,594.7352164668104,-56245.840340356874,-52575.952121728915,-32340.31436923914,-29583.293745910378,-364.4898968326923,-19580.48577076027,0.0,0.0,0.0,193.0,1.0,154.0,0.0,44.0,3.0,249.0,410.0,44.0,1017.0,1744252911.9550676,0.0,2025-04-09 22:41:51.955,RIGHT,42
41.0,11400.730776873921,596.2774868342265,-56235.357372207334,-52504.784167383215,-32380.54750925869,-29619.72708937253,-289.8797738408773,-19596.48961979027,0.0,0.0,0.0,193.0,1.0,154.0,0.0,45.0,3.0,249.0,410.0,45.0,1017.0,1744252911.9550765,0.0,2025-04-09 22:41:51.955,RIGHT,42
42.0,11444.003754139394,620.9985162017962,-56222.348656934344,-52564.66449077899,-32328.043261533174,-29542.568867512808,-423.140874283418,-19528.696778857324,0.0,0.0,0.0,193.0,1.0,153.0,0.0,44.0,3.0,250.0,409.0,44.0,1018.0,1744252911.9550853,0.0,2025-04-09 22:41:51.955,RIGHT,42
43.0,11411.929000846028,645.4960281248127,-56192.24085715305,-52492.96009456636,-32294.04625821665,-29520.4182887576,-291.33263723047224,-19499.57245583206,0.0,0.0,0.0,193.0,1.0,154.0,0.0,44.0,3.0,249.0,410.0,44.0,1017.0,1744252911.9550939,0.0,2025-04-09 22:41:51.955,RIGHT,42
44.0,11343.890290724075,618.2492516337934,-56236.407904196734,-52564.552732056705,-32327.707985366345,-29553.789443229372,-355.4150885838376,-19540.274982485174,0.0,0.0,0.0,193.0,1.0,153.0,0.0,44.0,3.0,249.0,409.0,44.0,1017.0,1744252911.9551027,0.0,2025-04-09 22:41:51.955,RIGHT,42
45.0,11389.979587790918,606.6933997503996,-56226.72959884758,-52495.53054517872,-32372.053846365674,-29604.058516509358,-298.7310646451789,-19587.347756308052,0.0,0.0,0.0,193.0,1.0,154.0,0.0,45.0,3.0,250.0,410.0,45.0,1018.0,1744252911.9551113,0.0,2025-04-09 22:41:51.955,RIGHT,42
46.0,11448.608213497188,624.1277604255391,-56235.58088965189,-52563.9045314675,-32351.333779255605,-29564.786501501385,-427.52181619665816,-19565.174825808386,0.0,0.0,0.0,193.0,1.0,154.0,0.0,44.0,3.0,250.0,410.0,44.0,1018.0,1744252911.95512,0.0,2025-04-09 22:41:51.955,RIGHT,42
47.0,11409.02327406684,637.2035309318937,-56198.298179900434,-52503.2418970158,-32305.6244618445,-29526.944998138548,-327.76598069262275,-19519.085528741543,0.0,0.0,0.0,193.0,1.0,153.0,0.0,44.0,3.0,248.0,409.0,44.0,1016.0,1744252911.955129,0.0,2025-04-09 22:41:51.955,RIGHT,42
48.0,11345.566671558223,623.7030772808882,-56238.75483736454,-52566.027947190756,-32333.608845902545,-29555.510527552433,-357.8961322183767,-19549.148625033933,0.0,0.0,0.0,193.0,1.0,153.0,0.0,45.0,3.0,250.0,409.0,45.0,1018.0,1744252911.9551375,0.0,2025-04-09 22:41:51.955,RIGHT,42
49.0,11370.846494537174,603.1171206375504,-56227.13193024778,-52512.607277942574,-32372.21030857686,-29597.822379806326,-319.6522974553463,-19583.615014984014,0.0,0.0,0.0,193.0,1.0,154.0,0.0,45.0,3.0,249.0,410.0,45.0,1017.0,1744252911.9551463,0.0,2025-04-09 22:41:51.955,RIGHT,42
50.0,11452.385658310135,616.774036499743,-56238.03958154197,-52558.87538896506,-32365.951820129376,-29585.595975589273,-392.4072256573708,-19577.289471303164,0.0,0.0,0.0,193.0,1.0,154.0,0.0,45.0,3.0,249.0,410.0,45.0,1017.0,1744252911.9551597,0.0,2025-04-09 22:41:51.955,RIGHT,42
51.0,11415.907611359075,627.9499087273966,-56197.672331055684,-52519.02222860125,-32306.227958944793,-29532.287065063367,-351.3247193485164,-19529.92612480237,0.0,0.0,0.0,193.0,1.0,154.0,0.0,44.0,3.0,250.0,410.0,44.0,1018.0,1744252911.9551685,0.0,2025-04-09 22:41:51.955,RIGHT,42
52.0,11370.5335701148,638.7010978103993,-56225.433197669176,-52546.380763814544,-32319.616653873523,-29545.340483825268,-331.83399818348863,-19543.739502875746,0.0,0.0,0.0,193.0,1.0,154.0,0.0,44.0,3.0,251.0,410.0,44.0,1019.0,1744252911.9551773,0.0,2025-04-09 22:41:51.955,RIGHT,42
53.0,11356.653136808054,607.162786383961,-56227.51190990352,-52523.82785365914,-32359.469814237335,-29590.312193669346,-332.99628889516464,-19583.30209056164,0.0,0.0,0.0,193.0,1.0,154.0,0.0,44.0,3.0,250.0,410.0,44.0,1018.0,1744252911.9551888,0.0,2025-04-09 22:41:51.955,RIGHT,42
54.0,11450.910443176084,621.1773301574386,-56236.542014663464,-52536.83656893213,-32376.524195256734,-29603.969109531536,-362.56764680953586,-19599.820029714112,0.0,0.0,0.0,193.0,1.0,154.0,0.0,45.0,3.0,249.0,410.0,45.0,1017.0,1744252911.9551976,0.0,2025-04-09 22:41:51.955,RIGHT,42
55.0,11423.551907962788,632.0626297071731,-56198.11936594479,-52530.376914784545,-32310.988880513774,-29531.214181329513,-388.2498011886837,-19538.755063862212,0.0,0.0,0.0,193.0,1.0,154.0,0.0,44.0,3.0,249.0,410.0,44.0,1017.0,1744252911.9552064,0.0,2025-04-09 22:41:51.955,RIGHT,42
