Sample Index,EXG Channel 0,EXG Channel 1,EXG Channel 2,EXG Channel 3,EXG Channel 4,EXG Channel 5,EXG Channel 6,EXG Channel 7,Accel Channel 0,Accel Channel 1,Accel Channel 2,Not Used,Digital Channel 0 (D11),Digital Channel 1 (D12),Digital Channel 2 (D13),Digital Channel 3 (D17),Not Used,Digital Channel 4 (D18),Analog Channel 0,Analog Channel 1,Analog Channel 2,Timestamp,Marker Channel,Timestamp (Formatted),Stimulus_Direction,Stimulus_Number
188.0,29354.00955128784,31190.02654433567,-32230.254379541206,-30357.982856986866,-36182.087502728406,-32516.736688224875,-4806.988514302792,-37814.10012413265,0.0,0.0,0.0,193.0,0.0,193.0,0.0,1.0,0.0,179.0,193.0,1.0,179.0,1744420327.2980049,0.0,2025-04-11 21:12:07.298,RIGHT,4
189.0,29335.211734200926,31212.17712309088,-32207.008565307686,-30330.1102316511,-36150.973874446616,-32480.19158604045,-5109.586430738739,-37753.03515828075,0.0,0.0,0.0,193.0,0.0,193.0,0.0,1.0,0.0,179.0,193.0,1.0,179.0,1744420327.2980523,0.0,2025-04-11 21:12:07.298,RIGHT,4
190.0,29343.347769182656,31216.4686580263,-32206.382716462937,-30325.684586248946,-36152.5832000474,-32482.203243041426,-5105.361951036686,-37754.33155945916,0.0,0.0,0.0,193.0,0.0,193.0,0.0,1.0,0.0,179.0,193.0,1.0,179.0,1744420327.2981236,0.0,2025-04-11 21:12:07.298,RIGHT,4
191.0,29375.91426085404,31213.004137635726,-32230.500248730215,-30348.081034193165,-36176.633677081314,-32513.20511260094,-4645.854788524483,-37770.067187555695,0.0,0.0,0.0,193.0,0.0,193.0,0.0,1.0,0.0,179.0,193.0,1.0,179.0,1744420327.2981684,0.0,2025-04-11 21:12:07.298,RIGHT,4
192.0,29360.424501946512,31196.59795720553,-32228.868571384977,-30352.8643075066,-36174.82318578043,-32507.460714275923,-4728.422132542388,-37806.500531017846,0.0,0.0,0.0,193.0,0.0,193.0,0.0,1.0,0.0,179.0,193.0,1.0,179.0,1744420327.2982135,0.0,2025-04-11 21:12:07.298,RIGHT,4
193.0,29329.04265273126,31210.23252132327,-32216.03867006763,-30331.67485376297,-36158.43935709469,-32485.332487265172,-5051.695412599494,-37771.050664311726,0.0,0.0,0.0,193.0,0.0,193.0,0.0,1.0,0.0,179.0,193.0,1.0,179.0,1744420327.298283,0.0,2025-04-11 21:12:07.298,RIGHT,4
194.0,29322.605350328133,31214.054669625126,-32215.010489822685,-30328.8585339616,-36155.15365065976,-32484.460769231413,-5155.832190016769,-37768.390806721545,0.0,0.0,0.0,193.0,0.0,193.0,0.0,1.0,0.0,178.0,193.0,1.0,178.0,1744420327.2983274,0.0,2025-04-11 21:12:07.298,RIGHT,4
195.0,29357.362312956135,31215.865160926005,-32237.451641255815,-30348.0139789598,-36179.15942420476,-32517.943682425463,-4723.661210973408,-37785.64635344104,0.0,0.0,0.0,193.0,0.0,193.0,0.0,1.0,0.0,178.0,193.0,1.0,178.0,1744420327.298376,0.0,2025-04-11 21:12:07.298,RIGHT,4
196.0,29356.490594922376,31190.02654433567,-32237.496344744726,-30358.988685487355,-36177.885374770805,-32511.640490489066,-4692.368768735978,-37808.10985661863,0.0,0.0,0.0,193.0,0.0,193.0,0.0,1.0,0.0,179.0,193.0,1.0,179.0,1744420327.2984216,0.0,2025-04-11 21:12:07.298,RIGHT,4
197.0,29325.287559662767,31192.619346692485,-32231.81900165308,-30347.991627215342,-36170.4869473561,-32496.6201182151,-5002.722740497916,-37772.86115561261,0.0,0.0,0.0,193.0,0.0,193.0,0.0,1.0,0.0,179.0,193.0,1.0,179.0,1744420327.2984655,0.0,2025-04-11 21:12:07.298,RIGHT,4
198.0,29322.94062649496,31209.718431200796,-32218.787934635635,-30338.626246288568,-36160.5851245624,-32490.115760578607,-5177.446326905051,-37766.46855669839,0.0,0.0,0.0,193.0,0.0,193.0,0.0,1.0,0.0,179.0,193.0,1.0,179.0,1744420327.29851,0.0,2025-04-11 21:12:07.298,RIGHT,4
199.0,29367.018266560826,31222.056594140126,-32224.889960871933,-30340.079109678165,-36168.05060721047,-32511.10404862214,-4795.477365908309,-37764.90393458652,0.0,0.0,0.0,193.0,0.0,194.0,0.0,1.0,0.0,179.0,194.0,1.0,179.0,1744420327.2985528,0.0,2025-04-11 21:12:07.298,RIGHT,4
200.0,29369.05227530626,31199.235463051256,-32233.18245806485,-30360.642714577047,-36176.45486312567,-32522.302272594246,-4639.998631477193,-37807.752228707344,0.0,0.0,0.0,193.0,0.0,193.0,0.0,1.0,0.0,179.0,193.0,1.0,179.0,1744420327.2986138,0.0,2025-04-11 21:12:07.298,RIGHT,4
201.0,29345.89586805056,31200.084829340558,-32217.782106135146,-30339.676778277968,-36158.61817105033,-32504.28676656327,-4957.840437631659,-37792.08365584417,0.0,0.0,0.0,193.0,0.0,193.0,0.0,1.0,0.0,179.0,193.0,1.0,179.0,1744420327.2986567,0.0,2025-04-11 21:12:07.298,RIGHT,4
202.0,29334.09414697816,31218.569722005097,-32204.102838528495,-30321.28129259125,-36148.15755464525,-32488.931118122473,-5203.620219662216,-37779.633734182564,0.0,0.0,0.0,193.0,0.0,193.0,0.0,1.0,0.0,179.0,193.0,1.0,179.0,1744420327.2986999,0.0,2025-04-11 21:12:07.298,RIGHT,4
203.0,29353.540164654278,31214.99344289225,-32224.554684705105,-30335.698167764924,-36173.21386017965,-32518.033089403285,-4896.015512468281,-37778.98553359336,0.0,0.0,0.0,193.0,0.0,193.0,0.0,1.0,0.0,180.0,193.0,1.0,180.0,1744420327.2987573,0.0,2025-04-11 21:12:07.298,RIGHT,4
204.0,29368.09115029468,31197.5143787282,-32240.692644201834,-30363.906069267523,-36191.028200510525,-32539.826040247208,-4625.514701070154,-37825.54421729377,0.0,0.0,0.0,193.0,0.0,194.0,0.0,1.0,0.0,179.0,194.0,1.0,179.0,1744420327.2988005,0.0,2025-04-11 21:12:07.298,RIGHT,4
205.0,29344.621818616608,31192.619346692485,-32227.86274288449,-30347.879868493066,-36176.96895324814,-32515.954377168942,-4907.481957373852,-37808.243967085364,0.0,0.0,0.0,193.0,0.0,194.0,0.0,1.0,0.0,180.0,194.0,1.0,180.0,1744420327.298843,0.0,2025-04-11 21:12:07.298,RIGHT,4
206.0,29329.780260298285,31213.13824810246,-32213.37881247745,-30331.741908996333,-36158.12643267232,-32496.642469959555,-5190.387986944675,-37779.164347549005,0.0,0.0,0.0,193.0,0.0,194.0,0.0,1.0,0.0,179.0,194.0,1.0,179.0,1744420327.298886,0.0,2025-04-11 21:12:07.298,RIGHT,4
207.0,29358.122272267614,31222.54833251814,-32215.502228200705,-30328.43385081695,-36161.6356565518,-32504.510284007825,-4991.770385714815,-37769.55309743322,0.0,0.0,0.0,193.0,0.0,194.0,0.0,1.0,0.0,179.0,194.0,1.0,179.0,1744420327.2989297,0.0,2025-04-11 21:12:07.298,RIGHT,4
208.0,29381.90452836806,31214.12172485849,-32234.925894132364,-30355.837089519155,-36179.80762479396,-32532.002929687853,-4615.612878276454,-37816.04472590026,0.0,0.0,0.0,193.0,0.0,194.0,0.0,1.0,0.0,179.0,194.0,1.0,179.0,1744420327.2989883,0.0,2025-04-11 21:12:07.298,RIGHT,4
209.0,29360.826833346706,31200.487160740755,-32223.593559693523,-30344.884734736057,-36168.363531632844,-32504.867911919107,-4841.745476930795,-37795.27995530128,0.0,0.0,0.0,193.0,0.0,193.0,0.0,1.0,0.0,179.0,193.0,1.0,179.0,1744420327.299032,0.0,2025-04-11 21:12:07.299,RIGHT,4
210.0,29334.697644078453,31213.406469035923,-32210.42838220935,-30330.57961828466,-36155.15365065976,-32487.120626821594,-5149.7748672693815,-37765.28391424226,0.0,0.0,0.0,193.0,0.0,193.0,0.0,1.0,0.0,179.0,193.0,1.0,179.0,1744420327.299076,0.0,2025-04-11 21:12:07.299,RIGHT,4
211.0,29349.18157448549,31220.827248195084,-32211.85889385449,-30327.897408950023,-36159.62399955082,-32502.29746130675,-5067.229874995933,-37774.24696376884,0.0,0.0,0.0,193.0,0.0,193.0,0.0,1.0,0.0,179.0,193.0,1.0,179.0,1744420327.29912,0.0,2025-04-11 21:12:07.299,RIGHT,4
212.0,29376.026019576315,31215.619291737,-32237.96573137829,-30351.523202839282,-36187.78719756451,-32534.43926983348,-4632.935480229316,-37807.28284207378,0.0,0.0,0.0,193.0,0.0,193.0,0.0,1.0,0.0,179.0,193.0,1.0,179.0,1744420327.2991633,0.0,2025-04-11 21:12:07.299,RIGHT,4
213.0,29357.60818214514,31193.915747870895,-32236.825792411066,-30350.137394683054,-36187.56368011996,-32517.586054514177,-4797.109043253547,-37810.16621710852,0.0,0.0,0.0,193.0,0.0,193.0,0.0,1.0,0.0,179.0,193.0,1.0,179.0,1744420327.2992067,0.0,2025-04-11 21:12:07.299,RIGHT,4
214.0,29338.09510923566,31214.725221958786,-32218.162085790886,-30324.32112983717,-36167.71533104364,-32488.394676255546,-5121.477558788963,-37766.446204953936,0.0,0.0,0.0,193.0,0.0,193.0,0.0,1.0,0.0,179.0,193.0,1.0,179.0,1744420327.2992504,0.0,2025-04-11 21:12:07.299,RIGHT,4
215.0,29345.113556994627,31226.28107384218,-32211.0542310541,-30314.151086110007,-36165.70367404266,-32489.08758033366,-5141.1470939096325,-37771.7659201343,0.0,0.0,0.0,193.0,0.0,193.0,0.0,1.0,0.0,179.0,193.0,1.0,179.0,1744420327.2993107,0.0,2025-04-11 21:12:07.299,RIGHT,4
216.0,29372.896775352572,31227.242198853757,-32238.055138356107,-30337.15103115452,-36198.56073839196,-32521.899941194053,-4687.853716356006,-37788.23915579786,0.0,0.0,0.0,193.0,0.0,193.0,0.0,1.0,0.0,179.0,193.0,1.0,179.0,1744420327.2993543,0.0,2025-04-11 21:12:07.299,RIGHT,4
217.0,29359.217507745925,31199.99542236274,-32235.46233599929,-30343.43187134646,-36187.83190105342,-32514.948548668453,-4745.5212170506975,-37806.075847873195,0.0,0.0,0.0,193.0,0.0,193.0,0.0,1.0,0.0,179.0,193.0,1.0,179.0,1744420327.2993984,0.0,2025-04-11 21:12:07.299,RIGHT,4
218.0,29326.941588752463,31211.774791690685,-32226.56634170608,-30326.80217347171,-36174.30909565796,-32498.05062986024,-5065.039404039312,-37775.3645509916,0.0,0.0,0.0,193.0,0.0,193.0,0.0,1.0,0.0,179.0,193.0,1.0,179.0,1744420327.299456,0.0,2025-04-11 21:12:07.299,RIGHT,4
219.0,29333.781222555786,31232.338396589566,-32208.841408353022,-30311.446525030915,-36156.986493705095,-32484.6172314426,-5182.184896729576,-37769.508393944314,0.0,0.0,0.0,193.0,0.0,193.0,0.0,0.0,0.0,179.0,193.0,0.0,179.0,1744420327.2995,0.0,2025-04-11 21:12:07.299,RIGHT,4
220.0,29363.82196710372,31216.289844070656,-32234.680024943358,-30336.458127076403,-36185.17204346324,-32525.498572051358,-4741.721420493295,-37792.77655992229,0.0,0.0,0.0,193.0,0.0,193.0,0.0,1.0,0.0,179.0,193.0,1.0,179.0,1744420327.2995431,0.0,2025-04-11 21:12:07.299,RIGHT,4
221.0,29354.14366175457,31183.343372743533,-32243.553667492113,-30357.0664354642,-36189.19535746519,-32527.01849067432,-4694.3357222480445,-37828.89697896206,0.0,0.0,0.0,193.0,0.0,193.0,0.0,0.0,0.0,179.0,193.0,0.0,179.0,1744420327.299588,0.0,2025-04-11 21:12:07.299,RIGHT,4
222.0,29332.484821377377,31195.122742071482,-32225.6052166945,-30328.322092094673,-36167.55886883246,-32492.775618168787,-5003.70621725395,-37770.58127767817,0.0,0.0,0.0,193.0,0.0,193.0,0.0,0.0,0.0,179.0,193.0,0.0,179.0,1744420327.2996309,0.0,2025-04-11 21:12:07.299,RIGHT,4
223.0,29326.919237008005,31206.5668352326,-32211.322451987562,-30313.61464424308,-36153.09729016987,-32477.79994938373,-5192.936085812579,-37750.352948946114,0.0,0.0,0.0,193.0,0.0,193.0,0.0,0.0,0.0,179.0,193.0,0.0,179.0,1744420327.299688,0.0,2025-04-11 21:12:07.299,RIGHT,4
224.0,29362.257344991845,31218.90499817193,-32226.365176005984,-30324.611702515092,-36169.19054617769,-32505.225539830393,-4802.42875843391,-37752.85634432511,0.0,0.0,0.0,193.0,0.0,193.0,0.0,0.0,0.0,179.0,193.0,0.0,179.0,1744420327.2997303,0.0,2025-04-11 21:12:07.299,RIGHT,4
225.0,29376.182481787502,31215.328719059078,-32231.394318508428,-30341.62138004558,-36175.29257241399,-32510.85817943313,-4639.81981752155,-37798.25273731384,0.0,0.0,0.0,193.0,0.0,193.0,0.0,0.0,0.0,179.0,193.0,0.0,179.0,1744420327.2997725,0.0,2025-04-11 21:12:07.299,RIGHT,4
226.0,29335.56936211221,31193.714582170796,-32227.46041148429,-30336.122850909574,-36170.464595611644,-32500.8222461727,-4942.350678724132,-37782.96414410641,0.0,0.0,0.0,193.0,0.0,194.0,0.0,0.0,0.0,180.0,194.0,0.0,180.0,1744420327.2998145,0.0,2025-04-11 21:12:07.299,RIGHT,4
227.0,29322.314777650212,31203.012907864206,-32204.438114695327,-30315.648652988515,-36147.17407788921,-32473.486062703858,-5191.438518934074,-37745.52497214377,0.0,0.0,0.0,193.0,0.0,194.0,0.0,0.0,0.0,179.0,194.0,0.0,179.0,1744420327.299857,0.0,2025-04-11 21:12:07.299,RIGHT,4
228.0,29345.180612227992,31199.682497940365,-32219.52554220266,-30327.76329848329,-36168.27412465503,-32504.353821796638,-4902.430463126953,-37750.844687324134,0.0,0.0,0.0,193.0,0.0,194.0,0.0,0.0,0.0,179.0,194.0,0.0,179.0,1744420327.2998989,0.0,2025-04-11 21:12:07.299,RIGHT,4
229.0,29363.777263614807,31188.439570479342,-32233.070699342574,-30354.987723229853,-36184.7920638075,-32529.499534308856,-4617.5574800440645,-37802.74543794936,0.0,0.0,0.0,193.0,0.0,193.0,0.0,0.0,0.0,179.0,193.0,0.0,179.0,1744420327.2999415,0.0,2025-04-11 21:12:07.299,RIGHT,4
230.0,29342.18547847098,31182.31519249859,-32220.620777680968,-30342.984836457355,-36168.452938610666,-32511.10404862214,-4896.954285735404,-37792.798911666745,0.0,0.0,0.0,193.0,0.0,193.0,0.0,0.0,0.0,179.0,193.0,0.0,179.0,1744420327.300001,0.0,2025-04-11 21:12:07.300,RIGHT,4
231.0,29314.536370579764,31188.774846646174,-32211.456562454292,-30332.971254941378,-36157.58999080539,-32499.257624060825,-5179.435632161574,-37775.52101320279,0.0,0.0,0.0,193.0,0.0,193.0,0.0,0.0,0.0,179.0,193.0,0.0,179.0,1744420327.3000433,0.0,2025-04-11 21:12:07.300,RIGHT,4
232.0,29336.95517026844,31189.64656467993,-32218.117382301974,-30335.273484620273,-36168.56469733294,-32509.53942651027,-5001.471042808419,-37770.625981167075,0.0,0.0,0.0,193.0,0.0,193.0,0.0,0.0,0.0,179.0,193.0,0.0,179.0,1744420327.3000867,0.0,2025-04-11 21:12:07.300,RIGHT,4
233.0,29367.375894472112,31190.205358291314,-32232.310740031095,-30354.71950229639,-36184.30032542948,-32522.995176672364,-4612.997724175182,-37790.541385476754,0.0,0.0,0.0,193.0,0.0,193.0,0.0,0.0,0.0,179.0,193.0,0.0,179.0,1744420327.3003027,0.0,2025-04-11 21:12:07.300,RIGHT,4
234.0,29343.213658715926,31173.754474372206,-32227.348652762015,-30350.360912127606,-36177.55009860398,-32513.76390621232,-4834.548215216186,-37802.76778969381,0.0,0.0,0.0,193.0,0.0,193.0,0.0,0.0,0.0,179.0,193.0,0.0,179.0,1744420327.300351,0.0,2025-04-11 21:12:07.300,RIGHT,4
235.0,29322.024204972295,31189.423047235377,-32215.479876456247,-30335.832278231657,-36168.11766244384,-32496.463656003914,-5162.560065097817,-37784.59582145164,0.0,0.0,0.0,193.0,0.0,193.0,0.0,0.0,0.0,178.0,193.0,0.0,178.0,1744420327.3004029,0.0,2025-04-11 21:12:07.300,RIGHT,4
236.0,29349.2262779744,31207.93029164437,-32203.924024572854,-30321.415403057985,-36162.77559551902,-32494.541405980755,-5091.77209040786,-37770.693036400444,0.0,0.0,0.0,193.0,0.0,193.0,0.0,0.0,0.0,178.0,193.0,0.0,178.0,1744420327.3004484,0.0,2025-04-11 21:12:07.300,RIGHT,4
237.0,29377.277717265813,31205.69511719884,-32236.937551133342,-30352.976066228875,-36202.76286634956,-32537.30029312376,-4647.285300169623,-37807.84163568517,0.0,0.0,0.0,193.0,0.0,193.0,0.0,0.0,0.0,179.0,193.0,0.0,179.0,1744420327.3004944,0.0,2025-04-11 21:12:07.300,RIGHT,4
238.0,29367.420597961023,31193.960451359806,-32221.85012362601,-30345.085900436152,-36186.37903766382,-32517.630758003088,-4802.607572389552,-37823.08552540369,0.0,0.0,0.0,193.0,0.0,193.0,0.0,0.0,0.0,179.0,193.0,0.0,179.0,1744420327.30059,0.0,2025-04-11 21:12:07.300,RIGHT,4
239.0,29345.80646107274,31205.3151375431,-32203.074658283553,-30327.18215312745,-36163.60261006387,-32496.865987404108,-5136.6320415296605,-37790.02729535429,0.0,0.0,0.0,193.0,0.0,193.0,0.0,0.0,0.0,179.0,193.0,0.0,179.0,1744420327.3006392,0.0,2025-04-11 21:12:07.300,RIGHT,4
240.0,29348.823946574208,31205.672765454387,-32207.94733857481,-30328.635016517048,-36172.76682529054,-32511.90871142253,-5164.392908143152,-37805.315888561716,0.0,0.0,0.0,193.0,0.0,193.0,0.0,0.0,0.0,178.0,193.0,0.0,178.0,1744420327.3006916,0.0,2025-04-11 21:12:07.300,RIGHT,4
241.0,29376.76362714334,31212.959434146815,-32227.013376595187,-30342.20252540142,-36196.52672964653,-32534.506325066846,-4723.013010384204,-37805.673516473,0.0,0.0,0.0,193.0,0.0,193.0,0.0,0.0,0.0,179.0,193.0,0.0,179.0,1744420327.3007393,0.0,2025-04-11 21:12:07.300,RIGHT,4
242.0,29364.179595015004,31183.164558787892,-32222.364213748482,-30346.784633014755,-36187.27310744204,-32523.598673772656,-4755.311281122123,-37808.57924325219,0.0,0.0,0.0,193.0,0.0,193.0,0.0,0.0,0.0,179.0,193.0,0.0,179.0,1744420327.3007848,0.0,2025-04-11 21:12:07.300,RIGHT,4
243.0,29323.99115848436,31179.677686652863,-32222.677138170857,-30339.363853855593,-36185.12733997433,-32517.4742957919,-5068.123944774145,-37795.39171402356,0.0,0.0,0.0,193.0,0.0,193.0,0.0,0.0,0.0,179.0,193.0,0.0,179.0,1744420327.30083,0.0,2025-04-11 21:12:07.300,RIGHT,4
244.0,29321.018376471806,31186.5620239451,-32214.049364811108,-30334.312359608695,-36177.34893290388,-32517.4742957919,-5211.689199410582,-37807.99809789635,0.0,0.0,0.0,193.0,0.0,193.0,0.0,0.0,0.0,179.0,193.0,0.0,179.0,1744420327.3008747,0.0,2025-04-11 21:12:07.300,RIGHT,4
245.0,29361.787958358284,31191.88173912546,-32226.320472517073,-30342.984836457355,-36191.676401099736,-32537.836734990688,-4783.586237858086,-37799.95146989244,0.0,0.0,0.0,193.0,0.0,193.0,0.0,0.0,0.0,179.0,193.0,0.0,179.0,1744420327.3009624,0.0,2025-04-11 21:12:07.300,RIGHT,4
246.0,29359.977467057404,31174.045047050127,-32231.394318508428,-30357.044083719742,-36193.330430189424,-32535.91448496753,-4689.485393701243,-37820.470371302414,0.0,0.0,0.0,193.0,0.0,193.0,0.0,0.0,0.0,179.0,193.0,0.0,179.0,1744420327.3010187,0.0,2025-04-11 21:12:07.301,RIGHT,4
247.0,29333.6247603446,31183.902166354917,-32216.508056701194,-30331.71955725188,-36175.76195904755,-32504.77850494129,-5011.37286560212,-37781.17600454998,0.0,0.0,0.0,193.0,0.0,193.0,0.0,0.0,0.0,179.0,193.0,0.0,179.0,1744420327.3010647,0.0,2025-04-11 21:12:07.301,RIGHT,4
248.0,29332.060138232726,31207.595015477542,-32200.303041971096,-30312.742926209325,-36162.90970598575,-32484.639583187054,-5219.601716947761,-37771.274181756286,0.0,0.0,0.0,193.0,0.0,193.0,0.0,0.0,0.0,179.0,193.0,0.0,179.0,1744420327.3011532,0.0,2025-04-11 21:12:07.301,RIGHT,4
249.0,29367.95703982795,31217.586245249066,-32215.837504367533,-30322.577693769657,-36185.999058008085,-32511.036993388774,-4855.4023927929875,-37780.840728383155,0.0,0.0,0.0,193.0,0.0,193.0,0.0,0.0,0.0,179.0,193.0,0.0,179.0,1744420327.3012023,0.0,2025-04-11 21:12:07.301,RIGHT,4
250.0,29374.796673631274,31198.65431769542,-32226.588693450536,-30348.729234782368,-36198.76190409206,-32527.39847033006,-4667.357166690489,-37823.93489169299,0.0,0.0,0.0,193.0,0.0,193.0,0.0,0.0,0.0,180.0,193.0,0.0,180.0,1744420327.301249,0.0,2025-04-11 21:12:07.301,RIGHT,4
251.0,29347.035807017783,31196.553253716622,-32214.80932412259,-30332.591275285635,-36182.62394459533,-32512.422801545003,-4964.165981312512,-37804.757094950335,0.0,0.0,0.0,193.0,0.0,194.0,0.0,0.0,0.0,180.0,194.0,0.0,180.0,1744420327.3012967,0.0,2025-04-11 21:12:07.301,RIGHT,4
252.0,29334.943513267463,31212.4676957688,-32196.816169836067,-30313.41347854298,-36165.54721183148,-32495.90486239253,-5228.497711240972,-37797.73864719136,0.0,0.0,0.0,193.0,0.0,194.0,0.0,0.0,0.0,179.0,194.0,0.0,179.0,1744420327.3013513,0.0,2025-04-11 21:12:07.301,RIGHT,4
253.0,29366.14654852707,31216.826285937583,-32200.839483838023,-30312.117077364575,-36170.91163050075,-32509.874702677098,-4949.994975327847,-37774.78340563577,0.0,0.0,0.0,193.0,0.0,194.0,0.0,0.0,0.0,179.0,194.0,0.0,179.0,1744420327.3014407,0.0,2025-04-11 21:12:07.301,RIGHT,4
254.0,29381.122217312124,31201.023602607682,-32220.352556747504,-30342.962484712898,-36187.25075569758,-32534.998063444862,-4642.770247789651,-37817.78816196778,0.0,0.0,0.0,193.0,0.0,194.0,0.0,0.0,0.0,179.0,194.0,0.0,179.0,1744420327.301493,0.0,2025-04-11 21:12:07.301,RIGHT,4
255.0,29355.685932121985,31192.619346692485,-32211.7024316433,-30330.46785956238,-36176.49956661458,-32516.021432402307,-4913.785149310249,-37808.37807755209,0.0,0.0,0.0,193.0,0.0,194.0,0.0,0.0,0.0,180.0,194.0,0.0,180.0,1744420327.3015442,0.0,2025-04-11 21:12:07.301,RIGHT,4
0.0,29325.891056763063,31207.460905010812,-32202.739382116724,-30316.96740591138,-36169.078787455415,-32499.99523162785,-5195.707702125037,-37785.042856340755,0.0,0.0,0.0,193.0,0.0,194.0,0.0,0.0,0.0,179.0,194.0,0.0,179.0,1744420327.3015938,0.0,2025-04-11 21:12:07.301,RIGHT,4
1.0,29345.582943628186,31213.69704171384,-32201.55473966059,-30311.55828375319,-36169.078787455415,-32505.13613285257,-5038.217310692944,-37773.95639109092,0.0,0.0,0.0,193.0,0.0,194.0,0.0,0.0,0.0,179.0,194.0,0.0,179.0,1744420327.301643,0.0,2025-04-11 21:12:07.301,RIGHT,4
2.0,29382.262156279347,31209.941948645348,-32220.799591636613,-30336.145202654032,-36189.35181967638,-32532.11468841013,-4650.1910269488135,-37809.00392639684,0.0,0.0,0.0,193.0,0.0,194.0,0.0,0.0,0.0,180.0,194.0,0.0,180.0,1744420327.301692,0.0,2025-04-11 21:12:07.301,RIGHT,4
3.0,29358.077568778703,31191.255890280714,-32227.95214986231,-30341.554324812216,-36195.81147382397,-32531.265322120827,-4862.912578929971,-37830.97569119641,0.0,0.0,0.0,193.0,0.0,193.0,0.0,0.0,0.0,179.0,193.0,0.0,179.0,1744420327.773532,0.0,2025-04-11 21:12:07.773,RIGHT,4
4.0,29318.827905515183,31205.851579410028,-32217.62564392396,-30320.521333279772,-36185.55202311898,-32506.745458453355,-5176.59696061575,-37802.81249318272,0.0,0.0,0.0,193.0,0.0,193.0,0.0,0.0,0.0,179.0,193.0,0.0,179.0,1744420327.7736492,0.0,2025-04-11 21:12:07.773,RIGHT,4
5.0,29333.17772545549,31211.84184692405,-32199.498379170705,-30296.292042290217,-36166.910668243254,-32484.728990164876,-5119.4882535324405,-37764.85923109761,0.0,0.0,0.0,193.0,0.0,193.0,0.0,0.0,0.0,179.0,193.0,0.0,179.0,1744420327.7736928,0.0,2025-04-11 21:12:07.773,RIGHT,4
6.0,29371.220394518423,31214.009966136215,-32220.129039302952,-30315.84981868861,-36188.793026064996,-32505.605519486133,-4666.083117256537,-37765.35096947563,0.0,0.0,0.0,193.0,0.0,193.0,0.0,0.0,0.0,178.0,193.0,0.0,178.0,1744420327.7737336,0.0,2025-04-11 21:12:07.773,RIGHT,4
7.0,29356.1776705,31192.865215881495,-32222.587731193034,-30324.701109492915,-36188.994191765094,-32500.375211283594,-4801.244115977778,-37791.52486223279,0.0,0.0,0.0,193.0,0.0,193.0,0.0,0.0,0.0,179.0,193.0,0.0,179.0,1744420327.7737906,0.0,2025-04-11 21:12:07.773,RIGHT,4
8.0,29321.398356127545,31198.207282806314,-32217.312719501584,-30316.453315788905,-36176.49956661458,-32487.27708903278,-5130.127683893166,-37764.412196208505,0.0,0.0,0.0,193.0,0.0,193.0,0.0,0.0,0.0,178.0,193.0,0.0,178.0,1744420327.773831,0.0,2025-04-11 21:12:07.773,RIGHT,4
9.0,29327.075699219193,31205.583358476564,-32211.61302466548,-30313.86051343209,-36167.67062755473,-32491.322754779194,-5173.624178603194,-37765.77565262028,0.0,0.0,0.0,193.0,0.0,192.0,0.0,0.0,0.0,179.0,192.0,0.0,179.0,1744420327.7738712,0.0,2025-04-11 21:12:07.773,RIGHT,4
10.0,29360.782129857795,31206.455076510323,-32239.552705234615,-30338.04510093273,-36197.42079942475,-32527.86785696362,-4703.522289219176,-37780.75132140533,0.0,0.0,0.0,193.0,0.0,193.0,0.0,0.0,0.0,179.0,193.0,0.0,179.0,1744420327.7739112,0.0,2025-04-11 21:12:07.773,RIGHT,4
11.0,29354.545993154767,31187.970183845784,-32238.077490100564,-30346.38230161456,-36193.196319722694,-32522.39167957207,-4751.489132820265,-37817.72110673441,0.0,0.0,0.0,193.0,0.0,193.0,0.0,0.0,0.0,178.0,193.0,0.0,178.0,1744420327.7739518,0.0,2025-04-11 21:12:07.773,RIGHT,4
12.0,29326.38279514108,31195.2121490493,-32226.09695507252,-30328.992644428334,-36178.84649978238,-32502.699792706942,-5085.491250215919,-37791.591917466154,0.0,0.0,0.0,193.0,0.0,193.0,0.0,0.0,0.0,179.0,193.0,0.0,179.0,1744420327.774016,0.0,2025-04-11 21:12:07.774,RIGHT,4
13.0,29325.868705018605,31203.616404964498,-32210.338975231527,-30313.56994075417,-36169.05643571096,-32491.658030946022,-5220.987525103989,-37779.94665860494,0.0,0.0,0.0,193.0,0.0,193.0,0.0,0.0,0.0,179.0,193.0,0.0,179.0,1744420327.774057,0.0,2025-04-11 21:12:07.774,RIGHT,4
14.0,29355.82004258872,31195.972108360784,-32235.08235634355,-30330.311397351194,-36199.7453808481,-32522.749307483355,-4792.638694362485,-37778.62790568208,0.0,0.0,0.0,193.0,0.0,193.0,0.0,0.0,0.0,179.0,193.0,0.0,179.0,1744420327.7740967,0.0,2025-04-11 21:12:07.774,RIGHT,4
15.0,29356.155318755547,31177.68838139634,-32240.17855407936,-30345.398824858526,-36201.89114831581,-32522.68225224999,-4694.648646670419,-37811.753190964846,0.0,0.0,0.0,193.0,0.0,193.0,0.0,0.0,0.0,179.0,193.0,0.0,179.0,1744420327.7741368,0.0,2025-04-11 21:12:07.774,RIGHT,4
16.0,29318.962015981917,31177.062532551594,-32236.736385433243,-30335.832278231657,-36195.11856974585,-32513.38392655658,-5008.288324867288,-37794.542347734256,0.0,0.0,0.0,193.0,0.0,193.0,0.0,0.0,0.0,179.0,193.0,0.0,179.0,1744420327.7741768,0.0,2025-04-11 21:12:07.774,RIGHT,4
17.0,29310.42364959999,31195.972108360784,-32220.88899861443,-30320.074298390664,-36181.41695039475,-32498.18474032697,-5238.1760165901205,-37790.541385476754,0.0,0.0,0.0,193.0,0.0,193.0,0.0,0.0,0.0,179.0,193.0,0.0,179.0,1744420327.774217,0.0,2025-04-11 21:12:07.774,RIGHT,4
18.0,29344.979446527894,31204.04108810915,-32230.18732430784,-30321.147182124518,-36190.00002026559,-32516.021432402307,-4886.292503630221,-37776.97387659238,0.0,0.0,0.0,193.0,0.0,193.0,0.0,0.0,0.0,179.0,193.0,0.0,179.0,1744420327.774257,0.0,2025-04-11 21:12:07.774,RIGHT,4
19.0,29363.687856636985,31189.3112885131,-32237.33988253354,-30343.498926579825,-36197.13022674683,-32529.968920942418,-4673.570951649064,-37828.71816500642,0.0,0.0,0.0,193.0,0.0,193.0,0.0,0.0,0.0,180.0,193.0,0.0,180.0,1744420327.7743125,0.0,2025-04-11 21:12:07.774,RIGHT,4
20.0,29349.360388441135,31192.440532736844,-32214.69756540031,-30317.14621986702,-36173.39267413529,-32496.977746126384,-4984.349606555654,-37802.87954841609,0.0,0.0,0.0,193.0,0.0,194.0,0.0,0.0,0.0,179.0,194.0,0.0,179.0,1744420327.7743533,0.0,2025-04-11 21:12:07.774,RIGHT,4
21.0,29327.03099573028,31202.901149141926,-32208.170856019362,-30308.116115107074,-36164.474328097625,-32485.667763432,-5229.5482432303725,-37778.49379521535,0.0,0.0,0.0,193.0,0.0,194.0,0.0,0.0,0.0,180.0,194.0,0.0,180.0,1744420327.774393,0.0,2025-04-11 21:12:07.774,RIGHT,4
22.0,29351.10382450865,31201.381230518968,-32222.118344559476,-30320.074298390664,-36180.52288061653,-32511.81930444471,-4965.9317691244805,-37786.58512670817,0.0,0.0,0.0,193.0,0.0,193.0,0.0,0.0,0.0,179.0,193.0,0.0,179.0,1744420327.774446,0.0,2025-04-11 21:12:07.774,RIGHT,4
23.0,29361.497385680366,31183.276317510168,-32245.52062100418,-30354.875964507577,-36204.86393032836,-32532.606426788145,-4643.77607629014,-37819.509246290836,0.0,0.0,0.0,193.0,0.0,193.0,0.0,0.0,0.0,179.0,193.0,0.0,179.0,1744420327.7744868,0.0,2025-04-11 21:12:07.774,RIGHT,4
24.0,29335.323492923202,31174.26856449468,-32231.528428975158,-30341.75549051231,-36189.93296503222,-32508.734763709876,-4915.5732888666735,-37797.98451638038,0.0,0.0,0.0,193.0,0.0,194.0,0.0,0.0,0.0,179.0,194.0,0.0,179.0,1744420327.7745273,0.0,2025-04-11 21:12:07.774,RIGHT,4
25.0,29322.76181253932,31195.994460105238,-32210.22721650925,-30320.163705368486,-36167.335351387905,-32487.43355124397,-5211.6444959216715,-37775.40925448052,0.0,0.0,0.0,193.0,0.0,194.0,0.0,0.0,0.0,179.0,194.0,0.0,179.0,1744420327.7745728,0.0,2025-04-11 21:12:07.774,RIGHT,4
26.0,29349.650961119052,31209.249044567234,-32205.42159145136,-30313.748754709814,-36166.06130195395,-32495.658993203524,-5086.430023483041,-37787.09921683064,0.0,0.0,0.0,193.0,0.0,194.0,0.0,0.0,0.0,179.0,194.0,0.0,179.0,1744420327.7746131,0.0,2025-04-11 21:12:07.774,RIGHT,4
27.0,29373.790845130785,31205.69511719884,-32228.868571384977,-30339.676778277968,-36191.69875284419,-32523.777487728297,-4667.513628901676,-37814.9271386775,0.0,0.0,0.0,193.0,0.0,194.0,0.0,0.0,0.0,180.0,194.0,0.0,180.0,1744420327.7746692,0.0,2025-04-11 21:12:07.774,RIGHT,4
28.0,29351.46145241993,31189.870082124482,-32223.928835860355,-30334.222952630873,-36186.11081673036,-32505.80668518623,-4865.170105119956,-37815.32947007769,0.0,0.0,0.0,193.0,0.0,194.0,0.0,0.0,0.0,180.0,194.0,0.0,180.0,1744420327.7747097,0.0,2025-04-11 21:12:07.774,RIGHT,4
29.0,29325.84635327415,31205.762172432205,-32212.998832821708,-30319.00141465681,-36172.230383423615,-32494.384943769568,-5176.999292015946,-37799.30326930324,0.0,0.0,0.0,193.0,0.0,194.0,0.0,0.0,0.0,180.0,194.0,0.0,180.0,1744420327.77475,0.0,2025-04-11 21:12:07.774,RIGHT,4
30.0,29344.24183896087,31225.141134874957,-32202.51586467217,-30303.19873132691,-36165.74837753158,-32487.52295822179,-5142.152922410121,-37774.42577772448,0.0,0.0,0.0,193.0,0.0,194.0,0.0,0.0,0.0,179.0,194.0,0.0,179.0,1744420327.7747903,0.0,2025-04-11 21:12:07.774,RIGHT,4
31.0,29371.399208474068,31226.862219198018,-32229.56147546309,-30330.512563051292,-36199.58891863691,-32525.275054606805,-4685.2385622547345,-37789.021466853796,0.0,0.0,0.0,193.0,0.0,194.0,0.0,0.0,0.0,179.0,194.0,0.0,179.0,1744420327.774831,0.0,2025-04-11 21:12:07.774,RIGHT,4
32.0,29359.798653101763,31201.94002413035,-32220.352556747504,-30331.987778185343,-36190.87173829934,-32517.25077834735,-4818.946697586382,-37827.86879871712,0.0,0.0,0.0,193.0,0.0,194.0,0.0,0.0,0.0,180.0,194.0,0.0,180.0,1744420327.7748713,0.0,2025-04-11 21:12:07.774,RIGHT,4
33.0,29326.338091652167,31207.058573610615,-32211.747135132213,-30318.084993134144,-36173.50443285757,-32499.458789760924,-5141.929404965568,-37795.27995530128,0.0,0.0,0.0,193.0,0.0,194.0,0.0,0.0,0.0,180.0,194.0,0.0,180.0,1744420327.7749126,0.0,2025-04-11 21:12:07.774,RIGHT,4
34.0,29337.558667368732,31226.75046047574,-32196.123265757953,-30298.37075452456,-36157.09825242737,-32481.95737385242,-5200.066292293822,-37769.32957998867,0.0,0.0,0.0,193.0,0.0,194.0,0.0,0.0,0.0,179.0,194.0,0.0,179.0,1744420327.7749684,0.0,2025-04-11 21:12:07.774,RIGHT,4
35.0,29367.733522383398,31226.348129075544,-32223.727670160257,-30320.90131293551,-36187.675438842234,-32518.05544114774,-4740.380315825977,-37780.773673149786,0.0,0.0,0.0,193.0,0.0,194.0,0.0,0.0,0.0,179.0,194.0,0.0,179.0,1744420327.775009,0.0,2025-04-11 21:12:07.775,RIGHT,4
36.0,29355.57417339971,31196.396791505435,-32230.18732430784,-30341.286103878752,-36190.87173829934,-32524.47039180641,-4754.730135766285,-37821.744420736366,0.0,0.0,0.0,193.0,0.0,194.0,0.0,0.0,0.0,179.0,194.0,0.0,179.0,1744420327.7750487,0.0,2025-04-11 21:12:07.775,RIGHT,4
37.0,29329.08735622017,31205.963338132304,-32217.13390554594,-30322.376528069562,-36179.51705211605,-32504.890263663565,-5085.223029282454,-37803.706562960935,0.0,0.0,0.0,193.0,0.0,193.0,0.0,0.0,0.0,179.0,193.0,0.0,179.0,1744420327.7751012,0.0,2025-04-11 21:12:07.775,RIGHT,4
38.0,29332.484821377377,31223.75532671873,-32200.79478034911,-30304.76335343878,-36161.68036004071,-32483.7678651533,-5253.688127242104,-37782.36064700611,0.0,0.0,0.0,193.0,0.0,194.0,0.0,0.0,0.0,179.0,194.0,0.0,179.0,1744420327.7751417,0.0,2025-04-11 21:12:07.775,RIGHT,4
39.0,29368.828757861706,31229.432669810376,-32215.546931689612,-30312.519408764772,-36175.806662536466,-32509.29355732126,-4822.254755765767,-37763.361664219105,0.0,0.0,0.0,193.0,0.0,194.0,0.0,0.0,0.0,179.0,194.0,0.0,179.0,1744420327.7751825,0.0,2025-04-11 21:12:07.775,RIGHT,4
40.0,29359.03869379028,31197.69319268384,-32232.064870842085,-30340.19086840044,-36192.436360411215,-32525.96795868492,-4707.925582876871,-37811.44026654247,0.0,0.0,0.0,193.0,0.0,194.0,0.0,0.0,0.0,180.0,194.0,0.0,180.0,1744420327.7752228,0.0,2025-04-11 21:12:07.775,RIGHT,4
41.0,29329.601446342644,31203.392887519945,-32219.972577091765,-30325.57282752667,-36180.746398061085,-32505.851388675143,-5030.237737922399,-37790.67549594349,0.0,0.0,0.0,193.0,0.0,193.0,0.0,0.0,0.0,179.0,193.0,0.0,179.0,1744420327.77527,0.0,2025-04-11 21:12:07.775,RIGHT,4
42.0,29318.313815392714,31217.65330048243,-32204.505169928692,-30310.038365130233,-36164.27316239753,-32488.99817335584,-5267.166229148654,-37784.93109761847,0.0,0.0,0.0,193.0,0.0,194.0,0.0,0.0,0.0,179.0,194.0,0.0,179.0,1744420327.7753267,0.0,2025-04-11 21:12:07.775,RIGHT,4
43.0,29353.04842627626,31217.85446618253,-32212.70826014379,-30312.698222720413,-36171.87275551233,-32505.784333441778,-4935.399286198532,-37786.89805113054,0.0,0.0,0.0,193.0,0.0,194.0,0.0,0.0,0.0,179.0,194.0,0.0,179.0,1744420327.7753675,0.0,2025-04-11 21:12:07.775,RIGHT,4
44.0,29360.446853690966,31194.631003693463,-32228.04155684013,-30341.53197306776,-36182.512185873056,-32519.19538011496,-4685.395024465922,-37810.92617642,0.0,0.0,0.0,193.0,0.0,193.0,0.0,0.0,0.0,179.0,193.0,0.0,179.0,1744420327.7754076,0.0,2025-04-11 21:12:07.775,RIGHT,4
45.0,29328.349748653145,31184.036276821647,-32224.66644342738,-30334.982911942356,-36173.92911600222,-32502.811551429222,-4968.882199392581,-37781.399521994535,0.0,0.0,0.0,193.0,0.0,194.0,0.0,0.0,0.0,179.0,194.0,0.0,179.0,1744420327.7754476,0.0,2025-04-11 21:12:07.775,RIGHT,4
46.0,29315.206922913425,31204.778695676174,-32207.656765896892,-30316.14039136653,-36155.82420299342,-32485.310135520715,-5245.350926560274,-37770.24600151134,0.0,0.0,0.0,193.0,0.0,194.0,0.0,0.0,0.0,179.0,194.0,0.0,179.0,1744420327.7754877,0.0,2025-04-11 21:12:07.775,RIGHT,4
47.0,29333.37889115559,31206.097448599037,-32219.0561555691,-30322.689452491937,-36168.14001418829,-32510.14292361056,-5018.100740683168,-37784.551117962736,0.0,0.0,0.0,193.0,0.0,194.0,0.0,0.0,0.0,180.0,194.0,0.0,180.0,1744420327.7755284,0.0,2025-04-11 21:12:07.775,RIGHT,4
48.0,29351.975542542405,31196.620308949987,-32236.736385433243,-30348.706883037914,-36186.87077604184,-32533.16522039953,-4687.652550655907,-37819.24102535737,0.0,0.0,0.0,193.0,0.0,193.0,0.0,0.0,0.0,179.0,193.0,0.0,179.0,1744420327.775572,0.0,2025-04-11 21:12:07.775,RIGHT,4
49.0,29333.6247603446,31194.966279860295,-32218.05032706861,-30329.52908629526,-36164.34021763089,-32502.118647351104,-4920.893004047037,-37786.58512670817,0.0,0.0,0.0,193.0,0.0,194.0,0.0,0.0,0.0,179.0,194.0,0.0,179.0,1744420327.7756314,0.0,2025-04-11 21:12:07.775,RIGHT,4
50.0,29302.98051869637,31208.019698622193,-32208.439076952825,-30317.056812889197,-36155.10894717085,-32494.47435074739,-5221.8592431377465,-37783.85821388462,0.0,0.0,0.0,193.0,0.0,193.0,0.0,0.0,0.0,179.0,193.0,0.0,179.0,1744420327.775672,0.0,2025-04-11 21:12:07.775,RIGHT,4
51.0,29316.972710725393,31210.21016957881,-32217.22331252376,-30319.694318734924,-36171.11279620085,-32513.272167834304,-5098.522317233363,-37787.65801044202,0.0,0.0,0.0,193.0,0.0,193.0,0.0,0.0,0.0,179.0,193.0,0.0,179.0,1744420327.7757127,0.0,2025-04-11 21:12:07.775,RIGHT,4
52.0,29350.343865197166,31209.718431200796,-32228.71210917379,-30336.18990614294,-36191.92227028874,-32529.074851164205,-4686.3561494775,-37800.91259490402,0.0,0.0,0.0,193.0,0.0,193.0,0.0,0.0,0.0,179.0,193.0,0.0,179.0,1744420327.7757661,0.0,2025-04-11 21:12:07.775,RIGHT,4
53.0,29332.596580099653,31190.965317602793,-32220.91135035889,-30333.23947587484,-36185.14969171878,-32517.630758003088,-4877.083584914635,-37816.692926489464,0.0,0.0,0.0,193.0,0.0,193.0,0.0,0.0,0.0,178.0,193.0,0.0,178.0,1744420327.775807,0.0,2025-04-11 21:12:07.775,RIGHT,4
54.0,29300.633585528565,31207.50560849972,-32211.99300432122,-30322.890618192032,-36172.02921772352,-32507.952452653943,-5199.149870771154,-37801.38198153758,0.0,0.0,0.0,193.0,0.0,193.0,0.0,0.0,0.0,179.0,193.0,0.0,179.0,1744420327.7758467,0.0,2025-04-11 21:12:07.775,RIGHT,4
55.0,29311.89886473404,31207.93029164437,-32204.572225162057,-30315.268673332772,-36163.0885199414,-32507.281900320282,-5174.026510003389,-37779.83489988266,0.0,0.0,0.0,193.0,0.0,193.0,0.0,0.0,0.0,179.0,193.0,0.0,179.0,1744420327.7758865,0.0,2025-04-11 21:12:07.775,RIGHT,4
56.0,29342.878382549094,31200.531864229666,-32227.348652762015,-30338.04510093273,-36190.80468306597,-32540.228371647405,-4715.480472502765,-37792.75420817783,0.0,0.0,0.0,193.0,0.0,193.0,0.0,0.0,0.0,178.0,193.0,0.0,178.0,1744420327.7759268,0.0,2025-04-11 21:12:07.775,RIGHT,4
57.0,29331.70251032144,31183.92451809937,-32220.129039302952,-30335.38524334255,-36183.473310884634,-32531.04180467627,-4818.81258711965,-37825.4771620604,0.0,0.0,0.0,193.0,0.0,193.0,0.0,0.0,0.0,179.0,193.0,0.0,179.0,1744420327.776053,0.0,2025-04-11 21:12:07.776,RIGHT,4
58.0,29303.405201841022,31191.92644261437,-32205.71216412928,-30311.446525030915,-36163.40144436377,-32503.437400273968,-5132.362858338697,-37777.33150450367,0.0,0.0,0.0,193.0,0.0,193.0,0.0,0.0,0.0,179.0,193.0,0.0,179.0,1744420327.776094,0.0,2025-04-11 21:12:07.776,RIGHT,4
59.0,29315.07281244669,31211.26070156821,-32189.551852888093,-30294.14627482251,-36148.71634825663,-32492.015658857308,-5210.12457729871,-37770.424815466984,0.0,0.0,0.0,193.0,0.0,193.0,0.0,0.0,0.0,179.0,193.0,0.0,179.0,1744420327.7761343,0.0,2025-04-11 21:12:07.776,RIGHT,4
60.0,29351.170879742014,31211.171294590393,-32207.477951941248,-30309.457219774395,-36173.705598557666,-32517.787220214275,-4765.481324849287,-37770.73773988935,0.0,0.0,0.0,193.0,0.0,193.0,0.0,0.0,0.0,179.0,193.0,0.0,179.0,1744420327.776174,0.0,2025-04-11 21:12:07.776,RIGHT,4
61.0,29339.77149006981,31182.538709943143,-32210.89776884291,-30324.991682170832,-36177.460691626155,-32518.323662081202,-4742.906062949427,-37799.72795244789,0.0,0.0,0.0,193.0,0.0,193.0,0.0,0.0,0.0,180.0,193.0,0.0,180.0,1744420327.776214,0.0,2025-04-11 21:12:07.776,RIGHT,4
62.0,29307.964957709904,31190.093599569038,-32200.727725115747,-30308.76431569628,-36167.000075221076,-32501.537501995266,-5071.543761675806,-37780.684266171964,0.0,0.0,0.0,193.0,0.0,194.0,0.0,0.0,0.0,179.0,194.0,0.0,179.0,1744420327.7762544,0.0,2025-04-11 21:12:07.776,RIGHT,4
63.0,29304.098105919136,31204.242253809247,-32187.204919720283,-30294.816827156166,-36152.87377272532,-32490.920423378997,-5235.873786911224,-37769.84367011114,0.0,0.0,0.0,193.0,0.0,193.0,0.0,0.0,0.0,179.0,193.0,0.0,179.0,1744420327.7762945,0.0,2025-04-11 21:12:07.776,RIGHT,4
64.0,29338.162164469024,31208.04205036665,-32203.544044917115,-30307.266748817772,-36172.31979040144,-32518.256606847837,-4835.2411192943,-37781.734798161364,0.0,0.0,0.0,193.0,0.0,194.0,0.0,0.0,0.0,180.0,194.0,0.0,180.0,1744420327.7763503,0.0,2025-04-11 21:12:07.776,RIGHT,4
65.0,29339.793841814262,31191.479407725266,-32211.344803732016,-30324.47759204836,-36178.243002682095,-32524.269226106317,-4707.523251476676,-37822.95141493695,0.0,0.0,0.0,193.0,0.0,193.0,0.0,0.0,0.0,179.0,193.0,0.0,179.0,1744420327.7763908,0.0,2025-04-11 21:12:07.776,RIGHT,4
66.0,29310.691870533454,31186.78554138965,-32202.784085605635,-30307.33380405114,-36164.809604264454,-32496.843635659654,-5016.290249382288,-37768.65902765501,0.0,0.0,0.0,193.0,0.0,194.0,0.0,0.0,0.0,179.0,194.0,0.0,179.0,1744420327.7764316,0.0,2025-04-11 21:12:07.776,RIGHT,4
67.0,29298.51016980531,31201.716506685796,-32189.685963354823,-30292.402838754995,-36150.124508157314,-32485.62305994309,-5246.222644594031,-37761.4617659404,0.0,0.0,0.0,193.0,0.0,194.0,0.0,0.0,0.0,179.0,194.0,0.0,179.0,1744420327.7764852,0.0,2025-04-11 21:12:07.776,RIGHT,4
68.0,29326.785126541276,31203.124666586482,-32204.594576906515,-30301.32118479266,-36166.66479905424,-32511.86400793362,-4928.380838439565,-37774.269315513295,0.0,0.0,0.0,193.0,0.0,194.0,0.0,0.0,0.0,179.0,194.0,0.0,179.0,1744420327.776526,0.0,2025-04-11 21:12:07.776,RIGHT,4
69.0,29333.825926044698,31186.137340800447,-32222.408917237393,-30328.6573682615,-36185.440264396704,-32523.19634237246,-4663.758535833184,-37796.710466946424,0.0,0.0,0.0,193.0,0.0,194.0,0.0,0.0,0.0,180.0,194.0,0.0,180.0,1744420327.7765667,0.0,2025-04-11 21:12:07.776,RIGHT,4
70.0,29299.69481226144,31175.386151717445,-32218.162085790886,-30323.807039714702,-36178.44416838219,-32507.371307298105,-4944.764667125305,-37777.33150450367,0.0,0.0,0.0,193.0,0.0,194.0,0.0,0.0,0.0,179.0,194.0,0.0,179.0,1744420327.7766073,0.0,2025-04-11 21:12:07.776,RIGHT,4
71.0,29292.855178458118,31199.07900084007,-32189.104817998985,-30293.85570214459,-36147.79992673396,-32481.040952329753,-5245.999127149478,-37760.97002756238,0.0,0.0,0.0,193.0,0.0,193.0,0.0,0.0,0.0,179.0,193.0,0.0,179.0,1744420327.776648,0.0,2025-04-11 21:12:07.776,RIGHT,4
72.0,29318.671443303996,31198.900186884428,-32196.726762858245,-30298.03547835773,-36156.11477567134,-32499.548196738746,-5017.184319160499,-37759.450108939425,0.0,0.0,0.0,193.0,0.0,193.0,0.0,0.0,0.0,179.0,193.0,0.0,179.0,1744420327.7767084,0.0,2025-04-11 21:12:07.776,RIGHT,4
73.0,29342.990141271373,31190.719448413784,-32217.268016012673,-30326.489249049337,-36177.952430004174,-32521.76583072732,-4659.019966008659,-37791.34604827715,0.0,0.0,0.0,193.0,0.0,193.0,0.0,0.0,0.0,179.0,193.0,0.0,179.0,1744420327.776749,0.0,2025-04-11 21:12:07.776,RIGHT,4
74.0,29313.66465254601,31177.040180807136,-32216.9550915903,-30323.583522270146,-36176.92424975923,-32513.987423656876,-4898.92123924747,-37795.70463844593,0.0,0.0,0.0,193.0,0.0,194.0,0.0,0.0,0.0,179.0,194.0,0.0,179.0,1744420327.7767894,0.0,2025-04-11 21:12:07.776,RIGHT,4
75.0,29287.5131115333,31192.149960058923,-32209.8025333646,-30316.69918497791,-36172.05156946797,-32508.757115454333,-5214.393760489674,-37790.58608896567,0.0,0.0,0.0,193.0,0.0,194.0,0.0,0.0,0.0,179.0,194.0,0.0,179.0,1744420327.7768292,0.0,2025-04-11 21:12:07.776,RIGHT,4
76.0,29321.621873572098,31205.69511719884,-32190.624736621947,-30295.599138212103,-36158.953447217165,-32500.084638605673,-5119.376494810163,-37775.83393762517,0.0,0.0,0.0,193.0,0.0,193.0,0.0,0.0,0.0,179.0,193.0,0.0,179.0,1744420327.77687,0.0,2025-04-11 21:12:07.776,RIGHT,4
77.0,29350.545030897265,31205.49395149874,-32198.403143692394,-30304.584539483138,-36171.44807236768,-32514.881493435085,-4680.388233707933,-37783.85821388462,0.0,0.0,0.0,193.0,0.0,194.0,0.0,0.0,0.0,180.0,194.0,0.0,180.0,1744420327.77691,0.0,2025-04-11 21:12:07.776,RIGHT,4
78.0,29333.84827778915,31190.74180015824,-32190.624736621947,-30299.309527791684,-36159.91457222874,-32503.258586318327,-4848.2945380562,-37799.97382163689,0.0,0.0,0.0,193.0,0.0,193.0,0.0,0.0,0.0,179.0,193.0,0.0,179.0,1744420327.77695,0.0,2025-04-11 21:12:07.776,RIGHT,4
79.0,29299.381887839067,31198.07317233958,-32183.360419673973,-30288.781856153233,-36152.96317970314,-32491.658030946022,-5160.4590011190185,-37773.68817015745,0.0,0.0,0.0,193.0,0.0,193.0,0.0,0.0,0.0,179.0,193.0,0.0,179.0,1744420327.7770035,0.0,2025-04-11 21:12:07.777,RIGHT,4
80.0,29318.04559445925,31212.17712309088,-32168.45180612228,-30272.778007123234,-36141.85436270885,-32481.95737385242,-5162.78358254237,-37756.6114373936,0.0,0.0,0.0,193.0,0.0,193.0,0.0,0.0,0.0,179.0,193.0,0.0,179.0,1744420327.7770448,0.0,2025-04-11 21:12:07.777,RIGHT,4
81.0,29351.729673353395,31206.79035267715,-32198.157274503385,-30303.534007493738,-36173.6385433243,-32521.25174060485,-4704.103434575014,-37778.5161469598,0.0,0.0,0.0,193.0,0.0,193.0,0.0,0.0,0.0,179.0,193.0,0.0,179.0,1744420327.7770853,0.0,2025-04-11 21:12:07.777,RIGHT,4
82.0,29340.062062747726,31182.963393087794,-32200.839483838023,-30314.262844832283,-36172.364493890345,-32514.345051568158,-4784.748528569762,-37798.40919952503,0.0,0.0,0.0,193.0,0.0,193.0,0.0,0.0,0.0,179.0,193.0,0.0,179.0,1744420327.7771375,0.0,2025-04-11 21:12:07.777,RIGHT,4
83.0,29310.066021688704,31193.64752693743,-32195.832693080032,-30301.790571426223,-36167.24594441008,-32499.01175487182,-5108.647657471616,-37779.1196440601,0.0,0.0,0.0,193.0,0.0,193.0,0.0,0.0,0.0,179.0,193.0,0.0,179.0,1744420327.7771778,0.0,2025-04-11 21:12:07.777,RIGHT,4
84.0,29311.541236822755,31205.963338132304,-32182.354591173484,-30288.17835905294,-36157.746453016574,-32490.5180919788,-5230.330554286308,-37779.94665860494,0.0,0.0,0.0,193.0,0.0,193.0,0.0,0.0,0.0,178.0,193.0,0.0,178.0,1744420327.777218,0.0,2025-04-11 21:12:07.777,RIGHT,4
85.0,29342.990141271373,31211.193646334847,-32201.286518727127,-30302.729344693347,-36175.15846194726,-32516.334356824682,-4778.244170933267,-37767.832013110165,0.0,0.0,0.0,193.0,0.0,193.0,0.0,0.0,0.0,179.0,193.0,0.0,179.0,1744420327.7772624,0.0,2025-04-11 21:12:07.777,RIGHT,4
86.0,29338.09510923566,31190.227710035768,-32202.918196072365,-30316.72153672237,-36173.01269447955,-32519.374194070602,-4740.000336170237,-37805.69586821745,0.0,0.0,0.0,193.0,0.0,193.0,0.0,0.0,0.0,178.0,193.0,0.0,178.0,1744420327.7773025,0.0,2025-04-11 21:12:07.777,RIGHT,4
87.0,29310.35659436662,31191.390000747444,-32190.46827441076,-30297.879016146544,-36162.59678156338,-32497.111856593117,-5071.208485508977,-37785.53459471877,0.0,0.0,0.0,193.0,0.0,193.0,0.0,0.0,0.0,179.0,193.0,0.0,179.0,1744420327.7773557,0.0,2025-04-11 21:12:07.777,RIGHT,4
88.0,29300.208902383914,31198.475503739777,-32182.22048070675,-30290.458236987382,-36155.60068554887,-32489.08758033366,-5254.761010975959,-37772.727045145875,0.0,0.0,0.0,193.0,0.0,193.0,0.0,0.0,0.0,179.0,193.0,0.0,179.0,1744420327.777396,0.0,2025-04-11 21:12:07.777,RIGHT,4
89.0,29333.356539411136,31201.068306096593,-32202.538216416626,-30304.62924297205,-36177.57245034843,-32513.786257956777,-4852.228445080334,-37760.634751395555,0.0,0.0,0.0,193.0,0.0,193.0,0.0,0.0,0.0,179.0,193.0,0.0,179.0,1744420327.7774365,0.0,2025-04-11 21:12:07.777,RIGHT,4
90.0,29340.598504614652,31187.769018145686,-32212.23887351023,-30323.650577503515,-36189.217709209646,-32520.983519671387,-4696.190917037835,-37807.685173473976,0.0,0.0,0.0,193.0,0.0,193.0,0.0,0.0,0.0,179.0,193.0,0.0,179.0,1744420327.7774763,0.0,2025-04-11 21:12:07.777,RIGHT,4
91.0,29310.04366994425,31183.097503554527,-32200.906539071388,-30302.461123759884,-36176.834842781405,-32495.971917625895,-5009.383560345597,-37780.639562683056,0.0,0.0,0.0,193.0,0.0,193.0,0.0,0.0,0.0,179.0,193.0,0.0,179.0,1744420327.7775164,0.0,2025-04-11 21:12:07.777,RIGHT,4
92.0,29306.22152164239,31206.209207321313,-32177.101931226487,-30275.61667866906,-36150.14685990177,-32464.47830968837,-5251.520008029939,-37740.51818138578,0.0,0.0,0.0,193.0,0.0,193.0,0.0,0.0,0.0,179.0,193.0,0.0,179.0,1744420327.7775564,0.0,2025-04-11 21:12:07.777,RIGHT,4
93.0,29327.94741725295,31206.589186977053,-32195.318602957563,-30288.55833870868,-36167.49181359909,-32495.90486239253,-4932.627669886073,-37747.80485007821,0.0,0.0,0.0,193.0,0.0,193.0,0.0,0.0,0.0,179.0,193.0,0.0,179.0,1744420327.777597,0.0,2025-04-11 21:12:07.777,RIGHT,4
94.0,29339.257399947335,31187.120817556483,-32208.908463586387,-30314.48636227684,-36178.13124395982,-32515.373231813104,-4656.963605518771,-37787.52389997529,0.0,0.0,0.0,193.0,0.0,193.0,0.0,0.0,0.0,179.0,193.0,0.0,179.0,1744420327.7776525,0.0,2025-04-11 21:12:07.777,RIGHT,4
95.0,29308.90373097703,31177.73308488525,-32203.320527472562,-30307.736135451334,-36171.15749968976,-32505.80668518623,-4935.399286198532,-37784.30524877373,0.0,0.0,0.0,193.0,0.0,194.0,0.0,0.0,0.0,180.0,194.0,0.0,180.0,1744420327.7776933,0.0,2025-04-11 21:12:07.777,RIGHT,4
96.0,29288.965974922896,31193.446361237333,-32189.551852888093,-30294.90623413399,-36159.40048210627,-32488.841711144654,-5232.543376987383,-37772.034141067765,0.0,0.0,0.0,193.0,0.0,193.0,0.0,0.0,0.0,178.0,193.0,0.0,178.0,1744420327.7777336,0.0,2025-04-11 21:12:07.777,RIGHT,4
97.0,29314.29050139076,31196.41914324989,-32193.12813200094,-30295.777952167748,-36165.59191532039,-32502.163350840015,-5046.33099393022,-37767.340274732145,0.0,0.0,0.0,193.0,0.0,193.0,0.0,0.0,0.0,179.0,193.0,0.0,179.0,1744420327.7777853,0.0,2025-04-11 21:12:07.777,RIGHT,4
98.0,29337.357501668634,31191.16648330289,-32209.489608942225,-30318.9567111679,-36177.77361604853,-32521.76583072732,-4670.821687081062,-37785.06520808521,0.0,0.0,0.0,193.0,0.0,193.0,0.0,0.0,0.0,179.0,193.0,0.0,179.0,1744420327.7778256,0.0,2025-04-11 21:12:07.777,RIGHT,4
99.0,29317.352690381136,31187.79136989014,-32198.984289048232,-30308.361984296083,-36164.25081065307,-32503.32564155169,-4893.959151978392,-37787.680362186475,0.0,0.0,0.0,193.0,0.0,193.0,0.0,0.0,0.0,179.0,193.0,0.0,179.0,1744420327.777866,0.0,2025-04-11 21:12:07.777,RIGHT,4
100.0,29296.1632366375,31201.56004447461,-32183.71804758526,-30290.100609076097,-36144.1789441322,-32482.33735350816,-5208.716417398026,-37770.849498611635,0.0,0.0,0.0,193.0,0.0,193.0,0.0,0.0,0.0,179.0,193.0,0.0,179.0,1744420327.7779057,0.0,2025-04-11 21:12:07.777,RIGHT,4
101.0,29310.80362925573,31201.26947179669,-32179.337105672017,-30285.116170062563,-36139.46272605214,-32487.075923332683,-5109.049988871812,-37767.832013110165,0.0,0.0,0.0,193.0,0.0,193.0,0.0,0.0,0.0,179.0,193.0,0.0,179.0,1744420327.7779458,0.0,2025-04-11 21:12:07.777,RIGHT,4
102.0,29343.05719650474,31201.448285752333,-32191.004716277686,-30295.50973123428,-36154.63956053729,-32496.508359492826,-4663.467963155265,-37758.84661183913,0.0,0.0,0.0,193.0,0.0,193.0,0.0,0.0,0.0,178.0,193.0,0.0,178.0,1744420327.778014,0.0,2025-04-11 21:12:07.778,RIGHT,4
103.0,29317.866780503606,31176.146111028924,-32194.960975046277,-30302.52817899325,-36157.36647336084,-32494.34024028066,-4818.946697586382,-37771.07301605619,0.0,0.0,0.0,193.0,0.0,193.0,0.0,0.0,0.0,179.0,193.0,0.0,179.0,1744420327.7780535,0.0,2025-04-11 21:12:07.778,RIGHT,4
104.0,29289.547120278734,31187.344335001035,-32187.383733675928,-30287.57486195265,-36149.00692093455,-32478.358742995115,-5153.8875882491575,-37754.89035307054,0.0,0.0,0.0,193.0,0.0,193.0,0.0,0.0,0.0,179.0,193.0,0.0,179.0,1744420327.7780921,0.0,2025-04-11 21:12:07.778,RIGHT,4
105.0,29299.292480861248,31197.179102561367,-32185.394428419404,-30282.85864387258,-36148.29166511198,-32478.80577788422,-5172.528943124884,-37749.90591405701,0.0,0.0,0.0,193.0,0.0,193.0,0.0,0.0,0.0,179.0,193.0,0.0,179.0,1744420327.778131,0.0,2025-04-11 21:12:07.778,RIGHT,4
106.0,29328.640321331066,31193.491064726244,-32213.781143877644,-30311.62533898656,-36176.3878078923,-32515.68615623548,-4725.337591807555,-37775.163385291504,0.0,0.0,0.0,193.0,0.0,193.0,0.0,0.0,0.0,179.0,193.0,0.0,179.0,1744420327.77817,0.0,2025-04-11 21:12:07.778,RIGHT,4
107.0,29318.313815392714,31170.64758189292,-32218.340899746527,-30326.042214160232,-36181.68517132821,-32515.350880068647,-4797.153746742457,-37812.75901946533,0.0,0.0,0.0,193.0,0.0,193.0,0.0,0.0,0.0,179.0,193.0,0.0,179.0,1744420327.7782087,0.0,2025-04-11 21:12:07.778,RIGHT,4
108.0,29293.413972069502,31184.818587877584,-32206.673289140857,-30310.7536209528,-36170.464595611644,-32495.122551336593,-5137.570814796783,-37787.09921683064,0.0,0.0,0.0,193.0,0.0,193.0,0.0,0.0,0.0,179.0,193.0,0.0,179.0,1744420327.7782476,0.0,2025-04-11 21:12:07.778,RIGHT,4
109.0,29293.257509858315,31198.050820595126,-32194.491588412715,-30298.86249290258,-36153.05258668096,-32485.48894947636,-5246.490865527495,-37776.52684170328,0.0,0.0,0.0,193.0,0.0,193.0,0.0,0.0,0.0,179.0,193.0,0.0,179.0,1744420327.7783003,0.0,2025-04-11 21:12:07.778,RIGHT,4
110.0,29335.457603389932,31209.517265500697,-32204.61692865097,-30304.249263316306,-36162.797947263476,-32498.81058917172,-4777.819487788616,-37741.412251163994,0.0,0.0,0.0,193.0,0.0,193.0,0.0,0.0,0.0,179.0,193.0,0.0,179.0,1744420327.7783391,0.0,2025-04-11 21:12:07.778,RIGHT,4
111.0,29326.293388163256,31177.911898840895,-32219.682004413848,-30329.23851361734,-36177.17011894824,-32512.691022478466,-4712.485338745754,-37793.64827795605,0.0,0.0,0.0,193.0,0.0,193.0,0.0,0.0,0.0,179.0,193.0,0.0,179.0,1744420327.778378,0.0,2025-04-11 21:12:07.778,RIGHT,4
112.0,29300.99121343985,31184.103332055016,-32209.511960686683,-30309.94895815241,-36167.62592406582,-32492.99913561334,-5047.068601497245,-37776.6162486811,0.0,0.0,0.0,193.0,0.0,193.0,0.0,0.0,0.0,179.0,193.0,0.0,179.0,1744420327.7784286,0.0,2025-04-11 21:12:07.778,RIGHT,4
113.0,29296.297347104235,31201.694154941342,-32193.08342851203,-30293.363963766573,-36158.171136161225,-32481.264469774305,-5241.528778258416,-37763.87575434158,0.0,0.0,0.0,193.0,0.0,193.0,0.0,0.0,0.0,179.0,193.0,0.0,179.0,1744420327.778468,0.0,2025-04-11 21:12:07.778,RIGHT,4
114.0,29333.714167322418,31207.572663733088,-32198.872530325956,-30294.012164355776,-36170.755168289565,-32498.475313004892,-4873.999044179803,-37754.823297837174,0.0,0.0,0.0,193.0,0.0,193.0,0.0,0.0,0.0,178.0,193.0,0.0,178.0,1744420327.7785065,0.0,2025-04-11 21:12:07.778,RIGHT,4
115.0,29333.13302196658,31182.046971565127,-32212.90942584389,-30319.56020826819,-36182.221613195135,-32511.305214322238,-4697.934353105349,-37796.46459775741,0.0,0.0,0.0,193.0,0.0,193.0,0.0,0.0,0.0,179.0,193.0,0.0,179.0,1744420327.7785497,0.0,2025-04-11 21:12:07.778,RIGHT,4
116.0,29303.449905329933,31184.617422177485,-32203.588748406026,-30301.052963859198,-36169.72698804462,-32492.395638513048,-4994.6984642384605,-37778.180870792974,0.0,0.0,0.0,193.0,0.0,193.0,0.0,0.0,0.0,179.0,193.0,0.0,179.0,1744420327.7785883,0.0,2025-04-11 21:12:07.778,RIGHT,4
117.0,29288.004849911315,31195.055686838114,-32190.46827441076,-30286.636088685525,-36154.79602274847,-32478.09052206165,-5239.181845090609,-37762.35583571861,0.0,0.0,0.0,193.0,0.0,193.0,0.0,0.0,0.0,178.0,193.0,0.0,178.0,1744420327.7786405,0.0,2025-04-11 21:12:07.778,RIGHT,4
118.0,29315.117515935603,31197.13439907246,-32198.447847181305,-30286.971364852354,-36162.73089203011,-32489.981650111873,-4949.6149956721065,-37745.05558551021,0.0,0.0,0.0,193.0,0.0,193.0,0.0,0.0,0.0,179.0,193.0,0.0,179.0,1744420327.7786798,0.0,2025-04-11 21:12:07.778,RIGHT,4
119.0,29329.065004475717,31183.231614021257,-32215.99396657872,-30313.771106454267,-36182.13220621731,-32512.57926375619,-4658.885855541927,-37788.26150754232,0.0,0.0,0.0,193.0,0.0,193.0,0.0,0.0,0.0,179.0,193.0,0.0,179.0,1744420327.7787187,0.0,2025-04-11 21:12:07.778,RIGHT,4
120.0,29298.867797716597,31175.78848311764,-32213.177646777352,-30312.206484342398,-36177.28187767052,-32505.739629952866,-4937.768571110794,-37803.706562960935,0.0,0.0,0.0,193.0,0.0,193.0,0.0,0.0,0.0,179.0,193.0,0.0,179.0,1744420327.7787576,0.0,2025-04-11 21:12:07.778,RIGHT,4
121.0,29285.88143418806,31199.727201429276,-32190.915309299864,-30289.720629420357,-36154.93013321521,-32478.761074395312,-5252.727002230526,-37781.35481850563,0.0,0.0,0.0,193.0,0.0,193.0,0.0,0.0,0.0,179.0,193.0,0.0,179.0,1744420327.778796,0.0,2025-04-11 21:12:07.778,RIGHT,4
122.0,29303.740478007854,31191.814683892095,-32197.442018680817,-30290.592347454116,-36162.216801907634,-32487.43355124397,-5047.247415452888,-37742.55219013121,0.0,0.0,0.0,193.0,0.0,193.0,0.0,0.0,0.0,178.0,193.0,0.0,178.0,1744420327.7788348,0.0,2025-04-11 21:12:07.778,RIGHT,4
123.0,29323.23119917288,31176.727256384762,-32220.50901895869,-30322.46593504738,-36186.423741152736,-32520.067098148716,-4656.784791563129,-37786.00398135233,0.0,0.0,0.0,193.0,0.0,193.0,0.0,0.0,0.0,179.0,193.0,0.0,179.0,1744420328.2550364,0.0,2025-04-11 21:12:08.255,RIGHT,4
124.0,29299.828922728175,31160.231668976747,-32204.41576295087,-30310.641862230525,-36163.267333897034,-32500.4199147725,-4887.812422253182,-37786.56277496371,0.0,0.0,0.0,193.0,0.0,193.0,0.0,0.0,0.0,179.0,193.0,0.0,179.0,1744420328.2551634,0.0,2025-04-11 21:12:08.255,RIGHT,4
125.0,29265.250774055814,31168.635924891943,-32202.314698972074,-30302.863455160077,-36162.574429818924,-32497.223615315394,-5195.707702125037,-37776.28097251427,0.0,0.0,0.0,193.0,0.0,193.0,0.0,0.0,0.0,179.0,193.0,0.0,179.0,1744420328.2552118,0.0,2025-04-11 21:12:08.255,RIGHT,4
126.0,29286.954317921918,31177.3084017406,-32195.832693080032,-30296.2026353124,-36157.99232220559,-32501.24692931735,-5139.336602608753,-37777.845594626146,0.0,0.0,0.0,193.0,0.0,193.0,0.0,0.0,0.0,179.0,193.0,0.0,179.0,1744420328.2552571,0.0,2025-04-11 21:12:08.255,RIGHT,4
127.0,29324.259379417825,31182.51635819869,-32207.723821130257,-30312.60881574259,-36165.949543231676,-32518.90480743704,-4674.196800493813,-37773.24113526835,0.0,0.0,0.0,193.0,0.0,194.0,0.0,0.0,0.0,179.0,194.0,0.0,179.0,1744420328.2553205,0.0,2025-04-11 21:12:08.255,RIGHT,4
128.0,29305.998004197838,31165.46197717929,-32200.57126290456,-30311.8041529422,-36152.47144132512,-32506.521941008803,-4812.084712038602,-37793.80474016723,0.0,0.0,0.0,193.0,0.0,193.0,0.0,0.0,0.0,179.0,193.0,0.0,179.0,1744420328.2553663,0.0,2025-04-11 21:12:08.255,RIGHT,4
129.0,29283.333335320156,31183.388076232444,-32187.674306353845,-30289.98885035382,-36136.46759229512,-32474.827167371175,-5139.537768308851,-37742.01574826428,0.0,0.0,0.0,193.0,0.0,193.0,0.0,0.0,0.0,179.0,193.0,0.0,179.0,1744420328.255412,0.0,2025-04-11 21:12:08.255,RIGHT,4
130.0,29284.495626031832,31185.198567533324,-32191.47410291125,-30291.933452121433,-36145.25182786606,-32484.460769231413,-5163.16356219811,-37743.5580186317,0.0,0.0,0.0,193.0,0.0,193.0,0.0,0.0,0.0,178.0,193.0,0.0,178.0,1744420328.2554572,0.0,2025-04-11 21:12:08.255,RIGHT,4
131.0,29316.838600258663,31180.996439575727,-32214.69756540031,-30316.319205322172,-36172.14097644579,-32519.7765254708,-4708.193803810335,-37767.47438519888,0.0,0.0,0.0,193.0,0.0,193.0,0.0,0.0,0.0,179.0,193.0,0.0,179.0,1744420328.2555022,0.0,2025-04-11 21:12:08.255,RIGHT,4
132.0,29311.697699033943,31162.3550847,-32213.71408864428,-30324.991682170832,-36171.87275551233,-32509.85235093264,-4774.46672612032,-37798.744475691856,0.0,0.0,0.0,193.0,0.0,193.0,0.0,0.0,0.0,179.0,193.0,0.0,179.0,1744420328.2555645,0.0,2025-04-11 21:12:08.255,RIGHT,4
133.0,29286.12730337707,31173.01686680518,-32197.173797747353,-30298.929548135944,-36154.37133960382,-32479.90101336253,-5094.633113698139,-37753.23632398085,0.0,0.0,0.0,193.0,0.0,193.0,0.0,0.0,0.0,179.0,193.0,0.0,179.0,1744420328.2556105,0.0,2025-04-11 21:12:08.255,RIGHT,4
134.0,29281.65695448601,31178.470692452276,-32195.095085513007,-30292.939280621922,-36152.40438609176,-32480.929193607473,-5213.857318622747,-37757.88548682755,0.0,0.0,0.0,193.0,0.0,193.0,0.0,0.0,0.0,178.0,193.0,0.0,178.0,1744420328.2556558,0.0,2025-04-11 21:12:08.255,RIGHT,4
135.0,29309.08254493267,31181.44347446483,-32223.213580037784,-30312.56411225368,-36183.85329054038,-32513.048650389752,-4790.291761194678,-37770.558925933714,0.0,0.0,0.0,193.0,0.0,193.0,0.0,0.0,0.0,179.0,193.0,0.0,179.0,1744420328.2557,0.0,2025-04-11 21:12:08.255,RIGHT,4
136.0,29317.263283403314,31172.681590638353,-32215.055193311597,-30315.603949499604,-36179.7405695606,-32498.922347893997,-4731.50667327722,-37788.14974882004,0.0,0.0,0.0,193.0,0.0,193.0,0.0,0.0,0.0,178.0,193.0,0.0,178.0,1744420328.2557454,0.0,2025-04-11 21:12:08.255,RIGHT,4
137.0,29290.150617379026,31171.139320270937,-32206.159199018384,-30297.297870790706,-36170.97868573412,-32478.179929039474,-5049.795514320793,-37756.70084437142,0.0,0.0,0.0,193.0,0.0,193.0,0.0,0.0,0.0,179.0,193.0,0.0,179.0,1744420328.2557907,0.0,2025-04-11 21:12:08.255,RIGHT,4
138.0,29282.59572775313,31180.2588320087,-32193.239890723216,-30289.497111975805,-36157.32176987192,-32470.557984180214,-5270.496639072495,-37760.6123996511,0.0,0.0,0.0,193.0,0.0,193.0,0.0,0.0,0.0,178.0,193.0,0.0,178.0,1744420328.2559867,0.0,2025-04-11 21:12:08.255,RIGHT,4
139.0,29311.496533333844,31182.181082031857,-32207.388544963425,-30299.555396980693,-36173.750302046574,-32495.70369669243,-4892.483936844342,-37754.17509724797,0.0,0.0,0.0,193.0,0.0,193.0,0.0,0.0,0.0,179.0,193.0,0.0,179.0,1744420328.256043,0.0,2025-04-11 21:12:08.256,RIGHT,4
140.0,29321.487763105368,31170.714637126286,-32217.42447822386,-30319.38139431255,-36184.30032542948,-32504.554987496733,-4687.473736700265,-37789.4685017429,0.0,0.0,0.0,193.0,0.0,193.0,0.0,0.0,0.0,179.0,193.0,0.0,179.0,1744420328.2560823,0.0,2025-04-11 21:12:08.256,RIGHT,4
141.0,29300.14184715055,31166.02077079067,-32199.006640792686,-30299.28717604723,-36163.40144436377,-32484.05843783122,-4995.816051461226,-37778.42673998198,0.0,0.0,0.0,193.0,0.0,193.0,0.0,0.0,0.0,179.0,193.0,0.0,179.0,1744420328.2561216,0.0,2025-04-11 21:12:08.256,RIGHT,4
142.0,29288.720105733886,31179.2083000193,-32182.533405129125,-30284.982059595834,-36145.944731944175,-32465.99822831133,-5247.94372891709,-37752.90104781402,0.0,0.0,0.0,193.0,0.0,193.0,0.0,0.0,0.0,179.0,193.0,0.0,179.0,1744420328.2561748,0.0,2025-04-11 21:12:08.256,RIGHT,4
143.0,29301.974690195882,31175.386151717445,-32205.488646684727,-30302.57288248216,-36169.88345025581,-32498.274147304794,-4957.661623676017,-37749.95061754592,0.0,0.0,0.0,193.0,0.0,193.0,0.0,0.0,0.0,179.0,193.0,0.0,179.0,1744420328.2562144,0.0,2025-04-11 21:12:08.256,RIGHT,4
144.0,29311.250664144834,31156.811852075083,-32225.6052166945,-30333.462993319394,-36190.80468306597,-32525.498572051358,-4655.309576429078,-37794.38588552307,0.0,0.0,0.0,193.0,0.0,193.0,0.0,0.0,0.0,178.0,193.0,0.0,178.0,1744420328.2562532,0.0,2025-04-11 21:12:08.256,RIGHT,4
145.0,29297.504341304822,31153.950828784804,-32207.76852461917,-30310.016013385775,-36176.410159636755,-32502.006888628828,-4950.464361961408,-37802.99130713836,0.0,0.0,0.0,193.0,0.0,193.0,0.0,0.0,0.0,179.0,193.0,0.0,179.0,1744420328.256292,0.0,2025-04-11 21:12:08.256,RIGHT,4
146.0,29285.45675104341,31180.437645964343,-32188.523672643147,-30286.121998563052,-36149.11867965683,-32482.09148431915,-5233.7727229324255,-37766.62501890958,0.0,0.0,0.0,193.0,0.0,193.0,0.0,0.0,0.0,179.0,193.0,0.0,179.0,1744420328.2563307,0.0,2025-04-11 21:12:08.256,RIGHT,4
147.0,29302.309966362714,31186.5620239451,-32198.067867525562,-30293.028687599744,-36160.24984839557,-32499.972879883397,-5036.295060669788,-37753.70571061441,0.0,0.0,0.0,193.0,0.0,193.0,0.0,0.0,0.0,179.0,193.0,0.0,179.0,1744420328.2563827,0.0,2025-04-11 21:12:08.256,RIGHT,4
148.0,29331.23312368788,31181.666991909387,-32214.13877178893,-30315.782763455245,-36179.76292130505,-32524.269226106317,-4645.944195502305,-37788.64148719805,0.0,0.0,0.0,193.0,0.0,193.0,0.0,0.0,0.0,178.0,193.0,0.0,178.0,1744420328.2564216,0.0,2025-04-11 21:12:08.256,RIGHT,4
149.0,29301.75117275133,31156.677741608353,-32220.84429512552,-30323.114135636588,-36184.85911904086,-32526.616159274123,-4868.008776665781,-37823.93489169299,0.0,0.0,0.0,193.0,0.0,193.0,0.0,0.0,0.0,178.0,193.0,0.0,178.0,1744420328.256461,0.0,2025-04-11 21:12:08.256,RIGHT,4
150.0,29274.727913704864,31173.732122627753,-32208.819056608565,-30305.098629605607,-36172.655066568266,-32506.656051475533,-5210.9962953324675,-37813.138999121074,0.0,0.0,0.0,193.0,0.0,193.0,0.0,1.0,0.0,179.0,193.0,1.0,179.0,1744420328.2564998,0.0,2025-04-11 21:12:08.256,RIGHT,4
151.0,29290.59765226813,31186.472616967276,-32196.503245413693,-30290.882920132033,-36159.86986873983,-32490.652202445533,-5157.35210863973,-37769.4636904554,0.0,0.0,0.0,193.0,0.0,193.0,0.0,3.0,0.0,178.0,193.0,3.0,178.0,1744420328.25654,0.0,2025-04-11 21:12:08.256,RIGHT,4
152.0,29323.61117882862,31183.03044832116,-32211.635376409937,-30308.317280807172,-36174.84553752489,-32511.70754572243,-4688.926600089861,-37769.374283477584,0.0,0.0,0.0,193.0,0.0,193.0,0.0,4.0,0.0,179.0,193.0,4.0,179.0,1744420328.2565799,0.0,2025-04-11 21:12:08.256,RIGHT,4
153.0,29307.763792009806,31158.555288142597,-32207.343841474518,-30308.652556974004,-36167.603572321364,-32503.616214229613,-4817.739703385795,-37791.14488257705,0.0,0.0,0.0,193.0,0.0,193.0,0.0,5.0,0.0,179.0,193.0,5.0,179.0,1744420328.2566323,0.0,2025-04-11 21:12:08.256,RIGHT,4
154.0,29275.55492824971,31172.435721449343,-32204.058135039588,-30300.829446414646,-36163.893182741784,-32490.80866465672,-5140.744762509437,-37775.029274824774,0.0,0.0,0.0,193.0,0.0,193.0,0.0,6.0,0.0,179.0,193.0,6.0,179.0,1744420328.2566721,0.0,2025-04-11 21:12:08.256,RIGHT,4
155.0,29289.927099934474,31193.78163740416,-32185.55089063059,-30285.85377762959,-36152.024406436016,-32476.592955183147,-5192.220829990009,-37757.57256240518,0.0,0.0,0.0,193.0,0.0,193.0,0.0,7.0,0.0,179.0,193.0,7.0,179.0,1744420328.2567117,0.0,2025-04-11 21:12:08.256,RIGHT,4
156.0,29323.3206061507,31189.914785613393,-32208.349669975007,-30306.395030784017,-36177.4383398817,-32506.745458453355,-4736.558167524119,-37769.08371079966,0.0,0.0,0.0,193.0,0.0,193.0,0.0,8.0,0.0,179.0,193.0,8.0,179.0,1744420328.256752,0.0,2025-04-11 21:12:08.256,RIGHT,4
157.0,29314.782239768774,31165.752549857207,-32212.730611888244,-30317.637958245035,-36178.44416838219,-32501.984536884374,-4769.70580455134,-37791.815434910706,0.0,0.0,0.0,193.0,0.0,193.0,0.0,9.0,0.0,179.0,193.0,9.0,179.0,1744420328.2568088,0.0,2025-04-11 21:12:08.256,RIGHT,4
158.0,29278.684172473455,31167.69715162482,-32208.684946141835,-30303.735173193836,-36173.2362119241,-32486.405370999026,-5095.1025003317,-37771.92238234549,0.0,0.0,0.0,193.0,0.0,193.0,0.0,9.0,0.0,179.0,193.0,9.0,179.0,1744420328.2568488,0.0,2025-04-11 21:12:08.256,RIGHT,4
159.0,29285.054419643217,31188.059590823603,-32186.22144296425,-30280.958745593878,-36149.096327912375,-32469.552155679725,-5245.999127149478,-37763.9651613194,0.0,0.0,0.0,193.0,0.0,193.0,0.0,10.0,0.0,179.0,193.0,10.0,179.0,1744420328.2568882,0.0,2025-04-11 21:12:08.256,RIGHT,4
160.0,29319.632568315577,31192.708753670307,-32206.874454840956,-30296.38144926804,-36171.805700278965,-32498.274147304794,-4803.211069489846,-37760.18771650645,0.0,0.0,0.0,193.0,0.0,193.0,0.0,11.0,0.0,179.0,193.0,11.0,179.0,1744420328.2569275,0.0,2025-04-11 21:12:08.256,RIGHT,4
161.0,29310.42364959999,31169.3064772256,-32226.454582983803,-30324.90227519301,-36192.92809878923,-32514.881493435085,-4715.279306802668,-37818.41401081253,0.0,0.0,0.0,193.0,0.0,193.0,0.0,11.0,0.0,179.0,193.0,11.0,179.0,1744420328.2569675,0.0,2025-04-11 21:12:08.256,RIGHT,4
162.0,29280.964050407896,31174.290916239133,-32214.80932412259,-30305.724478450356,-36178.57827884892,-32492.842673402152,-5054.645842867594,-37792.418932011,0.0,0.0,0.0,193.0,0.0,193.0,0.0,12.0,0.0,179.0,193.0,12.0,179.0,1744420328.2570207,0.0,2025-04-11 21:12:08.257,RIGHT,4
163.0,29276.09137011664,31184.058628566105,-32193.08342851203,-30287.75367590829,-36156.561810560444,-32472.882565603566,-5259.656043011671,-37765.55213517573,0.0,0.0,0.0,193.0,0.0,193.0,0.0,12.0,0.0,179.0,193.0,12.0,179.0,1744420328.2570608,0.0,2025-04-11 21:12:08.257,RIGHT,4
164.0,29308.926082721482,31185.55619544461,-32206.427419951848,-30297.588443468627,-36173.81735727994,-32497.58124322668,-4904.553878850207,-37765.75330087582,0.0,0.0,0.0,193.0,0.0,193.0,0.0,12.0,0.0,179.0,193.0,12.0,179.0,1744420328.2571013,0.0,2025-04-11 21:12:08.257,RIGHT,4
165.0,29315.631606058076,31163.070340522572,-32221.492495714727,-30325.215199615384,-36187.049589997485,-32517.027260902796,-4694.4474809703215,-37813.42957179899,0.0,0.0,0.0,193.0,0.0,193.0,0.0,13.0,0.0,179.0,193.0,13.0,179.0,1744420328.2571409,0.0,2025-04-11 21:12:08.257,RIGHT,4
166.0,29291.357611579613,31160.07520676556,-32206.203902507295,-30305.99269938382,-36171.313961900945,-32490.294574534248,-4990.742205469872,-37781.824205139186,0.0,0.0,0.0,193.0,0.0,193.0,0.0,13.0,0.0,179.0,193.0,13.0,179.0,1744420328.2571876,0.0,2025-04-11 21:12:08.257,RIGHT,4
167.0,29277.387771295045,31178.336581985546,-32193.731629101236,-30293.34161202212,-36162.932057730206,-32476.056513316216,-5257.599682521783,-37767.340274732145,0.0,0.0,0.0,193.0,0.0,193.0,0.0,13.0,0.0,179.0,193.0,13.0,179.0,1744420328.2572277,0.0,2025-04-11 21:12:08.257,RIGHT,4
168.0,29305.774486753286,31183.611593676997,-32204.23694899523,-30300.874149903557,-36178.15359570427,-32505.71727820841,-5018.324258127721,-37785.51224297431,0.0,0.0,0.0,193.0,0.0,193.0,0.0,14.0,0.0,179.0,193.0,14.0,179.0,1744420328.2572808,0.0,2025-04-11 21:12:08.257,RIGHT,4
169.0,29321.443059616457,31169.999381303714,-32220.08433581404,-30325.885751949045,-36189.86590979885,-32526.10206915165,-4683.539829676131,-37803.840673427665,0.0,0.0,0.0,193.0,0.0,193.0,0.0,14.0,0.0,179.0,193.0,14.0,179.0,1744420328.257321,0.0,2025-04-11 21:12:08.257,RIGHT,4
170.0,29295.55973953721,31155.247229963214,-32211.9035973434,-30315.939225666432,-36169.235249666606,-32506.56664449771,-4918.322553434677,-37776.213917280904,0.0,0.0,0.0,193.0,0.0,193.0,0.0,14.0,0.0,179.0,193.0,14.0,179.0,1744420328.2573607,0.0,2025-04-11 21:12:08.257,RIGHT,4
171.0,29278.058323628706,31171.54165167113,-32199.07369602605,-30298.929548135944,-36157.25471463856,-32492.887376891063,-5225.435522250596,-37774.00109457983,0.0,0.0,0.0,193.0,0.0,193.0,0.0,14.0,0.0,179.0,193.0,14.0,179.0,1744420328.2574008,0.0,2025-04-11 21:12:08.257,RIGHT,4
172.0,29299.65010877253,31178.269526752178,-32200.61596639347,-30292.29108003272,-36160.898048984775,-32496.28484204827,-5077.3999187230975,-37763.24990549683,0.0,0.0,0.0,193.0,0.0,193.0,0.0,14.0,0.0,179.0,193.0,14.0,179.0,1744420328.2574518,0.0,2025-04-11 21:12:08.257,RIGHT,4
173.0,29321.644225316555,31170.044084792626,-32222.833600382044,-30316.94505416692,-36181.57341260593,-32519.10597313714,-4668.295939957612,-37778.56085044871,0.0,0.0,0.0,193.0,0.0,193.0,0.0,14.0,0.0,179.0,193.0,14.0,179.0,1744420328.257492,0.0,2025-04-11 21:12:08.257,RIGHT,4
174.0,29290.84352145714,31146.820622303563,-32227.773335906666,-30327.919760694476,-36186.06611324145,-32521.25174060485,-4868.209942365878,-37815.7765049668,0.0,0.0,0.0,193.0,0.0,193.0,0.0,15.0,0.0,179.0,193.0,15.0,179.0,1744420328.257532,0.0,2025-04-11 21:12:08.257,RIGHT,4
175.0,29270.168157835982,31162.444491677823,-32217.491533457225,-30311.13360060854,-36175.60549683637,-32502.208054328927,-5202.569687672816,-37801.09140885966,0.0,0.0,0.0,193.0,0.0,193.0,0.0,15.0,0.0,179.0,193.0,15.0,179.0,1744420328.2575724,0.0,2025-04-11 21:12:08.257,RIGHT,4
176.0,29290.41883831249,31176.816663362584,-32206.69564088531,-30293.252205044297,-36166.26246765405,-32486.09244657665,-5166.851600033236,-37773.218783523895,0.0,0.0,0.0,193.0,0.0,193.0,0.0,15.0,0.0,179.0,193.0,15.0,179.0,1744420328.2576125,0.0,2025-04-11 21:12:08.257,RIGHT,4
177.0,29314.2681496463,31168.524166169664,-32234.210638309796,-30319.291987334727,-36196.25850871307,-32517.563702769723,-4697.26380077169,-37783.634696440065,0.0,0.0,0.0,193.0,0.0,193.0,0.0,15.0,0.0,179.0,193.0,15.0,179.0,1744420328.257666,0.0,2025-04-11 21:12:08.257,RIGHT,4
178.0,29300.186550639457,31149.92751478285,-32225.13583006094,-30316.38626055554,-36186.289630686006,-32496.843635659654,-4818.901994097471,-37789.37909476508,0.0,0.0,0.0,193.0,0.0,193.0,0.0,15.0,0.0,180.0,193.0,15.0,180.0,1744420328.2577069,0.0,2025-04-11 21:12:08.257,RIGHT,4
179.0,29272.671553214976,31166.288991724134,-32213.825847366556,-30296.493207990316,-36173.03504622401,-32475.90005110503,-5148.299652135331,-37761.394710707034,0.0,0.0,0.0,193.0,0.0,193.0,0.0,15.0,0.0,179.0,193.0,15.0,179.0,1744420328.2577477,0.0,2025-04-11 21:12:08.257,RIGHT,4
180.0,29281.075809130172,31182.672820409876,-32201.912367571877,-30284.42326598445,-36163.87083099733,-32474.111911548607,-5227.268365295931,-37769.4636904554,0.0,0.0,0.0,193.0,0.0,193.0,0.0,15.0,0.0,179.0,193.0,15.0,179.0,1744420328.2577877,0.0,2025-04-11 21:12:08.257,RIGHT,4
181.0,29311.384774611568,31173.21803250528,-32225.76167890569,-30305.590367983626,-36192.5928226224,-32510.657013733035,-4767.89531325046,-37783.67939992898,0.0,0.0,0.0,193.0,0.0,193.0,0.0,15.0,0.0,179.0,193.0,15.0,179.0,1744420328.2578273,0.0,2025-04-11 21:12:08.257,RIGHT,4
182.0,29311.250664144834,31156.856555563994,-32219.637300924936,-30309.658385474493,-36187.78719756451,-32502.565682240212,-4768.1188306950135,-37795.50347274583,0.0,0.0,0.0,193.0,0.0,193.0,0.0,15.0,0.0,179.0,193.0,15.0,179.0,1744420328.257867,0.0,2025-04-11 21:12:08.257,RIGHT,4
183.0,29278.79593119573,31161.34925619951,-32213.311757244082,-30299.66715570297,-36182.91451727325,-32495.591937970155,-5096.264791043376,-37783.88056562908,0.0,0.0,0.0,193.0,0.0,193.0,0.0,15.0,0.0,179.0,193.0,15.0,179.0,1744420328.25792,0.0,2025-04-11 21:12:08.257,RIGHT,4
184.0,29272.425684025966,31181.108198298003,-32196.927928558343,-30285.026763084745,-36167.67062755473,-32479.968068595896,-5257.845551710791,-37767.764957876796,0.0,0.0,0.0,193.0,0.0,193.0,0.0,16.0,0.0,180.0,193.0,16.0,180.0,1744420328.25796,0.0,2025-04-11 21:12:08.257,RIGHT,4
185.0,29317.397393870044,31192.194663547834,-32204.885149584432,-30288.021896841754,-36177.97478174863,-32499.01175487182,-4842.594843220097,-37757.81843159419,0.0,0.0,0.0,193.0,0.0,193.0,0.0,16.0,0.0,179.0,193.0,16.0,179.0,1744420328.258,0.0,2025-04-11 21:12:08.258,RIGHT,4
186.0,29322.04655671675,31160.969276543772,-32211.43421070984,-30307.110286606585,-36184.16621496275,-32508.95828115443,-4732.423094799888,-37805.4723507729,0.0,0.0,0.0,193.0,0.0,193.0,0.0,16.0,0.0,179.0,193.0,16.0,179.0,1744420328.2580516,0.0,2025-04-11 21:12:08.258,RIGHT,4
187.0,29284.07094288718,31153.54849738461,-32209.333146731038,-30300.33770803663,-36177.952430004174,-32498.85529266063,-5034.372810646631,-37791.90484188853,0.0,0.0,0.0,193.0,0.0,194.0,0.0,16.0,0.0,180.0,194.0,16.0,180.0,1744420328.258092,0.0,2025-04-11 21:12:08.258,RIGHT,4
188.0,29271.55396599221,31166.02077079067,-32201.37592570495,-30292.04521084371,-36171.02338922303,-32491.99330711285,-5276.419851353151,-37794.00590586733,0.0,0.0,0.0,193.0,0.0,194.0,0.0,16.0,0.0,179.0,194.0,16.0,179.0,1744420328.258132,0.0,2025-04-11 21:12:08.258,RIGHT,4
189.0,29309.93191122197,31179.968259330784,-32208.282614741638,-30289.318298020164,-36179.561755604955,-32498.363554282616,-4936.5839286546625,-37769.28487649976,0.0,0.0,0.0,193.0,0.0,193.0,0.0,16.0,0.0,179.0,193.0,16.0,179.0,1744420328.2581723,0.0,2025-04-11 21:12:08.258,RIGHT,4
190.0,29316.793896769752,31161.863346321985,-32225.04642308312,-30317.436792544937,-36195.9455842907,-32514.501513779345,-4691.228829768757,-37810.63560374208,0.0,0.0,0.0,193.0,0.0,193.0,0.0,16.0,0.0,179.0,193.0,16.0,179.0,1744420328.2582128,0.0,2025-04-11 21:12:08.258,RIGHT,4
191.0,29290.41883831249,31157.01301777518,-32214.13877178893,-30302.863455160077,-36181.41695039475,-32497.894167649054,-4993.759690971338,-37810.74736246435,0.0,0.0,0.0,193.0,0.0,193.0,0.0,16.0,0.0,180.0,193.0,16.0,180.0,1744420328.2582533,0.0,2025-04-11 21:12:08.258,RIGHT,4
192.0,29274.772617193776,31174.559137172597,-32202.493512927715,-30286.390219496516,-36162.641485052285,-32475.85534761612,-5263.634653524716,-37775.65512366952,0.0,0.0,0.0,193.0,0.0,193.0,0.0,16.0,0.0,179.0,193.0,16.0,179.0,1744420328.2583072,0.0,2025-04-11 21:12:08.258,RIGHT,4
193.0,29302.33231810717,31181.041143064638,-32210.406030464892,-30289.094780575608,-36172.74447354609,-32483.544347708746,-5016.08908368219,-37750.79998383522,0.0,0.0,0.0,193.0,0.0,193.0,0.0,16.0,0.0,179.0,193.0,16.0,179.0,1744420328.258348,0.0,2025-04-11 21:12:08.258,RIGHT,4
194.0,29321.398356127545,31167.808910347096,-32230.120269074476,-30318.554379767702,-36196.37026743535,-32512.24398758936,-4682.981036064749,-37804.332411805684,0.0,0.0,0.0,193.0,0.0,193.0,0.0,16.0,0.0,179.0,193.0,16.0,179.0,1744420328.2583883,0.0,2025-04-11 21:12:08.258,RIGHT,4
195.0,29292.721067991388,31149.122851982458,-32225.85108588351,-30311.04419363072,-36186.759017319564,-32497.402429271035,-4934.393457698043,-37800.689077459465,0.0,0.0,0.0,193.0,0.0,193.0,0.0,16.0,0.0,179.0,193.0,16.0,179.0,1744420328.2584293,0.0,2025-04-11 21:12:08.258,RIGHT,4
196.0,29266.435416511944,31161.662180621886,-32214.13877178893,-30294.19097831142,-36170.44224386719,-32470.982667324864,-5242.311089314352,-37761.193545006936,0.0,0.0,0.0,193.0,0.0,193.0,0.0,16.0,0.0,179.0,193.0,16.0,179.0,1744420328.2584693,0.0,2025-04-11 21:12:08.258,RIGHT,4
197.0,29283.84742544263,31165.01494229018,-32215.658690411892,-30291.173492809954,-36173.25856366856,-32479.52103370679,-5120.069398888279,-37760.8135653512,0.0,0.0,0.0,193.0,0.0,193.0,0.0,16.0,0.0,179.0,193.0,16.0,179.0,1744420328.2585092,0.0,2025-04-11 21:12:08.258,RIGHT,4
198.0,29303.78518149676,31151.715654339274,-32244.984179137253,-30325.550475782216,-36195.45384591268,-32517.09431613616,-4689.3065797456,-37793.62592621159,0.0,0.0,0.0,193.0,0.0,193.0,0.0,16.0,0.0,179.0,193.0,16.0,179.0,1744420328.2585635,0.0,2025-04-11 21:12:08.258,RIGHT,4
199.0,29283.869777187083,31130.146220939903,-32241.22908606876,-30325.081089148654,-36184.47913938513,-32502.945661895952,-4881.777451250249,-37806.05349612874,0.0,0.0,0.0,193.0,0.0,193.0,0.0,16.0,0.0,179.0,193.0,16.0,179.0,1744420328.2586043,0.0,2025-04-11 21:12:08.258,RIGHT,4
200.0,29263.641448455033,31156.320113697067,-32222.52067595967,-30301.745867937312,-36166.4859850986,-32478.179929039474,-5204.179013273599,-37779.454920226926,0.0,0.0,0.0,193.0,0.0,193.0,0.0,16.0,0.0,180.0,193.0,16.0,180.0,1744420328.258644,0.0,2025-04-11 21:12:08.258,RIGHT,4
201.0,29277.94656490643,31172.569831916077,-32214.876379355956,-30292.022859099256,-36162.46267109665,-32482.09148431915,-5184.353015941741,-37781.15365280553,0.0,0.0,0.0,193.0,0.0,193.0,0.0,16.0,0.0,179.0,193.0,16.0,179.0,1744420328.2587035,0.0,2025-04-11 21:12:08.258,RIGHT,4
202.0,29315.3186816357,31173.08392203855,-32238.658635456402,-30312.117077364575,-36190.24588945459,-32513.76390621232,-4714.921678891383,-37792.75420817783,0.0,0.0,0.0,193.0,0.0,193.0,0.0,16.0,0.0,180.0,193.0,16.0,180.0,1744420328.2587502,0.0,2025-04-11 21:12:08.258,RIGHT,4
203.0,29297.414934327,31148.251133948703,-32241.65376921341,-30323.069432147677,-36197.68902035821,-32512.087525378174,-4828.937927357903,-37827.9805574394,0.0,0.0,0.0,193.0,0.0,193.0,0.0,16.0,0.0,179.0,193.0,16.0,179.0,1744420328.2588153,0.0,2025-04-11 21:12:08.258,RIGHT,4
204.0,29273.632678226553,31168.613573147486,-32223.034766082143,-30297.0520016017,-36183.87564228483,-32481.555042452223,-5177.0216437604,-37787.94858311994,0.0,0.0,0.0,193.0,0.0,193.0,0.0,16.0,0.0,179.0,193.0,16.0,179.0,1744420328.2588649,0.0,2025-04-11 21:12:08.258,RIGHT,4
205.0,29289.70358248992,31186.31615475609,-32201.733553616235,-30275.23669901332,-36165.56956357593,-32465.551193422223,-5244.769781204436,-37759.740681617346,0.0,0.0,0.0,193.0,0.0,193.0,0.0,16.0,0.0,180.0,193.0,16.0,180.0,1744420328.2589128,0.0,2025-04-11 21:12:08.258,RIGHT,4
206.0,29322.806516028228,31177.531919185156,-32225.42640273886,-30296.023821356754,-36192.88339530032,-32498.76588568281,-4766.889484749971,-37764.412196208505,0.0,0.0,0.0,193.0,0.0,194.0,0.0,17.0,0.0,180.0,194.0,17.0,180.0,1744420328.2589784,0.0,2025-04-11 21:12:08.258,RIGHT,4
207.0,29308.65786178802,31150.64277060542,-32230.075565585565,-30311.491228519826,-36197.01846802455,-32504.95731889693,-4765.190752171368,-37814.83773169968,0.0,0.0,0.0,193.0,0.0,193.0,0.0,17.0,0.0,179.0,193.0,17.0,179.0,1744420328.2590227,0.0,2025-04-11 21:12:08.259,RIGHT,4
208.0,29285.36734406559,31171.943983071327,-32210.56249267608,-30285.205577040386,-36178.801796293475,-32475.318905749195,-5095.549535220806,-37774.828109124675,0.0,0.0,0.0,193.0,0.0,194.0,0.0,17.0,0.0,180.0,194.0,17.0,180.0,1744420328.2590663,0.0,2025-04-11 21:12:08.259,RIGHT,4
209.0,29285.210881854404,31187.36668674549,-32196.145617502407,-30270.587536166615,-36167.29064789899,-32466.244097500337,-5255.27510109843,-37771.00596082282,0.0,0.0,0.0,193.0,0.0,194.0,0.0,17.0,0.0,180.0,194.0,17.0,180.0,1744420328.2591088,0.0,2025-04-11 21:12:08.259,RIGHT,4
210.0,29318.403222370533,31180.50470119771,-32216.82098112357,-30285.362039251573,-36191.85521505537,-32499.838769416663,-4852.8766456695375,-37774.38107423557,0.0,0.0,0.0,193.0,0.0,194.0,0.0,17.0,0.0,180.0,194.0,17.0,180.0,1744420328.2591517,0.0,2025-04-11 21:12:08.259,RIGHT,4
211.0,29319.319643893203,31160.11991025447,-32223.437097482336,-30303.601062727103,-36197.55490989148,-32508.757115454333,-4727.4386557863545,-37814.90478693304,0.0,0.0,0.0,193.0,0.0,194.0,0.0,17.0,0.0,180.0,194.0,17.0,180.0,1744420328.2591925,0.0,2025-04-11 21:12:08.259,RIGHT,4
212.0,29291.64818425753,31159.471709665268,-32217.55858869059,-30293.810998655677,-36195.11856974585,-32499.257624060825,-5059.406764436575,-37809.495664774855,0.0,0.0,0.0,193.0,0.0,194.0,0.0,17.0,0.0,180.0,194.0,17.0,180.0,1744420328.259234,0.0,2025-04-11 21:12:08.259,RIGHT,4
213.0,29278.393599795534,31172.6592388939,-32203.387582705927,-30280.80228338269,-36175.851366025374,-32486.494777976848,-5297.855174285791,-37791.70367618843,0.0,0.0,0.0,193.0,0.0,194.0,0.0,17.0,0.0,180.0,194.0,17.0,180.0,1744420328.259292,0.0,2025-04-11 21:12:08.259,RIGHT,4
214.0,29312.390603112057,31180.79527387563,-32212.507094443692,-30281.674001416446,-36183.36155216236,-32501.4704467619,-4956.164056797512,-37769.28487649976,0.0,0.0,0.0,193.0,0.0,194.0,0.0,17.0,0.0,180.0,194.0,17.0,180.0,1744420328.2593374,0.0,2025-04-11 21:12:08.259,RIGHT,4
215.0,29325.75694629633,31164.389093445432,-32226.767507406177,-30304.316318549674,-36192.436360411215,-32513.316871323215,-4687.138460533436,-37797.71629544691,0.0,0.0,0.0,193.0,0.0,194.0,0.0,17.0,0.0,180.0,194.0,17.0,180.0,1744420328.2593825,0.0,2025-04-11 21:12:08.259,RIGHT,4
216.0,29298.957204694416,31161.438663177334,-32219.257321269197,-30287.776027652744,-36181.796930050485,-32489.15463556703,-4975.721833195906,-37781.35481850563,0.0,0.0,0.0,193.0,0.0,194.0,0.0,17.0,0.0,180.0,194.0,17.0,180.0,1744420328.2595315,0.0,2025-04-11 21:12:08.259,RIGHT,4
217.0,29274.59380323813,31176.347276729022,-32215.971614834263,-30279.95291709339,-36176.3878078923,-32483.074961075185,-5264.126391902732,-37783.23236503987,0.0,0.0,0.0,193.0,0.0,194.0,0.0,17.0,0.0,180.0,194.0,17.0,180.0,1744420328.2595744,0.0,2025-04-11 21:12:08.259,RIGHT,4
218.0,29309.306062377225,31184.97505008877,-32211.791838621124,-30274.18616702392,-36174.73377880261,-32494.67551644749,-5052.969462033447,-37787.836824397666,0.0,0.0,0.0,193.0,0.0,194.0,0.0,17.0,0.0,180.0,194.0,17.0,180.0,1744420328.2596166,0.0,2025-04-11 21:12:08.259,RIGHT,4
219.0,29330.76373705432,31171.943983071327,-32227.95214986231,-30300.561225481182,-36193.0398575115,-32511.416973044514,-4686.534963433142,-37802.521920504805,0.0,0.0,0.0,193.0,0.0,194.0,0.0,17.0,0.0,180.0,194.0,17.0,180.0,1744420328.2596622,0.0,2025-04-11 21:12:08.259,RIGHT,4
220.0,29304.098105919136,31156.074244508058,-32219.369079991473,-30293.72159167786,-36183.49566262909,-32489.15463556703,-4940.540187423252,-37795.21290006792,0.0,0.0,0.0,193.0,0.0,194.0,0.0,17.0,0.0,180.0,194.0,17.0,180.0,1744420328.2597046,0.0,2025-04-11 21:12:08.259,RIGHT,4
221.0,29275.286707316245,31167.987724302737,-32209.869588597965,-30278.47770195934,-36174.42085438024,-32472.368475481093,-5249.687164984603,-37780.058417327215,0.0,0.0,0.0,193.0,0.0,194.0,0.0,17.0,0.0,180.0,194.0,17.0,180.0,1744420328.2597656,0.0,2025-04-11 21:12:08.259,RIGHT,4
222.0,29298.353707594124,31178.22482326327,-32203.40993445038,-30266.273649486742,-36174.10792995786,-32471.09442604714,-5139.87304447568,-37767.22851600987,0.0,0.0,0.0,193.0,0.0,194.0,0.0,17.0,0.0,180.0,194.0,17.0,180.0,1744420328.2598069,0.0,2025-04-11 21:12:08.259,RIGHT,4
223.0,29319.319643893203,31170.200547003813,-32230.74611791922,-30294.14627482251,-36206.16033150677,-32501.738667695365,-4698.828422883561,-37785.95927786342,0.0,0.0,0.0,193.0,0.0,194.0,0.0,17.0,0.0,180.0,194.0,17.0,180.0,1744420328.2598503,0.0,2025-04-11 21:12:08.259,RIGHT,4
224.0,29297.683155260464,31153.906125295896,-32225.202885294308,-30293.252205044297,-36197.957241291675,-32490.920423378997,-4885.510192574286,-37803.10306586064,0.0,0.0,0.0,193.0,0.0,194.0,0.0,17.0,0.0,179.0,194.0,17.0,179.0,1744420328.2598944,0.0,2025-04-11 21:12:08.259,RIGHT,4
225.0,29267.731817690354,31159.337599198534,-32219.48083871375,-30282.56807119466,-36189.35181967638,-32478.179929039474,-5221.143987315177,-37785.51224297431,0.0,0.0,0.0,193.0,0.0,194.0,0.0,17.0,0.0,180.0,194.0,17.0,180.0,1744420328.2599373,0.0,2025-04-11 21:12:08.259,RIGHT,4
226.0,29287.915442933496,31172.815701105083,-32207.030917052143,-30268.687637887913,-36178.77944454902,-32473.08373130366,-5222.015705348934,-37784.48406272937,0.0,0.0,0.0,193.0,0.0,194.0,0.0,17.0,0.0,180.0,194.0,17.0,180.0,1744420328.2599823,0.0,2025-04-11 21:12:08.259,RIGHT,4
227.0,29319.498457848844,31171.496948182223,-32226.43223123935,-30285.540853207214,-36195.27503195703,-32493.893205391552,-4743.531911794175,-37774.67164691349,0.0,0.0,0.0,193.0,0.0,194.0,0.0,17.0,0.0,179.0,194.0,17.0,179.0,1744420328.260034,0.0,2025-04-11 21:12:08.260,RIGHT,4
228.0,29301.37119309559,31148.139375226427,-32233.115402831485,-30300.360059781084,-36196.95141279118,-32492.976783868886,-4803.546345656675,-37793.58122272268,0.0,0.0,0.0,193.0,0.0,194.0,0.0,17.0,0.0,179.0,194.0,17.0,179.0,1744420328.260154,0.0,2025-04-11 21:12:08.260,RIGHT,4
229.0,29269.117625846582,31159.69522710982,-32226.67810042836,-30291.776989910246,-36189.75415107657,-32484.66193493151,-5140.409486342608,-37784.99815285184,0.0,0.0,0.0,193.0,0.0,194.0,0.0,17.0,0.0,180.0,194.0,17.0,180.0,1744420328.2602253,0.0,2025-04-11 21:12:08.260,RIGHT,4
230.0,29271.956297392408,31164.053817278604,-32212.551797932603,-30279.52823394874,-36176.87954627032,-32480.28099301827,-5251.18473186311,-37788.4179697535,0.0,0.0,0.0,193.0,0.0,194.0,0.0,17.0,0.0,179.0,194.0,17.0,179.0,1744420328.2603009,0.0,2025-04-11 21:12:08.260,RIGHT,4
231.0,29312.390603112057,31167.07130278007,-32223.906484115898,-30290.681754431935,-36189.977668521125,-32507.795990442755,-4808.910764325949,-37793.53651923377,0.0,0.0,0.0,193.0,0.0,194.0,0.0,17.0,0.0,179.0,194.0,17.0,179.0,1744420328.260532,0.0,2025-04-11 21:12:08.260,RIGHT,4
232.0,29309.484876332866,31146.194773458814,-32224.308815516095,-30301.812923170677,-36196.05734301297,-32511.305214322238,-4784.6144181030295,-37834.64137728708,0.0,0.0,0.0,193.0,0.0,194.0,0.0,17.0,0.0,179.0,194.0,17.0,179.0,1744420328.2606244,0.0,2025-04-11 21:12:08.260,RIGHT,4
233.0,29282.88630043105,31154.666084607376,-32207.545007174613,-30279.774103137745,-36176.29840091448,-32491.18864431246,-5103.842032413725,-37797.135150091075,0.0,0.0,0.0,193.0,0.0,194.0,0.0,17.0,0.0,180.0,194.0,17.0,180.0,1744420328.2606933,0.0,2025-04-11 21:12:08.260,RIGHT,4
234.0,29287.691925488944,31176.570794173575,-32184.165082474363,-30255.053073770177,-36155.82420299342,-32464.545364921734,-5266.7638977484585,-37760.701806628924,0.0,0.0,0.0,193.0,0.0,193.0,0.0,17.0,0.0,179.0,193.0,17.0,179.0,1744420328.2607896,0.0,2025-04-11 21:12:08.260,RIGHT,4
235.0,29326.785126541276,31186.360858245,-32198.291384970118,-30264.619620397047,-36175.717255558644,-32493.222653057896,-4868.858142955082,-37767.16146077651,0.0,0.0,0.0,193.0,0.0,193.0,0.0,17.0,0.0,179.0,193.0,17.0,179.0,1744420328.2608604,0.0,2025-04-11 21:12:08.260,RIGHT,4
236.0,29322.09126020566,31160.07520676556,-32216.888036356933,-30294.52625447825,-36196.66084011327,-32514.322699823704,-4727.997449397737,-37826.39358358307,0.0,0.0,0.0,193.0,0.0,193.0,0.0,17.0,0.0,179.0,193.0,17.0,179.0,1744420328.261067,0.0,2025-04-11 21:12:08.261,RIGHT,4
237.0,29289.79298946774,31160.343427699023,-32208.349669975007,-30279.170606037453,-36190.402351665776,-32485.734818665365,-5045.906310785569,-37790.966068621405,0.0,0.0,0.0,193.0,0.0,193.0,0.0,17.0,0.0,179.0,193.0,17.0,179.0,1744420328.261119,0.0,2025-04-11 21:12:08.261,RIGHT,4
238.0,29276.136073605547,31173.329791227556,-32193.485759912226,-30267.301829731685,-36170.50929910056,-32471.04972255823,-5302.347874921307,-37771.743568389844,0.0,0.0,0.0,193.0,0.0,193.0,0.0,17.0,0.0,179.0,193.0,17.0,179.0,1744420328.261197,0.0,2025-04-11 21:12:08.261,RIGHT,4
239.0,29308.456696087924,31177.397808718422,-32202.784085605635,-30269.80522511068,-36176.566621847945,-32491.14394082355,-4971.2738360492995,-37762.33348397416,0.0,0.0,0.0,193.0,0.0,193.0,0.0,17.0,0.0,179.0,193.0,17.0,179.0,1744420328.261258,0.0,2025-04-11 21:12:08.261,RIGHT,4
240.0,29315.721013035898,31157.46005266429,-32227.058080084098,-30300.784742925734,-36197.06317151346,-32512.311042822726,-4691.698216402318,-37801.82901642669,0.0,0.0,0.0,193.0,0.0,193.0,0.0,17.0,0.0,179.0,193.0,17.0,179.0,1744420328.2613223,0.0,2025-04-11 21:12:08.261,RIGHT,4
241.0,29286.32846907717,31146.910029281382,-32219.637300924936,-30289.541815464716,-36186.66961034174,-32491.702734434934,-4988.864658935626,-37792.10600758863,0.0,0.0,0.0,193.0,0.0,193.0,0.0,17.0,0.0,179.0,193.0,17.0,179.0,1744420328.261389,0.0,2025-04-11 21:12:08.261,RIGHT,4
242.0,29264.490814744335,31161.59512538852,-32207.9026350859,-30277.963611836865,-36175.225517180625,-32477.352914494626,-5275.61518855276,-37784.64052494056,0.0,0.0,0.0,193.0,0.0,193.0,0.0,17.0,0.0,179.0,193.0,17.0,179.0,1744420328.261479,0.0,2025-04-11 21:12:08.261,RIGHT,4
243.0,29289.390658067547,31172.145148771426,-32208.7520013752,-30272.80035886769,-36178.84649978238,-32476.883527861064,-5067.520447673852,-37759.9641990619,0.0,0.0,0.0,193.0,0.0,193.0,0.0,17.0,0.0,179.0,193.0,17.0,179.0,1744420328.261526,0.0,2025-04-11 21:12:08.261,RIGHT,4
244.0,29314.33520487967,31167.630096391455,-32222.74419340422,-30294.57095796716,-36197.666668613754,-32497.80476067123,-4700.773024651173,-37797.20220532444,0.0,0.0,0.0,193.0,0.0,193.0,0.0,17.0,0.0,179.0,193.0,17.0,179.0,1744420328.7362664,0.0,2025-04-11 21:12:08.736,RIGHT,4
245.0,29293.615137769597,31155.78367183014,-32210.115457786975,-30283.484492717325,-36187.76484582006,-32479.744551151343,-4941.188388012456,-37794.877623901084,0.0,0.0,0.0,193.0,0.0,193.0,0.0,17.0,0.0,179.0,193.0,17.0,179.0,1744420328.7363815,0.0,2025-04-11 21:12:08.736,RIGHT,4
246.0,29267.64241071253,31168.591221403032,-32196.100914013496,-30264.55256516368,-36172.76682529054,-32461.41612069799,-5258.359641833263,-37770.067187555695,0.0,0.0,0.0,193.0,0.0,193.0,0.0,17.0,0.0,180.0,193.0,17.0,180.0,1744420328.7364783,0.0,2025-04-11 21:12:08.736,RIGHT,4
247.0,29285.233233598858,31178.35893373,-32192.92696630084,-30256.595344137593,-36169.19054617769,-32467.94283007894,-5162.604768586728,-37766.222687509384,0.0,0.0,0.0,193.0,0.0,193.0,0.0,17.0,0.0,179.0,193.0,17.0,179.0,1744420328.7365272,0.0,2025-04-11 21:12:08.736,RIGHT,4
248.0,29312.05532694523,31173.575660416565,-32214.94343458932,-30281.42813222744,-36191.25171795508,-32497.447132759946,-4724.55528075162,-37789.62496395409,0.0,0.0,0.0,193.0,0.0,193.0,0.0,17.0,0.0,180.0,193.0,17.0,180.0,1744420328.7365751,0.0,2025-04-11 21:12:08.736,RIGHT,4
249.0,29286.574338266175,31153.07911075105,-32217.357422990495,-30288.55833870868,-36193.330430189424,-32491.412161757013,-4883.856163484593,-37806.209958339925,0.0,0.0,0.0,193.0,0.0,194.0,0.0,17.0,0.0,180.0,194.0,17.0,180.0,1744420328.736623,0.0,2025-04-11 21:12:08.736,RIGHT,4
250.0,29259.238154797335,31177.755436629708,-32203.365230961474,-30271.839233856113,-36180.902860272276,-32469.99919056883,-5216.539527957383,-37779.164347549005,0.0,0.0,0.0,193.0,0.0,194.0,0.0,17.0,0.0,180.0,194.0,17.0,180.0,1744420328.7366703,0.0,2025-04-11 21:12:08.736,RIGHT,4
251.0,29270.525785747268,31181.5105296982,-32192.12230350045,-30263.010294796266,-36171.87275551233,-32465.95352482242,-5243.585138748305,-37769.97778057787,0.0,0.0,0.0,193.0,0.0,194.0,0.0,17.0,0.0,180.0,194.0,17.0,180.0,1744420328.7367375,0.0,2025-04-11 21:12:08.736,RIGHT,4
252.0,29299.739515750352,31170.11114002599,-32212.931777588343,-30285.09381831811,-36190.73762783261,-32496.77658042629,-4769.571694084608,-37780.72896966088,0.0,0.0,0.0,193.0,0.0,194.0,0.0,17.0,0.0,180.0,194.0,17.0,180.0,1744420328.7367852,0.0,2025-04-11 21:12:08.736,RIGHT,4
253.0,29291.804646468718,31149.189907215823,-32205.66746064037,-30290.23471954283,-36180.45582538317,-32491.210996056918,-4843.6006717205855,-37816.11178113363,0.0,0.0,0.0,193.0,0.0,194.0,0.0,17.0,0.0,180.0,194.0,17.0,180.0,1744420328.736833,0.0,2025-04-11 21:12:08.736,RIGHT,4
254.0,29260.556907720198,31158.287067209134,-32195.22919597974,-30273.73913213481,-36171.09044445639,-32473.620173170588,-5181.044957762356,-37788.6191354536,0.0,0.0,0.0,193.0,0.0,194.0,0.0,17.0,0.0,180.0,194.0,17.0,180.0,1744420328.7368808,0.0,2025-04-11 21:12:08.736,RIGHT,4
255.0,29257.517070474278,31171.273430737667,-32182.71221908477,-30262.876184329532,-36161.41213910725,-32465.32767597767,-5285.718177046559,-37766.53561193176,0.0,0.0,0.0,193.0,0.0,194.0,0.0,17.0,0.0,180.0,194.0,17.0,180.0,1744420328.7369287,0.0,2025-04-11 21:12:08.736,RIGHT,4
0.0,29289.725934234375,31166.69132312433,-32201.75590536069,-30278.209481025875,-36184.30032542948,-32495.010792614317,-4830.122569814035,-37757.72902461637,0.0,0.0,0.0,193.0,0.0,194.0,0.0,17.0,0.0,180.0,194.0,17.0,180.0,1744420328.7369761,0.0,2025-04-11 21:12:08.736,RIGHT,4
1.0,29288.094256889137,31142.193811201312,-32202.627623394448,-30288.98302185333,-36181.48400562811,-32499.347031038647,-4788.347159427066,-37810.277975830795,0.0,0.0,0.0,193.0,0.0,194.0,0.0,17.0,0.0,180.0,194.0,17.0,180.0,1744420328.737039,0.0,2025-04-11 21:12:08.737,RIGHT,4
2.0,29258.277029785757,31144.49604088021,-32197.71023961428,-30270.56518442216,-36175.784310792005,-32489.244042544848,-5103.774977180359,-37801.58314723768,0.0,0.0,0.0,193.0,0.0,194.0,0.0,17.0,0.0,180.0,194.0,17.0,180.0,1744420328.737094,0.0,2025-04-11 21:12:08.737,RIGHT,4
3.0,29247.12350930256,31160.656352121398,-32189.46244591027,-30256.52828890423,-36168.67645605522,-32476.6153069276,-5292.937790505623,-37781.17600454998,0.0,0.0,0.0,193.0,0.0,194.0,0.0,17.0,0.0,180.0,194.0,17.0,180.0,1744420328.737142,0.0,2025-04-11 21:12:08.737,RIGHT,4
4.0,29286.641393499543,31178.493044196734,-32191.004716277686,-30252.59438188009,-36170.196374678184,-32486.33831576566,-4918.702533090417,-37750.10707975711,0.0,0.0,0.0,193.0,0.0,194.0,0.0,17.0,0.0,180.0,194.0,17.0,180.0,1744420328.73719,0.0,2025-04-11 21:12:08.737,RIGHT,4
5.0,29289.189492367448,31156.253058463702,-32204.795742606613,-30276.935431591923,-36182.93686901771,-32503.34799329615,-4742.3472693380445,-37800.59967048164,0.0,0.0,0.0,193.0,0.0,194.0,0.0,17.0,0.0,180.0,194.0,17.0,180.0,1744420328.7372522,0.0,2025-04-11 21:12:08.737,RIGHT,4
6.0,29261.83095715415,31157.34829394201,-32192.904614556388,-30259.054036027675,-36170.688113056196,-32480.348048251635,-5031.400028634075,-37777.64442892605,0.0,0.0,0.0,193.0,0.0,194.0,0.0,17.0,0.0,180.0,194.0,17.0,180.0,1744420328.7373,0.0,2025-04-11 21:12:08.737,RIGHT,4
7.0,29251.325637260157,31174.782654617153,-32181.974611517744,-30248.95104753388,-36164.29551414198,-32467.249926000826,-5292.6472178277045,-37784.86404238511,0.0,0.0,0.0,193.0,0.0,194.0,0.0,17.0,0.0,180.0,194.0,17.0,180.0,1744420328.737347,0.0,2025-04-11 21:12:08.737,RIGHT,4
8.0,29284.428570798467,31181.01879132018,-32187.85312030949,-30251.007408023765,-36174.97964799162,-32485.62305994309,-5018.123092427622,-37795.39171402356,0.0,0.0,0.0,193.0,0.0,194.0,0.0,17.0,0.0,179.0,194.0,17.0,179.0,1744420328.7373943,0.0,2025-04-11 21:12:08.737,RIGHT,4
9.0,29293.011640669305,31163.562078900588,-32202.694678627813,-30276.37663798054,-36184.56854636294,-32499.302327549736,-4723.236527828757,-37808.422781041,0.0,0.0,0.0,193.0,0.0,194.0,0.0,17.0,0.0,179.0,194.0,17.0,179.0,1744420328.7374418,0.0,2025-04-11 21:12:08.737,RIGHT,4
10.0,29272.023352625773,31156.54363114162,-32190.580033133036,-30262.384445951517,-36170.755168289565,-32475.363609238102,-4972.503181994341,-37774.76105389131,0.0,0.0,0.0,193.0,0.0,194.0,0.0,17.0,0.0,180.0,194.0,17.0,180.0,1744420328.737504,0.0,2025-04-11 21:12:08.737,RIGHT,4
11.0,29249.35868374809,31169.038256292137,-32176.118454470452,-30250.89564930149,-36160.339255373394,-32458.063359029697,-5282.097194444799,-37768.70373114392,0.0,0.0,0.0,193.0,0.0,193.0,0.0,17.0,0.0,179.0,193.0,17.0,179.0,1744420328.737559,0.0,2025-04-11 21:12:08.737,RIGHT,4
12.0,29265.65310545601,31174.335619728045,-32184.835634808023,-30253.689617358403,-36175.89606951429,-32469.216879512893,-5099.908125389591,-37757.03612053825,0.0,0.0,0.0,193.0,0.0,193.0,0.0,17.0,0.0,179.0,193.0,17.0,179.0,1744420328.7376027,0.0,2025-04-11 21:12:08.737,RIGHT,4
13.0,29284.69679173193,31159.963448043283,-32215.971614834263,-30292.13461782153,-36210.295404231,-32509.315909065714,-4720.487263260754,-37803.03601062727,0.0,0.0,0.0,193.0,0.0,193.0,0.0,17.0,0.0,179.0,193.0,17.0,179.0,1744420328.737646,0.0,2025-04-11 21:12:08.737,RIGHT,4
14.0,29261.719198431874,31139.01986348866,-32208.729649630746,-30289.899443376,-36194.55977613447,-32500.66578396151,-4939.109675778112,-37810.03210664178,0.0,0.0,0.0,193.0,0.0,193.0,0.0,17.0,0.0,179.0,193.0,17.0,179.0,1744420328.7376893,0.0,2025-04-11 21:12:08.737,RIGHT,4
15.0,29241.021483066263,31157.46005266429,-32188.881300554433,-30269.08996928811,-36170.53165084501,-32480.638620929556,-5259.030194166922,-37786.87569938609,0.0,0.0,0.0,193.0,0.0,193.0,0.0,17.0,0.0,179.0,193.0,17.0,179.0,1744420328.7377312,0.0,2025-04-11 21:12:08.737,RIGHT,4
16.0,29261.808605409697,31171.98868656024,-32178.37598066044,-30256.75180634878,-36158.662874539245,-32478.179929039474,-5175.926408282091,-37768.882545099565,0.0,0.0,0.0,193.0,0.0,193.0,0.0,17.0,0.0,180.0,193.0,17.0,180.0,1744420328.7377946,0.0,2025-04-11 21:12:08.737,RIGHT,4
17.0,29293.726896491877,31169.440587692334,-32198.157274503385,-30277.248356014297,-36180.92521201673,-32507.348955553647,-4721.984830139259,-37787.99328660885,0.0,0.0,0.0,193.0,0.0,193.0,0.0,17.0,0.0,179.0,193.0,17.0,179.0,1744420328.7378383,0.0,2025-04-11 21:12:08.737,RIGHT,4
18.0,29269.22938456886,31147.69234033732,-32204.505169928692,-30286.56903345216,-36187.474273142136,-32508.399487543047,-4867.360576076577,-37823.82313297071,0.0,0.0,0.0,193.0,0.0,193.0,0.0,17.0,0.0,179.0,193.0,17.0,179.0,1744420328.7378802,0.0,2025-04-11 21:12:08.737,RIGHT,4
19.0,29241.088538299628,31162.39978818891,-32191.809379078077,-30269.246431499298,-36177.125415459326,-32489.467559989404,-5216.673638424116,-37804.01948738331,0.0,0.0,0.0,193.0,0.0,194.0,0.0,17.0,0.0,179.0,194.0,17.0,179.0,1744420328.737923,0.0,2025-04-11 21:12:08.737,RIGHT,4
20.0,29243.636637167532,31165.17140450137,-32185.595594119502,-30260.61865813955,-36168.05060721047,-32491.52392047929,-5242.422848036629,-37794.18471982297,0.0,0.0,0.0,193.0,0.0,193.0,0.0,17.0,0.0,179.0,193.0,17.0,179.0,1744420328.7379827,0.0,2025-04-11 21:12:08.737,RIGHT,4
21.0,29274.929079404963,31158.01884627567,-32207.880283341445,-30278.544757192703,-36191.654049355275,-32517.407240558536,-4778.110060466535,-37795.7716936793,0.0,0.0,0.0,193.0,0.0,193.0,0.0,17.0,0.0,179.0,193.0,17.0,179.0,1744420328.7380264,0.0,2025-04-11 21:12:08.738,RIGHT,4
22.0,29274.638506727042,31138.908104766382,-32197.486722169728,-30275.16964377995,-36181.68517132821,-32502.655089218035,-4829.854348880572,-37812.60255725415,0.0,0.0,0.0,193.0,0.0,193.0,0.0,17.0,0.0,180.0,193.0,17.0,180.0,1744420328.7380683,0.0,2025-04-11 21:12:08.738,RIGHT,4
23.0,29241.69203539992,31147.379415914944,-32188.769541832156,-30257.422358682437,-36169.79404327799,-32480.348048251635,-5145.192759656044,-37773.4646527129,0.0,0.0,0.0,193.0,0.0,193.0,0.0,17.0,0.0,179.0,193.0,17.0,179.0,1744420328.7381108,0.0,2025-04-11 21:12:08.738,RIGHT,4
24.0,29246.676474413453,31166.043122535128,-32173.324486413538,-30241.84319279709,-36155.645389037774,-32463.338370721147,-5261.2430168679975,-37756.49967867132,0.0,0.0,0.0,193.0,0.0,193.0,0.0,17.0,0.0,179.0,193.0,17.0,179.0,1744420328.7381532,0.0,2025-04-11 21:12:08.738,RIGHT,4
25.0,29279.60059399612,31170.267602237178,-32195.497416913204,-30261.445672684393,-36180.23230793861,-32493.177949568984,-4824.66874416694,-37766.490908442844,0.0,0.0,0.0,193.0,0.0,193.0,0.0,17.0,0.0,179.0,193.0,17.0,179.0,1744420328.73821,0.0,2025-04-11 21:12:08.738,RIGHT,4
26.0,29271.59866948112,31144.384282157935,-32208.215559508273,-30284.780893895735,-36188.68126734272,-32501.62690897309,-4765.481324849287,-37816.93879567848,0.0,0.0,0.0,193.0,0.0,193.0,0.0,17.0,0.0,179.0,193.0,17.0,179.0,1744420328.7382529,0.0,2025-04-11 21:12:08.738,RIGHT,4
27.0,29242.40729122249,31142.327921668046,-32197.956108803286,-30268.75469312128,-36176.03017998102,-32481.063304074207,-5095.504831731896,-37792.508338988824,0.0,0.0,0.0,193.0,0.0,194.0,0.0,17.0,0.0,180.0,194.0,17.0,180.0,1744420328.7382948,0.0,2025-04-11 21:12:08.738,RIGHT,4
28.0,29234.31595972967,31152.69913109531,-32184.857986552477,-30253.935486547412,-36165.25663915356,-32465.014751555296,-5288.71331080357,-37772.034141067765,0.0,0.0,0.0,193.0,0.0,194.0,0.0,17.0,0.0,180.0,194.0,17.0,180.0,1744420328.7383366,0.0,2025-04-11 21:12:08.738,RIGHT,4
29.0,29267.620058968078,31162.891526566927,-32200.012469293175,-30263.88201283002,-36185.10498822987,-32486.695943676943,-4919.060161001702,-37769.08371079966,0.0,0.0,0.0,193.0,0.0,193.0,0.0,17.0,0.0,179.0,193.0,17.0,179.0,1744420328.7383785,0.0,2025-04-11 21:12:08.738,RIGHT,4
30.0,29273.945602648928,31141.34444491201,-32212.060059554587,-30288.893614875513,-36194.291555201,-32502.14099909556,-4736.200539612834,-37819.62100501311,0.0,0.0,0.0,193.0,0.0,194.0,0.0,17.0,0.0,179.0,194.0,17.0,179.0,1744420328.7384207,0.0,2025-04-11 21:12:08.738,RIGHT,4
31.0,29245.6035906796,31138.12579371045,-32201.398277449403,-30270.02874255523,-36181.1934329502,-32481.57739419668,-5037.703220570472,-37798.185682080475,0.0,0.0,0.0,193.0,0.0,194.0,0.0,17.0,0.0,180.0,194.0,17.0,180.0,1744420328.738476,0.0,2025-04-11 21:12:08.738,RIGHT,4
32.0,29233.667759140466,31158.06354976458,-32184.299192941096,-30249.822765567635,-36160.36160711785,-32461.483175931357,-5294.792985295414,-37777.08563531466,0.0,0.0,0.0,193.0,0.0,193.0,0.0,17.0,0.0,179.0,193.0,17.0,179.0,1744420328.7385185,0.0,2025-04-11 21:12:08.738,RIGHT,4
33.0,29254.387826250535,31151.469785150268,-32208.61789090847,-30270.766350122256,-36186.893127786294,-32499.123513594095,-5018.8159965057375,-37794.58705122317,0.0,0.0,0.0,193.0,0.0,193.0,0.0,17.0,0.0,179.0,193.0,17.0,179.0,1744420328.73856,0.0,2025-04-11 21:12:08.738,RIGHT,4
34.0,29278.79593119573,31143.35610191299,-32219.570245691568,-30291.106437576585,-36205.40037219529,-32504.800856685742,-4736.491112290753,-37815.21771135541,0.0,0.0,0.0,193.0,0.0,193.0,0.0,17.0,0.0,179.0,193.0,17.0,179.0,1744420328.7386026,0.0,2025-04-11 21:12:08.738,RIGHT,4
35.0,29251.571506449167,31132.06847096306,-32212.618853165968,-30280.489358960316,-36193.2410232116,-32487.254737288327,-5001.381635830598,-37798.7221239474,0.0,0.0,0.0,193.0,0.0,193.0,0.0,17.0,0.0,179.0,193.0,17.0,179.0,1744420328.738658,0.0,2025-04-11 21:12:08.738,RIGHT,4
36.0,29230.605570150088,31148.78757581563,-32201.711201871778,-30265.245469241796,-36175.87371776983,-32470.401521969026,-5280.800793266391,-37778.96318184891,0.0,0.0,0.0,193.0,0.0,194.0,0.0,17.0,0.0,180.0,194.0,17.0,180.0,1744420328.7387,0.0,2025-04-11 21:12:08.738,RIGHT,4
37.0,29248.12933780305,31149.681645593842,-32208.595539164013,-30268.66528614346,-36185.797892307986,-32486.33831576566,-5103.909087647091,-37774.7163504024,0.0,0.0,0.0,193.0,0.0,194.0,0.0,17.0,0.0,180.0,194.0,17.0,180.0,1744420328.738742,0.0,2025-04-11 21:12:08.738,RIGHT,4
38.0,29278.32654456217,31155.269581707667,-32220.03963232513,-30286.52432996325,-36197.86783431385,-32507.639528231568,-4706.182146809358,-37803.7736181943,0.0,0.0,0.0,193.0,0.0,194.0,0.0,17.0,0.0,180.0,194.0,17.0,180.0,1744420328.7387843,0.0,2025-04-11 21:12:08.738,RIGHT,4
39.0,29256.287724529237,31141.031520489636,-32212.305928743594,-30281.00344908279,-36189.06124699846,-32496.396600770546,-4930.370143696087,-37815.39652531106,0.0,0.0,0.0,193.0,0.0,194.0,0.0,17.0,0.0,180.0,194.0,17.0,180.0,1744420328.7388265,0.0,2025-04-11 21:12:08.738,RIGHT,4
40.0,29230.78438410573,31147.178250214845,-32200.79478034911,-30268.03943729871,-36180.478177127625,-32483.05260933073,-5250.670641740638,-37799.70560070343,0.0,0.0,0.0,193.0,0.0,194.0,0.0,17.0,0.0,179.0,194.0,17.0,179.0,1744420328.738953,0.0,2025-04-11 21:12:08.738,RIGHT,4
41.0,29245.98357033534,31152.654427606398,-32196.03385878013,-30264.12788201903,-36176.45486312567,-32484.550176209235,-5197.071158536811,-37783.43353073997,0.0,0.0,0.0,193.0,0.0,193.0,0.0,17.0,0.0,179.0,193.0,17.0,179.0,1744420328.7389958,0.0,2025-04-11 21:12:08.738,RIGHT,4
42.0,29271.442207269934,31142.931418768338,-32224.822905638568,-30297.94607137991,-36204.662764628265,-32527.644339519065,-4741.1179233930025,-37814.30128983275,0.0,0.0,0.0,193.0,0.0,193.0,0.0,17.0,0.0,179.0,193.0,17.0,179.0,1744420328.739038,0.0,2025-04-11 21:12:08.739,RIGHT,4
43.0,29260.04281759773,31127.35225288299,-32214.161123533384,-30297.879016146544,-36194.98445927912,-32517.876627192098,-4898.764777036283,-37850.265246661336,0.0,0.0,0.0,193.0,0.0,193.0,0.0,17.0,0.0,179.0,193.0,17.0,179.0,1744420328.7390838,0.0,2025-04-11 21:12:08.739,RIGHT,4
44.0,29228.079823026637,31137.231723932236,-32209.154332775397,-30287.70897241938,-36186.06611324145,-32507.416010787012,-5220.451083237062,-37811.1273421201,0.0,0.0,0.0,193.0,0.0,193.0,0.0,17.0,0.0,179.0,193.0,17.0,179.0,1744420328.7391262,0.0,2025-04-11 21:12:08.739,RIGHT,4
45.0,29228.21393349337,31140.74094781172,-32202.404105949892,-30282.65747817248,-36178.243002682095,-32507.840693931663,-5238.958327646056,-37797.693943702456,0.0,0.0,0.0,193.0,0.0,193.0,0.0,17.0,0.0,179.0,193.0,17.0,179.0,1744420328.7391684,0.0,2025-04-11 21:12:08.739,RIGHT,4
46.0,29270.07875085816,31146.30653218109,-32211.344803732016,-30288.826559642144,-36194.738590090106,-32526.638511018577,-4794.940924041382,-37802.99130713836,0.0,0.0,0.0,193.0,0.0,193.0,0.0,17.0,0.0,179.0,193.0,17.0,179.0,1744420328.7392263,0.0,2025-04-11 21:12:08.739,RIGHT,4
47.0,29261.428625753957,31127.44165986081,-32209.690774642324,-30293.22985329984,-36193.17396797824,-32517.76486846982,-4828.312078513155,-37827.66763301702,0.0,0.0,0.0,193.0,0.0,193.0,0.0,17.0,0.0,179.0,193.0,17.0,179.0,1744420328.739269,0.0,2025-04-11 21:12:08.739,RIGHT,4
48.0,29231.07495678365,31139.131622210938,-32198.492550670217,-30273.247393756796,-36178.377113148825,-32491.63567920157,-5148.523169579884,-37787.09921683064,0.0,0.0,0.0,193.0,0.0,193.0,0.0,17.0,0.0,179.0,193.0,17.0,179.0,1744420328.739311,0.0,2025-04-11 21:12:08.739,RIGHT,4
49.0,29224.972930547352,31144.652503091398,-32195.497416913204,-30268.106492532075,-36173.549136346475,-32485.533652965267,-5274.765822263458,-37777.17504229248,0.0,0.0,0.0,193.0,0.0,193.0,0.0,17.0,0.0,180.0,193.0,17.0,180.0,1744420328.7393663,0.0,2025-04-11 21:12:08.739,RIGHT,4
50.0,29256.533593718243,31144.764261813674,-32217.22331252376,-30286.591385196614,-36197.62196512485,-32513.450981789945,-4852.8766456695375,-37788.06034184222,0.0,0.0,0.0,193.0,0.0,193.0,0.0,17.0,0.0,180.0,193.0,17.0,180.0,1744420328.739409,0.0,2025-04-11 21:12:08.739,RIGHT,4
51.0,29262.88148914355,31130.168572684357,-32214.161123533384,-30292.358135266084,-36195.5432528905,-32504.37617354109,-4800.730025855306,-37825.34305159367,0.0,0.0,0.0,193.0,0.0,194.0,0.0,17.0,0.0,180.0,194.0,17.0,180.0,1744420328.7394505,0.0,2025-04-11 21:12:08.739,RIGHT,4
52.0,29233.48894518482,31132.29198840761,-32205.823922851556,-30277.27070775875,-36184.14386321829,-32490.361629767616,-5112.134529606644,-37805.315888561716,0.0,0.0,0.0,193.0,0.0,194.0,0.0,17.0,0.0,180.0,194.0,17.0,180.0,1744420328.7394927,0.0,2025-04-11 21:12:08.739,RIGHT,4
53.0,29217.552151388187,31140.226857689246,-32201.532387916137,-30273.470911201348,-36181.99809575058,-32491.032182101273,-5325.280764732453,-37823.756077737344,0.0,0.0,0.0,193.0,0.0,194.0,0.0,17.0,0.0,179.0,194.0,17.0,179.0,1744420328.7395349,0.0,2025-04-11 21:12:08.739,RIGHT,4
54.0,29245.78240463524,31140.808003045084,-32213.825847366556,-30275.907251346976,-36195.25268021258,-32498.899996149543,-4970.178600570989,-37782.517109217304,0.0,0.0,0.0,193.0,0.0,193.0,0.0,17.0,0.0,179.0,193.0,17.0,179.0,1744420328.7395768,0.0,2025-04-11 21:12:08.739,RIGHT,4
55.0,29260.869832142573,31122.658386547377,-32219.19026603583,-30293.632184700036,-36189.68709584321,-32503.839731674165,-4729.807940698617,-37796.6210599686,0.0,0.0,0.0,193.0,0.0,193.0,0.0,17.0,0.0,179.0,193.0,17.0,179.0,1744420328.7396312,0.0,2025-04-11 21:12:08.739,RIGHT,4
56.0,29241.35675923309,31124.40182261489,-32200.772428604658,-30273.18033852343,-36166.39657812078,-32479.006943584318,-5016.513766826841,-37778.180870792974,0.0,0.0,0.0,193.0,0.0,193.0,0.0,17.0,0.0,179.0,193.0,17.0,179.0,1744420328.7396736,0.0,2025-04-11 21:12:08.739,RIGHT,4
57.0,29215.361680431568,31140.025691989147,-32194.089257012518,-30266.005428553275,-36158.50641232805,-32471.362646980604,-5281.09136594431,-37770.96125733391,0.0,0.0,0.0,193.0,0.0,193.0,0.0,17.0,0.0,179.0,193.0,17.0,179.0,1744420328.7397156,0.0,2025-04-11 21:12:08.739,RIGHT,4
58.0,29239.16628827647,31141.255037934192,-32208.170856019362,-30273.13563503452,-36178.310057915456,-32495.05549610323,-5025.56622333124,-37769.798966622235,0.0,0.0,0.0,193.0,0.0,193.0,0.0,17.0,0.0,179.0,193.0,17.0,179.0,1744420328.7397575,0.0,2025-04-11 21:12:08.739,RIGHT,4
59.0,29257.159442562992,31118.456258589777,-32226.18636205034,-30299.957728380887,-36201.533520404526,-32516.937853924974,-4723.5047487622205,-37815.26241484433,0.0,0.0,0.0,193.0,0.0,194.0,0.0,17.0,0.0,179.0,194.0,17.0,179.0,1744420328.7397993,0.0,2025-04-11 21:12:08.739,RIGHT,4
60.0,29235.388843463523,31107.146275895393,-32215.36811773397,-30286.792550896713,-36187.00488650857,-32493.133246080073,-4987.232981590389,-37809.070981630204,0.0,0.0,0.0,193.0,0.0,194.0,0.0,17.0,0.0,179.0,194.0,17.0,179.0,1744420328.7398412,0.0,2025-04-11 21:12:08.739,RIGHT,4
61.0,29220.569636889653,31130.772069784653,-32200.414800693372,-30266.877146587034,-36170.10696770036,-32465.10415853312,-5287.685130558626,-37778.89612661554,0.0,0.0,0.0,193.0,0.0,193.0,0.0,17.0,0.0,180.0,193.0,17.0,180.0,1744420328.7398968,0.0,2025-04-11 21:12:08.739,RIGHT,4
62.0,29238.003997564796,31135.711805309274,-32213.021184566165,-30276.197824024897,-36185.88729928581,-32487.746475666343,-5128.071323403278,-37782.785330150764,0.0,0.0,0.0,193.0,0.0,194.0,0.0,17.0,0.0,180.0,194.0,17.0,180.0,1744420328.7399392,0.0,2025-04-11 21:12:08.739,RIGHT,4
63.0,29262.210936809894,31125.385299370922,-32233.24951329822,-30307.75848719579,-36204.97568905064,-32519.128324881596,-4730.36673431,-37817.56464452322,0.0,0.0,0.0,193.0,0.0,194.0,0.0,17.0,0.0,179.0,194.0,17.0,179.0,1744420328.7399812,0.0,2025-04-11 21:12:08.739,RIGHT,4
64.0,29245.26831451277,31108.28621486261,-32223.37004224897,-30303.13167609354,-36193.10691274487,-32505.58316774168,-4929.923108806981,-37821.744420736366,0.0,0.0,0.0,193.0,0.0,194.0,0.0,17.0,0.0,180.0,194.0,17.0,180.0,1744420328.7400355,0.0,2025-04-11 21:12:08.740,RIGHT,4
65.0,29226.31403521467,31132.224933174246,-32204.594576906515,-30279.66234441547,-36176.1866421922,-32478.80577788422,-5255.543322031895,-37785.42283599649,0.0,0.0,0.0,193.0,0.0,194.0,0.0,17.0,0.0,180.0,194.0,17.0,180.0,1744420328.7400787,0.0,2025-04-11 21:12:08.740,RIGHT,4
66.0,29240.708558643888,31144.227819946747,-32201.241815238216,-30273.00152456779,-36173.705598557666,-32481.689152918956,-5219.713475670037,-37785.55694646322,0.0,0.0,0.0,193.0,0.0,194.0,0.0,17.0,0.0,180.0,194.0,17.0,180.0,1744420328.740121,0.0,2025-04-11 21:12:08.740,RIGHT,4
67.0,29269.810529924696,31143.490212379722,-32225.649920183412,-30297.297870790706,-36199.47715991463,-32514.63562424608,-4760.98862421377,-37806.5228827623,0.0,0.0,0.0,193.0,0.0,194.0,0.0,17.0,0.0,180.0,194.0,17.0,180.0,1744420328.7401628,0.0,2025-04-11 21:12:08.740,RIGHT,4
68.0,29251.727968660354,31119.327976623536,-32222.408917237393,-30299.778914425246,-36196.414970924256,-32501.313984550714,-4882.202134394901,-37819.75511547984,0.0,0.0,0.0,193.0,0.0,194.0,0.0,17.0,0.0,180.0,194.0,17.0,180.0,1744420328.7402053,0.0,2025-04-11 21:12:08.740,RIGHT,4
69.0,29219.273235711247,31127.799287772097,-32213.825847366556,-30284.870300873557,-36186.33433417491,-32486.405370999026,-5213.633801178194,-37797.38101928008,0.0,0.0,0.0,193.0,0.0,194.0,0.0,17.0,0.0,180.0,194.0,17.0,180.0,1744420328.7402608,0.0,2025-04-11 21:12:08.740,RIGHT,4
70.0,29233.623055651555,31144.4513373913,-32198.313736714572,-30265.46898668635,-36172.073921212424,-32476.704713905423,-5266.272159370442,-37782.13712956156,0.0,0.0,0.0,193.0,0.0,194.0,0.0,17.0,0.0,180.0,194.0,17.0,180.0,1744420328.740303,0.0,2025-04-11 21:12:08.740,RIGHT,4
71.0,29264.379056022055,31141.903238523395,-32227.013376595187,-30289.13948406452,-36207.23321524062,-32516.312005080224,-4807.457900936353,-37800.46556001491,0.0,0.0,0.0,193.0,0.0,194.0,0.0,17.0,0.0,180.0,194.0,17.0,180.0,1744420328.7403448,0.0,2025-04-11 21:12:08.740,RIGHT,4
72.0,29251.59385819362,31112.264825375656,-32231.707242930803,-30307.602024984604,-36207.389677451814,-32520.53648478228,-4831.754247159272,-37840.139906423086,0.0,0.0,0.0,193.0,0.0,194.0,0.0,17.0,0.0,179.0,194.0,17.0,179.0,1744420328.7403865,0.0,2025-04-11 21:12:08.740,RIGHT,4
73.0,29214.691128097907,31116.846932988996,-32224.42057423837,-30295.241510300817,-36194.71623834565,-32509.382964299082,-5149.037259702356,-37823.711374248436,0.0,0.0,0.0,193.0,0.0,194.0,0.0,17.0,0.0,180.0,194.0,17.0,180.0,1744420328.7404284,0.0,2025-04-11 21:12:08.740,RIGHT,4
74.0,29214.57936937563,31144.20546820229,-32207.23208275224,-30276.957783336376,-36180.63463933881,-32485.645411687543,-5296.961104507578,-37792.307173288726,0.0,0.0,0.0,193.0,0.0,194.0,0.0,17.0,0.0,180.0,194.0,17.0,180.0,1744420328.7404704,0.0,2025-04-11 21:12:08.740,RIGHT,4
75.0,29252.04089308273,31146.17242171436,-32217.268016012673,-30283.015106083767,-36195.76677033505,-32501.42574327299,-4876.3012738586995,-37772.95056259043,0.0,0.0,0.0,193.0,0.0,194.0,0.0,17.0,0.0,180.0,194.0,17.0,180.0,1744420328.740512,0.0,2025-04-11 21:12:08.740,RIGHT,4
76.0,29257.852346641106,31118.3444998675,-32219.726707902755,-30299.935376636433,-36195.45384591268,-32509.874702677098,-4776.99247324377,-37830.685118518486,0.0,0.0,0.0,193.0,0.0,194.0,0.0,17.0,0.0,180.0,194.0,17.0,180.0,1744420328.7405667,0.0,2025-04-11 21:12:08.740,RIGHT,4
77.0,29220.681395611933,31111.34840385299,-32220.53137070315,-30294.1015713336,-36190.178834221224,-32503.593862485155,-5100.981009123446,-37820.135095135585,0.0,0.0,0.0,193.0,0.0,193.0,0.0,17.0,0.0,179.0,193.0,17.0,179.0,1744420328.740609,0.0,2025-04-11 21:12:08.740,RIGHT,4
78.0,29217.775668832743,31131.12969769594,-32199.543082659613,-30270.27461174424,-36171.179851434215,-32477.710542405912,-5325.8172065993795,-37785.42283599649,0.0,0.0,0.0,193.0,0.0,193.0,0.0,17.0,0.0,179.0,193.0,17.0,179.0,1744420328.7406569,0.0,2025-04-11 21:12:08.740,RIGHT,4
79.0,29253.940791361427,31136.896447765404,-32207.388544963425,-30269.961687321866,-36186.64725859729,-32492.37328676859,-4974.179562828489,-37767.340274732145,0.0,0.0,0.0,193.0,0.0,193.0,0.0,17.0,0.0,179.0,193.0,17.0,179.0,1744420328.740713,0.0,2025-04-11 21:12:08.740,RIGHT,4
80.0,29262.054474598706,31116.623415544444,-32221.09016431453,-30296.0014696123,-36201.868796571354,-32511.662842233523,-4757.010013700726,-37823.04082191477,0.0,0.0,0.0,193.0,0.0,193.0,0.0,18.0,0.0,179.0,193.0,18.0,179.0,1744420328.7407548,0.0,2025-04-11 21:12:08.740,RIGHT,4
81.0,29225.822296836654,31104.553473538577,-32220.66548116988,-30289.18418755343,-36198.33722094741,-32499.749362438844,-5037.926738015025,-37815.46358054443,0.0,0.0,0.0,193.0,0.0,193.0,0.0,17.0,0.0,179.0,193.0,17.0,179.0,1744420328.7407968,0.0,2025-04-11 21:12:08.740,RIGHT,4
82.0,29210.131372229025,31120.49026733521,-32206.203902507295,-30274.923774590945,-36183.24979344008,-32487.47825473288,-5308.6734186021595,-37801.51609200431,0.0,0.0,0.0,193.0,0.0,193.0,0.0,17.0,0.0,179.0,193.0,17.0,179.0,1744420328.7408388,0.0,2025-04-11 21:12:08.740,RIGHT,4
83.0,29243.390767978522,31129.63213081743,-32206.069792040566,-30269.782873366225,-36184.21091845166,-32494.608461214124,-5054.3329184452205,-37783.500585973336,0.0,0.0,0.0,193.0,0.0,193.0,0.0,18.0,0.0,179.0,193.0,18.0,179.0,1744420328.7408807,0.0,2025-04-11 21:12:08.740,RIGHT,4
84.0,29261.87566064306,31118.232741145224,-32222.252455026206,-30295.71089693438,-36204.30513671698,-32512.33339456718,-4721.493091761243,-37817.81051371223,0.0,0.0,0.0,193.0,0.0,193.0,0.0,18.0,0.0,179.0,193.0,18.0,179.0,1744420328.740936,0.0,2025-04-11 21:12:08.740,RIGHT,4
85.0,29232.59487540661,31103.860569460463,-32215.61398692298,-30288.290117775217,-36198.56073839196,-32493.177949568984,-4979.186353586478,-37808.668650230014,0.0,0.0,0.0,193.0,0.0,193.0,0.0,17.0,0.0,179.0,193.0,17.0,179.0,1744420328.7409787,0.0,2025-04-11 21:12:08.740,RIGHT,4
86.0,29219.608511878076,31127.329901138535,-32191.675268611347,-30263.792605852203,-36178.220650937634,-32467.09346378964,-5291.730796305036,-37785.53459471877,0.0,0.0,0.0,193.0,0.0,193.0,0.0,18.0,0.0,179.0,193.0,18.0,179.0,1744420328.741021,0.0,2025-04-11 21:12:08.741,RIGHT,4
87.0,29237.98164582034,31131.509677351678,-32194.960975046277,-30266.072483786644,-36185.39556090779,-32483.14201630855,-5166.248102932943,-37788.90970813152,0.0,0.0,0.0,193.0,0.0,193.0,0.0,17.0,0.0,179.0,193.0,17.0,179.0,1744420328.7410624,0.0,2025-04-11 21:12:08.741,RIGHT,4
88.0,29265.31782928918,31122.770145269653,-32215.792800878622,-30290.771161409757,-36204.394543694805,-32512.95924341193,-4734.837083201061,-37804.44417052796,0.0,0.0,0.0,193.0,0.0,193.0,0.0,18.0,0.0,179.0,193.0,18.0,179.0,1744420328.7411084,0.0,2025-04-11 21:12:08.741,RIGHT,4
89.0,29248.330503503144,31107.88388346242,-32205.04161179562,-30284.199748539897,-36192.65987785577,-32498.832940916174,-4919.7977685687265,-37822.996118425865,0.0,0.0,0.0,193.0,0.0,193.0,0.0,18.0,0.0,179.0,193.0,18.0,179.0,1744420328.7411506,0.0,2025-04-11 21:12:08.741,RIGHT,4
90.0,29219.4967531558,31118.63507254542,-32197.7996465921,-30273.35915247907,-36187.809549308964,-32487.85823438862,-5255.096287142788,-37805.53940600627,0.0,0.0,0.0,193.0,0.0,193.0,0.0,17.0,0.0,179.0,193.0,17.0,179.0,1744420328.7411923,0.0,2025-04-11 21:12:08.741,RIGHT,4
91.0,29237.936942331427,31137.7011105658,-32187.316678442563,-30257.534117404717,-36177.483043370616,-32478.939888350953,-5232.923356643124,-37780.39369349405,0.0,0.0,0.0,193.0,0.0,193.0,0.0,17.0,0.0,179.0,193.0,17.0,179.0,1744420328.741248,0.0,2025-04-11 21:12:08.741,RIGHT,4
92.0,29265.94367813393,31138.192848943814,-32208.729649630746,-30279.70704790438,-36195.3420871904,-32504.130304352082,-4758.462877090321,-37794.475292500894,0.0,0.0,0.0,193.0,0.0,194.0,0.0,17.0,0.0,180.0,194.0,17.0,180.0,1744420328.74129,0.0,2025-04-11 21:12:08.741,RIGHT,4
93.0,29249.649256426008,31117.36102311147,-32206.94151007432,-30285.406742740484,-36193.330430189424,-32499.972879883397,-4861.526770773741,-37822.95141493695,0.0,0.0,0.0,193.0,0.0,194.0,0.0,18.0,0.0,180.0,194.0,18.0,180.0,1744420328.7413323,0.0,2025-04-11 21:12:08.741,RIGHT,4
94.0,29228.012767793272,31135.3988808869,-32195.385658190928,-30266.407759953472,-36188.97184002064,-32484.393713998048,-5196.7358823699815,-37799.83971117016,0.0,0.0,0.0,193.0,0.0,194.0,0.0,17.0,0.0,180.0,194.0,17.0,180.0,1744420328.741387,0.0,2025-04-11 21:12:08.741,RIGHT,4
95.0,29234.56182891868,31138.237552432725,-32185.349724930493,-30256.8412133266,-36181.238136439104,-32481.800911641232,-5274.0952699297995,-37796.4198942685,0.0,0.0,0.0,193.0,0.0,194.0,0.0,17.0,0.0,180.0,194.0,17.0,180.0,1744420328.741429,0.0,2025-04-11 21:12:08.741,RIGHT,4
96.0,29268.916460146484,31141.41150014538,-32201.398277449403,-30270.542832677704,-36194.22449996764,-32500.598728728146,-4818.1867382749015,-37791.14488257705,0.0,0.0,0.0,193.0,0.0,194.0,0.0,17.0,0.0,180.0,194.0,17.0,180.0,1744420328.7414715,0.0,2025-04-11 21:12:08.741,RIGHT,4
97.0,29266.97185837887,31121.764316769164,-32200.057172782086,-30282.121036305554,-36193.71040984517,-32496.463656003914,-4826.456883723365,-37839.40229885606,0.0,0.0,0.0,193.0,0.0,194.0,0.0,17.0,0.0,180.0,194.0,17.0,180.0,1744420328.7415133,0.0,2025-04-11 21:12:08.741,RIGHT,4
98.0,29237.512259186777,31127.508715094176,-32189.730666843734,-30262.630315140526,-36180.29936317198,-32471.764978380797,-5151.384192870163,-37799.05740011423,0.0,0.0,0.0,193.0,0.0,194.0,0.0,17.0,0.0,180.0,194.0,17.0,180.0,1744420328.7415552,0.0,2025-04-11 21:12:08.741,RIGHT,4
99.0,29227.54338115971,31137.388186143424,-32185.036800508118,-30257.37765519353,-36173.482081113114,-32467.5628504232,-5297.542249863416,-37791.86013839962,0.0,0.0,0.0,193.0,0.0,194.0,0.0,17.0,0.0,179.0,194.0,17.0,179.0,1744420328.7416098,0.0,2025-04-11 21:12:08.741,RIGHT,4
100.0,29264.31200078869,31142.59614260151,-32201.37592570495,-30266.877146587034,-36193.59865112289,-32489.75813266732,-4895.076739201158,-37786.294554030246,0.0,0.0,0.0,193.0,0.0,194.0,0.0,17.0,0.0,180.0,194.0,17.0,180.0,1744420328.741652,0.0,2025-04-11 21:12:08.741,RIGHT,4
101.0,29260.17692806446,31116.332842866523,-32216.105725300997,-30293.118094577563,-36207.50143617409,-32502.05159211774,-4777.551266855153,-37828.651109773054,0.0,0.0,0.0,193.0,0.0,194.0,0.0,17.0,0.0,180.0,194.0,17.0,180.0,1744420328.741694,0.0,2025-04-11 21:12:08.741,RIGHT,4
102.0,29234.383014963034,31121.786668513618,-32202.94054781682,-30271.414550711463,-36193.0398575115,-32475.09538830464,-5090.699206674005,-37798.90093790304,0.0,0.0,0.0,193.0,0.0,194.0,0.0,17.0,0.0,180.0,194.0,17.0,180.0,1744420328.741736,0.0,2025-04-11 21:12:08.741,RIGHT,4
103.0,29226.269331725758,31139.265732677668,-32189.574204632547,-30259.143443005498,-36180.52288061653,-32461.57258290918,-5328.253546745008,-37789.62496395409,0.0,0.0,0.0,193.0,0.0,194.0,0.0,17.0,0.0,180.0,194.0,17.0,180.0,1744420328.7417777,0.0,2025-04-11 21:12:08.741,RIGHT,4
104.0,29257.897050130017,31137.276427421148,-32204.393411206416,-30266.22894599783,-36195.7444185906,-32485.935984365464,-5008.265973122832,-37782.69592317294,0.0,0.0,0.0,193.0,0.0,194.0,0.0,18.0,0.0,180.0,194.0,18.0,180.0,1744420328.7418196,0.0,2025-04-11 21:12:08.741,RIGHT,4
105.0,29259.79694840872,31110.476685819234,-32231.14844931942,-30301.835274915135,-36220.48779970262,-32524.135115639583,-4761.301548636145,-37850.71228155044,0.0,0.0,0.0,193.0,0.0,194.0,0.0,17.0,0.0,180.0,194.0,17.0,180.0,1744420328.7418616,0.0,2025-04-11 21:12:08.741,RIGHT,4
106.0,29226.895180570507,31100.39604906989,-32229.09208882953,-30294.77212366726,-36215.45865720018,-32514.61327250162,-5048.007374764368,-37843.42561285802,0.0,0.0,0.0,193.0,0.0,194.0,0.0,17.0,0.0,180.0,194.0,17.0,180.0,1744420328.741916,0.0,2025-04-11 21:12:08.741,RIGHT,4
107.0,29220.12260200055,31128.20161917229,-32199.27486172615,-30265.200765752885,-36185.06028474096,-32478.314039506204,-5315.468348916573,-37796.55400473523,0.0,0.0,0.0,193.0,0.0,194.0,0.0,17.0,0.0,180.0,194.0,17.0,180.0,1744420328.7419584,0.0,2025-04-11 21:12:08.741,RIGHT,4
