Sample Index,EXG Channel 0,EXG Channel 1,EXG Channel 2,EXG Channel 3,EXG Channel 4,EXG Channel 5,EXG Channel 6,EXG Channel 7,Accel Channel 0,Accel Channel 1,Accel Channel 2,Not Used,Digital Channel 0 (D11),Digital Channel 1 (D12),Digital Channel 2 (D13),Digital Channel 3 (D17),Not Used,Digital Channel 4 (D18),Analog Channel 0,Analog Channel 1,Analog Channel 2,Timestamp,Marker Channel,Timestamp (Formatted),Stimulus_Direction,Stimulus_Number
244.0,8355.774981471895,-11933.194033288246,-21671.446761065337,-23706.64014895441,16256.848425489477,7492.48355537457,38413.998593568635,43481.7649104315,0.0,0.0,0.0,193.0,0.0,193.0,0.0,1.0,0.0,179.0,193.0,1.0,179.0,1744418797.7567008,0.0,2025-04-11 20:46:37.756,RIGHT,34
245.0,8344.777923199883,-11967.07927788249,-21627.48087972175,-23726.35438756399,16463.244433789783,7472.076412686874,38592.94665967782,43524.456742341135,0.0,0.0,0.0,193.0,0.0,193.0,0.0,1.0,0.0,179.0,193.0,1.0,179.0,1744418797.7567363,0.0,2025-04-11 20:46:37.756,RIGHT,34
246.0,8321.040370588347,-12003.222048666723,-21661.410827804903,-23779.37272541198,16499.92364644094,7222.608592821192,38883.07230270771,43446.560912914385,0.0,0.0,0.0,193.0,0.0,192.0,0.0,1.0,0.0,178.0,192.0,1.0,178.0,1744418797.756769,0.0,2025-04-11 20:46:37.756,RIGHT,34
247.0,8326.404789257622,-11987.70993801474,-21693.127953186984,-23752.84120474353,16361.767513962688,7224.843767266723,38728.040603165704,43395.37541811173,0.0,0.0,0.0,193.0,0.0,193.0,0.0,1.0,0.0,179.0,193.0,1.0,179.0,1744418797.7568157,0.0,2025-04-11 20:46:37.756,RIGHT,34
248.0,8329.914013137104,-11959.613795234418,-21689.663432796413,-23724.32037881856,16264.269204648639,7499.367892666804,38455.103451621944,43513.124407902294,0.0,0.0,0.0,193.0,0.0,193.0,0.0,1.0,0.0,179.0,193.0,1.0,179.0,1744418798.233508,0.0,2025-04-11 20:46:38.233,RIGHT,34
249.0,8338.094751607747,-11959.36792604541,-21637.85208914901,-23721.347596806005,16386.868522986,7496.350407165338,38516.213120962755,43554.89981828926,0.0,0.0,0.0,193.0,0.0,192.0,0.0,1.0,0.0,178.0,192.0,1.0,178.0,1744418798.2336707,0.0,2025-04-11 20:46:38.233,RIGHT,34
250.0,8327.991763113949,-11987.151144403357,-21651.66546722239,-23761.89366124793,16459.981079099307,7257.454962427016,38850.14818312504,43469.94083761464,0.0,0.0,0.0,193.0,0.0,193.0,0.0,1.0,0.0,179.0,193.0,1.0,179.0,1744418798.2337096,0.0,2025-04-11 20:46:38.233,RIGHT,34
251.0,8331.009248615414,-11968.263920338622,-21685.170732160896,-23745.398073839915,16355.978412148765,7188.4998307823935,38739.305882371176,43364.03827238539,0.0,0.0,0.0,193.0,0.0,193.0,0.0,1.0,0.0,178.0,193.0,1.0,178.0,1744418798.2337465,0.0,2025-04-11 20:46:38.233,RIGHT,34
252.0,8327.991763113949,-11947.901481139837,-21699.788773034667,-23724.11921311846,16271.93585299681,7473.19399990964,38486.4853008372,43480.80378541992,0.0,0.0,0.0,193.0,0.0,192.0,0.0,1.0,0.0,178.0,192.0,1.0,178.0,1744418798.233783,0.0,2025-04-11 20:46:38.233,RIGHT,34
253.0,8336.93246089607,-11956.931585899782,-21658.370990558982,-23726.98023640874,16369.411810566404,7519.663276632224,38451.348358553456,43539.410059381735,0.0,0.0,0.0,193.0,0.0,192.0,0.0,1.0,0.0,178.0,192.0,1.0,178.0,1744418798.2338655,0.0,2025-04-11 20:46:38.233,RIGHT,34
254.0,8314.804233885317,-12000.361025376444,-21666.641136007445,-23779.260966689704,16490.424155047436,7319.279887590395,38826.38827876905,43502.97671591958,0.0,0.0,0.0,193.0,0.0,192.0,0.0,1.0,0.0,178.0,192.0,1.0,178.0,1744418798.2339025,0.0,2025-04-11 20:46:38.233,RIGHT,34
255.0,8329.019943358891,-11984.93832170228,-21694.022022965197,-23770.432027629857,16397.77617428019,7145.27155700583,38775.53806013323,43363.12185086273,0.0,0.0,0.0,193.0,0.0,193.0,0.0,1.0,0.0,179.0,193.0,1.0,179.0,1744418798.2339387,0.0,2025-04-11 20:46:38.233,RIGHT,34
0.0,8327.835300902761,-11967.28044358259,-21707.38836614947,-23734.780995223642,16285.972748514743,7413.313676513872,38530.31707171405,43458.36263398679,0.0,0.0,0.0,193.0,0.0,193.0,0.0,1.0,0.0,178.0,193.0,1.0,178.0,1744418798.2339745,0.0,2025-04-11 20:46:38.233,RIGHT,34
1.0,8331.746856182439,-11971.191998862267,-21678.71107801331,-23741.08418716004,16309.12915577044,7511.05785501693,38421.620538427895,43544.528608862,0.0,0.0,0.0,193.0,0.0,193.0,0.0,1.0,0.0,179.0,193.0,1.0,179.0,1744418798.234027,0.0,2025-04-11 20:46:38.234,RIGHT,34
2.0,8315.02775132987,-12012.542726104586,-21664.361258073004,-23787.866388304996,16443.038456802184,7337.340097110284,38780.63425786904,43538.80656228144,0.0,0.0,0.0,193.0,0.0,192.0,0.0,1.0,0.0,178.0,192.0,1.0,178.0,1744418798.2340634,0.0,2025-04-11 20:46:38.234,RIGHT,34
3.0,8324.683704934563,-12000.629246309907,-21683.919034471397,-23784.357164425513,16369.657679755412,7127.501920163861,38814.29598501873,43397.3423716238,0.0,0.0,0.0,193.0,0.0,192.0,0.0,1.0,0.0,178.0,192.0,1.0,178.0,1744418798.2341,0.0,2025-04-11 20:46:38.234,RIGHT,34
4.0,8334.764341683906,-11969.56032151703,-21695.54194158816,-23742.447643571813,16289.012585760664,7361.278815421917,38582.553098506105,43452.998215317515,0.0,0.0,0.0,193.0,0.0,193.0,0.0,1.0,0.0,179.0,193.0,1.0,179.0,1744418798.2341368,0.0,2025-04-11 20:46:38.234,RIGHT,34
5.0,8339.011173130415,-11960.709030712727,-21671.871444209988,-23734.915105690376,16325.84826062301,7530.481520948591,38399.73818060615,43542.74046930557,0.0,0.0,0.0,193.0,0.0,192.0,0.0,1.0,0.0,178.0,192.0,1.0,178.0,1744418798.2341745,0.0,2025-04-11 20:46:38.234,RIGHT,34
6.0,8316.301800763822,-11995.108365429445,-21649.586754988046,-23773.449513131323,16497.777878973233,7425.495377242015,38729.314652599656,43562.74528059307,0.0,0.0,0.0,193.0,0.0,193.0,0.0,1.0,0.0,178.0,193.0,1.0,178.0,1744418798.2342136,0.0,2025-04-11 20:46:38.234,RIGHT,34
7.0,8317.888774620149,-11995.331882874,-21679.940423958353,-23792.224978473783,16438.389293955483,7174.37352828664,38853.36683432661,43418.01773524496,0.0,0.0,0.0,193.0,0.0,193.0,0.0,1.0,0.0,179.0,193.0,1.0,179.0,1744418798.23425,0.0,2025-04-11 20:46:38.234,RIGHT,34
8.0,8323.811986900806,-11977.830466965494,-21699.38644163447,-23749.80136749761,16306.268132480162,7311.188556097574,38639.460639889316,43430.4006016732,0.0,0.0,0.0,193.0,0.0,193.0,0.0,1.0,0.0,178.0,193.0,1.0,178.0,1744418798.234285,0.0,2025-04-11 20:46:38.234,RIGHT,34
9.0,8336.2172050735,-11957.333917299977,-21679.225168135785,-23738.04434991412,16282.932911268821,7495.456337387126,38418.22307327069,43546.85319028535,0.0,0.0,0.0,193.0,0.0,192.0,0.0,1.0,0.0,178.0,192.0,1.0,178.0,1744418798.2343216,0.0,2025-04-11 20:46:38.234,RIGHT,34
10.0,8318.604030442719,-11991.666196783328,-21660.38264755996,-23772.37662939747,16437.11524452153,7406.5634496883695,38661.70062562235,43569.71902486313,0.0,0.0,0.0,193.0,0.0,193.0,0.0,1.0,0.0,179.0,193.0,1.0,179.0,1744418798.234357,0.0,2025-04-11 20:46:38.234,RIGHT,34
11.0,8307.584620426253,-12009.569944092029,-21692.457400853327,-23800.159847755414,16412.7741948097,7155.687469922003,38868.65542753404,43439.564816899874,0.0,0.0,0.0,193.0,0.0,193.0,0.0,1.0,0.0,179.0,193.0,1.0,179.0,1744418798.234392,0.0,2025-04-11 20:46:38.234,RIGHT,34
12.0,8308.992780326937,-11994.549571818063,-21721.15704073394,-23770.07439971857,16279.624853089435,7253.141075747142,38693.61891670453,43413.48033112053,0.0,0.0,0.0,193.0,0.0,193.0,0.0,1.0,0.0,179.0,193.0,1.0,179.0,1744418798.234459,0.0,2025-04-11 20:46:38.234,RIGHT,34
13.0,8335.993687628948,-11966.811056949027,-21705.24259868176,-23740.27952435965,16238.743512480678,7496.730386821078,38428.52722746458,43528.927091232195,0.0,0.0,0.0,193.0,0.0,193.0,0.0,1.0,0.0,179.0,193.0,1.0,179.0,1744418798.2344954,0.0,2025-04-11 20:46:38.234,RIGHT,34
14.0,8336.93246089607,-11980.758545489138,-21659.913260926398,-23751.79067275413,16388.09786893104,7453.23389211105,38567.64448495442,43565.069862016426,0.0,0.0,0.0,193.0,0.0,192.0,0.0,1.0,0.0,178.0,192.0,1.0,178.0,1744418798.2345312,0.0,2025-04-11 20:46:38.234,RIGHT,34
15.0,8320.88390837716,-12002.596199821974,-21678.06287742411,-23794.057821519116,16429.180375239896,7189.863287194167,38861.48051756388,43469.24793353653,0.0,0.0,0.0,193.0,0.0,193.0,0.0,1.0,0.0,178.0,193.0,1.0,178.0,1744418798.2345667,0.0,2025-04-11 20:46:38.234,RIGHT,34
16.0,8336.17250158459,-11969.090934883468,-21694.62552006549,-23755.925745478362,16295.628702119435,7176.921627154545,38712.32732681362,43381.271467360435,0.0,0.0,0.0,193.0,0.0,193.0,0.0,1.0,0.0,179.0,193.0,1.0,179.0,1744418798.2346163,0.0,2025-04-11 20:46:38.234,RIGHT,34
17.0,8324.16961481209,-11967.146333115857,-21714.362110419526,-23739.139585392426,16203.293645774562,7463.582749793858,38461.45134704725,43504.56368977591,0.0,0.0,0.0,193.0,0.0,192.0,0.0,1.0,0.0,179.0,192.0,1.0,179.0,1744418798.2346494,0.0,2025-04-11 20:46:38.234,RIGHT,34
18.0,8316.368855997189,-11987.03938568108,-21676.565310545604,-23753.109425676994,16338.924031129365,7458.173627635673,38497.839987020496,43538.38187913679,0.0,0.0,0.0,193.0,0.0,193.0,0.0,1.0,0.0,179.0,193.0,1.0,179.0,1744418798.2346818,0.0,2025-04-11 20:46:38.234,RIGHT,34
19.0,8307.226992514967,-12007.178307435312,-21675.313612856105,-23794.12487675248,16461.366887255535,7237.584261606248,38839.329938808674,43454.31696824038,0.0,0.0,0.0,193.0,0.0,193.0,0.0,1.0,0.0,178.0,193.0,1.0,178.0,1744418798.234714,0.0,2025-04-11 20:46:38.234,RIGHT,34
20.0,8324.214318301001,-11982.881961212393,-21694.424354365394,-23767.36983863948,16369.612976266502,7148.534911696304,38734.410850335466,43320.38531546418,0.0,0.0,0.0,193.0,0.0,192.0,0.0,1.0,0.0,178.0,192.0,1.0,178.0,1744418798.2347457,0.0,2025-04-11 20:46:38.234,RIGHT,34
21.0,8320.839204888249,-11964.307661570032,-21709.891761528466,-23738.156108636394,16270.147713440385,7420.75680741749,38476.40466408785,43422.75630506949,0.0,0.0,0.0,193.0,0.0,193.0,0.0,1.0,0.0,178.0,193.0,1.0,178.0,1744418798.2347777,0.0,2025-04-11 20:46:38.234,RIGHT,34
22.0,8332.529167238376,-11962.474818524697,-21665.300031340128,-23735.339788835026,16351.619821979979,7477.9996249675305,38422.71577390621,43486.74934944503,0.0,0.0,0.0,193.0,0.0,192.0,0.0,1.0,0.0,178.0,192.0,1.0,178.0,1744418798.2348096,0.0,2025-04-11 20:46:38.234,RIGHT,34
23.0,8324.951925868027,-11997.723519530717,-21653.922993412376,-23777.65164108892,16488.390146302005,7288.702701175535,38796.86162434359,43455.18868627414,0.0,0.0,0.0,193.0,0.0,193.0,0.0,1.0,0.0,179.0,193.0,1.0,179.0,1744418798.2348416,0.0,2025-04-11 20:46:38.234,RIGHT,34
24.0,8318.69343742054,-11995.51069682964,-21694.066726454108,-23784.42421965888,16368.696554743834,7112.861527545635,38778.91317354598,43318.10543752974,0.0,0.0,0.0,193.0,0.0,193.0,0.0,1.0,0.0,179.0,193.0,1.0,179.0,1744418798.234873,0.0,2025-04-11 20:46:38.234,RIGHT,34
25.0,8319.498100220932,-11973.985966919181,-21713.557447619136,-23753.355294866004,16253.853291732466,7375.360414428761,38545.0468713101,43415.55904335488,0.0,0.0,0.0,193.0,0.0,192.0,0.0,1.0,0.0,178.0,192.0,1.0,178.0,1744418798.2349048,0.0,2025-04-11 20:46:38.234,RIGHT,34
26.0,8329.154053825623,-11955.791646932561,-21672.497293054737,-23745.08514941754,16304.457641179282,7491.72359606309,38407.94127082125,43491.599677991835,0.0,0.0,0.0,193.0,0.0,193.0,0.0,1.0,0.0,179.0,193.0,1.0,179.0,1744418798.2349367,0.0,2025-04-11 20:46:38.234,RIGHT,34
27.0,8303.561306424297,-12006.373644634921,-21657.543976014134,-23786.19000747085,16445.25127950326,7344.9843937139985,38762.90932451598,43476.624009206775,0.0,0.0,0.0,193.0,0.0,192.0,0.0,1.0,0.0,178.0,192.0,1.0,178.0,1744418798.2349687,0.0,2025-04-11 20:46:38.234,RIGHT,34
28.0,8312.412597228598,-12003.266752155632,-21689.261101396216,-23784.357164425513,16341.516833486181,7124.953821295956,38816.37469725307,43318.44071369657,0.0,0.0,0.0,193.0,0.0,193.0,0.0,0.0,0.0,179.0,193.0,0.0,179.0,1744418798.2350743,0.0,2025-04-11 20:46:38.235,RIGHT,34
29.0,8319.542803709843,-11983.776030990604,-21708.371842905504,-23743.922858705864,16242.476253804714,7341.631632045703,38597.238194613245,43376.71171149155,0.0,0.0,0.0,193.0,0.0,193.0,0.0,0.0,0.0,179.0,193.0,0.0,179.0,1744418798.2351067,0.0,2025-04-11 20:46:38.235,RIGHT,34
30.0,8330.27164104839,-11970.677908739795,-21685.260139138718,-23728.723672476255,16263.710411037257,7509.739102094067,38402.889776574346,43481.07200635338,0.0,0.0,0.0,193.0,0.0,192.0,0.0,1.0,0.0,178.0,192.0,1.0,178.0,1744418798.235138,0.0,2025-04-11 20:46:38.235,RIGHT,34
31.0,8314.670123418586,-11997.052967197058,-21658.236880092252,-23766.140492694438,16431.147328751962,7388.6597023796685,38688.0309805907,43486.212907578105,0.0,0.0,0.0,193.0,0.0,193.0,0.0,0.0,0.0,179.0,193.0,0.0,179.0,1744418798.2351692,0.0,2025-04-11 20:46:38.235,RIGHT,34
32.0,8324.817815401295,-11988.872228726415,-21676.7664762457,-23776.981088755263,16380.587682794057,7117.577745625705,38823.2143310564,43337.95378660605,0.0,0.0,0.0,193.0,0.0,193.0,0.0,0.0,0.0,178.0,193.0,0.0,178.0,1744418798.235216,0.0,2025-04-11 20:46:38.235,RIGHT,34
33.0,8326.248327046434,-11975.818809964516,-21707.701290571844,-23747.74500700772,16246.45486431776,7263.087602029754,38618.5170553347,43352.16949607962,0.0,0.0,0.0,193.0,0.0,192.0,0.0,0.0,0.0,178.0,192.0,0.0,178.0,1744418798.2352476,0.0,2025-04-11 20:46:38.235,RIGHT,34
34.0,8330.070475348291,-11959.770257445605,-21685.66247053891,-23729.684797487833,16222.247925072663,7485.19688668214,38366.99287497913,43456.59684617482,0.0,0.0,0.0,193.0,0.0,193.0,0.0,1.0,0.0,179.0,193.0,1.0,179.0,1744418798.2352784,0.0,2025-04-11 20:46:38.235,RIGHT,34
35.0,8309.350408238222,-11993.56609506203,-21641.495423495224,-23754.741103022232,16420.843174558064,7426.232984809039,38595.427703312365,43490.526794257974,0.0,0.0,0.0,193.0,0.0,192.0,0.0,0.0,0.0,178.0,192.0,0.0,178.0,1744418798.235322,0.0,2025-04-11 20:46:38.235,RIGHT,34
36.0,8307.763434381895,-12009.346426647477,-21661.05319989362,-23787.486408649256,16447.06177080414,7165.164609571053,38841.60981674312,43373.515412034445,0.0,0.0,0.0,193.0,0.0,192.0,0.0,0.0,0.0,178.0,192.0,0.0,178.0,1744418798.2353532,0.0,2025-04-11 20:46:38.235,RIGHT,34
37.0,8306.779957625862,-11990.056871182547,-21700.325214901593,-23768.42037062888,16313.487745939226,7215.165461917575,38679.49261420877,43334.91394936013,0.0,0.0,0.0,193.0,0.0,192.0,0.0,0.0,0.0,178.0,192.0,0.0,178.0,1744418798.2353845,0.0,2025-04-11 20:46:38.235,RIGHT,34
38.0,8315.161861796601,-11975.908216942336,-21704.303825414638,-23745.241611628728,16237.514166535637,7464.543874805436,38416.90432034783,43455.14398278522,0.0,0.0,0.0,193.0,0.0,192.0,0.0,0.0,0.0,178.0,192.0,0.0,178.0,1744418798.2354157,0.0,2025-04-11 20:46:38.235,RIGHT,34
39.0,8320.123949065679,-11998.550534075563,-21661.455531293814,-23754.6069925555,16385.773287507687,7454.1056101448075,38534.38508920492,43498.90869842872,0.0,0.0,0.0,193.0,0.0,193.0,0.0,0.0,0.0,179.0,193.0,0.0,179.0,1744418798.2354467,0.0,2025-04-11 20:46:38.235,RIGHT,34
40.0,8293.748890608418,-12035.117988004446,-21686.310671128114,-23802.104449523027,16428.286305461683,7229.671744069069,38857.524258795296,43420.74464806851,0.0,0.0,0.0,193.0,0.0,192.0,0.0,0.0,0.0,179.0,192.0,0.0,179.0,1744418798.235479,0.0,2025-04-11 20:46:38.235,RIGHT,34
41.0,8295.134698764647,-12009.480537114208,-21712.238694696272,-23776.08701897705,16288.878475293932,7191.986702917422,38714.71896347034,43324.8780160997,0.0,0.0,0.0,193.0,0.0,192.0,0.0,0.0,0.0,178.0,192.0,0.0,178.0,1744418798.2355175,0.0,2025-04-11 20:46:38.235,RIGHT,34
42.0,8323.879042134171,-11970.409687806332,-21704.862619026022,-23737.910239447385,16207.339311520973,7458.710069502601,38438.25023630264,43424.72325858155,0.0,0.0,0.0,193.0,0.0,193.0,0.0,0.0,0.0,179.0,193.0,0.0,179.0,1744418798.235557,0.0,2025-04-11 20:46:38.235,RIGHT,34
43.0,8315.430082730065,-11985.050080424558,-21666.842301707544,-23754.115254177483,16327.010551334686,7487.968502994598,38466.94987618326,43479.59679121933,0.0,0.0,0.0,193.0,0.0,192.0,0.0,0.0,0.0,178.0,192.0,0.0,178.0,1744418798.2357473,0.0,2025-04-11 20:46:38.235,RIGHT,34
44.0,8290.35142545121,-12021.259906442156,-21674.19602563334,-23804.071403035094,16431.05792177414,7272.3188724897955,38829.271653803786,43427.83015106084,0.0,0.0,0.0,193.0,0.0,193.0,0.0,0.0,0.0,179.0,193.0,0.0,179.0,1744418798.2357945,0.0,2025-04-11 20:46:38.235,RIGHT,34
45.0,8287.758623094394,-12013.459147627253,-21706.62840683799,-23790.4144871729,16313.823022106055,7146.836179117701,38752.4487081109,43306.59428913525,0.0,0.0,0.0,193.0,0.0,193.0,0.0,0.0,0.0,178.0,193.0,0.0,178.0,1744418798.2358289,0.0,2025-04-11 20:46:38.235,RIGHT,34
46.0,8297.951018566015,-11989.855705482449,-21722.49814540126,-23760.66431530289,16200.231456784184,7403.970647331554,38488.63106830491,43400.851595503285,0.0,0.0,0.0,193.0,0.0,192.0,0.0,0.0,0.0,178.0,192.0,0.0,178.0,1744418798.2358658,0.0,2025-04-11 20:46:38.235,RIGHT,34
47.0,8327.432969502564,-11972.555455274041,-21673.659583766414,-23749.041408186127,16272.047611719086,7475.228008655073,38403.49327367464,43450.80774436089,0.0,0.0,0.0,193.0,0.0,193.0,0.0,0.0,0.0,178.0,193.0,0.0,178.0,1744418798.2359695,0.0,2025-04-11 20:46:38.235,RIGHT,34
48.0,8305.863536103194,-12010.32990340351,-21667.33404008556,-23793.99076628575,16428.912154306432,7316.441216044572,38787.049208527715,43426.444342904615,0.0,0.0,0.0,193.0,0.0,192.0,0.0,0.0,0.0,178.0,192.0,0.0,178.0,1744418798.2360065,0.0,2025-04-11 20:46:38.236,RIGHT,34
49.0,8306.489384947943,-12001.009225965647,-21696.614825322013,-23793.454324418824,16331.056217081097,7126.250222474364,38783.07059801467,43281.56033534531,0.0,0.0,0.0,193.0,0.0,193.0,0.0,0.0,0.0,179.0,193.0,0.0,179.0,1744418798.2360935,0.0,2025-04-11 20:46:38.236,RIGHT,34
50.0,8309.059835560303,-11987.911103714838,-21716.93256103189,-23760.261983902692,16208.25573304364,7360.518856110437,38544.24220850971,43346.179228565605,0.0,0.0,0.0,193.0,0.0,193.0,0.0,0.0,0.0,179.0,193.0,0.0,179.0,1744418798.236137,0.0,2025-04-11 20:46:38.236,RIGHT,34
51.0,8322.73910316695,-11972.756620974138,-21677.43702857936,-23746.426254084858,16257.608384800958,7481.1065174468185,38386.952982777715,43416.67663057764,0.0,0.0,0.0,193.0,0.0,193.0,0.0,0.0,0.0,179.0,193.0,0.0,179.0,1744418798.2361715,0.0,2025-04-11 20:46:38.236,RIGHT,34
52.0,8310.244478016433,-12002.395034121875,-21646.301048553116,-23778.009269000206,16438.903384077952,7350.92995773911,38731.30395785617,43412.96624099806,0.0,0.0,0.0,193.0,0.0,193.0,0.0,0.0,0.0,180.0,193.0,0.0,180.0,1744418798.2362049,0.0,2025-04-11 20:46:38.236,RIGHT,34
53.0,8304.07539654677,-12015.716673817238,-21689.305804885127,-23804.65254839093,16350.323420801571,7122.115149750131,38829.45046775943,43279.25810566641,0.0,0.0,0.0,193.0,0.0,193.0,0.0,0.0,0.0,178.0,193.0,0.0,178.0,1744418798.2362401,0.0,2025-04-11 20:46:38.236,RIGHT,34
54.0,8301.996684312426,-11991.643845038872,-21718.005444765742,-23771.99664974173,16207.339311520973,7307.9252014071,38607.07296217358,43322.19580676506,0.0,0.0,0.0,193.0,0.0,192.0,0.0,0.0,0.0,178.0,192.0,0.0,178.0,1744418798.2362828,0.0,2025-04-11 20:46:38.236,RIGHT,34
55.0,8319.520451965387,-11968.286272083078,-21688.545845573648,-23746.89564071842,16216.9282098923,7492.461203630114,38389.50108164562,43428.0983719943,0.0,0.0,0.0,193.0,0.0,193.0,0.0,0.0,0.0,179.0,193.0,0.0,179.0,1744418798.2363286,0.0,2025-04-11 20:46:38.236,RIGHT,34
56.0,8302.622533157175,-12006.552458590562,-21657.029885891665,-23775.349411410025,16412.081290731585,7395.7005018830905,38666.19332625787,43449.60075016031,0.0,0.0,0.0,193.0,0.0,192.0,0.0,0.0,0.0,178.0,192.0,0.0,178.0,1744418798.2363641,0.0,2025-04-11 20:46:38.236,RIGHT,34
57.0,8298.509812177397,-12014.889659272392,-21679.7169065138,-23790.101562750526,16373.412772823904,7141.784684870802,38833.1161538501,43320.586481164275,0.0,0.0,0.0,193.0,0.0,193.0,0.0,0.0,0.0,179.0,193.0,0.0,179.0,1744418798.2364001,0.0,2025-04-11 20:46:38.236,RIGHT,34
58.0,8295.469974931477,-11997.477650341709,-21699.7217178013,-23751.634210542943,16249.584108541503,7265.613349153203,38640.64528234545,43310.70701011503,0.0,0.0,0.0,193.0,0.0,193.0,0.0,0.0,0.0,179.0,193.0,0.0,179.0,1744418798.2366729,0.0,2025-04-11 20:46:38.236,RIGHT,34
59.0,8305.751777380918,-11981.116173400424,-21692.546807831146,-23738.22316386976,16211.720253434212,7481.441793613648,38399.91699456179,43413.32386890935,0.0,0.0,0.0,193.0,0.0,192.0,0.0,0.0,0.0,178.0,192.0,0.0,178.0,1744418798.2367108,0.0,2025-04-11 20:46:38.236,RIGHT,34
60.0,8296.364044709688,-12000.696301543272,-21660.315592326595,-23760.28433564715,16376.81023798111,7440.627508238257,38596.053552157115,43446.292691980925,0.0,0.0,0.0,193.0,0.0,193.0,0.0,0.0,0.0,179.0,193.0,0.0,179.0,1744418798.2367437,0.0,2025-04-11 20:46:38.236,RIGHT,34
61.0,8288.540934150331,-12025.506737888663,-21682.689688526356,-23790.816818573097,16407.543886607156,7206.47063332446,38859.424157074,43350.448411756566,0.0,0.0,0.0,193.0,0.0,193.0,0.0,0.0,0.0,178.0,193.0,0.0,178.0,1744418798.2367764,0.0,2025-04-11 20:46:38.236,RIGHT,34
62.0,8301.728463378962,-12008.877040013915,-21703.476810869794,-23756.641001300934,16282.150600212884,7239.484159884949,38691.070817836626,43294.23377445147,0.0,0.0,0.0,193.0,0.0,192.0,0.0,0.0,0.0,178.0,192.0,0.0,178.0,1744418798.2368524,0.0,2025-04-11 20:46:38.236,RIGHT,34
63.0,8316.726483908473,-11972.466048296219,-21701.73337480228,-23728.097823631506,16190.01670956811,7491.6788925741785,38415.02677381358,43403.712618793565,0.0,0.0,0.0,193.0,0.0,193.0,0.0,0.0,0.0,178.0,193.0,0.0,178.0,1744418798.2368903,0.0,2025-04-11 20:46:38.236,RIGHT,34
64.0,8313.798405384829,-11970.342632572965,-21651.844281178033,-23737.373797580458,16351.597470235523,7490.650712329235,38508.032382492114,43438.44722967711,0.0,0.0,0.0,193.0,0.0,192.0,0.0,0.0,0.0,178.0,192.0,0.0,178.0,1744418798.236924,0.0,2025-04-11 20:46:38.236,RIGHT,34
65.0,8300.007379055904,-11998.774051520117,-21666.19410111834,-23782.077286491072,16393.708156789322,7274.710509146513,38841.989796398855,43361.60193223976,0.0,0.0,0.0,193.0,0.0,193.0,0.0,0.0,0.0,179.0,193.0,0.0,179.0,1744418798.236961,0.0,2025-04-11 20:46:38.236,RIGHT,34
66.0,8306.22116401448,-11992.068528183525,-21690.490447341257,-23760.396094369426,16284.162257213862,7218.451168352505,38726.207760120364,43270.049186950826,0.0,0.0,0.0,193.0,0.0,192.0,0.0,0.0,0.0,178.0,192.0,0.0,178.0,1744418798.2370148,0.0,2025-04-11 20:46:38.237,RIGHT,34
67.0,8303.31543723529,-11986.927626958803,-21700.369918390505,-23735.965637679772,16190.799020624045,7491.433023385171,38468.00040817266,43393.31905762185,0.0,0.0,0.0,193.0,0.0,192.0,0.0,0.0,0.0,178.0,192.0,0.0,178.0,1744418798.2370772,0.0,2025-04-11 20:46:38.237,RIGHT,34
68.0,8309.529222193863,-11990.727423516206,-21648.402112531916,-23735.093919646017,16302.177763244841,7519.305648720939,38453.85175393245,43445.1527530137,0.0,0.0,0.0,193.0,0.0,193.0,0.0,0.0,0.0,179.0,193.0,0.0,179.0,1744418798.237164,0.0,2025-04-11 20:46:38.237,RIGHT,34
69.0,8285.54580039332,-12028.278354201122,-21648.938554398843,-23780.959699268307,16440.892689334476,7320.151605624153,38824.82365665718,43407.15478743968,0.0,0.0,0.0,193.0,0.0,192.0,0.0,0.0,0.0,178.0,192.0,0.0,178.0,1744418798.2372456,0.0,2025-04-11 20:46:38.237,RIGHT,34
70.0,8280.002567768404,-12025.95377277777,-21694.022022965197,-23780.959699268307,16326.608219934491,7189.125679627143,38780.85777531359,43296.84892855274,0.0,0.0,0.0,193.0,0.0,193.0,0.0,0.0,0.0,179.0,193.0,0.0,179.0,1744418798.2373204,0.0,2025-04-11 20:46:38.237,RIGHT,34
71.0,8291.759585351896,-11996.293007885577,-21711.277569684695,-23749.711960519788,16205.260599286628,7430.971554633565,38506.981850502714,43375.90704869116,0.0,0.0,0.0,193.0,0.0,193.0,0.0,0.0,0.0,178.0,193.0,0.0,178.0,1744418798.2373908,0.0,2025-04-11 20:46:38.237,RIGHT,34
72.0,8305.081225047257,-11985.608874035941,-21668.093999397042,-23746.381550595946,16272.047611719086,7513.494195162559,38399.98404979516,43442.04586053442,0.0,0.0,0.0,193.0,0.0,192.0,0.0,0.0,0.0,178.0,192.0,0.0,178.0,1744418798.237442,0.0,2025-04-11 20:46:38.237,RIGHT,34
73.0,8293.2571522304,-12012.676836571318,-21653.63242073446,-23782.121989979983,16425.71585484932,7365.279777679418,38772.31940893167,43438.26841572147,0.0,0.0,0.0,193.0,0.0,193.0,0.0,0.0,0.0,179.0,193.0,0.0,179.0,1744418798.237761,0.0,2025-04-11 20:46:38.237,RIGHT,34
74.0,8295.358216209199,-12002.037406210591,-21687.76353451771,-23782.457266146812,16332.486728726237,7175.960502142966,38798.58270866665,43304.448521667546,0.0,0.0,0.0,193.0,0.0,192.0,0.0,0.0,0.0,178.0,192.0,0.0,178.0,1744418798.2378151,0.0,2025-04-11 20:46:38.237,RIGHT,34
75.0,8302.957809324003,-11978.99275767717,-21700.43697362387,-23740.056006915096,16213.910724390833,7413.8948218697105,38558.12264181646,43365.58054275281,0.0,0.0,0.0,193.0,0.0,192.0,0.0,0.0,0.0,178.0,192.0,0.0,178.0,1744418798.2378628,0.0,2025-04-11 20:46:38.237,RIGHT,34
76.0,8311.920858850583,-11968.330975571987,-21662.796635961135,-23724.610951496477,16237.73768398019,7552.363878770338,38383.15318622031,43446.158581514195,0.0,0.0,0.0,193.0,0.0,193.0,0.0,0.0,0.0,179.0,193.0,0.0,179.0,1744418798.2379007,0.0,2025-04-11 20:46:38.237,RIGHT,34
77.0,8290.999626040415,-12009.94992374777,-21646.278696808662,-23770.454379374314,16388.701366031335,7412.374903246749,38715.747143715285,43446.292691980925,0.0,0.0,0.0,193.0,0.0,193.0,0.0,0.0,0.0,178.0,193.0,0.0,178.0,1744418798.238056,0.0,2025-04-11 20:46:38.238,RIGHT,34
78.0,8296.54285866533,-12004.026711467113,-21674.53130180017,-23784.75949582571,16327.681103668345,7144.064562805243,38812.82076988468,43287.08121622577,0.0,0.0,0.0,193.0,0.0,192.0,0.0,0.0,0.0,178.0,192.0,0.0,178.0,1744418798.2381165,0.0,2025-04-11 20:46:38.238,RIGHT,34
79.0,8300.007379055904,-11982.792554234571,-21686.981223461775,-23742.246477871715,16246.588974784492,7320.062198646331,38595.271241101174,43307.19778623555,0.0,0.0,0.0,193.0,0.0,193.0,0.0,0.0,0.0,179.0,193.0,0.0,179.0,1744418798.238162,0.0,2025-04-11 20:46:38.238,RIGHT,34
80.0,8300.722634878473,-11984.692452513273,-21681.505046070226,-23739.161937136883,16225.131300107398,7525.787654612977,38390.14928223482,43421.884587035725,0.0,0.0,0.0,193.0,0.0,193.0,0.0,0.0,0.0,179.0,193.0,0.0,179.0,1744418798.2382135,0.0,2025-04-11 20:46:38.238,RIGHT,34
81.0,8283.087108503236,-12022.37749366492,-21653.878289923465,-23776.690516077342,16391.62944455498,7432.9161564011765,38648.200171971344,43448.99725306001,0.0,0.0,0.0,193.0,0.0,192.0,0.0,0.0,0.0,178.0,192.0,0.0,178.0,1744418798.238264,0.0,2025-04-11 20:46:38.238,RIGHT,34
82.0,8274.34757642121,-12039.409522939864,-21684.656642038422,-23801.74682161174,16354.95023190382,7177.27925506583,38851.04225290326,43327.38141147869,0.0,0.0,0.0,193.0,0.0,193.0,0.0,0.0,0.0,179.0,193.0,0.0,179.0,1744418798.238303,0.0,2025-04-11 20:46:38.238,RIGHT,34
83.0,8282.908294547593,-12008.832336525003,-21704.34852890355,-23760.28433564715,16231.903878677354,7280.63372142717,38663.95815181234,43308.09185601376,0.0,0.0,0.0,193.0,0.0,193.0,0.0,0.0,0.0,179.0,193.0,0.0,179.0,1744418798.2383552,0.0,2025-04-11 20:46:38.238,RIGHT,34
84.0,8298.509812177397,-11973.85185645245,-21690.222226407794,-23732.232896355737,16203.58421845248,7516.243459730561,38414.33386973546,43421.97399401355,0.0,0.0,0.0,193.0,0.0,193.0,0.0,0.0,0.0,178.0,193.0,0.0,178.0,1744418798.2383916,0.0,2025-04-11 20:46:38.238,RIGHT,34
85.0,8296.74402436543,-11992.001472950158,-21650.681990466357,-23755.411655355892,16362.14749361843,7476.546761577936,38581.7037322168,43454.31696824038,0.0,0.0,0.0,193.0,0.0,193.0,0.0,0.0,0.0,179.0,193.0,0.0,179.0,1744418798.2384248,0.0,2025-04-11 20:46:38.238,RIGHT,34
86.0,8295.291160975834,-12021.014037253146,-21667.848130208033,-23790.101562750526,16387.628482297478,7228.196528935019,38863.06749142021,43356.90806590415,0.0,0.0,0.0,193.0,0.0,193.0,0.0,0.0,0.0,179.0,193.0,0.0,179.0,1744418798.2384572,0.0,2025-04-11 20:46:38.238,RIGHT,34
87.0,8289.949094051015,-12011.067510970535,-21698.6711858119,-23762.608917070498,16281.435344390315,7228.040066723832,38708.01344013375,43295.12784422968,0.0,0.0,0.0,193.0,0.0,193.0,0.0,0.0,0.0,179.0,193.0,0.0,179.0,1744418798.238489,0.0,2025-04-11 20:46:38.238,RIGHT,34
88.0,8291.69253011853,-11989.855705482449,-21700.459325368327,-23739.765434237175,16202.712500418724,7493.62349434179,38440.574817725996,43419.515302123466,0.0,0.0,0.0,193.0,0.0,193.0,0.0,0.0,0.0,178.0,193.0,0.0,178.0,1744418798.2385333,0.0,2025-04-11 20:46:38.238,RIGHT,34
89.0,8296.073472031769,-11991.710900272239,-21648.983257887754,-23745.733350006743,16328.37400774646,7489.9131047622095,38490.88859449489,43456.95447408611,0.0,0.0,0.0,193.0,0.0,193.0,0.0,0.0,0.0,178.0,193.0,0.0,178.0,1744418798.238666,0.0,2025-04-11 20:46:38.238,RIGHT,34
90.0,8277.029785755847,-12033.218089725744,-21661.723752227277,-23796.203588986828,16424.799433326654,7263.467581685493,38843.174438854985,43393.5425750664,0.0,0.0,0.0,193.0,0.0,193.0,0.0,0.0,0.0,179.0,193.0,0.0,179.0,1744418798.238699,0.0,2025-04-11 20:46:38.238,RIGHT,34
91.0,8281.991873024926,-12015.940191261792,-21686.422429850394,-23770.70024856332,16317.689873896823,7186.644635992603,38738.97060620435,43279.213402177505,0.0,0.0,0.0,193.0,0.0,193.0,0.0,0.0,0.0,178.0,193.0,0.0,178.0,1744418798.2387304,0.0,2025-04-11 20:46:38.238,RIGHT,34
92.0,8286.931608549548,-11986.65940602534,-21698.559427089625,-23738.69255050332,16206.53464872058,7477.798459267433,38485.54652757008,43381.78555748291,0.0,0.0,0.0,193.0,0.0,193.0,0.0,0.0,0.0,179.0,193.0,0.0,179.0,1744418798.2387824,0.0,2025-04-11 20:46:38.238,RIGHT,34
93.0,8297.16870751008,-11984.111307157435,-21655.19704284633,-23738.31257084758,16284.788106058611,7533.834282616888,38449.56021899703,43435.16152324218,0.0,0.0,0.0,193.0,0.0,193.0,0.0,0.0,0.0,178.0,193.0,0.0,178.0,1744418798.2388148,0.0,2025-04-11 20:46:38.238,RIGHT,34
94.0,8274.526390376854,-12022.04221749809,-21653.47595852327,-23782.18904521335,16411.366034909017,7342.6374605461915,38820.86739788859,43393.229650644025,0.0,0.0,0.0,193.0,0.0,193.0,0.0,0.0,0.0,179.0,193.0,0.0,179.0,1744418798.2388463,0.0,2025-04-11 20:46:38.238,RIGHT,34
95.0,8290.574942895764,-12001.746833532672,-21673.436066321858,-23766.095789205527,16298.869705065455,7175.84874342069,38777.34855143411,43259.02977693436,0.0,0.0,0.0,193.0,0.0,193.0,0.0,0.0,0.0,179.0,193.0,0.0,179.0,1744418798.2388775,0.0,2025-04-11 20:46:38.238,RIGHT,34
96.0,8299.605047655708,-11984.804211235549,-21689.305804885127,-23730.780032966144,16179.511389674115,7437.408857036693,38530.45118218079,43357.42215602662,0.0,0.0,0.0,193.0,0.0,192.0,0.0,0.0,0.0,178.0,192.0,0.0,178.0,1744418798.2389088,0.0,2025-04-11 20:46:38.238,RIGHT,34
97.0,8311.295010005833,-11989.162801404334,-21652.71599921179,-23727.449623042303,16252.400428342871,7536.918823351721,38416.79256162555,43449.421936204664,0.0,0.0,0.0,193.0,0.0,193.0,0.0,0.0,0.0,179.0,193.0,0.0,179.0,1744418798.2389402,0.0,2025-04-11 20:46:38.238,RIGHT,34
98.0,8292.45248943001,-12025.99847626668,-21636.57803971506,-23769.113274706993,16421.401968169448,7368.431373647616,38778.22026946786,43445.48802918053,0.0,0.0,0.0,193.0,0.0,193.0,0.0,0.0,0.0,178.0,193.0,0.0,178.0,1744418798.2389717,0.0,2025-04-11 20:46:38.238,RIGHT,34
99.0,8280.181381724045,-12019.76233956365,-21670.753856987223,-23773.963603253796,16330.765644403178,7148.065525062743,38813.401915240516,43299.86641405421,0.0,0.0,0.0,193.0,0.0,193.0,0.0,0.0,0.0,179.0,193.0,0.0,179.0,1744418798.239008,0.0,2025-04-11 20:46:38.239,RIGHT,34
100.0,8275.040480499325,-12004.540801589585,-21695.743107288257,-23738.89371620342,16222.314980306028,7381.574199387336,38588.02927589766,43363.07714737381,0.0,0.0,0.0,193.0,0.0,193.0,0.0,0.0,0.0,179.0,193.0,0.0,179.0,1744418798.2390392,0.0,2025-04-11 20:46:38.239,RIGHT,34
101.0,8294.710015619996,-11986.145315902868,-21665.255327851217,-23724.521544518655,16238.944678180776,7553.749686926567,38397.860634071905,43457.17799153066,0.0,0.0,0.0,193.0,0.0,193.0,0.0,0.0,0.0,178.0,193.0,0.0,178.0,1744418798.2390704,0.0,2025-04-11 20:46:38.239,RIGHT,34
102.0,8269.58665485223,-12029.910031546358,-21641.182499072853,-23768.84505377353,16420.5749536246,7445.857816440799,38716.216530348844,43470.969017859585,0.0,0.0,0.0,193.0,0.0,193.0,0.0,0.0,0.0,179.0,193.0,0.0,179.0,1744418798.2391016,0.0,2025-04-11 20:46:38.239,RIGHT,34
103.0,8269.944282763516,-12037.755493850173,-21677.772304746188,-23789.341603439047,16363.555653519114,7178.866228922157,38847.06364239021,43332.72347840351,0.0,0.0,0.0,193.0,0.0,193.0,0.0,0.0,0.0,179.0,193.0,0.0,179.0,1744418798.2391326,0.0,2025-04-11 20:46:38.239,RIGHT,34
104.0,8282.528314891853,-12009.838165025492,-21703.186238191873,-23757.043332701127,16229.422835042817,7307.7687391959125,38636.26434043221,43344.59225470928,0.0,0.0,0.0,193.0,0.0,193.0,0.0,0.0,0.0,178.0,193.0,0.0,178.0,1744418798.23918,0.0,2025-04-11 20:46:38.239,RIGHT,34
105.0,8305.640018658642,-11973.762449474627,-21672.85492096602,-23727.56138176458,16207.8757533879,7514.432968429682,38397.97239279418,43446.11387802528,0.0,0.0,0.0,193.0,0.0,193.0,0.0,0.0,0.0,178.0,193.0,0.0,178.0,1744418798.239212,0.0,2025-04-11 20:46:38.239,RIGHT,34
106.0,8285.098765504214,-12013.347388904976,-21643.08239735155,-23765.648754316422,16389.126049175986,7447.623604252769,38644.445078902856,43478.34509352983,0.0,0.0,0.0,193.0,0.0,192.0,0.0,0.0,0.0,178.0,192.0,0.0,178.0,1744418798.2392433,0.0,2025-04-11 20:46:38.239,RIGHT,34
107.0,8270.793649052817,-12041.711752618761,-21675.537130300658,-23803.646719890443,16372.406944323415,7203.609610034181,38869.08011067869,43361.95956015105,0.0,0.0,0.0,193.0,0.0,192.0,0.0,0.0,0.0,179.0,192.0,0.0,179.0,1744418798.2392745,0.0,2025-04-11 20:46:38.239,RIGHT,34
108.0,8273.364099665177,-12011.000455737169,-21701.91218875792,-23761.491329847733,16244.487910805692,7292.413090755116,38686.68987592338,43331.225911525005,0.0,0.0,0.0,193.0,0.0,193.0,0.0,0.0,0.0,179.0,193.0,0.0,179.0,1744418798.2393205,0.0,2025-04-11 20:46:38.239,RIGHT,34
109.0,8285.031710270847,-11987.106440914446,-21693.574988076092,-23738.759605736686,16187.714479889213,7527.687552891679,38426.247349530146,43450.85244784981,0.0,0.0,0.0,193.0,0.0,192.0,0.0,0.0,0.0,178.0,192.0,0.0,178.0,1744418798.2393517,0.0,2025-04-11 20:46:38.239,RIGHT,34
110.0,8286.484573660442,-12011.335731903999,-21645.026999119164,-23752.394169854426,16345.718961443778,7486.247418671539,38553.36172024748,43488.91746865719,0.0,0.0,0.0,193.0,0.0,193.0,0.0,0.0,0.0,178.0,193.0,0.0,178.0,1744418798.2393827,0.0,2025-04-11 20:46:38.239,RIGHT,34
111.0,8276.605102611196,-12030.960563535758,-21657.074589380576,-23785.65356560392,16396.7703457797,7248.62602336717,38844.18026735548,43393.16259541066,0.0,0.0,0.0,193.0,0.0,193.0,0.0,0.0,0.0,179.0,193.0,0.0,179.0,1744418798.239414,0.0,2025-04-11 20:46:38.239,RIGHT,34
112.0,8279.667291601574,-12015.180231950311,-21688.635252551467,-23759.770245524676,16261.36347786945,7235.505549371905,38702.91724239793,43310.81876883731,0.0,0.0,0.0,193.0,0.0,193.0,0.0,0.0,0.0,179.0,193.0,0.0,179.0,1744418798.2394452,0.0,2025-04-11 20:46:38.239,RIGHT,34
113.0,8294.68766387554,-11980.08799315548,-21687.405906606426,-23724.9015241744,16179.667851885302,7492.4388518856595,38428.59428269795,43413.368572398256,0.0,0.0,0.0,193.0,0.0,193.0,0.0,0.0,0.0,179.0,193.0,0.0,179.0,1744418798.7136035,0.0,2025-04-11 20:46:38.713,RIGHT,34
114.0,8293.435966186044,-11982.345519345465,-21645.94342064183,-23735.451547557303,16307.341016214015,7501.178383967685,38468.22392561721,43459.48022120955,0.0,0.0,0.0,193.0,0.0,192.0,0.0,0.0,0.0,178.0,192.0,0.0,178.0,1744418798.7137566,0.0,2025-04-11 20:46:38.713,RIGHT,34
115.0,8281.656596858096,-12010.061682470046,-21645.921068897376,-23775.21530094329,16405.599284839547,7282.8241923837895,38815.279461774764,43394.123720422234,0.0,0.0,0.0,193.0,0.0,193.0,0.0,0.0,0.0,179.0,193.0,0.0,179.0,1744418798.7138307,0.0,2025-04-11 20:46:38.713,RIGHT,34
116.0,8278.572056123265,-12018.957676763259,-21684.63429029397,-23768.554481095613,16279.624853089435,7192.031406406332,38734.544960802195,43285.069559224794,0.0,0.0,0.0,193.0,0.0,192.0,0.0,0.0,0.0,178.0,192.0,0.0,178.0,1744418798.7138731,0.0,2025-04-11 20:46:38.713,RIGHT,34
117.0,8289.21148648399,-11996.114193929934,-21691.831552008578,-23736.636190013432,16168.11200000191,7455.37965957876,38461.965437169725,43378.56690628135,0.0,0.0,0.0,193.0,0.0,193.0,0.0,0.0,0.0,179.0,193.0,0.0,179.0,1744418798.7139204,0.0,2025-04-11 20:46:38.713,RIGHT,34
118.0,8303.561306424297,-11988.22402813721,-21644.691722952335,-23727.53903002012,16266.258509905161,7517.517509164514,38398.754703850114,43433.52984589694,0.0,0.0,0.0,193.0,0.0,193.0,0.0,0.0,0.0,178.0,193.0,0.0,178.0,1744418798.7139618,0.0,2025-04-11 20:46:38.713,RIGHT,34
119.0,8268.558474607287,-12035.90029906038,-21654.0124003902,-23777.539882366644,16402.62650282699,7345.096152436275,38788.56912715067,43418.44241838961,0.0,0.0,0.0,193.0,0.0,192.0,0.0,0.0,0.0,179.0,192.0,0.0,179.0,1744418798.7141445,0.0,2025-04-11 20:46:38.714,RIGHT,34
120.0,8267.709108317984,-12024.61266811045,-21690.40104036344,-23771.013172985695,16284.609292102969,7170.014938117855,38776.02979851125,43288.712893571006,0.0,0.0,0.0,193.0,0.0,192.0,0.0,0.0,0.0,178.0,192.0,0.0,178.0,1744418798.71419,0.0,2025-04-11 20:46:38.714,RIGHT,34
121.0,8279.264960201379,-11996.158897418845,-21702.6721480694,-23735.31743709057,16178.527912918082,7416.688789926624,38539.570693918555,43380.8914877047,0.0,0.0,0.0,193.0,0.0,193.0,0.0,0.0,0.0,178.0,193.0,0.0,178.0,1744418798.7142274,0.0,2025-04-11 20:46:38.714,RIGHT,34
122.0,8308.45633846001,-11966.811056949027,-21655.28644982415,-23722.64399798441,16242.230384615706,7526.234689502084,38398.19591023873,43463.88351486725,0.0,0.0,0.0,193.0,0.0,192.0,0.0,0.0,0.0,178.0,192.0,0.0,178.0,1744418798.7142632,0.0,2025-04-11 20:46:38.714,RIGHT,34
123.0,8287.713919605485,-12005.70309230126,-21638.410882760392,-23765.42523687187,16399.609017325525,7380.389556931205,38757.58960933562,43462.69887241112,0.0,0.0,0.0,193.0,0.0,193.0,0.0,0.0,0.0,179.0,193.0,0.0,179.0,1744418798.7143204,0.0,2025-04-11 20:46:38.714,RIGHT,34
124.0,8279.130849734647,-12024.635019854906,-21663.020153405687,-23772.577795097568,16307.832754592033,7149.071353563232,38815.435923985955,43305.29788795685,0.0,0.0,0.0,193.0,0.0,193.0,0.0,0.0,0.0,179.0,193.0,0.0,179.0,1744418798.714354,0.0,2025-04-11 20:46:38.714,RIGHT,34
125.0,8264.736326305429,-12015.113176716946,-21687.987051962264,-23744.03461742814,16200.16440155082,7362.284643922406,38604.05547667211,43360.864324672744,0.0,0.0,0.0,193.0,0.0,193.0,0.0,0.0,0.0,178.0,193.0,0.0,178.0,1744418798.7143865,0.0,2025-04-11 20:46:38.714,RIGHT,34
126.0,8267.798515295806,-12012.632133082407,-21661.321420827084,-23727.963713164772,16216.771747681112,7520.110311521329,38401.83924458495,43453.89228509573,0.0,0.0,0.0,193.0,0.0,193.0,0.0,0.0,0.0,179.0,193.0,0.0,179.0,1744418798.7144177,0.0,2025-04-11 20:46:38.714,RIGHT,34
127.0,8242.831616739228,-12068.757363409683,-21635.28163853665,-23762.407751370403,16393.05995620012,7418.521632971959,38689.70736142485,43458.586151431344,0.0,0.0,0.0,193.0,0.0,192.0,0.0,0.0,0.0,178.0,192.0,0.0,178.0,1744418798.714452,0.0,2025-04-11 20:46:38.714,RIGHT,34
128.0,8245.692640029507,-12073.71945067876,-21667.356391830017,-23786.882911548964,16354.793769692633,7184.610627247171,38835.0160521288,43321.5252544314,0.0,0.0,0.0,193.0,0.0,193.0,0.0,0.0,0.0,178.0,193.0,0.0,178.0,1744418798.7144856,0.0,2025-04-11 20:46:38.714,RIGHT,34
129.0,8262.63526232663,-12039.945964806791,-21690.490447341257,-23750.270754131172,16230.674532732313,7311.993218897966,38617.48887508975,43309.678829870085,0.0,0.0,0.0,193.0,0.0,193.0,0.0,0.0,0.0,179.0,193.0,0.0,179.0,1744418798.7145178,0.0,2025-04-11 20:46:38.714,RIGHT,34
130.0,8277.610931111685,-12021.863403542447,-21679.11340941351,-23730.6012190105,16178.282043729074,7530.995611071064,38373.11725295988,43420.901110279694,0.0,0.0,0.0,193.0,0.0,193.0,0.0,0.0,0.0,178.0,193.0,0.0,178.0,1744418798.7145498,0.0,2025-04-11 20:46:38.714,RIGHT,34
131.0,8260.824771025751,-12054.787523125116,-21641.495423495224,-23756.819815256575,16339.639286951935,7475.0044912105195,38592.32081083308,43467.057462579905,0.0,0.0,0.0,193.0,0.0,193.0,0.0,0.0,0.0,179.0,193.0,0.0,179.0,1744418798.714582,0.0,2025-04-11 20:46:38.714,RIGHT,34
132.0,8250.319451131756,-12076.468715246763,-21661.05319989362,-23791.308556951113,16351.105731857508,7199.653351265592,38834.12198235059,43355.38814728119,0.0,0.0,0.0,193.0,0.0,193.0,0.0,0.0,0.0,179.0,193.0,0.0,179.0,1744418798.7146137,0.0,2025-04-11 20:46:38.714,RIGHT,34
133.0,8249.090105186713,-12062.118895306456,-21690.937482230365,-23766.922803750374,16230.585125754491,7247.888415800145,38666.9756373138,43306.10255075724,0.0,0.0,0.0,193.0,0.0,193.0,0.0,0.0,0.0,178.0,193.0,0.0,178.0,1744418798.7146456,0.0,2025-04-11 20:46:38.714,RIGHT,34
134.0,8270.391317652622,-12029.105368745968,-21679.53809255816,-23739.31839934807,16176.605662894925,7502.0053985125305,38408.38830571035,43413.703848565085,0.0,0.0,0.0,193.0,0.0,193.0,0.0,0.0,0.0,179.0,193.0,0.0,179.0,1744418798.7146933,0.0,2025-04-11 20:46:38.714,RIGHT,34
135.0,8279.734346834939,-12032.636944369906,-21626.743272154723,-23743.095844161016,16339.974563118765,7493.489383875059,38518.2918331971,43446.985596059036,0.0,0.0,0.0,193.0,0.0,193.0,0.0,0.0,0.0,178.0,193.0,0.0,178.0,1744418798.7147255,0.0,2025-04-11 20:46:38.714,RIGHT,34
136.0,8260.668308814564,-12064.398773240897,-21642.434196762348,-23783.6642603474,16407.365072651515,7271.223637011485,38840.380470798074,43369.91678117714,0.0,0.0,0.0,193.0,0.0,193.0,0.0,0.0,0.0,179.0,193.0,0.0,179.0,1744418798.714757,0.0,2025-04-11 20:46:38.714,RIGHT,34
137.0,8267.105611217692,-12053.826398113537,-21679.49338906925,-23760.66431530289,16272.159370441363,7230.632869080648,38717.37882106052,43284.13078595767,0.0,0.0,0.0,193.0,0.0,193.0,0.0,0.0,0.0,179.0,193.0,0.0,179.0,1744418798.7147882,0.0,2025-04-11 20:46:38.714,RIGHT,34
138.0,8280.628416613152,-12020.81287155305,-21687.47296183979,-23730.869439943963,16168.089648257454,7507.012189270519,38451.57187599801,43393.05083668838,0.0,0.0,0.0,193.0,0.0,193.0,0.0,0.0,0.0,179.0,193.0,0.0,179.0,1744418798.7148328,0.0,2025-04-11 20:46:38.714,RIGHT,34
139.0,8275.599274110707,-12035.967354293747,-21651.307839311106,-23743.967562194775,16273.478123364226,7529.9450790816645,38460.11024237994,43436.39086918722,0.0,0.0,0.0,193.0,0.0,193.0,0.0,0.0,0.0,179.0,193.0,0.0,179.0,1744418798.7148645,0.0,2025-04-11 20:46:38.714,RIGHT,34
140.0,8259.796590780807,-12064.644642429907,-21644.19998457432,-23777.875158533476,16360.895795928933,7306.740558950968,38805.3105837477,43370.74379572199,0.0,0.0,0.0,193.0,0.0,192.0,0.0,0.0,0.0,178.0,192.0,0.0,178.0,1744418798.7148955,0.0,2025-04-11 20:46:38.714,RIGHT,34
141.0,8266.166837950568,-12047.746723621694,-21667.82577846358,-23762.27364090367,16255.730838266712,7179.000339388888,38740.22230389385,43242.80241045981,0.0,0.0,0.0,193.0,0.0,193.0,0.0,0.0,0.0,179.0,193.0,0.0,179.0,1744418798.7149267,0.0,2025-04-11 20:46:38.714,RIGHT,34
142.0,8267.97732925145,-12034.134511248412,-21687.271796139696,-23745.398073839915,16150.72234281568,7441.52157801647,38495.247184663676,43340.56894070732,0.0,0.0,0.0,193.0,0.0,193.0,0.0,0.0,0.0,178.0,193.0,0.0,178.0,1744418798.714958,0.0,2025-04-11 20:46:38.714,RIGHT,34
143.0,8279.667291601574,-12026.71373208925,-21641.47307175077,-23741.397111582413,16230.652180987858,7527.374628469304,38407.918919076794,43402.01388621496,0.0,0.0,0.0,193.0,0.0,192.0,0.0,0.0,0.0,178.0,192.0,0.0,178.0,1744418798.71499,0.0,2025-04-11 20:46:38.714,RIGHT,34
144.0,8255.035669211826,-12067.282148275632,-21637.315647282085,-23787.70992609381,16402.78296503818,7373.952254528076,38780.36603693558,43379.326865592826,0.0,0.0,0.0,193.0,0.0,193.0,0.0,0.0,0.0,179.0,193.0,0.0,179.0,1744418798.715022,0.0,2025-04-11 20:46:38.715,RIGHT,34
145.0,8268.916102518571,-12052.999383568691,-21670.306822098115,-23783.619556858488,16318.405129719393,7191.204391861486,38777.23679271183,43230.24073007593,0.0,0.0,0.0,193.0,0.0,192.0,0.0,0.0,0.0,178.0,192.0,0.0,178.0,1744418798.7150533,0.0,2025-04-11 20:46:38.715,RIGHT,34
146.0,8274.124058976658,-12028.85949955696,-21691.67508979739,-23748.236745385737,16201.773727151602,7431.9773831340535,38539.838914852015,43294.099663984736,0.0,0.0,0.0,193.0,0.0,193.0,0.0,0.0,0.0,178.0,193.0,0.0,178.0,1744418798.7150848,0.0,2025-04-11 20:46:38.715,RIGHT,34
147.0,8292.92187606357,-12012.006284237657,-21652.157205600408,-23736.815003969077,16230.808643199045,7559.203512573661,38376.98410475065,43363.85945842975,0.0,0.0,0.0,193.0,0.0,193.0,0.0,0.0,0.0,179.0,193.0,0.0,179.0,1744418798.7151163,0.0,2025-04-11 20:46:38.715,RIGHT,34
148.0,8276.49334388892,-12042.851691585982,-21629.17961230035,-23772.197815441825,16397.306787646627,7433.094970356819,38718.04937339418,43361.15489735066,0.0,0.0,0.0,193.0,0.0,192.0,0.0,0.0,0.0,178.0,192.0,0.0,178.0,1744418798.7151475,0.0,2025-04-11 20:46:38.715,RIGHT,34
149.0,8264.266939671867,-12058.564967938062,-21670.798560476134,-23790.012155772707,16296.27690270864,7198.915743698567,38815.212406541395,43231.380669043145,0.0,0.0,0.0,193.0,0.0,193.0,0.0,0.0,0.0,179.0,193.0,0.0,179.0,1744418798.7151923,0.0,2025-04-11 20:46:38.715,RIGHT,34
150.0,8271.553608364298,-12042.203490996777,-21694.178485176384,-23752.125948920962,16170.43658142526,7369.213684703552,38577.34514204802,43259.54386705683,0.0,0.0,0.0,193.0,0.0,192.0,0.0,0.0,0.0,178.0,192.0,0.0,178.0,1744418798.7152247,0.0,2025-04-11 20:46:38.715,RIGHT,34
151.0,8289.010320783893,-12017.52716511812,-21663.42248480588,-23734.13279463444,16201.103174817941,7538.774018141511,38359.39328186432,43364.552362507864,0.0,0.0,0.0,193.0,0.0,192.0,0.0,0.0,0.0,178.0,192.0,0.0,178.0,1744418798.7152567,0.0,2025-04-11 20:46:38.715,RIGHT,34
152.0,8274.794611310317,-12045.444493942798,-21626.162126798885,-23773.158940453406,16398.066746958106,7423.997810363509,38632.486895619266,43394.07901693333,0.0,0.0,0.0,193.0,0.0,193.0,0.0,0.0,0.0,179.0,193.0,0.0,179.0,1744418798.7152944,0.0,2025-04-11 20:46:38.715,RIGHT,34
153.0,8264.758678049884,-12067.505665720186,-21661.38847606045,-23807.33475772557,16360.985202906753,7150.41245823055,38822.09674383363,43273.78192827487,0.0,0.0,0.0,193.0,0.0,193.0,0.0,0.0,0.0,178.0,193.0,0.0,178.0,1744418798.7157128,0.0,2025-04-11 20:46:38.715,RIGHT,34
154.0,8276.269826444368,-12044.036334042114,-21679.76161000271,-23761.156053680905,16239.12349213642,7281.371328994194,38628.39652638394,43277.46996610999,0.0,0.0,0.0,193.0,0.0,193.0,0.0,0.0,0.0,179.0,193.0,0.0,179.0,1744418798.715746,0.0,2025-04-11 20:46:38.715,RIGHT,34
155.0,8289.032672528348,-12017.258944184656,-21673.57017678859,-23737.574963280556,16187.334500233472,7534.34837273936,38379.1075204739,43403.287935648914,0.0,0.0,0.0,193.0,0.0,193.0,0.0,0.0,0.0,178.0,193.0,0.0,178.0,1744418798.7157772,0.0,2025-04-11 20:46:38.715,RIGHT,34
156.0,8286.819849827272,-12028.077188501024,-21623.211696530783,-23740.03365517064,16344.266098054184,7489.264904173006,38554.5016592147,43428.523055138954,0.0,0.0,0.0,193.0,0.0,192.0,0.0,0.0,0.0,178.0,192.0,0.0,178.0,1744418798.7158093,0.0,2025-04-11 20:46:38.715,RIGHT,34
157.0,8268.82669554075,-12058.609671426973,-21655.085284124052,-23785.050068503628,16339.862804396487,7240.802912807812,38830.25513055982,43327.314356245326,0.0,0.0,0.0,193.0,0.0,193.0,0.0,0.0,0.0,179.0,193.0,0.0,179.0,1744418798.7158408,0.0,2025-04-11 20:46:38.715,RIGHT,34
158.0,8268.759640307384,-12043.05285728608,-21684.991918205254,-23763.413579870892,16220.839765171977,7267.088564287254,38680.2302217758,43288.8693557822,0.0,0.0,0.0,193.0,0.0,192.0,0.0,0.0,0.0,178.0,192.0,0.0,178.0,1744418798.715872,0.0,2025-04-11 20:46:38.715,RIGHT,34
159.0,8274.34757642121,-12016.744854062183,-21678.889891968953,-23735.898582446407,16163.8651685554,7512.890698062265,38409.14826502184,43406.73010429503,0.0,0.0,0.0,193.0,0.0,193.0,0.0,0.0,0.0,179.0,193.0,0.0,179.0,1744418798.7159033,0.0,2025-04-11 20:46:38.715,RIGHT,34
160.0,8280.270788701868,-12036.436740927309,-21628.106728566498,-23744.07932091705,16314.605333161991,7502.631247357279,38488.608716560455,43446.67267163666,0.0,0.0,0.0,193.0,0.0,193.0,0.0,0.0,0.0,179.0,193.0,0.0,179.0,1744418798.715935,0.0,2025-04-11 20:46:38.715,RIGHT,34
161.0,8259.908349503083,-12072.601863455995,-21647.396284031427,-23794.057821519116,16391.67414804389,7265.434535197561,38827.170589824986,43372.62134225623,0.0,0.0,0.0,193.0,0.0,193.0,0.0,0.0,0.0,178.0,193.0,0.0,178.0,1744418798.715966,0.0,2025-04-11 20:46:38.715,RIGHT,34
162.0,8265.362175150178,-12054.38519172492,-21678.48756056876,-23770.90141426342,16267.130227938918,7208.102310669698,38724.129047886025,43281.18035568957,0.0,0.0,0.0,193.0,0.0,193.0,0.0,0.0,0.0,179.0,193.0,0.0,179.0,1744418798.7159972,0.0,2025-04-11 20:46:38.715,RIGHT,34
163.0,8268.78199205184,-12038.180176994823,-21689.95400547433,-23744.682818017343,16161.67469759878,7506.6992648481455,38465.00527441565,43400.20339491408,0.0,0.0,0.0,193.0,0.0,192.0,0.0,0.0,0.0,178.0,192.0,0.0,178.0,1744418798.7160285,0.0,2025-04-11 20:46:38.716,RIGHT,34
164.0,8285.97048353797,-12024.836185555005,-21630.81128964559,-23733.149317878404,16271.466466363248,7549.234634546595,38431.43295424378,43447.0079478035,0.0,0.0,0.0,193.0,0.0,193.0,0.0,0.0,0.0,178.0,193.0,0.0,178.0,1744418798.7160792,0.0,2025-04-11 20:46:38.716,RIGHT,34
165.0,8265.92096876156,-12056.419200470353,-21625.782147143145,-23774.611803843,16403.229999927284,7346.414905359138,38798.73917087784,43397.0965024348,0.0,0.0,0.0,193.0,0.0,192.0,0.0,0.0,0.0,178.0,192.0,0.0,178.0,1744418798.7161112,0.0,2025-04-11 20:46:38.716,RIGHT,34
166.0,8264.021070482859,-12055.614537669962,-21662.03667664965,-23770.029696229663,16288.096164237997,7207.476461824949,38758.7519000473,43273.15607943012,0.0,0.0,0.0,193.0,0.0,193.0,0.0,0.0,0.0,179.0,193.0,0.0,179.0,1744418798.7161424,0.0,2025-04-11 20:46:38.716,RIGHT,34
167.0,8278.527352634354,-12026.467862900241,-21672.631403521467,-23734.55747777909,16178.77378210709,7460.274691614472,38502.06446672255,43365.69230147509,0.0,0.0,0.0,193.0,0.0,193.0,0.0,0.0,0.0,179.0,193.0,0.0,179.0,1744418798.7161732,0.0,2025-04-11 20:46:38.716,RIGHT,34
168.0,8291.804288840805,-12018.622400596429,-21629.42548148936,-23732.724634733753,16252.199262642773,7545.658355433746,38390.4622066572,43434.13334299724,0.0,0.0,0.0,193.0,0.0,193.0,0.0,0.0,0.0,178.0,193.0,0.0,178.0,1744418798.7162194,0.0,2025-04-11 20:46:38.716,RIGHT,34
169.0,8262.612910582175,-12066.879816875437,-21629.961923356288,-23791.017984273196,16400.883066759478,7375.360414428761,38757.23198142433,43419.87293003475,0.0,0.0,0.0,193.0,0.0,192.0,0.0,0.0,0.0,178.0,192.0,0.0,178.0,1744418798.716251,0.0,2025-04-11 20:46:38.716,RIGHT,34
170.0,8273.431154898542,-12054.988688825213,-21666.015287162696,-23791.576777884577,16291.918312539854,7168.495019494894,38782.645914870016,43276.75471028742,0.0,0.0,0.0,193.0,0.0,193.0,0.0,0.0,0.0,179.0,193.0,0.0,179.0,1744418798.7162817,0.0,2025-04-11 20:46:38.716,RIGHT,34
171.0,8277.454468900498,-12023.852708798971,-21687.987051962264,-23749.7566640087,16171.978851792677,7397.399234461694,38541.2470747527,43321.05586779784,0.0,0.0,0.0,193.0,0.0,192.0,0.0,0.0,0.0,178.0,192.0,0.0,178.0,1744418798.716313,0.0,2025-04-11 20:46:38.716,RIGHT,34
172.0,8280.06962300177,-12026.244345455689,-21657.588679503046,-23739.4525098148,16189.882599101378,7540.58450944239,38371.150299447814,43407.22184267305,0.0,0.0,0.0,193.0,0.0,193.0,0.0,0.0,0.0,179.0,193.0,0.0,179.0,1744418798.7163436,0.0,2025-04-11 20:46:38.716,RIGHT,34
173.0,8253.96278547797,-12069.562026210073,-21633.560554213593,-23778.590414356044,16357.252461582717,7418.543984716414,38697.44106500639,43421.482255635536,0.0,0.0,0.0,193.0,0.0,193.0,0.0,0.0,0.0,179.0,193.0,0.0,179.0,1744418798.7163749,0.0,2025-04-11 20:46:38.716,RIGHT,34
174.0,8254.901558745094,-12067.77388665365,-21663.24367085024,-23791.956757540316,16296.165143986362,7168.897350895089,38802.87424360207,43287.2153266925,0.0,0.0,0.0,193.0,0.0,192.0,0.0,0.0,0.0,178.0,192.0,0.0,178.0,1744418798.7164056,0.0,2025-04-11 20:46:38.716,RIGHT,34
175.0,8265.853913528194,-12043.164616008356,-21683.404944348928,-23752.505928576702,16187.982700822677,7329.986373184487,38582.46369152828,43309.3212019588,0.0,0.0,0.0,193.0,0.0,193.0,0.0,0.0,0.0,179.0,193.0,0.0,179.0,1744418798.716437,0.0,2025-04-11 20:46:38.716,RIGHT,34
176.0,8269.11726821867,-12037.2414037277,-21669.837435464553,-23740.994780182216,16182.662985642313,7529.699209892656,38373.47488087117,43425.7514388265,0.0,0.0,0.0,193.0,0.0,192.0,0.0,0.0,0.0,178.0,192.0,0.0,178.0,1744418798.7164683,0.0,2025-04-11 20:46:38.716,RIGHT,34
177.0,8268.245550184913,-12054.675764402838,-21622.049405819107,-23758.116216434984,16357.923013916376,7435.598365735814,38620.998098969234,43444.83982859133,0.0,0.0,0.0,193.0,0.0,192.0,0.0,0.0,0.0,178.0,192.0,0.0,178.0,1744418798.7164996,0.0,2025-04-11 20:46:38.716,RIGHT,34
178.0,8258.67900355804,-12063.929386607337,-21657.29810682513,-23793.52137965219,16352.446836524827,7177.033385876822,38819.34747926563,43318.99950730795,0.0,0.0,0.0,193.0,0.0,193.0,0.0,0.0,0.0,178.0,193.0,0.0,178.0,1744418798.7165315,0.0,2025-04-11 20:46:38.716,RIGHT,34
179.0,8251.682907543529,-12045.332735220521,-21694.513761343213,-23762.02777171466,16228.193489097774,7297.486936746471,38641.51700037921,43311.221100237504,0.0,0.0,0.0,193.0,0.0,192.0,0.0,0.0,0.0,178.0,192.0,0.0,178.0,1744418798.7165637,0.0,2025-04-11 20:46:38.716,RIGHT,34
180.0,8269.519599618865,-12020.634057597406,-21675.134798900464,-23735.853878957496,16177.276215228585,7546.686535678689,38389.43402641225,43429.52888363945,0.0,0.0,0.0,193.0,0.0,193.0,0.0,0.0,0.0,179.0,193.0,0.0,179.0,1744418798.716611,0.0,2025-04-11 20:46:38.716,RIGHT,34
181.0,8270.123096719159,-12044.885700331415,-21629.827812889554,-23749.779015753153,16340.019266607675,7497.691511832656,38540.21889450776,43465.60459919031,0.0,0.0,0.0,193.0,0.0,193.0,0.0,0.0,0.0,178.0,193.0,0.0,178.0,1744418798.71666,0.0,2025-04-11 20:46:38.716,RIGHT,34
182.0,8248.933642975528,-12085.96820664027,-21666.439970307347,-23801.456248933824,16352.37978129146,7249.028354767365,38831.842104416144,43383.03725517241,0.0,0.0,0.0,193.0,0.0,192.0,0.0,0.0,0.0,178.0,192.0,0.0,178.0,1744418798.716692,0.0,2025-04-11 20:46:38.716,RIGHT,34
183.0,8255.080372700737,-12073.406526256387,-21690.82572350809,-23770.342620652034,16225.086596618487,7254.012793780898,38682.15247179895,43325.1238852887,0.0,0.0,0.0,193.0,0.0,193.0,0.0,0.0,0.0,179.0,193.0,0.0,179.0,1744418798.7167232,0.0,2025-04-11 20:46:38.716,RIGHT,34
184.0,8259.997756480903,-12060.040183072113,-21696.927749744387,-23748.862594230486,16151.14702596033,7512.309552706427,38422.51460820611,43450.94185482763,0.0,0.0,0.0,193.0,0.0,192.0,0.0,0.0,0.0,178.0,192.0,0.0,178.0,1744418798.7167675,0.0,2025-04-11 20:46:38.716,RIGHT,34
185.0,8268.893750774116,-12055.547482436596,-21640.109615338995,-23747.74500700772,16293.594693374002,7491.410671640715,38462.725396481204,43485.05061686643,0.0,0.0,0.0,193.0,0.0,193.0,0.0,0.0,0.0,179.0,193.0,0.0,179.0,1744418798.7167993,0.0,2025-04-11 20:46:38.716,RIGHT,34
186.0,8242.96572720596,-12087.644587474417,-21650.72669395527,-23797.09765876504,16379.090115915551,7260.092468272743,38806.07054305918,43415.71550556606,0.0,0.0,0.0,193.0,0.0,193.0,0.0,0.0,0.0,179.0,193.0,0.0,179.0,1744418798.7168305,0.0,2025-04-11 20:46:38.716,RIGHT,34
187.0,8251.168817421058,-12072.870084389458,-21678.152284401927,-23775.572928854577,16246.566623040037,7189.505659282882,38714.45074253687,43317.88192008519,0.0,0.0,0.0,193.0,0.0,192.0,0.0,0.0,0.0,178.0,192.0,0.0,178.0,1744418798.7168617,0.0,2025-04-11 20:46:38.716,RIGHT,34
188.0,8264.579864094241,-12040.057723529068,-21678.420505335394,-23733.819870212064,16145.536738102048,7475.876209244277,38452.62240798741,43430.02062201746,0.0,0.0,0.0,193.0,0.0,193.0,0.0,0.0,0.0,179.0,193.0,0.0,179.0,1744418798.7168927,0.0,2025-04-11 20:46:38.716,RIGHT,34
189.0,8274.54874212131,-12036.101464760479,-21631.79476640162,-23733.998684167706,16234.429625800805,7544.361954255338,38426.672032674796,43502.4179223082,0.0,0.0,0.0,193.0,0.0,192.0,0.0,0.0,0.0,178.0,192.0,0.0,178.0,1744418798.7169244,0.0,2025-04-11 20:46:38.716,RIGHT,34
190.0,8250.073581942748,-12077.206322813789,-21640.66840895038,-23787.75462958272,16346.344810288527,7352.047544961875,38804.77414188077,43475.28290453946,0.0,0.0,0.0,193.0,0.0,192.0,0.0,0.0,0.0,178.0,192.0,0.0,178.0,1744418798.7169557,0.0,2025-04-11 20:46:38.716,RIGHT,34
191.0,8249.425381353543,-12075.887569890925,-21682.041487937153,-23782.18904521335,16239.883451447899,7187.739871470913,38768.0502257407,43338.33376626179,0.0,0.0,0.0,193.0,0.0,193.0,0.0,0.0,0.0,179.0,193.0,0.0,179.0,1744418798.7169867,0.0,2025-04-11 20:46:38.716,RIGHT,34
192.0,8259.707183802984,-12046.71854337675,-21692.412697364416,-23742.626457527454,16149.157720703808,7437.073580869864,38503.24910917868,43408.965278740565,0.0,0.0,0.0,193.0,0.0,193.0,0.0,0.0,0.0,179.0,193.0,0.0,179.0,1744418798.7170177,0.0,2025-04-11 20:46:38.717,RIGHT,34
193.0,8269.251378685402,-12039.81185434006,-21649.251478821217,-23733.216373111773,16217.509355248138,7550.084000835896,38377.67700882876,43473.78533766095,0.0,0.0,0.0,193.0,0.0,193.0,0.0,0.0,0.0,178.0,193.0,0.0,178.0,1744418798.7170486,0.0,2025-04-11 20:46:38.717,RIGHT,34
194.0,8233.399180579088,-12099.11103237999,-21638.254420549205,-23783.016059758196,16379.917130460399,7419.639220194724,38752.225190666344,43480.334398786355,0.0,0.0,0.0,193.0,0.0,193.0,0.0,0.0,0.0,179.0,193.0,0.0,179.0,1744418798.7170796,0.0,2025-04-11 20:46:38.717,RIGHT,34
195.0,8243.144541161602,-12089.58918924203,-21667.82577846358,-23787.151132482428,16299.786126588122,7197.619342520159,38781.595382880616,43329.28130975739,0.0,0.0,0.0,193.0,0.0,193.0,0.0,0.0,0.0,178.0,193.0,0.0,178.0,1744418798.7171252,0.0,2025-04-11 20:46:38.717,RIGHT,34
196.0,8255.862683756672,-12061.828322628537,-21688.434086851372,-23747.74500700772,16185.05462229903,7405.4458624656045,38552.17707779135,43385.71946450704,0.0,0.0,0.0,193.0,0.0,192.0,0.0,0.0,0.0,178.0,192.0,0.0,178.0,1744418798.7171566,0.0,2025-04-11 20:46:38.717,RIGHT,34
197.0,8273.341747920722,-12046.025639298636,-21655.957002157807,-23728.41074805388,16196.655177671335,7570.1558673567615,38368.75866279109,43476.66871269569,0.0,0.0,0.0,193.0,0.0,193.0,0.0,0.0,0.0,179.0,193.0,0.0,179.0,1744418798.717188,0.0,2025-04-11 20:46:38.717,RIGHT,34
198.0,8244.709163273474,-12089.410375286387,-21638.299124038116,-23769.783827040654,16346.881252155454,7468.522485318481,38685.2817160227,43485.52000349999,0.0,0.0,0.0,193.0,0.0,192.0,0.0,0.0,0.0,178.0,192.0,0.0,178.0,1744418798.717219,0.0,2025-04-11 20:46:38.717,RIGHT,34
199.0,8248.307794130778,-12083.062479861079,-21661.880214438464,-23781.85376904652,16289.303158438583,7204.973066445955,38807.07637155967,43339.85368488475,0.0,0.0,0.0,193.0,0.0,192.0,0.0,0.0,0.0,178.0,192.0,0.0,178.0,1744418798.7172632,0.0,2025-04-11 20:46:38.717,RIGHT,34
200.0,8256.421477368054,-12052.082962046023,-21681.929729214877,-23742.157070893893,16179.556093163026,7353.008669973454,38594.15365387841,43357.712728704544,0.0,0.0,0.0,193.0,0.0,193.0,0.0,0.0,0.0,179.0,193.0,0.0,179.0,1744418798.7172997,0.0,2025-04-11 20:46:38.717,RIGHT,34
201.0,8277.141544478125,-12034.849767070982,-21662.550766772125,-23724.722710218753,16163.306374944017,7564.21030333165,38357.78395626354,43467.683311424655,0.0,0.0,0.0,193.0,0.0,193.0,0.0,0.0,0.0,179.0,193.0,0.0,179.0,1744418798.7173312,0.0,2025-04-11 20:46:38.717,RIGHT,34
202.0,8242.96572720596,-12085.275302562155,-21640.154318827907,-23763.4582833598,16336.800615406111,7485.129831448774,38608.570529052085,43509.14579738925,0.0,0.0,0.0,193.0,0.0,193.0,0.0,0.0,0.0,179.0,193.0,0.0,179.0,1744418798.717362,0.0,2025-04-11 20:46:38.717,RIGHT,34
203.0,8221.038665895303,-12109.929276696359,-21675.38066808947,-23806.820667603097,16326.027074578653,7210.538650815327,38846.951883667934,43402.01388621496,0.0,0.0,0.0,193.0,0.0,193.0,0.0,0.0,0.0,179.0,193.0,0.0,179.0,1744418798.717393,0.0,2025-04-11 20:46:38.717,RIGHT,34
204.0,8240.149407404591,-12071.596034955506,-21692.90443574243,-23760.329039136057,16192.050718313541,7288.076852330787,38663.48876517877,43356.75160369297,0.0,0.0,0.0,193.0,0.0,193.0,0.0,0.0,0.0,178.0,193.0,0.0,178.0,1744418798.7174242,0.0,2025-04-11 20:46:38.717,RIGHT,34
205.0,8260.377736136645,-12045.399790453886,-21682.108543170518,-23726.801422453096,16097.927522412245,7539.10929430834,38400.296974217534,43462.49770671102,0.0,0.0,0.0,193.0,0.0,193.0,0.0,0.0,0.0,178.0,193.0,0.0,178.0,1744418798.7174554,0.0,2025-04-11 20:46:38.717,RIGHT,34
206.0,8254.476875600443,-12067.10333431999,-21635.393397258926,-23746.560364551588,16247.907727707354,7495.098709475841,38542.02938580864,43498.64047749525,0.0,0.0,0.0,193.0,0.0,193.0,0.0,0.0,0.0,178.0,193.0,0.0,178.0,1744418798.7174864,0.0,2025-04-11 20:46:38.717,RIGHT,34
207.0,8241.848139983194,-12097.926389923858,-21645.675199708367,-23786.882911548964,16350.90456615741,7258.10316301622,38847.46597379041,43408.674706062644,0.0,0.0,0.0,193.0,0.0,192.0,0.0,0.0,0.0,178.0,192.0,0.0,178.0,1744418798.7175174,0.0,2025-04-11 20:46:38.717,RIGHT,34
208.0,8242.004602194382,-12088.404546785898,-21673.681935510867,-23761.26781240318,16255.328506866517,7272.7882591233565,38707.968736644834,43325.79443762236,0.0,0.0,0.0,193.0,0.0,193.0,0.0,0.0,0.0,179.0,193.0,0.0,179.0,1744418798.7175484,0.0,2025-04-11 20:46:38.717,RIGHT,34
209.0,8251.839369754716,-12059.1461132939,-21676.14062740095,-23731.74115797772,16174.079915771475,7558.197684073172,38437.55733222453,43435.876779064754,0.0,0.0,0.0,193.0,0.0,193.0,0.0,0.0,0.0,179.0,193.0,0.0,179.0,1744418798.7175796,0.0,2025-04-11 20:46:38.717,RIGHT,34
210.0,8253.180474422035,-12069.517322721164,-21638.097958338018,-23747.230916885248,16295.114611996964,7567.1607335997505,38463.68652149278,43473.58417196085,0.0,0.0,0.0,193.0,0.0,192.0,0.0,0.0,0.0,178.0,192.0,0.0,178.0,1744418798.7176282,0.0,2025-04-11 20:46:38.717,RIGHT,34
211.0,8233.86856721265,-12099.53571552464,-21653.05127537862,-23798.52817041018,16370.283528600161,7353.8356845183,38824.89071189055,43417.57070035586,0.0,0.0,0.0,193.0,0.0,193.0,0.0,0.0,0.0,179.0,193.0,0.0,179.0,1744418798.7176633,0.0,2025-04-11 20:46:38.717,RIGHT,34
212.0,8237.266032369856,-12076.446363502308,-21691.18335141937,-23786.882911548964,16240.062265403541,7246.05557275481,38735.41667883595,43300.112283243216,0.0,0.0,0.0,193.0,0.0,192.0,0.0,1.0,0.0,178.0,192.0,1.0,178.0,1744418798.7176964,0.0,2025-04-11 20:46:38.717,RIGHT,34
213.0,8245.916157474061,-12060.733087150227,-21702.895665513955,-23756.5068908342,16135.746674030624,7504.8217183138995,38463.574762770506,43391.73208376552,0.0,0.0,0.0,193.0,0.0,192.0,0.0,2.0,0.0,179.0,192.0,2.0,179.0,1744418798.7177303,0.0,2025-04-11 20:46:38.717,RIGHT,34
214.0,8267.396183895611,-12055.681592903327,-21655.577022502068,-23745.576887795556,16221.286800061083,7556.186027072195,38392.831491569465,43442.35878495679,0.0,0.0,0.0,193.0,0.0,193.0,0.0,3.0,0.0,179.0,193.0,3.0,179.0,1744418798.717779,0.0,2025-04-11 20:46:38.717,RIGHT,34
215.0,8247.033744696826,-12100.720357980772,-21644.602315974513,-23780.04327774564,16344.221394565273,7364.832742790311,38761.612923337576,43407.0430287174,0.0,0.0,0.0,193.0,0.0,192.0,0.0,5.0,0.0,178.0,192.0,5.0,178.0,1744418798.7178133,0.0,2025-04-11 20:46:38.717,RIGHT,34
216.0,8247.659593541573,-12096.898209678915,-21670.44093256485,-23775.08119047656,16248.287707363095,7190.176211616542,38740.87050448305,43259.36505310119,0.0,0.0,0.0,193.0,0.0,193.0,0.0,6.0,0.0,179.0,193.0,6.0,179.0,1744418798.717845,0.0,2025-04-11 20:46:38.717,RIGHT,34
217.0,8248.151331919591,-12073.875912889947,-21694.938444487863,-23751.477748331756,16147.190767191742,7447.578900763858,38508.01003074766,43344.97223436502,0.0,0.0,0.0,193.0,0.0,193.0,0.0,7.0,0.0,179.0,193.0,7.0,179.0,1744418798.7178776,0.0,2025-04-11 20:46:38.717,RIGHT,34
218.0,8258.63430006913,-12057.112104548467,-21658.169824858884,-23743.006437183194,16201.01376784012,7565.7525736990665,38363.93068598875,43422.801008558396,0.0,0.0,0.0,193.0,0.0,193.0,0.0,8.0,0.0,178.0,193.0,8.0,178.0,1744418798.7179115,0.0,2025-04-11 20:46:38.717,RIGHT,34
219.0,8240.574090549242,-12098.239314346232,-21634.745196669723,-23781.451437646323,16360.404057550915,7419.661571939179,38716.70826872686,43415.4472846326,0.0,0.0,0.0,193.0,0.0,193.0,0.0,9.0,0.0,178.0,193.0,9.0,178.0,1744418798.7179484,0.0,2025-04-11 20:46:38.717,RIGHT,34
220.0,8242.831616739228,-12101.994407414724,-21669.368048830995,-23797.544693654145,16258.390695856893,7166.952749127478,38776.566240378175,43258.7615560009,0.0,0.0,0.0,193.0,0.0,193.0,0.0,9.0,0.0,179.0,193.0,9.0,179.0,1744418798.717986,0.0,2025-04-11 20:46:38.717,RIGHT,34
221.0,8246.027916196337,-12070.500799477197,-21688.38938336246,-23750.069588431073,16145.134406701853,7358.596606087281,38545.359795732475,43304.96261179002,0.0,0.0,0.0,193.0,0.0,193.0,0.0,10.0,0.0,179.0,193.0,10.0,179.0,1744418798.718022,0.0,2025-04-11 20:46:38.718,RIGHT,34
222.0,8252.129942432635,-12061.694212161805,-21667.490502296747,-23731.89762018891,16162.904043543822,7565.7525736990665,38347.27863636955,43417.25777593348,0.0,0.0,0.0,193.0,0.0,193.0,0.0,10.0,0.0,179.0,193.0,10.0,179.0,1744418798.718058,0.0,2025-04-11 20:46:38.718,RIGHT,34
223.0,8239.165930648558,-12094.797145700115,-21638.030903104653,-23764.55351883811,16327.815214135077,7478.804287767922,38642.92516027989,43447.83496234834,0.0,0.0,0.0,193.0,0.0,193.0,0.0,11.0,0.0,179.0,193.0,11.0,179.0,1744418798.718094,0.0,2025-04-11 20:46:38.718,RIGHT,34
224.0,8242.25047138339,-12089.0527473751,-21662.215490605297,-23783.977184769774,16287.805591560078,7208.5716973032595,38799.74499937832,43312.6739636271,0.0,0.0,0.0,193.0,0.0,192.0,0.0,12.0,0.0,178.0,192.0,12.0,178.0,1744418798.7181268,0.0,2025-04-11 20:46:38.718,RIGHT,34
225.0,8236.662535269563,-12082.503686249696,-21696.01132822172,-23764.57587058257,16192.609511924926,7326.700666749557,38612.99617445424,43317.5242921739,0.0,0.0,0.0,193.0,0.0,193.0,0.0,12.0,0.0,179.0,193.0,12.0,179.0,1744418798.7181864,0.0,2025-04-11 20:46:38.718,RIGHT,34
226.0,8248.218387152958,-12079.91088389288,-21680.655679780924,-23752.550632065613,16174.705764616225,7542.663221676734,38376.44766288372,43428.679517350145,0.0,0.0,0.0,193.0,0.0,193.0,0.0,12.0,0.0,179.0,193.0,12.0,179.0,1744418798.7182212,0.0,2025-04-11 20:46:38.718,RIGHT,34
227.0,8235.366134091155,-12104.810727216092,-21639.483766494246,-23769.180329940362,16352.357429547004,7496.417462398704,38582.977781650756,43451.523000183464,0.0,0.0,0.0,193.0,0.0,192.0,0.0,13.0,0.0,178.0,192.0,13.0,178.0,1744418798.718254,0.0,2025-04-11 20:46:38.718,RIGHT,34
228.0,8227.811244465262,-12111.672712763871,-21662.349601072026,-23798.99755704374,16344.37785677646,7257.522017660382,38822.25320604482,43335.51744646042,0.0,0.0,0.0,193.0,0.0,193.0,0.0,13.0,0.0,179.0,193.0,13.0,179.0,1744418798.718288,0.0,2025-04-11 20:46:38.718,RIGHT,34
229.0,8235.477892813431,-12096.652340489905,-21690.870426997,-23773.628327086964,16198.845648627956,7304.415977527617,38660.13600351048,43288.37761740418,0.0,0.0,0.0,193.0,0.0,193.0,0.0,13.0,0.0,179.0,193.0,13.0,179.0,1744418798.7183397,0.0,2025-04-11 20:46:38.718,RIGHT,34
230.0,8242.58574755022,-12084.291825806122,-21691.920958986397,-23752.774149510165,16120.972170945666,7547.3794397568045,38400.14051200635,43395.889508234206,0.0,0.0,0.0,193.0,0.0,193.0,0.0,13.0,0.0,179.0,193.0,13.0,179.0,1744418798.7183735,0.0,2025-04-11 20:46:38.718,RIGHT,34
231.0,8240.708201015974,-12090.885590420437,-21636.399225759415,-23758.250326901714,16296.902751553387,7521.093788277363,38502.19857718928,43423.851540547796,0.0,0.0,0.0,193.0,0.0,193.0,0.0,14.0,0.0,179.0,193.0,14.0,179.0,1744418798.7184072,0.0,2025-04-11 20:46:38.718,RIGHT,34
232.0,8221.843328695695,-12115.96424769929,-21659.555633015112,-23805.367804213503,16355.889005170942,7279.292616759851,38827.34940378063,43343.76524016443,0.0,0.0,0.0,193.0,0.0,193.0,0.0,14.0,0.0,179.0,193.0,14.0,179.0,1744418798.7184389,0.0,2025-04-11 20:46:38.718,RIGHT,34
233.0,8237.2436806254,-12090.48325902024,-21685.19308390535,-23774.142417209438,16229.601648998458,7232.823340037267,38695.22824230531,43254.09004140974,0.0,0.0,0.0,193.0,0.0,193.0,0.0,14.0,0.0,178.0,193.0,14.0,178.0,1744418799.1938047,0.0,2025-04-11 20:46:39.193,RIGHT,34
234.0,8253.895730244605,-12063.795276140605,-21683.24848213774,-23735.31743709057,16146.743732302635,7500.8878112897655,38421.03939307206,43358.427984527116,0.0,0.0,0.0,193.0,0.0,193.0,0.0,14.0,0.0,179.0,193.0,14.0,179.0,1744418799.1939669,0.0,2025-04-11 20:46:39.193,RIGHT,34
235.0,8246.832578996728,-12071.998366355701,-21650.972563144274,-23750.494271575724,16227.992323397677,7529.363933725826,38429.75657340963,43413.59208984281,0.0,0.0,0.0,193.0,0.0,192.0,0.0,14.0,0.0,179.0,192.0,14.0,179.0,1744418799.194029,0.0,2025-04-11 20:46:39.194,RIGHT,34
236.0,8224.793758963795,-12110.868049963481,-21659.15330161492,-23800.56217915561,16316.013493062675,7321.8279864583,38789.083217273146,43365.49113577499,0.0,0.0,0.0,193.0,0.0,193.0,0.0,14.0,0.0,179.0,193.0,14.0,179.0,1744418799.1940815,0.0,2025-04-11 20:46:39.194,RIGHT,34
237.0,8218.91525017205,-12118.042959933635,-21696.190142177362,-23794.12487675248,16222.203221583752,7205.889487968623,38723.25732985226,43251.720756497474,0.0,0.0,0.0,193.0,0.0,193.0,0.0,15.0,0.0,179.0,193.0,15.0,179.0,1744418799.194119,0.0,2025-04-11 20:46:39.194,RIGHT,34
238.0,8228.146520632092,-12092.427860787853,-21707.25425568274,-23759.434969357848,16138.585345576448,7476.904389489221,38467.03928316108,43358.11506010474,0.0,0.0,0.0,193.0,0.0,193.0,0.0,15.0,0.0,178.0,193.0,15.0,178.0,1744418799.1941533,0.0,2025-04-11 20:46:39.194,RIGHT,34
239.0,8252.219349410458,-12073.585340212028,-21653.341848056538,-23743.56523079458,16213.173116823808,7564.8138004319435,38387.62353511137,43421.59401435781,0.0,0.0,0.0,193.0,0.0,193.0,0.0,15.0,0.0,179.0,193.0,15.0,179.0,1744418799.194188,0.0,2025-04-11 20:46:39.194,RIGHT,34
240.0,8233.019200923349,-12103.983712671246,-21646.166938086386,-23788.313423194104,16361.543996518136,7413.805414891889,38762.90932451598,43398.07997919083,0.0,0.0,0.0,193.0,0.0,193.0,0.0,15.0,0.0,179.0,193.0,15.0,179.0,1744418799.194326,0.0,2025-04-11 20:46:39.194,RIGHT,34
241.0,8223.027971151825,-12109.21402087379,-21687.47296183979,-23797.254120976224,16266.414972116349,7228.554156846304,38765.658589083985,43250.17848613006,0.0,0.0,0.0,193.0,0.0,192.0,0.0,15.0,0.0,179.0,192.0,15.0,179.0,1744418799.194375,0.0,2025-04-11 20:46:39.194,RIGHT,34
242.0,8228.191224121001,-12089.76800319767,-21703.58856959207,-23762.65362055941,16166.033287767565,7458.173627635673,38521.75635358767,43319.37948696369,0.0,0.0,0.0,193.0,0.0,193.0,0.0,15.0,0.0,179.0,193.0,15.0,179.0,1744418799.1944191,0.0,2025-04-11 20:46:39.194,RIGHT,34
243.0,8240.417628338055,-12070.925482621848,-21665.657659251414,-23744.21343138378,16203.561866708025,7571.407565046259,38350.63139803784,43403.578508326835,0.0,0.0,0.0,193.0,0.0,193.0,0.0,15.0,0.0,179.0,193.0,15.0,179.0,1744418799.194462,0.0,2025-04-11 20:46:39.194,RIGHT,34
244.0,8211.583877990708,-12114.913715709892,-21652.067798622586,-23783.776019069675,16353.407961536404,7434.212557579584,38685.79580614517,43405.031371716424,0.0,0.0,0.0,193.0,0.0,193.0,0.0,15.0,0.0,179.0,193.0,15.0,179.0,1744418799.1945808,0.0,2025-04-11 20:46:39.194,RIGHT,34
245.0,8223.854985696673,-12109.549297040618,-21678.71107801331,-23791.017984273196,16271.131190196418,7195.8312029637345,38769.39133040802,43261.175544402075,0.0,0.0,0.0,193.0,0.0,193.0,0.0,15.0,0.0,179.0,193.0,15.0,179.0,1744418799.194628,0.0,2025-04-11 20:46:39.194,RIGHT,34
246.0,8234.740285246407,-12081.430802515843,-21690.266929896705,-23748.281448874648,16165.72036334519,7387.810336090367,38550.612455679475,43292.31152442831,0.0,0.0,0.0,193.0,0.0,193.0,0.0,15.0,0.0,179.0,193.0,15.0,179.0,1744418799.194672,0.0,2025-04-11 20:46:39.194,RIGHT,34
247.0,8236.237852124912,-12069.33850876552,-21675.067743667096,-23745.107501161994,16167.039116268053,7595.368635102348,38361.092014442926,43413.994421243005,0.0,0.0,0.0,193.0,0.0,193.0,0.0,16.0,0.0,178.0,193.0,16.0,178.0,1744418799.1947436,0.0,2025-04-11 20:46:39.194,RIGHT,34
248.0,8225.777235719828,-12089.857410175493,-21644.021170618675,-23780.08798123455,16347.61885972248,7503.122985735296,38637.35957591052,43438.13430525474,0.0,0.0,0.0,193.0,0.0,193.0,0.0,16.0,0.0,179.0,193.0,16.0,179.0,1744418799.1947856,0.0,2025-04-11 20:46:39.194,RIGHT,34
249.0,8225.48666304191,-12110.82334647457,-21668.38457207496,-23805.61367340251,16306.89398132491,7228.62121207967,38810.49618846133,43295.79839656334,0.0,0.0,0.0,193.0,0.0,192.0,0.0,16.0,0.0,179.0,192.0,16.0,179.0,1744418799.1948235,0.0,2025-04-11 20:46:39.194,RIGHT,34
250.0,8237.355439347677,-12096.026491645158,-21681.72856351478,-23757.400960612413,16181.321880974994,7333.517948808426,38616.751267522726,43288.355265659724,0.0,0.0,0.0,193.0,0.0,192.0,0.0,16.0,0.0,178.0,192.0,16.0,178.0,1744418799.194863,0.0,2025-04-11 20:46:39.194,RIGHT,34
251.0,8252.77814302184,-12071.439572744319,-21662.841339450042,-23731.182364366337,16139.166490932286,7556.744820683578,38360.48851734263,43393.654333788676,0.0,0.0,0.0,193.0,0.0,193.0,0.0,16.0,0.0,178.0,193.0,16.0,178.0,1744418799.1948988,0.0,2025-04-11 20:46:39.194,RIGHT,34
252.0,8240.931718460526,-12086.638758973928,-21621.580019185545,-23742.492347060725,16309.352673214993,7519.216241743117,38547.10323179999,43426.846674304805,0.0,0.0,0.0,193.0,0.0,193.0,0.0,16.0,0.0,179.0,193.0,16.0,179.0,1744418799.1949356,0.0,2025-04-11 20:46:39.194,RIGHT,34
253.0,8216.545965259787,-12123.474433836274,-21662.260194094204,-23792.76142034071,16311.386681960426,7277.415070225606,38826.85766540261,43333.50578945944,0.0,0.0,0.0,193.0,0.0,193.0,0.0,16.0,0.0,179.0,193.0,16.0,179.0,1744418799.1949728,0.0,2025-04-11 20:46:39.194,RIGHT,34
254.0,8212.276782068824,-12120.322837868076,-21699.900531756943,-23775.260004432203,16169.028421524576,7293.173050066597,38667.422672202905,43281.716797556495,0.0,0.0,0.0,193.0,0.0,193.0,0.0,16.0,0.0,179.0,193.0,16.0,179.0,1744418799.195016,0.0,2025-04-11 20:46:39.195,RIGHT,34
255.0,8245.692640029507,-12071.216055299767,-21676.542958801147,-23728.254285842693,16108.142269628319,7548.318213023927,38381.16388096379,43375.30355159087,0.0,0.0,0.0,193.0,0.0,193.0,0.0,16.0,0.0,179.0,193.0,16.0,179.0,1744418799.1951408,0.0,2025-04-11 20:46:39.195,RIGHT,34
0.0,8242.317526616756,-12086.77286944066,-21635.505155981202,-23743.051140672105,16266.057344205065,7543.579643199402,38464.53588778208,43413.48033112053,0.0,0.0,0.0,193.0,0.0,193.0,0.0,16.0,0.0,179.0,193.0,16.0,179.0,1744418799.1951876,0.0,2025-04-11 20:46:39.195,RIGHT,34
1.0,8221.575107762232,-12118.758215756205,-21650.27965906616,-23789.587472628056,16341.919164886376,7311.367370053216,38801.086104045644,43344.52519947591,0.0,0.0,0.0,193.0,0.0,193.0,0.0,16.0,0.0,179.0,193.0,16.0,179.0,1744418799.195232,0.0,2025-04-11 20:46:39.195,RIGHT,34
2.0,8223.609116507663,-12104.944837682824,-21677.43702857936,-23770.387324140946,16235.882489190399,7255.108029259209,38691.964887614835,43253.66535826509,0.0,0.0,0.0,193.0,0.0,193.0,0.0,16.0,0.0,179.0,193.0,16.0,179.0,1744418799.1952727,0.0,2025-04-11 20:46:39.195,RIGHT,34
3.0,8221.508052528865,-12075.887569890925,-21697.8218195226,-23752.21535589878,16131.0081042061,7520.199718499151,38432.01409959961,43370.29676083288,0.0,0.0,0.0,193.0,0.0,193.0,0.0,16.0,0.0,179.0,193.0,16.0,179.0,1744418799.1953533,0.0,2025-04-11 20:46:39.195,RIGHT,34
4.0,8227.05128515378,-12065.114029063467,-21653.38655154545,-23757.043332701127,16224.460747773737,7542.238538532083,38410.89170108935,43421.750476568996,0.0,0.0,0.0,193.0,0.0,192.0,0.0,16.0,0.0,179.0,192.0,16.0,179.0,1744418799.1953976,0.0,2025-04-11 20:46:39.195,RIGHT,34
5.0,8212.3885407911,-12112.075044164068,-21650.123196854973,-23797.321176209593,16351.150435346419,7330.411056329139,38775.76157757778,43372.73310097851,0.0,0.0,0.0,193.0,0.0,193.0,0.0,16.0,0.0,179.0,193.0,16.0,179.0,1744418799.195437,0.0,2025-04-11 20:46:39.195,RIGHT,34
6.0,8210.779215190318,-12116.567744799584,-21694.357299132025,-23787.240539460247,16216.883506403388,7184.409461547072,38731.125143900535,43250.08907915224,0.0,0.0,0.0,193.0,0.0,193.0,0.0,16.0,0.0,179.0,193.0,16.0,179.0,1744418799.195478,0.0,2025-04-11 20:46:39.195,RIGHT,34
7.0,8226.067808397747,-12089.745651453215,-21702.359223647025,-23742.8052714831,16112.09852839691,7444.8072844514,38471.01789367413,43338.557283706345,0.0,0.0,0.0,193.0,0.0,193.0,0.0,16.0,0.0,179.0,193.0,16.0,179.0,1744418799.1955216,0.0,2025-04-11 20:46:39.195,RIGHT,34
8.0,8236.282555613823,-12088.516305508174,-21654.750007957224,-23732.389358566925,16199.270331772606,7567.1607335997505,38371.88790701484,43420.40937190168,0.0,0.0,0.0,193.0,0.0,193.0,0.0,16.0,0.0,178.0,193.0,16.0,178.0,1744418799.1955671,0.0,2025-04-11 20:46:39.195,RIGHT,34
9.0,8217.90942167156,-12130.15760542841,-21641.003685117208,-23777.584585855555,16374.351546091028,7408.575106689347,38741.585760305614,43407.31124965087,0.0,0.0,0.0,193.0,0.0,193.0,0.0,16.0,0.0,178.0,193.0,16.0,178.0,1744418799.195613,0.0,2025-04-11 20:46:39.195,RIGHT,34
10.0,8241.378753349632,-12109.482241807253,-21661.76845571619,-23772.354277653012,16280.31775716755,7187.963388915467,38749.14064993151,43248.01036691789,0.0,0.0,0.0,193.0,0.0,193.0,0.0,16.0,0.0,179.0,193.0,16.0,179.0,1744418799.1956532,0.0,2025-04-11 20:46:39.195,RIGHT,34
11.0,8229.62173576614,-12089.58918924203,-21694.066726454108,-23742.827623227553,16148.822444536978,7422.142615573718,38518.448295408285,43311.26580372641,0.0,0.0,0.0,193.0,0.0,193.0,0.0,16.0,0.0,179.0,193.0,16.0,179.0,1744418799.1956923,0.0,2025-04-11 20:46:39.195,RIGHT,34
12.0,8234.784988735317,-12077.206322813789,-21659.53328127066,-23736.189155124328,16175.599834394436,7576.21319010415,38344.84229622392,43403.04206645991,0.0,0.0,0.0,193.0,0.0,193.0,0.0,16.0,0.0,178.0,193.0,16.0,178.0,1744418799.195774,0.0,2025-04-11 20:46:39.195,RIGHT,34
13.0,8216.300096070778,-12120.702817523816,-21640.71311243929,-23781.451437646323,16358.928842416864,7457.458371813103,38672.630628661,43410.93223225263,0.0,0.0,0.0,193.0,0.0,193.0,0.0,16.0,0.0,179.0,193.0,16.0,179.0,1744418799.195815,0.0,2025-04-11 20:46:39.195,RIGHT,34
14.0,8209.549869245277,-12118.579401800562,-21673.637232021956,-23803.04322279015,16290.286635194618,7205.33069435724,38783.49528115932,43263.27660838087,0.0,0.0,0.0,193.0,0.0,193.0,0.0,16.0,0.0,179.0,193.0,16.0,179.0,1744418799.195923,0.0,2025-04-11 20:46:39.195,RIGHT,34
15.0,8210.779215190318,-12089.320968308564,-21694.178485176384,-23763.413579870892,16169.72132560269,7370.845362048789,38567.51037448768,43286.00833249192,0.0,0.0,0.0,193.0,0.0,193.0,0.0,17.0,0.0,178.0,193.0,17.0,178.0,1744418799.1959665,0.0,2025-04-11 20:46:39.195,RIGHT,34
16.0,8232.214538122957,-12074.300596034598,-21670.262118609207,-23743.967562194775,16146.408456135805,7558.577663728913,38335.05223215249,43382.97019993904,0.0,0.0,0.0,193.0,0.0,193.0,0.0,17.0,0.0,179.0,193.0,17.0,179.0,1744418799.1960068,0.0,2025-04-11 20:46:39.196,RIGHT,34
17.0,8235.656706769074,-12100.608599258496,-21633.51585072468,-23770.789655541143,16323.635437921936,7476.09972668883,38578.239211826236,43389.92159246464,0.0,0.0,0.0,193.0,0.0,193.0,0.0,17.0,0.0,179.0,193.0,17.0,179.0,1744418799.1960468,0.0,2025-04-11 20:46:39.196,RIGHT,34
18.0,8230.091122399703,-12116.165413399389,-21669.748028486734,-23798.818743088097,16290.040766005608,7219.367589875173,38778.53319389024,43251.27372160837,0.0,0.0,0.0,193.0,0.0,193.0,0.0,17.0,0.0,179.0,193.0,17.0,179.0,1744418799.1961148,0.0,2025-04-11 20:46:39.196,RIGHT,34
19.0,8223.810282207762,-12103.179049870856,-21692.30093864214,-23761.89366124793,16174.258729727118,7312.283791575885,38596.63469751295,43228.05025911931,0.0,0.0,0.0,193.0,0.0,193.0,0.0,17.0,0.0,179.0,193.0,17.0,179.0,1744418799.1961548,0.0,2025-04-11 20:46:39.196,RIGHT,34
20.0,8237.757770747874,-12087.577532241052,-21681.080362925575,-23740.905373204398,16125.084891925442,7551.1345328252955,38340.193133377215,43341.552417463354,0.0,0.0,0.0,193.0,0.0,193.0,0.0,17.0,0.0,178.0,193.0,17.0,178.0,1744418799.1961975,0.0,2025-04-11 20:46:39.196,RIGHT,34
21.0,8243.837445239717,-12104.16252662689,-21632.934705368843,-23757.825643757064,16296.165143986362,7500.261962445017,38485.300658381064,43357.04217637088,0.0,0.0,0.0,193.0,0.0,193.0,0.0,17.0,0.0,179.0,193.0,17.0,179.0,1744418799.1962435,0.0,2025-04-11 20:46:39.196,RIGHT,34
22.0,8206.62179072163,-12144.753294557726,-21667.57990927457,-23809.346414726548,16316.684045396334,7251.330584446262,38783.74115034832,43258.62744553416,0.0,0.0,0.0,193.0,0.0,193.0,0.0,17.0,0.0,179.0,193.0,17.0,179.0,1744418799.1962836,0.0,2025-04-11 20:46:39.196,RIGHT,34
23.0,8214.579011747719,-12112.611486030995,-21682.466171081804,-23765.98403048325,16197.191619538264,7249.43068616756,38627.435401372364,43174.29431370429,0.0,0.0,0.0,193.0,0.0,193.0,0.0,17.0,0.0,178.0,193.0,17.0,178.0,1744418799.196326,0.0,2025-04-11 20:46:39.196,RIGHT,34
24.0,8206.53238374381,-12101.100337636512,-21695.318424143607,-23756.32807687856,16115.943028443222,7528.268698247516,38376.98410475065,43291.39510290565,0.0,0.0,0.0,193.0,0.0,193.0,0.0,17.0,0.0,179.0,193.0,17.0,179.0,1744418799.1963692,0.0,2025-04-11 20:46:39.196,RIGHT,34
25.0,8220.636334495108,-12097.434651545842,-21649.09501661003,-23761.200757169816,16233.535556022593,7530.034486059486,38425.73325940767,43327.090838800774,0.0,0.0,0.0,193.0,0.0,193.0,0.0,17.0,0.0,180.0,193.0,17.0,180.0,1744418799.1964087,0.0,2025-04-11 20:46:39.196,RIGHT,34
26.0,8217.976476904927,-12126.201346659822,-21655.46526377979,-23799.623405888487,16321.288504754128,7322.744407980968,38774.06284499918,43264.99769270393,0.0,0.0,0.0,193.0,0.0,193.0,0.0,17.0,0.0,178.0,193.0,17.0,178.0,1744418799.1964457,0.0,2025-04-11 20:46:39.196,RIGHT,34
27.0,8213.48377626941,-12118.82527098957,-21696.14543868845,-23794.75072559723,16196.275198015595,7228.57650859076,38675.62576241801,43153.90952276105,0.0,0.0,0.0,193.0,0.0,193.0,0.0,17.0,0.0,179.0,193.0,17.0,179.0,1744418799.1964896,0.0,2025-04-11 20:46:39.196,RIGHT,34
28.0,8228.928831688027,-12092.986654399236,-21699.140572445463,-23763.12300719297,16080.917844881755,7476.278540644472,38402.59920389643,43248.05507040681,0.0,0.0,0.0,193.0,0.0,193.0,0.0,17.0,0.0,179.0,193.0,17.0,179.0,1744418799.1965303,0.0,2025-04-11 20:46:39.196,RIGHT,34
29.0,8240.574090549242,-12093.746613710717,-21655.24174633524,-23761.29016414764,16184.62993915438,7520.244421988061,38352.79951725001,43301.98982977746,0.0,0.0,0.0,193.0,0.0,193.0,0.0,17.0,0.0,179.0,193.0,17.0,179.0,1744418799.1966307,0.0,2025-04-11 20:46:39.196,RIGHT,34
30.0,8228.30298284328,-12118.82527098957,-21647.48569100925,-23799.42224018839,16342.656772453402,7338.055352932854,38721.670355995935,43263.36601535869,0.0,0.0,0.0,193.0,0.0,193.0,0.0,17.0,0.0,179.0,193.0,17.0,179.0,1744418799.1966782,0.0,2025-04-11 20:46:39.196,RIGHT,34
31.0,8234.136788146114,-12105.63774176094,-21673.503121555226,-23784.647737103434,16235.92719267931,7180.3414440562065,38686.04167533418,43120.67247875601,0.0,0.0,0.0,193.0,0.0,193.0,0.0,17.0,0.0,179.0,193.0,17.0,179.0,1744418799.1967485,0.0,2025-04-11 20:46:39.196,RIGHT,34
32.0,8226.648953753585,-12087.82340143006,-21694.24554040975,-23750.98600995374,16123.676732024758,7444.673173984668,38442.117088093415,43206.436122231025,0.0,0.0,0.0,193.0,0.0,193.0,0.0,17.0,0.0,178.0,193.0,17.0,178.0,1744418799.1967826,0.0,2025-04-11 20:46:39.196,RIGHT,34
33.0,8234.539119546309,-12083.151886838901,-21658.661563236903,-23743.22995462775,16167.642613368347,7556.990689872586,38316.61204297686,43286.18714644756,0.0,0.0,0.0,193.0,0.0,193.0,0.0,17.0,0.0,179.0,193.0,17.0,179.0,1744418799.1968403,0.0,2025-04-11 20:46:39.196,RIGHT,34
34.0,8206.510031999354,-12132.057503707112,-21633.22527804676,-23779.059800989606,16328.37400774646,7410.877336368244,38682.42069273242,43280.44274812254,0.0,0.0,0.0,193.0,0.0,193.0,0.0,17.0,0.0,179.0,193.0,17.0,179.0,1744418799.1968737,0.0,2025-04-11 20:46:39.196,RIGHT,34
35.0,8207.828784922218,-12140.908794511413,-21659.488577781747,-23781.3620306685,16244.510262550148,7182.531915012827,38723.41379206345,43120.6277752671,0.0,0.0,0.0,193.0,0.0,192.0,0.0,17.0,0.0,178.0,192.0,17.0,178.0,1744418799.1969059,0.0,2025-04-11 20:46:39.196,RIGHT,34
36.0,8214.131976858615,-12126.581326315561,-21688.545845573648,-23753.534108821645,16130.069330938975,7397.220420506052,38495.5377573416,43166.985293267404,0.0,0.0,0.0,193.0,0.0,193.0,0.0,17.0,0.0,179.0,193.0,17.0,179.0,1744418799.1969397,0.0,2025-04-11 20:46:39.196,RIGHT,34
37.0,8233.95797419047,-12096.495878278718,-21659.466226037293,-23742.447643571813,16141.066389210986,7562.399812030771,38310.06298185146,43257.73337575595,0.0,0.0,0.0,193.0,0.0,193.0,0.0,17.0,0.0,179.0,193.0,17.0,179.0,1744418799.1969748,0.0,2025-04-11 20:46:39.196,RIGHT,34
38.0,8215.808357692762,-12131.722227540282,-21631.392435001428,-23775.394114898936,16320.41678672037,7450.149351376218,38623.07681120358,43263.678939781064,0.0,0.0,0.0,193.0,0.0,193.0,0.0,17.0,0.0,179.0,193.0,17.0,179.0,1744418799.1970139,0.0,2025-04-11 20:46:39.197,RIGHT,34
39.0,8218.803491449773,-12141.601698589528,-21666.864653451998,-23794.080173263574,16260.514111580147,7200.323903599251,38763.132841960534,43128.54029280428,0.0,0.0,0.0,193.0,0.0,193.0,0.0,17.0,0.0,179.0,193.0,17.0,179.0,1744418799.1970477,0.0,2025-04-11 20:46:39.197,RIGHT,34
40.0,8226.067808397747,-12118.713512267293,-21692.457400853327,-23757.043332701127,16135.43374960825,7347.532492581903,38564.023502352655,43154.64713032808,0.0,0.0,0.0,193.0,0.0,193.0,0.0,17.0,0.0,179.0,193.0,17.0,179.0,1744418799.197081,0.0,2025-04-11 20:46:39.197,RIGHT,34
41.0,8234.695581757496,-12098.82045970207,-21666.015287162696,-23732.814041711576,16105.258894593586,7558.197684073172,38332.213560606666,43273.200782919026,0.0,0.0,0.0,193.0,0.0,193.0,0.0,17.0,0.0,178.0,193.0,17.0,178.0,1744418799.1971147,0.0,2025-04-11 20:46:39.197,RIGHT,34
42.0,8226.090160142203,-12114.801956987616,-21618.18255402834,-23753.22118439927,16277.523789110637,7478.871343001288,38552.422946980354,43293.250297695435,0.0,0.0,0.0,193.0,0.0,193.0,0.0,17.0,0.0,178.0,193.0,17.0,178.0,1744418799.1971483,0.0,2025-04-11 20:46:39.197,RIGHT,34
43.0,8210.734511701407,-12121.35101811302,-21648.268002065182,-23789.90039705043,16271.444114618793,7210.963333959978,38778.57789737915,43169.19811596848,0.0,0.0,0.0,193.0,0.0,193.0,0.0,17.0,0.0,179.0,193.0,17.0,179.0,1744418799.1971824,0.0,2025-04-11 20:46:39.197,RIGHT,34
44.0,8214.042569880792,-12117.752387255716,-21682.443819337346,-23761.02194321417,16135.366694374883,7284.545276706848,38612.8620639875,43131.848350983666,0.0,0.0,0.0,193.0,0.0,192.0,0.0,17.0,0.0,178.0,192.0,17.0,178.0,1744418799.1972237,0.0,2025-04-11 20:46:39.197,RIGHT,34
45.0,8235.00850617987,-12096.071195134067,-21673.614880277502,-23733.26107660068,16071.105429065876,7528.671029647712,38347.72567125865,43231.246558576415,0.0,0.0,0.0,193.0,0.0,193.0,0.0,17.0,0.0,179.0,193.0,17.0,179.0,1744418799.1972744,0.0,2025-04-11 20:46:39.197,RIGHT,34
46.0,8241.736381260918,-12094.216000344277,-21615.165068526872,-23735.40684406839,16246.20899512875,7496.752738565534,38467.329855839,43249.642044263135,0.0,0.0,0.0,193.0,0.0,193.0,0.0,17.0,0.0,179.0,193.0,17.0,179.0,1744418799.1973069,0.0,2025-04-11 20:46:39.197,RIGHT,34
47.0,8214.780177447818,-12130.649343806428,-21645.786958430643,-23788.916920294396,16296.343957942005,7270.15075327763,38783.763502092785,43165.71124383345,0.0,0.0,0.0,193.0,0.0,192.0,0.0,17.0,0.0,179.0,192.0,17.0,179.0,1744418799.1973398,0.0,2025-04-11 20:46:39.197,RIGHT,34
48.0,8221.128072873125,-12116.701855266316,-21673.637232021956,-23762.541861837133,16180.740735619156,7256.963224048999,38650.27888420569,43089.20122256294,0.0,0.0,0.0,193.0,0.0,193.0,0.0,17.0,0.0,178.0,193.0,17.0,178.0,1744418799.1973753,0.0,2025-04-11 20:46:39.197,RIGHT,34
49.0,8222.558584518265,-12098.641645746427,-21684.991918205254,-23734.669236501366,16106.622351005359,7535.018925073019,38402.487445174156,43213.476921734444,0.0,0.0,0.0,193.0,0.0,193.0,0.0,17.0,0.0,179.0,193.0,17.0,179.0,1744418799.197422,0.0,2025-04-11 20:46:39.197,RIGHT,34
50.0,8219.831671694717,-12121.529832068663,-21646.703379953313,-23752.014190198683,16210.848535400455,7554.7331636826,38445.961588139726,43272.016140462896,0.0,0.0,0.0,193.0,0.0,193.0,0.0,17.0,0.0,179.0,193.0,17.0,179.0,1744418799.1974564,0.0,2025-04-11 20:46:39.197,RIGHT,34
51.0,8203.604305220164,-12162.008841277224,-21647.329228798062,-23801.500952422735,16293.549989885092,7327.281812105395,38797.39806621052,43213.767494412365,0.0,0.0,0.0,193.0,0.0,193.0,0.0,17.0,0.0,178.0,193.0,17.0,178.0,1744418799.1974893,0.0,2025-04-11 20:46:39.197,RIGHT,34
52.0,8218.91525017205,-12137.220756676288,-21665.85882495151,-23775.192949198838,16190.128468290386,7212.684418283036,38702.55961448665,43086.56371671721,0.0,0.0,0.0,193.0,0.0,193.0,0.0,17.0,0.0,179.0,193.0,17.0,179.0,1744418799.1975217,0.0,2025-04-11 20:46:39.197,RIGHT,34
53.0,8232.080427656225,-12111.78447148615,-21684.276662382683,-23744.23578312824,16105.549467271505,7486.1580116937175,38436.97618686869,43180.23987772941,0.0,0.0,0.0,193.0,0.0,193.0,0.0,17.0,0.0,179.0,193.0,17.0,179.0,1744418799.1975536,0.0,2025-04-11 20:46:39.197,RIGHT,34
54.0,8246.63141329663,-12099.267494591177,-21639.886097894443,-23736.345617335515,16213.35193077945,7552.497989237069,38354.386491106336,43231.55948299879,0.0,0.0,0.0,193.0,0.0,192.0,0.0,17.0,0.0,178.0,192.0,17.0,178.0,1744418799.1975856,0.0,2025-04-11 20:46:39.197,RIGHT,34
55.0,8211.650933224075,-12141.44523637834,-21639.43906300534,-23782.65843184691,16358.95119416132,7381.149516242685,38725.98424267581,43193.44975870249,0.0,0.0,0.0,193.0,0.0,193.0,0.0,17.0,0.0,179.0,193.0,17.0,179.0,1744418799.1976178,0.0,2025-04-11 20:46:39.197,RIGHT,34
56.0,8206.755901188362,-12146.474378880785,-21677.705249512823,-23793.230806974272,16234.608439756446,7199.51924079886,38722.56442577415,43051.62794013357,0.0,0.0,0.0,193.0,0.0,193.0,0.0,17.0,0.0,179.0,193.0,17.0,179.0,1744418799.1976497,0.0,2025-04-11 20:46:39.197,RIGHT,34
57.0,8229.509977043865,-12103.626084759962,-21686.936519972864,-23747.07445467406,16109.930409184744,7440.314583815883,38475.37648384291,43135.335223118695,0.0,0.0,0.0,193.0,0.0,192.0,0.0,17.0,0.0,178.0,192.0,17.0,178.0,1744418799.197682,0.0,2025-04-11 20:46:39.197,RIGHT,34
58.0,8252.509922088377,-12088.315139808075,-21642.814176418087,-23720.721747961255,16155.013877751098,7568.054803377963,38325.508037270076,43216.919090380565,0.0,0.0,0.0,193.0,0.0,193.0,0.0,17.0,0.0,179.0,193.0,17.0,179.0,1744418799.1977515,0.0,2025-04-11 20:46:39.197,RIGHT,34
59.0,8218.401160049578,-12137.488977609752,-21627.123251810463,-23764.17353918237,16325.915315856377,7447.131865874751,38688.09803582407,43226.351526540704,0.0,0.0,0.0,193.0,0.0,193.0,0.0,17.0,0.0,179.0,193.0,17.0,179.0,1744418799.1978033,0.0,2025-04-11 20:46:39.197,RIGHT,34
60.0,8224.883165941616,-12128.011837960701,-21655.800539946624,-23773.00247824222,16262.592823814492,7231.102255714209,38755.71206280137,43080.52874571428,0.0,0.0,0.0,193.0,0.0,193.0,0.0,17.0,0.0,179.0,193.0,17.0,179.0,1744418799.197877,0.0,2025-04-11 20:46:39.197,RIGHT,34
61.0,8228.258279354368,-12108.96815168478,-21678.755781502223,-23734.848050457007,16145.827310779967,7439.912252415687,38529.62416763594,43131.289557372285,0.0,0.0,0.0,193.0,0.0,193.0,0.0,17.0,0.0,178.0,193.0,17.0,178.0,1744418799.1979103,0.0,2025-04-11 20:46:39.197,RIGHT,34
62.0,8238.093046914702,-12091.287921820633,-21651.263135822195,-23718.30775956008,16140.14996768832,7611.327780643437,38318.33312729992,43232.989994643925,0.0,0.0,0.0,193.0,0.0,193.0,0.0,17.0,0.0,179.0,193.0,17.0,179.0,1744418799.1979425,0.0,2025-04-11 20:46:39.197,RIGHT,34
63.0,8222.044494395792,-12126.201346659822,-21620.70830115179,-23753.243536143727,16307.631588891934,7506.363988681315,38607.89997671843,43252.570122786776,0.0,0.0,0.0,193.0,0.0,193.0,0.0,17.0,0.0,180.0,193.0,17.0,180.0,1744418799.1979747,0.0,2025-04-11 20:46:39.197,RIGHT,34
64.0,8223.631468252119,-12133.465663607796,-21645.04935086362,-23775.79644629913,16254.50149232167,7232.644526081625,38760.2494669258,43104.422760537,0.0,0.0,0.0,193.0,0.0,193.0,0.0,17.0,0.0,179.0,193.0,17.0,179.0,1744418799.1980212,0.0,2025-04-11 20:46:39.198,RIGHT,34
65.0,8228.01241016536,-12110.599829030018,-21672.564348288102,-23741.598277282512,16136.126653686364,7367.626710847225,38572.47246175676,43112.37998156309,0.0,0.0,0.0,193.0,0.0,193.0,0.0,17.0,0.0,179.0,193.0,17.0,179.0,1744418799.1980531,0.0,2025-04-11 20:46:39.198,RIGHT,34
66.0,8246.542006318808,-12090.438555531331,-21654.839414935042,-23721.660521228376,16114.065481908976,7579.744765728089,38327.85497043788,43224.89866315111,0.0,0.0,0.0,193.0,0.0,193.0,0.0,17.0,0.0,179.0,193.0,17.0,179.0,1744418799.1980853,0.0,2025-04-11 20:46:39.198,RIGHT,34
67.0,8235.164968391058,-12117.081834922057,-21614.27099874866,-23744.16872789487,16280.675385078835,7520.110311521329,38539.32482472954,43254.51472455439,0.0,0.0,0.0,193.0,0.0,193.0,0.0,17.0,0.0,179.0,193.0,17.0,179.0,1744418799.198117,0.0,2025-04-11 20:46:39.198,RIGHT,34
68.0,8224.659648497063,-12129.464701350296,-21645.876365408465,-23791.04033601765,16280.787143801112,7256.404430437617,38790.53608066274,43138.71033653145,0.0,0.0,0.0,193.0,0.0,193.0,0.0,17.0,0.0,179.0,193.0,17.0,179.0,1744418799.1981487,0.0,2025-04-11 20:46:39.198,RIGHT,34
69.0,8230.292288099801,-12105.615390016485,-21660.650868493423,-23747.74500700772,16174.8175233385,7295.072948345298,38618.24883440123,43088.03893185126,0.0,0.0,0.0,193.0,0.0,193.0,0.0,17.0,0.0,179.0,193.0,17.0,179.0,1744418799.198181,0.0,2025-04-11 20:46:39.198,RIGHT,34
70.0,8228.30298284328,-12095.62416024496,-21659.041542892643,-23717.45839327078,16125.129595414353,7559.7623061850445,38362.477822599154,43211.73348566693,0.0,0.0,0.0,193.0,0.0,192.0,0.0,17.0,0.0,179.0,192.0,17.0,179.0,1744418799.1982124,0.0,2025-04-11 20:46:39.198,RIGHT,34
71.0,8220.926907173027,-12111.136270896945,-21623.41286223088,-23737.910239447385,16281.815324046056,7540.696268164667,38470.66026576284,43259.32034961228,0.0,0.0,0.0,193.0,0.0,193.0,0.0,17.0,0.0,179.0,193.0,17.0,179.0,1744418799.1982453,0.0,2025-04-11 20:46:39.198,RIGHT,34
72.0,8216.05422688177,-12136.505500853718,-21633.784071658145,-23772.488388119746,16349.384647534449,7304.259515316429,38783.98701953734,43180.150470751585,0.0,0.0,0.0,193.0,0.0,193.0,0.0,17.0,0.0,179.0,193.0,17.0,179.0,1744418799.1982775,0.0,2025-04-11 20:46:39.198,RIGHT,34
73.0,8210.600401234675,-12133.242146163244,-21663.53424352816,-23754.51758557768,16216.59293372547,7262.662918885103,38661.79003260017,43091.54815573074,0.0,0.0,0.0,193.0,0.0,193.0,0.0,17.0,0.0,179.0,193.0,17.0,179.0,1744418799.198309,0.0,2025-04-11 20:46:39.198,RIGHT,34
74.0,8227.230099109423,-12096.406471300897,-21657.499272525227,-23718.531277004633,16124.213173891685,7526.30174473545,38390.08222700146,43199.7976541278,0.0,0.0,0.0,193.0,0.0,193.0,0.0,17.0,0.0,179.0,193.0,17.0,179.0,1744418799.198341,0.0,2025-04-11 20:46:39.198,RIGHT,34
75.0,8229.934660188515,-12098.932218424347,-21618.540181939625,-23724.678006729842,16235.770730468123,7546.463018234136,38398.19591023873,43253.59830303172,0.0,0.0,0.0,193.0,0.0,193.0,0.0,17.0,0.0,179.0,193.0,17.0,179.0,1744418799.198387,0.0,2025-04-11 20:46:39.198,RIGHT,34
76.0,8198.351645273167,-12151.347059172042,-21638.880269393954,-23784.401867914425,16326.742330401223,7343.732696024501,38771.98413276483,43211.331154266736,0.0,0.0,0.0,193.0,0.0,193.0,0.0,17.0,0.0,179.0,193.0,17.0,179.0,1744418799.198419,0.0,2025-04-11 20:46:39.198,RIGHT,34
77.0,8205.57125873223,-12138.315992154598,-21674.57600528908,-23777.94221376684,16206.959331865231,7221.222784664963,38701.57613773062,43086.0719783392,0.0,0.0,0.0,193.0,0.0,193.0,0.0,17.0,0.0,179.0,193.0,17.0,179.0,1744418799.1984508,0.0,2025-04-11 20:46:39.198,RIGHT,34
78.0,8219.988133905905,-12104.028416160158,-21683.159075159918,-23740.726559248753,16097.301673567496,7474.222180154584,38442.22884681569,43177.78118583932,0.0,0.0,0.0,193.0,0.0,193.0,0.0,17.0,0.0,179.0,193.0,17.0,179.0,1744418799.1984828,0.0,2025-04-11 20:46:39.198,RIGHT,34
79.0,8239.836482982217,-12092.852543932504,-21629.17961230035,-23723.046329384608,16179.734907118667,7558.197684073172,38350.318473615465,43247.45157330651,0.0,0.0,0.0,193.0,0.0,193.0,0.0,17.0,0.0,179.0,193.0,17.0,179.0,1744418799.198527,0.0,2025-04-11 20:46:39.198,RIGHT,34
80.0,8219.921078672538,-12131.454006606818,-21620.32832149605,-23764.397056626924,16334.051350838108,7408.977438089542,38731.90745495647,43231.98416614344,0.0,0.0,0.0,193.0,0.0,193.0,0.0,17.0,0.0,178.0,193.0,17.0,178.0,1744418799.198559,0.0,2025-04-11 20:46:39.198,RIGHT,34
81.0,8215.361322803656,-12128.838852505549,-21655.398208546427,-23767.101617706016,16213.866020901922,7226.609555078692,38743.82093475115,43091.59285921966,0.0,0.0,0.0,193.0,0.0,193.0,0.0,17.0,0.0,179.0,193.0,17.0,179.0,1744418799.1985908,0.0,2025-04-11 20:46:39.198,RIGHT,34
82.0,8214.646066981086,-12107.694102250827,-21678.554615802124,-23739.541916792623,16100.453269535694,7471.137639419751,38507.898272025384,43169.84631655768,0.0,0.0,0.0,193.0,0.0,193.0,0.0,17.0,0.0,179.0,193.0,17.0,179.0,1744418799.1986225,0.0,2025-04-11 20:46:39.198,RIGHT,34
83.0,8245.044439440304,-12083.800087428104,-21636.28746703714,-23723.31455031807,16164.178092977774,7599.280190382027,38334.806362963485,43241.41660230358,0.0,0.0,0.0,193.0,0.0,193.0,0.0,17.0,0.0,178.0,193.0,17.0,178.0,1744418799.1986542,0.0,2025-04-11 20:46:39.198,RIGHT,34
84.0,8216.970648404438,-12129.084721694557,-21624.03871107563,-23767.772170039676,16351.798635935622,7481.777069780478,38691.98723935929,43250.29024485234,0.0,0.0,0.0,193.0,0.0,193.0,0.0,17.0,0.0,179.0,193.0,17.0,179.0,1744418799.198686,0.0,2025-04-11 20:46:39.198,RIGHT,34
85.0,8205.414796521043,-12136.416093875898,-21665.411790062404,-23788.38047842747,16269.991251229198,7231.057552225298,38783.49528115932,43103.662801225524,0.0,0.0,0.0,193.0,0.0,193.0,0.0,17.0,0.0,179.0,193.0,17.0,179.0,1744418799.1987295,0.0,2025-04-11 20:46:39.198,RIGHT,34
86.0,8213.841404180695,-12116.187765143844,-21689.10463918503,-23759.122044935473,16132.550374573515,7396.840440850311,38559.843726139516,43127.82503698171,0.0,0.0,0.0,193.0,0.0,193.0,0.0,17.0,0.0,179.0,193.0,17.0,179.0,1744418799.1987617,0.0,2025-04-11 20:46:39.198,RIGHT,34
87.0,8228.951183432482,-12097.38994805693,-21665.657659251414,-23746.69447501832,16121.441557579228,7574.134477869807,38335.856894952885,43220.2495003044,0.0,0.0,0.0,193.0,0.0,193.0,0.0,17.0,0.0,179.0,193.0,17.0,179.0,1744418799.1987936,0.0,2025-04-11 20:46:39.198,RIGHT,34
88.0,8227.76654097635,-12121.909811724403,-21621.244743018717,-23764.017076971184,16292.32064394005,7484.459279115114,38591.67261024387,43218.26019504788,0.0,0.0,0.0,193.0,0.0,193.0,0.0,17.0,0.0,179.0,193.0,17.0,179.0,1744418799.1988254,0.0,2025-04-11 20:46:39.198,RIGHT,34
89.0,8223.407950807567,-12134.918526997391,-21653.85593817901,-23787.106428993517,16261.922271480833,7234.6338313381475,38779.33785669063,43081.89220212605,0.0,0.0,0.0,193.0,0.0,193.0,0.0,17.0,0.0,178.0,193.0,17.0,178.0,1744418799.1988573,0.0,2025-04-11 20:46:39.198,RIGHT,34
90.0,8221.329238573222,-12117.908849466903,-21688.992880462753,-23756.104559434007,16122.38033084635,7352.472228106526,38598.3110783471,43082.67451318199,0.0,0.0,0.0,193.0,0.0,193.0,0.0,17.0,0.0,179.0,193.0,17.0,179.0,1744418799.198904,0.0,2025-04-11 20:46:39.198,RIGHT,34
91.0,8246.273785385345,-12077.496895491708,-21666.216452862795,-23718.464221771268,16055.883891091811,7584.148059385784,38337.28740659802,43192.77920636883,0.0,0.0,0.0,193.0,0.0,193.0,0.0,17.0,0.0,179.0,193.0,17.0,179.0,1744418799.198936,0.0,2025-04-11 20:46:39.198,RIGHT,34
92.0,8238.696544014996,-12102.597904515018,-21620.350673240504,-23739.385454581436,16244.040875916586,7537.701134407656,38529.33359495802,43232.431201032545,0.0,0.0,0.0,193.0,0.0,193.0,0.0,17.0,0.0,178.0,193.0,17.0,178.0,1744418799.1989677,0.0,2025-04-11 20:46:39.198,RIGHT,34
93.0,8223.832633952217,-12135.052637464123,-21651.33019105556,-23790.258024961713,16280.585978101013,7293.240105299963,38813.55837745171,43144.49943834537,0.0,0.0,0.0,193.0,0.0,193.0,0.0,17.0,0.0,179.0,193.0,17.0,179.0,1744418799.1989994,0.0,2025-04-11 20:46:39.198,RIGHT,34
94.0,8229.040590410303,-12118.110015167,-21676.900586712432,-23760.776074025165,16165.385087178362,7320.956268424544,38657.09616626456,43096.890222655566,0.0,0.0,0.0,193.0,0.0,192.0,0.0,17.0,0.0,178.0,192.0,17.0,178.0,1744418799.1990445,0.0,2025-04-11 20:46:39.199,RIGHT,34
95.0,8247.145503419102,-12086.839924674026,-21670.48563605376,-23729.282466087636,16095.111202610875,7576.883742437809,38385.18719496574,43213.05223858979,0.0,0.0,0.0,193.0,0.0,192.0,0.0,17.0,0.0,179.0,192.0,17.0,179.0,1744418799.1990762,0.0,2025-04-11 20:46:39.199,RIGHT,34
96.0,8257.092029701715,-12089.410375286387,-21615.99208307172,-23734.423367312356,16230.383960054394,7559.382326529304,38466.636951760884,43263.969512458985,0.0,0.0,0.0,193.0,0.0,193.0,0.0,17.0,0.0,179.0,193.0,17.0,179.0,1744418799.199108,0.0,2025-04-11 20:46:39.199,RIGHT,34
97.0,8235.701410257985,-12132.504538596218,-21637.583868215548,-23783.127818480472,16284.877513036432,7312.082625875786,38803.56714768019,43198.61301167167,0.0,0.0,0.0,193.0,0.0,193.0,0.0,17.0,0.0,178.0,193.0,17.0,178.0,1744418799.6732612,0.0,2025-04-11 20:46:39.673,RIGHT,34
98.0,8235.030857924326,-12120.188727401344,-21668.026944163674,-23766.18519618335,16182.640633897858,7243.5521773758155,38686.46635847883,43100.84648142415,0.0,0.0,0.0,193.0,0.0,193.0,0.0,17.0,0.0,179.0,193.0,17.0,179.0,1744418799.6734636,0.0,2025-04-11 20:46:39.673,RIGHT,34
99.0,8243.904500473083,-12097.59111375703,-21678.24169137975,-23744.280486617146,16093.680690965735,7528.983954070086,38426.02383208559,43210.66060193308,0.0,0.0,0.0,193.0,0.0,193.0,0.0,17.0,0.0,179.0,193.0,17.0,179.0,1744418799.673512,0.0,2025-04-11 20:46:39.673,RIGHT,34
100.0,8259.148390191602,-12099.423956802364,-21631.32537976806,-23737.150280135906,16191.558979935526,7578.448364549681,38395.02196252608,43254.22415187647,0.0,0.0,0.0,193.0,0.0,193.0,0.0,17.0,0.0,179.0,193.0,17.0,179.0,1744418799.6735587,0.0,2025-04-11 20:46:39.673,RIGHT,34
101.0,8239.277689370834,-12131.610468818006,-21626.631513432447,-23773.89654802043,16315.231182006739,7389.911400069166,38767.06674898467,43203.30687800728,0.0,0.0,0.0,193.0,0.0,192.0,0.0,17.0,0.0,179.0,192.0,17.0,179.0,1744418799.6736042,0.0,2025-04-11 20:46:39.673,RIGHT,34
102.0,8236.975459691937,-12123.027398947168,-21663.62365050598,-23768.018039228686,16198.532724205581,7249.475389656472,38725.53720778671,43073.01855957729,0.0,0.0,0.0,193.0,0.0,193.0,0.0,17.0,0.0,179.0,193.0,17.0,179.0,1744418799.67365,0.0,2025-04-11 20:46:39.673,RIGHT,34
103.0,8246.743172018907,-12091.802011943104,-21675.20185413383,-23732.07643414455,16099.648606735303,7509.023846271497,38468.64860876186,43162.06790948724,0.0,0.0,0.0,193.0,0.0,193.0,0.0,17.0,0.0,178.0,193.0,17.0,178.0,1744418799.6737323,0.0,2025-04-11 20:46:39.673,RIGHT,34
104.0,8258.097858202203,-12084.381232783942,-21632.822946646567,-23723.493364273712,16178.304395473528,7604.93518172922,38366.52348834556,43236.566273756776,0.0,0.0,0.0,193.0,0.0,193.0,0.0,17.0,0.0,179.0,193.0,17.0,179.0,1744418799.673782,0.0,2025-04-11 20:46:39.673,RIGHT,34
105.0,8225.86664269765,-12130.761102528704,-21629.98427510074,-23776.869330032987,16322.651961165902,7446.818941452378,38747.10664118608,43219.780113670844,0.0,0.0,0.0,193.0,0.0,192.0,0.0,17.0,0.0,178.0,192.0,17.0,178.0,1744418799.6738763,0.0,2025-04-11 20:46:39.673,RIGHT,34
106.0,8234.62852652413,-12123.273268136176,-21659.913260926398,-23780.80323705712,16208.881581888389,7224.150863188608,38770.73243507534,43062.5132396833,0.0,0.0,0.0,193.0,0.0,193.0,0.0,17.0,0.0,179.0,193.0,17.0,179.0,1744418799.6739173,0.0,2025-04-11 20:46:39.673,RIGHT,34
107.0,8230.605212522176,-12116.791262244138,-21684.00844144922,-23753.578812310556,16088.651548463291,7442.907386172698,38540.66592939686,43121.81241772323,0.0,0.0,0.0,193.0,0.0,193.0,0.0,17.0,0.0,179.0,193.0,17.0,179.0,1744418799.673958,0.0,2025-04-11 20:46:39.673,RIGHT,34
108.0,8248.084276686224,-12098.127555623956,-21649.832624177056,-23743.386416838937,16129.935220472244,7578.046033149485,38360.01913070907,43213.923956623556,0.0,0.0,0.0,193.0,0.0,193.0,0.0,17.0,0.0,179.0,193.0,17.0,179.0,1744418799.673998,0.0,2025-04-11 20:46:39.673,RIGHT,34
109.0,8232.236889867412,-12126.201346659822,-21622.8540686195,-23778.456303889314,16320.819118120566,7445.321374573872,38674.46347170633,43223.98224162844,0.0,0.0,0.0,193.0,0.0,193.0,0.0,17.0,0.0,179.0,193.0,17.0,179.0,1744418799.6740596,0.0,2025-04-11 20:46:39.674,RIGHT,34
110.0,8234.449712568488,-12129.73292228376,-21652.604240489512,-23792.47084766279,16253.719181265735,7204.23545887893,38783.58468813714,43080.104062569626,0.0,0.0,0.0,193.0,0.0,193.0,0.0,17.0,0.0,179.0,193.0,17.0,179.0,1744418799.6741004,0.0,2025-04-11 20:46:39.674,RIGHT,34
111.0,8244.73151501793,-12109.68340750735,-21667.401095318928,-23743.60993428349,16124.682560525247,7379.294321452895,38571.667798956376,43099.86300466812,0.0,0.0,0.0,193.0,0.0,193.0,0.0,17.0,0.0,179.0,193.0,17.0,179.0,1744418799.6741402,0.0,2025-04-11 20:46:39.674,RIGHT,34
112.0,8263.73049780494,-12083.643625216917,-21642.6577142069,-23723.180439851338,16099.46979277966,7594.541620557502,38335.566322274964,43188.51002317787,0.0,0.0,0.0,193.0,0.0,192.0,0.0,17.0,0.0,178.0,192.0,17.0,178.0,1744418799.6741803,0.0,2025-04-11 20:46:39.674,RIGHT,34
113.0,8256.086201201226,-12108.319951095576,-21604.682100377333,-23746.85093722951,16290.756021828178,7530.839148859876,38586.37524680796,43198.92593609404,0.0,0.0,0.0,193.0,0.0,193.0,0.0,17.0,0.0,179.0,193.0,17.0,179.0,1744418799.67422,0.0,2025-04-11 20:46:39.674,RIGHT,34
114.0,8231.432227067022,-12135.365561886498,-21649.497348010227,-23790.32508019508,16266.437323860804,7273.794087623845,38803.477740702365,43068.03412056376,0.0,0.0,0.0,193.0,0.0,192.0,0.0,17.0,0.0,179.0,192.0,17.0,179.0,1744418799.67426,0.0,2025-04-11 20:46:39.674,RIGHT,34
115.0,8233.510939301364,-12118.199422144822,-21675.738296000756,-23758.295030390625,16142.161624689297,7359.870655521233,38613.532616321165,43036.65227134851,0.0,0.0,0.0,193.0,0.0,193.0,0.0,17.0,0.0,179.0,193.0,17.0,179.0,1744418799.6743004,0.0,2025-04-11 20:46:39.674,RIGHT,34
116.0,8248.911291231072,-12094.640683488928,-21664.584775517556,-23743.051140672105,16090.551446741993,7594.385158346315,38361.82962200995,43160.95032226447,0.0,0.0,0.0,193.0,0.0,192.0,0.0,17.0,0.0,178.0,192.0,17.0,178.0,1744418799.674341,0.0,2025-04-11 20:46:39.674,RIGHT,34
117.0,8250.118285431658,-12107.694102250827,-21616.684987149834,-23757.713885034787,16246.007829428654,7536.8741198628095,38520.01291752016,43200.490558205915,0.0,0.0,0.0,193.0,0.0,193.0,0.0,17.0,0.0,179.0,193.0,17.0,179.0,1744418799.6743813,0.0,2025-04-11 20:46:39.674,RIGHT,34
118.0,8233.175663134536,-12139.701800310828,-21647.463339264792,-23805.144286768947,16272.22642567473,7270.553084677826,38816.01706934179,43103.50633901433,0.0,0.0,0.0,193.0,0.0,193.0,0.0,17.0,0.0,179.0,193.0,17.0,179.0,1744418799.6744215,0.0,2025-04-11 20:46:39.674,RIGHT,34
119.0,8235.29907885779,-12123.563840814095,-21678.6663745244,-23776.75757131071,16116.792394732523,7270.195456766541,38669.05434954815,43035.780553314755,0.0,0.0,0.0,193.0,0.0,192.0,0.0,17.0,0.0,178.0,192.0,17.0,178.0,1744418799.6744623,0.0,2025-04-11 20:46:39.674,RIGHT,34
120.0,8255.01331746737,-12088.2033810858,-21666.90935694091,-23737.41850106937,16055.414504458251,7544.406657744248,38387.19885196672,43136.72103127492,0.0,0.0,0.0,193.0,0.0,193.0,0.0,17.0,0.0,179.0,193.0,17.0,179.0,1744418799.6745217,0.0,2025-04-11 20:46:39.674,RIGHT,34
121.0,8259.684832058529,-12094.551276511107,-21613.354577225993,-23741.061835415585,16240.531652037103,7572.234579591105,38443.48054450519,43173.82492707073,0.0,0.0,0.0,193.0,0.0,192.0,0.0,17.0,0.0,179.0,192.0,17.0,179.0,1744418799.6745625,0.0,2025-04-11 20:46:39.674,RIGHT,34
122.0,8232.90744220107,-12131.610468818006,-21632.934705368843,-23792.29203370715,16349.161130089895,7362.150533455674,38792.838310341634,43102.05347562474,0.0,0.0,0.0,193.0,0.0,193.0,0.0,17.0,0.0,179.0,193.0,17.0,179.0,1744418799.6746025,0.0,2025-04-11 20:46:39.674,RIGHT,34
123.0,8240.06000042677,-12122.423901846874,-21669.23393836426,-23781.3620306685,16212.30139879005,7277.191552781052,38693.75302717126,42991.63585801552,0.0,0.0,0.0,193.0,0.0,193.0,0.0,17.0,0.0,179.0,193.0,17.0,179.0,1744418799.6746428,0.0,2025-04-11 20:46:39.674,RIGHT,34
124.0,8258.231968668935,-12094.640683488928,-21669.323345342083,-23739.810137726086,16104.744804471113,7541.523282709513,38422.76047739512,43091.03406560828,0.0,0.0,0.0,193.0,0.0,192.0,0.0,17.0,0.0,179.0,192.0,17.0,179.0,1744418799.6746993,0.0,2025-04-11 20:46:39.674,RIGHT,34
125.0,8271.933588020038,-12089.946817153314,-21619.99304532922,-23731.987027166728,16200.96906435121,7599.280190382027,38383.28729668704,43149.8862087591,0.0,0.0,0.0,193.0,0.0,193.0,0.0,17.0,0.0,179.0,193.0,17.0,179.0,1744418799.67474,0.0,2025-04-11 20:46:39.674,RIGHT,34
126.0,8251.504093587888,-12130.090550195046,-21626.60916168799,-23786.212359215304,16322.853126865999,7408.575106689347,38760.2494669258,43120.784237478285,0.0,0.0,0.0,193.0,0.0,192.0,0.0,17.0,0.0,178.0,192.0,17.0,178.0,1744418799.67478,0.0,2025-04-11 20:46:39.674,RIGHT,34
127.0,8249.000698208893,-12123.54148906964,-21663.757760972712,-23785.877083048475,16206.244076042662,7240.199415707519,38721.9385769294,42990.31710509266,0.0,0.0,0.0,193.0,0.0,193.0,0.0,17.0,0.0,179.0,193.0,17.0,179.0,1744418799.6748211,0.0,2025-04-11 20:46:39.674,RIGHT,34
128.0,8254.275709900345,-12091.600846243007,-21678.152284401927,-23754.47288208877,16090.573798486448,7489.086090217364,38469.095643650966,43079.38880674706,0.0,0.0,0.0,193.0,0.0,193.0,0.0,17.0,0.0,179.0,193.0,17.0,179.0,1744418799.674862,0.0,2025-04-11 20:46:39.674,RIGHT,34
129.0,8267.597349595708,-12083.598921728006,-21631.303028023605,-23738.98312318124,16148.755389303613,7593.647550779289,38351.301950371504,43165.890057789096,0.0,0.0,0.0,193.0,0.0,193.0,0.0,17.0,0.0,179.0,193.0,17.0,179.0,1744418799.6749024,0.0,2025-04-11 20:46:39.674,RIGHT,34
130.0,8246.452599340988,-12122.893288480436,-21613.242818503717,-23778.299841678127,16302.669501622857,7443.8908629287325,38715.031887892714,43172.41676717005,0.0,0.0,0.0,193.0,0.0,193.0,0.0,17.0,0.0,178.0,193.0,17.0,178.0,1744418799.6749449,0.0,2025-04-11 20:46:39.674,RIGHT,34
131.0,8247.30196563029,-12121.842756491036,-21642.76947292918,-23785.18417897036,16204.21006729723,7228.57650859076,38757.65666456898,43033.76889631378,0.0,0.0,0.0,193.0,0.0,193.0,0.0,17.0,0.0,179.0,193.0,17.0,179.0,1744418799.6749864,0.0,2025-04-11 20:46:39.674,RIGHT,34
132.0,8246.20673015198,-12104.050767904613,-21667.691667996845,-23750.22605064226,16083.711812938669,7435.978345391553,38528.28306296862,43096.08555985517,0.0,0.0,0.0,193.0,0.0,193.0,0.0,17.0,0.0,178.0,193.0,17.0,178.0,1744418799.67503,0.0,2025-04-11 20:46:39.675,RIGHT,34
133.0,8256.44382911251,-12094.953607911302,-21643.238859562738,-23740.03365517064,16098.799240446002,7584.863315208354,38334.11345888537,43195.50611919238,0.0,0.0,0.0,193.0,0.0,193.0,0.0,17.0,0.0,179.0,193.0,17.0,179.0,1744418799.6750734,0.0,2025-04-11 20:46:39.675,RIGHT,34
134.0,8248.553663319786,-12127.408340860407,-21607.788992856622,-23770.90141426342,16293.527638140637,7474.937435977154,38642.053442246135,43208.380723998634,0.0,0.0,0.0,193.0,0.0,193.0,0.0,17.0,0.0,179.0,193.0,17.0,179.0,1744418799.6751173,0.0,2025-04-11 20:46:39.675,RIGHT,34
135.0,8260.265977414367,-12124.323800125576,-21635.929839125853,-23785.18417897036,16239.302306092062,7217.892374741123,38768.60901935209,43066.17892577397,0.0,0.0,0.0,193.0,0.0,193.0,0.0,17.0,0.0,179.0,193.0,17.0,179.0,1744418799.6751833,0.0,2025-04-11 20:46:39.675,RIGHT,34
136.0,8256.332070390234,-12104.609561515996,-21667.423447063382,-23754.830510000054,16107.270551594562,7368.610187603258,38567.175098320855,43086.474309739395,0.0,0.0,0.0,193.0,0.0,193.0,0.0,17.0,0.0,179.0,193.0,17.0,179.0,1744418799.6752467,0.0,2025-04-11 20:46:39.675,RIGHT,34
137.0,8274.63814909913,-12075.328776279543,-21648.022132876176,-23733.730463234242,16067.79737088649,7575.83321044841,38330.00073790559,43194.79086336981,0.0,0.0,0.0,193.0,0.0,193.0,0.0,17.0,0.0,179.0,193.0,17.0,179.0,1744418799.675295,0.0,2025-04-11 20:46:39.675,RIGHT,34
138.0,8261.092991959214,-12106.531811539151,-21612.08052779204,-23757.020980956673,16253.093332420985,7511.840166072866,38566.906877387395,43232.36414579918,0.0,0.0,0.0,193.0,0.0,193.0,0.0,17.0,0.0,179.0,193.0,17.0,179.0,1744418799.6753438,0.0,2025-04-11 20:46:39.675,RIGHT,34
139.0,8248.799532508794,-12130.69404729534,-21633.22527804676,-23787.486408649256,16260.044724946587,7264.942796819544,38788.74794110632,43123.041763668276,0.0,0.0,0.0,193.0,0.0,193.0,0.0,17.0,0.0,179.0,193.0,17.0,179.0,1744418799.675799,0.0,2025-04-11 20:46:39.675,RIGHT,34
140.0,8245.424419096043,-12119.78639600115,-21662.148435371928,-23754.115254177483,16156.019706251587,7349.700611794068,38619.25466290172,43101.852309924645,0.0,0.0,0.0,193.0,0.0,193.0,0.0,17.0,0.0,179.0,193.0,17.0,179.0,1744418799.6758637,0.0,2025-04-11 20:46:39.675,RIGHT,34
141.0,8262.747021048906,-12088.762174697182,-21653.23008933426,-23729.5506870211,16106.845868449911,7586.919675698242,38350.810211993485,43206.97256409795,0.0,0.0,0.0,193.0,0.0,193.0,0.0,17.0,0.0,179.0,193.0,17.0,179.0,1744418799.6759195,0.0,2025-04-11 20:46:39.675,RIGHT,34
142.0,8271.44184964202,-12092.651378232405,-21593.61798687196,-23737.709073747286,16269.678326806823,7566.512533010547,38483.19959440227,43245.05993664979,0.0,0.0,0.0,193.0,0.0,193.0,0.0,17.0,0.0,179.0,193.0,17.0,179.0,1744418799.6759698,0.0,2025-04-11 20:46:39.675,RIGHT,34
143.0,8256.801457023796,-12115.919544210381,-21615.56739992707,-23778.74687656723,16307.56453365857,7338.748257010968,38788.926755061955,43167.7899560678,0.0,0.0,0.0,193.0,0.0,193.0,0.0,17.0,0.0,179.0,193.0,17.0,179.0,1744418799.676022,0.0,2025-04-11 20:46:39.676,RIGHT,34
144.0,8259.483666358432,-12102.754366726205,-21655.509967268703,-23753.690571032832,16172.29177621505,7317.759968967434,38639.63945384496,43083.27801028228,0.0,0.0,0.0,193.0,0.0,193.0,0.0,17.0,0.0,179.0,193.0,17.0,179.0,1744418799.676082,0.0,2025-04-11 20:46:39.676,RIGHT,34
145.0,8272.648843842608,-12084.560046739585,-21660.293240582138,-23728.74602422071,16094.999443888599,7584.93037044172,38375.08420647195,43198.3447907382,0.0,0.0,0.0,193.0,0.0,193.0,0.0,17.0,0.0,179.0,193.0,17.0,179.0,1744418799.676139,0.0,2025-04-11 20:46:39.676,RIGHT,34
146.0,8272.894713031616,-12092.517267765674,-21612.929894081342,-23739.02782667015,16222.136166350385,7595.189821146706,38407.47188418769,43243.495314537926,0.0,0.0,0.0,193.0,0.0,193.0,0.0,17.0,0.0,179.0,193.0,17.0,179.0,1744418799.676199,0.0,2025-04-11 20:46:39.676,RIGHT,34
147.0,8255.81798026776,-12122.736826269249,-21622.13881279693,-23790.90622555092,16301.864838822466,7362.128181711219,38755.89087675701,43173.95903753746,0.0,0.0,0.0,193.0,0.0,193.0,0.0,17.0,0.0,179.0,193.0,17.0,179.0,1744418799.6763232,0.0,2025-04-11 20:46:39.676,RIGHT,34
148.0,8265.406878639089,-12103.849602204515,-21653.721827712277,-23771.08022821906,16173.275252971085,7250.883549557156,38666.48389893579,43050.532704655256,0.0,0.0,0.0,193.0,0.0,193.0,0.0,17.0,0.0,178.0,193.0,17.0,178.0,1744418799.676376,0.0,2025-04-11 20:46:39.676,RIGHT,34
149.0,8277.387413667133,-12080.939064137825,-21660.248537093226,-23729.997721910207,16081.23076930413,7534.616593672824,38402.86742482989,43152.90369426057,0.0,0.0,0.0,193.0,0.0,193.0,0.0,17.0,0.0,179.0,193.0,17.0,179.0,1744418799.6764207,0.0,2025-04-11 20:46:39.676,RIGHT,34
150.0,8280.561361379787,-12081.430802515843,-21613.823963859555,-23728.880134687442,16173.588177393458,7614.814652778466,38342.137735144825,43215.22035780196,0.0,0.0,0.0,193.0,0.0,193.0,0.0,17.0,0.0,178.0,193.0,17.0,178.0,1744418799.6765127,0.0,2025-04-11 20:46:39.676,RIGHT,34
151.0,8249.023049953348,-12129.867032750491,-21615.94737958281,-23782.636080102457,16303.720033612257,7439.912252415687,38717.91526292745,43188.800595855784,0.0,0.0,0.0,193.0,0.0,192.0,0.0,17.0,0.0,179.0,192.0,17.0,179.0,1744418799.676556,0.0,2025-04-11 20:46:39.676,RIGHT,34
152.0,8260.198922181002,-12118.847622734025,-21648.133891598452,-23774.85767303201,16186.842761855456,7275.96220683601,38702.447855764374,43056.36650995809,0.0,0.0,0.0,193.0,0.0,193.0,0.0,17.0,0.0,179.0,193.0,17.0,179.0,1744418799.6765993,0.0,2025-04-11 20:46:39.676,RIGHT,34
153.0,8272.335919420233,-12087.778697941148,-21669.703324997823,-23740.7042075043,16053.782827113013,7520.132663265785,38451.37071029791,43131.73659226139,0.0,0.0,0.0,193.0,0.0,193.0,0.0,17.0,0.0,179.0,193.0,17.0,179.0,1744418799.6766417,0.0,2025-04-11 20:46:39.676,RIGHT,34
154.0,8294.084166775247,-12065.33754650802,-21626.251533776707,-23726.488498030725,16097.9498741567,7629.7903215635215,38297.3895427453,43199.41767447206,0.0,0.0,0.0,193.0,0.0,193.0,0.0,17.0,0.0,179.0,193.0,17.0,179.0,1744418799.6770248,0.0,2025-04-11 20:46:39.677,RIGHT,34
155.0,8274.928721777049,-12105.235410360743,-21611.588789414025,-23773.538920109146,16270.12536169593,7491.544782107447,38654.68217786338,43202.83749137372,0.0,0.0,0.0,193.0,0.0,193.0,0.0,18.0,0.0,179.0,193.0,18.0,179.0,1744418799.677074,0.0,2025-04-11 20:46:39.677,RIGHT,34
156.0,8280.874285802161,-12105.436576060842,-21645.09405435253,-23788.894568549942,16206.668759187312,7262.931139818566,38718.56346351665,43062.73675712785,0.0,0.0,0.0,193.0,0.0,193.0,0.0,17.0,0.0,179.0,193.0,17.0,179.0,1744418799.677116,0.0,2025-04-11 20:46:39.677,RIGHT,34
157.0,8289.032672528348,-12074.68057569034,-21659.13094987046,-23744.861631972984,16111.673845252259,7451.535159532447,38470.079120407005,43100.175929090496,0.0,0.0,0.0,193.0,0.0,193.0,0.0,17.0,0.0,179.0,193.0,17.0,179.0,1744418799.677156,0.0,2025-04-11 20:46:39.677,RIGHT,34
158.0,8293.681835375051,-12063.10237206249,-21639.66258044989,-23730.154184121395,16125.487223325637,7633.433655909736,38272.534402911,43211.197043800006,0.0,0.0,0.0,193.0,0.0,193.0,0.0,17.0,0.0,179.0,193.0,17.0,179.0,1744418799.677196,0.0,2025-04-11 20:46:39.677,RIGHT,34
159.0,8286.618684127174,-12091.667901476372,-21614.56157142658,-23765.961678738797,16299.249684721195,7528.358105225338,38569.410272766385,43240.99191915893,0.0,0.0,0.0,193.0,0.0,192.0,0.0,17.0,0.0,179.0,192.0,17.0,179.0,1744418799.6772513,0.0,2025-04-11 20:46:39.677,RIGHT,34
160.0,8282.304797447301,-12102.329683581554,-21643.596487474024,-23790.101562750526,16251.908689964856,7246.7261250884685,38701.37497203052,43093.98449587637,0.0,0.0,0.0,193.0,0.0,193.0,0.0,17.0,0.0,179.0,193.0,17.0,179.0,1744418799.677294,0.0,2025-04-11 20:46:39.677,RIGHT,34
161.0,8282.170686980568,-12090.282093320144,-21669.18923487535,-23757.870347245975,16122.29092386853,7366.777344557923,38496.923565497826,43097.8736994116,0.0,0.0,0.0,193.0,0.0,193.0,0.0,17.0,0.0,179.0,193.0,17.0,179.0,1744418799.6773365,0.0,2025-04-11 20:46:39.677,RIGHT,34
162.0,8301.795518612327,-12057.514435948664,-21646.636324719948,-23732.32230333356,16075.128743067831,7586.4726408091365,38246.76284155403,43208.49248272091,0.0,0.0,0.0,193.0,0.0,193.0,0.0,17.0,0.0,179.0,193.0,17.0,179.0,1744418799.677383,0.0,2025-04-11 20:46:39.677,RIGHT,34
163.0,8285.814021326783,-12076.178142568844,-21607.453716689794,-23753.399998354915,16239.279954347607,7527.39698021376,38459.26087609064,43230.77717194286,0.0,0.0,0.0,193.0,0.0,193.0,0.0,17.0,0.0,179.0,193.0,17.0,179.0,1744418799.677441,0.0,2025-04-11 20:46:39.677,RIGHT,34
164.0,8274.25816944339,-12093.0537096326,-21632.264153035183,-23786.055897004117,16237.06713164653,7270.709546889013,38700.86088190805,43112.51409202982,0.0,0.0,0.0,193.0,0.0,193.0,0.0,17.0,0.0,179.0,193.0,17.0,179.0,1744418799.6774948,0.0,2025-04-11 20:46:39.677,RIGHT,34
165.0,8275.487515388431,-12084.895322906414,-21662.19313886084,-23753.757626266197,16114.110185397887,7340.670507034124,38541.42588870834,43075.92428635649,0.0,0.0,0.0,193.0,0.0,193.0,0.0,17.0,0.0,179.0,193.0,17.0,179.0,1744418799.6776133,0.0,2025-04-11 20:46:39.677,RIGHT,34
166.0,8291.111384762691,-12062.878854617937,-21662.215490605297,-23728.298989331604,16060.42129521624,7601.805937505476,38285.25254550607,43188.8452993447,0.0,0.0,0.0,193.0,0.0,192.0,0.0,17.0,0.0,178.0,192.0,17.0,178.0,1744418799.677656,0.0,2025-04-11 20:46:39.677,RIGHT,34
167.0,8296.87813483216,-12067.282148275632,-21618.204905772796,-23737.351445836004,16216.950561636755,7576.637873248801,38389.814006067994,43228.00555563039,0.0,0.0,0.0,193.0,0.0,193.0,0.0,18.0,0.0,179.0,193.0,18.0,179.0,1744418799.6776996,0.0,2025-04-11 20:46:39.677,RIGHT,34
