Sample Index,EXG Channel 0,EXG Channel 1,EXG Channel 2,EXG Channel 3,EXG Channel 4,EXG Channel 5,EXG Channel 6,EXG Channel 7,Accel Channel 0,Accel Channel 1,Accel Channel 2,Not Used,Digital Channel 0 (D11),Digital Channel 1 (D12),Digital Channel 2 (D13),Digital Channel 3 (D17),Not Used,Digital Channel 4 (D18),Analog Channel 0,Analog Channel 1,Analog Channel 2,Timestamp,Marker Channel,Timestamp (Formatted),Stimulus_Direction,Stimulus_Number
132.0,16888.329909840813,24027.588847588166,-31358.290476595223,-19172.253510028542,-34313.749887198195,-25665.63643999534,-14211.172069450864,-30485.633669571125,0.0,0.0,0.0,193.0,0.0,193.0,0.0,1.0,0.0,179.0,193.0,1.0,179.0,1744420656.4049766,0.0,2025-04-11 21:17:36.404,RIGHT,45
133.0,16875.92469166812,24036.08251048118,-31353.238982348324,-19163.871605857803,-34306.66438420587,-25660.964925404183,-14465.557273096714,-30499.111771477674,0.0,0.0,0.0,193.0,0.0,194.0,0.0,1.0,0.0,179.0,194.0,1.0,179.0,1744420656.405018,0.0,2025-04-11 21:17:36.405,RIGHT,45
134.0,16904.11024142626,24046.073740252705,-31352.568430014664,-19157.74722787705,-34304.63037546043,-25668.98920166364,-14101.849687319958,-30445.892267929587,0.0,0.0,0.0,193.0,0.0,193.0,0.0,1.0,0.0,179.0,193.0,1.0,179.0,1744420656.4050596,0.0,2025-04-11 21:17:36.405,RIGHT,45
135.0,16909.58641881781,24031.835679034673,-31366.001828432305,-19179.89780663226,-34321.39418380192,-25681.88615821435,-13840.222518470588,-30485.9465939935,0.0,0.0,0.0,193.0,0.0,193.0,0.0,1.0,0.0,179.0,193.0,1.0,179.0,1744420656.4051013,0.0,2025-04-11 21:17:36.405,RIGHT,45
136.0,16888.531075540912,24026.694777809953,-31361.889107452527,-19169.03485882698,-34311.02297437465,-25659.84733818142,-14150.978821632723,-30490.439294629014,0.0,0.0,0.0,193.0,0.0,193.0,0.0,1.0,0.0,179.0,193.0,1.0,179.0,1744420656.4051423,0.0,2025-04-11 21:17:36.405,RIGHT,45
137.0,16877.35520331326,24038.004760504336,-31347.695749723407,-19153.634506897273,-34291.28638402061,-25638.613180948876,-14427.42519705596,-30457.60458202417,0.0,0.0,0.0,193.0,0.0,193.0,0.0,1.0,0.0,179.0,193.0,1.0,179.0,1744420656.405207,0.0,2025-04-11 21:17:36.405,RIGHT,45
138.0,16891.97324418703,24036.596600603654,-31350.48971778032,-19154.617983653305,-34297.79074165711,-25652.02422762206,-14183.9476447043,-30425.842753153178,0.0,0.0,0.0,193.0,0.0,194.0,0.0,1.0,0.0,179.0,194.0,1.0,179.0,1744420656.4052765,0.0,2025-04-11 21:17:36.405,RIGHT,45
139.0,16905.11606992675,24029.33228365568,-31360.771520229762,-19177.59557695336,-34307.49139875071,-25672.476073798665,-13823.861041529304,-30454.83296571171,0.0,0.0,0.0,193.0,0.0,193.0,0.0,1.0,0.0,179.0,193.0,1.0,179.0,1744420656.4053187,0.0,2025-04-11 21:17:36.405,RIGHT,45
140.0,16885.602997017264,24015.675367793487,-31356.658799249984,-19175.472161230107,-34300.07061959155,-25663.155396360806,-14092.752527326647,-30487.354753894182,0.0,0.0,0.0,193.0,0.0,193.0,0.0,1.0,0.0,179.0,193.0,1.0,179.0,1744420656.40536,0.0,2025-04-11 21:17:36.405,RIGHT,45
141.0,16864.793522929373,24025.308969653724,-31356.278819594245,-19171.784123394984,-34298.88597713542,-25657.858032924898,-14404.715824689369,-30469.942744963497,0.0,0.0,0.0,193.0,0.0,194.0,0.0,1.0,0.0,179.0,194.0,1.0,179.0,1744420656.4054148,0.0,2025-04-11 21:17:36.405,RIGHT,45
142.0,16881.803200459864,24040.284638438778,-31347.449880534397,-19161.61407966782,-34291.01816308715,-25657.500405013612,-14284.642253475458,-30449.714416231447,0.0,0.0,0.0,193.0,0.0,193.0,0.0,1.0,0.0,179.0,193.0,1.0,179.0,1744420656.4054563,0.0,2025-04-11 21:17:36.405,RIGHT,45
143.0,16901.718604769543,24031.76862380131,-31361.039741163226,-19182.870588644815,-34300.763523669666,-25680.053315169018,-13815.859117014305,-30429.30727354375,0.0,0.0,0.0,193.0,0.0,194.0,0.0,1.0,0.0,179.0,194.0,1.0,179.0,1744420656.4054978,0.0,2025-04-11 21:17:36.405,RIGHT,45
144.0,16886.608825517753,24015.5189055823,-31359.29630509571,-19187.542103235974,-34296.04730558959,-25671.42554180927,-13999.948084348212,-30481.878576502633,0.0,0.0,0.0,193.0,0.0,193.0,0.0,1.0,0.0,179.0,193.0,1.0,179.0,1744420656.4055524,0.0,2025-04-11 21:17:36.405,RIGHT,45
145.0,16862.647755461665,24030.4722226229,-31355.72002598286,-19176.768562408517,-34293.05217183258,-25660.674352726266,-14358.067734011143,-30465.91943096154,0.0,0.0,0.0,193.0,0.0,194.0,0.0,1.0,0.0,180.0,194.0,1.0,180.0,1744420656.4055924,0.0,2025-04-11 21:17:36.405,RIGHT,45
146.0,16873.756572455954,24039.099995982648,-31348.120432868058,-19169.683059416184,-34290.41466598686,-25664.02711439456,-14366.740210859802,-30460.77852973682,0.0,0.0,0.0,193.0,0.0,194.0,0.0,1.0,0.0,179.0,194.0,1.0,179.0,1744420656.4056463,0.0,2025-04-11 21:17:36.405,RIGHT,45
147.0,16903.86437223725,24039.077644238194,-31357.01642716127,-19178.824922898402,-34298.77421841314,-25683.07080067048,-13872.811361886426,-30431.698910200466,0.0,0.0,0.0,193.0,0.0,193.0,0.0,1.0,0.0,179.0,193.0,1.0,179.0,1744420656.4056869,0.0,2025-04-11 21:17:36.405,RIGHT,45
148.0,16890.90036045317,24022.537353341264,-31360.145671385013,-19188.257359058545,-34299.31066028007,-25674.398323821824,-13943.28641215401,-30479.68810554601,0.0,0.0,0.0,193.0,0.0,194.0,0.0,1.0,0.0,179.0,194.0,1.0,179.0,1744420656.405727,0.0,2025-04-11 21:17:36.405,RIGHT,45
149.0,16868.52626425341,24030.047539478248,-31356.792909716718,-19174.443980985165,-34294.192110799806,-25657.433349780244,-14288.442050032862,-30458.54335529129,0.0,0.0,0.0,193.0,0.0,193.0,0.0,1.0,0.0,179.0,193.0,1.0,179.0,1744420656.4057672,0.0,2025-04-11 21:17:36.405,RIGHT,45
150.0,16879.99270915898,24042.51981288431,-31345.997017144804,-19161.859948856825,-34285.02789557313,-25649.677294454254,-14384.331033746128,-30451.815480210244,0.0,0.0,0.0,193.0,0.0,194.0,0.0,1.0,0.0,179.0,194.0,1.0,179.0,1744420656.405807,0.0,2025-04-11 21:17:36.405,RIGHT,45
151.0,16905.16077341566,24037.982408759883,-31360.771520229762,-19172.924062362203,-34305.5467969831,-25670.687934242244,-13922.499289810574,-30413.9292733585,0.0,0.0,0.0,193.0,0.0,193.0,0.0,1.0,0.0,179.0,193.0,1.0,179.0,1744420656.4058468,0.0,2025-04-11 21:17:36.405,RIGHT,45
152.0,16900.44455533559,24023.163202186013,-31365.26422086528,-19187.720917191615,-34307.670212706355,-25672.498425543123,-13906.115461124833,-30479.665753801557,0.0,0.0,0.0,193.0,0.0,193.0,0.0,1.0,0.0,179.0,193.0,1.0,179.0,1744420656.4058864,0.0,2025-04-11 21:17:36.405,RIGHT,45
153.0,16869.174464842614,24026.739481298864,-31365.44303482092,-19182.51296073353,-34303.4457330043,-25664.4070940503,-14247.985392568755,-30468.936916463008,0.0,0.0,0.0,193.0,0.0,194.0,0.0,1.0,0.0,179.0,194.0,1.0,179.0,1744420656.405939,0.0,2025-04-11 21:17:36.405,RIGHT,45
154.0,16866.648717719167,24031.74627205685,-31356.234116105334,-19173.058172828936,-34297.16489281236,-25656.069893368473,-14436.52235704927,-30464.377160594126,0.0,0.0,0.0,193.0,0.0,193.0,0.0,1.0,0.0,179.0,193.0,1.0,179.0,1744420656.4059794,0.0,2025-04-11 21:17:36.405,RIGHT,45
155.0,16889.20162787457,24035.724882569895,-31367.275877866257,-19180.32248977691,-34313.14639009791,-25677.147588389827,-14022.366884036886,-30426.82622990921,0.0,0.0,0.0,193.0,0.0,193.0,0.0,1.0,0.0,179.0,193.0,1.0,179.0,1744420656.4060192,0.0,2025-04-11 21:17:36.406,RIGHT,45
156.0,16893.3367005988,24021.218600418404,-31373.109683169092,-19196.862780673837,-34317.72849771124,-25683.406076837313,-13886.825905659904,-30486.237166671417,0.0,0.0,0.0,193.0,0.0,193.0,0.0,1.0,0.0,179.0,193.0,1.0,179.0,1744420656.4060707,0.0,2025-04-11 21:17:36.406,RIGHT,45
157.0,16877.690479480087,24015.854181749128,-31369.086369167137,-19186.04453635747,-34310.397125529904,-25667.98337316315,-14201.829040268547,-30469.719227518945,0.0,0.0,0.0,193.0,0.0,193.0,0.0,1.0,0.0,179.0,193.0,1.0,179.0,1744420656.4061112,0.0,2025-04-11 21:17:36.406,RIGHT,45
158.0,16866.604014230255,24032.081548223683,-31360.950334185403,-19180.03191709899,-34301.43407600332,-25663.84830043892,-14446.088903676142,-30465.897079217088,0.0,0.0,0.0,193.0,0.0,194.0,0.0,1.0,0.0,180.0,194.0,1.0,180.0,1744420656.406151,0.0,2025-04-11 21:17:36.406,RIGHT,45
159.0,16886.76528772894,24038.272981437804,-31363.878412709048,-19178.489646731574,-34309.50305575169,-25679.092190157437,-14123.977914330711,-30435.990445135885,0.0,0.0,0.0,193.0,0.0,193.0,0.0,1.0,0.0,179.0,193.0,1.0,179.0,1744420656.406191,0.0,2025-04-11 21:17:36.406,RIGHT,45
160.0,16899.997520446483,24028.974655744394,-31370.628639534552,-19192.99592888307,-34319.78485820113,-25687.89877747283,-13860.003812313535,-30474.636611299113,0.0,0.0,0.0,193.0,0.0,194.0,0.0,1.0,0.0,180.0,194.0,1.0,180.0,1744420656.4062307,0.0,2025-04-11 21:17:36.406,RIGHT,45
161.0,16874.605938745255,24016.502382338334,-31378.094122182625,-19195.94635915117,-34326.93741642683,-25683.719001259688,-14164.009888650167,-30500.251710444896,0.0,0.0,0.0,193.0,0.0,193.0,0.0,1.0,0.0,179.0,193.0,1.0,179.0,1744420656.4062831,0.0,2025-04-11 21:17:36.406,RIGHT,45
162.0,16862.91597639513,24034.786109302775,-31368.63933427803,-19187.45269625815,-34313.36990754246,-25671.738466231644,-14461.064572461197,-30484.0466957148,0.0,0.0,0.0,193.0,0.0,193.0,0.0,0.0,0.0,179.0,193.0,0.0,179.0,1744420656.4063237,0.0,2025-04-11 21:17:36.406,RIGHT,45
163.0,16879.85859869225,24037.267152937315,-31369.801624989705,-19187.69856544716,-34314.241625576215,-25684.814236737995,-14224.67252310187,-30449.714416231447,0.0,0.0,0.0,193.0,0.0,194.0,0.0,1.0,0.0,179.0,194.0,1.0,179.0,1744420656.406363,0.0,2025-04-11 21:17:36.406,RIGHT,45
164.0,16905.16077341566,24034.406129647035,-31374.160215158492,-19200.66257723124,-34318.64491923391,-25695.386611865357,-13829.225460198577,-30454.87766920062,0.0,0.0,0.0,193.0,0.0,193.0,0.0,0.0,0.0,179.0,193.0,0.0,179.0,1744420656.406403,0.0,2025-04-11 21:17:36.406,RIGHT,45
165.0,16891.459154064556,24031.81332729022,-31364.34779934261,-19190.045498614967,-34306.93260513933,-25670.062085397494,-14059.157855410322,-30461.20321288147,0.0,0.0,0.0,193.0,0.0,194.0,0.0,0.0,0.0,180.0,194.0,0.0,180.0,1744420656.4064424,0.0,2025-04-11 21:17:36.406,RIGHT,45
166.0,16869.66620322063,24044.129138485092,-31356.681150994442,-19178.020260098012,-34299.66828819136,-25656.449873024212,-14383.839295368112,-30444.908791173555,0.0,0.0,0.0,193.0,0.0,194.0,0.0,0.0,0.0,180.0,194.0,0.0,180.0,1744420656.4064815,0.0,2025-04-11 21:17:36.406,RIGHT,45
167.0,16884.083078394306,24045.447891407955,-31353.26133409278,-19175.539216463472,-34302.082276592526,-25667.581041762955,-14302.143669383964,-30445.244067340383,0.0,0.0,0.0,193.0,0.0,193.0,0.0,0.0,0.0,179.0,193.0,0.0,179.0,1744420656.4065206,0.0,2025-04-11 21:17:36.406,RIGHT,45
168.0,16903.417337348146,24039.61408610512,-31370.271011623267,-19195.678138217707,-34321.03655589063,-25695.744239776643,-13849.677306375183,-30442.047767883276,0.0,0.0,0.0,193.0,0.0,194.0,0.0,0.0,0.0,179.0,194.0,0.0,179.0,1744420656.406572,0.0,2025-04-11 21:17:36.406,RIGHT,45
169.0,16886.184142373102,24029.66755982251,-31372.506186068797,-19202.406013298754,-34318.22023608926,-25691.13978041885,-14012.15213682081,-30491.825102785246,0.0,0.0,0.0,193.0,0.0,193.0,0.0,0.0,0.0,179.0,193.0,0.0,179.0,1744420656.4066117,0.0,2025-04-11 21:17:36.406,RIGHT,45
170.0,16861.77603742791,24036.350731414645,-31367.901726711003,-19190.55958873744,-34309.19013132931,-25673.616012765888,-14352.74801883078,-30465.427692583526,0.0,0.0,0.0,193.0,0.0,194.0,0.0,0.0,0.0,179.0,194.0,0.0,179.0,1744420656.406651,0.0,2025-04-11 21:17:36.406,RIGHT,45
171.0,16869.800313687363,24041.938667528473,-31360.34683708511,-19179.69664093216,-34304.65272720489,-25668.966849919183,-14368.617757394048,-30458.141023891098,0.0,0.0,0.0,193.0,0.0,194.0,0.0,0.0,0.0,179.0,194.0,0.0,179.0,1744420656.406702,0.0,2025-04-11 21:17:36.406,RIGHT,45
172.0,16895.728337255518,24039.301161682746,-31374.719008769873,-19191.028975371002,-34324.76929721466,-25691.877387985875,-13892.883228407292,-30438.20326783696,0.0,0.0,0.0,193.0,0.0,193.0,0.0,0.0,0.0,179.0,193.0,0.0,179.0,1744420656.406742,0.0,2025-04-11 21:17:36.406,RIGHT,45
173.0,16887.525247040423,24024.012568475315,-31374.093159925123,-19200.193190597678,-34317.683794222336,-25687.161169905805,-13963.42533390824,-30494.261442930874,0.0,0.0,0.0,193.0,0.0,194.0,0.0,0.0,0.0,180.0,194.0,0.0,180.0,1744420656.4067814,0.0,2025-04-11 21:17:36.406,RIGHT,45
174.0,16866.827531674808,24039.81525180522,-31364.794834231718,-19184.99400436807,-34304.65272720489,-25672.65488775431,-14311.68786426638,-30478.36935262315,0.0,0.0,0.0,193.0,0.0,193.0,0.0,0.0,0.0,179.0,193.0,0.0,179.0,1744420656.406821,0.0,2025-04-11 21:17:36.406,RIGHT,45
175.0,16872.52722651091,24053.114539756127,-31356.077653894146,-19177.662632186726,-34300.51765448066,-25669.659753997297,-14415.131737605541,-30478.88344274562,0.0,0.0,0.0,193.0,0.0,194.0,0.0,0.0,0.0,179.0,194.0,0.0,179.0,1744420656.40686,0.0,2025-04-11 21:17:36.406,RIGHT,45
176.0,16898.611712290254,24050.09705425466,-31363.677247008953,-19180.83657989938,-34314.77806744314,-25687.89877747283,-13963.358278674876,-30440.863125427142,0.0,0.0,0.0,193.0,0.0,193.0,0.0,0.0,0.0,179.0,193.0,0.0,179.0,1744420656.406912,0.0,2025-04-11 21:17:36.406,RIGHT,45
177.0,16902.724433270032,24038.742368071362,-31366.292401110222,-19193.17474283871,-34320.36600355697,-25688.4128675953,-13921.784033988004,-30493.90381501959,0.0,0.0,0.0,193.0,0.0,193.0,0.0,0.0,0.0,179.0,193.0,0.0,179.0,1744420656.4069517,0.0,2025-04-11 21:17:36.406,RIGHT,45
178.0,16877.891645180185,24038.38474016008,-31369.44399707842,-19190.76075443754,-34319.203712845294,-25682.84728322593,-14260.72588690828,-30486.348925393693,0.0,0.0,0.0,193.0,0.0,194.0,0.0,0.0,0.0,179.0,194.0,0.0,179.0,1744420656.4069908,0.0,2025-04-11 21:17:36.406,RIGHT,45
179.0,16873.465999778033,24047.593658875663,-31354.78125271574,-19177.640280442272,-34303.51278823767,-25670.59852726442,-14462.830360273167,-30479.777512523833,0.0,0.0,0.0,193.0,0.0,193.0,0.0,0.0,0.0,179.0,193.0,0.0,179.0,1744420656.4070303,0.0,2025-04-11 21:17:36.407,RIGHT,45
180.0,16895.504819810965,24048.42067342051,-31359.11749114007,-19176.142713563768,-34310.754753441186,-25685.55184430502,-14050.77595123958,-30427.96616887643,0.0,0.0,0.0,193.0,0.0,193.0,0.0,0.0,0.0,180.0,193.0,0.0,180.0,1744420656.4070697,0.0,2025-04-11 21:17:36.407,RIGHT,45
181.0,16902.500915825476,24044.91144954103,-31366.135938899035,-19195.47697251761,-34318.600215745,-25692.860864741906,-13869.79387638496,-30488.248823672395,0.0,0.0,0.0,193.0,0.0,193.0,0.0,0.0,0.0,179.0,193.0,0.0,179.0,1744420656.4071093,0.0,2025-04-11 21:17:36.407,RIGHT,45
182.0,16883.14430512718,24041.357522172635,-31359.63158126254,-19184.077582845403,-34311.73823019722,-25674.621841266377,-14204.354787391996,-30494.03792548632,0.0,0.0,0.0,193.0,0.0,193.0,0.0,0.0,0.0,179.0,193.0,0.0,179.0,1744420656.4071484,0.0,2025-04-11 21:17:36.407,RIGHT,45
183.0,16880.10446788126,24056.936688057984,-31344.767671199763,-19164.966841336114,-34298.46129399077,-25656.27105906857,-14470.38524989906,-30477.47528284494,0.0,0.0,0.0,193.0,0.0,193.0,0.0,0.0,0.0,179.0,193.0,0.0,179.0,1744420656.4071999,0.0,2025-04-11 21:17:36.407,RIGHT,45
184.0,16895.728337255518,24057.115502013625,-31355.138880627022,-19171.27003327251,-34306.84319816151,-25674.621841266377,-14140.138225571898,-30430.044881110774,0.0,0.0,0.0,193.0,0.0,193.0,0.0,0.0,0.0,179.0,193.0,0.0,179.0,1744420656.4072433,0.0,2025-04-11 21:17:36.407,RIGHT,45
185.0,16907.552410072378,24042.13983322857,-31371.120377912568,-19195.745193451072,-34323.91993092536,-25694.537245576055,-13838.099102747334,-30469.942744963497,0.0,0.0,0.0,193.0,0.0,194.0,0.0,0.0,0.0,180.0,194.0,0.0,180.0,1744420656.4072826,0.0,2025-04-11 21:17:36.407,RIGHT,45
186.0,16891.459154064556,24032.99796974635,-31372.26031687979,-19192.817114927428,-34325.73042222625,-25686.244748383135,-14153.616327478449,-30514.08744026273,0.0,0.0,0.0,193.0,0.0,193.0,0.0,0.0,0.0,179.0,193.0,0.0,179.0,1744420656.407334,0.0,2025-04-11 21:17:36.407,RIGHT,45
187.0,16879.545674269877,24050.566440888222,-31360.48094755184,-19174.198111796155,-34310.35242204099,-25658.617992236377,-14451.319211878683,-30471.037980441808,0.0,0.0,0.0,193.0,0.0,194.0,0.0,0.0,0.0,179.0,194.0,0.0,179.0,1744420656.4073737,0.0,2025-04-11 21:17:36.407,RIGHT,45
188.0,16892.420279076134,24055.23795547938,-31363.051398164203,-19173.236986784577,-34315.11334360997,-25671.626707509364,-14235.736636607247,-30440.25962832685,0.0,0.0,0.0,193.0,0.0,193.0,0.0,0.0,0.0,179.0,193.0,0.0,179.0,1744420656.407418,0.0,2025-04-11 21:17:36.407,RIGHT,45
189.0,16906.278360638426,24049.38179843209,-31376.954183215403,-19194.202923083656,-34327.96559667178,-25692.145608919338,-13829.270163687488,-30450.429672054015,0.0,0.0,0.0,193.0,0.0,194.0,0.0,0.0,0.0,180.0,194.0,0.0,180.0,1744420656.407457,0.0,2025-04-11 21:17:36.407,RIGHT,45
190.0,16885.71475573954,24033.534411613276,-31375.68013378145,-19195.298158561964,-34325.50690478169,-25680.45564656921,-14062.130637422877,-30480.22454741294,0.0,0.0,0.0,193.0,0.0,194.0,0.0,0.0,0.0,179.0,194.0,0.0,179.0,1744420656.4074965,0.0,2025-04-11 21:17:36.407,RIGHT,45
191.0,16865.06174386284,24040.441100649965,-31371.321543612667,-19184.99400436807,-34321.50594252419,-25668.452759796714,-14406.526315990248,-30468.087550173706,0.0,0.0,0.0,193.0,0.0,193.0,0.0,0.0,0.0,179.0,193.0,0.0,179.0,1744420656.407549,0.0,2025-04-11 21:17:36.407,RIGHT,45
192.0,16880.417392303632,24049.761778087828,-31359.989209173826,-19171.18062629469,-34309.637166218425,-25664.451797539212,-14329.345742386073,-30449.580305764714,0.0,0.0,0.0,193.0,0.0,194.0,0.0,0.0,0.0,179.0,194.0,0.0,179.0,1744420656.4075885,0.0,2025-04-11 21:17:36.407,RIGHT,45
193.0,16908.737052528508,24047.459548408933,-31372.550889557708,-19184.055231100945,-34326.17745711535,-25683.339021603948,-13859.98146056908,-30437.085680614196,0.0,0.0,0.0,193.0,0.0,193.0,0.0,0.0,0.0,179.0,193.0,0.0,179.0,1744420656.4076276,0.0,2025-04-11 21:17:36.407,RIGHT,45
194.0,16897.315311111844,24034.249667435848,-31378.78702626074,-19195.007585884046,-34328.434983305335,-25681.64028902534,-14009.358168763896,-30496.921300521055,0.0,0.0,0.0,193.0,0.0,194.0,0.0,0.0,0.0,180.0,194.0,0.0,180.0,1744420656.4076672,0.0,2025-04-11 21:17:36.407,RIGHT,45
195.0,16873.06366837784,24044.196193718457,-31372.059151179692,-19180.90363513275,-34312.6993552088,-25661.613125993386,-14349.954050773866,-30467.908736218065,0.0,0.0,0.0,193.0,0.0,193.0,0.0,0.0,0.0,179.0,193.0,0.0,179.0,1744420656.4077065,0.0,2025-04-11 21:17:36.407,RIGHT,45
196.0,16873.82362768932,24043.816214062717,-31365.26422086528,-19173.102876317844,-34307.42434351735,-25661.680181226755,-14381.201789522385,-30450.630837754114,0.0,0.0,0.0,193.0,0.0,194.0,0.0,0.0,0.0,179.0,194.0,0.0,179.0,1744420656.4077456,0.0,2025-04-11 21:17:36.407,RIGHT,45
197.0,16893.91784595464,24035.143737214057,-31382.11743618458,-19191.2301410711,-34326.4009745599,-25691.855036241417,-13908.618856503828,-30431.40833752255,0.0,0.0,0.0,193.0,0.0,193.0,0.0,0.0,0.0,179.0,193.0,0.0,179.0,1744420656.4077976,0.0,2025-04-11 21:17:36.407,RIGHT,45
198.0,16880.797371959376,24020.570399829197,-31388.3088693987,-19207.904542434757,-34331.36306182898,-25699.074649700484,-13960.743124573604,-30506.532550636835,0.0,0.0,0.0,193.0,0.0,194.0,0.0,0.0,0.0,180.0,194.0,0.0,180.0,1744420656.4078376,0.0,2025-04-11 21:17:36.407,RIGHT,45
199.0,16859.22793856,24030.159298200524,-31380.21753790588,-19193.577074238907,-34318.89078842292,-25680.299184358024,-14303.417718817916,-30478.615221812157,0.0,0.0,0.0,193.0,0.0,194.0,0.0,0.0,0.0,179.0,194.0,0.0,179.0,1744420656.4078772,0.0,2025-04-11 21:17:36.407,RIGHT,45
200.0,16868.392153786677,24040.61991460561,-31364.01252317578,-19179.718992676615,-34305.65855570538,-25667.581041762955,-14443.071418174675,-30470.25566938587,0.0,0.0,0.0,193.0,0.0,193.0,0.0,0.0,0.0,179.0,193.0,0.0,179.0,1744420656.4079168,0.0,2025-04-11 21:17:36.407,RIGHT,45
201.0,16890.34156684179,24038.541202371267,-31369.846328478616,-19181.104800832843,-34313.43696277583,-25684.881291971364,-13989.308653987486,-30427.96616887643,0.0,0.0,0.0,193.0,0.0,194.0,0.0,0.0,0.0,180.0,194.0,0.0,180.0,1744420656.4079678,0.0,2025-04-11 21:17:36.407,RIGHT,45
202.0,16886.228845862013,24022.112670196613,-31379.54698557222,-19202.04838538747,-34319.762506456675,-25694.760763020608,-13892.391490029275,-30482.906756747576,0.0,0.0,0.0,193.0,0.0,193.0,0.0,0.0,0.0,179.0,193.0,0.0,179.0,1744420656.408008,0.0,2025-04-11 21:17:36.408,RIGHT,45
203.0,16870.493217765477,24028.371158644102,-31369.220479633866,-19185.575149723907,-34308.854855162484,-25670.442065053234,-14237.636534885947,-30474.681314788024,0.0,0.0,0.0,193.0,0.0,194.0,0.0,0.0,0.0,180.0,194.0,0.0,180.0,1744420656.4080472,0.0,2025-04-11 21:17:36.408,RIGHT,45
204.0,16865.084095607293,24042.296295439755,-31360.48094755184,-19176.142713563768,-34304.58567197152,-25657.433349780244,-14442.780845496756,-30461.69495125949,0.0,0.0,0.0,193.0,0.0,194.0,0.0,0.0,0.0,180.0,194.0,0.0,180.0,1744420656.4080868,0.0,2025-04-11 21:17:36.408,RIGHT,45
205.0,16889.335738341302,24044.173841974003,-31364.68307550944,-19175.36040250783,-34319.0472506341,-25673.817178465986,-14075.429925373784,-30431.184820077997,0.0,0.0,0.0,193.0,0.0,193.0,0.0,0.0,0.0,179.0,193.0,0.0,179.0,1744420656.4081273,0.0,2025-04-11 21:17:36.408,RIGHT,45
206.0,16889.514552296943,24029.622856333597,-31378.719971027374,-19199.27676907501,-34332.52535254066,-25688.010536195106,-13879.449829989653,-30481.23037591343,0.0,0.0,0.0,193.0,0.0,194.0,0.0,0.0,0.0,179.0,194.0,0.0,179.0,1744420656.4081836,0.0,2025-04-11 21:17:36.408,RIGHT,45
207.0,16872.415467788633,24032.059196479226,-31369.5557558007,-19186.826847413406,-34310.50888425218,-25667.201062107215,-14177.532694045627,-30472.624954298135,0.0,0.0,0.0,193.0,0.0,193.0,0.0,0.0,0.0,179.0,193.0,0.0,179.0,1744420656.408224,0.0,2025-04-11 21:17:36.408,RIGHT,45
208.0,16872.99661314447,24047.079568753194,-31358.089310895124,-19171.918233861714,-34298.14836956839,-25648.22443106466,-14430.33092383515,-30453.84948895568,0.0,0.0,0.0,193.0,0.0,194.0,0.0,0.0,0.0,179.0,194.0,0.0,179.0,1744420656.408264,0.0,2025-04-11 21:17:36.408,RIGHT,45
209.0,16898.075270423327,24055.23795547938,-31358.134014384035,-19165.860911114327,-34305.61385221647,-25660.406131792803,-14155.315060057052,-30422.17706706251,0.0,0.0,0.0,193.0,0.0,193.0,0.0,0.0,0.0,179.0,193.0,0.0,179.0,1744420656.4083035,0.0,2025-04-11 21:17:36.408,RIGHT,45
210.0,16909.25114265098,24044.866746052117,-31371.92504071296,-19189.598463725863,-34321.1483146129,-25680.768570991586,-13823.726931062572,-30456.6881605015,0.0,0.0,0.0,193.0,0.0,193.0,0.0,0.0,0.0,179.0,193.0,0.0,179.0,1744420656.4083428,0.0,2025-04-11 21:17:36.408,RIGHT,45
211.0,16891.190933131093,24043.168013473514,-31367.164119143978,-19183.161161322732,-34312.81111393108,-25663.468320783177,-14100.866210563925,-30478.302297389782,0.0,0.0,0.0,193.0,0.0,193.0,0.0,0.0,0.0,179.0,193.0,0.0,179.0,1744420656.4083824,0.0,2025-04-11 21:17:36.408,RIGHT,45
212.0,16874.583587000798,24048.934763542984,-31359.20689811789,-19167.447884970654,-34305.65855570538,-25643.239992051127,-14411.533106748237,-30447.434538297006,0.0,0.0,0.0,193.0,0.0,193.0,0.0,0.0,0.0,179.0,193.0,0.0,179.0,1744420656.4084344,0.0,2025-04-11 21:17:36.408,RIGHT,45
213.0,16885.871217950727,24049.426501921,-31357.798738217207,-19160.94352733416,-34305.5467969831,-25648.470300253666,-14253.528625193672,-30418.24316003837,0.0,0.0,0.0,193.0,0.0,194.0,0.0,0.0,0.0,179.0,194.0,0.0,179.0,1744420656.408476,0.0,2025-04-11 21:17:36.408,RIGHT,45
214.0,16906.3901193607,24043.883269296082,-31372.930869213447,-19181.529483977494,-34322.24355009122,-25674.800655222018,-13850.07963777538,-30435.45400326896,0.0,0.0,0.0,193.0,0.0,193.0,0.0,0.0,0.0,179.0,193.0,0.0,179.0,1744420656.4085152,0.0,2025-04-11 21:17:36.408,RIGHT,45
215.0,16887.659357507153,24025.24191442036,-31376.238927392835,-19185.03870785698,-34323.91993092536,-25671.134969131348,-14062.197692656244,-30480.336306135217,0.0,0.0,0.0,193.0,0.0,193.0,0.0,0.0,0.0,179.0,193.0,0.0,179.0,1744420656.4085543,0.0,2025-04-11 21:17:36.408,RIGHT,45
216.0,16863.58652872879,24029.04171097776,-31374.607250047597,-19174.913367618727,-34324.14344836992,-25658.66269572529,-14411.019016625765,-30470.32272461924,0.0,0.0,0.0,193.0,0.0,193.0,0.0,0.0,0.0,179.0,193.0,0.0,179.0,1744420656.408605,0.0,2025-04-11 21:17:36.408,RIGHT,45
217.0,16873.91303466714,24034.272019180302,-31365.666552265473,-19166.375001236796,-34309.03366911813,-25657.83568118044,-14358.738286344802,-30443.612389995145,0.0,0.0,0.0,193.0,0.0,193.0,0.0,0.0,0.0,179.0,193.0,0.0,179.0,1744420656.408645,0.0,2025-04-11 21:17:36.408,RIGHT,45
218.0,16893.090831409794,24034.00379824684,-31375.344857614622,-19179.60723395434,-34313.57107324256,-25680.2097773802,-13860.160274524722,-30422.199418806962,0.0,0.0,0.0,193.0,0.0,193.0,0.0,0.0,0.0,179.0,193.0,0.0,179.0,1744420656.4086843,0.0,2025-04-11 21:17:36.408,RIGHT,45
219.0,16881.132648126204,24019.341053884156,-31374.473139580863,-19184.211693312132,-34308.653689462386,-25668.98920166364,-13974.087116013423,-30465.248878627885,0.0,0.0,0.0,193.0,0.0,193.0,0.0,0.0,0.0,179.0,193.0,0.0,179.0,1744420656.4087236,0.0,2025-04-11 21:17:36.408,RIGHT,45
220.0,16861.396057772166,24023.76669928631,-31369.019313933768,-19173.974594351603,-34306.5973289725,-25655.77932069055,-14325.769463273224,-30452.284866843806,0.0,0.0,0.0,193.0,0.0,194.0,0.0,0.0,0.0,179.0,194.0,0.0,179.0,1744420656.4087627,0.0,2025-04-11 21:17:36.408,RIGHT,45
221.0,16868.034525875395,24030.405167389534,-31358.62575276205,-19166.106780303333,-34301.50113123669,-25654.99700963462,-14390.902446615988,-30455.794090723288,0.0,0.0,0.0,193.0,0.0,193.0,0.0,0.0,0.0,179.0,193.0,0.0,179.0,1744420656.408815,0.0,2025-04-11 21:17:36.408,RIGHT,45
222.0,16889.268683107937,24032.394472646058,-31366.06888366567,-19173.013469340025,-34311.76058194168,-25674.89006219984,-13919.370045586831,-30423.004081607352,0.0,0.0,0.0,193.0,0.0,193.0,0.0,0.0,0.0,179.0,193.0,0.0,179.0,1744420656.4088545,0.0,2025-04-11 21:17:36.408,RIGHT,45
223.0,16881.82555220432,24016.591789316153,-31372.953220957905,-19190.425478270707,-34314.800419187595,-25679.695687257732,-13926.991990446091,-30483.018515469852,0.0,0.0,0.0,193.0,0.0,193.0,0.0,0.0,0.0,179.0,193.0,0.0,179.0,1744420656.4088943,0.0,2025-04-11 21:17:36.408,RIGHT,45
224.0,16861.060781605338,24018.42463236149,-31372.796758746717,-19182.51296073353,-34316.65561397739,-25667.379876062856,-14289.336119811072,-30475.441274099503,0.0,0.0,0.0,193.0,0.0,194.0,0.0,0.0,0.0,179.0,194.0,0.0,179.0,1744420656.88247,0.0,2025-04-11 21:17:36.882,RIGHT,45
225.0,16866.91693865263,24030.76279530082,-31356.01059866078,-19167.827864626393,-34293.83448288852,-25658.550937003012,-14439.964525695388,-30469.629820541126,0.0,0.0,0.0,193.0,0.0,193.0,0.0,0.0,0.0,179.0,193.0,0.0,179.0,1744420656.8826034,0.0,2025-04-11 21:17:36.882,RIGHT,45
226.0,16897.71764251204,24042.296295439755,-31354.11070038208,-19161.904652345736,-34292.00163984318,-25664.250631839113,-13982.580778906438,-30407.179046532998,0.0,0.0,0.0,193.0,0.0,194.0,0.0,0.0,0.0,179.0,194.0,0.0,179.0,1744420656.8826532,0.0,2025-04-11 21:17:36.882,RIGHT,45
227.0,16895.996558188985,24027.298274910245,-31365.957124943394,-19183.18351306719,-34304.74213418271,-25671.157320875805,-13857.746286123549,-30452.41897731054,0.0,0.0,0.0,193.0,0.0,193.0,0.0,0.0,0.0,179.0,193.0,0.0,179.0,1744420656.8827405,0.0,2025-04-11 21:17:36.882,RIGHT,45
228.0,16877.176389357614,24030.494574367356,-31364.660723764984,-19175.382754252285,-34303.87041614895,-25659.668524225777,-14208.33339790504,-30458.54335529129,0.0,0.0,0.0,193.0,0.0,194.0,0.0,0.0,0.0,179.0,194.0,0.0,179.0,1744420656.8827891,0.0,2025-04-11 21:17:36.882,RIGHT,45
229.0,16866.42520027461,24041.826908806197,-31356.412930060975,-19166.397352981254,-34296.494340478705,-25651.800710177507,-14435.13654889304,-30448.64153249759,0.0,0.0,0.0,193.0,0.0,193.0,0.0,0.0,0.0,179.0,193.0,0.0,179.0,1744420656.8828373,0.0,2025-04-11 21:17:36.882,RIGHT,45
230.0,16885.044203405883,24047.928935042495,-31360.72681674085,-19166.486759959076,-34305.05505860508,-25666.396399306825,-14079.475591120196,-30412.72227915791,0.0,0.0,0.0,193.0,0.0,193.0,0.0,0.0,0.0,179.0,193.0,0.0,179.0,1744420656.8828852,0.0,2025-04-11 21:17:36.882,RIGHT,45
231.0,16886.921749940127,24024.66076906452,-31377.40121810451,-19193.554722494453,-34319.002547145195,-25680.992088436138,-13843.575280138884,-30453.491861044393,0.0,0.0,0.0,193.0,0.0,193.0,0.0,0.0,0.0,179.0,193.0,0.0,179.0,1744420656.8829508,0.0,2025-04-11 21:17:36.882,RIGHT,45
232.0,16862.938328139582,24012.009681702817,-31375.367209359076,-19184.54696947896,-34313.30285230909,-25667.782207463053,-14159.316022314551,-30465.293582116796,0.0,0.0,0.0,193.0,0.0,194.0,0.0,0.0,0.0,180.0,194.0,0.0,180.0,1744420656.8829987,0.0,2025-04-11 21:17:36.882,RIGHT,45
233.0,16852.567118712323,24025.510135353823,-31367.030008677248,-19174.198111796155,-34304.56332022707,-25661.523719015568,-14444.703095519913,-30473.474320587437,0.0,0.0,0.0,193.0,0.0,194.0,0.0,0.0,0.0,179.0,194.0,0.0,179.0,1744420656.8830464,0.0,2025-04-11 21:17:36.883,RIGHT,45
234.0,16874.404773045157,24027.387681888067,-31370.427473834454,-19171.89588211726,-34313.23579707573,-25669.615050508386,-14192.463659341773,-30446.249895840872,0.0,0.0,0.0,193.0,0.0,193.0,0.0,0.0,0.0,179.0,193.0,0.0,179.0,1744420656.883094,0.0,2025-04-11 21:17:36.883,RIGHT,45
235.0,16892.95672094306,24022.85027776364,-31377.647087293517,-19184.36815552332,-34317.16970409986,-25670.442065053234,-13843.485873161064,-30434.381119535105,0.0,0.0,0.0,193.0,0.0,194.0,0.0,0.0,0.0,179.0,194.0,0.0,179.0,1744420656.8831418,0.0,2025-04-11 21:17:36.883,RIGHT,45
236.0,16874.91886316763,24016.971768971893,-31374.406084347498,-19180.70246943265,-34300.338840525015,-25661.970753904672,-14087.11988772391,-30456.107015145662,0.0,0.0,0.0,193.0,0.0,193.0,0.0,0.0,0.0,179.0,193.0,0.0,179.0,1744420656.883208,0.0,2025-04-11 21:17:36.883,RIGHT,45
237.0,16854.779941413395,24026.247742920845,-31368.326409855654,-19170.778294894495,-34289.855872375476,-25650.012570621082,-14388.242589025807,-30442.49480277238,0.0,0.0,0.0,193.0,0.0,193.0,0.0,0.0,0.0,179.0,193.0,0.0,179.0,1744420656.8833578,0.0,2025-04-11 21:17:36.883,RIGHT,45
238.0,16869.800313687363,24040.66461809452,-31364.548965042708,-19161.636431412273,-34291.174625298336,-25652.001875877606,-14247.136026279453,-30419.852485639156,0.0,0.0,0.0,193.0,0.0,193.0,0.0,0.0,0.0,179.0,193.0,0.0,179.0,1744420656.883422,0.0,2025-04-11 21:17:36.883,RIGHT,45
239.0,16887.413488318147,24035.70253082544,-31379.994020461327,-19180.054268843447,-34314.956881398786,-25673.347791832424,-13821.245887428033,-30423.96520661893,0.0,0.0,0.0,193.0,0.0,193.0,0.0,0.0,0.0,179.0,193.0,0.0,179.0,1744420656.883507,0.0,2025-04-11 21:17:36.883,RIGHT,45
240.0,16870.67203172112,24015.429498604477,-31376.641258793028,-19180.009565354536,-34314.93452965433,-25659.69087597023,-14029.11711086239,-30461.762006492856,0.0,0.0,0.0,193.0,0.0,194.0,0.0,0.0,0.0,179.0,194.0,0.0,179.0,1744420656.8835535,0.0,2025-04-11 21:17:36.883,RIGHT,45
241.0,16861.686630450087,24026.09128070966,-31359.989209173826,-19158.820111610905,-34296.22611954524,-25633.002893090594,-14367.299004471184,-30428.74847993237,0.0,0.0,0.0,193.0,0.0,193.0,0.0,0.0,0.0,179.0,193.0,0.0,179.0,1744420656.883597,0.0,2025-04-11 21:17:36.883,RIGHT,45
242.0,16866.358145041246,24027.767661543807,-31357.21759286137,-19155.914384831714,-34295.376753255936,-25640.289561783025,-14327.848175507568,-30418.667843183022,0.0,0.0,0.0,193.0,0.0,194.0,0.0,0.0,0.0,179.0,194.0,0.0,179.0,1744420656.8836668,0.0,2025-04-11 21:17:36.883,RIGHT,45
243.0,16886.854694706763,24031.209830189924,-31369.287534867235,-19172.32056526191,-34311.02297437465,-25664.74237021713,-13856.986326812068,-30407.693136655467,0.0,0.0,0.0,193.0,0.0,193.0,0.0,0.0,0.0,178.0,193.0,0.0,178.0,1744420656.8837116,0.0,2025-04-11 21:17:36.883,RIGHT,45
244.0,16879.903302181163,24014.021338703795,-31369.712218011886,-19180.233082799088,-34308.854855162484,-25663.513024272088,-13970.734354345126,-30473.004933953875,0.0,0.0,0.0,193.0,0.0,193.0,0.0,0.0,0.0,179.0,193.0,0.0,179.0,1744420656.8837874,0.0,2025-04-11 21:17:36.883,RIGHT,45
245.0,16851.650697189652,24015.98829221586,-31367.521747055263,-19171.962937350625,-34302.66342194837,-25656.919259657774,-14320.002713203754,-30466.54527980629,0.0,0.0,0.0,193.0,0.0,193.0,0.0,0.0,0.0,179.0,193.0,0.0,179.0,1744420656.8838506,0.0,2025-04-11 21:17:36.883,RIGHT,45
246.0,16858.42327575961,24026.940646998963,-31358.223421361858,-19163.98336458008,-34294.01329684416,-25649.498480498612,-14394.03169083973,-30442.02541613882,0.0,0.0,0.0,193.0,0.0,193.0,0.0,0.0,0.0,179.0,193.0,0.0,179.0,1744420656.883894,0.0,2025-04-11 21:17:36.883,RIGHT,45
247.0,16878.67395623612,24020.369234129103,-31372.550889557708,-19181.3283182774,-34306.46321850577,-25677.728733745666,-13907.925952425714,-30398.17129351751,0.0,0.0,0.0,193.0,0.0,194.0,0.0,0.0,0.0,179.0,194.0,0.0,179.0,1744420656.883936,0.0,2025-04-11 21:17:36.883,RIGHT,45
248.0,16873.130723611204,24006.42174558899,-31372.886165724536,-19198.025071385513,-34303.624546959945,-25682.802579737017,-13911.457528049652,-30471.954401964475,0.0,0.0,0.0,193.0,0.0,193.0,0.0,0.0,0.0,179.0,193.0,0.0,179.0,1744420656.8839781,0.0,2025-04-11 21:17:36.883,RIGHT,45
249.0,16853.215319301526,24013.060213692217,-31366.962953443883,-19186.111591590834,-34295.868491633955,-25666.306992329002,-14258.714229907302,-30456.30818084576,0.0,0.0,0.0,193.0,0.0,194.0,0.0,0.0,0.0,180.0,194.0,0.0,180.0,1744420656.8840208,0.0,2025-04-11 21:17:36.884,RIGHT,45
250.0,16850.82368264481,24028.90760051103,-31360.771520229762,-19178.444943242663,-34292.6945439213,-25661.836643437942,-14431.068531402176,-30451.659017999056,0.0,0.0,0.0,193.0,0.0,194.0,0.0,0.0,0.0,179.0,194.0,0.0,179.0,1744420656.8840873,0.0,2025-04-11 21:17:36.884,RIGHT,45
251.0,16877.869293435728,24030.2710569228,-31366.135938899035,-19181.350670021853,-34302.998698115196,-25681.64028902534,-14005.53602046204,-30412.431706479994,0.0,0.0,0.0,193.0,0.0,193.0,0.0,0.0,0.0,179.0,193.0,0.0,179.0,1744420656.884164,0.0,2025-04-11 21:17:36.884,RIGHT,45
252.0,16875.321194567823,24002.711356009408,-31370.15925290099,-19199.030899886002,-34310.30771855208,-25689.977489707173,-13870.866760118815,-30465.07006467224,0.0,0.0,0.0,193.0,0.0,194.0,0.0,0.0,0.0,179.0,194.0,0.0,179.0,1744420656.884212,0.0,2025-04-11 21:17:36.884,RIGHT,45
253.0,16859.205586815548,24005.684138021963,-31369.53340405624,-19191.341899793377,-34312.922872653355,-25679.963908191196,-14219.285752688142,-30481.18567242452,0.0,0.0,0.0,193.0,0.0,193.0,0.0,0.0,0.0,179.0,193.0,0.0,179.0,1744420656.8842547,0.0,2025-04-11 21:17:36.884,RIGHT,45
254.0,16860.010249615938,24029.600504589143,-31360.324485340654,-19179.40606825424,-34306.93260513933,-25666.7093237292,-14473.469790633893,-30477.22941365593,0.0,0.0,0.0,193.0,0.0,194.0,0.0,0.0,0.0,180.0,194.0,0.0,180.0,1744420656.884297,0.0,2025-04-11 21:17:36.884,RIGHT,45
255.0,16876.841113190785,24030.94160925646,-31361.509127796788,-19175.963899608123,-34300.80822715857,-25671.64905925382,-14111.818565347025,-30411.336471001683,0.0,0.0,0.0,193.0,0.0,194.0,0.0,0.0,0.0,179.0,194.0,0.0,179.0,1744420656.8843389,0.0,2025-04-11 21:17:36.884,RIGHT,45
0.0,16882.54080802689,24016.14475442705,-31372.282668624244,-19194.158219594745,-34305.144465582904,-25677.16994013428,-13825.582125852363,-30432.302407300762,0.0,0.0,0.0,193.0,0.0,193.0,0.0,0.0,0.0,179.0,193.0,0.0,179.0,1744420656.8843813,0.0,2025-04-11 21:17:36.884,RIGHT,45
1.0,16863.050086861862,24010.22154214639,-31371.83563373514,-19184.56932122342,-34298.81892190206,-25659.31089631449,-14120.066359051032,-30445.132308618107,0.0,0.0,0.0,193.0,0.0,194.0,0.0,0.0,0.0,179.0,194.0,0.0,179.0,1744420656.8844397,0.0,2025-04-11 21:17:36.884,RIGHT,45
2.0,16849.214357044024,24026.940646998963,-31366.515918554775,-19173.147579806755,-34294.37092475545,-25645.586925218933,-14431.604973269103,-30453.737730233403,0.0,0.0,0.0,193.0,0.0,193.0,0.0,0.0,0.0,179.0,193.0,0.0,179.0,1744420656.8844824,0.0,2025-04-11 21:17:36.884,RIGHT,45
3.0,16864.301784551357,24031.656865079032,-31368.080540666648,-19167.827864626393,-34298.61775620196,-25651.286620055034,-14207.171107193364,-30419.472505983416,0.0,0.0,0.0,193.0,0.0,194.0,0.0,0.0,0.0,179.0,194.0,0.0,179.0,1744420656.8845253,0.0,2025-04-11 21:17:36.884,RIGHT,45
4.0,16879.232749847502,24018.692853294953,-31388.35357288761,-19192.884170160793,-34319.22606458975,-25675.448855811224,-13807.097233187824,-30420.8806658841,0.0,0.0,0.0,193.0,0.0,193.0,0.0,0.0,0.0,179.0,193.0,0.0,179.0,1744420656.8845816,0.0,2025-04-11 21:17:36.884,RIGHT,45
5.0,16865.57583398531,24016.52473408279,-31382.67622979596,-19187.631510213796,-34313.772238942656,-25660.11555911488,-14075.765201540615,-30463.170166393542,0.0,0.0,0.0,193.0,0.0,194.0,0.0,0.0,0.0,180.0,194.0,0.0,180.0,1744420656.8846245,0.0,2025-04-11 21:17:36.884,RIGHT,45
6.0,16847.783845398884,24030.785147045273,-31371.053322679203,-19173.147579806755,-34304.13863708242,-25642.41297750628,-14420.339694063628,-30458.185727380005,0.0,0.0,0.0,193.0,0.0,193.0,0.0,0.0,0.0,179.0,193.0,0.0,179.0,1744420656.8846679,0.0,2025-04-11 21:17:36.884,RIGHT,45
7.0,16868.034525875395,24040.351693672146,-31358.469290550864,-19156.31671623191,-34297.321355023545,-25629.627779677845,-14307.262218864229,-30416.0303373373,0.0,0.0,0.0,193.0,0.0,194.0,0.0,0.0,0.0,179.0,194.0,0.0,179.0,1744420656.8847272,0.0,2025-04-11 21:17:36.884,RIGHT,45
8.0,16886.608825517753,24032.595638346153,-31372.97557270236,-19173.795780395958,-34312.09585810851,-25650.750178188107,-13827.459672386609,-30380.960450286922,0.0,0.0,0.0,193.0,0.0,193.0,0.0,0.0,0.0,179.0,193.0,0.0,179.0,1744420656.8847766,0.0,2025-04-11 21:17:36.884,RIGHT,45
9.0,16869.57679624281,24021.486821351868,-31372.997924446816,-19179.85310314335,-34311.447657519304,-25650.057274109993,-14009.559334463995,-30444.282942328806,0.0,0.0,0.0,193.0,0.0,193.0,0.0,0.0,0.0,179.0,193.0,0.0,179.0,1744420656.8848202,0.0,2025-04-11 21:17:36.884,RIGHT,45
10.0,16844.43108373059,24031.299237167746,-31369.98043894535,-19172.164103050723,-34309.65951796288,-25644.156413573794,-14365.376754448029,-30436.392776536082,0.0,0.0,0.0,193.0,0.0,193.0,0.0,0.0,0.0,179.0,193.0,0.0,179.0,1744420656.8848839,0.0,2025-04-11 21:17:36.884,RIGHT,45
11.0,16852.388304756678,24039.502327382845,-31357.306999839187,-19161.50232094554,-34297.88014863493,-25642.524736228555,-14367.03078353772,-30425.7309944309,0.0,0.0,0.0,193.0,0.0,193.0,0.0,0.0,0.0,179.0,193.0,0.0,179.0,1744420656.884927,0.0,2025-04-11 21:17:36.884,RIGHT,45
12.0,16883.30076733837,24032.439176134965,-31365.755959243295,-19175.94154786367,-34304.049230104596,-25666.776378962564,-13884.188399814178,-30402.708697641934,0.0,0.0,0.0,193.0,0.0,194.0,0.0,0.0,0.0,179.0,194.0,0.0,179.0,1744420656.8849697,0.0,2025-04-11 21:17:36.884,RIGHT,45
13.0,16869.643851476176,24008.94749271244,-31370.82980523465,-19195.298158561964,-34303.42338125985,-25673.07957089896,-13959.804351306482,-30469.048675185288,0.0,0.0,0.0,193.0,0.0,193.0,0.0,0.0,0.0,179.0,193.0,0.0,179.0,1744420656.8850124,0.0,2025-04-11 21:17:36.885,RIGHT,45
14.0,16846.75566515394,24019.586923073166,-31364.124281898057,-19184.36815552332,-34292.44867473229,-25657.88038466935,-14313.11837591152,-30452.329570332717,0.0,0.0,0.0,193.0,0.0,194.0,0.0,0.0,0.0,180.0,194.0,0.0,180.0,1744420656.8850548,0.0,2025-04-11 21:17:36.885,RIGHT,45
15.0,16846.599202942754,24035.590772103165,-31351.20497360289,-19172.87935887329,-34276.86950884694,-25650.549012488013,-14411.667217214968,-30441.13134636061,0.0,0.0,0.0,193.0,0.0,194.0,0.0,0.0,0.0,180.0,194.0,0.0,180.0,1744420656.8850992,0.0,2025-04-11 21:17:36.885,RIGHT,45
16.0,16871.968432899528,24020.65980680702,-31361.93381094144,-19182.848236900358,-34288.82769213053,-25674.241861610637,-13938.190214418199,-30395.712601627423,0.0,0.0,0.0,193.0,0.0,193.0,0.0,0.0,0.0,179.0,193.0,0.0,179.0,1744420656.8851583,0.0,2025-04-11 21:17:36.885,RIGHT,45
17.0,16868.123932853214,24002.84546647614,-31367.67820926645,-19198.36034755234,-34296.136712567415,-25679.293355857535,-13913.156260628255,-30459.97386693643,0.0,0.0,0.0,193.0,0.0,194.0,0.0,0.0,0.0,179.0,194.0,0.0,179.0,1744420656.8852012,0.0,2025-04-11 21:17:36.885,RIGHT,45
18.0,16848.029714587894,24012.434364847468,-31362.73847374183,-19186.04453635747,-34290.481721220225,-25662.641306238333,-14270.650061446437,-30452.441329054993,0.0,0.0,0.0,193.0,0.0,193.0,0.0,0.0,0.0,179.0,193.0,0.0,179.0,1744420656.8852441,0.0,2025-04-11 21:17:36.885,RIGHT,45
19.0,16851.47188323401,24028.393510388556,-31349.305075324188,-19172.45467572864,-34274.20965125676,-25651.711303199685,-14446.200662398418,-30439.432613782003,0.0,0.0,0.0,193.0,0.0,194.0,0.0,0.0,0.0,179.0,194.0,0.0,179.0,1744420656.8853014,0.0,2025-04-11 21:17:36.885,RIGHT,45
20.0,16872.929557911106,24029.354635400134,-31358.357531828588,-19175.785085652482,-34289.90057586438,-25675.7617802336,-14020.578744480461,-30405.815590121223,0.0,0.0,0.0,193.0,0.0,194.0,0.0,0.0,0.0,180.0,194.0,0.0,180.0,1744420656.8853445,0.0,2025-04-11 21:17:36.885,RIGHT,45
21.0,16880.283281836902,24012.79199275875,-31365.130110398546,-19194.60525448385,-34298.662459690866,-25686.155341405316,-13874.666556676217,-30473.228451398427,0.0,0.0,0.0,193.0,0.0,193.0,0.0,0.0,0.0,179.0,193.0,0.0,179.0,1744420656.8853872,0.0,2025-04-11 21:17:36.885,RIGHT,45
22.0,16858.222110059512,24011.47323983589,-31360.3021335962,-19182.13298107779,-34291.01816308715,-25665.70349522871,-14191.770755263658,-30456.55405003477,0.0,0.0,0.0,193.0,0.0,194.0,0.0,0.0,0.0,179.0,194.0,0.0,179.0,1744420656.8854296,0.0,2025-04-11 21:17:36.885,RIGHT,45
23.0,16847.04623783186,24027.253571421334,-31348.58981950162,-19168.654879171238,-34280.66930540434,-25649.185556076238,-14433.884851203544,-30435.051671868765,0.0,0.0,0.0,193.0,0.0,194.0,0.0,0.0,0.0,179.0,194.0,0.0,179.0,1744420656.8854716,0.0,2025-04-11 21:17:36.885,RIGHT,45
24.0,16866.469903763522,24034.22731569139,-31352.63548524803,-19168.833693126882,-34290.72759040923,-25667.625745251866,-14103.302550709554,-30404.899168598557,0.0,0.0,0.0,193.0,0.0,193.0,0.0,0.0,0.0,179.0,193.0,0.0,179.0,1744420656.885517,0.0,2025-04-11 21:17:36.885,RIGHT,45
25.0,16883.412526060645,24025.286617909267,-31358.759863228785,-19184.211693312132,-34298.84127364651,-25679.695687257732,-13827.034989241958,-30443.187706850495,0.0,0.0,0.0,193.0,0.0,193.0,0.0,0.0,0.0,179.0,193.0,0.0,179.0,1744420656.885606,0.0,2025-04-11 21:17:36.885,RIGHT,45
26.0,16861.753685683452,24015.720071282398,-31357.798738217207,-19175.203940296644,-34297.63427944592,-25663.021285894072,-14115.21603050423,-30446.965151663444,0.0,0.0,0.0,193.0,0.0,193.0,0.0,0.0,0.0,179.0,193.0,0.0,179.0,1744420656.885661,0.0,2025-04-11 21:17:36.885,RIGHT,45
27.0,16848.655563432643,24034.65199883604,-31347.11460436757,-19158.484835444073,-34285.78785488461,-25646.525698486057,-14419.825603941155,-30434.247009068375,0.0,0.0,0.0,193.0,0.0,194.0,0.0,0.0,0.0,180.0,194.0,0.0,180.0,1744420656.885712,0.0,2025-04-11 21:17:36.885,RIGHT,45
28.0,16868.43685727559,24034.89786802505,-31352.00963640328,-19158.864815099816,-34292.716895665755,-25663.60243124991,-14213.519002618672,-30424.099317085664,0.0,0.0,0.0,193.0,0.0,193.0,0.0,0.0,0.0,178.0,193.0,0.0,178.0,1744420656.8857603,0.0,2025-04-11 21:17:36.885,RIGHT,45
29.0,16884.440706305588,24023.409071375023,-31368.080540666648,-19176.477989730596,-34313.548721498104,-25672.721942987675,-13822.49758511753,-30422.199418806962,0.0,0.0,0.0,193.0,0.0,193.0,0.0,0.0,0.0,179.0,193.0,0.0,179.0,1744420656.88585,0.0,2025-04-11 21:17:36.885,RIGHT,45
30.0,16869.040354375884,24014.826001504185,-31359.87745045155,-19164.184530280178,-34301.3446690255,-25648.22443106466,-14072.367736383409,-30434.26936081283,0.0,0.0,0.0,193.0,0.0,194.0,0.0,0.0,0.0,179.0,194.0,0.0,179.0,1744420656.8859951,0.0,2025-04-11 21:17:36.885,RIGHT,45
31.0,16845.794540142364,24032.1709552015,-31347.74045321232,-19145.654934126727,-34282.569203683044,-25629.225448277648,-14378.139600532008,-30403.222787764407,0.0,0.0,0.0,193.0,0.0,193.0,0.0,0.0,0.0,179.0,193.0,0.0,179.0,1744420656.886145,0.0,2025-04-11 21:17:36.886,RIGHT,45
32.0,16856.210453058535,24039.39056866057,-31341.146688598,-19140.491681157553,-34281.63043041592,-25635.282771025035,-14286.63155873198,-30397.97012781741,0.0,0.0,0.0,193.0,0.0,194.0,0.0,0.0,0.0,180.0,194.0,0.0,180.0,1744420656.8861947,0.0,2025-04-11 21:17:36.886,RIGHT,45
33.0,16875.142380612182,24032.282713923778,-31356.904668438994,-19162.999887824048,-34301.45642774778,-25664.36239056139,-13823.481061873563,-30387.285993967773,0.0,0.0,0.0,193.0,0.0,193.0,0.0,0.0,0.0,179.0,193.0,0.0,179.0,1744420656.8862448,0.0,2025-04-11 21:17:36.886,RIGHT,45
34.0,16861.999554872462,24018.648149806042,-31356.502337038797,-19174.30987051843,-34297.544872468105,-25664.071817883472,-13974.556502646983,-30443.947666161977,0.0,0.0,0.0,193.0,0.0,194.0,0.0,0.0,0.0,179.0,194.0,0.0,179.0,1744420656.8863375,0.0,2025-04-11 21:17:36.886,RIGHT,45
35.0,16850.175482055605,24026.761833043318,-31344.05241537719,-19160.9211755897,-34284.58086068402,-25648.135024086838,-14324.830690006102,-30433.330587545704,0.0,0.0,0.0,193.0,0.0,193.0,0.0,0.0,0.0,179.0,193.0,0.0,179.0,1744420656.886382,0.0,2025-04-11 21:17:36.886,RIGHT,45
36.0,16859.563214726833,24031.880382523585,-31331.311921037668,-19147.063094027413,-34275.88603209091,-25639.12727107135,-14358.358306689062,-30423.093488585175,0.0,0.0,0.0,193.0,0.0,193.0,0.0,0.0,0.0,179.0,193.0,0.0,179.0,1744420656.8864374,0.0,2025-04-11 21:17:36.886,RIGHT,45
37.0,16873.845979433772,24028.169992944004,-31353.194278859413,-19168.163140793222,-34302.439904503815,-25668.877442941364,-13887.518809738018,-30401.25583425234,0.0,0.0,0.0,193.0,0.0,193.0,0.0,0.0,0.0,179.0,193.0,0.0,179.0,1744420656.8864813,0.0,2025-04-11 21:17:36.886,RIGHT,45
38.0,16854.3776100132,24012.724937525385,-31359.139842884524,-19184.457562501142,-34299.288308535615,-25669.235070852646,-13942.772322031537,-30458.588058780202,0.0,0.0,0.0,193.0,0.0,193.0,0.0,0.0,0.0,179.0,193.0,0.0,179.0,1744420656.8865263,0.0,2025-04-11 21:17:36.886,RIGHT,45
39.0,16838.396112727656,24021.173896929493,-31343.15834559898,-19160.384733722774,-34279.21644201475,-25638.32260827096,-14291.548942512149,-30427.228561309406,0.0,0.0,0.0,193.0,0.0,193.0,0.0,0.0,0.0,179.0,193.0,0.0,179.0,1744420656.8866005,0.0,2025-04-11 21:17:36.886,RIGHT,45
40.0,16846.46509247602,24029.578152844686,-31330.90958963747,-19149.83471033987,-34263.81609008504,-25632.712320412676,-14394.210504795374,-30407.223750021905,0.0,0.0,0.0,193.0,0.0,193.0,0.0,0.0,0.0,179.0,193.0,0.0,179.0,1744420656.8866453,0.0,2025-04-11 21:17:36.886,RIGHT,45
41.0,16870.33675555429,24029.75696680033,-31345.43822353342,-19163.156350035235,-34280.37873272642,-25660.74140795963,-13929.651848036272,-30378.479406652383,0.0,0.0,0.0,193.0,0.0,194.0,0.0,0.0,0.0,179.0,194.0,0.0,179.0,1744420656.8866909,0.0,2025-04-11 21:17:36.886,RIGHT,45
42.0,16864.36883978472,24009.148658412538,-31358.469290550864,-19186.1786468242,-34293.43215148833,-25676.477036056167,-13883.584902713885,-30461.60554428167,0.0,0.0,0.0,193.0,0.0,193.0,0.0,0.0,0.0,179.0,193.0,0.0,179.0,1744420656.8867357,0.0,2025-04-11 21:17:36.886,RIGHT,45
43.0,16845.928650609094,24011.383832858068,-31355.742377727318,-19173.818132140415,-34290.615831686955,-25652.337152044434,-14221.38681666694,-30429.955474132956,0.0,0.0,0.0,193.0,0.0,193.0,0.0,0.0,0.0,179.0,193.0,0.0,179.0,1744420656.8867793,0.0,2025-04-11 21:17:36.886,RIGHT,45
44.0,16841.346542995758,24031.56745810121,-31346.555810756185,-19161.9717075791,-34282.569203683044,-25642.949419373206,-14410.303760803195,-30409.905959356543,0.0,0.0,0.0,193.0,0.0,193.0,0.0,0.0,0.0,179.0,193.0,0.0,179.0,1744420656.8868284,0.0,2025-04-11 21:17:36.886,RIGHT,45
45.0,16869.621499731722,24041.737501828375,-31349.59564800211,-19159.043629055457,-34292.560433454564,-25661.03198063755,-14035.44265454324,-30388.582395146183,0.0,0.0,0.0,193.0,0.0,193.0,0.0,0.0,0.0,179.0,193.0,0.0,179.0,1744420656.886916,0.0,2025-04-11 21:17:36.886,RIGHT,45
46.0,16874.896511423172,24021.486821351868,-31362.023217919257,-19181.84240839987,-34303.57984347103,-25674.487730799643,-13854.348820966343,-30441.31016031625,0.0,0.0,0.0,193.0,0.0,194.0,0.0,0.0,0.0,179.0,194.0,0.0,179.0,1744420656.8870077,0.0,2025-04-11 21:17:36.887,RIGHT,45
47.0,16851.069551833814,24015.585960815664,-31362.82788071965,-19175.31569901892,-34301.56818647005,-25658.439178280732,-14170.558949775572,-30441.26545682734,0.0,0.0,0.0,193.0,0.0,193.0,0.0,0.0,0.0,179.0,193.0,0.0,179.0,1744420656.887063,0.0,2025-04-11 21:17:36.887,RIGHT,45
48.0,16837.077359804793,24022.000911474337,-31360.212726618378,-19170.1747977942,-34301.5458347256,-25654.102939856406,-14448.592299055135,-30445.512288273847,0.0,0.0,0.0,193.0,0.0,193.0,0.0,0.0,0.0,179.0,193.0,0.0,179.0,1744420656.887117,0.0,2025-04-11 21:17:36.887,RIGHT,45
49.0,16860.501987993954,24023.61023707512,-31358.2010696174,-19163.670440157704,-34299.98121261373,-25659.89204167033,-14153.593975733993,-30408.475447711404,0.0,0.0,0.0,193.0,0.0,193.0,0.0,0.0,0.0,179.0,193.0,0.0,179.0,1744420656.8871984,0.0,2025-04-11 21:17:36.887,RIGHT,45
50.0,16873.48835152249,24013.104917181125,-31367.834671477638,-19178.377888009298,-34309.41364877387,-25669.458588297202,-13828.644314842739,-30420.72420367291,0.0,0.0,0.0,193.0,0.0,194.0,0.0,0.0,0.0,179.0,194.0,0.0,179.0,1744420656.8872497,0.0,2025-04-11 21:17:36.887,RIGHT,45
51.0,16852.14243556767,24012.45671659192,-31364.72777899835,-19170.84535012786,-34303.57984347103,-25654.237050323136,-14107.348216455963,-30437.912695159044,0.0,0.0,0.0,193.0,0.0,193.0,0.0,0.0,0.0,179.0,193.0,0.0,179.0,1744420656.8873012,0.0,2025-04-11 21:17:36.887,RIGHT,45
52.0,16837.926726094094,24027.65590282153,-31351.62965674754,-19154.79679760895,-34287.888918863406,-25637.31677977047,-14423.04425514272,-30427.474430498416,0.0,0.0,0.0,193.0,0.0,193.0,0.0,0.0,0.0,179.0,193.0,0.0,179.0,1744420656.8873527,0.0,2025-04-11 21:17:36.887,RIGHT,45
53.0,16859.451456004557,24029.645208078055,-31345.50527876679,-19145.69963761564,-34285.36317173996,-25640.021340849562,-14231.087473760543,-30388.224767234897,0.0,0.0,0.0,193.0,0.0,194.0,0.0,0.0,0.0,180.0,194.0,0.0,180.0,1744420656.8873997,0.0,2025-04-11 21:17:36.887,RIGHT,45
54.0,16879.4339155476,24022.380891130077,-31354.73654922683,-19160.78706512297,-34297.09783757899,-25660.27202132607,-13814.696826302628,-30391.421066692004,0.0,0.0,0.0,193.0,0.0,193.0,0.0,0.0,0.0,178.0,193.0,0.0,178.0,1744420656.8874633,0.0,2025-04-11 21:17:36.887,RIGHT,45
55.0,16861.10548509425,24008.053422934227,-31353.77542421525,-19161.569376178908,-34297.00843060117,-25653.722960200663,-14048.607832027415,-30442.53950626129,0.0,0.0,0.0,193.0,0.0,194.0,0.0,0.0,0.0,179.0,194.0,0.0,179.0,1744420656.887527,0.0,2025-04-11 21:17:36.887,RIGHT,45
56.0,16841.81592962932,24020.65980680702,-31343.515973510264,-19144.87262307079,-34289.16296829736,-25634.902791369295,-14406.414557267972,-30428.189686320984,0.0,0.0,0.0,193.0,0.0,193.0,0.0,0.0,0.0,179.0,193.0,0.0,179.0,1744420656.8875732,0.0,2025-04-11 21:17:36.887,RIGHT,45
57.0,16855.361086769233,24027.47708886589,-31336.184601328925,-19136.200146222134,-34281.47396820474,-25636.579172203445,-14322.036721949187,-30403.11102904213,0.0,0.0,0.0,193.0,0.0,193.0,0.0,0.0,0.0,179.0,193.0,0.0,179.0,1744420656.8876176,0.0,2025-04-11 21:17:36.887,RIGHT,45
58.0,16873.57775850031,24020.503344595832,-31352.322560825654,-19158.55189067744,-34293.83448288852,-25665.03294289505,-13844.02231502799,-30395.377325460595,0.0,0.0,0.0,193.0,0.0,193.0,0.0,0.0,0.0,179.0,193.0,0.0,179.0,1744420656.8876605,0.0,2025-04-11 21:17:36.887,RIGHT,45
59.0,16858.825607159808,24005.192399643947,-31355.854136449594,-19166.196187281155,-34293.767427655155,-25659.89204167033,-13975.964662547669,-30442.181878350006,0.0,0.0,0.0,193.0,0.0,193.0,0.0,0.0,0.0,179.0,193.0,0.0,179.0,1744420656.8877032,0.0,2025-04-11 21:17:36.887,RIGHT,45
60.0,16839.13372029468,24021.26330390731,-31351.652008491998,-19153.254527241534,-34288.73828515271,-25643.619971706867,-14327.825823763113,-30426.7815264203,0.0,0.0,0.0,193.0,0.0,194.0,0.0,0.0,0.0,180.0,194.0,0.0,180.0,1744420656.887746,0.0,2025-04-11 21:17:36.887,RIGHT,45
61.0,16849.549633210856,24030.360463900623,-31347.427528789944,-19148.381846950277,-34285.989020584704,-25645.586925218933,-14366.650803881981,-30418.466677482927,0.0,0.0,0.0,193.0,0.0,193.0,0.0,0.0,0.0,179.0,193.0,0.0,179.0,1744420656.8878067,0.0,2025-04-11 21:17:36.887,RIGHT,45
62.0,16875.187084101093,24033.221487190902,-31355.272991093756,-19156.540233676464,-34298.64010794641,-25660.249669581615,-13893.822001674414,-30380.69222935346,0.0,0.0,0.0,193.0,0.0,194.0,0.0,0.0,0.0,179.0,194.0,0.0,179.0,1744420656.8878498,0.0,2025-04-11 21:17:36.887,RIGHT,45
63.0,16864.52530199591,24010.825039246683,-31361.419720818965,-19176.925024619704,-34303.065753348565,-25668.07278014097,-13925.18149914521,-30446.69693072998,0.0,0.0,0.0,193.0,0.0,193.0,0.0,0.0,0.0,179.0,193.0,0.0,179.0,1744420656.8878925,0.0,2025-04-11 21:17:36.887,RIGHT,45
64.0,16837.971429583005,24013.66371079251,-31358.26812485077,-19172.83465538438,-34301.36702076996,-25661.344905059923,-14288.509105266226,-30450.228506353917,0.0,0.0,0.0,193.0,0.0,194.0,0.0,0.0,0.0,180.0,194.0,0.0,180.0,1744420656.8880675,0.0,2025-04-11 21:17:36.888,RIGHT,45
65.0,16844.699304664053,24033.46735637991,-31339.53736299722,-19159.334201733374,-34283.03859031661,-25648.492651998124,-14428.319266834173,-30436.72805270291,0.0,0.0,0.0,193.0,0.0,193.0,0.0,0.0,0.0,179.0,193.0,0.0,179.0,1744420656.8881109,0.0,2025-04-11 21:17:36.888,RIGHT,45
66.0,16878.361031813747,24040.932839027984,-31339.313845552668,-19153.232175497076,-34285.27376476214,-25660.249669581615,-13970.53318864503,-30385.40844743353,0.0,0.0,0.0,193.0,0.0,193.0,0.0,0.0,0.0,179.0,193.0,0.0,179.0,1744420656.888153,0.0,2025-04-11 21:17:36.888,RIGHT,45
67.0,16873.801275944865,24019.586923073166,-31351.42849104744,-19171.962937350625,-34296.94137536781,-25665.524681273066,-13878.019318344514,-30438.65030272607,0.0,0.0,0.0,193.0,0.0,193.0,0.0,0.0,0.0,179.0,193.0,0.0,179.0,1744420656.8881953,0.0,2025-04-11 21:17:36.888,RIGHT,45
68.0,16847.917955865618,24019.877495751083,-31352.72489222585,-19161.658783156727,-34295.108532322476,-25647.866803153374,-14217.207040453797,-30423.65228219656,0.0,0.0,0.0,193.0,0.0,193.0,0.0,0.0,0.0,180.0,193.0,0.0,180.0,1744420656.8882372,0.0,2025-04-11 21:17:36.888,RIGHT,45
69.0,16839.200775528047,24032.439176134965,-31345.43822353342,-19152.36045746332,-34283.86560486145,-25643.97759961815,-14442.177348396463,-30429.128459588108,0.0,0.0,0.0,193.0,0.0,193.0,0.0,0.0,0.0,178.0,193.0,0.0,178.0,1744420656.8882995,0.0,2025-04-11 21:17:36.888,RIGHT,45
70.0,16867.453380519557,24030.38281564508,-31348.00867414578,-19147.376018449788,-34288.73828515271,-25657.20983233569,-14069.484361348674,-30392.717467870414,0.0,0.0,0.0,193.0,0.0,193.0,0.0,0.0,0.0,179.0,193.0,0.0,179.0,1744420656.888342,0.0,2025-04-11 21:17:36.888,RIGHT,45
71.0,16870.53792125439,24013.373138114588,-31360.168023129467,-19169.727762905095,-34299.847102146996,-25666.865785940387,-13842.480044660575,-30422.11001182914,0.0,0.0,0.0,193.0,0.0,193.0,0.0,0.0,0.0,179.0,193.0,0.0,179.0,1744420656.888384,0.0,2025-04-11 21:17:36.888,RIGHT,45
72.0,16851.985973356484,24010.489763079855,-31357.59757251711,-19165.21271052512,-34294.661497433364,-25656.583983490942,-14166.446228795796,-30440.483145771403,0.0,0.0,0.0,193.0,0.0,193.0,0.0,0.0,0.0,179.0,193.0,0.0,179.0,1744420656.888431,0.0,2025-04-11 21:17:36.888,RIGHT,45
73.0,16835.24451675946,24020.32453064019,-31349.148613113,-19156.942565076657,-34282.099817049486,-25646.570401974965,-14432.342580836128,-30430.35780553315,0.0,0.0,0.0,193.0,0.0,193.0,0.0,0.0,0.0,179.0,193.0,0.0,179.0,1744420656.8884733,0.0,2025-04-11 21:17:36.888,RIGHT,45
74.0,16852.321249523313,24024.057271964226,-31352.613133503575,-19158.88716684427,-34289.989982842206,-25661.680181226755,-14150.062400110055,-30398.752438873344,0.0,0.0,0.0,193.0,0.0,193.0,0.0,0.0,0.0,179.0,193.0,0.0,179.0,1744420656.8885152,0.0,2025-04-11 21:17:36.888,RIGHT,45
75.0,16872.326060810814,24017.75408002783,-31359.966857429372,-19177.394411253263,-34303.624546959945,-25674.93476568875,-13824.911573518702,-30427.049747353765,0.0,0.0,0.0,193.0,0.0,194.0,0.0,0.0,0.0,180.0,194.0,0.0,180.0,1744420656.8885572,0.0,2025-04-11 21:17:36.888,RIGHT,45
76.0,16856.679839692097,24009.32747236818,-31357.754034728296,-19171.962937350625,-34299.17654981334,-25658.729750958653,-14098.541629140573,-30441.824250438724,0.0,0.0,0.0,193.0,0.0,193.0,0.0,0.0,0.0,179.0,193.0,0.0,179.0,1744420656.8886137,0.0,2025-04-11 21:17:36.888,RIGHT,45
77.0,16842.084150562783,24022.76087078582,-31348.58981950162,-19157.21078601012,-34285.02789557313,-25645.050483352006,-14407.129813090542,-30429.709604943946,0.0,0.0,0.0,193.0,0.0,194.0,0.0,0.0,0.0,180.0,194.0,0.0,180.0,1744420656.8886561,0.0,2025-04-11 21:17:36.888,RIGHT,45
78.0,16857.506854236944,24028.52762085529,-31341.549019998198,-19145.252602726534,-34282.47979670522,-25649.543183987524,-14240.475206431773,-30405.50266569885,0.0,0.0,0.0,193.0,0.0,193.0,0.0,0.0,0.0,179.0,193.0,0.0,179.0,1744420656.8886983,0.0,2025-04-11 21:17:36.888,RIGHT,45
79.0,16869.599147987265,24026.493612109854,-31357.485813794832,-19161.18939652317,-34301.232910303224,-25668.206890607704,-13810.338236133843,-30409.704793656445,0.0,0.0,0.0,193.0,0.0,193.0,0.0,0.0,0.0,179.0,193.0,0.0,179.0,1744420656.8888292,0.0,2025-04-11 21:17:36.888,RIGHT,45
80.0,16851.963621612027,24016.904713738528,-31356.01059866078,-19161.1223412898,-34298.57305271304,-25654.393512534323,-14030.748788207626,-30457.11284364615,0.0,0.0,0.0,193.0,0.0,194.0,0.0,0.0,0.0,180.0,194.0,0.0,180.0,1744420656.888872,0.0,2025-04-11 21:17:36.888,RIGHT,45
81.0,16831.601182413244,24021.799745774242,-31349.908572424483,-19150.102931273334,-34288.06773281905,-25641.4518524947,-14374.183341763419,-30433.48704975689,0.0,0.0,0.0,193.0,0.0,193.0,0.0,0.0,0.0,179.0,193.0,0.0,179.0,1744420656.888914,0.0,2025-04-11 21:17:36.888,RIGHT,45
82.0,16845.638077931177,24019.765737028807,-31346.332293311632,-19147.867756827804,-34286.92779385183,-25646.659808952787,-14333.145538943476,-30424.38988976358,0.0,0.0,0.0,193.0,0.0,193.0,0.0,0.0,0.0,179.0,193.0,0.0,179.0,1744420656.8889556,0.0,2025-04-11 21:17:36.888,RIGHT,45
83.0,16864.01121187344,24017.016472460804,-31358.290476595223,-19161.770541879003,-34299.33301202452,-25662.484844027145,-13859.2215012576,-30389.387057946573,0.0,0.0,0.0,193.0,0.0,193.0,0.0,0.0,0.0,179.0,193.0,0.0,179.0,1744420656.8889976,0.0,2025-04-11 21:17:36.888,RIGHT,45
84.0,16849.259060532935,24001.973748442382,-31360.771520229762,-19172.588786195374,-34301.56818647005,-25661.07668412646,-13969.616767122361,-30439.79024169329,0.0,0.0,0.0,193.0,0.0,193.0,0.0,0.0,0.0,179.0,193.0,0.0,179.0,1744420656.8890553,0.0,2025-04-11 21:17:36.889,RIGHT,45
85.0,16819.4194816851,24003.113687409605,-31364.884241209536,-19169.392486738263,-34306.150294083396,-25661.07668412646,-14336.766521545234,-30446.965151663444,0.0,0.0,0.0,193.0,0.0,193.0,0.0,0.0,0.0,179.0,193.0,0.0,179.0,1744420656.8890972,0.0,2025-04-11 21:17:36.889,RIGHT,45
86.0,16828.60604865623,24018.648149806042,-31350.24384859131,-19157.143730776756,-34291.174625298336,-25656.695742213222,-14410.348464292107,-30448.574477264225,0.0,0.0,0.0,193.0,0.0,194.0,0.0,0.0,0.0,179.0,194.0,0.0,179.0,1744420656.8891392,0.0,2025-04-11 21:17:36.889,RIGHT,45
87.0,16860.412581016135,24021.062138207217,-31358.06695915067,-19166.84438787036,-34295.80143640059,-25675.493559300132,-13924.555650300463,-30404.988575576375,0.0,0.0,0.0,193.0,0.0,193.0,0.0,0.0,0.0,179.0,193.0,0.0,179.0,1744420656.8891811,0.0,2025-04-11 21:17:36.889,RIGHT,45
88.0,16854.846996646764,24007.382870600566,-31360.1009678961,-19179.31666127642,-34295.93554686732,-25674.375972077367,-13922.834565977404,-30459.34801809168,0.0,0.0,0.0,193.0,0.0,194.0,0.0,0.0,0.0,180.0,194.0,0.0,180.0,1744420657.363337,0.0,2025-04-11 21:17:37.363,RIGHT,45
89.0,16832.71876963601,24010.668577035496,-31354.82595620465,-19166.732629148082,-34291.822825887546,-25658.617992236377,-14271.052392846632,-30448.26155284185,0.0,0.0,0.0,193.0,0.0,193.0,0.0,0.0,0.0,179.0,193.0,0.0,179.0,1744420657.3635063,0.0,2025-04-11 21:17:37.363,RIGHT,45
90.0,16833.054045802837,24016.457678849423,-31343.761842699274,-19153.031009796978,-34282.569203683044,-25645.27400079656,-14429.123929634563,-30427.36267177614,0.0,0.0,0.0,193.0,0.0,193.0,0.0,0.0,0.0,179.0,193.0,0.0,179.0,1744420657.3635547,0.0,2025-04-11 21:17:37.363,RIGHT,45
91.0,16857.305688536846,24020.101013195635,-31348.411005545975,-19152.0698847854,-34290.28055552013,-25655.64521022382,-13994.918941845768,-30374.590203117157,0.0,0.0,0.0,193.0,0.0,194.0,0.0,0.0,0.0,179.0,194.0,0.0,179.0,1744420657.3636465,0.0,2025-04-11 21:17:37.363,RIGHT,45
92.0,16854.869348391217,24004.343033354646,-31356.859964950083,-19170.241853027565,-34298.41659050186,-25659.757931203596,-13872.185513041677,-30426.155677575553,0.0,0.0,0.0,193.0,0.0,193.0,0.0,0.0,0.0,179.0,193.0,0.0,179.0,1744420657.363696,0.0,2025-04-11 21:17:37.363,RIGHT,45
93.0,16829.745987623453,24004.83477173266,-31353.618962004064,-19159.825940111394,-34291.57695669853,-25644.02230310706,-14203.036034469133,-30424.278131041305,0.0,0.0,0.0,193.0,0.0,193.0,0.0,0.0,0.0,179.0,193.0,0.0,179.0,1744420657.363744,0.0,2025-04-11 21:17:37.363,RIGHT,45
94.0,16823.24162998696,24022.93968474146,-31341.77253744275,-19144.962030048613,-34280.87047110444,-25632.242933779115,-14436.254136115807,-30420.16541006153,0.0,0.0,0.0,193.0,0.0,193.0,0.0,0.0,0.0,179.0,193.0,0.0,179.0,1744420657.3639317,0.0,2025-04-11 21:17:37.363,RIGHT,45
95.0,16849.706095422043,24032.260362179324,-31346.95814215638,-19141.83278582487,-34295.39910500039,-25647.553878731,-14088.997434258155,-30390.012906791322,0.0,0.0,0.0,193.0,0.0,193.0,0.0,0.0,0.0,178.0,193.0,0.0,178.0,1744420657.3640087,0.0,2025-04-11 21:17:37.364,RIGHT,45
96.0,16864.57000548482,24018.916370739506,-31353.10487188159,-19155.623812153794,-34298.03661084612,-25652.381855533346,-13837.070922502391,-30416.45502048195,0.0,0.0,0.0,193.0,0.0,194.0,0.0,0.0,0.0,179.0,194.0,0.0,179.0,1744420657.364088,0.0,2025-04-11 21:17:37.364,RIGHT,45
97.0,16849.61668844422,24011.450888091433,-31350.86969743606,-19149.65589638423,-34289.07356131954,-25643.709378684685,-14121.98860907419,-30424.83692465269,0.0,0.0,0.0,193.0,0.0,193.0,0.0,0.0,0.0,179.0,193.0,0.0,179.0,1744420657.3641312,0.0,2025-04-11 21:17:37.364,RIGHT,45
98.0,16835.892717348663,24025.55483884273,-31339.87263916405,-19137.94358228965,-34275.70721813526,-25634.45575648019,-14411.264885814773,-30417.50555247135,0.0,0.0,0.0,193.0,0.0,194.0,0.0,1.0,0.0,180.0,194.0,1.0,180.0,1744420657.3641737,0.0,2025-04-11 21:17:37.364,RIGHT,45
99.0,16847.51562446542,24027.164164443515,-31341.660778720474,-19138.100044500836,-34279.417607714844,-25650.526660743555,-14151.80583617757,-30383.217976476906,0.0,0.0,0.0,193.0,0.0,194.0,0.0,3.0,0.0,180.0,194.0,3.0,180.0,1744420657.36424,0.0,2025-04-11 21:17:37.364,RIGHT,45
100.0,16861.619575216722,24017.441155605455,-31351.607305003086,-19157.25548949903,-34296.38258175643,-25667.491634785132,-13807.320750632376,-30412.834037880188,0.0,0.0,0.0,193.0,0.0,193.0,0.0,4.0,0.0,179.0,193.0,4.0,179.0,1744420657.3642836,0.0,2025-04-11 21:17:37.364,RIGHT,45
101.0,16845.347505253256,24008.18753340096,-31352.456671292388,-19159.08833254437,-34295.77908465613,-25663.13304461635,-14075.809905029524,-30452.687198244003,0.0,0.0,0.0,193.0,0.0,194.0,0.0,5.0,0.0,180.0,194.0,5.0,180.0,1744420657.3643267,0.0,2025-04-11 21:17:37.364,RIGHT,45
102.0,16834.417502214612,24030.785147045273,-31341.43726127592,-19145.29730621544,-34280.60225017098,-25643.821137406965,-14402.435946754927,-30437.26449456984,0.0,0.0,0.0,193.0,0.0,193.0,0.0,6.0,0.0,179.0,193.0,6.0,179.0,1744420657.3643696,0.0,2025-04-11 21:17:37.364,RIGHT,45
103.0,16846.867423876218,24034.584943602677,-31342.86777292106,-19142.793910836448,-34284.24558451719,-25650.88428865484,-14263.519854965194,-30416.41031699304,0.0,0.0,0.0,193.0,0.0,193.0,0.0,7.0,0.0,179.0,193.0,7.0,179.0,1744420657.364412,0.0,2025-04-11 21:17:37.364,RIGHT,45
104.0,16862.044258361373,24020.90567599603,-31359.989209173826,-19163.17870177969,-34307.111419094974,-25673.75012323262,-13830.410102654709,-30414.331604758696,0.0,0.0,0.0,193.0,0.0,194.0,0.0,8.0,0.0,180.0,194.0,8.0,180.0,1744420657.3644547,0.0,2025-04-11 21:17:37.364,RIGHT,45
105.0,16853.505891979443,24009.863914235106,-31356.77055797226,-19162.1728732792,-34302.05992484807,-25667.402227807313,-14037.25314584412,-30469.205137396475,0.0,0.0,0.0,193.0,0.0,193.0,0.0,9.0,0.0,179.0,193.0,9.0,179.0,1744420657.3644972,0.0,2025-04-11 21:17:37.364,RIGHT,45
106.0,16835.110406292726,24022.403242874534,-31345.170002599956,-19145.006733537524,-34285.78785488461,-25649.721997943165,-14374.22804525233,-30438.136212603597,0.0,0.0,0.0,193.0,0.0,194.0,0.0,9.0,0.0,180.0,194.0,9.0,180.0,1744420657.3645546,0.0,2025-04-11 21:17:37.364,RIGHT,45
107.0,16840.988915084472,24032.349769157147,-31338.24096181881,-19134.367303176798,-34282.74801763869,-25652.471262511168,-14341.415684391939,-30421.439459495483,0.0,0.0,0.0,193.0,0.0,194.0,0.0,10.0,0.0,179.0,194.0,10.0,179.0,1744420657.3645976,0.0,2025-04-11 21:17:37.364,RIGHT,45
108.0,16862.67010720612,24029.645208078055,-31352.590781759118,-19143.12918700328,-34302.26109054817,-25670.397361564323,-13866.262300761022,-30403.647470909058,0.0,0.0,0.0,193.0,0.0,193.0,0.0,11.0,0.0,179.0,193.0,11.0,179.0,1744420657.3646407,0.0,2025-04-11 21:17:37.364,RIGHT,45
109.0,16858.333868781792,24016.211809660414,-31349.461537535375,-19142.391579436255,-34297.50016897919,-25653.834718922943,-13970.354374689387,-30445.22171559593,0.0,0.0,0.0,193.0,0.0,194.0,0.0,11.0,0.0,179.0,194.0,11.0,179.0,1744420657.3648012,0.0,2025-04-11 21:17:37.364,RIGHT,45
110.0,16833.858708603228,24026.203039431937,-31344.38769154402,-19129.718140330093,-34292.73924741021,-25639.17197456026,-14322.103777182554,-30430.64837821107,0.0,0.0,0.0,193.0,0.0,193.0,0.0,12.0,0.0,179.0,193.0,12.0,179.0,1744420657.3648455,0.0,2025-04-11 21:17:37.364,RIGHT,45
111.0,16839.401941228145,24041.46928089491,-31331.647197204496,-19117.759957046506,-34276.981267569216,-25628.3984337328,-14407.018054368265,-30417.930235616,0.0,0.0,0.0,193.0,0.0,194.0,0.0,12.0,0.0,180.0,194.0,12.0,180.0,1744420657.3648887,0.0,2025-04-11 21:17:37.364,RIGHT,45
112.0,16861.552519983354,24035.680179080988,-31346.667569478464,-19128.08646298486,-34289.721761908746,-25646.190422319225,-13916.240801363088,-30366.72238906889,0.0,0.0,0.0,193.0,0.0,193.0,0.0,12.0,0.0,179.0,193.0,12.0,179.0,1744420657.364932,0.0,2025-04-11 21:17:37.364,RIGHT,45
113.0,16850.689572178075,24018.536391083766,-31351.383787558534,-19142.50333815853,-34288.8947473639,-25641.340093772425,-13905.981350658101,-30424.41224150804,0.0,0.0,0.0,193.0,0.0,193.0,0.0,13.0,0.0,179.0,193.0,13.0,179.0,1744420657.3649752,0.0,2025-04-11 21:17:37.364,RIGHT,45
114.0,16829.835394601276,24024.526658597788,-31346.131127611534,-19129.762843819004,-34281.943354838295,-25620.620026662356,-14260.837645630556,-30407.73784014438,0.0,0.0,0.0,193.0,0.0,194.0,0.0,13.0,0.0,180.0,194.0,13.0,180.0,1744420657.365034,0.0,2025-04-11 21:17:37.365,RIGHT,45
115.0,16827.4214062001,24029.66755982251,-31336.20695307338,-19121.626808837274,-34268.599363398476,-25615.233256248626,-14421.122005119563,-30400.40646796304,0.0,0.0,0.0,193.0,0.0,193.0,0.0,13.0,0.0,179.0,193.0,13.0,179.0,1744420657.3650775,0.0,2025-04-11 21:17:37.365,RIGHT,45
116.0,16857.082171092294,24033.690873824464,-31344.097118866102,-19126.1642129617,-34275.841328602,-25636.109785569883,-13980.971453305658,-30360.30743841022,0.0,0.0,0.0,193.0,0.0,194.0,0.0,13.0,0.0,180.0,194.0,13.0,180.0,1744420657.3651204,0.0,2025-04-11 21:17:37.365,RIGHT,45
117.0,16853.90822337964,24017.016472460804,-31357.9999039173,-19151.06405628491,-34287.464235718755,-25643.530564729044,-13836.668591102194,-30406.35203198815,0.0,0.0,0.0,193.0,0.0,193.0,0.0,14.0,0.0,179.0,193.0,14.0,179.0,1744420657.3651636,0.0,2025-04-11 21:17:37.365,RIGHT,45
118.0,16825.56621141031,24020.548048084744,-31354.40127306,-19140.625791624283,-34277.897689091886,-25630.723015156153,-14178.113839401465,-30408.050764566753,0.0,0.0,0.0,193.0,0.0,194.0,0.0,14.0,0.0,180.0,194.0,14.0,180.0,1744420657.365207,0.0,2025-04-11 21:17:37.365,RIGHT,45
119.0,16813.965656038006,24025.957170242928,-31347.561639256674,-19132.243887453544,-34275.1931280128,-25627.25849476558,-14423.357179565095,-30413.16931404702,0.0,0.0,0.0,193.0,0.0,193.0,0.0,14.0,0.0,179.0,193.0,14.0,179.0,1744420657.36525,0.0,2025-04-11 21:17:37.365,RIGHT,45
120.0,16838.127891794193,24025.934818498474,-31349.01450264627,-19130.07576824138,-34281.42926471582,-25644.134061829336,-14095.255922705643,-30388.403581190538,0.0,0.0,0.0,193.0,0.0,194.0,0.0,14.0,0.0,180.0,194.0,14.0,180.0,1744420657.3653069,0.0,2025-04-11 21:17:37.365,RIGHT,45
121.0,16851.76245591193,24013.28373113677,-31361.93381094144,-19153.79096910846,-34294.326221266536,-25660.74140795963,-13813.311018146398,-30417.952587360454,0.0,0.0,0.0,193.0,0.0,193.0,0.0,14.0,0.0,179.0,193.0,14.0,179.0,1744420657.3653505,0.0,2025-04-11 21:17:37.365,RIGHT,45
122.0,16834.730426636987,24008.589864801153,-31360.63740976303,-19150.54996616244,-34292.62748868793,-25649.967867132174,-14122.41329221884,-30430.804840422257,0.0,0.0,0.0,193.0,0.0,194.0,0.0,15.0,0.0,180.0,194.0,15.0,180.0,1744420657.3653936,0.0,2025-04-11 21:17:37.365,RIGHT,45
123.0,16824.180403254082,24023.94551324195,-31348.92509566845,-19139.508204401518,-34278.88116584792,-25641.675369939254,-14422.597220253614,-30424.479296741403,0.0,0.0,0.0,193.0,0.0,194.0,0.0,15.0,0.0,180.0,194.0,15.0,180.0,1744420657.3654366,0.0,2025-04-11 21:17:37.365,RIGHT,45
124.0,16841.503005206945,24021.71033879642,-31349.3497788131,-19137.36243693381,-34279.015276314654,-25653.633553222844,-14187.56862730606,-30398.215997006417,0.0,0.0,0.0,193.0,0.0,193.0,0.0,15.0,0.0,179.0,193.0,15.0,179.0,1744420657.3656077,0.0,2025-04-11 21:17:37.365,RIGHT,45
125.0,16849.99666809996,24010.735632268865,-31369.019313933768,-19163.536329690975,-34298.729514924235,-25675.69472500023,-13814.138032691246,-30411.269415768318,0.0,0.0,0.0,193.0,0.0,194.0,0.0,15.0,0.0,180.0,194.0,15.0,180.0,1744420657.365652,0.0,2025-04-11 21:17:37.365,RIGHT,45
126.0,16837.43498771608,24004.946530454938,-31365.241869120822,-19160.049457555946,-34293.476854977234,-25661.4566637822,-14063.20352115673,-30445.512288273847,0.0,0.0,0.0,193.0,0.0,194.0,0.0,15.0,0.0,180.0,194.0,15.0,180.0,1744420657.3656948,0.0,2025-04-11 21:17:37.365,RIGHT,45
127.0,16821.922877064095,24018.022300961293,-31361.53147954124,-19150.974649307092,-34289.565299697555,-25651.107806099393,-14396.669196685458,-30443.16535510604,0.0,0.0,0.0,193.0,0.0,194.0,0.0,15.0,0.0,179.0,194.0,15.0,179.0,1744420657.365738,0.0,2025-04-11 21:17:37.365,RIGHT,45
128.0,16833.299914991847,24026.583019087677,-31361.039741163226,-19144.98438179307,-34290.906404364876,-25653.678256711755,-14291.9736256568,-30426.625064209114,0.0,0.0,0.0,193.0,0.0,194.0,0.0,15.0,0.0,180.0,194.0,15.0,180.0,1744420657.3657813,0.0,2025-04-11 21:17:37.365,RIGHT,45
129.0,16849.706095422043,24021.28565565177,-31373.26614538028,-19159.870643600305,-34307.49139875071,-25671.40319006481,-13852.605384898829,-30419.763078661334,0.0,0.0,0.0,193.0,0.0,193.0,0.0,15.0,0.0,179.0,193.0,15.0,179.0,1744420657.3658395,0.0,2025-04-11 21:17:37.365,RIGHT,45
130.0,16842.218261029513,24006.28763512226,-31369.578107545152,-19160.384733722774,-34303.66925044885,-25660.294373070526,-14024.57970673796,-30455.972904678933,0.0,0.0,0.0,193.0,0.0,193.0,0.0,15.0,0.0,179.0,193.0,15.0,179.0,1744420657.3658829,0.0,2025-04-11 21:17:37.365,RIGHT,45
131.0,16821.47584217499,24011.093260180147,-31365.06305516518,-19148.761826606016,-34299.40006725789,-25649.58788747643,-14378.117248787554,-30444.12648011762,0.0,0.0,0.0,193.0,0.0,193.0,0.0,15.0,0.0,179.0,193.0,15.0,179.0,1744420657.3659265,0.0,2025-04-11 21:17:37.365,RIGHT,45
132.0,16834.66337140362,24020.972731229394,-31358.69280799542,-19135.730759588572,-34295.22029104475,-25643.061178095482,-14367.008431793265,-30416.566779204226,0.0,0.0,0.0,193.0,0.0,193.0,0.0,15.0,0.0,179.0,193.0,15.0,179.0,1744420657.365974,0.0,2025-04-11 21:17:37.365,RIGHT,45
133.0,16863.318307795325,24027.253571421334,-31370.382770345543,-19144.31382945941,-34312.52054125316,-25661.50136727111,-13883.629606202794,-30386.280165467284,0.0,0.0,0.0,193.0,0.0,193.0,0.0,16.0,0.0,179.0,193.0,16.0,179.0,1744420657.366017,0.0,2025-04-11 21:17:37.366,RIGHT,45
134.0,16853.684705935088,24014.915408482007,-31360.659761507486,-19143.151538747734,-34303.02104985965,-25642.904715884295,-13970.041450267012,-30433.665863712537,0.0,0.0,0.0,193.0,0.0,193.0,0.0,16.0,0.0,179.0,193.0,16.0,179.0,1744420657.36606,0.0,2025-04-11 21:17:37.366,RIGHT,45
135.0,16832.428196958088,24019.721033539896,-31350.86969743606,-19127.907649029214,-34286.9948490852,-25624.866858108864,-14308.02217817571,-30407.335508744185,0.0,0.0,0.0,193.0,0.0,193.0,0.0,16.0,0.0,179.0,193.0,16.0,179.0,1744420657.3661172,0.0,2025-04-11 21:17:37.366,RIGHT,45
136.0,16828.42723470059,24022.984388230372,-31351.42849104744,-19128.01940775149,-34287.620697929946,-25631.997064590105,-14401.13954557652,-30408.78837213378,0.0,0.0,0.0,193.0,0.0,193.0,0.0,16.0,0.0,179.0,193.0,16.0,179.0,1744420657.3661604,0.0,2025-04-11 21:17:37.366,RIGHT,45
137.0,16848.543804710367,24027.23121967688,-31359.229249862346,-19134.948448532636,-34292.53808171011,-25647.59858221991,-13931.261173637055,-30369.941040270456,0.0,0.0,0.0,193.0,0.0,193.0,0.0,16.0,0.0,179.0,193.0,16.0,179.0,1744420657.3662033,0.0,2025-04-11 21:17:37.366,RIGHT,45
138.0,16849.549633210856,24010.646225291042,-31359.67628475145,-19146.92898356068,-34283.26210776116,-25641.183631561238,-13884.769545170015,-30418.287863527283,0.0,0.0,0.0,193.0,0.0,193.0,0.0,16.0,0.0,179.0,193.0,16.0,179.0,1744420657.3662465,0.0,2025-04-11 21:17:37.366,RIGHT,45
139.0,16829.05308354534,24010.60152180213,-31356.72585448335,-19136.401311922233,-34276.62363965793,-25628.82311687745,-14230.126348748965,-30409.83890412318,0.0,0.0,0.0,193.0,0.0,193.0,0.0,16.0,0.0,180.0,193.0,16.0,180.0,1744420657.3663855,0.0,2025-04-11 21:17:37.366,RIGHT,45
140.0,16825.923839321596,24020.056309706728,-31349.863868935572,-19132.55681187592,-34269.87341283243,-25631.706491912188,-14421.56904000867,-30419.807782150245,0.0,0.0,0.0,193.0,0.0,193.0,0.0,16.0,0.0,179.0,193.0,16.0,179.0,1744420657.366429,0.0,2025-04-11 21:17:37.366,RIGHT,45
141.0,16855.919880380618,24037.08833898167,-31352.233153847836,-19135.283724699464,-34275.61781115745,-25647.196250819714,-14021.808090425504,-30380.26754620881,0.0,0.0,0.0,193.0,0.0,193.0,0.0,16.0,0.0,179.0,193.0,16.0,179.0,1744420657.366472,0.0,2025-04-11 21:17:37.366,RIGHT,45
142.0,16861.217243816525,24022.2691324078,-31362.15732838599,-19158.75305637754,-34285.385523484416,-25661.12138761537,-13828.823128798382,-30424.367538019127,0.0,0.0,0.0,193.0,0.0,193.0,0.0,16.0,0.0,179.0,193.0,16.0,179.0,1744420657.3665147,0.0,2025-04-11 21:17:37.366,RIGHT,45
143.0,16840.94421159556,24010.93679796896,-31358.849270206603,-19153.1204167748,-34280.40108447088,-25651.51013749959,-14152.163464088853,-30434.87285791312,0.0,0.0,0.0,193.0,0.0,194.0,0.0,16.0,0.0,180.0,194.0,16.0,180.0,1744420657.3665578,0.0,2025-04-11 21:17:37.366,RIGHT,45
144.0,16837.256173760437,24021.12919344058,-31347.516935767766,-19142.324524202886,-34271.10275877747,-25636.08743382543,-14425.57000226617,-30424.6804624415,0.0,0.0,0.0,193.0,0.0,193.0,0.0,16.0,0.0,179.0,193.0,16.0,179.0,1744420657.3666165,0.0,2025-04-11 21:17:37.366,RIGHT,45
145.0,16857.596261214767,24026.42655687649,-31354.557735271184,-19145.92315506019,-34279.77523562613,-25653.164166589282,-14113.092614780977,-30385.475502666894,0.0,0.0,0.0,193.0,0.0,194.0,0.0,16.0,0.0,179.0,194.0,16.0,179.0,1744420657.366663,0.0,2025-04-11 21:17:37.366,RIGHT,45
146.0,16870.247348576468,24018.4693358504,-31366.292401110222,-19164.586861680375,-34294.10270382198,-25663.93770741674,-13822.698750817628,-30421.908846129045,0.0,0.0,0.0,193.0,0.0,193.0,0.0,16.0,0.0,179.0,193.0,16.0,179.0,1744420657.3667583,0.0,2025-04-11 21:17:37.366,RIGHT,45
147.0,16855.048162346862,24017.105879438626,-31359.855098707092,-19153.232175497076,-34287.620697929946,-25640.78130016104,-14118.904068339358,-30425.842753153178,0.0,0.0,0.0,193.0,0.0,194.0,0.0,16.0,0.0,180.0,194.0,16.0,180.0,1744420657.3668091,0.0,2025-04-11 21:17:37.366,RIGHT,45
148.0,16840.541880195367,24026.65007432104,-31352.143746870013,-19142.346875947344,-34281.83159611602,-25633.74050065762,-14411.309589303684,-30409.190703533975,0.0,0.0,0.0,193.0,0.0,193.0,0.0,16.0,0.0,180.0,193.0,16.0,180.0,1744420657.3668532,0.0,2025-04-11 21:17:37.366,RIGHT,45
149.0,16856.881005392195,24033.66852208001,-31348.075729379147,-19136.93775378916,-34288.02302933014,-25644.961076374184,-14206.455851370794,-30384.20145323294,0.0,0.0,0.0,193.0,0.0,193.0,0.0,16.0,0.0,179.0,193.0,16.0,179.0,1744420657.3668964,0.0,2025-04-11 21:17:37.366,RIGHT,45
150.0,16877.10933412425,24032.41682439051,-31356.77055797226,-19154.014486553013,-34299.17654981334,-25669.726809230666,-13808.505393088508,-30394.170331260008,0.0,0.0,0.0,193.0,0.0,193.0,0.0,16.0,0.0,179.0,193.0,16.0,179.0,1744420657.3669643,0.0,2025-04-11 21:17:37.366,RIGHT,45
151.0,16866.112275852236,24017.888190494563,-31355.228287604845,-19154.685038886673,-34299.489474235714,-25664.921184172774,-14037.878994688868,-30439.432613782003,0.0,0.0,0.0,193.0,0.0,194.0,0.0,16.0,0.0,180.0,194.0,16.0,180.0,1744420657.367008,0.0,2025-04-11 21:17:37.367,RIGHT,45
152.0,16842.508833707434,24029.399338889045,-31344.521802010753,-19138.211803223112,-34289.11826480845,-25647.442120008724,-14381.60412092258,-30428.904942143556,0.0,0.0,0.0,193.0,0.0,194.0,0.0,16.0,0.0,180.0,194.0,16.0,180.0,1744420657.3670514,0.0,2025-04-11 21:17:37.367,RIGHT,45
153.0,16848.99083959947,24035.143737214057,-31338.218610074357,-19129.226401952077,-34285.69844790679,-25652.02422762206,-14308.379806086996,-30416.902055371054,0.0,0.0,0.0,193.0,0.0,193.0,0.0,16.0,0.0,179.0,193.0,16.0,179.0,1744420657.3672142,0.0,2025-04-11 21:17:37.367,RIGHT,45
154.0,16869.979127643004,24024.14667894205,-31354.28951433772,-19145.185547493165,-34305.88207314993,-25672.36431507639,-13835.036913756958,-30395.44438069396,0.0,0.0,0.0,193.0,0.0,194.0,0.0,16.0,0.0,180.0,194.0,16.0,180.0,1744420657.3672583,0.0,2025-04-11 21:17:37.367,RIGHT,45
155.0,16861.552519983354,24012.881399736572,-31347.71810146786,-19139.821128823893,-34296.98607885672,-25652.918297400272,-13988.43693595373,-30437.242142825384,0.0,0.0,0.0,193.0,0.0,193.0,0.0,17.0,0.0,179.0,193.0,17.0,179.0,1744420657.3673017,0.0,2025-04-11 21:17:37.367,RIGHT,45
156.0,16838.820795872307,24028.818193533207,-31340.476136264344,-19122.11854721529,-34288.78298864162,-25630.611256433876,-14342.332105914606,-30415.851523381654,0.0,0.0,0.0,193.0,0.0,194.0,0.0,16.0,0.0,180.0,194.0,16.0,180.0,1744420657.3673453,0.0,2025-04-11 21:17:37.367,RIGHT,45
157.0,16837.18911852707,24031.589809845664,-31341.146688598,-19115.74830004553,-34288.671229919346,-25628.487840710623,-14364.907367814467,-30399.937081329477,0.0,0.0,0.0,193.0,0.0,193.0,0.0,17.0,0.0,179.0,193.0,17.0,179.0,1744420657.3673887,0.0,2025-04-11 21:17:37.367,RIGHT,45
158.0,16865.37466828521,24030.494574367356,-31353.39544455951,-19124.621942594284,-34294.527386966634,-25643.865840895873,-13877.482876477585,-30369.516357125805,0.0,0.0,0.0,193.0,0.0,194.0,0.0,17.0,0.0,180.0,194.0,17.0,180.0,1744420657.3675053,0.0,2025-04-11 21:17:37.367,RIGHT,45
159.0,16861.5301682389,24012.255550891823,-31350.936752669426,-19129.852250796826,-34275.48370069071,-25636.422709992257,-13914.676179251217,-30423.093488585175,0.0,0.0,0.0,193.0,0.0,193.0,0.0,17.0,0.0,179.0,193.0,17.0,179.0,1744420657.3675492,0.0,2025-04-11 21:17:37.367,RIGHT,45
160.0,16841.61476392922,24014.28955963726,-31349.953275913394,-19119.905724514214,-34271.57214541103,-25623.838677863918,-14262.335212509062,-30418.086697827184,0.0,0.0,0.0,193.0,0.0,194.0,0.0,17.0,0.0,180.0,194.0,17.0,180.0,1744420657.3675928,0.0,2025-04-11 21:17:37.367,RIGHT,45
161.0,16839.871327861707,24023.81140277522,-31343.15834559898,-19110.87561975427,-34268.06292153155,-25620.105936539883,-14400.223124053851,-30419.29369202777,0.0,0.0,0.0,193.0,0.0,194.0,0.0,17.0,0.0,180.0,194.0,17.0,180.0,1744420657.367636,0.0,2025-04-11 21:17:37.367,RIGHT,45
162.0,16856.255156547446,24023.81140277522,-31354.11070038208,-19118.676378569173,-34282.5915554275,-25641.78712866153,-13946.99680173359,-30385.095523011154,0.0,0.0,0.0,193.0,0.0,193.0,0.0,17.0,0.0,179.0,193.0,17.0,179.0,1744420657.367679,0.0,2025-04-11 21:17:37.367,RIGHT,45
163.0,16855.56225246933,24011.763812513807,-31353.73072072634,-19130.79102406395,-34277.29419199159,-25642.41297750628,-13882.333205024386,-30446.138137118596,0.0,0.0,0.0,193.0,0.0,194.0,0.0,17.0,0.0,180.0,194.0,17.0,180.0,1744420657.3677225,0.0,2025-04-11 21:17:37.367,RIGHT,45
164.0,16825.230935243482,24016.79295501625,-31354.06599689317,-19122.3644164043,-34273.069712289536,-25628.040805821518,-14211.082662473043,-30415.628005937102,0.0,0.0,0.0,193.0,0.0,193.0,0.0,17.0,0.0,179.0,193.0,17.0,179.0,1744420657.3677652,0.0,2025-04-11 21:17:37.367,RIGHT,45
165.0,16826.348522466247,24023.118498697102,-31342.599551987598,-19113.73664304455,-34261.536212150604,-25619.502439439588,-14399.03848159772,-30405.68147965449,0.0,0.0,0.0,193.0,0.0,194.0,0.0,17.0,0.0,180.0,194.0,17.0,180.0,1744420657.3678243,0.0,2025-04-11 21:17:37.367,RIGHT,45
166.0,16864.078267106805,24030.673388322997,-31342.21957233186,-19109.936846487148,-34270.3875029549,-25633.11465181287,-14022.411587525796,-30373.092636238653,0.0,0.0,0.0,193.0,0.0,193.0,0.0,17.0,0.0,179.0,193.0,17.0,179.0,1744420657.367868,0.0,2025-04-11 21:17:37.367,RIGHT,45
167.0,16873.018964888928,24021.75504228533,-31350.377959058045,-19131.863907797804,-34284.02206707264,-25642.88236413984,-13836.780349824472,-30414.10808731414,0.0,0.0,0.0,193.0,0.0,193.0,0.0,17.0,0.0,179.0,193.0,17.0,179.0,1744420657.367911,0.0,2025-04-11 21:17:37.367,RIGHT,45
168.0,16846.263926775926,24015.630664304575,-31354.82595620465,-19133.003846765023,-34292.47102647675,-25640.6024862054,-14163.585205505517,-30431.922427645022,0.0,0.0,0.0,193.0,0.0,193.0,0.0,17.0,0.0,179.0,193.0,17.0,179.0,1744420657.3680367,0.0,2025-04-11 21:17:37.368,RIGHT,45
169.0,16842.41942672961,24036.46249013692,-31341.77253744275,-19121.559753603906,-34282.52450019414,-25624.844506364407,-14442.624383285569,-30423.249950796362,0.0,0.0,0.0,193.0,0.0,193.0,0.0,17.0,0.0,180.0,193.0,17.0,180.0,1744420657.3680816,0.0,2025-04-11 21:17:37.368,RIGHT,45
170.0,16861.70898219454,24043.10095824015,-31345.997017144804,-19121.06801522589,-34289.63235493092,-25638.590829204422,-14125.654295164859,-30377.674743851992,0.0,0.0,0.0,193.0,0.0,194.0,0.0,17.0,0.0,180.0,194.0,17.0,180.0,1744420657.368125,0.0,2025-04-11 21:17:37.368,RIGHT,45
171.0,16876.997575401972,24032.305065668235,-31357.418758561464,-19140.089349757356,-34304.384506271424,-25653.54414624502,-13818.854250771315,-30420.36657576163,0.0,0.0,0.0,193.0,0.0,193.0,0.0,17.0,0.0,179.0,193.0,17.0,179.0,1744420657.3681684,0.0,2025-04-11 21:17:37.368,RIGHT,45
172.0,16861.843092661275,24019.94455098445,-31352.590781759118,-19133.249715954033,-34293.99094509971,-25638.25555303759,-14103.570771643017,-30429.821363666222,0.0,0.0,0.0,193.0,0.0,193.0,0.0,17.0,0.0,180.0,193.0,17.0,180.0,1744420657.3682117,0.0,2025-04-11 21:17:37.368,RIGHT,45
173.0,16843.46995871901,24023.967864986404,-31346.801679945194,-19126.745358317537,-34282.63625891641,-25629.381910488835,-14398.122060075053,-30410.934139601486,0.0,0.0,0.0,193.0,0.0,193.0,0.0,17.0,0.0,179.0,193.0,17.0,179.0,1744420657.36831,0.0,2025-04-11 21:17:37.368,RIGHT,45
174.0,16852.880043134697,24025.957170242928,-31350.02033114676,-19124.845460038836,-34292.985116599215,-25635.618047191867,-14222.01266551169,-30385.76607534481,0.0,0.0,0.0,193.0,0.0,194.0,0.0,17.0,0.0,180.0,194.0,17.0,180.0,1744420657.3683543,0.0,2025-04-11 21:17:37.368,RIGHT,45
175.0,16871.700211966065,24020.45864110692,-31362.202031874902,-19142.63744862526,-34305.435038260825,-25652.761835189085,-13818.83189902686,-30390.281127724786,0.0,0.0,0.0,193.0,0.0,193.0,0.0,17.0,0.0,179.0,193.0,17.0,179.0,1744420657.3683977,0.0,2025-04-11 21:17:37.368,RIGHT,45
176.0,16857.551557725856,24011.003853202328,-31356.323523083156,-19137.898878800737,-34296.82961664553,-25641.36244551688,-14049.658364016816,-30435.051671868765,0.0,0.0,0.0,193.0,0.0,194.0,0.0,17.0,0.0,179.0,194.0,17.0,179.0,1744420657.3684409,0.0,2025-04-11 21:17:37.368,RIGHT,45
177.0,16833.635191158675,24021.151545185036,-31354.78125271574,-19128.73466357406,-34292.53808171011,-25634.567515202467,-14381.358251733573,-30426.11097408664,0.0,0.0,0.0,193.0,0.0,193.0,0.0,17.0,0.0,179.0,193.0,17.0,179.0,1744420657.3684838,0.0,2025-04-11 21:17:37.368,RIGHT,45
178.0,16847.649734932154,24033.959094757927,-31348.34395031261,-19118.430509380163,-34286.570165940546,-25634.276942524546,-14322.863736494033,-30406.284976754785,0.0,0.0,0.0,193.0,0.0,194.0,0.0,17.0,0.0,180.0,194.0,17.0,180.0,1744420657.368527,0.0,2025-04-11 21:17:37.368,RIGHT,45
179.0,16866.469903763522,24033.04267323526,-31365.733607498838,-19132.78032932047,-34303.199863815295,-25650.347846787914,-13840.848367315337,-30368.376418158583,0.0,0.0,0.0,193.0,0.0,193.0,0.0,17.0,0.0,179.0,193.0,17.0,179.0,1744420657.36857,0.0,2025-04-11 21:17:37.368,RIGHT,45
180.0,16843.313496507824,24006.622911289087,-31369.91338371198,-19143.397407936744,-34299.19890155779,-25649.699646198707,-13974.690613113717,-30424.16637231903,0.0,0.0,0.0,193.0,0.0,194.0,0.0,17.0,0.0,180.0,194.0,17.0,180.0,1744420657.3686292,0.0,2025-04-11 21:17:37.368,RIGHT,45
181.0,16813.697435104543,24001.034975175262,-31369.242831378324,-19140.245811968543,-34296.09200907851,-25646.525698486057,-14336.095969211576,-30430.894247400076,0.0,0.0,0.0,193.0,0.0,193.0,0.0,17.0,0.0,179.0,193.0,17.0,179.0,1744420657.3686728,0.0,2025-04-11 21:17:37.368,RIGHT,45
182.0,16820.402958441133,24008.232236889868,-31362.514956297277,-19136.2672014555,-34289.699410164285,-25646.771567675063,-14396.13275481853,-30438.471488770425,0.0,0.0,0.0,193.0,0.0,193.0,0.0,17.0,0.0,179.0,193.0,17.0,179.0,1744420657.368716,0.0,2025-04-11 21:17:37.368,RIGHT,45
183.0,16842.62059242971,24007.65109153403,-31370.941563956927,-19143.531518403473,-34296.24847128969,-25659.757931203596,-13907.054234391957,-30388.582395146183,0.0,0.0,0.0,193.0,0.0,193.0,0.0,17.0,0.0,179.0,193.0,17.0,179.0,1744420657.368904,0.0,2025-04-11 21:17:37.368,RIGHT,45
184.0,16834.506909192434,23989.881454692062,-31370.91921221247,-19150.997001051546,-34292.73924741021,-25648.35854153139,-13923.28160086651,-30420.29952052826,0.0,0.0,0.0,193.0,0.0,194.0,0.0,17.0,0.0,180.0,194.0,17.0,180.0,1744420657.3689618,0.0,2025-04-11 21:17:37.368,RIGHT,45
185.0,16816.84903107274,23996.83284721766,-31366.24769762131,-19141.27399221349,-34288.85004387498,-25639.26138153808,-14285.44691627585,-30426.02156710882,0.0,0.0,0.0,193.0,0.0,194.0,0.0,17.0,0.0,180.0,194.0,17.0,180.0,1744420657.369017,0.0,2025-04-11 21:17:37.369,RIGHT,45
186.0,16819.6206473852,24010.668577035496,-31354.177755615445,-19132.087425242356,-34275.48370069071,-25636.154489058794,-14435.784749482245,-30431.16246833354,0.0,0.0,0.0,193.0,0.0,193.0,0.0,17.0,0.0,179.0,193.0,17.0,179.0,1744420657.3690677,0.0,2025-04-11 21:17:37.369,RIGHT,45
187.0,16838.91020285013,24015.98829221586,-31366.225345876857,-19144.537346903962,-34289.40883748637,-25657.254535824602,-13977.439877681718,-30380.62517412009,0.0,0.0,0.0,193.0,0.0,194.0,0.0,17.0,0.0,180.0,194.0,17.0,180.0,1744420657.3691187,0.0,2025-04-11 21:17:37.369,RIGHT,45
188.0,16843.067627318815,24000.61029203061,-31366.337104599133,-19161.636431412273,-34285.47493046224,-25650.683122954742,-13879.002795100547,-30413.77281114731,0.0,0.0,0.0,193.0,0.0,193.0,0.0,17.0,0.0,179.0,193.0,17.0,179.0,1744420657.3693902,0.0,2025-04-11 21:17:37.369,RIGHT,45
189.0,16820.00062704094,23992.5636640267,-31361.77734873025,-19150.92994581818,-34278.12120653644,-25635.305122769492,-14199.146830933909,-30402.753401130845,0.0,0.0,0.0,193.0,0.0,194.0,0.0,17.0,0.0,180.0,194.0,17.0,180.0,1744420657.3694398,0.0,2025-04-11 21:17:37.369,RIGHT,45
190.0,16810.590542625254,24004.320681610192,-31354.71419748237,-19142.726855603083,-34275.32723847953,-25628.197268032705,-14432.789615725234,-30412.096430313162,0.0,0.0,0.0,193.0,0.0,193.0,0.0,17.0,0.0,179.0,193.0,17.0,179.0,1744420657.3694897,0.0,2025-04-11 21:17:37.369,RIGHT,45
191.0,16838.798444127853,24010.534466568766,-31357.888145195026,-19142.905669558724,-34284.98319208422,-25648.112672342384,-14069.126733437388,-30376.266583951307,0.0,0.0,0.0,193.0,0.0,194.0,0.0,17.0,0.0,180.0,194.0,17.0,180.0,1744420657.3695405,0.0,2025-04-11 21:17:37.369,RIGHT,45
192.0,16855.741066424976,24005.79589674424,-31366.046531921213,-19161.658783156727,-34297.76838991266,-25661.054332382006,-13842.189471982656,-30423.607578707648,0.0,0.0,0.0,193.0,0.0,194.0,0.0,17.0,0.0,179.0,194.0,17.0,179.0,1744420657.3695881,0.0,2025-04-11 21:17:37.369,RIGHT,45
193.0,16840.43012147309,24010.199190401938,-31359.341008584623,-19146.41489343821,-34290.72759040923,-25640.93776237223,-14156.633812979915,-30424.345186274673,0.0,0.0,0.0,193.0,0.0,193.0,0.0,17.0,0.0,179.0,193.0,17.0,179.0,1744420657.369635,0.0,2025-04-11 21:17:37.369,RIGHT,45
194.0,16824.068644531806,24023.207905674924,-31351.473194536353,-19135.909573544213,-34283.53032869462,-25634.567515202467,-14429.034522656742,-30421.30534902875,0.0,0.0,0.0,193.0,0.0,194.0,0.0,17.0,0.0,180.0,194.0,17.0,180.0,1744420657.369727,0.0,2025-04-11 21:17:37.369,RIGHT,45
195.0,16839.983086583983,24028.795841788753,-31353.417796303966,-19131.79685256444,-34290.3923142424,-25646.88332639734,-14164.367516561451,-30398.39481096206,0.0,0.0,0.0,193.0,0.0,193.0,0.0,17.0,0.0,179.0,193.0,17.0,179.0,1744420657.3697734,0.0,2025-04-11 21:17:37.369,RIGHT,45
196.0,16859.764380426932,24020.682158551474,-31364.616020276073,-19150.03587603997,-34299.89180563591,-25655.824024179463,-13814.763881535993,-30398.68538363998,0.0,0.0,0.0,193.0,0.0,194.0,0.0,17.0,0.0,180.0,194.0,17.0,180.0,1744420657.3698187,0.0,2025-04-11 21:17:37.369,RIGHT,45
197.0,16845.23574653098,24004.566550799198,-31360.63740976303,-19147.823053338892,-34296.60609920098,-25645.564573474476,-14095.546495383562,-30429.910770644045,0.0,0.0,0.0,193.0,0.0,193.0,0.0,17.0,0.0,179.0,193.0,17.0,179.0,1744420657.3698883,0.0,2025-04-11 21:17:37.369,RIGHT,45
198.0,16826.929667822085,24012.881399736572,-31354.58008701564,-19138.30121020093,-34291.46519797626,-25639.59665770491,-14425.391188310527,-30430.849543911165,0.0,0.0,0.0,193.0,0.0,194.0,0.0,17.0,0.0,180.0,194.0,17.0,180.0,1744420657.3699691,0.0,2025-04-11 21:17:37.369,RIGHT,45
199.0,16839.33488599478,24021.442117862956,-31352.233153847836,-19133.897916543236,-34290.41466598686,-25648.962038631686,-14264.033945087665,-30410.30829075674,0.0,0.0,0.0,193.0,0.0,193.0,0.0,17.0,0.0,179.0,193.0,17.0,179.0,1744420657.3700159,0.0,2025-04-11 21:17:37.370,RIGHT,45
200.0,16858.177406570605,24019.47516435089,-31363.230212119845,-19149.65589638423,-34300.51765448066,-25662.529547516056,-13848.067980774402,-30414.73393615889,0.0,0.0,0.0,193.0,0.0,193.0,0.0,17.0,0.0,180.0,193.0,17.0,180.0,1744420657.3700616,0.0,2025-04-11 21:17:37.370,RIGHT,45
201.0,16838.23965051647,24009.70745202392,-31363.431377819943,-19150.192338251156,-34301.85875914797,-25648.78322467604,-14057.950861209734,-30448.30625633076,0.0,0.0,0.0,193.0,0.0,193.0,0.0,17.0,0.0,179.0,193.0,17.0,179.0,1744420657.370107,0.0,2025-04-11 21:17:37.370,RIGHT,45
202.0,16818.592467140254,24020.525696340286,-31358.759863228785,-19140.40227417973,-34298.08131433503,-25637.87557338185,-14409.588504980626,-30429.486087499394,0.0,0.0,0.0,193.0,0.0,193.0,0.0,17.0,0.0,179.0,193.0,17.0,179.0,1744420657.3701513,0.0,2025-04-11 21:17:37.370,RIGHT,45
203.0,16827.868441089206,24026.538315598766,-31344.566505499664,-19126.991227506547,-34275.930735579816,-25632.444099479213,-14356.525463643726,-30399.06536329572,0.0,0.0,0.0,193.0,0.0,193.0,0.0,17.0,0.0,179.0,193.0,17.0,179.0,1744420657.3703363,0.0,2025-04-11 21:17:37.370,RIGHT,45
204.0,16851.337772767278,24026.38185338758,-31354.44597654891,-19135.954277033125,-34287.15131129638,-25650.973695632663,-13852.873605832292,-30364.978953001377,0.0,0.0,0.0,193.0,0.0,194.0,0.0,17.0,0.0,180.0,194.0,17.0,180.0,1744420657.3703825,0.0,2025-04-11 21:17:37.370,RIGHT,45
205.0,16842.218261029513,24009.528638068277,-31356.748206227807,-19142.88331781427,-34288.8947473639,-25646.92802988625,-13959.781999562027,-30415.851523381654,0.0,0.0,0.0,193.0,0.0,194.0,0.0,17.0,0.0,179.0,194.0,17.0,179.0,1744420657.370428,0.0,2025-04-11 21:17:37.370,RIGHT,45
206.0,16820.38060669668,24023.029091719283,-31350.892049180515,-19129.49462288554,-34286.23488977372,-25635.305122769492,-14328.675190052414,-30415.270378025816,0.0,0.0,0.0,193.0,0.0,193.0,0.0,17.0,0.0,179.0,193.0,17.0,179.0,1744420657.370473,0.0,2025-04-11 21:17:37.370,RIGHT,45
207.0,16814.010359526917,24021.50917309632,-31350.310903824677,-19128.779367062973,-34286.72662815173,-25645.430463007746,-14406.392205523516,-30421.908846129045,0.0,0.0,0.0,193.0,0.0,194.0,0.0,17.0,0.0,180.0,194.0,17.0,180.0,1744420657.3705175,0.0,2025-04-11 21:17:37.370,RIGHT,45
208.0,16837.412635971625,24021.66563530751,-31362.000866174803,-19136.69188460015,-34302.75282892619,-25668.788035963542,-13941.587679575407,-30397.903072584042,0.0,0.0,0.0,193.0,0.0,193.0,0.0,17.0,0.0,179.0,193.0,17.0,179.0,1744420657.8437974,0.0,2025-04-11 21:17:37.843,RIGHT,45
209.0,16836.451510960043,24010.892094480052,-31360.190374873924,-19142.190413736156,-34302.81988415955,-25658.17095734727,-13964.341755430909,-30456.241125612396,0.0,0.0,0.0,193.0,0.0,194.0,0.0,17.0,0.0,180.0,194.0,17.0,180.0,1744420657.8439493,0.0,2025-04-11 21:17:37.843,RIGHT,45
210.0,16816.80432758383,24016.12240268259,-31348.63452299053,-19123.951390260627,-34287.061904318565,-25631.88530586783,-14292.286550079174,-30417.50555247135,0.0,0.0,0.0,193.0,0.0,193.0,0.0,17.0,0.0,179.0,193.0,17.0,179.0,1744420657.844008,0.0,2025-04-11 21:17:37.844,RIGHT,45
211.0,16812.915124048606,24023.118498697102,-31335.111717595068,-19111.277951154465,-34267.68294187581,-25617.69194813871,-14419.557383007692,-30384.58143288868,0.0,0.0,0.0,193.0,0.0,194.0,0.0,17.0,0.0,179.0,194.0,17.0,179.0,1744420657.844064,0.0,2025-04-11 21:17:37.844,RIGHT,45
212.0,16835.19981327055,24019.65397830653,-31344.72296771085,-19119.995131492036,-34277.94239258079,-25638.724939671152,-13973.617729379861,-30341.353159112117,0.0,0.0,0.0,193.0,0.0,193.0,0.0,17.0,0.0,179.0,193.0,17.0,179.0,1744420657.8441193,0.0,2025-04-11 21:17:37.844,RIGHT,45
213.0,16843.80523488584,24004.566550799198,-31350.467366035864,-19140.78225383547,-34284.64791591739,-25648.671465953765,-13855.354649466832,-30408.721316900414,0.0,0.0,0.0,193.0,0.0,194.0,0.0,17.0,0.0,180.0,194.0,17.0,180.0,1744420657.8441944,0.0,2025-04-11 21:17:37.844,RIGHT,45
214.0,16819.888868318663,24005.259454877312,-31349.372130557556,-19135.708407844115,-34286.436055473816,-25643.575268217955,-14193.290673886619,-30421.327700773207,0.0,0.0,0.0,193.0,0.0,194.0,0.0,17.0,0.0,180.0,194.0,17.0,180.0,1744420657.8442495,0.0,2025-04-11 21:17:37.844,RIGHT,45
215.0,16818.503060162435,24025.398376631543,-31337.145726340503,-19125.98539900606,-34278.54588968109,-25633.494631468613,-14448.413485099494,-30424.658110697048,0.0,0.0,0.0,193.0,0.0,193.0,0.0,17.0,0.0,179.0,193.0,17.0,179.0,1744420657.844304,0.0,2025-04-11 21:17:37.844,RIGHT,45
216.0,16845.794540142364,24025.75600454283,-31341.034929875725,-19126.723006573084,-34287.196014785295,-25644.849317651908,-14095.390033172374,-30369.024618747786,0.0,0.0,0.0,193.0,0.0,194.0,0.0,17.0,0.0,180.0,194.0,17.0,180.0,1744420657.8443577,0.0,2025-04-11 21:17:37.844,RIGHT,45
217.0,16843.38055174119,24003.04663217624,-31356.658799249984,-19154.93090807568,-34304.876244649444,-25666.530509773555,-13846.279841217976,-30419.53956121678,0.0,0.0,0.0,193.0,0.0,193.0,0.0,17.0,0.0,179.0,193.0,17.0,179.0,1744420657.844412,0.0,2025-04-11 21:17:37.844,RIGHT,45
218.0,16823.442795687057,23998.03984141825,-31352.948409670404,-19148.493605672553,-34302.864587648466,-25655.958134646196,-14167.988499163212,-30446.093433629685,0.0,0.0,0.0,193.0,0.0,193.0,0.0,17.0,0.0,180.0,193.0,17.0,180.0,1744420657.8445747,0.0,2025-04-11 21:17:37.844,RIGHT,45
219.0,16813.38451068217,24013.84252474815,-31339.827935675137,-19134.300247943433,-34282.859776360965,-25641.474204239155,-14443.518453063782,-30418.82430539421,0.0,0.0,0.0,193.0,0.0,193.0,0.0,17.0,0.0,179.0,193.0,17.0,179.0,1744420657.8446302,0.0,2025-04-11 21:17:37.844,RIGHT,45
220.0,16829.43306320108,24017.150582927537,-31337.123374596045,-19129.986361263556,-34281.85394786047,-25649.006742120593,-14177.62210102345,-30369.494005381348,0.0,0.0,0.0,193.0,0.0,193.0,0.0,17.0,0.0,179.0,193.0,17.0,179.0,1744420657.8446853,0.0,2025-04-11 21:17:37.844,RIGHT,45
221.0,16848.677915177097,24012.47906833638,-31346.28758982272,-19148.65006788374,-34296.002602100685,-25664.4070940503,-13821.804681039415,-30396.852540594646,0.0,0.0,0.0,193.0,0.0,194.0,0.0,17.0,0.0,180.0,194.0,17.0,180.0,1744420657.8447387,0.0,2025-04-11 21:17:37.844,RIGHT,45
222.0,16834.059874303326,24003.828943232173,-31340.230267075334,-19141.385750935766,-34285.586689184514,-25651.063102610482,-14090.69616683676,-30434.02349162382,0.0,0.0,0.0,193.0,0.0,193.0,0.0,17.0,0.0,179.0,193.0,17.0,179.0,1744420657.844793,0.0,2025-04-11 21:17:37.844,RIGHT,45
223.0,16818.033673528873,24019.85514400663,-31335.335235039624,-19131.327465930877,-34277.98709606971,-25640.289561783025,-14391.260074527274,-30408.83307562269,0.0,0.0,0.0,193.0,0.0,194.0,0.0,17.0,0.0,180.0,194.0,17.0,180.0,1744420657.8448472,0.0,2025-04-11 21:17:37.844,RIGHT,45
224.0,16827.533164922377,24023.74434754185,-31333.994130372303,-19126.87946878427,-34281.317505993546,-25646.615105463876,-14262.357564253518,-30388.135360257074,0.0,0.0,0.0,193.0,0.0,193.0,0.0,17.0,0.0,179.0,193.0,17.0,179.0,1744420657.8449197,0.0,2025-04-11 21:17:37.844,RIGHT,45
225.0,16838.843147616764,24016.435327104966,-31350.86969743606,-19143.88914631476,-34296.11436082296,-25666.03877139554,-13827.839652042348,-30382.212147976417,0.0,0.0,0.0,193.0,0.0,193.0,0.0,17.0,0.0,179.0,193.0,17.0,179.0,1744420657.844974,0.0,2025-04-11 21:17:37.844,RIGHT,45
226.0,16828.494289933955,24003.80659148772,-31347.941618912417,-19142.056303269423,-34285.81020662907,-25648.090320597927,-13999.366938992374,-30413.504590213848,0.0,0.0,0.0,193.0,0.0,194.0,0.0,17.0,0.0,180.0,194.0,17.0,180.0,1744420657.8450284,0.0,2025-04-11 21:17:37.845,RIGHT,45
227.0,16815.865554316708,24013.66371079251,-31338.196258329903,-19123.72787281607,-34280.6916571488,-25626.811459876473,-14353.418571164439,-30394.68442138248,0.0,0.0,0.0,193.0,0.0,194.0,0.0,17.0,0.0,180.0,194.0,17.0,180.0,1744420657.8450985,0.0,2025-04-11 21:17:37.845,RIGHT,45
228.0,16822.124042764193,24018.80461201723,-31330.797830915195,-19114.407195378208,-34275.32723847953,-25624.77745113104,-14348.970574017832,-30380.178139230986,0.0,0.0,0.0,193.0,0.0,194.0,0.0,17.0,0.0,180.0,194.0,17.0,180.0,1744420657.8451529,0.0,2025-04-11 21:17:37.845,RIGHT,45
229.0,16844.05110407485,24018.268170150302,-31342.979531643337,-19125.82893679487,-34284.58086068402,-25645.49751824111,-13861.635489658773,-30351.00911271681,0.0,0.0,0.0,193.0,0.0,193.0,0.0,17.0,0.0,179.0,193.0,17.0,179.0,1744420657.8452065,0.0,2025-04-11 21:17:37.845,RIGHT,45
230.0,16837.256173760437,23999.000966429827,-31348.366302057068,-19136.960105533613,-34289.36413399746,-25645.69868394121,-13956.786865805016,-30420.388927506083,0.0,0.0,0.0,193.0,0.0,194.0,0.0,17.0,0.0,179.0,194.0,17.0,179.0,1744420657.8452604,0.0,2025-04-11 21:17:37.845,RIGHT,45
231.0,16813.675083360085,24006.801725244728,-31343.940656654915,-19124.68899782765,-34282.54685193859,-25625.291541253515,-14314.97357070131,-30407.134343044087,0.0,0.0,0.0,193.0,0.0,193.0,0.0,17.0,0.0,179.0,193.0,17.0,179.0,1744420657.8453147,0.0,2025-04-11 21:17:37.845,RIGHT,45
232.0,16813.160993237616,24017.19528641645,-31337.615112974065,-19116.195334934633,-34275.81897685754,-25617.49078243861,-14407.286275301729,-30382.279203209786,0.0,0.0,0.0,193.0,0.0,194.0,0.0,17.0,0.0,180.0,194.0,17.0,180.0,1744420657.8454404,0.0,2025-04-11 21:17:37.845,RIGHT,45
233.0,16839.647810417155,24020.61510331811,-31344.2982845662,-19119.704558814115,-34277.16008152486,-25636.243896036613,-13921.426406076718,-30332.300702607718,0.0,0.0,0.0,193.0,0.0,194.0,0.0,17.0,0.0,180.0,194.0,17.0,180.0,1744420657.8454955,0.0,2025-04-11 21:17:37.845,RIGHT,45
234.0,16840.832452873285,24009.595693301642,-31347.33812181212,-19135.104910743823,-34279.46231120376,-25639.551954216,-13888.502286494051,-30403.155732531042,0.0,0.0,0.0,193.0,0.0,193.0,0.0,17.0,0.0,179.0,193.0,17.0,179.0,1744420657.845556,0.0,2025-04-11 21:17:37.845,RIGHT,45
235.0,16814.90442930513,24012.23319914737,-31345.997017144804,-19130.12047173029,-34275.21547975725,-25624.844506364407,-14231.400398182917,-30386.324868956195,0.0,0.0,0.0,193.0,0.0,194.0,0.0,17.0,0.0,180.0,194.0,17.0,180.0,1744420657.8456104,0.0,2025-04-11 21:17:37.845,RIGHT,45
236.0,16810.054100758327,24021.173896929493,-31343.38186304353,-19129.204050207623,-34272.42151170033,-25624.35276798639,-14408.314455546673,-30378.68057235248,0.0,0.0,0.0,193.0,0.0,193.0,0.0,17.0,0.0,179.0,193.0,17.0,179.0,1744420657.8456645,0.0,2025-04-11 21:17:37.845,RIGHT,45
237.0,16840.117197050717,24031.3215889122,-31355.094177138115,-19135.015503766,-34288.380657241425,-25649.4537770097,-14009.402872252807,-30358.184022686964,0.0,0.0,0.0,193.0,0.0,194.0,0.0,17.0,0.0,179.0,194.0,17.0,179.0,1744420657.8457184,0.0,2025-04-11 21:17:37.845,RIGHT,45
238.0,16845.57102269781,24013.931931725972,-31359.095139395613,-19150.728780118083,-34296.494340478705,-25653.655904967298,-13881.595597457363,-30415.60565419265,0.0,0.0,0.0,193.0,0.0,194.0,0.0,17.0,0.0,180.0,194.0,17.0,180.0,1744420657.8457725,0.0,2025-04-11 21:17:37.845,RIGHT,45
239.0,16816.42434792809,24006.555856055722,-31354.200107359902,-19141.20693698012,-34289.7441136532,-25639.440195493724,-14201.538467590628,-30403.938043586975,0.0,0.0,0.0,193.0,0.0,193.0,0.0,17.0,0.0,180.0,193.0,17.0,180.0,1744420657.84593,0.0,2025-04-11 21:17:37.845,RIGHT,45
240.0,16812.646903115143,24022.291484152258,-31339.693825208407,-19130.835727552858,-34272.98030531172,-25630.92418085625,-14422.485461531338,-30392.605709148134,0.0,0.0,0.0,193.0,0.0,194.0,0.0,17.0,0.0,180.0,194.0,17.0,180.0,1744420657.845981,0.0,2025-04-11 21:17:37.845,RIGHT,45
241.0,16841.033618573383,24037.4236151485,-31332.831839660626,-19121.93973325965,-34267.68294187581,-25640.6024862054,-14071.965404983212,-30350.919705738987,0.0,0.0,0.0,193.0,0.0,193.0,0.0,17.0,0.0,179.0,193.0,17.0,179.0,1744420657.8460295,0.0,2025-04-11 21:17:37.846,RIGHT,45
242.0,16842.86646161872,24013.574303814687,-31348.858040435083,-19150.192338251156,-34285.83255837352,-25661.099035870917,-13796.100174915813,-30397.836017350677,0.0,0.0,0.0,193.0,0.0,193.0,0.0,17.0,0.0,179.0,193.0,17.0,179.0,1744420657.846097,0.0,2025-04-11 21:17:37.846,RIGHT,45
243.0,16823.018112542406,24001.236140875357,-31346.44405203391,-19143.620925381296,-34284.84908161749,-25644.26817229607,-14105.716539110726,-30414.219846036416,0.0,0.0,0.0,193.0,0.0,194.0,0.0,17.0,0.0,180.0,194.0,17.0,180.0,1744420657.8461456,0.0,2025-04-11 21:17:37.846,RIGHT,45
244.0,16811.037577514362,24012.344957869645,-31336.139897840014,-19127.862945540302,-34277.71887513624,-25629.717186655664,-14415.846993428111,-30401.25583425234,0.0,0.0,0.0,193.0,0.0,193.0,0.0,17.0,0.0,179.0,193.0,17.0,179.0,1744420657.8461936,0.0,2025-04-11 21:17:37.846,RIGHT,45
245.0,16832.785824869374,24015.004815459826,-31334.86584840606,-19121.3138844149,-34282.45744496077,-25637.719111170663,-14187.99331045071,-30357.9158017535,0.0,0.0,0.0,193.0,0.0,194.0,0.0,17.0,0.0,180.0,194.0,17.0,180.0,1744420657.8462417,0.0,2025-04-11 21:17:37.846,RIGHT,45
246.0,16852.790636156875,24016.301216638236,-31345.549982255696,-19136.44601541114,-34296.33787826751,-25654.907602656796,-13815.702654803117,-30377.115950240608,0.0,0.0,0.0,193.0,0.0,193.0,0.0,17.0,0.0,179.0,193.0,17.0,179.0,1744420657.8462896,0.0,2025-04-11 21:17:37.846,RIGHT,45
247.0,16828.42723470059,24002.823114731684,-31345.795851444705,-19135.708407844115,-34292.582785199025,-25646.659808952787,-14059.001393199134,-30414.041032080775,0.0,0.0,0.0,193.0,0.0,194.0,0.0,17.0,0.0,180.0,194.0,17.0,180.0,1744420657.8464084,0.0,2025-04-11 21:17:37.846,RIGHT,45
248.0,16814.680911860574,24016.725899782887,-31332.34010128261,-19120.01748323649,-34275.103721034975,-25629.381910488835,-14390.768336149256,-30399.244177251363,0.0,0.0,0.0,193.0,0.0,194.0,0.0,17.0,0.0,180.0,194.0,17.0,180.0,1744420657.8464568,0.0,2025-04-11 21:17:37.846,RIGHT,45
249.0,16831.37766496869,24024.70547255343,-31328.45089774739,-19112.373186632776,-34272.868546589445,-25632.488802968124,-14283.055279619131,-30372.48913913836,0.0,0.0,0.0,193.0,0.0,194.0,0.0,17.0,0.0,179.0,194.0,17.0,179.0,1744420657.8465047,0.0,2025-04-11 21:17:37.846,RIGHT,45
250.0,16844.967525597516,24010.266245635303,-31350.82499394715,-19132.936791531658,-34295.80143640059,-25656.583983490942,-13816.104986203312,-30366.364761157605,0.0,0.0,0.0,193.0,0.0,194.0,0.0,17.0,0.0,180.0,194.0,17.0,180.0,1744420657.8465528,0.0,2025-04-11 21:17:37.846,RIGHT,45
251.0,16837.747912138453,23997.257530362313,-31351.272028836254,-19133.629695609772,-34294.30386952208,-25644.245820551616,-14001.87033437137,-30417.527904215804,0.0,0.0,0.0,193.0,0.0,193.0,0.0,17.0,0.0,179.0,193.0,17.0,179.0,1744420657.8466008,0.0,2025-04-11 21:17:37.846,RIGHT,45
252.0,16828.6731038896,24016.79295501625,-31337.39159552951,-19112.909628499703,-34279.88699434841,-25615.45677369318,-14365.756734103768,-30391.130494014087,0.0,0.0,0.0,193.0,0.0,194.0,0.0,17.0,0.0,180.0,194.0,17.0,180.0,1744420657.8466492,0.0,2025-04-11 21:17:37.846,RIGHT,45
253.0,16830.70711263503,24024.3701963866,-31329.85905764807,-19102.314901627888,-34271.12511052193,-25614.540352170512,-14360.280556712218,-30368.890508281056,0.0,0.0,0.0,193.0,0.0,193.0,0.0,17.0,0.0,179.0,193.0,17.0,179.0,1744420657.846697,0.0,2025-04-11 21:17:37.846,RIGHT,45
254.0,16847.605031443243,24018.536391083766,-31349.908572424483,-19122.275009426477,-34292.0463433321,-25647.3527130309,-13861.300213491942,-30349.422138860482,0.0,0.0,0.0,193.0,0.0,194.0,0.0,17.0,0.0,179.0,194.0,17.0,179.0,1744420657.8467948,0.0,2025-04-11 21:17:37.846,RIGHT,45
255.0,16840.675990662097,24007.3158153672,-31353.328389326143,-19133.272067698486,-34294.7956079001,-25644.156413573794,-13947.309726155965,-30420.72420367291,0.0,0.0,0.0,193.0,0.0,193.0,0.0,17.0,0.0,179.0,193.0,17.0,179.0,1744420657.8468435,0.0,2025-04-11 21:17:37.846,RIGHT,45
0.0,16818.7712810959,24015.34009162666,-31344.119470610556,-19115.144802945233,-34284.603212428476,-25621.178820273737,-14303.976512429299,-30393.611537648623,0.0,0.0,0.0,193.0,0.0,194.0,0.0,17.0,0.0,180.0,194.0,17.0,180.0,1744420657.8468916,0.0,2025-04-11 21:17:37.846,RIGHT,45
1.0,16816.51375490591,24016.234161404867,-31339.067976363658,-19113.669587811182,-34282.25627926067,-25625.470355209156,-14411.153127092497,-30391.8233980922,0.0,0.0,0.0,193.0,0.0,194.0,0.0,17.0,0.0,180.0,194.0,17.0,180.0,1744420657.8469558,0.0,2025-04-11 21:17:37.846,RIGHT,45
2.0,16841.212432529024,24017.709376538918,-31349.148613113,-19122.342064659842,-34293.16393055486,-25644.983428118638,-13947.309726155965,-30348.125737682076,0.0,0.0,0.0,193.0,0.0,193.0,0.0,17.0,0.0,179.0,193.0,17.0,179.0,1744420657.847004,0.0,2025-04-11 21:17:37.847,RIGHT,45
3.0,16837.412635971625,24000.31971935269,-31354.96006667138,-19140.02229452399,-34290.63818343141,-25652.98535263364,-13896.526562753506,-30413.370479747115,0.0,0.0,0.0,193.0,0.0,194.0,0.0,17.0,0.0,180.0,194.0,17.0,180.0,1744420657.847052,0.0,2025-04-11 21:17:37.847,RIGHT,45
4.0,16827.533164922377,24011.94262646945,-31342.264275820766,-19120.68803557015,-34272.220346000235,-25626.78910813202,-14237.949459308322,-30393.097447526154,0.0,0.0,0.0,193.0,0.0,193.0,0.0,17.0,0.0,179.0,193.0,17.0,179.0,1744420657.8470995,0.0,2025-04-11 21:17:37.847,RIGHT,45
5.0,16821.90052531964,24025.688949309464,-31331.49073499331,-19112.082613954855,-34260.10570050546,-25615.188552759715,-14416.584600995136,-30370.790406559758,0.0,0.0,0.0,193.0,0.0,194.0,0.0,17.0,0.0,180.0,194.0,17.0,180.0,1744420657.8471477,0.0,2025-04-11 21:17:37.847,RIGHT,45
6.0,16842.79940638535,24028.41586213301,-31336.609284473576,-19117.201163435122,-34271.01335179965,-25636.82504139245,-14019.505860746607,-30342.828374246168,0.0,0.0,0.0,193.0,0.0,193.0,0.0,17.0,0.0,179.0,193.0,17.0,179.0,1744420657.8472772,0.0,2025-04-11 21:17:37.847,RIGHT,45
7.0,16845.70513316454,24012.05438519173,-31349.103909624093,-19143.08448351437,-34289.52059620865,-25654.773492190063,-13854.661745388717,-30404.16156103153,0.0,0.0,0.0,193.0,0.0,194.0,0.0,17.0,0.0,180.0,194.0,17.0,180.0,1744420657.8473258,0.0,2025-04-11 21:17:37.847,RIGHT,45
8.0,16823.33103696478,24003.78423974326,-31344.320636310655,-19134.970800277093,-34280.82576761553,-25638.143794315314,-14167.13913287391,-30392.695116125957,0.0,0.0,0.0,193.0,0.0,193.0,0.0,17.0,0.0,179.0,193.0,17.0,179.0,1744420657.8473735,0.0,2025-04-11 21:17:37.847,RIGHT,45
9.0,16810.970522280993,24013.686062536963,-31332.92124663845,-19126.45478563962,-34267.30296222007,-25631.617084934365,-14415.176441094452,-30386.324868956195,0.0,0.0,0.0,193.0,0.0,193.0,0.0,17.0,0.0,179.0,193.0,17.0,179.0,1744420657.8474212,0.0,2025-04-11 21:17:37.847,RIGHT,45
10.0,16839.71486565052,24018.715205039407,-31334.731737939328,-19124.64429433874,-34277.36124722496,-25647.240954308625,-14105.336559454985,-30360.28508666576,0.0,0.0,0.0,193.0,0.0,193.0,0.0,17.0,0.0,180.0,193.0,17.0,180.0,1744420657.8474689,0.0,2025-04-11 21:17:37.847,RIGHT,45
11.0,16855.539900724878,24012.27790263628,-31345.170002599956,-19146.034913782467,-34288.58182294152,-25660.719056215177,-13808.72891053306,-30401.88168309709,0.0,0.0,0.0,193.0,0.0,193.0,0.0,17.0,0.0,179.0,193.0,17.0,179.0,1744420657.8475173,0.0,2025-04-11 21:17:37.847,RIGHT,45
12.0,16832.495252191457,24006.13117291107,-31343.851249677093,-19139.4187974237,-34288.22419503024,-25648.447948509212,-14104.93422805479,-30422.64645369607,0.0,0.0,0.0,193.0,0.0,193.0,0.0,17.0,0.0,179.0,193.0,17.0,179.0,1744420657.8476193,0.0,2025-04-11 21:17:37.847,RIGHT,45
13.0,16815.642036872156,24018.13405968357,-31335.715214695363,-19127.393558906744,-34279.32820073703,-25627.996102332607,-14404.827583411645,-30386.660145123024,0.0,0.0,0.0,193.0,0.0,194.0,0.0,17.0,0.0,179.0,194.0,17.0,179.0,1744420657.8476677,0.0,2025-04-11 21:17:37.847,RIGHT,45
14.0,16830.751816123942,24021.71033879642,-31332.273046049246,-19121.962085004103,-34274.27670649013,-25632.667616923765,-14204.779470536647,-30347.09755743713,0.0,0.0,0.0,193.0,0.0,193.0,0.0,17.0,0.0,180.0,193.0,17.0,180.0,1744420657.8477156,0.0,2025-04-11 21:17:37.847,RIGHT,45
15.0,16850.130778566694,24014.08839393716,-31346.891086923017,-19143.196242236645,-34290.481721220225,-25656.56163174649,-13803.610361052795,-30367.43764489146,0.0,0.0,0.0,193.0,0.0,193.0,0.0,17.0,0.0,179.0,193.0,17.0,179.0,1744420657.8477633,0.0,2025-04-11 21:17:37.847,RIGHT,45
16.0,16830.595353912755,24002.778411242773,-31346.95814215638,-19143.844442825848,-34286.88309036292,-25649.74434968762,-14042.595212768938,-30419.29369202777,0.0,0.0,0.0,193.0,0.0,193.0,0.0,17.0,0.0,179.0,193.0,17.0,179.0,1744420657.8478289,0.0,2025-04-11 21:17:37.847,RIGHT,45
17.0,16811.14933623664,24012.926103225484,-31333.256522805277,-19121.716215815093,-34270.52161342163,-25621.469392951658,-14372.55166441818,-30381.42983692048,0.0,0.0,0.0,193.0,0.0,194.0,0.0,17.0,0.0,180.0,194.0,17.0,180.0,1744420657.847877,0.0,2025-04-11 21:17:37.847,RIGHT,45
18.0,16825.365045710212,24015.362443371112,-31331.513086737763,-19116.441204123643,-34269.49343317669,-25630.4994977116,-14285.49161976476,-30362.073226222186,0.0,0.0,0.0,193.0,0.0,193.0,0.0,17.0,0.0,179.0,193.0,17.0,179.0,1744420657.8479247,0.0,2025-04-11 21:17:37.847,RIGHT,45
19.0,16852.880043134697,24013.32843462568,-31342.286627565223,-19128.667608340696,-34280.55754668207,-25650.21373632118,-13823.59282059584,-30358.787519787256,0.0,0.0,0.0,193.0,0.0,194.0,0.0,17.0,0.0,180.0,194.0,17.0,180.0,1744420657.8479729,0.0,2025-04-11 21:17:37.847,RIGHT,45
20.0,16842.19590928506,23998.933911196462,-31343.4489182769,-19133.003846765023,-34278.34472398099,-25642.83766065093,-13980.658528883283,-30410.978843090397,0.0,0.0,0.0,193.0,0.0,193.0,0.0,17.0,0.0,179.0,193.0,17.0,179.0,1744420657.8480203,0.0,2025-04-11 21:17:37.848,RIGHT,45
21.0,16815.574981638787,24010.60152180213,-31342.44308977641,-19123.079672226868,-34273.67320938983,-25628.666654666264,-14324.36130337254,-30388.001249790344,0.0,0.0,0.0,193.0,0.0,194.0,0.0,17.0,0.0,179.0,194.0,17.0,179.0,1744420657.8482175,0.0,2025-04-11 21:17:37.848,RIGHT,45
22.0,16819.285371218368,24018.938722483963,-31337.63746471852,-19114.630712822764,-34271.818014600045,-25625.35859648688,-14364.482684669816,-30378.63586886357,0.0,0.0,0.0,193.0,0.0,194.0,0.0,17.0,0.0,180.0,194.0,17.0,180.0,1744420657.8482673,0.0,2025-04-11 21:17:37.848,RIGHT,45
23.0,16845.727484909,24020.346882384645,-31349.528592768744,-19123.839631538347,-34287.888918863406,-25644.044654851517,-13890.536295239484,-30347.745758026336,0.0,0.0,0.0,193.0,0.0,193.0,0.0,17.0,0.0,179.0,193.0,17.0,179.0,1744420657.8483157,0.0,2025-04-11 21:17:37.848,RIGHT,45
24.0,16838.217298772015,24000.94556819744,-31361.240906863324,-19141.966896291604,-34301.5458347256,-25646.011608363584,-13945.923917999735,-30413.281072769296,0.0,0.0,0.0,193.0,0.0,194.0,0.0,17.0,0.0,180.0,194.0,17.0,180.0,1744420657.848364,0.0,2025-04-11 21:17:37.848,RIGHT,45
25.0,16817.027845028384,24008.835733990163,-31353.39544455951,-19124.867811783293,-34288.805340386076,-25629.31485525547,-14300.10966063853,-30399.35593597364,0.0,0.0,0.0,193.0,0.0,194.0,0.0,17.0,0.0,180.0,194.0,17.0,180.0,1744420657.8484123,0.0,2025-04-11 21:17:37.848,RIGHT,45
26.0,16810.99287402545,24013.864876492607,-31342.10781360958,-19111.993206977037,-34274.23200300121,-25625.582113931432,-14407.62155146856,-30388.045953279252,0.0,0.0,0.0,193.0,0.0,193.0,0.0,17.0,0.0,179.0,193.0,17.0,179.0,1744420657.8484612,0.0,2025-04-11 21:17:37.848,RIGHT,45
27.0,16835.825662115298,24013.373138114588,-31351.4508427919,-19120.129241958766,-34290.07938982003,-25645.49751824111,-13948.919051756748,-30346.225839403374,0.0,0.0,0.0,193.0,0.0,194.0,0.0,17.0,0.0,180.0,194.0,17.0,180.0,1744420657.8485737,0.0,2025-04-11 21:17:37.848,RIGHT,45
28.0,16833.456377203034,24003.158390898516,-31355.608267260584,-19137.228326467077,-34290.63818343141,-25644.44698625171,-13873.41485898672,-30390.34818295815,0.0,0.0,0.0,193.0,0.0,193.0,0.0,17.0,0.0,179.0,193.0,17.0,179.0,1744420657.8486223,0.0,2025-04-11 21:17:37.848,RIGHT,45
29.0,16809.13767923566,24000.11855365259,-31352.277857336743,-19128.51114612951,-34284.26793626165,-25630.633608178334,-14215.91063927539,-30378.5688136302,0.0,0.0,0.0,193.0,0.0,194.0,0.0,17.0,0.0,180.0,194.0,17.0,180.0,1744420657.8486705,0.0,2025-04-11 21:17:37.848,RIGHT,45
30.0,16807.193077468048,24010.154486913027,-31342.264275820766,-19121.090366970348,-34275.30488673507,-25628.934875599727,-14431.85084245811,-30383.77677008829,0.0,0.0,0.0,193.0,0.0,194.0,0.0,17.0,0.0,180.0,194.0,17.0,180.0,1744420657.848718,0.0,2025-04-11 21:17:37.848,RIGHT,45
31.0,16830.99768531295,24016.256513149325,-31345.43822353342,-19122.565582104395,-34281.518671693644,-25648.090320597927,-14040.20357611222,-30346.7622812703,0.0,0.0,0.0,193.0,0.0,193.0,0.0,17.0,0.0,179.0,193.0,17.0,179.0,1744420657.848784,0.0,2025-04-11 21:17:37.848,RIGHT,45
32.0,16839.826624372796,24006.84642873364,-31350.132089869036,-19138.99411427905,-34287.97832584123,-25660.294373070526,-13832.757035822517,-30400.853502852144,0.0,0.0,0.0,193.0,0.0,194.0,0.0,17.0,0.0,179.0,194.0,17.0,179.0,1744420657.848832,0.0,2025-04-11 21:17:37.848,RIGHT,45
33.0,16825.499156176946,24006.28763512226,-31340.409081030975,-19123.571410604884,-34275.46134894626,-25637.808518148486,-14153.593975733993,-30397.567796417214,0.0,0.0,0.0,193.0,0.0,193.0,0.0,17.0,0.0,179.0,193.0,17.0,179.0,1744420657.8488796,0.0,2025-04-11 21:17:37.848,RIGHT,45
34.0,16816.200830483536,24018.871667250594,-31330.328444281633,-19112.954331988614,-34266.31948546404,-25628.510192455076,-14419.646789985514,-30388.69415386846,0.0,0.0,0.0,193.0,0.0,194.0,0.0,17.0,0.0,180.0,194.0,17.0,180.0,1744420657.8489275,0.0,2025-04-11 21:17:37.848,RIGHT,45
35.0,16841.033618573383,24026.583019087677,-31331.133107082023,-19110.048605209424,-34275.371941968435,-25637.540297215022,-14137.74658891518,-30347.835165004155,0.0,0.0,0.0,193.0,0.0,193.0,0.0,17.0,0.0,179.0,193.0,17.0,179.0,1744420657.8489752,0.0,2025-04-11 21:17:37.848,RIGHT,45
36.0,16853.05885709034,24025.420728376,-31339.939694397417,-19127.773538562484,-34286.838386874006,-25649.051445609504,-13826.49854737503,-30373.45026414994,0.0,0.0,0.0,193.0,0.0,193.0,0.0,17.0,0.0,180.0,193.0,17.0,180.0,1744420657.8491092,0.0,2025-04-11 21:17:37.849,RIGHT,45
37.0,16829.388359712168,24009.863914235106,-31335.044662361703,-19120.553925103417,-34277.71887513624,-25634.478108224645,-14099.346291940963,-30394.550310915747,0.0,0.0,0.0,193.0,0.0,193.0,0.0,17.0,0.0,179.0,193.0,17.0,179.0,1744420657.849158,0.0,2025-04-11 21:17:37.849,RIGHT,45
38.0,16812.110461248216,24014.356614870623,-31330.23903730381,-19113.915457000192,-34267.07944477552,-25629.538372700023,-14388.689623914914,-30377.428874662983,0.0,0.0,0.0,193.0,0.0,193.0,0.0,17.0,0.0,179.0,193.0,17.0,179.0,1744420657.8492126,0.0,2025-04-11 21:17:37.849,RIGHT,45
39.0,16829.85774634573,24021.397414374045,-31327.735641924817,-19111.523820343475,-34272.91325007835,-25644.26817229607,-14225.410130668895,-30375.841900806656,0.0,0.0,0.0,193.0,0.0,194.0,0.0,17.0,0.0,180.0,194.0,17.0,180.0,1744420657.8492608,0.0,2025-04-11 21:17:37.849,RIGHT,45
40.0,16843.6264209302,24015.295388137747,-31344.05241537719,-19129.27110544099,-34298.34953526849,-25660.964925404183,-13828.107872975812,-30380.91574679801,0.0,0.0,0.0,193.0,0.0,193.0,0.0,17.0,0.0,179.0,193.0,17.0,179.0,1744420657.8493085,0.0,2025-04-11 21:17:37.849,RIGHT,45
41.0,16833.679894647586,24008.14282991205,-31338.129203096534,-19124.53253561646,-34286.7936833851,-25641.854183894895,-14046.663230259805,-30403.580415675693,0.0,0.0,0.0,193.0,0.0,194.0,0.0,17.0,0.0,180.0,194.0,17.0,180.0,1744420657.8493562,0.0,2025-04-11 21:17:37.849,RIGHT,45
42.0,16814.502097904933,24021.71033879642,-31331.937769882414,-19112.753166288516,-34274.746093123686,-25628.197268032705,-14362.89571081349,-30379.14995898604,0.0,0.0,0.0,193.0,0.0,193.0,0.0,17.0,0.0,179.0,193.0,17.0,179.0,1744420657.8494203,0.0,2025-04-11 21:17:37.849,RIGHT,45
43.0,16830.595353912755,24030.874554023096,-31324.71815642335,-19103.79011676194,-34272.91325007835,-25625.06802380896,-14315.822936990613,-30366.87885128008,0.0,0.0,0.0,193.0,0.0,193.0,0.0,17.0,0.0,179.0,193.0,17.0,179.0,1744420657.8494687,0.0,2025-04-11 21:17:37.849,RIGHT,45
44.0,16854.310554779837,24030.874554023096,-31340.92317115345,-19117.312922157398,-34295.35440151148,-25643.351750773403,-13845.095198761845,-30341.86724923459,0.0,0.0,0.0,193.0,0.0,193.0,0.0,17.0,0.0,180.0,193.0,17.0,180.0,1744420657.8495169,0.0,2025-04-11 21:17:37.849,RIGHT,45
45.0,16841.212432529024,24014.356614870623,-31342.57720024314,-19124.577239105372,-34293.43215148833,-25638.970808860162,-13987.878142342346,-30409.81655237872,0.0,0.0,0.0,193.0,0.0,194.0,0.0,17.0,0.0,180.0,194.0,17.0,180.0,1744420657.849586,0.0,2025-04-11 21:17:37.849,RIGHT,45
46.0,16816.29023746136,24015.5189055823,-31338.084499607623,-19115.144802945233,-34279.21644201475,-25624.196305775204,-14329.681018552903,-30382.145092743052,0.0,0.0,0.0,193.0,0.0,193.0,0.0,17.0,0.0,179.0,193.0,17.0,179.0,1744420657.8496346,0.0,2025-04-11 21:17:37.849,RIGHT,45
47.0,16819.397129940644,24020.27982715128,-31334.843496661604,-19114.1613261892,-34274.07554079003,-25626.096204053905,-14372.685774884912,-30370.29866818174,0.0,0.0,0.0,193.0,0.0,194.0,0.0,17.0,0.0,180.0,194.0,17.0,180.0,1744420657.8496833,0.0,2025-04-11 21:17:37.849,RIGHT,45
