Sample Index,EXG Channel 0,EXG Channel 1,EXG Channel 2,EXG Channel 3,EXG Channel 4,EXG Channel 5,EXG Channel 6,EXG Channel 7,Accel Channel 0,Accel Channel 1,Accel Channel 2,Not Used,Digital Channel 0 (D11),Digital Channel 1 (D12),Digital Channel 2 (D13),Digital Channel 3 (D17),Not Used,Digital Channel 4 (D18),Analog Channel 0,Analog Channel 1,Analog Channel 2,Timestamp,Marker Channel,Timestamp (Formatted),Stimulus_Direction,Stimulus_Number
170.0,7680.081746587962,-12212.903763401959,-21504.702747428746,-23778.50100737822,15957.20093932163,9508.968533154552,34822.40853576762,49566.848524433204,0.0,0.0,0.0,193.0,0.0,193.0,0.0,1.0,0.0,179.0,193.0,1.0,179.0,1744418814.0822384,0.0,2025-04-11 20:46:54.082,RIGHT,36
171.0,7683.412156511803,-12190.59672243556,-21524.64050348288,-23738.93841969233,15843.18469085511,9650.544482534468,34614.8725885001,49582.56180078528,0.0,0.0,0.0,193.0,0.0,193.0,0.0,1.0,0.0,179.0,193.0,1.0,179.0,1744418814.0822704,0.0,2025-04-11 20:46:54.082,RIGHT,36
172.0,7691.145860093339,-12166.143914001455,-21509.530724231092,-23722.442832284312,15822.665789445138,9857.208711768237,34384.18023397687,49704.60232551126,0.0,0.0,0.0,193.0,0.0,193.0,0.0,1.0,0.0,178.0,193.0,1.0,178.0,1744418814.082302,0.0,2025-04-11 20:46:54.082,RIGHT,36
173.0,7685.557923979512,-12182.371280476009,-21460.02161026259,-23737.574963280556,16001.233875898586,9781.41394632029,34592.87847195607,49724.003639698465,0.0,0.0,0.0,193.0,0.0,192.0,0.0,1.0,0.0,178.0,192.0,1.0,178.0,1744418814.0823505,0.0,2025-04-11 20:46:54.082,RIGHT,36
174.0,7673.599740695923,-12213.686074457893,-21483.759162874125,-23769.336792151546,16001.256227643042,9536.975268957052,34824.06256485731,49604.82413826277,0.0,0.0,0.0,193.0,0.0,193.0,0.0,1.0,0.0,179.0,193.0,1.0,179.0,1744418814.082383,0.0,2025-04-11 20:46:54.082,RIGHT,36
175.0,7686.183772824261,-12189.993225335267,-21510.06716609802,-23731.60704751099,15871.772572013448,9610.847784381842,34653.2281819854,49567.42966978904,0.0,0.0,0.0,193.0,0.0,193.0,0.0,1.0,0.0,178.0,193.0,1.0,178.0,1744418814.0824142,0.0,2025-04-11 20:46:54.082,RIGHT,36
176.0,7692.9563513942185,-12173.40823094943,-21511.452974254247,-23713.7480036912,15815.043844585878,9856.627566412399,34408.5212836887,49696.1310143627,0.0,0.0,0.0,193.0,0.0,192.0,0.0,1.0,0.0,178.0,192.0,1.0,178.0,1744418814.082446,0.0,2025-04-11 20:46:54.082,RIGHT,36
177.0,7690.587066481957,-12188.942693345869,-21454.8136538045,-23724.4991927742,15983.68775650117,9813.84632752494,34527.76784035777,49734.6877735481,0.0,0.0,0.0,193.0,0.0,193.0,0.0,1.0,0.0,179.0,193.0,1.0,179.0,1744418814.0824912,0.0,2025-04-11 20:46:54.082,RIGHT,36
178.0,7665.731926647655,-12220.190432094389,-21481.34517447295,-23777.629289344466,16026.804271555457,9579.644749122233,34847.71071049103,49659.04947031134,0.0,0.0,0.0,193.0,0.0,192.0,0.0,1.0,0.0,178.0,192.0,1.0,178.0,1744418814.082523,0.0,2025-04-11 20:46:54.082,RIGHT,36
179.0,7662.043888812529,-12203.493678986273,-21523.567619749025,-23759.03263795765,15886.278854164942,9557.248301178015,34706.42533378903,49576.146850126606,0.0,0.0,0.0,193.0,0.0,193.0,0.0,1.0,0.0,179.0,193.0,1.0,179.0,1744418814.0825548,0.0,2025-04-11 20:46:54.082,RIGHT,36
180.0,7674.8737901298755,-12179.197332763355,-21529.960218663244,-23729.930666676843,15810.975827095011,9834.164063234814,34446.89922891846,49705.049360400364,0.0,0.0,0.0,193.0,0.0,193.0,0.0,1.0,0.0,179.0,193.0,1.0,179.0,1744418814.0825863,0.0,2025-04-11 20:46:54.082,RIGHT,36
181.0,7684.1497640788275,-12188.294492756664,-21483.088610540464,-23736.74794873571,15950.54011947395,9845.451694184745,34467.32872335061,49762.91802679515,0.0,0.0,0.0,193.0,0.0,193.0,0.0,1.0,0.0,178.0,193.0,1.0,178.0,1744418814.082618,0.0,2025-04-11 20:46:54.082,RIGHT,36
182.0,7653.997260808619,-12231.858042700058,-21496.96904384721,-23790.392135428447,16054.56513816895,9627.388075278768,34827.28121605888,49713.14069189319,0.0,0.0,0.0,193.0,0.0,193.0,0.0,1.0,0.0,179.0,193.0,1.0,179.0,1744418814.0826497,0.0,2025-04-11 20:46:54.082,RIGHT,36
183.0,7655.628938153856,-12217.284705315198,-21534.58702976549,-23780.311498679104,15926.802566862414,9522.021951916451,34742.63515980663,49597.537469570336,0.0,0.0,0.0,193.0,0.0,193.0,0.0,1.0,0.0,179.0,193.0,1.0,179.0,1744418814.0826812,0.0,2025-04-11 20:46:54.082,RIGHT,36
184.0,7658.668775399778,-12205.0806528426,-21550.41206483985,-23750.382512853448,15813.255705029453,9781.50335329811,34476.716456021844,49699.953162664555,0.0,0.0,0.0,193.0,0.0,193.0,0.0,1.0,0.0,178.0,193.0,1.0,178.0,1744418814.082713,0.0,2025-04-11 20:46:54.082,RIGHT,36
185.0,7675.589045952445,-12202.800774908159,-21499.897122370854,-23743.386416838937,15905.143726485221,9840.176682493291,34400.40760045142,49765.600236129794,0.0,0.0,0.0,193.0,0.0,193.0,0.0,1.0,0.0,179.0,193.0,1.0,179.0,1744418814.0827444,0.0,2025-04-11 20:46:54.082,RIGHT,36
186.0,7649.37044970637,-12236.082522402112,-21492.386936233874,-23788.313423194104,16054.453379446672,9666.973014709118,34762.21528794948,49739.35928813926,0.0,0.0,0.0,193.0,0.0,193.0,0.0,1.0,0.0,179.0,193.0,1.0,179.0,1744418814.082776,0.0,2025-04-11 20:46:54.082,RIGHT,36
187.0,7646.79999909401,-12228.75115022077,-21533.670608242825,-23787.106428993517,15943.454616481617,9493.299960291382,34729.49233406691,49599.839699249234,0.0,0.0,0.0,193.0,0.0,192.0,0.0,1.0,0.0,178.0,192.0,1.0,178.0,1744418814.0828075,0.0,2025-04-11 20:46:54.082,RIGHT,36
188.0,7655.517179431579,-12210.065091856133,-21559.17394866633,-23752.148300665416,15831.025341871422,9733.581213185933,34400.161731262415,49679.0766333433,0.0,0.0,0.0,193.0,0.0,193.0,0.0,1.0,0.0,179.0,193.0,1.0,179.0,1744418814.0828676,0.0,2025-04-11 20:46:54.082,RIGHT,36
189.0,7670.068165071984,-12203.22545805281,-21523.858192426946,-23745.778053495655,15865.804656243881,9865.344746749968,34159.679312667766,49773.57980890034,0.0,0.0,0.0,193.0,0.0,192.0,0.0,1.0,0.0,178.0,192.0,1.0,178.0,1744418814.0828986,0.0,2025-04-11 20:46:54.082,RIGHT,36
190.0,7652.812618352487,-12236.41779856894,-21494.197427534753,-23783.686612091853,16029.911164034746,9729.960230584173,34438.18204858089,49767.835410575324,0.0,0.0,0.0,193.0,0.0,192.0,0.0,1.0,0.0,178.0,192.0,1.0,178.0,1744418814.0829291,0.0,2025-04-11 20:46:54.082,RIGHT,36
191.0,7662.0215370680735,-12223.856118185058,-21521.64536972587,-23787.888740049453,15958.653802711226,9502.35241679578,34466.47935706131,49620.67152508158,0.0,0.0,0.0,193.0,0.0,193.0,0.0,1.0,0.0,179.0,193.0,1.0,179.0,1744418814.08296,0.0,2025-04-11 20:46:54.082,RIGHT,36
192.0,7672.929188362264,-12189.635597423983,-21541.918401946834,-23740.190117381826,15842.715304221549,9692.811631299452,34223.985281465684,49665.19620003655,0.0,0.0,0.0,193.0,0.0,193.0,0.0,1.0,0.0,179.0,193.0,1.0,179.0,1744418814.0830028,0.0,2025-04-11 20:46:54.083,RIGHT,36
193.0,7678.360662264903,-12186.036966566679,-21520.147802847365,-23729.863611443474,15840.591888498295,9856.024069312105,34015.84583709787,49777.17843975764,0.0,0.0,0.0,193.0,0.0,192.0,0.0,1.0,0.0,178.0,192.0,1.0,178.0,1744418814.0830336,0.0,2025-04-11 20:46:54.083,RIGHT,36
194.0,7664.167304535784,-12218.201126837866,-21481.702802384236,-23759.390265868937,16023.183288953698,9738.45389347719,34278.16591002535,49790.52243119746,0.0,0.0,0.0,193.0,0.0,193.0,0.0,1.0,0.0,179.0,193.0,1.0,179.0,1744418814.08308,0.0,2025-04-11 20:46:54.083,RIGHT,36
195.0,7659.696955644722,-12226.404217052963,-21513.64344521087,-23779.596242856533,15987.509904803028,9496.02687311493,34429.75544092124,49653.59564466425,0.0,0.0,0.0,193.0,0.0,193.0,0.0,1.0,0.0,179.0,193.0,1.0,179.0,1744418814.08314,0.0,2025-04-11 20:46:54.083,RIGHT,36
196.0,7656.0312695540515,-12210.623885467516,-21551.46259682925,-23743.945210450318,15864.105923665276,9634.585336993377,34232.00955772514,49655.853170854236,0.0,0.0,0.0,193.0,0.0,193.0,0.0,1.0,0.0,178.0,193.0,1.0,178.0,1744418814.083171,0.0,2025-04-11 20:46:54.083,RIGHT,36
197.0,7677.444240742236,-12185.433469466385,-21527.948561662266,-23714.284445558125,15830.198327326576,9863.914235104829,33982.944069259654,49772.238704233016,0.0,0.0,0.0,193.0,0.0,193.0,0.0,1.0,0.0,179.0,193.0,1.0,179.0,1744418814.0832016,0.0,2025-04-11 20:46:54.083,RIGHT,36
198.0,7677.019557597585,-12197.503411472251,-21473.834988335966,-23727.874306186954,16000.093936931366,9811.544097846043,34173.26917329659,49800.267791779974,0.0,0.0,0.0,193.0,0.0,193.0,0.0,1.0,0.0,179.0,193.0,1.0,179.0,1744418814.083232,0.0,2025-04-11 20:46:54.083,RIGHT,36
199.0,7662.826199868465,-12221.062150128146,-21503.138125316877,-23770.856710774508,16007.581771323894,9574.36973743078,34435.745708435265,49703.663552244136,0.0,0.0,0.0,193.0,0.0,192.0,0.0,1.0,0.0,178.0,192.0,1.0,178.0,1744418814.0832624,0.0,2025-04-11 20:46:54.083,RIGHT,36
200.0,7669.330557504959,-12205.594742965073,-21531.010750652644,-23737.686722002833,15883.730755297036,9623.342409532359,34267.37001745344,49663.184543035575,0.0,0.0,0.0,193.0,0.0,193.0,0.0,1.0,0.0,179.0,193.0,1.0,179.0,1744418814.0832927,0.0,2025-04-11 20:46:54.083,RIGHT,36
201.0,7681.37814776637,-12173.631748393984,-21527.501526773158,-23709.67998620033,15822.486975489495,9866.90936886184,33999.082028756384,49779.9500560701,0.0,0.0,0.0,193.0,0.0,193.0,0.0,1.0,0.0,179.0,193.0,1.0,179.0,1744418814.0833232,0.0,2025-04-11 20:46:54.083,RIGHT,36
202.0,7682.361624522403,-12185.098193299556,-21476.24897673714,-23723.180439851338,15970.611985994816,9835.952202791239,34086.92438446574,49808.53793722844,0.0,0.0,0.0,193.0,0.0,193.0,0.0,1.0,0.0,178.0,193.0,1.0,178.0,1744418814.0833533,0.0,2025-04-11 20:46:54.083,RIGHT,36
203.0,7667.8329906264535,-12227.164176364444,-21494.040965323566,-23770.49908286322,16017.796518539968,9605.438662223658,34408.18600752187,49723.33308736481,0.0,0.0,0.0,193.0,0.0,192.0,0.0,1.0,0.0,178.0,192.0,1.0,178.0,1744418814.0833976,0.0,2025-04-11 20:46:54.083,RIGHT,36
204.0,7651.963252063186,-12221.822109439625,-21538.386826322894,-23757.020980956673,15881.607339573782,9577.387222932246,34291.845177632,49645.48196142697,0.0,0.0,0.0,193.0,0.0,193.0,0.0,1.0,0.0,179.0,193.0,1.0,179.0,1744418814.0834289,0.0,2025-04-11 20:46:54.083,RIGHT,36
205.0,7666.178961536761,-12195.089423071078,-21533.849422198466,-23718.017186882164,15814.909734119146,9839.640240626364,34029.726270404615,49764.616759373755,0.0,0.0,0.0,193.0,0.0,193.0,0.0,1.0,0.0,178.0,193.0,1.0,178.0,1744418814.0834591,0.0,2025-04-11 20:46:54.083,RIGHT,36
206.0,7672.549208706523,-12200.520896973718,-21487.15662803133,-23723.82864044054,15958.832616666868,9866.57409269501,34043.36083452235,49832.6107660068,0.0,0.0,0.0,193.0,0.0,192.0,0.0,1.0,0.0,178.0,192.0,1.0,178.0,1744418814.08349,0.0,2025-04-11 20:46:54.083,RIGHT,36
207.0,7648.744600861622,-12238.250641614277,-21500.321805515505,-23777.7633998112,16061.896510350289,9668.425878098713,34419.36187974952,49797.071492322866,0.0,0.0,0.0,193.0,0.0,193.0,0.0,1.0,0.0,179.0,193.0,1.0,179.0,1744418814.0835323,0.0,2025-04-11 20:46:54.083,RIGHT,36
208.0,7658.132333532851,-12220.860984428047,-21527.680340728803,-23756.17161466737,15941.219442036087,9532.303754365892,34342.8071549901,49665.10679305873,0.0,0.0,0.0,193.0,0.0,192.0,0.0,1.0,0.0,178.0,192.0,1.0,178.0,1744418814.0835633,0.0,2025-04-11 20:46:54.083,RIGHT,36
209.0,7673.532685462557,-12177.766821118215,-21535.659913499345,-23713.055099613084,15835.987429140501,9793.305074370513,34075.88262270482,49758.93941628211,0.0,0.0,0.0,193.0,0.0,193.0,0.0,0.0,0.0,178.0,193.0,0.0,178.0,1744418814.083594,0.0,2025-04-11 20:46:54.083,RIGHT,36
210.0,7696.28676131806,-12143.613355590505,-21499.226570037197,-23711.11049784547,15900.539267127428,9880.85685740195,33986.58740360587,49835.29297534144,0.0,0.0,0.0,193.0,0.0,193.0,0.0,0.0,0.0,179.0,193.0,0.0,179.0,1744418814.0836241,0.0,2025-04-11 20:46:54.083,RIGHT,36
211.0,7688.016615869596,-12186.193428777866,-21478.461799438217,-23753.13177742145,16044.395094441785,9715.252782732581,34349.28916088214,49811.600126218815,0.0,0.0,0.0,193.0,0.0,193.0,0.0,1.0,0.0,179.0,193.0,1.0,179.0,1744418814.0836542,0.0,2025-04-11 20:46:54.083,RIGHT,36
212.0,7671.051641828018,-12216.27887681471,-21498.77953514809,-23747.74500700772,15948.0143723505,9523.273649605948,34355.860573752,49668.05722332683,0.0,0.0,0.0,193.0,0.0,193.0,0.0,0.0,0.0,179.0,193.0,0.0,179.0,1744418814.0836847,0.0,2025-04-11 20:46:54.083,RIGHT,36
213.0,7648.342269461426,-12214.75895819175,-21528.328541318006,-23715.82671592554,15823.828080156814,9764.717193212175,34133.103088510405,49748.52350336594,0.0,0.0,0.0,193.0,0.0,193.0,0.0,0.0,0.0,179.0,193.0,0.0,179.0,1744418814.0837147,0.0,2025-04-11 20:46:54.083,RIGHT,36
214.0,7667.050679570518,-12210.422719767419,-21495.605587435435,-23707.82479141054,15847.409170557163,9892.546819752077,33950.578743288366,49828.945079916135,0.0,0.0,0.0,193.0,0.0,192.0,0.0,0.0,0.0,178.0,192.0,0.0,178.0,1744418814.083745,0.0,2025-04-11 20:46:54.083,RIGHT,36
215.0,7656.634766654345,-12250.141769664498,-21472.605642390925,-23752.17065240987,16046.764379354046,9769.03107989205,34279.48466294821,49834.48831254105,0.0,0.0,0.0,193.0,0.0,193.0,0.0,0.0,0.0,179.0,193.0,0.0,179.0,1744418814.0837753,0.0,2025-04-11 20:46:54.083,RIGHT,36
216.0,7648.856359583898,-12256.623775556538,-21510.78242192059,-23770.94611775233,15990.616797282315,9534.427170089146,34384.76137933271,49699.79670045337,0.0,0.0,0.0,193.0,0.0,193.0,0.0,0.0,0.0,178.0,193.0,0.0,178.0,1744418814.083805,0.0,2025-04-11 20:46:54.083,RIGHT,36
217.0,7650.0410020400295,-12238.250641614277,-21533.827070454012,-23734.825698712553,15870.654984790683,9708.189631484704,34173.78326341906,49729.36805836774,0.0,0.0,0.0,193.0,0.0,192.0,0.0,0.0,0.0,178.0,192.0,0.0,178.0,1744418814.0838397,0.0,2025-04-11 20:46:54.083,RIGHT,36
218.0,7664.9496155917195,-12218.04466462668,-21510.670663198314,-23717.413689781868,15861.110789908265,9892.09978486297,33961.50874632702,49838.66808875419,0.0,0.0,0.0,193.0,0.0,193.0,0.0,0.0,0.0,179.0,193.0,0.0,179.0,1744418814.08387,0.0,2025-04-11 20:46:54.083,RIGHT,36
219.0,7648.252862483605,-12247.437208585407,-21477.25480523763,-23748.214393641283,16037.913088549745,9799.384748862356,34227.36039487844,49865.24431291155,0.0,0.0,0.0,193.0,0.0,193.0,0.0,0.0,0.0,179.0,193.0,0.0,179.0,1744418814.083914,0.0,2025-04-11 20:46:54.083,RIGHT,36
220.0,7630.304411685993,-12268.403144884485,-21522.293570315072,-23788.671051105386,16004.8772102448,9533.93543171113,34419.38423149398,49744.768410297445,0.0,0.0,0.0,193.0,0.0,193.0,0.0,0.0,0.0,178.0,193.0,0.0,178.0,1744418814.0839443,0.0,2025-04-11 20:46:54.083,RIGHT,36
221.0,7650.018650295574,-12235.724894490826,-21538.275067600618,-23741.46416681578,15874.85711274828,9631.14316834726,34215.469266828215,49729.05513394537,0.0,0.0,0.0,193.0,0.0,193.0,0.0,0.0,0.0,179.0,193.0,0.0,179.0,1744418814.0839744,0.0,2025-04-11 20:46:54.083,RIGHT,36
222.0,7680.908761132809,-12200.632655695994,-21519.20902958024,-23712.093974601506,15835.540394251395,9872.4302497423,33965.129728928776,49850.17923714867,0.0,0.0,0.0,193.0,0.0,192.0,0.0,0.0,0.0,178.0,192.0,0.0,178.0,1744418814.0840163,0.0,2025-04-11 20:46:54.084,RIGHT,36
223.0,7673.979720351663,-12212.009693623746,-21483.06625879601,-23734.8033469681,15997.970521208112,9828.956106776728,34138.93689381324,49893.116938247316,0.0,0.0,0.0,193.0,0.0,193.0,0.0,0.0,0.0,178.0,193.0,0.0,178.0,1744418814.0840473,0.0,2025-04-11 20:46:54.084,RIGHT,36
224.0,7660.479266700658,-12228.460577542852,-21500.902950871343,-23772.08605671955,16023.719730820625,9582.841048579341,34403.581548164075,49786.9014485957,0.0,0.0,0.0,193.0,0.0,193.0,0.0,0.0,0.0,179.0,193.0,0.0,179.0,1744418814.0840771,0.0,2025-04-11 20:46:54.084,RIGHT,36
225.0,7658.959348077697,-12219.162251849444,-21534.251753598663,-23749.60020179751,15890.168057700164,9607.09269131335,34240.25735142915,49720.74028500799,0.0,0.0,0.0,193.0,0.0,192.0,0.0,0.0,0.0,178.0,192.0,0.0,178.0,1744418814.0841088,0.0,2025-04-11 20:46:54.084,RIGHT,36
226.0,7674.13618256285,-12203.94071387538,-21539.30324784556,-23719.91708516086,15812.585152695794,9867.870493873417,33973.28811565496,49841.50676030001,0.0,0.0,0.0,193.0,0.0,193.0,0.0,0.0,0.0,179.0,193.0,0.0,179.0,1744418814.08414,0.0,2025-04-11 20:46:54.084,RIGHT,36
227.0,7674.560865707501,-12222.067978628635,-21491.06818331101,-23734.333960334538,15960.844273667846,9862.304909504046,34038.06347108644,49889.2277347121,0.0,0.0,0.0,193.0,0.0,192.0,0.0,0.0,0.0,178.0,192.0,0.0,178.0,1744418814.0841715,0.0,2025-04-11 20:46:54.084,RIGHT,36
228.0,7654.265481742083,-12249.135941164011,-21495.091497312966,-23778.32219342258,16060.197777771686,9633.691267215165,34377.18413796236,49821.166672845684,0.0,0.0,0.0,193.0,0.0,193.0,0.0,0.0,0.0,179.0,193.0,0.0,179.0,1744418814.0842028,0.0,2025-04-11 20:46:54.084,RIGHT,36
229.0,7647.850531083409,-12240.776388737726,-21539.280896101107,-23767.056914217104,15938.269011767987,9560.310490168393,34282.34568623849,49727.69167753359,0.0,0.0,0.0,193.0,0.0,193.0,0.0,0.0,0.0,179.0,193.0,0.0,179.0,1744418814.0842345,0.0,2025-04-11 20:46:54.084,RIGHT,36
230.0,7664.1896562802385,-12213.820184924625,-21553.161329407852,-23738.871364458962,15831.047693615878,9809.823013522984,34011.621357395816,49833.013097407,0.0,0.0,0.0,193.0,0.0,192.0,0.0,0.0,0.0,178.0,192.0,0.0,178.0,1744418814.084265,0.0,2025-04-11 20:46:54.084,RIGHT,36
231.0,7658.400554466314,-12227.70061823137,-21515.900971400853,-23750.069588431073,15918.9571045586,9862.99781358216,33992.53296763098,49910.68540938919,0.0,0.0,0.0,193.0,0.0,193.0,0.0,0.0,0.0,179.0,193.0,0.0,179.0,1744418814.084296,0.0,2025-04-11 20:46:54.084,RIGHT,36
232.0,7640.8320833244425,-12257.339031379108,-21506.982625363187,-23790.83917031755,16037.711922849647,9664.111991418838,34352.39605336142,49870.63108332528,0.0,0.0,0.0,193.0,0.0,193.0,0.0,0.0,0.0,178.0,193.0,0.0,178.0,1744418814.0843263,0.0,2025-04-11 20:46:54.084,RIGHT,36
233.0,7647.783475850043,-12244.553833550674,-21538.342122833983,-23777.495178877733,15911.782194588448,9510.756672710977,34293.02982008813,49725.56826181034,0.0,0.0,0.0,193.0,0.0,192.0,0.0,0.0,0.0,178.0,192.0,0.0,178.0,1744418814.0843573,0.0,2025-04-11 20:46:54.084,RIGHT,36
234.0,7653.37141196387,-12218.268182071231,-21558.79396901059,-23739.6536755149,15779.281053457387,9757.922262897762,34037.52702921951,49807.71092268359,0.0,0.0,0.0,193.0,0.0,193.0,0.0,0.0,0.0,179.0,193.0,0.0,179.0,1744418814.084401,0.0,2025-04-11 20:46:54.084,RIGHT,36
235.0,7672.482153473157,-12205.103004587056,-21505.082727084486,-23729.662445743375,15880.065069206366,9849.22913899769,33927.578798243856,49875.1237839608,0.0,0.0,0.0,193.0,0.0,193.0,0.0,0.0,0.0,179.0,193.0,0.0,179.0,1744418814.0844312,0.0,2025-04-11 20:46:54.084,RIGHT,36
236.0,7660.501618445113,-12236.2389846133,-21480.451104694737,-23772.80131254212,16074.189969800707,9695.538544123,34292.35926775447,49857.756478519026,0.0,0.0,0.0,193.0,0.0,193.0,0.0,0.0,0.0,179.0,193.0,0.0,179.0,1744418814.0844612,0.0,2025-04-11 20:46:54.084,RIGHT,36
237.0,7665.03902256954,-12232.238022355798,-21510.73771843168,-23773.270699175682,15988.292215858963,9506.107509864272,34325.708070481785,49706.390465067685,0.0,0.0,0.0,193.0,0.0,193.0,0.0,0.0,0.0,179.0,193.0,0.0,179.0,1744418814.0844915,0.0,2025-04-11 20:46:54.084,RIGHT,36
238.0,7653.527874175057,-12219.631638483006,-21538.185660622796,-23740.726559248753,15861.535473052916,9743.863015635374,34103.91171025178,49767.969521042054,0.0,0.0,0.0,193.0,0.0,193.0,0.0,0.0,0.0,178.0,193.0,0.0,178.0,1744418814.084534,0.0,2025-04-11 20:46:54.084,RIGHT,36
239.0,7666.290720259038,-12205.035949353689,-21500.67943342679,-23719.850029927497,15881.205008173587,9890.803383684563,33927.24352207703,49856.99651920754,0.0,0.0,0.0,193.0,0.0,192.0,0.0,0.0,0.0,178.0,192.0,0.0,178.0,1744418814.084565,0.0,2025-04-11 20:46:54.084,RIGHT,36
240.0,7655.89715908732,-12241.268127115742,-21467.710610355214,-23757.535071079146,16073.13943781131,9765.36539380138,34247.20874395475,49855.70011802913,0.0,0.0,0.0,193.0,0.0,193.0,0.0,0.0,0.0,179.0,193.0,0.0,179.0,1744418814.0845952,0.0,2025-04-11 20:46:54.084,RIGHT,36
241.0,7643.4695891701695,-12257.987231968313,-21510.44714575376,-23789.453362161323,16010.085166702887,9527.296963607903,34385.29782119964,49721.88022397521,0.0,0.0,0.0,193.0,0.0,192.0,0.0,0.0,0.0,178.0,192.0,0.0,178.0,1744418814.5606277,0.0,2025-04-11 20:46:54.560,RIGHT,36
242.0,7644.743638604122,-12234.27203110123,-21543.997114181177,-23758.026809457162,15874.52183658145,9688.162468452749,34176.040789609055,49743.27084341894,0.0,0.0,0.0,193.0,0.0,192.0,0.0,0.0,0.0,178.0,192.0,0.0,178.0,1744418814.5609758,0.0,2025-04-11 20:46:54.560,RIGHT,36
243.0,7672.325691261971,-12196.966969605324,-21517.55500049055,-23735.74212023522,15859.210891629566,9883.583770225498,33937.994711160034,49843.85369346782,0.0,0.0,0.0,193.0,0.0,193.0,0.0,0.0,0.0,178.0,193.0,0.0,178.0,1744418814.561061,0.0,2025-04-11 20:46:54.561,RIGHT,36
244.0,7666.961272592697,-12220.346894305576,-21470.146950500843,-23756.41748385638,16041.332905451407,9803.944504731238,34166.183670304265,49857.600016307835,0.0,0.0,0.0,193.0,0.0,192.0,0.0,0.0,0.0,178.0,192.0,0.0,178.0,1744418814.5611124,0.0,2025-04-11 20:46:54.561,RIGHT,36
245.0,7650.622147395868,-12242.251603871777,-21508.279026541597,-23795.868312819995,16023.876193031812,9555.951899999607,34384.67197235489,49735.201863670576,0.0,0.0,0.0,193.0,0.0,192.0,0.0,0.0,0.0,178.0,192.0,0.0,178.0,1744418814.5611713,0.0,2025-04-11 20:46:54.561,RIGHT,36
246.0,7650.443333440225,-12223.587897251595,-21549.02625668362,-23771.840187530543,15888.268159421465,9645.6270987543,34212.11650515992,49712.3807325817,0.0,0.0,0.0,193.0,0.0,193.0,0.0,0.0,0.0,179.0,193.0,0.0,179.0,1744418814.561237,0.0,2025-04-11 20:46:54.561,RIGHT,36
247.0,7661.8427231124315,-12197.279894027699,-21543.147747891875,-23746.64977152941,15841.75417920997,9882.332072536,33957.79835674744,49831.64964099522,0.0,0.0,0.0,193.0,0.0,193.0,0.0,0.0,0.0,179.0,193.0,0.0,179.0,1744418814.561295,0.0,2025-04-11 20:46:54.561,RIGHT,36
248.0,7649.817484595476,-12219.1846035939,-21495.694994413258,-23760.060818202594,16008.989931224578,9839.483778415177,34100.8495212614,49865.713699545115,0.0,0.0,0.0,193.0,0.0,192.0,0.0,0.0,0.0,178.0,192.0,0.0,178.0,1744418814.5614777,0.0,2025-04-11 20:46:54.561,RIGHT,36
249.0,7628.5609756184795,-12258.255452901776,-21517.264427812628,-23805.144286768947,16050.430065444716,9601.772976132987,34412.85752211303,49784.28629449443,0.0,0.0,0.0,193.0,0.0,193.0,0.0,0.0,0.0,179.0,193.0,0.0,179.0,1744418814.5616424,0.0,2025-04-11 20:46:54.561,RIGHT,36
250.0,7644.296603715015,-12236.775426480226,-21535.950486177266,-23765.268774660683,15925.0591307949,9606.28802851296,34258.809299327055,49711.26314535894,0.0,0.0,0.0,193.0,0.0,193.0,0.0,0.0,0.0,178.0,193.0,0.0,178.0,1744418814.5616765,0.0,2025-04-11 20:46:54.561,RIGHT,36
251.0,7658.020574810574,-12205.103004587056,-21540.532593790602,-23735.585658024032,15843.676429233126,9878.688738189787,33987.63793559527,49825.927594414665,0.0,0.0,0.0,193.0,0.0,193.0,0.0,0.0,0.0,178.0,193.0,0.0,178.0,1744418814.5617087,0.0,2025-04-11 20:46:54.561,RIGHT,36
252.0,7654.377240464359,-12216.837670426092,-21493.213950778718,-23747.70030351881,15975.529369774982,9883.181438825302,34028.36281399284,49874.54263860496,0.0,0.0,0.0,193.0,0.0,193.0,0.0,0.0,0.0,179.0,193.0,0.0,179.0,1744418814.561741,0.0,2025-04-11 20:46:54.561,RIGHT,36
253.0,7634.484187899136,-12264.312775649165,-21504.30041602855,-23798.014080287707,16063.483484206616,9663.44143908518,34382.43679790936,49814.52820474246,0.0,0.0,0.0,193.0,0.0,193.0,0.0,0.0,0.0,179.0,193.0,0.0,179.0,1744418814.5618007,0.0,2025-04-11 20:46:54.561,RIGHT,36
254.0,7641.927318802753,-12249.515920819751,-21537.179832122307,-23783.776019069675,15933.552793687915,9565.741964071032,34279.68582864831,49697.69563647457,0.0,0.0,0.0,193.0,0.0,192.0,0.0,0.0,0.0,178.0,192.0,0.0,178.0,1744418814.5618331,0.0,2025-04-11 20:46:54.561,RIGHT,36
255.0,7650.666850884778,-12222.403254795463,-21547.17106189383,-23752.572983810067,15840.167205353644,9833.18058647878,34018.326880732406,49804.58167845985,0.0,0.0,0.0,193.0,0.0,193.0,0.0,0.0,0.0,179.0,193.0,0.0,179.0,1744418814.5618649,0.0,2025-04-11 20:46:54.561,RIGHT,36
0.0,7666.514237703591,-12211.920286645924,-21500.768840404613,-23748.37085585247,15931.362322731296,9895.3854912979,33970.11416794231,49876.8225165394,0.0,0.0,0.0,193.0,0.0,193.0,0.0,0.0,0.0,179.0,193.0,0.0,179.0,1744418814.5618968,0.0,2025-04-11 20:46:54.561,RIGHT,36
1.0,7646.442371182725,-12239.99407768179,-21487.469552453706,-23787.70992609381,16073.832341889423,9711.341227452902,34341.13077415595,49845.68653651316,0.0,0.0,0.0,193.0,0.0,193.0,0.0,0.0,0.0,178.0,193.0,0.0,178.0,1744418814.5619285,0.0,2025-04-11 20:46:54.561,RIGHT,36
2.0,7650.8680165848755,-12234.47319680133,-21523.25469532665,-23781.47378939078,15959.950203889633,9541.982059715041,34311.06767786356,49705.80931971184,0.0,0.0,0.0,193.0,0.0,193.0,0.0,0.0,0.0,179.0,193.0,0.0,179.0,1744418814.5619612,0.0,2025-04-11 20:46:54.561,RIGHT,36
3.0,7667.497714459624,-12216.301228559165,-21545.606439781957,-23742.8052714831,15839.340190808796,9786.666606267287,34061.30928531996,49780.7994223594,0.0,0.0,0.0,193.0,0.0,193.0,0.0,0.0,0.0,179.0,193.0,0.0,179.0,1744418814.5619936,0.0,2025-04-11 20:46:54.561,RIGHT,36
4.0,7659.1381620333395,-12219.832804183103,-21512.659968454835,-23744.526355806156,15881.13795294022,9899.565267511043,33917.8557894058,49854.69428952865,0.0,0.0,0.0,193.0,0.0,193.0,0.0,0.0,0.0,178.0,193.0,0.0,178.0,1744418814.5620253,0.0,2025-04-11 20:46:54.562,RIGHT,36
5.0,7632.338420431426,-12258.747191279792,-21489.54826468805,-23790.83917031755,16052.352315467873,9738.565652199466,34247.54402012158,49828.945079916135,0.0,0.0,0.0,193.0,0.0,193.0,0.0,0.0,0.0,178.0,193.0,0.0,178.0,1744418814.5620575,0.0,2025-04-11 20:46:54.562,RIGHT,36
6.0,7633.411304165281,-12256.355554623075,-21518.717291202225,-23801.90328382293,15989.253340870542,9521.88784144972,34305.725610938745,49681.51297348893,0.0,0.0,0.0,193.0,0.0,192.0,0.0,0.0,0.0,179.0,192.0,0.0,179.0,1744418814.5620894,0.0,2025-04-11 20:46:54.562,RIGHT,36
7.0,7630.41617040827,-12240.619926526539,-21550.099140417475,-23777.7633998112,15865.0446969324,9732.038942818517,34092.06528569046,49735.22421541503,0.0,0.0,0.0,193.0,0.0,193.0,0.0,0.0,0.0,179.0,193.0,0.0,179.0,1744418814.5621219,0.0,2025-04-11 20:46:54.562,RIGHT,36
8.0,7654.041964297529,-12221.777405950716,-21516.750337690155,-23753.399998354915,15870.833798746324,9901.554572767565,33888.150321024696,49827.69338222664,0.0,0.0,0.0,193.0,0.0,193.0,0.0,0.0,0.0,179.0,193.0,0.0,179.0,1744418814.5621724,0.0,2025-04-11 20:46:54.562,RIGHT,36
9.0,7651.493865429625,-12243.771522494737,-21473.834988335966,-23769.068571218082,16059.348411482384,9806.246734410135,34182.1651675898,49837.326984086874,0.0,0.0,0.0,193.0,0.0,192.0,0.0,0.0,0.0,178.0,192.0,0.0,178.0,1744418814.5622044,0.0,2025-04-11 20:46:54.562,RIGHT,36
10.0,7646.509426416091,-12249.851196986581,-21514.850439411457,-23795.644795375443,16009.615780069325,9564.93730127064,34337.84506772102,49701.920116176625,0.0,0.0,0.0,193.0,0.0,193.0,0.0,0.0,0.0,179.0,193.0,0.0,179.0,1744418814.5622373,0.0,2025-04-11 20:46:54.562,RIGHT,36
11.0,7643.983679292641,-12239.27882185922,-21553.474253830227,-23771.840187530543,15877.47226684955,9699.271285447036,34145.95534157221,49711.64312501468,0.0,0.0,0.0,193.0,0.0,193.0,0.0,0.0,0.0,179.0,193.0,0.0,179.0,1744418814.5622697,0.0,2025-04-11 20:46:54.562,RIGHT,36
12.0,7662.155647534806,-12208.344007533075,-21531.30132333056,-23746.582716296045,15845.173996111633,9898.738252966197,33902.410733987184,49814.63996346474,0.0,0.0,0.0,193.0,0.0,192.0,0.0,0.0,0.0,178.0,192.0,0.0,178.0,1744418814.562323,0.0,2025-04-11 20:46:54.562,RIGHT,36
13.0,7659.674603900266,-12220.682170472404,-21481.00989830612,-23762.608917070498,16017.796518539968,9826.072731741993,34116.406335402295,49841.14913238873,0.0,0.0,0.0,193.0,0.0,193.0,0.0,0.0,0.0,178.0,193.0,0.0,178.0,1744418814.5623555,0.0,2025-04-11 20:46:54.562,RIGHT,36
14.0,7649.482208428647,-12244.106798661567,-21501.238227038175,-23793.52137965219,16039.097731005877,9575.979063031562,34358.31926564208,49724.47302633203,0.0,0.0,0.0,193.0,0.0,193.0,0.0,0.0,0.0,179.0,193.0,0.0,179.0,1744418814.562388,0.0,2025-04-11 20:46:54.562,RIGHT,36
15.0,7648.409324694792,-12238.742379992293,-21536.21870711073,-23771.348449152523,15933.418683221184,9642.453151041645,34195.77737996309,49682.51880198942,0.0,0.0,0.0,193.0,0.0,192.0,0.0,0.0,0.0,179.0,192.0,0.0,179.0,1744418814.5624201,0.0,2025-04-11 20:46:54.562,RIGHT,36
16.0,7664.681394658255,-12217.150594848466,-21531.569544264024,-23739.251344114702,15863.94946145409,9886.914180149339,33936.40773730371,49791.550611442406,0.0,0.0,0.0,193.0,0.0,192.0,0.0,0.0,0.0,178.0,192.0,0.0,178.0,1744418814.5624516,0.0,2025-04-11 20:46:54.562,RIGHT,36
17.0,7665.03902256954,-12225.152519363466,-21477.523026171093,-23743.721693005766,16022.915068020235,9853.788894866573,34049.19463982518,49822.507777513005,0.0,0.0,0.0,193.0,0.0,193.0,0.0,0.0,0.0,179.0,193.0,0.0,179.0,1744418814.5624847,0.0,2025-04-11 20:46:54.562,RIGHT,36
18.0,7643.268423470071,-12259.037763957711,-21502.199352049753,-23797.65645237642,16073.117086066854,9617.195679807148,34371.23857393725,49733.50313109197,0.0,0.0,0.0,193.0,0.0,192.0,0.0,0.0,0.0,178.0,192.0,0.0,178.0,1744418814.5625165,0.0,2025-04-11 20:46:54.562,RIGHT,36
19.0,7648.319917716971,-12244.397371339486,-21533.15651812035,-23773.717734064787,15945.130997315766,9581.209371234105,34238.49156361718,49639.558749146316,0.0,0.0,0.0,193.0,0.0,193.0,0.0,0.0,0.0,179.0,193.0,0.0,179.0,1744418814.562548,0.0,2025-04-11 20:46:54.562,RIGHT,36
20.0,7657.37237422137,-12219.519879760728,-21532.97770416471,-23741.531222049147,15864.932938210124,9853.453618699745,33974.271592410994,49749.1940556996,0.0,0.0,0.0,193.0,0.0,193.0,0.0,0.0,0.0,179.0,193.0,0.0,179.0,1744418814.56258,0.0,2025-04-11 20:46:54.562,RIGHT,36
21.0,7666.648348170323,-12225.353685063565,-21487.447200709248,-23752.729446021254,15976.557550019927,9874.218389298725,33985.335705916375,49794.612800432784,0.0,0.0,0.0,193.0,0.0,193.0,0.0,0.0,0.0,178.0,193.0,0.0,178.0,1744418814.5626123,0.0,2025-04-11 20:46:54.562,RIGHT,36
22.0,7661.596853923423,-12250.678211531427,-21486.86605535341,-23794.437801174856,16085.298786794996,9661.452133828656,34339.23087587725,49731.692639791094,0.0,0.0,0.0,193.0,0.0,193.0,0.0,0.0,0.0,179.0,193.0,0.0,179.0,1744418814.562644,0.0,2025-04-11 20:46:54.562,RIGHT,36
23.0,7660.032231811551,-12236.551909035672,-21517.91262840183,-23772.734257308755,15964.956994647622,9551.503902853,34271.393331455394,49615.217699434485,0.0,0.0,0.0,193.0,0.0,193.0,0.0,0.0,0.0,178.0,193.0,0.0,178.0,1744418814.5627697,0.0,2025-04-11 20:46:54.562,RIGHT,36
24.0,7658.109981788395,-12221.12920536151,-21524.662855227336,-23734.848050457007,15864.66471727666,9817.512013615611,34024.473610457615,49723.444846087084,0.0,0.0,0.0,193.0,0.0,192.0,0.0,0.0,0.0,178.0,192.0,0.0,178.0,1744418814.562802,0.0,2025-04-11 20:46:54.562,RIGHT,36
25.0,7682.071051844484,-12196.564638205129,-21466.369505687893,-23719.93943690532,15949.19901480663,9883.851991158961,33935.51366752549,49784.71097763908,0.0,0.0,0.0,193.0,0.0,193.0,0.0,0.0,0.0,179.0,193.0,0.0,179.0,1744418814.5628333,0.0,2025-04-11 20:46:54.562,RIGHT,36
26.0,7652.924377074764,-12226.873603686525,-21468.649383622334,-23777.383420155456,16085.969339128655,9718.11380602286,34312.431134275335,49768.19303848661,0.0,0.0,0.0,193.0,0.0,192.0,0.0,0.0,0.0,178.0,192.0,0.0,178.0,1744418814.562865,0.0,2025-04-11 20:46:54.562,RIGHT,36
27.0,7644.698935115211,-12231.366304322042,-21518.06909061302,-23789.18514122786,15975.551721519438,9528.950992697597,34302.3952010149,49631.9144525426,0.0,0.0,0.0,193.0,0.0,193.0,0.0,0.0,0.0,179.0,193.0,0.0,179.0,1744418814.5629115,0.0,2025-04-11 20:46:54.562,RIGHT,36
28.0,7638.239280967628,-12227.99119090929,-21539.951448434764,-23747.409730840893,15874.633595303727,9766.035946135038,34065.19848885518,49714.61590702723,0.0,0.0,0.0,193.0,0.0,193.0,0.0,0.0,0.0,179.0,193.0,0.0,179.0,1744418814.5629437,0.0,2025-04-11 20:46:54.562,RIGHT,36
29.0,7645.8165223379765,-12217.172946592922,-21505.708575929235,-23731.182364366337,15921.236982493041,9900.794613456084,33920.06861210687,49805.18517556014,0.0,0.0,0.0,193.0,0.0,193.0,0.0,0.0,0.0,178.0,193.0,0.0,178.0,1744418814.5629747,0.0,2025-04-11 20:46:54.562,RIGHT,36
30.0,7631.578461119946,-12246.833711485115,-21483.06625879601,-23771.12493170797,16086.058746106477,9770.260425837092,34256.082386503505,49797.47382372306,0.0,0.0,0.0,193.0,0.0,193.0,0.0,0.0,0.0,179.0,193.0,0.0,179.0,1744418814.563006,0.0,2025-04-11 20:46:54.563,RIGHT,36
31.0,7638.574557134457,-12240.239946870799,-21509.530724231092,-23777.249309688726,16010.286332402986,9538.852815491296,34319.60604424549,49635.60249037773,0.0,0.0,0.0,193.0,0.0,192.0,0.0,0.0,0.0,178.0,192.0,0.0,178.0,1744418814.5630374,0.0,2025-04-11 20:46:54.563,RIGHT,36
32.0,7639.960365290686,-12222.693827473382,-21531.92717217531,-23738.580791781045,15896.33713916983,9737.381009743334,34102.81647477346,49674.6733396856,0.0,0.0,0.0,193.0,0.0,193.0,0.0,0.0,0.0,179.0,193.0,0.0,179.0,1744418814.5630689,0.0,2025-04-11 20:46:54.563,RIGHT,36
33.0,7655.0924962869285,-12204.65596969795,-21510.581256220492,-23725.639131741424,15896.538304869928,9917.089035164003,33895.68285890613,49775.21148624557,0.0,0.0,0.0,193.0,0.0,192.0,0.0,0.0,0.0,178.0,192.0,0.0,178.0,1744418814.5630999,0.0,2025-04-11 20:46:54.563,RIGHT,36
34.0,7641.904967058297,-12236.66366775795,-21480.942843072753,-23762.832434515054,16068.60203368688,9813.220478680192,34165.02137959259,49791.14828004221,0.0,0.0,0.0,193.0,0.0,193.0,0.0,0.0,0.0,178.0,193.0,0.0,178.0,1744418814.563131,0.0,2025-04-11 20:46:54.563,RIGHT,36
35.0,7638.46279841218,-12246.09610391809,-21510.49184924267,-23792.001461029227,16030.134681479298,9554.901368010207,34324.5010762812,49649.99701380695,0.0,0.0,0.0,193.0,0.0,193.0,0.0,0.0,0.0,179.0,193.0,0.0,179.0,1744418814.563162,0.0,2025-04-11 20:46:54.563,RIGHT,36
36.0,7642.352001947404,-12223.69965597387,-21531.815413453034,-23754.56228906659,15906.931866041645,9676.494857847078,34126.93400704074,49642.06214452531,0.0,0.0,0.0,193.0,0.0,192.0,0.0,0.0,0.0,178.0,192.0,0.0,178.0,1744418814.5631936,0.0,2025-04-11 20:46:54.563,RIGHT,36
37.0,7658.333499232948,-12199.380958006497,-21517.73381444619,-23729.573038765557,15871.414944102162,9902.023959401127,33880.61778314326,49752.36800341225,0.0,0.0,0.0,193.0,0.0,193.0,0.0,0.0,0.0,179.0,193.0,0.0,179.0,1744418814.5632248,0.0,2025-04-11 20:46:54.563,RIGHT,36
38.0,7647.716420616677,-12219.452824527363,-21477.701840126734,-23755.94809722282,16037.063722260444,9842.769484850107,34073.334523836915,49779.74889037,0.0,0.0,0.0,193.0,0.0,192.0,0.0,0.0,0.0,178.0,192.0,0.0,178.0,1744418814.5632558,0.0,2025-04-11 20:46:54.563,RIGHT,36
39.0,7640.049772268507,-12237.691848002893,-21504.322767773006,-23793.18610348536,16049.424236944227,9596.52031618599,34332.23477986274,49671.141764061664,0.0,0.0,0.0,193.0,0.0,193.0,0.0,0.0,0.0,179.0,193.0,0.0,179.0,1744418814.563338,0.0,2025-04-11 20:46:54.563,RIGHT,36
40.0,7655.360717220393,-12220.860984428047,-21538.632695511904,-23765.738161294244,15922.443976693628,9628.058627612429,34162.13800455785,49610.79205403233,0.0,0.0,0.0,193.0,0.0,192.0,0.0,0.0,0.0,178.0,192.0,0.0,178.0,1744418814.5633705,0.0,2025-04-11 20:46:54.563,RIGHT,36
41.0,7659.339327733437,-12212.344969790574,-21542.678361258313,-23742.894678460918,15849.08555139131,9873.324319520512,33899.01326882998,49729.07748568982,0.0,0.0,0.0,193.0,0.0,192.0,0.0,0.0,0.0,178.0,192.0,0.0,178.0,1744418814.5634017,0.0,2025-04-11 20:46:54.563,RIGHT,36
42.0,7654.712516631189,-12228.661743242948,-21485.659061152826,-23752.572983810067,15998.909294475234,9845.474045929199,33975.29977265594,49762.13571573922,0.0,0.0,0.0,193.0,0.0,193.0,0.0,0.0,0.0,178.0,193.0,0.0,178.0,1744418814.5634327,0.0,2025-04-11 20:46:54.563,RIGHT,36
43.0,7640.541510646523,-12258.076638946133,-21493.772744390102,-23798.148190754437,16077.341565768906,9617.463900740613,34298.17072131285,49680.64125545517,0.0,0.0,0.0,193.0,0.0,192.0,0.0,0.0,0.0,178.0,192.0,0.0,178.0,1744418814.5634778,0.0,2025-04-11 20:46:54.563,RIGHT,36
44.0,7650.309222973493,-12236.909536946958,-21520.863058669933,-23773.78478929815,15950.674229940681,9564.758487314999,34167.86005113841,49573.7999169588,0.0,0.0,0.0,193.0,0.0,193.0,0.0,0.0,0.0,179.0,193.0,0.0,179.0,1744418814.5635095,0.0,2025-04-11 20:46:54.563,RIGHT,36
45.0,7655.047792798018,-12217.709388459849,-21535.481099543704,-23744.526355806156,15857.310993350864,9846.301060474047,33916.402926016206,49686.050377613356,0.0,0.0,0.0,193.0,0.0,192.0,0.0,0.0,0.0,178.0,192.0,0.0,178.0,1744418814.5635407,0.0,2025-04-11 20:46:54.563,RIGHT,36
46.0,7671.476324972668,-12211.964990134835,-21484.988508819166,-23744.906335461896,15963.68294521367,9879.00166261216,33911.17261781366,49735.26891890394,0.0,0.0,0.0,193.0,0.0,193.0,0.0,0.0,0.0,179.0,193.0,0.0,179.0,1744418814.563572,0.0,2025-04-11 20:46:54.563,RIGHT,36
47.0,7655.89715908732,-12243.033914927712,-21474.751409858636,-23784.804199314618,16087.869237407356,9667.91178797624,34265.06778777454,49667.476077971,0.0,0.0,0.0,193.0,0.0,193.0,0.0,0.0,0.0,179.0,193.0,0.0,179.0,1744418814.563603,0.0,2025-04-11 20:46:54.563,RIGHT,36
48.0,7650.420981695769,-12238.831786970113,-21512.481154499194,-23772.80131254212,15974.92587267469,9539.635126547233,34193.452798539736,49524.11198903465,0.0,0.0,0.0,193.0,0.0,193.0,0.0,0.0,0.0,179.0,193.0,0.0,179.0,1744418814.5636344,0.0,2025-04-11 20:46:54.563,RIGHT,36
49.0,7656.210083509694,-12215.854193670059,-21528.060320384542,-23733.953980678794,15877.76283952747,9805.285609398557,33939.93931292764,49617.877557024665,0.0,0.0,0.0,193.0,0.0,193.0,0.0,0.0,0.0,179.0,193.0,0.0,179.0,1744418814.5636656,0.0,2025-04-11 20:46:54.563,RIGHT,36
50.0,7670.872827872376,-12211.65206571246,-21485.413191963817,-23726.846125942007,15953.244680553042,9886.265979560136,33851.85108802928,49694.8793166732,0.0,0.0,0.0,193.0,0.0,192.0,0.0,0.0,0.0,178.0,192.0,0.0,178.0,1744418814.5636964,0.0,2025-04-11 20:46:54.563,RIGHT,36
51.0,7648.252862483605,-12250.90172897598,-21473.857340080423,-23772.488388119746,16105.080080637943,9719.96900081265,34228.455630356744,49683.56933397881,0.0,0.0,0.0,193.0,0.0,193.0,0.0,0.0,0.0,179.0,193.0,0.0,179.0,1744418814.5637276,0.0,2025-04-11 20:46:54.563,RIGHT,36
52.0,7652.812618352487,-12236.32839159112,-21507.183791063286,-23769.873234018476,16012.40974812624,9540.12686492525,34245.35354916496,49541.971032854446,0.0,0.0,0.0,193.0,0.0,192.0,0.0,0.0,0.0,178.0,192.0,0.0,178.0,1744418814.5637584,0.0,2025-04-11 20:46:54.563,RIGHT,36
53.0,7649.728077617655,-12216.345932048074,-21542.96893393623,-23745.688646517832,15886.569426842862,9780.78809747554,34017.85749409885,49617.92226051358,0.0,0.0,0.0,193.0,0.0,193.0,0.0,0.0,0.0,179.0,193.0,0.0,179.0,1744418814.5637896,0.0,2025-04-11 20:46:54.563,RIGHT,36
54.0,7681.132278577362,-12191.468440469318,-21492.364584489416,-23719.447698527303,15922.846308093824,9904.19207861329,33836.763660521945,49696.89097367418,0.0,0.0,0.0,193.0,0.0,192.0,0.0,0.0,0.0,178.0,192.0,0.0,178.0,1744418814.5638697,0.0,2025-04-11 20:46:54.563,RIGHT,36
55.0,7661.954481834708,-12235.300211346175,-21458.658153850814,-23753.22118439927,16111.718548741168,9782.978568432161,34176.84545240944,49700.82488069831,0.0,0.0,0.0,193.0,0.0,192.0,0.0,0.0,0.0,178.0,192.0,0.0,178.0,1744418814.563902,0.0,2025-04-11 20:46:54.563,RIGHT,36
56.0,7653.32670847496,-12244.620888784038,-21499.20421829274,-23774.947080009828,16033.040408258488,9544.93248998314,34277.94239258079,49551.17995157003,0.0,0.0,0.0,193.0,0.0,192.0,0.0,0.0,0.0,179.0,192.0,0.0,179.0,1744418814.5639334,0.0,2025-04-11 20:46:54.563,RIGHT,36
57.0,7659.227569011161,-12223.1855658514,-21526.942733161777,-23738.46903305877,15887.061165220877,9724.97579157064,34056.414253284245,49573.062309391775,0.0,0.0,0.0,193.0,0.0,192.0,0.0,0.0,0.0,178.0,192.0,0.0,178.0,1744418814.5639648,0.0,2025-04-11 20:46:54.563,RIGHT,36
58.0,7664.23435976915,-12208.612228466538,-21511.743546932168,-23728.36604456497,15855.209929372066,9915.122081651936,33841.41282336865,49681.80354616685,0.0,0.0,0.0,193.0,0.0,192.0,0.0,0.0,0.0,178.0,192.0,0.0,178.0,1744418814.5640092,0.0,2025-04-11 20:46:54.564,RIGHT,36
59.0,7644.475417670658,-12230.248717099275,-21470.23635747866,-23758.384437368448,16057.582623670414,9814.60628683642,34095.35099212539,49700.936639420586,0.0,0.0,0.0,193.0,0.0,192.0,0.0,0.0,0.0,178.0,192.0,0.0,178.0,1744418814.5640407,0.0,2025-04-11 20:46:54.564,RIGHT,36
60.0,7643.0002025366075,-12238.27299335873,-21496.074974068997,-23782.770190569187,16051.324135222929,9554.230815676548,34276.4895291912,49566.02150988836,0.0,0.0,0.0,193.0,0.0,193.0,0.0,0.0,0.0,179.0,193.0,0.0,179.0,1744418814.5640717,0.0,2025-04-11 20:46:54.564,RIGHT,36
61.0,7650.845664840421,-12219.005789638257,-21522.27121857062,-23742.469995316267,15927.137843029243,9665.207226897148,34083.52691930853,49540.361707253665,0.0,0.0,0.0,193.0,0.0,193.0,0.0,0.0,0.0,178.0,193.0,0.0,178.0,1744418814.564103,0.0,2025-04-11 20:46:54.564,RIGHT,36
62.0,7669.866999371887,-12197.257542283243,-21504.76980266211,-23711.31166354557,15878.656909305682,9900.638151244897,33831.13102091921,49644.54318815985,0.0,0.0,0.0,193.0,0.0,192.0,0.0,0.0,0.0,178.0,192.0,0.0,178.0,1744418814.5641336,0.0,2025-04-11 20:46:54.564,RIGHT,36
63.0,7658.3782027218585,-12224.057283885157,-21457.04882825003,-23728.18723060933,16060.667164405248,9858.371002479911,34015.39880220876,49677.22143855351,0.0,0.0,0.0,193.0,0.0,193.0,0.0,0.0,0.0,179.0,193.0,0.0,179.0,1744418814.5641649,0.0,2025-04-11 20:46:54.564,RIGHT,36
64.0,7631.55610937549,-12258.009583712768,-21493.43746822327,-23786.815856315596,16091.04318512001,9615.42989199518,34314.822770932056,49580.66190250658,0.0,0.0,0.0,193.0,0.0,192.0,0.0,0.0,0.0,178.0,192.0,0.0,178.0,1744418814.5641959,0.0,2025-04-11 20:46:54.564,RIGHT,36
65.0,7632.159606475784,-12240.530519548718,-21533.894125687377,-23769.582661340555,15949.780160162469,9621.71073218712,34156.61712367739,49509.5386516498,0.0,0.0,0.0,193.0,0.0,193.0,0.0,0.0,0.0,179.0,193.0,0.0,179.0,1744418814.5642269,0.0,2025-04-11 20:46:54.564,RIGHT,36
66.0,7655.025441053563,-12210.51212674524,-21524.50639301615,-23730.668274243864,15866.832836488824,9874.62072069892,33880.84130058781,49620.38095240366,0.0,0.0,0.0,193.0,0.0,193.0,0.0,0.0,0.0,179.0,193.0,0.0,179.0,1744418814.564258,0.0,2025-04-11 20:46:54.564,RIGHT,36
67.0,7655.383068964848,-12228.192356609388,-21478.506502927125,-23739.005474925696,16002.865553243824,9869.613929940931,33952.41158633371,49667.00669133743,0.0,0.0,0.0,193.0,0.0,192.0,0.0,0.0,0.0,178.0,192.0,0.0,178.0,1744418814.5642936,0.0,2025-04-11 20:46:54.564,RIGHT,36
68.0,7648.968118306175,-12258.814246513159,-21487.022517564597,-23778.32219342258,16092.831324676434,9636.708752716631,34285.586689184514,49588.41795783257,0.0,0.0,0.0,193.0,0.0,193.0,0.0,0.0,0.0,179.0,193.0,0.0,179.0,1744418814.5643249,0.0,2025-04-11 20:46:54.564,RIGHT,36
69.0,7657.864112599387,-12243.525653305729,-21523.589971493482,-23756.75276002321,15972.310718573419,9580.829391578363,34181.271097811594,49489.243267684375,0.0,0.0,0.0,193.0,0.0,193.0,0.0,0.0,0.0,178.0,193.0,0.0,178.0,1744418814.5644844,0.0,2025-04-11 20:46:54.564,RIGHT,36
70.0,7652.142066018828,-12212.79200467968,-21541.851346713465,-23730.64592249941,15864.910586465669,9859.868569358418,33932.38442330175,49607.68516155305,0.0,0.0,0.0,193.0,0.0,192.0,0.0,0.0,0.0,178.0,192.0,0.0,178.0,1744418814.5645165,0.0,2025-04-11 20:46:54.564,RIGHT,36
71.0,7661.283929501049,-12210.623885467516,-21486.799000120045,-23727.337864320027,15978.50215178754,9898.850011688473,33907.08224857834,49664.54799944735,0.0,0.0,0.0,193.0,0.0,192.0,0.0,0.0,0.0,178.0,192.0,0.0,178.0,1744418814.564548,0.0,2025-04-11 20:46:54.564,RIGHT,36
72.0,7633.388952420825,-12263.105781448578,-21483.423886707293,-23779.819760301085,16110.556258029494,9708.904887307273,34282.16687228285,49623.9125280276,0.0,0.0,0.0,193.0,0.0,192.0,0.0,0.0,0.0,178.0,192.0,0.0,178.0,1744418814.5645792,0.0,2025-04-11 20:46:54.564,RIGHT,36
73.0,7641.815560080477,-12242.631583527516,-21507.988453863676,-23763.681800804356,16003.089070688377,9560.601062846312,34222.71123203173,49480.34727339116,0.0,0.0,0.0,193.0,0.0,192.0,0.0,0.0,0.0,178.0,192.0,0.0,178.0,1744418814.5646243,0.0,2025-04-11 20:46:54.564,RIGHT,36
74.0,7660.009880067097,-12203.337216775086,-21519.231381324695,-23719.872381671954,15898.549961870905,9821.356513661924,33970.15887143122,49566.289730821816,0.0,0.0,0.0,193.0,0.0,193.0,0.0,0.0,0.0,179.0,193.0,0.0,179.0,1744418814.564656,0.0,2025-04-11 20:46:54.564,RIGHT,36
75.0,7660.523970189568,-12210.288609300687,-21492.029308322588,-23722.062852628573,15953.065866597399,9923.258116633668,33871.56532663886,49653.68505164207,0.0,0.0,0.0,193.0,0.0,192.0,0.0,0.0,0.0,178.0,192.0,0.0,178.0,1744418814.564687,0.0,2025-04-11 20:46:54.564,RIGHT,36
76.0,7627.89042328482,-12265.676232060938,-21487.983642576175,-23774.745914309733,16120.256915123096,9766.684146724243,34238.93859850628,49651.651042896636,0.0,0.0,0.0,193.0,0.0,192.0,0.0,0.0,0.0,178.0,192.0,0.0,178.0,1744418814.564718,0.0,2025-04-11 20:46:54.564,RIGHT,36
77.0,7631.042019253018,-12257.629604057027,-21512.77172717711,-23773.00247824222,16043.881004319312,9549.738115041031,34249.667435844836,49490.11498571813,0.0,0.0,0.0,193.0,0.0,193.0,0.0,0.0,0.0,179.0,193.0,0.0,179.0,1744418814.5647492,0.0,2025-04-11 20:46:54.564,RIGHT,36
78.0,7634.484187899136,-12231.656876999961,-21531.994227408675,-23732.858745200487,15929.551831430415,9776.45185905121,34014.03534579698,49541.054611331776,0.0,0.0,0.0,193.0,0.0,192.0,0.0,0.0,0.0,178.0,192.0,0.0,178.0,1744418814.56478,0.0,2025-04-11 20:46:54.564,RIGHT,36
79.0,7653.416115452781,-12205.058301098145,-21497.17020954731,-23715.26792231416,15952.30590728592,9936.87032900695,33834.90846573216,49630.260423452906,0.0,0.0,0.0,193.0,0.0,192.0,0.0,0.0,0.0,179.0,192.0,0.0,179.0,1744418814.5648112,0.0,2025-04-11 20:46:54.564,RIGHT,36
80.0,7633.411304165281,-12239.591746281594,-21475.15374125883,-23754.115254177483,16121.173336645763,9816.506185115122,34153.62198992038,49635.15545548862,0.0,0.0,0.0,193.0,0.0,193.0,0.0,0.0,0.0,179.0,193.0,0.0,179.0,1744418814.564842,0.0,2025-04-11 20:46:54.564,RIGHT,36
81.0,7631.399647164303,-12238.228289869821,-21512.883485899387,-23771.214338685793,16056.912071336756,9568.93826352814,34268.77817735412,49484.95173274896,0.0,0.0,0.0,193.0,0.0,193.0,0.0,0.0,0.0,179.0,193.0,0.0,179.0,1744418814.5648727,0.0,2025-04-11 20:46:54.564,RIGHT,36
82.0,7634.238318710127,-12228.840557198591,-21546.45580607126,-23743.520527305667,15919.895877825724,9732.128349796338,34065.64552374429,49501.71554109044,0.0,0.0,0.0,193.0,0.0,193.0,0.0,0.0,0.0,178.0,193.0,0.0,178.0,1744418814.564904,0.0,2025-04-11 20:46:54.564,RIGHT,36
83.0,7647.291737472026,-12222.045626884179,-21529.73670121869,-23730.712977732775,15889.117525710766,9923.01224744466,33830.46046858555,49598.87857423766,0.0,0.0,0.0,193.0,0.0,193.0,0.0,0.0,0.0,179.0,193.0,0.0,179.0,1744418814.564935,0.0,2025-04-11 20:46:54.564,RIGHT,36
84.0,7627.733961073633,-12256.266147645254,-21492.655157167337,-23773.203643942314,16071.843036632901,9828.37496142089,34062.80685219847,49610.50148135442,0.0,0.0,0.0,193.0,0.0,193.0,0.0,0.0,0.0,179.0,193.0,0.0,179.0,1744418814.5649793,0.0,2025-04-11 20:46:54.564,RIGHT,36
85.0,7636.853472811398,-12254.366249366552,-21507.519067230114,-23795.086001764063,16082.147190826798,9573.453315908113,34270.7898343551,49471.40657560904,0.0,0.0,0.0,193.0,0.0,193.0,0.0,0.0,0.0,178.0,193.0,0.0,178.0,1744418814.5650108,0.0,2025-04-11 20:46:54.565,RIGHT,36
86.0,7615.306391156482,-12251.058191187167,-21545.002942681665,-23759.479672846755,15962.364192290806,9679.266474159536,34108.40441088729,49455.0227469233,0.0,0.0,0.0,193.0,0.0,193.0,0.0,0.0,0.0,179.0,193.0,0.0,179.0,1744418814.565042,0.0,2025-04-11 20:46:54.565,RIGHT,36
87.0,7615.194632434205,-12244.285612617208,-21543.192451380786,-23738.536088292134,15895.979511258545,9923.638096289409,33857.819003798846,49580.66190250658,0.0,0.0,0.0,193.0,0.0,193.0,0.0,0.0,0.0,179.0,193.0,0.0,179.0,1744418814.5650735,0.0,2025-04-11 20:46:54.565,RIGHT,36
88.0,7628.695086085211,-12252.0416679432,-21493.526875201092,-23752.59533555452,16060.354239982873,9889.954017395261,34000.78076133499,49615.709437812504,0.0,0.0,0.0,193.0,0.0,193.0,0.0,0.0,0.0,179.0,193.0,0.0,179.0,1744418814.565117,0.0,2025-04-11 20:46:54.565,RIGHT,36
89.0,7616.312219656971,-12272.269996675253,-21514.78338417809,-23793.09669650754,16098.978054401643,9647.214072610626,34295.086180578015,49516.26652673084,0.0,0.0,0.0,193.0,0.0,193.0,0.0,0.0,0.0,179.0,193.0,0.0,179.0,1744418814.5651484,0.0,2025-04-11 20:46:54.565,RIGHT,36
90.0,7621.497824370602,-12240.508167804262,-21539.236192612196,-23759.6584868024,15967.348631304341,9639.703886473642,34146.44707995022,49433.54272050175,0.0,0.0,0.0,193.0,0.0,193.0,0.0,0.0,0.0,179.0,193.0,0.0,179.0,1744418814.5651796,0.0,2025-04-11 20:46:54.565,RIGHT,36
91.0,7616.826309779443,-12215.496565758773,-21547.908669460856,-23741.26300111568,15892.67145307916,9901.331055323011,33891.70424839309,49551.604634714684,0.0,0.0,0.0,193.0,0.0,193.0,0.0,0.0,0.0,178.0,193.0,0.0,178.0,1744418814.5652108,0.0,2025-04-11 20:46:54.565,RIGHT,36
92.0,7629.119769229862,-12223.051455384668,-21488.609491420924,-23743.74404475022,16033.710960592147,9897.888886676894,33939.08994663834,49596.352827114206,0.0,0.0,0.0,193.0,0.0,193.0,0.0,0.0,0.0,179.0,193.0,0.0,179.0,1744418814.565242,0.0,2025-04-11 20:46:54.565,RIGHT,36
93.0,7619.821443536454,-12253.38277261052,-21490.21881702171,-23794.817780830595,16125.420168092272,9677.523038092022,34299.33301202452,49529.67757340403,0.0,0.0,0.0,193.0,0.0,193.0,0.0,0.0,0.0,179.0,193.0,0.0,179.0,1744418814.5652733,0.0,2025-04-11 20:46:54.565,RIGHT,36
94.0,7624.582365105434,-12234.495548545785,-21528.864983184932,-23780.445609145834,16000.45156484265,9580.337653200348,34205.96977543471,49413.82848189217,0.0,0.0,0.0,193.0,0.0,193.0,0.0,0.0,0.0,178.0,193.0,0.0,178.0,1744418814.5653043,0.0,2025-04-11 20:46:54.565,RIGHT,36
95.0,7630.550280875002,-12225.264278085742,-21539.951448434764,-23745.42042558437,15906.820107319369,9843.015354039117,33944.74493798553,49509.65041037207,0.0,0.0,0.0,193.0,0.0,192.0,0.0,0.0,0.0,178.0,192.0,0.0,178.0,1744418814.5653353,0.0,2025-04-11 20:46:54.565,RIGHT,36
96.0,7642.463760669681,-12227.298286831176,-21493.236302523175,-23740.100710404007,16002.485573588083,9906.628418758919,33886.87627159074,49564.16631509856,0.0,0.0,0.0,193.0,0.0,193.0,0.0,0.0,0.0,178.0,193.0,0.0,178.0,1744418814.5653665,0.0,2025-04-11 20:46:54.565,RIGHT,36
97.0,7621.207251692683,-12257.115513934556,-21481.434581450772,-23780.333850423558,16149.604755592914,9734.519986453055,34260.03864527209,49527.01771581385,0.0,0.0,0.0,193.0,0.0,192.0,0.0,0.0,0.0,178.0,192.0,0.0,178.0,1744418814.5653977,0.0,2025-04-11 20:46:54.565,RIGHT,36
98.0,7619.016780736063,-12247.727781263326,-21518.560828991038,-23774.65650733191,16042.383437440807,9579.778859588965,34249.5333253781,49396.885859595044,0.0,0.0,0.0,193.0,0.0,192.0,0.0,0.0,0.0,178.0,192.0,0.0,178.0,1744418814.565429,0.0,2025-04-11 20:46:54.565,RIGHT,36
99.0,7626.303449428493,-12223.297324573676,-21541.40431182436,-23738.46903305877,15924.589744161338,9822.876432284884,34011.01786029552,49478.40267162355,0.0,0.0,0.0,193.0,0.0,193.0,0.0,0.0,0.0,179.0,193.0,0.0,179.0,1744418814.56546,0.0,2025-04-11 20:46:54.565,RIGHT,36
100.0,7633.74658033211,-12220.302190816665,-21504.881561384387,-23735.585658024032,15978.21157910962,9929.360142869968,33884.238765745016,49558.15369584009,0.0,0.0,0.0,193.0,0.0,193.0,0.0,0.0,0.0,179.0,193.0,0.0,179.0,1744418814.5655048,0.0,2025-04-11 20:46:54.565,RIGHT,36
101.0,7623.151853460295,-12252.421647598941,-21474.97492730319,-23769.13562645145,16154.365677161895,9782.151553887315,34234.53530484859,49544.206207299976,0.0,0.0,0.0,193.0,0.0,192.0,0.0,0.0,0.0,178.0,192.0,0.0,178.0,1744418814.5655365,0.0,2025-04-11 20:46:54.565,RIGHT,36
102.0,7622.973039504653,-12251.23700514281,-21515.051605111552,-23783.28428069166,16066.098638307887,9568.401821661213,34293.58861369951,49391.0073508033,0.0,0.0,0.0,193.0,0.0,193.0,0.0,0.0,0.0,179.0,193.0,0.0,179.0,1744418814.5655673,0.0,2025-04-11 20:46:54.565,RIGHT,36
103.0,7634.484187899136,-12213.261391313243,-21532.30715183105,-23740.45833831529,15949.221366551086,9762.146742599814,34057.12950910682,49414.14140631454,0.0,0.0,0.0,193.0,0.0,193.0,0.0,0.0,0.0,179.0,193.0,0.0,179.0,1744418814.56561,0.0,2025-04-11 20:46:54.565,RIGHT,36
104.0,7638.172225734262,-12199.872696384513,-21507.25084629665,-23731.87526844445,15959.011430622511,9929.673067292342,33871.14064349421,49510.05274177227,0.0,0.0,0.0,193.0,0.0,192.0,0.0,0.0,0.0,178.0,192.0,0.0,178.0,1744418814.5656416,0.0,2025-04-11 20:46:54.565,RIGHT,36
105.0,7622.123673215351,-12234.249679356775,-21471.957441801722,-23767.325135150568,16135.903136241812,9822.250583440136,34171.637495951356,49530.45988445996,0.0,0.0,0.0,193.0,0.0,193.0,0.0,0.0,0.0,179.0,193.0,0.0,179.0,1744418815.0407555,0.0,2025-04-11 20:46:55.040,RIGHT,36
106.0,7620.961382503675,-12247.996002196789,-21512.190581821273,-23798.014080287707,16084.807048416978,9566.434868149146,34314.35338429849,49386.98403680135,0.0,0.0,0.0,193.0,0.0,193.0,0.0,0.0,0.0,179.0,193.0,0.0,179.0,1744418815.041054,0.0,2025-04-11 20:46:55.041,RIGHT,36
107.0,7625.789359306021,-12227.544156020183,-21544.175928136818,-23759.4573211023,15959.100837600332,9703.473413404634,34102.79412302901,49381.53021115425,0.0,0.0,0.0,193.0,0.0,193.0,0.0,0.0,0.0,178.0,193.0,0.0,178.0,1744418815.0411441,0.0,2025-04-11 20:46:55.041,RIGHT,36
108.0,7638.529853645547,-12209.662760455938,-21531.234268097196,-23737.194983624817,15935.609154177804,9919.72654100973,33868.45843415957,49488.41625313953,0.0,0.0,0.0,193.0,0.0,192.0,0.0,0.0,0.0,178.0,192.0,0.0,178.0,1744418815.041195,0.0,2025-04-11 20:46:55.041,RIGHT,36
109.0,7630.282059941538,-12237.602441025072,-21481.322822728496,-23757.646829801422,16118.468775566671,9854.48179894469,34086.87968097683,49508.51047140485,0.0,0.0,0.0,193.0,0.0,193.0,0.0,0.0,0.0,179.0,193.0,0.0,179.0,1744418815.0412364,0.0,2025-04-11 20:46:55.041,RIGHT,36
110.0,7617.474510368647,-12252.555758065673,-21500.00888109313,-23788.42518191638,16127.968266960177,9595.201563263126,34315.20275058779,49377.193972729925,0.0,0.0,0.0,193.0,0.0,193.0,0.0,0.0,0.0,179.0,193.0,0.0,179.0,1744418815.0412762,0.0,2025-04-11 20:46:55.041,RIGHT,36
111.0,7625.230565694638,-12222.135033862,-21519.432547024793,-23745.822756984566,16006.106556189843,9653.137284891282,34141.41793744778,49330.03179192922,0.0,0.0,0.0,193.0,0.0,193.0,0.0,0.0,0.0,179.0,193.0,0.0,179.0,1744418815.041319,0.0,2025-04-11 20:46:55.041,RIGHT,36
112.0,7637.412266422781,-12202.89018188598,-21515.476288256203,-23722.062852628573,15944.34868625983,9908.684779248808,33896.46516996207,49454.709822500925,0.0,0.0,0.0,193.0,0.0,193.0,0.0,0.0,0.0,179.0,193.0,0.0,179.0,1744418815.041365,0.0,2025-04-11 20:46:55.041,RIGHT,36
113.0,7633.858339054387,-12221.173908850422,-21465.430732420773,-23737.686722002833,16098.821592190456,9880.745098679674,34019.712688888634,49488.01392173934,0.0,0.0,0.0,193.0,0.0,193.0,0.0,0.0,0.0,179.0,193.0,0.0,179.0,1744418815.041412,0.0,2025-04-11 20:46:55.041,RIGHT,36
114.0,7615.440501623214,-12248.063057430156,-21487.201331520242,-23786.14530398194,16158.76897081959,9642.05081964145,34346.71871026978,49405.69244691044,0.0,0.0,0.0,193.0,0.0,193.0,0.0,0.0,0.0,179.0,193.0,0.0,179.0,1744418815.0414555,0.0,2025-04-11 20:46:55.041,RIGHT,36
115.0,7625.878766283842,-12222.917344917936,-21518.53847724658,-23759.256155402203,16032.660428602747,9614.938153617162,34203.511083544625,49312.08334113161,0.0,0.0,0.0,193.0,0.0,193.0,0.0,0.0,0.0,179.0,193.0,0.0,179.0,1744418815.0417187,0.0,2025-04-11 20:46:55.041,RIGHT,36
116.0,7636.8981763003085,-12198.84451613957,-21521.757128448146,-23723.82864044054,15955.099875342832,9886.5342004936,33934.68665298064,49428.40181927703,0.0,0.0,0.0,193.0,0.0,193.0,0.0,0.0,0.0,179.0,193.0,0.0,179.0,1744418815.0417676,0.0,2025-04-11 20:46:55.041,RIGHT,36
117.0,7646.643536882822,-12202.040815596678,-21472.7174011132,-23725.214448596773,16079.152057069787,9900.057005889059,33943.09090889584,49473.999377965854,0.0,0.0,0.0,193.0,0.0,193.0,0.0,0.0,0.0,178.0,193.0,0.0,178.0,1744418815.041809,0.0,2025-04-11 20:46:55.041,RIGHT,36
118.0,7626.214042450672,-12239.100007903578,-21480.406401205826,-23780.155036467917,16177.745601862145,9688.20717194166,34307.98313712873,49421.20455756242,0.0,0.0,0.0,193.0,0.0,193.0,0.0,0.0,0.0,178.0,193.0,0.0,178.0,1744418815.0418468,0.0,2025-04-11 20:46:55.041,RIGHT,36
119.0,7641.010897280085,-12212.344969790574,-21511.050642854054,-23759.099693191016,16045.825606086924,9568.64769085022,34222.040679698075,49294.42546301192,0.0,0.0,0.0,193.0,0.0,193.0,0.0,0.0,0.0,178.0,193.0,0.0,178.0,1744418815.0419524,0.0,2025-04-11 20:46:55.041,RIGHT,36
120.0,7651.359754962892,-12191.960178847336,-21523.29939881556,-23714.709128702776,15935.989133833544,9838.880281314883,33964.66034229521,49390.761481614296,0.0,0.0,0.0,193.0,0.0,192.0,0.0,0.0,0.0,178.0,192.0,0.0,178.0,1744418815.0420022,0.0,2025-04-11 20:46:55.042,RIGHT,36
121.0,7647.023516538563,-12209.0816151001,-21476.718363370703,-23711.73634669022,16030.134681479298,9927.72846552473,33895.9510798396,49459.85072372565,0.0,0.0,0.0,193.0,0.0,193.0,0.0,0.0,0.0,179.0,193.0,0.0,179.0,1744418815.0420375,0.0,2025-04-11 20:46:55.042,RIGHT,36
122.0,7610.03137946503,-12250.588804553605,-21473.29854646904,-23763.79355952663,16186.373375221894,9776.965949173684,34273.44969194528,49443.48924678436,0.0,0.0,0.0,193.0,0.0,193.0,0.0,0.0,0.0,179.0,193.0,0.0,179.0,1744418815.0420756,0.0,2025-04-11 20:46:55.042,RIGHT,36
123.0,7622.257783682083,-12234.9872869238,-21505.7756311626,-23753.42235009937,16083.465943749661,9596.497964441534,34255.88122080341,49304.28258231671,0.0,0.0,0.0,193.0,0.0,192.0,0.0,0.0,0.0,179.0,192.0,0.0,179.0,1744418815.0421162,0.0,2025-04-11 20:46:55.042,RIGHT,36
124.0,7628.7397895741215,-12211.741472690283,-21521.64536972587,-23715.625550225443,15981.698451244647,9826.139786975358,34012.69424112967,49382.290170465734,0.0,0.0,0.0,193.0,0.0,193.0,0.0,0.0,0.0,179.0,193.0,0.0,179.0,1744418815.0421548,0.0,2025-04-11 20:46:55.042,RIGHT,36
125.0,7631.712571586678,-12197.257542283243,-21490.15176178834,-23707.511866988167,16022.132756964298,9952.516550125665,33862.199945712084,49469.75254651935,0.0,0.0,0.0,193.0,0.0,193.0,0.0,0.0,0.0,179.0,193.0,0.0,179.0,1744418815.0421896,0.0,2025-04-11 20:46:55.042,RIGHT,36
126.0,7611.484242854624,-12236.998943924778,-21468.939956300255,-23748.840242486032,16186.194561266251,9822.98819100716,34201.5217782881,49466.71270927343,0.0,0.0,0.0,193.0,0.0,193.0,0.0,0.0,0.0,178.0,193.0,0.0,178.0,1744418815.0422251,0.0,2025-04-11 20:46:55.042,RIGHT,36
127.0,7599.593114804401,-12256.66847904545,-21509.48602074218,-23770.454379374314,16111.89736269681,9595.782708618965,34275.57310766853,49323.214509870355,0.0,0.0,0.0,193.0,0.0,193.0,0.0,0.0,0.0,179.0,193.0,0.0,179.0,1744418815.0422647,0.0,2025-04-11 20:46:55.042,RIGHT,36
128.0,7608.7796817755325,-12232.685057244904,-21533.000055909164,-23731.987027166728,15993.41076533923,9778.999957919117,34033.74958440657,49352.87527476255,0.0,0.0,0.0,193.0,0.0,192.0,0.0,0.0,0.0,178.0,192.0,0.0,178.0,1744418815.0423017,0.0,2025-04-11 20:46:55.042,RIGHT,36
129.0,7636.920528044764,-12201.929056874402,-21502.53462821658,-23709.232951311227,15991.086183915877,9948.783808801629,33811.237968353984,49440.69527872745,0.0,0.0,0.0,193.0,0.0,192.0,0.0,0.0,0.0,178.0,192.0,0.0,178.0,1744418815.0423388,0.0,2025-04-11 20:46:55.042,RIGHT,36
130.0,7631.220833208661,-12225.890126930492,-21465.09545625394,-23740.056006915096,16164.222796466685,9834.812263824018,34087.34906761039,49443.69041248446,0.0,0.0,0.0,193.0,0.0,193.0,0.0,0.0,0.0,179.0,193.0,0.0,179.0,1744418815.0424385,0.0,2025-04-11 20:46:55.042,RIGHT,36
131.0,7617.027475479541,-12240.798740482182,-21500.43356423778,-23773.695382320333,16129.04115069403,9580.80703983391,34261.044473772585,49309.53524226371,0.0,0.0,0.0,193.0,0.0,192.0,0.0,0.0,0.0,178.0,192.0,0.0,178.0,1744418815.042477,0.0,2025-04-11 20:46:55.042,RIGHT,36
132.0,7619.150891202795,-12216.480042514808,-21523.657026726847,-23736.45737605779,16001.412689854229,9708.815480329453,34058.090634118395,49303.32145730513,0.0,0.0,0.0,193.0,0.0,192.0,0.0,0.0,0.0,179.0,192.0,0.0,179.0,1744418815.042513,0.0,2025-04-11 20:46:55.042,RIGHT,36
133.0,7638.753371090099,-12194.016539337223,-21506.49088698517,-23712.764526935163,15969.069715627398,9938.993744730204,33809.65099449766,49415.95189761542,0.0,0.0,0.0,193.0,0.0,193.0,0.0,0.0,0.0,179.0,193.0,0.0,179.0,1744418815.0425484,0.0,2025-04-11 20:46:55.042,RIGHT,36
134.0,7631.913737286775,-12221.196260594877,-21463.68729635326,-23735.250381857204,16142.608659578404,9880.85685740195,33994.29875544295,49440.62822349408,0.0,0.0,0.0,193.0,0.0,193.0,0.0,1.0,0.0,178.0,193.0,1.0,178.0,1744418815.042634,0.0,2025-04-11 20:46:55.042,RIGHT,36
135.0,7616.401626634793,-12245.80553124017,-21496.253788024642,-23779.171559711882,16157.047886496532,9628.595069479356,34255.07655800302,49336.11146642107,0.0,0.0,0.0,193.0,0.0,192.0,0.0,2.0,0.0,178.0,192.0,2.0,178.0,1744418815.0426793,0.0,2025-04-11 20:46:55.042,RIGHT,36
136.0,7617.8768417688425,-12223.744359462782,-21524.998131394164,-23747.186213396337,16026.848975044368,9674.572607823922,34097.876739248844,49290.022169354226,0.0,0.0,0.0,193.0,0.0,193.0,0.0,3.0,0.0,179.0,193.0,3.0,179.0,1744418815.042719,0.0,2025-04-11 20:46:55.042,RIGHT,36
137.0,7634.551243132501,-12195.022367837711,-21513.01759636612,-23706.014300109662,15953.9152328867,9930.72359928174,33833.56736106484,49404.01606607629,0.0,0.0,0.0,193.0,0.0,192.0,0.0,4.0,0.0,178.0,192.0,4.0,178.0,1744418815.04276,0.0,2025-04-11 20:46:55.042,RIGHT,36
138.0,7634.819464065965,-12206.578219721107,-21456.266517194097,-23708.472991999744,16120.368673845373,9917.446663075289,33926.50591451,49442.68458398397,0.0,0.0,0.0,193.0,0.0,193.0,0.0,5.0,0.0,179.0,193.0,5.0,179.0,1744418815.0428045,0.0,2025-04-11 20:46:55.042,RIGHT,36
139.0,7611.037207965519,-12245.55966205116,-21474.14791275834,-23761.357219381003,16200.477325973194,9693.973922011128,34266.721816864236,49369.37086217057,0.0,0.0,0.0,193.0,0.0,193.0,0.0,7.0,0.0,179.0,193.0,7.0,179.0,1744418815.042845,0.0,2025-04-11 20:46:55.042,RIGHT,36
140.0,7618.972077247153,-12232.640353755995,-21512.078823098997,-23747.476786074258,16066.500969708082,9643.973069664606,34137.104050767906,49267.67042489892,0.0,0.0,0.0,193.0,0.0,193.0,0.0,8.0,0.0,178.0,193.0,8.0,178.0,1744418815.0428884,0.0,2025-04-11 20:46:55.042,RIGHT,36
141.0,7628.918603529764,-12208.65693195545,-21525.132241860898,-23719.581808994033,15976.199922108643,9913.177479884325,33854.42153864164,49377.77511808576,0.0,0.0,0.0,193.0,0.0,193.0,0.0,8.0,0.0,179.0,193.0,8.0,179.0,1744418815.0429287,0.0,2025-04-11 20:46:55.042,RIGHT,36
142.0,7624.6494203388,-12212.970818635324,-21473.790284847055,-23724.45448928529,16094.172429343753,9949.610823346475,33848.18540193861,49439.8682641826,0.0,0.0,0.0,193.0,0.0,193.0,0.0,9.0,0.0,179.0,193.0,9.0,179.0,1744418815.0429876,0.0,2025-04-11 20:46:55.042,RIGHT,36
143.0,7603.325856128437,-12241.46929281584,-21476.696011626245,-23768.66623981789,16207.562828965525,9752.490788995123,34215.67043252831,49391.05205429221,0.0,0.0,0.0,193.0,0.0,193.0,0.0,10.0,0.0,178.0,193.0,10.0,178.0,1744418815.0430303,0.0,2025-04-11 20:46:55.043,RIGHT,36
144.0,7611.50659459908,-12226.158347863955,-21510.514200987127,-23748.996704697216,16084.158847827775,9619.81083390842,34136.43349843425,49257.23216023829,0.0,0.0,0.0,193.0,0.0,193.0,0.0,10.0,0.0,179.0,193.0,10.0,179.0,1744418815.0430725,0.0,2025-04-11 20:46:55.043,RIGHT,36
145.0,7617.832138279932,-12205.885315642992,-21522.87471567091,-23711.535180990122,15974.657651741225,9878.688738189787,33870.20187022709,49351.55652183969,0.0,0.0,0.0,193.0,0.0,193.0,0.0,11.0,0.0,179.0,193.0,11.0,179.0,1744418815.043182,0.0,2025-04-11 20:46:55.043,RIGHT,36
146.0,7630.304411685993,-12192.295455014164,-21474.662002880814,-23707.534218732624,16044.819777586436,9954.505855382187,33769.77548238939,49414.87901388157,0.0,0.0,0.0,193.0,0.0,193.0,0.0,11.0,0.0,178.0,193.0,11.0,178.0,1744418815.04322,0.0,2025-04-11 20:46:55.043,RIGHT,36
147.0,7602.141213672307,-12234.428493312418,-21467.598851632938,-23766.43106537236,16195.828163126489,9787.963007445695,34145.620065405375,49400.328028241165,0.0,0.0,0.0,193.0,0.0,193.0,0.0,12.0,0.0,178.0,193.0,12.0,178.0,1744418815.0432608,0.0,2025-04-11 20:46:55.043,RIGHT,36
148.0,7608.734978286622,-12240.999906182278,-21501.394689249362,-23768.018039228686,16100.319159068962,9595.022749307484,34155.92421959928,49257.008642793735,0.0,0.0,0.0,193.0,0.0,193.0,0.0,12.0,0.0,179.0,193.0,12.0,179.0,1744418815.0433009,0.0,2025-04-11 20:46:55.043,RIGHT,36
149.0,7617.496862113102,-12221.263315828242,-21520.304265058552,-23729.08130038754,15983.598349523349,9824.329295674479,33913.72071668157,49319.437065057406,0.0,0.0,0.0,193.0,0.0,192.0,0.0,12.0,0.0,178.0,192.0,12.0,178.0,1744418815.0435097,0.0,2025-04-11 20:46:55.043,RIGHT,36
150.0,7628.806844807487,-12199.895048128968,-21483.557997174026,-23714.485611258224,16018.668236573725,9960.674936851852,33742.70751985401,49400.68565615245,0.0,0.0,0.0,193.0,0.0,193.0,0.0,13.0,0.0,179.0,193.0,13.0,179.0,1744418815.0435438,0.0,2025-04-11 20:46:55.043,RIGHT,36
151.0,7604.689312540211,-12238.496510803285,-21452.980810759167,-23755.188137911337,16200.16440155082,9832.577089378488,34082.7446082526,49405.357170743606,0.0,0.0,0.0,193.0,0.0,193.0,0.0,13.0,0.0,179.0,193.0,13.0,179.0,1744418815.0435767,0.0,2025-04-11 20:46:55.043,RIGHT,36
152.0,7612.199498677194,-12233.534423534205,-21481.63574715087,-23768.487425862244,16137.423054864772,9585.255036980514,34178.23126056567,49244.46931415431,0.0,0.0,0.0,193.0,0.0,193.0,0.0,13.0,0.0,179.0,193.0,13.0,179.0,1744418815.043609,0.0,2025-04-11 20:46:55.043,RIGHT,36
153.0,7619.553222602991,-12202.912533630435,-21503.20518055024,-23723.560419507077,16019.69641681867,9759.59864373191,33961.061711437906,49264.11649753052,0.0,0.0,0.0,193.0,0.0,193.0,0.0,14.0,0.0,179.0,193.0,14.0,179.0,1744418815.0436423,0.0,2025-04-11 20:46:55.043,RIGHT,36
154.0,7641.927318802753,-12183.578274676594,-21481.255767495128,-23707.69068094381,16007.335902134884,9947.666221578864,33745.032101277364,49369.25910344829,0.0,0.0,0.0,193.0,0.0,193.0,0.0,14.0,0.0,179.0,193.0,14.0,179.0,1744418815.043681,0.0,2025-04-11 20:46:55.043,RIGHT,36
155.0,7623.93416451623,-12220.056321627657,-21448.331647912462,-23741.531222049147,16178.371450706894,9848.916214575316,34004.625261381305,49382.06665302118,0.0,0.0,0.0,193.0,0.0,193.0,0.0,14.0,0.0,179.0,193.0,14.0,179.0,1744418815.0437403,0.0,2025-04-11 20:46:55.043,RIGHT,36
156.0,7604.912829984764,-12233.936754934402,-21486.843703608956,-23776.623460843977,16155.304450429017,9587.914894570697,34191.53054851658,49244.93870078787,0.0,0.0,0.0,193.0,0.0,193.0,0.0,14.0,0.0,179.0,193.0,14.0,179.0,1744418815.0437849,0.0,2025-04-11 20:46:55.043,RIGHT,36
157.0,7608.891440497809,-12215.429510525408,-21513.755203933146,-23742.917030205375,16041.198794984675,9688.318930663936,33985.8721477833,49218.02720046368,0.0,0.0,0.0,193.0,0.0,193.0,0.0,14.0,0.0,179.0,193.0,14.0,179.0,1744418815.0438192,0.0,2025-04-11 20:46:55.043,RIGHT,36
158.0,7628.203347707195,-12189.054452068145,-21498.131334558886,-23709.545875733602,15998.59637005286,9923.302820122579,33715.84072301874,49328.66833551745,0.0,0.0,0.0,193.0,0.0,193.0,0.0,15.0,0.0,178.0,193.0,15.0,178.0,1744418815.043852,0.0,2025-04-11 20:46:55.043,RIGHT,36
159.0,7628.158644218283,-12203.22545805281,-21452.466720636694,-23729.193059109817,16167.307337201517,9877.81702015603,33870.8947743052,49358.08323122063,0.0,0.0,0.0,193.0,0.0,192.0,0.0,15.0,0.0,178.0,192.0,15.0,178.0,1744418815.0438843,0.0,2025-04-11 20:46:55.043,RIGHT,36
160.0,7622.146024959806,-12231.478063044318,-21475.332555214474,-23772.42133288638,16194.688224159268,9634.451226526646,34151.31976024148,49258.50620967224,0.0,0.0,0.0,193.0,0.0,192.0,0.0,15.0,0.0,179.0,192.0,15.0,179.0,1744418815.0439515,0.0,2025-04-11 20:46:55.043,RIGHT,36
161.0,7618.234469680127,-12221.308019317154,-21509.44131725327,-23746.292143618124,16065.22692027413,9645.448284798656,33996.645688610755,49192.903839695915,0.0,0.0,0.0,193.0,0.0,193.0,0.0,15.0,0.0,179.0,193.0,15.0,179.0,1744418815.0439851,0.0,2025-04-11 20:46:55.043,RIGHT,36
162.0,7626.482263384136,-12199.157440561943,-21517.666759212825,-23722.26401832867,15982.994852423055,9888.836430172496,33724.20027544502,49301.77918693772,0.0,0.0,0.0,193.0,0.0,193.0,0.0,15.0,0.0,179.0,193.0,15.0,179.0,1744418815.0440176,0.0,2025-04-11 20:46:55.044,RIGHT,36
163.0,7624.895289527809,-12210.914458145435,-21469.20817723372,-23734.624533012455,16120.748653501112,9879.42634575681,33787.81334016482,49343.353431624586,0.0,0.0,0.0,193.0,0.0,193.0,0.0,15.0,0.0,179.0,193.0,15.0,179.0,1744418815.04405,0.0,2025-04-11 20:46:55.044,RIGHT,36
164.0,7596.8662019808535,-12254.567415066651,-21486.597834419947,-23788.894568549942,16196.006977082132,9648.979860422596,34137.57343740147,49273.32541624611,0.0,0.0,0.0,193.0,0.0,193.0,0.0,15.0,0.0,179.0,193.0,15.0,179.0,1744418815.0442424,0.0,2025-04-11 20:46:55.044,RIGHT,36
165.0,7608.399702119792,-12235.27785960172,-21515.431584767295,-23766.609879328,16076.492199479604,9572.045156007429,34022.305491245446,49154.07885957705,0.0,0.0,0.0,193.0,0.0,192.0,0.0,15.0,0.0,178.0,192.0,15.0,178.0,1744418815.0442765,0.0,2025-04-11 20:46:55.044,RIGHT,36
166.0,7610.03137946503,-12212.501432001762,-21532.9330006758,-23744.191079639328,15982.369003578307,9846.56928140751,33761.192412518554,49260.04848003966,0.0,0.0,0.0,193.0,0.0,193.0,0.0,15.0,0.0,179.0,193.0,15.0,179.0,1744418815.0443091,0.0,2025-04-11 20:46:55.044,RIGHT,36
167.0,7633.634821609834,-12196.810507394137,-21481.59104366196,-23735.071567901563,16083.644757705302,9900.057005889059,33722.70270856651,49314.966716166346,0.0,0.0,0.0,193.0,0.0,193.0,0.0,15.0,0.0,179.0,193.0,15.0,179.0,1744418815.044341,0.0,2025-04-11 20:46:55.044,RIGHT,36
168.0,7620.804920292488,-12230.449882799374,-21470.593985389947,-23775.260004432203,16204.25477078614,9722.897079336295,34106.057477719485,49277.639302925985,0.0,0.0,0.0,193.0,0.0,193.0,0.0,15.0,0.0,179.0,193.0,15.0,179.0,1744418815.0443733,0.0,2025-04-11 20:46:55.044,RIGHT,36
169.0,7625.767007561566,-12228.997019409779,-21505.239189295673,-23764.195890926825,16093.300711309996,9574.526199641967,34065.153785366274,49136.08570529053,0.0,0.0,0.0,193.0,0.0,193.0,0.0,16.0,0.0,178.0,193.0,16.0,178.0,1744418815.0444057,0.0,2025-04-11 20:46:55.044,RIGHT,36
170.0,7621.028437737041,-12210.959161634346,-21529.110852373942,-23737.17263188036,15984.492419301561,9826.005676508626,33814.814247466835,49217.4684068523,0.0,0.0,0.0,193.0,0.0,193.0,0.0,16.0,0.0,179.0,193.0,16.0,179.0,1744418815.044438,0.0,2025-04-11 20:46:55.044,RIGHT,36
171.0,7627.957478518186,-12200.118565573523,-21494.040965323566,-23740.100710404007,16041.668181618237,9919.927706709828,33701.62501354516,49294.51486998974,0.0,0.0,0.0,193.0,0.0,193.0,0.0,16.0,0.0,179.0,193.0,16.0,179.0,1744418815.0444703,0.0,2025-04-11 20:46:55.044,RIGHT,36
172.0,7610.053731209485,-12242.050438171678,-21480.11582852791,-23787.41935341589,16218.045797115064,9754.368335529369,34063.45505278767,49280.366215749535,0.0,0.0,0.0,193.0,0.0,192.0,0.0,16.0,0.0,179.0,192.0,16.0,179.0,1744418815.0445025,0.0,2025-04-11 20:46:55.044,RIGHT,36
173.0,7613.071216710951,-12238.161234636455,-21517.06326211253,-23789.028679016672,16131.47749083966,9548.911100496185,34098.502588093594,49132.93410932233,0.0,0.0,0.0,193.0,0.0,193.0,0.0,16.0,0.0,179.0,193.0,16.0,179.0,1744418815.0445344,0.0,2025-04-11 20:46:55.044,RIGHT,36
174.0,7609.31612364246,-12210.333312789597,-21542.11956764693,-23748.102634919007,16016.433062128195,9772.160324115792,33870.58184988282,49195.96602868629,0.0,0.0,0.0,193.0,0.0,193.0,0.0,16.0,0.0,179.0,193.0,16.0,179.0,1744418815.044566,0.0,2025-04-11 20:46:55.044,RIGHT,36
175.0,7625.6999523282,-12193.345987003564,-21505.373299762407,-23730.444756799312,16025.999608755066,9917.603125286476,33679.80971095678,49291.02799785471,0.0,0.0,0.0,193.0,0.0,193.0,0.0,16.0,0.0,178.0,193.0,16.0,178.0,1744418815.0446165,0.0,2025-04-11 20:46:55.044,RIGHT,36
176.0,7611.975981232641,-12230.785158966204,-21470.63868887886,-23762.117178692482,16204.545343464059,9806.447900110234,33989.15785421823,49297.80057642467,0.0,0.0,0.0,193.0,0.0,193.0,0.0,16.0,0.0,179.0,193.0,16.0,179.0,1744418815.044649,0.0,2025-04-11 20:46:55.044,RIGHT,36
177.0,7605.873954996343,-12240.463464315351,-21508.480192241692,-23784.89360629244,16150.230604437664,9580.605874133811,34121.301367438005,49153.87769387695,0.0,0.0,0.0,193.0,0.0,193.0,0.0,16.0,0.0,179.0,193.0,16.0,179.0,1744418815.0446804,0.0,2025-04-11 20:46:55.044,RIGHT,36
178.0,7616.558088845979,-12216.591801237084,-21529.915515174333,-23742.73821624973,16031.74400708008,9749.897986638307,33906.679917178146,49158.61626370147,0.0,0.0,0.0,193.0,0.0,193.0,0.0,16.0,0.0,178.0,193.0,16.0,178.0,1744418815.0447123,0.0,2025-04-11 20:46:55.044,RIGHT,36
179.0,7630.438522152725,-12200.856173140548,-21521.421852281317,-23735.473899301756,16004.743099778068,9954.461151893276,33680.32380107925,49262.03778529618,0.0,0.0,0.0,193.0,0.0,192.0,0.0,16.0,0.0,178.0,192.0,16.0,178.0,1744418815.0448885,0.0,2025-04-11 20:46:55.044,RIGHT,36
180.0,7618.636801080323,-12228.214708353844,-21475.913700570312,-23756.3057251341,16190.77666887959,9875.984177110693,33908.28924277893,49276.94639884787,0.0,0.0,0.0,193.0,0.0,193.0,0.0,16.0,0.0,179.0,193.0,16.0,179.0,1744418815.0449216,0.0,2025-04-11 20:46:55.044,RIGHT,36
181.0,7594.720434513144,-12258.031935457222,-21515.386881278384,-23798.99755704374,16176.091572772453,9622.76126417652,34131.85139082091,49157.92335962336,0.0,0.0,0.0,193.0,0.0,193.0,0.0,16.0,0.0,179.0,193.0,16.0,179.0,1744418815.0449584,0.0,2025-04-11 20:46:55.044,RIGHT,36
182.0,7591.300617611482,-12238.831786970113,-21553.049570685576,-23775.572928854577,16031.252268702063,9702.288770948502,33952.83626947836,49131.9953360552,0.0,0.0,0.0,193.0,0.0,193.0,0.0,16.0,0.0,178.0,193.0,16.0,178.0,1744418815.0449903,0.0,2025-04-11 20:46:55.044,RIGHT,36
183.0,7618.1674144467615,-12203.13605107499,-21534.296457087574,-23739.385454581436,15973.182436607176,9933.942250483306,33681.19551911301,49237.18264546188,0.0,0.0,0.0,193.0,0.0,193.0,0.0,16.0,0.0,179.0,193.0,16.0,179.0,1744418815.0450225,0.0,2025-04-11 20:46:55.045,RIGHT,36
184.0,7625.185862205728,-12217.485871015297,-21482.73098262918,-23749.443739586324,16140.48524385515,9893.798517441573,33814.63543351119,49264.45177369735,0.0,0.0,0.0,193.0,0.0,193.0,0.0,16.0,0.0,179.0,193.0,16.0,179.0,1744418815.045054,0.0,2025-04-11 20:46:55.045,RIGHT,36
185.0,7609.360827131371,-12244.509130061762,-21505.507410229136,-23793.74489709674,16178.036174540064,9655.037183169983,34115.24404469062,49169.72508069576,0.0,0.0,0.0,193.0,0.0,192.0,0.0,16.0,0.0,179.0,192.0,16.0,179.0,1744418815.045086,0.0,2025-04-11 20:46:55.045,RIGHT,36
186.0,7601.604771805379,-12227.387693808996,-21538.051550156066,-23773.13658870895,16046.719675865135,9649.4268953117,33975.47858661158,49091.20340242427,0.0,0.0,0.0,193.0,0.0,193.0,0.0,16.0,0.0,179.0,193.0,16.0,179.0,1744418815.0451176,0.0,2025-04-11 20:46:55.045,RIGHT,36
187.0,7602.588248561412,-12208.723987188816,-21541.73958799119,-23746.09097791803,15964.241738825052,9906.427253058822,33716.08659220774,49206.62781079148,0.0,0.0,0.0,193.0,0.0,193.0,0.0,16.0,0.0,178.0,193.0,16.0,178.0,1744418815.0451496,0.0,2025-04-11 20:46:55.045,RIGHT,36
188.0,7614.233507422628,-12214.93777214739,-21484.0720872965,-23744.45930057279,16105.728281227146,9905.935514680805,33756.38678746066,49246.01158452172,0.0,0.0,0.0,193.0,0.0,192.0,0.0,16.0,0.0,179.0,192.0,16.0,179.0,1744418815.0451813,0.0,2025-04-11 20:46:55.045,RIGHT,36
189.0,7597.648513036789,-12250.365287109053,-21491.44816296675,-23789.319251694593,16204.724157419701,9689.995311498084,34110.17019869926,49175.1565545984,0.0,0.0,0.0,193.0,0.0,193.0,0.0,16.0,0.0,179.0,193.0,16.0,179.0,1744418815.0452132,0.0,2025-04-11 20:46:55.045,RIGHT,36
190.0,7600.889515982809,-12240.463464315351,-21532.35185531996,-23776.08701897705,16086.461077506672,9596.967351075096,34020.562055177936,49054.88181768439,0.0,0.0,0.0,193.0,0.0,193.0,0.0,16.0,0.0,179.0,193.0,16.0,179.0,1744418815.0452611,0.0,2025-04-11 20:46:55.045,RIGHT,36
191.0,7606.499803841091,-12210.288609300687,-21549.808567739557,-23746.202736640305,15982.547817533949,9857.901615846351,33763.74051138646,49155.03998458863,0.0,0.0,0.0,193.0,0.0,192.0,0.0,17.0,0.0,179.0,192.0,17.0,179.0,1744418815.0452936,0.0,2025-04-11 20:46:55.045,RIGHT,36
192.0,7631.153777975295,-12198.464536483829,-21492.58810193397,-23730.869439943963,16079.017946603055,9918.228974131223,33703.07787693475,49209.891165481946,0.0,0.0,0.0,193.0,0.0,193.0,0.0,16.0,0.0,179.0,193.0,16.0,179.0,1744418815.0453255,0.0,2025-04-11 20:46:55.045,RIGHT,36
193.0,7614.367617889359,-12246.27491787373,-21481.568691917502,-23773.918899764885,16227.321771064017,9742.812483645974,34080.50943380707,49172.47434526376,0.0,0.0,0.0,193.0,0.0,193.0,0.0,17.0,0.0,179.0,193.0,17.0,179.0,1744418815.0453577,0.0,2025-04-11 20:46:55.045,RIGHT,36
194.0,7612.423016121747,-12243.145673649988,-21519.298436558063,-23776.735219566253,16107.963455672678,9569.497057139524,34059.87877367482,49026.83037839298,0.0,0.0,0.0,193.0,0.0,193.0,0.0,17.0,0.0,179.0,193.0,17.0,179.0,1744418815.0455146,0.0,2025-04-11 20:46:55.045,RIGHT,36
195.0,7613.808824277977,-12214.602495980562,-21540.018503668132,-23740.27952435965,15987.442849569661,9808.75012978913,33801.55966300484,49097.6407048274,0.0,0.0,0.0,193.0,0.0,193.0,0.0,17.0,0.0,179.0,193.0,17.0,179.0,1744418815.0455472,0.0,2025-04-11 20:46:55.045,RIGHT,36
196.0,7622.548356360002,-12207.114661588033,-21505.82033465151,-23730.064777143572,16037.734274594102,9935.149244683891,33666.93510615052,49178.285798822144,0.0,0.0,0.0,193.0,0.0,193.0,0.0,17.0,0.0,179.0,193.0,17.0,179.0,1744418815.0455792,0.0,2025-04-11 20:46:55.045,RIGHT,36
197.0,7608.98084747563,-12240.284650359708,-21477.344212215452,-23765.693457805333,16208.747471421657,9796.166097660793,34011.755467862546,49168.093403350525,0.0,0.0,0.0,193.0,0.0,192.0,0.0,17.0,0.0,178.0,192.0,17.0,178.0,1744418815.0456111,0.0,2025-04-11 20:46:55.045,RIGHT,36
198.0,7603.482318339625,-12238.049475914178,-21511.631788209892,-23779.842112045542,16133.936182729743,9581.745813101032,34073.60274477038,49022.36002950192,0.0,0.0,0.0,193.0,0.0,193.0,0.0,17.0,0.0,179.0,193.0,17.0,179.0,1744418815.045644,0.0,2025-04-11 20:46:55.045,RIGHT,36
199.0,7605.873954996343,-12223.207917595855,-21541.560774035548,-23746.873288973962,16013.16970743772,9782.196257376225,33848.20775368306,49064.7836404781,0.0,0.0,0.0,193.0,0.0,193.0,0.0,17.0,0.0,179.0,193.0,17.0,179.0,1744418815.0456774,0.0,2025-04-11 20:46:55.045,RIGHT,36
200.0,7620.179071447739,-12195.022367837711,-21511.36356727643,-23727.31551257557,16020.791652296979,9941.743009298207,33652.764100165856,49162.9525021258,0.0,0.0,0.0,193.0,0.0,192.0,0.0,17.0,0.0,178.0,192.0,17.0,178.0,1744418815.0457091,0.0,2025-04-11 20:46:55.045,RIGHT,36
201.0,7599.347245615393,-12229.354647321064,-21482.35100297344,-23762.675972303867,16201.930189362789,9836.063961513515,33964.705045784125,49190.06516815009,0.0,0.0,0.0,193.0,0.0,193.0,0.0,17.0,0.0,179.0,193.0,17.0,179.0,1744418815.0457413,0.0,2025-04-11 20:46:55.045,RIGHT,36
202.0,7598.631989792823,-12248.912423719457,-21512.794078921568,-23784.04424000314,16162.68052609927,9584.159801502205,34117.63568134733,49051.059669382536,0.0,0.0,0.0,193.0,0.0,193.0,0.0,17.0,0.0,179.0,193.0,17.0,179.0,1744418815.0457742,0.0,2025-04-11 20:46:55.045,RIGHT,36
203.0,7607.55033583049,-12222.157385606455,-21538.36447457844,-23744.012265683683,16044.059818274955,9719.63372464582,33911.932577125146,49048.35510830345,0.0,0.0,0.0,193.0,0.0,193.0,0.0,17.0,0.0,179.0,193.0,17.0,179.0,1744418815.045806,0.0,2025-04-11 20:46:55.045,RIGHT,36
204.0,7630.282059941538,-12192.56367594763,-21520.438375525282,-23714.575018236046,16013.393224882273,9933.875195249939,33672.52304226435,49158.81742940157,0.0,0.0,0.0,193.0,0.0,192.0,0.0,17.0,0.0,178.0,192.0,17.0,178.0,1744418815.0458384,0.0,2025-04-11 20:46:55.045,RIGHT,36
205.0,7626.124635472851,-12218.04466462668,-21477.143046515353,-23734.579829523544,16186.865113599912,9876.006528855149,33890.96664082607,49189.461671049794,0.0,0.0,0.0,193.0,0.0,193.0,0.0,17.0,0.0,179.0,193.0,17.0,179.0,1744418815.0458868,0.0,2025-04-11 20:46:55.045,RIGHT,36
206.0,7608.645571308801,-12244.732647506315,-21509.575427720003,-23774.56710035409,16179.556093163026,9629.869118913308,34129.79503033102,49071.891495214884,0.0,0.0,0.0,193.0,0.0,193.0,0.0,17.0,0.0,179.0,193.0,17.0,179.0,1744418815.0459192,0.0,2025-04-11 20:46:55.045,RIGHT,36
207.0,7614.300562655993,-12220.838632683592,-21536.59868676647,-23740.480690059747,16056.353277725373,9685.904942262763,33942.48741179555,49014.93925034276,0.0,0.0,0.0,193.0,0.0,192.0,0.0,17.0,0.0,179.0,192.0,17.0,179.0,1744418815.045951,0.0,2025-04-11 20:46:55.045,RIGHT,36
208.0,7616.423978379247,-12196.832859138593,-21535.749320477167,-23726.577905008544,16004.16195442223,9938.01026797417,33693.84660647471,49134.27521398965,0.0,0.0,0.0,193.0,0.0,193.0,0.0,17.0,0.0,179.0,193.0,17.0,179.0,1744418815.0459828,0.0,2025-04-11 20:46:55.045,RIGHT,36
209.0,7609.964324231663,-12203.426623752908,-21483.222721007198,-23743.98991393923,16163.216967966197,9906.159032125359,33811.237968353984,49163.600702715004,0.0,0.0,0.0,193.0,0.0,193.0,0.0,17.0,0.0,178.0,193.0,17.0,178.0,1744418815.0461278,0.0,2025-04-11 20:46:55.046,RIGHT,36
210.0,7596.642684536301,-12241.156368393466,-21500.50061947115,-23790.392135428447,16222.87377391741,9667.330642620402,34133.818344332976,49071.98090219271,0.0,0.0,0.0,193.0,0.0,193.0,0.0,17.0,0.0,179.0,193.0,17.0,179.0,1744418815.0461605,0.0,2025-04-11 20:46:55.046,RIGHT,36
211.0,7600.330722371426,-12233.04268515619,-21536.46457629974,-23763.838263015543,16093.121897354353,9640.28503182948,34010.05673528394,48985.25613370611,0.0,0.0,0.0,193.0,0.0,193.0,0.0,17.0,0.0,179.0,193.0,17.0,179.0,1744418815.046193,0.0,2025-04-11 20:46:55.046,RIGHT,36
212.0,7619.776740047543,-12199.403309750953,-21541.381960079903,-23728.902486431896,15995.958864207134,9894.267904075135,33734.45972615,49084.00614070966,0.0,0.0,0.0,193.0,0.0,193.0,0.0,17.0,0.0,179.0,193.0,17.0,179.0,1744418815.0462244,0.0,2025-04-11 20:46:55.046,RIGHT,36
213.0,7625.36467616137,-12205.818260409626,-21495.896160113356,-23732.724634733753,16114.780737731546,9912.082244406014,33750.46357518001,49136.91271983537,0.0,0.0,0.0,193.0,0.0,193.0,0.0,17.0,0.0,179.0,193.0,17.0,179.0,1744418815.0462563,0.0,2025-04-11 20:46:55.046,RIGHT,36
214.0,7609.606696320378,-12238.697676503381,-21493.10219205644,-23777.249309688726,16230.316904821027,9705.797994827986,34109.85727427689,49083.69321628728,0.0,0.0,0.0,193.0,0.0,193.0,0.0,17.0,0.0,179.0,193.0,17.0,179.0,1744418815.0462885,0.0,2025-04-11 20:46:55.046,RIGHT,36
215.0,7613.384141133326,-12227.030065897712,-21519.566657491527,-23757.60212631251,16117.552354044004,9595.89446734124,34025.233569769094,48947.34757510991,0.0,0.0,0.0,193.0,0.0,193.0,0.0,17.0,0.0,179.0,193.0,17.0,179.0,1744418815.04632,0.0,2025-04-11 20:46:55.046,RIGHT,36
216.0,7607.617391063856,-12201.392615007475,-21540.443186812783,-23728.276637587147,16016.813041783935,9864.964767094227,33772.45769172403,49044.15298034585,0.0,0.0,0.0,193.0,0.0,193.0,0.0,17.0,0.0,179.0,193.0,17.0,179.0,1744418815.046352,0.0,2025-04-11 20:46:55.046,RIGHT,36
217.0,7616.6474958238,-12206.533516232195,-21501.1264683159,-23732.568172522566,16095.558237499981,9932.377628371434,33697.221719887464,49112.504614890175,0.0,0.0,0.0,193.0,0.0,193.0,0.0,17.0,0.0,179.0,193.0,17.0,179.0,1744418815.0463839,0.0,2025-04-11 20:46:55.046,RIGHT,36
218.0,7588.350187343382,-12257.584900568118,-21488.810657121023,-23786.14530398194,16242.878585204911,9761.207969332692,34080.35297159588,49103.04982698558,0.0,0.0,0.0,193.0,0.0,193.0,0.0,17.0,0.0,179.0,193.0,17.0,179.0,1744418815.0464156,0.0,2025-04-11 20:46:55.046,RIGHT,36
219.0,7593.133460656818,-12249.448865586384,-21519.92428540281,-23781.250271946225,16131.90217398431,9569.877036795264,34062.24805858709,48953.114325179384,0.0,0.0,0.0,193.0,0.0,193.0,0.0,17.0,0.0,178.0,193.0,17.0,178.0,1744418815.0464473,0.0,2025-04-11 20:46:55.046,RIGHT,36
220.0,7606.276286396538,-12218.625809982517,-21538.655047256358,-23740.88302145994,16022.222163942119,9809.04070246705,33817.8317329683,49020.88481436787,0.0,0.0,0.0,193.0,0.0,193.0,0.0,17.0,0.0,179.0,193.0,17.0,179.0,1744418815.0464945,0.0,2025-04-11 20:46:55.046,RIGHT,36
221.0,7616.021646979052,-12201.973760363313,-21503.249884039153,-23725.68383523033,16065.830417374424,9940.15603544188,33668.61148698467,49096.65722807136,0.0,0.0,0.0,193.0,0.0,192.0,0.0,17.0,0.0,178.0,192.0,17.0,178.0,1744418815.0465264,0.0,2025-04-11 20:46:55.046,RIGHT,36
222.0,7588.327835598927,-12238.541214292194,-21485.25672975263,-23767.950983995317,16241.515128793137,9804.458594853711,34009.989680050574,49088.76706227864,0.0,0.0,0.0,193.0,0.0,193.0,0.0,17.0,0.0,179.0,193.0,17.0,179.0,1744418815.046558,0.0,2025-04-11 20:46:55.046,RIGHT,36
223.0,7597.380292103326,-12249.337106864108,-21514.87279115591,-23769.873234018476,16173.275252971085,9576.247283965025,34087.01379144356,48939.99385118412,0.0,0.0,0.0,193.0,0.0,193.0,0.0,17.0,0.0,179.0,193.0,17.0,179.0,1744418815.04659,0.0,2025-04-11 20:46:55.046,RIGHT,36
224.0,7605.628085807334,-12219.341065805087,-21535.525803032615,-23728.075471887052,16052.329963723418,9771.489771782133,33873.21935572855,48982.2609999491,0.0,0.0,0.0,193.0,0.0,193.0,0.0,17.0,0.0,179.0,193.0,17.0,179.0,1744418815.0467076,0.0,2025-04-11 20:46:55.046,RIGHT,36
225.0,7617.2286411796385,-12204.141879575478,-21511.072994598508,-23713.949169391297,16048.932498566212,9949.029677990637,33667.40449278409,49088.07415820052,0.0,0.0,0.0,193.0,0.0,192.0,0.0,17.0,0.0,178.0,192.0,17.0,178.0,1744418815.520216,0.0,2025-04-11 20:46:55.520,RIGHT,36
226.0,7602.901172983787,-12235.61313576855,-21472.15860750182,-23744.928687206353,16235.726026979213,9852.067810543514,33941.03454840595,49098.467719372245,0.0,0.0,0.0,193.0,0.0,193.0,0.0,17.0,0.0,179.0,193.0,17.0,179.0,1744418815.5204904,0.0,2025-04-11 20:46:55.520,RIGHT,36
227.0,7594.519268813046,-12245.179682395421,-21504.479229984194,-23774.298879420625,16201.170230051308,9603.069377311394,34110.393716143815,48960.40099387181,0.0,0.0,0.0,193.0,0.0,193.0,0.0,17.0,0.0,179.0,193.0,17.0,179.0,1744418815.5206175,0.0,2025-04-11 20:46:55.520,RIGHT,36
228.0,7613.853527766887,-12214.982475636301,-21517.152669090352,-23728.656617242887,16086.841057162412,9720.661904890765,33902.209568287086,48940.61970002887,0.0,0.0,0.0,193.0,0.0,193.0,0.0,17.0,0.0,178.0,193.0,17.0,178.0,1744418815.5207584,0.0,2025-04-11 20:46:55.520,RIGHT,36
229.0,7624.492958127614,-12200.543248718173,-21501.998186349654,-23710.574055978544,16058.521396937538,9942.994706987703,33666.1974985835,49053.04897463906,0.0,0.0,0.0,193.0,0.0,193.0,0.0,17.0,0.0,179.0,193.0,17.0,179.0,1744418815.5209267,0.0,2025-04-11 20:46:55.520,RIGHT,36
230.0,7604.376388117837,-12227.946487420379,-21463.173206230786,-23742.648809271912,16225.935962907788,9874.374851509912,33868.25726845947,49084.78845176559,0.0,0.0,0.0,193.0,0.0,193.0,0.0,17.0,0.0,179.0,193.0,17.0,179.0,1744418815.52102,0.0,2025-04-11 20:46:55.521,RIGHT,36
231.0,7593.938123457208,-12245.537310306707,-21490.531741444083,-23779.95387076782,16244.040875916586,9629.153863090738,34139.406280446805,48981.45633714871,0.0,0.0,0.0,193.0,0.0,192.0,0.0,17.0,0.0,178.0,192.0,17.0,178.0,1744418815.5211098,0.0,2025-04-11 20:46:55.521,RIGHT,36
232.0,7601.425957849737,-12226.873603686525,-21532.038930897586,-23753.377646610457,16115.518345298571,9664.693136774677,33981.6700198257,48925.219348099155,0.0,0.0,0.0,193.0,0.0,192.0,0.0,17.0,0.0,179.0,192.0,17.0,179.0,1744418815.5212147,0.0,2025-04-11 20:46:55.521,RIGHT,36
233.0,7628.27040294056,-12195.64821668246,-21532.35185531996,-23724.767413707665,16046.093827020388,9917.87134621994,33719.19348468703,49037.782733176085,0.0,0.0,0.0,193.0,0.0,193.0,0.0,17.0,0.0,179.0,193.0,17.0,179.0,1744418815.5213304,0.0,2025-04-11 20:46:55.521,RIGHT,36
234.0,7625.051751738996,-12202.823126652615,-21478.618261649404,-23728.18723060933,16190.463744457216,9901.845145445484,33805.76179096244,49070.52803880311,0.0,0.0,0.0,193.0,0.0,192.0,0.0,17.0,0.0,178.0,192.0,17.0,178.0,1744418815.5214915,0.0,2025-04-11 20:46:55.521,RIGHT,36
235.0,7591.412376333759,-12239.547042792683,-21497.952520603245,-23775.23765268775,16253.83093998801,9674.10322119036,34142.93785607074,48993.48157566567,0.0,0.0,0.0,193.0,0.0,193.0,0.0,17.0,0.0,179.0,193.0,17.0,179.0,1744418815.5217705,0.0,2025-04-11 20:46:55.521,RIGHT,36
236.0,7588.394890832293,-12230.47223454383,-21536.44222455528,-23760.731370536254,16119.742825000623,9623.185947321172,34027.04406106997,48901.90647863227,0.0,0.0,0.0,193.0,0.0,193.0,0.0,17.0,0.0,179.0,193.0,17.0,179.0,1744418815.5218277,0.0,2025-04-11 20:46:55.521,RIGHT,36
237.0,7608.22088816415,-12201.638484196483,-21541.53842229109,-23724.208620096284,16021.082224974898,9884.723709192718,33742.19342973154,49002.08699728096,0.0,0.0,0.0,193.0,0.0,192.0,0.0,17.0,0.0,178.0,192.0,17.0,178.0,1744418815.5218751,0.0,2025-04-11 20:46:55.521,RIGHT,36
238.0,7619.821443536454,-12204.566562720129,-21490.06235481052,-23732.07643414455,16145.20146193522,9920.218279387747,33729.85526679221,49051.08202112699,0.0,0.0,0.0,193.0,0.0,193.0,0.0,17.0,0.0,179.0,193.0,17.0,179.0,1744418815.521924,0.0,2025-04-11 20:46:55.521,RIGHT,36
239.0,7596.709739769667,-12241.983382938311,-21490.978776333188,-23787.08407724906,16264.872701748933,9713.218773987148,34098.65905030478,48997.81781409,0.0,0.0,0.0,193.0,0.0,193.0,0.0,17.0,0.0,179.0,193.0,17.0,179.0,1744418815.5222392,0.0,2025-04-11 20:46:55.522,RIGHT,36
240.0,7610.590173076413,-12222.827937940114,-21525.422814538815,-23775.528225365666,16146.676677069268,9575.263807208992,34028.318110503926,48854.07374549792,0.0,0.0,0.0,193.0,0.0,193.0,0.0,17.0,0.0,179.0,193.0,17.0,179.0,1744418815.522287,0.0,2025-04-11 20:46:55.522,RIGHT,36
241.0,7612.512423099569,-12199.582123706596,-21539.97380017922,-23738.133756891937,16045.110350264355,9846.032839540583,33776.27984002588,48949.80626699999,0.0,0.0,0.0,193.0,0.0,193.0,0.0,17.0,0.0,179.0,193.0,17.0,179.0,1744418815.5223331,0.0,2025-04-11 20:46:55.522,RIGHT,36
242.0,7624.135330216329,-12193.480097470296,-21495.940863602267,-23725.952056163795,16120.18985988973,9943.419390132356,33685.10707439269,49029.78080866108,0.0,0.0,0.0,193.0,0.0,193.0,0.0,17.0,0.0,179.0,193.0,17.0,179.0,1744418815.5223792,0.0,2025-04-11 20:46:55.522,RIGHT,36
243.0,7602.767062517055,-12230.695751988382,-21489.235340265674,-23770.812007285596,16275.154504198374,9787.314806856491,34061.35398880887,49020.504834712134,0.0,0.0,0.0,193.0,0.0,193.0,0.0,17.0,0.0,179.0,193.0,17.0,179.0,1744418815.5224242,0.0,2025-04-11 20:46:55.522,RIGHT,36
244.0,7597.089719425407,-12232.372132822531,-21531.010750652644,-23774.47769337627,16188.988529323165,9590.105365527317,34077.78252098352,48875.6878823862,0.0,0.0,0.0,193.0,0.0,192.0,0.0,17.0,0.0,178.0,192.0,17.0,178.0,1744418815.5224705,0.0,2025-04-11 20:46:55.522,RIGHT,36
245.0,7604.93518172922,-12203.873658642015,-21549.65210552837,-23732.568172522566,16067.193873786196,9811.097062956936,33832.49447733098,48933.467141803165,0.0,0.0,0.0,193.0,0.0,193.0,0.0,17.0,0.0,179.0,193.0,17.0,179.0,1744418815.5225153,0.0,2025-04-11 20:46:55.522,RIGHT,36
246.0,7624.60471684989,-12185.567579933117,-21512.279988799095,-23718.039538626617,16086.818705417956,9949.186140201824,33661.48128050343,49016.50387245463,0.0,0.0,0.0,193.0,0.0,193.0,0.0,17.0,0.0,179.0,193.0,17.0,179.0,1744418815.522559,0.0,2025-04-11 20:46:55.522,RIGHT,36
247.0,7603.9070014842755,-12225.599554252572,-21484.139142529864,-23761.066646703082,16258.569509812536,9823.61403985191,33991.21421470812,49022.76236090212,0.0,0.0,0.0,193.0,0.0,193.0,0.0,17.0,0.0,179.0,193.0,17.0,179.0,1744418815.522608,0.0,2025-04-11 20:46:55.522,RIGHT,36
248.0,7606.633914307823,-12220.168080349933,-21516.660930712336,-23775.774094554676,16202.936017863276,9591.04413879444,34084.26452687556,48874.97262656363,0.0,0.0,0.0,193.0,0.0,193.0,0.0,17.0,0.0,179.0,193.0,17.0,179.0,1744418815.5226521,0.0,2025-04-11 20:46:55.522,RIGHT,36
249.0,7603.929353228731,-12208.522821488717,-21552.379018351916,-23754.89756523342,16079.174408814242,9763.107867611394,33880.17074825415,48909.23785081361,0.0,0.0,0.0,193.0,0.0,193.0,0.0,17.0,0.0,179.0,193.0,17.0,179.0,1744418815.5226965,0.0,2025-04-11 20:46:55.522,RIGHT,36
250.0,7614.233507422628,-12188.138030545477,-21528.552058762558,-23743.22995462775,16052.955812568167,9928.48842483621,33658.217925812954,49008.45724445072,0.0,0.0,0.0,193.0,0.0,193.0,0.0,17.0,0.0,179.0,193.0,17.0,179.0,1744418815.52278,0.0,2025-04-11 20:46:55.522,RIGHT,36
251.0,7607.036245708018,-12213.976647135813,-21474.52789241408,-23758.093864690527,16235.681323490302,9852.157217521337,33917.47580975006,49025.77984640358,0.0,0.0,0.0,193.0,0.0,193.0,0.0,17.0,0.0,179.0,193.0,17.0,179.0,1744418815.5228264,0.0,2025-04-11 20:46:55.522,RIGHT,36
252.0,7590.764175744555,-12241.46929281584,-21512.458802754736,-23789.296899950135,16227.008846641642,9618.08974958536,34134.60065538891,48909.10374034688,0.0,0.0,0.0,193.0,0.0,193.0,0.0,17.0,0.0,179.0,193.0,17.0,179.0,1744418815.5228708,0.0,2025-04-11 20:46:55.522,RIGHT,36
253.0,7589.892457710798,-12217.75409194876,-21551.373189851427,-23755.188137911337,16108.723414984157,9719.63372464582,33951.18224038866,48891.736434905106,0.0,0.0,0.0,193.0,0.0,192.0,0.0,17.0,0.0,179.0,192.0,17.0,179.0,1744418815.522916,0.0,2025-04-11 20:46:55.522,RIGHT,36
254.0,7605.203402662683,-12191.110812558034,-21547.707503760757,-23730.757681221687,16046.786731098502,9949.744933813206,33693.801902985804,49002.332866469966,0.0,0.0,0.0,193.0,0.0,193.0,0.0,17.0,0.0,179.0,193.0,17.0,179.0,1744418815.5231087,0.0,2025-04-11 20:46:55.523,RIGHT,36
255.0,7614.658190567278,-12202.17492606341,-21486.419020464306,-23739.988951681727,16214.8271459135,9894.62553198642,33838.26122740045,49021.15303530134,0.0,0.0,0.0,193.0,0.0,193.0,0.0,17.0,0.0,179.0,193.0,17.0,179.0,1744418815.5231547,0.0,2025-04-11 20:46:55.523,RIGHT,36
0.0,7600.643646793801,-12233.020333411734,-21509.35191027545,-23784.580681870066,16249.226480630217,9652.24321511307,34119.24500694812,48916.971554395146,0.0,0.0,0.0,193.0,0.0,193.0,0.0,17.0,0.0,179.0,193.0,17.0,179.0,1744418815.5231996,0.0,2025-04-11 20:46:55.523,RIGHT,36
1.0,7595.815669991454,-12228.952315920867,-21543.371265336427,-23765.067608960584,16127.454176837706,9674.036165956995,33974.070426710896,48852.39736466377,0.0,0.0,0.0,193.0,0.0,193.0,0.0,17.0,0.0,179.0,193.0,17.0,179.0,1744418815.5232444,0.0,2025-04-11 20:46:55.523,RIGHT,36
2.0,7615.664019067767,-12196.877562627502,-21535.101119887964,-23731.160012621884,16060.153074282774,9935.261003406167,33707.39176361463,48967.84412477543,0.0,0.0,0.0,193.0,0.0,193.0,0.0,17.0,0.0,179.0,193.0,17.0,179.0,1744418815.5232906,0.0,2025-04-11 20:46:55.523,RIGHT,36
3.0,7619.12853945834,-12199.157440561943,-21481.881616339877,-23736.926762691353,16204.187715552775,9931.550613826586,33765.41689222061,49008.50194793963,0.0,0.0,0.0,193.0,0.0,193.0,0.0,17.0,0.0,179.0,193.0,17.0,179.0,1744418815.5233374,0.0,2025-04-11 20:46:55.523,RIGHT,36
4.0,7599.5037078265805,-12220.302190816665,-21495.180904290784,-23785.430048159367,16287.336204926516,9708.077872762427,34120.250835448605,48943.34661285241,0.0,0.0,0.0,193.0,0.0,193.0,0.0,17.0,0.0,179.0,193.0,17.0,179.0,1744418815.5233831,0.0,2025-04-11 20:46:55.523,RIGHT,36
5.0,7596.2180013916495,-12205.192411564876,-21535.771672221625,-23768.64388807343,16160.445351653738,9635.881738171785,34036.54355246348,48850.78803906299,0.0,0.0,0.0,193.0,0.0,193.0,0.0,17.0,0.0,179.0,193.0,17.0,179.0,1744418815.5234292,0.0,2025-04-11 20:46:55.523,RIGHT,36
6.0,7605.561030573968,-12184.427640965896,-21546.232288626707,-23731.428233555347,16051.212376500653,9879.04636610107,33761.77355787439,48950.40976410029,0.0,0.0,0.0,193.0,0.0,193.0,0.0,17.0,0.0,179.0,193.0,17.0,179.0,1744418815.523478,0.0,2025-04-11 20:46:55.523,RIGHT,36
7.0,7617.943897002208,-12180.985472319779,-21490.911721099823,-23727.74019572022,16155.393857406838,9924.599221300987,33717.04771721932,49004.88096533787,0.0,0.0,0.0,193.0,0.0,193.0,0.0,17.0,0.0,179.0,193.0,17.0,179.0,1744418815.5235305,0.0,2025-04-11 20:46:55.523,RIGHT,36
8.0,7590.384196088815,-12218.111719860044,-21495.426773479794,-23779.663298089898,16282.754097313178,9742.253690034591,34097.18383517073,48974.48259287865,0.0,0.0,0.0,193.0,0.0,193.0,0.0,17.0,0.0,179.0,193.0,17.0,179.0,1744418815.5235815,0.0,2025-04-11 20:46:55.523,RIGHT,36
9.0,7585.086832652907,-12225.018408896734,-21541.516070546637,-23783.194873713837,16159.327764430973,9586.394975947736,34059.20822134116,48849.06695473992,0.0,0.0,0.0,193.0,0.0,193.0,0.0,17.0,0.0,180.0,193.0,17.0,180.0,1744418815.523631,0.0,2025-04-11 20:46:55.523,RIGHT,36
10.0,7590.518306555547,-12202.644312696972,-21556.849367242976,-23747.767358752175,16051.324135222929,9837.270955714102,33800.419724037616,48934.98706042612,0.0,0.0,0.0,193.0,0.0,193.0,0.0,17.0,0.0,179.0,193.0,17.0,179.0,1744418815.5237863,0.0,2025-04-11 20:46:55.523,RIGHT,36
11.0,7598.654341537278,-12197.592818450072,-21526.093366872476,-23746.180384895848,16109.148098128808,9938.211433674269,33679.51913827886,49011.83235786347,0.0,0.0,0.0,193.0,0.0,193.0,0.0,17.0,0.0,179.0,193.0,17.0,179.0,1744418815.523836,0.0,2025-04-11 20:46:55.523,RIGHT,36
12.0,7591.390024589304,-12226.337161819598,-21504.009843350632,-23781.160864968406,16267.6890215503,9782.889161454339,34033.838991384386,48988.22891571867,0.0,0.0,0.0,193.0,0.0,193.0,0.0,17.0,0.0,179.0,193.0,17.0,179.0,1744418815.5238883,0.0,2025-04-11 20:46:55.523,RIGHT,36
13.0,7590.451251322181,-12230.025199654723,-21539.660875756847,-23787.911091793907,16179.82431409649,9578.124830499271,34074.36270408186,48840.9309197582,0.0,0.0,0.0,193.0,0.0,193.0,0.0,17.0,0.0,179.0,193.0,17.0,179.0,1744418815.5240777,0.0,2025-04-11 20:46:55.524,RIGHT,36
14.0,7597.760271759066,-12195.424699237908,-21553.474253830227,-23739.74308249272,16077.766248913558,9798.870658739885,33842.12807919122,48896.16208030726,0.0,0.0,0.0,193.0,0.0,193.0,0.0,17.0,0.0,179.0,193.0,17.0,179.0,1744418815.524112,0.0,2025-04-11 20:46:55.524,RIGHT,36
15.0,7598.296713625993,-12188.115678801023,-21536.062244899542,-23736.435024313334,16096.228789833642,9954.036468748625,33673.394760298106,48996.83433733396,0.0,0.0,0.0,193.0,0.0,193.0,0.0,17.0,0.0,179.0,193.0,17.0,179.0,1744418815.524146,0.0,2025-04-11 20:46:55.524,RIGHT,36
16.0,7584.1257076413285,-12225.197222852377,-21517.10796560144,-23777.428123644368,16260.782332513612,9822.004714251127,33984.44163613816,48999.09186352395,0.0,0.0,0.0,193.0,0.0,193.0,0.0,17.0,0.0,179.0,193.0,17.0,179.0,1744418815.5241797,0.0,2025-04-11 20:46:55.524,RIGHT,36
17.0,7586.271475109038,-12235.166100879444,-21553.809529997056,-23802.842057090053,16199.225628283695,9579.823563077874,34114.171160956765,48853.67141409772,0.0,0.0,0.0,193.0,0.0,193.0,0.0,17.0,0.0,179.0,193.0,17.0,179.0,1744418815.524213,0.0,2025-04-11 20:46:55.524,RIGHT,36
18.0,7579.521248283536,-12208.902801144457,-21578.016469242153,-23767.325135150568,16085.075269350442,9738.386838243823,33904.19887354361,48863.37207119132,0.0,0.0,0.0,193.0,0.0,193.0,0.0,17.0,0.0,179.0,193.0,17.0,179.0,1744418815.524246,0.0,2025-04-11 20:46:55.524,RIGHT,36
19.0,7594.362806601859,-12179.68907114137,-21555.687076531303,-23738.491384803223,16078.70502218068,9949.476712879743,33680.7484842239,48977.231857446655,0.0,0.0,0.0,193.0,0.0,193.0,0.0,17.0,0.0,178.0,193.0,17.0,178.0,1744418815.524279,0.0,2025-04-11 20:46:55.524,RIGHT,36
20.0,7584.460983808159,-12211.473251756817,-21514.425756266806,-23764.75468453821,16257.362515611949,9873.614892198431,33917.453458005606,49005.39505546034,0.0,0.0,0.0,193.0,0.0,193.0,0.0,17.0,0.0,179.0,193.0,17.0,179.0,1744418815.5243132,0.0,2025-04-11 20:46:55.524,RIGHT,36
21.0,7583.857486707865,-12221.79975769517,-21535.324637332516,-23789.27454820568,16258.010716201154,9621.554269975933,34138.847486835424,48881.49933594458,0.0,0.0,0.0,193.0,0.0,193.0,0.0,17.0,0.0,179.0,193.0,17.0,179.0,1744418815.5243468,0.0,2025-04-11 20:46:55.524,RIGHT,36
22.0,7579.007158161064,-12216.234173325798,-21573.546120351093,-23765.98403048325,16126.202479148207,9701.372349425836,33979.188976191166,48857.1806379772,0.0,0.0,0.0,193.0,0.0,193.0,0.0,17.0,0.0,179.0,193.0,17.0,179.0,1744418815.5243807,0.0,2025-04-11 20:46:55.524,RIGHT,36
23.0,7600.777757260533,-12184.874675855002,-21560.26918414464,-23732.7022829893,16054.185158513208,9929.784826014618,33705.961251969486,48959.79749677152,0.0,0.0,0.0,193.0,0.0,193.0,0.0,17.0,0.0,179.0,193.0,17.0,179.0,1744418815.5244143,0.0,2025-04-11 20:46:55.524,RIGHT,36
24.0,7603.929353228731,-12194.038891081678,-21502.087593327476,-23735.965637679772,16224.170175095818,9903.409767557356,33833.52265757593,48986.91016279581,0.0,0.0,0.0,193.0,0.0,193.0,0.0,17.0,0.0,179.0,193.0,17.0,179.0,1744418815.5244482,0.0,2025-04-11 20:46:55.524,RIGHT,36
25.0,7588.841925721398,-12222.89499317348,-21522.69590171527,-23776.154074210415,16265.520902338136,9671.890398489286,34136.52290541207,48891.378806993824,0.0,0.0,0.0,193.0,0.0,193.0,0.0,17.0,0.0,179.0,193.0,17.0,179.0,1744418815.5245068,0.0,2025-04-11 20:46:55.524,RIGHT,36
26.0,7589.154850143773,-12213.239039568787,-21559.911556233354,-23756.08220768955,16134.897307741323,9659.328718105402,33999.5737671344,48813.438274078166,0.0,0.0,0.0,193.0,0.0,193.0,0.0,17.0,0.0,180.0,193.0,17.0,180.0,1744418815.5245411,0.0,2025-04-11 20:46:55.524,RIGHT,36
27.0,7606.656266052279,-12187.445126467363,-21564.761884780157,-23730.377701565947,16046.40675144276,9913.95979094026,33735.62201686168,48931.790760969016,0.0,0.0,0.0,193.0,0.0,193.0,0.0,17.0,0.0,178.0,193.0,17.0,178.0,1744418815.5245745,0.0,2025-04-11 20:46:55.524,RIGHT,36
28.0,7611.327780643437,-12189.345024746064,-21516.839744667977,-23737.060873158083,16176.315090217005,9914.764453740652,33769.082578311274,48978.12592722487,0.0,0.0,0.0,193.0,0.0,193.0,0.0,17.0,0.0,179.0,193.0,17.0,179.0,1744418815.524611,0.0,2025-04-11 20:46:55.524,RIGHT,36
29.0,7588.55135304348,-12217.195298337378,-21523.612323237936,-23783.91012953641,16279.535446111615,9696.700834834675,34116.18281795774,48906.95797287917,0.0,0.0,0.0,193.0,0.0,193.0,0.0,17.0,0.0,178.0,193.0,17.0,178.0,1744418815.5246646,0.0,2025-04-11 20:46:55.524,RIGHT,36
30.0,7582.002291918075,-12207.874620899514,-21557.45286434327,-23769.001515984717,16169.788380836057,9609.707845414621,34034.42013674023,48800.69777973864,0.0,0.0,0.0,193.0,0.0,192.0,0.0,17.0,0.0,179.0,192.0,17.0,179.0,1744418815.5246983,0.0,2025-04-11 20:46:55.524,RIGHT,36
31.0,7596.642684536301,-12183.69003339887,-21567.332335392515,-23732.903448689398,16071.060725576965,9874.799534654563,33775.49752896995,48902.26410654356,0.0,0.0,0.0,193.0,0.0,193.0,0.0,17.0,0.0,179.0,193.0,17.0,179.0,1744418815.524732,0.0,2025-04-11 20:46:55.524,RIGHT,36
32.0,7611.081911454429,-12177.386841462476,-21521.801831937057,-23728.477803287245,16147.660153825302,9936.445645862299,33718.07589746427,48962.56911308398,0.0,0.0,0.0,193.0,0.0,193.0,0.0,17.0,0.0,179.0,193.0,17.0,179.0,1744418815.5247672,0.0,2025-04-11 20:46:55.524,RIGHT,36
33.0,7590.339492599905,-12212.009693623746,-21516.25859931214,-23774.343582909536,16271.757039041167,9745.271175536058,34087.661992032765,48922.11245561987,0.0,0.0,0.0,193.0,0.0,193.0,0.0,17.0,0.0,179.0,193.0,17.0,179.0,1744418815.5248213,0.0,2025-04-11 20:46:55.524,RIGHT,36
34.0,7585.846791964387,-12204.477155742306,-21545.27116361513,-23767.548652595124,16193.838857869967,9579.37652818877,34068.238326101105,48780.24593356204,0.0,0.0,0.0,193.0,0.0,193.0,0.0,17.0,0.0,179.0,193.0,17.0,179.0,1744418815.524867,0.0,2025-04-11 20:46:55.524,RIGHT,36
35.0,7579.387137816804,-12191.22257128031,-21573.903748262375,-23738.536088292134,16092.764269443069,9837.963859792217,33840.74227103499,48868.870600327326,0.0,0.0,0.0,193.0,0.0,193.0,0.0,17.0,0.0,179.0,193.0,17.0,179.0,1744418815.5249116,0.0,2025-04-11 20:46:55.524,RIGHT,36
36.0,7592.239390878605,-12187.690995656372,-21543.97476243672,-23739.27369585916,16130.00227570561,9946.503930867188,33704.508388579896,48951.72851702315,0.0,0.0,0.0,193.0,0.0,193.0,0.0,17.0,0.0,179.0,193.0,17.0,179.0,1744418815.5249555,0.0,2025-04-11 20:46:55.524,RIGHT,36
37.0,7586.450289064681,-12218.402292537963,-21505.708575929235,-23766.31930665008,16294.689928852313,9788.946484201728,34039.561037964944,48935.18822612622,0.0,0.0,0.0,193.0,0.0,193.0,0.0,17.0,0.0,179.0,193.0,17.0,179.0,1744418815.524996,0.0,2025-04-11 20:46:55.524,RIGHT,36
38.0,7587.076137909429,-12211.964990134835,-21536.375169321916,-23773.091885220038,16220.63859947188,9572.380432174257,34100.26837590556,48784.40335803072,0.0,0.0,0.0,193.0,0.0,193.0,0.0,17.0,0.0,179.0,193.0,17.0,179.0,1744418815.5250404,0.0,2025-04-11 20:46:55.525,RIGHT,36
39.0,7581.30938783996,-12198.08455682809,-21573.434361628817,-23747.32032386307,16099.80506894649,9776.407155562301,33884.37287621175,48831.90081499825,0.0,0.0,0.0,193.0,0.0,193.0,0.0,17.0,0.0,178.0,193.0,17.0,178.0,1744418815.5250823,0.0,2025-04-11 20:46:55.525,RIGHT,36
40.0,7605.002236962586,-12175.151667016944,-21543.59478278098,-23729.394224809912,16107.292903339017,9944.447570377299,33684.05654240329,48925.152292865794,0.0,0.0,0.0,193.0,0.0,193.0,0.0,17.0,0.0,179.0,193.0,17.0,179.0,1744418815.525205,0.0,2025-04-11 20:46:55.525,RIGHT,36
41.0,7590.004216433074,-12199.917399873424,-21505.999148607156,-23760.64196355843,16280.854199034477,9843.842368583963,33973.10930169932,48928.25918534508,0.0,0.0,0.0,193.0,0.0,192.0,0.0,17.0,0.0,179.0,192.0,17.0,179.0,1744418815.5252495,0.0,2025-04-11 20:46:55.525,RIGHT,36
42.0,7584.5950942748905,-12216.36828379253,-21534.877602443412,-23783.172521969384,16247.036009673599,9600.118947043295,34128.94566404172,48794.12636686878,0.0,0.0,0.0,193.0,0.0,193.0,0.0,17.0,0.0,179.0,193.0,17.0,179.0,1744418815.525291,0.0,2025-04-11 20:46:55.525,RIGHT,36
43.0,7578.895399438787,-12205.930019131902,-21564.538367335605,-23746.02392268466,16133.735017029647,9742.745428412609,33933.81493494689,48801.74831172804,0.0,0.0,0.0,193.0,0.0,193.0,0.0,17.0,0.0,180.0,193.0,17.0,180.0,1744418815.525336,0.0,2025-04-11 20:46:55.525,RIGHT,36
44.0,7599.906039226776,-12175.59870190605,-21541.873698457923,-23711.088146101018,16088.159810085275,9965.480561909742,33687.87869070515,48907.181490323725,0.0,0.0,0.0,193.0,0.0,193.0,0.0,17.0,0.0,179.0,193.0,17.0,179.0,1744418815.5254364,0.0,2025-04-11 20:46:55.525,RIGHT,36
45.0,7596.195649647195,-12194.79885039316,-21492.789267634067,-23724.78976545212,16266.817303516544,9902.180421612313,33886.78686461292,48923.766484709566,0.0,0.0,0.0,193.0,0.0,193.0,0.0,17.0,0.0,179.0,193.0,17.0,179.0,1744418815.5254903,0.0,2025-04-11 20:46:55.525,RIGHT,36
46.0,7585.8244402199325,-12218.17877509341,-21519.723119702714,-23763.74885603772,16292.879437551432,9653.584319780388,34135.02533853356,48806.88921295276,0.0,0.0,0.0,193.0,0.0,193.0,0.0,17.0,0.0,178.0,193.0,17.0,178.0,1744418815.525536,0.0,2025-04-11 20:46:55.525,RIGHT,36
47.0,7583.633969263312,-12204.141879575478,-21550.8367479845,-23736.144451635417,16169.944843047244,9705.082739005416,33959.742958515046,48751.501590192514,0.0,0.0,0.0,193.0,0.0,193.0,0.0,17.0,0.0,179.0,193.0,17.0,179.0,1744418815.525582,0.0,2025-04-11 20:46:55.525,RIGHT,36
48.0,7589.713643755155,-12176.425716450896,-21538.856212956456,-23707.735384432723,16115.741862743123,9959.02090776216,33702.474379834464,48864.959045047646,0.0,0.0,0.0,193.0,0.0,193.0,0.0,17.0,0.0,179.0,193.0,17.0,179.0,1744418815.5256495,0.0,2025-04-11 20:46:55.525,RIGHT,36
49.0,7591.747652500589,-12184.092364799068,-21485.748468130645,-23721.772279950656,16275.020393731642,9935.529224339632,33809.31571833083,48896.58676345191,0.0,0.0,0.0,193.0,0.0,193.0,0.0,17.0,0.0,179.0,193.0,17.0,179.0,1744418815.5257075,0.0,2025-04-11 20:46:55.525,RIGHT,36
50.0,7576.414355804248,-12210.780347678703,-21507.83199165249,-23769.22503342927,16337.068836339575,9694.15273596677,34119.93791102623,48799.62489600479,0.0,0.0,0.0,193.0,0.0,193.0,0.0,17.0,0.0,179.0,193.0,17.0,179.0,1744418815.5257473,0.0,2025-04-11 20:46:55.525,RIGHT,36
51.0,7575.721451726134,-12206.22059180982,-21551.127320662417,-23754.361123366492,16198.73388990568,9667.956491465151,34005.09464801486,48716.6999240756,0.0,0.0,0.0,193.0,0.0,193.0,0.0,17.0,0.0,178.0,193.0,17.0,178.0,1744418815.525792,0.0,2025-04-11 20:46:55.525,RIGHT,36
52.0,7589.870105966343,-12183.779440376693,-21563.13020743492,-23726.622608497455,16103.157830614786,9936.49034935121,33747.04375827834,48833.39838187676,0.0,0.0,0.0,193.0,0.0,193.0,0.0,17.0,0.0,179.0,193.0,17.0,179.0,1744418815.525834,0.0,2025-04-11 20:46:55.525,RIGHT,36
53.0,7590.160678644262,-12188.808582879137,-21518.225552824206,-23736.479727802245,16219.096329104465,9950.303727424589,33756.63265664967,48884.22624876812,0.0,0.0,0.0,193.0,0.0,193.0,0.0,17.0,0.0,179.0,193.0,17.0,179.0,1744418815.5258808,0.0,2025-04-11 20:46:55.525,RIGHT,36
54.0,7579.588303516902,-12221.620943739528,-21516.437413267784,-23775.349411410025,16329.715112413778,9729.446140461701,34107.71150680918,48824.59179456136,0.0,0.0,0.0,193.0,0.0,193.0,0.0,17.0,0.0,179.0,193.0,17.0,179.0,1744418815.5259235,0.0,2025-04-11 20:46:55.525,RIGHT,36
55.0,7589.423071077236,-12206.757033676748,-21552.46842532974,-23757.199794912314,16213.173116823808,9622.917726387706,34036.61060769685,48707.98274373803,0.0,0.0,0.0,193.0,0.0,193.0,0.0,17.0,0.0,179.0,193.0,17.0,179.0,1744418815.5260446,0.0,2025-04-11 20:46:55.526,RIGHT,36
56.0,7586.78556523151,-12187.042795067167,-21580.497512876693,-23730.712977732775,16100.319159068962,9897.15127910987,33785.77933141939,48812.14187289976,0.0,0.0,0.0,193.0,0.0,193.0,0.0,17.0,0.0,179.0,193.0,17.0,179.0,1744418815.52609,0.0,2025-04-11 20:46:55.526,RIGHT,36
57.0,7592.619370534346,-12185.232303766288,-21536.710445488745,-23723.60512299599,16177.723250117691,9969.302710211601,33704.217815901975,48881.946370833684,0.0,0.0,0.0,193.0,0.0,193.0,0.0,17.0,0.0,179.0,193.0,17.0,179.0,1744418815.5261352,0.0,2025-04-11 20:46:55.526,RIGHT,36
58.0,7578.090736638396,-12214.535440747195,-21515.588046978482,-23760.977239725264,16342.276792797662,9795.115565671393,34074.07213140394,48857.5829693774,0.0,0.0,0.0,193.0,0.0,193.0,0.0,17.0,0.0,179.0,193.0,17.0,179.0,1744418815.5261743,0.0,2025-04-11 20:46:55.526,RIGHT,36
59.0,7583.142230885295,-12204.924190631413,-21549.339181105996,-23757.7585885237,16251.372248097927,9621.755435676032,34083.348105352896,48720.678534588646,0.0,0.0,0.0,193.0,0.0,193.0,0.0,17.0,0.0,179.0,193.0,17.0,179.0,1744418815.5262623,0.0,2025-04-11 20:46:55.526,RIGHT,36
60.0,7578.157791871762,-12184.517047943718,-21577.390620397404,-23733.5516492786,16125.420168092272,9860.248549014157,33851.582867095814,48798.261439593014,0.0,0.0,0.0,193.0,0.0,193.0,0.0,17.0,0.0,179.0,193.0,17.0,179.0,1744418815.5263069,0.0,2025-04-11 20:46:55.526,RIGHT,36
61.0,7589.847754221887,-12177.252730995742,-21541.82899496901,-23726.466146286268,16159.975965020176,9971.381422445944,33696.99820244291,48881.454632455665,0.0,0.0,0.0,193.0,0.0,193.0,0.0,17.0,0.0,179.0,193.0,17.0,179.0,1744418815.5263464,0.0,2025-04-11 20:46:55.526,RIGHT,36
62.0,7579.521248283536,-12212.814356424136,-21502.48992472767,-23755.299896633613,16343.707304442802,9817.489661871155,34029.14512504877,48874.95027481917,0.0,0.0,0.0,193.0,0.0,193.0,0.0,17.0,0.0,179.0,193.0,17.0,179.0,1744418815.526388,0.0,2025-04-11 20:46:55.526,RIGHT,36
63.0,7575.296768581483,-12212.657894212949,-21537.671570500323,-23769.984992740752,16276.853236776977,9592.295836483936,34112.27126267806,48729.73099109304,0.0,0.0,0.0,193.0,0.0,193.0,0.0,17.0,0.0,179.0,193.0,17.0,179.0,1744418815.5264287,0.0,2025-04-11 20:46:55.526,RIGHT,36
64.0,7583.142230885295,-12186.282835755686,-21560.64916380038,-23726.68966373082,16149.872976526378,9785.884295211352,33883.63526864473,48761.917503108685,0.0,0.0,0.0,193.0,0.0,193.0,0.0,17.0,0.0,178.0,193.0,17.0,178.0,1744418815.526476,0.0,2025-04-11 20:46:55.526,RIGHT,36
65.0,7594.295751368493,-12178.303262985142,-21534.721140232225,-23714.17268683585,16146.877842769367,9975.583550403542,33678.558013267284,48869.71996661663,0.0,0.0,0.0,193.0,0.0,193.0,0.0,17.0,0.0,179.0,193.0,17.0,179.0,1744418815.5265164,0.0,2025-04-11 20:46:55.526,RIGHT,36
66.0,7587.210248376161,-12210.355664534052,-21496.16438104682,-23747.476786074258,16326.89879261241,9881.214485313236,33953.08213866736,48888.20485928117,0.0,0.0,0.0,193.0,0.0,193.0,0.0,17.0,0.0,178.0,193.0,17.0,178.0,1744418815.52656,0.0,2025-04-11 20:46:55.526,RIGHT,36
67.0,7587.210248376161,-12214.736606447294,-21521.60066623696,-23772.75660905321,16297.394489931405,9624.303534543937,34123.42478316126,48750.02637505846,0.0,0.0,0.0,193.0,0.0,193.0,0.0,17.0,0.0,179.0,193.0,17.0,179.0,1744418815.5266044,0.0,2025-04-11 20:46:55.526,RIGHT,36
68.0,7585.846791964387,-12190.50731545774,-21548.020428183132,-23735.853878957496,16172.984680293166,9746.768742414564,33926.125934854266,48735.4530376736,0.0,0.0,0.0,193.0,0.0,193.0,0.0,17.0,0.0,179.0,193.0,17.0,179.0,1744418815.5266461,0.0,2025-04-11 20:46:55.526,RIGHT,36
69.0,7591.099451911385,-12164.713402356316,-21540.59964902397,-23716.720785703754,16118.71464475568,9975.494143425722,33681.86607144667,48851.70446058565,0.0,0.0,0.0,193.0,0.0,193.0,0.0,17.0,0.0,179.0,193.0,17.0,179.0,1744418815.5266948,0.0,2025-04-11 20:46:55.526,RIGHT,36
70.0,7579.275379094527,-12181.41015546443,-21501.64055843837,-23741.17359413786,16281.03301299012,9915.323247352035,33867.20673647007,48889.16598429275,0.0,0.0,0.0,193.0,0.0,193.0,0.0,17.0,0.0,179.0,193.0,17.0,179.0,1744418815.5267887,0.0,2025-04-11 20:46:55.526,RIGHT,36
71.0,7571.273454579527,-12198.151612061456,-21522.20416333725,-23775.304707921114,16312.41486220537,9664.849598985864,34134.17597224426,48782.525811496474,0.0,0.0,0.0,193.0,0.0,193.0,0.0,17.0,0.0,178.0,193.0,17.0,178.0,1744418815.5268612,0.0,2025-04-11 20:46:55.526,RIGHT,36
72.0,7580.527076784025,-12189.546190446163,-21554.30126837507,-23732.009378911185,16191.82720086899,9702.914619793251,33979.099569213344,48722.131397978235,0.0,0.0,0.0,193.0,0.0,193.0,0.0,17.0,0.0,180.0,193.0,17.0,180.0,1744418815.5270011,0.0,2025-04-11 20:46:55.527,RIGHT,36
73.0,7581.1305738843175,-12173.430582693885,-21562.683172545814,-23709.63528271142,16103.940141670722,9961.211378718779,33712.64442356163,48832.928995243194,0.0,0.0,0.0,193.0,0.0,193.0,0.0,17.0,0.0,179.0,193.0,17.0,179.0,1744418815.527115,0.0,2025-04-11 20:46:55.527,RIGHT,36
74.0,7583.723376241133,-12184.0253095657,-21515.051605111552,-23730.355349821493,16242.677419504813,9933.58462257202,33789.221500065505,48868.64708288277,0.0,0.0,0.0,193.0,0.0,193.0,0.0,17.0,0.0,179.0,193.0,17.0,179.0,1744418815.527288,0.0,2025-04-11 20:46:55.527,RIGHT,36
75.0,7561.684556208201,-12221.0845018726,-21534.698788487767,-23785.69826909283,16329.312781013583,9680.607578826855,34120.76492557108,48795.668637236195,0.0,0.0,0.0,193.0,0.0,193.0,0.0,17.0,0.0,179.0,193.0,17.0,179.0,1744418815.5273662,0.0,2025-04-11 20:46:55.527,RIGHT,36
76.0,7569.015928389541,-12201.504373729751,-21557.966954465744,-23751.27658263166,16236.35187582396,9609.707845414621,33994.67873509869,48693.40940635317,0.0,0.0,0.0,193.0,0.0,193.0,0.0,17.0,0.0,179.0,193.0,17.0,179.0,1744418815.527446,0.0,2025-04-11 20:46:55.527,RIGHT,36
77.0,7581.8905331957985,-12172.536512915673,-21562.30319289007,-23717.570151993055,16152.57753760547,9884.589598725986,33736.1137552397,48806.151605385734,0.0,0.0,0.0,193.0,0.0,193.0,0.0,17.0,0.0,179.0,193.0,17.0,179.0,1744418815.5275166,0.0,2025-04-11 20:46:55.527,RIGHT,36
78.0,7599.257838637572,-12170.726021614793,-21510.98358762069,-23714.284445558125,16261.966974969742,9931.304744637579,33720.1099062097,48861.673338612716,0.0,0.0,0.0,193.0,0.0,193.0,0.0,17.0,0.0,179.0,193.0,17.0,179.0,1744418815.527584,0.0,2025-04-11 20:46:55.527,RIGHT,36
79.0,7571.921655168731,-12211.1826790789,-21514.425756266806,-23760.88783274744,16392.590569566557,9740.845530133907,34091.573547312444,48819.13796891427,0.0,0.0,0.0,193.0,0.0,193.0,0.0,18.0,0.0,179.0,193.0,18.0,179.0,1744418815.5276313,0.0,2025-04-11 20:46:55.527,RIGHT,36
80.0,7560.298748051971,-12203.426623752908,-21556.424684098325,-23761.93836473684,16273.589882086502,9608.679665169677,34043.45024150017,48700.11492968976,0.0,0.0,0.0,193.0,0.0,193.0,0.0,17.0,0.0,179.0,193.0,17.0,179.0,1744418815.5276709,0.0,2025-04-11 20:46:55.527,RIGHT,36
81.0,7563.204474831162,-12191.066109069123,-21583.492646633702,-23738.04434991412,16155.505616129116,9864.249511271657,33788.26037505393,48795.31100932491,0.0,0.0,0.0,193.0,0.0,193.0,0.0,17.0,0.0,179.0,193.0,17.0,179.0,1744418815.527705,0.0,2025-04-11 20:46:55.527,RIGHT,36
82.0,7588.037262921008,-12172.31299547112,-21536.44222455528,-23724.83446894103,16223.320808806517,9947.219186689757,33683.09541739171,48863.59558863588,0.0,0.0,0.0,193.0,0.0,193.0,0.0,17.0,0.0,179.0,193.0,17.0,179.0,1744418815.5277388,0.0,2025-04-11 20:46:55.527,RIGHT,36
83.0,7568.032451633508,-12206.332350532097,-21519.723119702714,-23769.448550873825,16374.396249579937,9783.537362043544,34053.061491615954,48844.77541980451,0.0,0.0,0.0,193.0,0.0,193.0,0.0,17.0,0.0,180.0,193.0,17.0,180.0,1744418815.527772,0.0,2025-04-11 20:46:55.527,RIGHT,36
84.0,7567.8089341889545,-12212.054397112655,-21561.811454512055,-23780.535016123657,16282.865856035454,9579.46593516659,34077.76016923907,48698.21503141106,0.0,0.0,0.0,193.0,0.0,193.0,0.0,17.0,0.0,179.0,193.0,17.0,179.0,1744418815.5278056,0.0,2025-04-11 20:46:55.527,RIGHT,36
85.0,7572.860428435854,-12189.277969512697,-21585.57135886805,-23746.359198851493,16168.871959313388,9810.873545512384,33847.26898041594,48762.36453799779,0.0,0.0,0.0,193.0,0.0,193.0,0.0,17.0,0.0,179.0,193.0,17.0,179.0,1744418815.5278687,0.0,2025-04-11 20:46:55.527,RIGHT,36
86.0,7575.766155215044,-12166.389783190463,-21554.658896286357,-23739.07253015906,16192.34129099146,9956.785733316628,33677.10514987769,48853.53730363099,0.0,0.0,0.0,193.0,0.0,193.0,0.0,17.0,0.0,179.0,193.0,17.0,179.0,1744418815.527902,0.0,2025-04-11 20:46:55.527,RIGHT,36
87.0,7559.427030018214,-12204.097176086567,-21525.60162849446,-23780.713830079298,16375.580892036069,9828.777292821085,34004.91583405922,48854.409021664746,0.0,0.0,0.0,193.0,0.0,193.0,0.0,17.0,0.0,178.0,193.0,17.0,178.0,1744418815.5279377,0.0,2025-04-11 20:46:55.527,RIGHT,36
88.0,7560.16463758524,-12218.17877509341,-21562.88433824591,-23797.23176923177,16323.657789666391,9586.305568969914,34115.31109992398,48708.11685420476,0.0,0.0,0.0,193.0,0.0,193.0,0.0,17.0,0.0,179.0,193.0,17.0,179.0,1744418815.5279977,0.0,2025-04-11 20:46:55.527,RIGHT,36
89.0,7558.041221861986,-12207.56169647714,-21592.254530460184,-23762.385399625946,16205.238247542173,9754.390687273823,33902.79071364292,48732.23438647204,0.0,0.0,0.0,193.0,0.0,193.0,0.0,17.0,0.0,179.0,193.0,17.0,179.0,1744418816.0019147,0.0,2025-04-11 20:46:56.001,RIGHT,36
90.0,7580.1918006171945,-12184.047661310156,-21561.185605667306,-23736.479727802245,16204.187715552775,9940.15603544188,33674.154719609585,48833.219567921115,0.0,0.0,0.0,193.0,0.0,193.0,0.0,17.0,0.0,179.0,193.0,17.0,179.0,1744418816.0021012,0.0,2025-04-11 20:46:56.002,RIGHT,36
91.0,7569.664128978745,-12221.240964083787,-21527.434471539793,-23767.23572817275,16383.046374684141,9848.290365730569,33918.81691441738,48848.06112623944,0.0,0.0,0.0,193.0,0.0,193.0,0.0,17.0,0.0,179.0,193.0,17.0,179.0,1744418816.0021696,0.0,2025-04-11 20:46:56.002,RIGHT,36
92.0,7562.2880533084935,-12243.927984705924,-21564.516015591147,-23806.03835654716,16357.744199960734,9588.160763759704,34118.84267554792,48728.568700381365,0.0,0.0,0.0,193.0,0.0,193.0,0.0,18.0,0.0,179.0,193.0,18.0,179.0,1744418816.0022297,0.0,2025-04-11 20:46:56.002,RIGHT,36
93.0,7563.562102742447,-12222.090330373088,-21596.121382250953,-23773.337754409047,16224.438396029282,9677.545389836478,33923.242559819526,48708.27331641594,0.0,0.0,0.0,193.0,0.0,193.0,0.0,17.0,0.0,179.0,193.0,17.0,179.0,1744418816.0022864,0.0,2025-04-11 20:46:56.002,RIGHT,36
