Sample Index,EXG Channel 0,EXG Channel 1,EXG Channel 2,EXG Channel 3,EXG Channel 4,EXG Channel 5,EXG Channel 6,EXG Channel 7,Accel Channel 0,Accel Channel 1,Accel Channel 2,Not Used,Digital Channel 0 (D11),Digital Channel 1 (D12),Digital Channel 2 (D13),Digital Channel 3 (D17),Not Used,Digital Channel 4 (D18),Analog Channel 0,Analog Channel 1,Analog Channel 2,Timestamp,Marker Channel,Timestamp (Formatted),Stimulus_Direction,Stimulus_Number
13.0,16295.069908508052,23757.13273967895,-31273.08562673159,-18850.366038127668,-34017.8798458433,-25240.7074261555,-14514.954628342943,-29596.034240249905,0.0,0.0,0.0,193.0,0.0,193.0,0.0,1.0,0.0,179.0,193.0,1.0,179.0,1744420680.4193633,0.0,2025-04-11 21:18:00.419,RIGHT,48
14.0,16280.384812400916,23773.740085809244,-31265.70955106134,-18838.92194496655,-34007.10630501584,-25229.33038822775,-14833.243469386516,-29588.546405857374,0.0,0.0,0.0,193.0,0.0,194.0,0.0,1.0,0.0,179.0,194.0,1.0,179.0,1744420680.4194083,0.0,2025-04-11 21:18:00.419,RIGHT,48
15.0,16299.160277743375,23779.37272541198,-31257.46175735733,-18825.175622126535,-34002.390086935775,-25225.150612014608,-14645.08648456174,-29544.46876579151,0.0,0.0,0.0,193.0,0.0,193.0,0.0,1.0,0.0,179.0,193.0,1.0,179.0,1744420680.4194512,0.0,2025-04-11 21:18:00.419,RIGHT,48
16.0,16311.36433021597,23763.07830370406,-31276.594850611076,-18848.086160193227,-34024.80888662444,-25251.592725705235,-14227.86882255898,-29550.928419939093,0.0,0.0,0.0,193.0,0.0,193.0,0.0,1.0,0.0,179.0,193.0,1.0,179.0,1744420680.419518,0.0,2025-04-11 21:18:00.419,RIGHT,48
17.0,16298.780298087633,23756.059855945095,-31274.493786632276,-18845.225136902947,-34020.85262785586,-25238.159327287594,-14456.415409614494,-29593.57554835982,0.0,0.0,0.0,193.0,0.0,193.0,0.0,1.0,0.0,179.0,193.0,1.0,179.0,1744420680.4195616,0.0,2025-04-11 21:18:00.419,RIGHT,48
18.0,16277.389678643905,23772.287222419647,-31265.620144083518,-18829.310694850767,-34007.17336024921,-25214.242960720418,-14790.350471776781,-29561.791367744372,0.0,0.0,0.0,193.0,0.0,194.0,0.0,1.0,0.0,180.0,194.0,1.0,180.0,1744420680.4196043,0.0,2025-04-11 21:18:00.419,RIGHT,48
19.0,16287.403260159883,23777.204606199815,-31258.601696324553,-18821.845212202694,-33995.81867406591,-25214.555885142792,-14712.476994094492,-29541.540687267865,0.0,0.0,0.0,193.0,0.0,194.0,0.0,1.0,0.0,180.0,194.0,1.0,180.0,1744420680.4196477,0.0,2025-04-11 21:18:00.419,RIGHT,48
20.0,16310.023225548653,23773.270699175682,-31275.253745943755,-18840.978305456436,-34013.38714520778,-25242.629676178658,-14233.568517395082,-29532.823506930294,0.0,0.0,0.0,193.0,0.0,193.0,0.0,1.0,0.0,179.0,193.0,1.0,179.0,1744420680.4196904,0.0,2025-04-11 21:18:00.419,RIGHT,48
21.0,16301.753080100189,23756.395132111924,-31276.773664566717,-18849.20374741599,-34012.40366845175,-25238.494603454426,-14376.440867953404,-29589.641641335686,0.0,0.0,0.0,193.0,0.0,194.0,0.0,1.0,0.0,179.0,194.0,1.0,179.0,1744420680.419758,0.0,2025-04-11 21:18:00.419,RIGHT,48
22.0,16283.22348394674,23770.432027629857,-31271.34219066408,-18836.239735631912,-34001.63012762429,-25220.166173001075,-14724.323418655804,-29558.550364798353,0.0,0.0,0.0,193.0,0.0,193.0,0.0,1.0,0.0,179.0,193.0,1.0,179.0,1744420680.4198022,0.0,2025-04-11 21:18:00.419,RIGHT,48
23.0,16288.073812493541,23776.80227479962,-31265.977771994803,-18830.02595067334,-33996.936261288676,-25223.004844546896,-14778.839323382297,-29556.069321163814,0.0,0.0,0.0,193.0,0.0,193.0,0.0,1.0,0.0,179.0,193.0,1.0,179.0,1744420680.4198446,0.0,2025-04-11 21:18:00.419,RIGHT,48
24.0,16311.498440682702,23773.85184453152,-31276.930126777905,-18839.92777346704,-34012.448371940656,-25248.105853570207,-14302.747166484258,-29534.83516393127,0.0,0.0,0.0,193.0,0.0,194.0,0.0,1.0,0.0,179.0,194.0,1.0,179.0,1744420680.419887,0.0,2025-04-11 21:18:00.419,RIGHT,48
25.0,16306.22342899125,23757.535071079146,-31278.785321567695,-18851.39421837261,-34012.40366845175,-25251.19039430504,-14332.184413931896,-29597.50945538395,0.0,0.0,0.0,193.0,0.0,193.0,0.0,1.0,0.0,179.0,193.0,1.0,179.0,1744420680.41993,0.0,2025-04-11 21:18:00.419,RIGHT,48
26.0,16279.758963556167,23762.89948974842,-31277.28775468919,-18839.748959511395,-34014.482380686095,-25235.700635397512,-14674.881359920664,-29578.66693480813,0.0,0.0,0.0,193.0,0.0,193.0,0.0,1.0,0.0,179.0,193.0,1.0,179.0,1744420680.4199724,0.0,2025-04-11 21:18:00.419,RIGHT,48
27.0,16281.837675790512,23777.539882366644,-31265.240164427778,-18829.06482566176,-34001.2277962241,-25225.441184692525,-14821.464100058569,-29566.373475357712,0.0,0.0,0.0,193.0,0.0,193.0,0.0,1.0,0.0,179.0,193.0,1.0,179.0,1744420680.4200704,0.0,2025-04-11 21:18:00.420,RIGHT,48
28.0,16307.251609236195,23787.978147027272,-31270.3810656525,-18834.96568619796,-34002.18892123568,-25245.356589002204,-14362.001641035276,-29518.496038734444,0.0,0.0,0.0,193.0,0.0,193.0,0.0,1.0,0.0,179.0,193.0,1.0,179.0,1744420680.4201136,0.0,2025-04-11 21:18:00.420,RIGHT,48
29.0,16310.738481371223,23765.112312449495,-31272.0797982311,-18848.712009037972,-34005.98871779307,-25249.022275092873,-14277.869674905502,-29582.824359276816,0.0,0.0,0.0,193.0,0.0,193.0,0.0,1.0,0.0,179.0,193.0,1.0,179.0,1744420680.4201565,0.0,2025-04-11 21:18:00.420,RIGHT,48
30.0,16296.679234108835,23765.402885127412,-31268.123539462515,-18835.949162953995,-34001.540720646466,-25231.252638250906,-14618.197335982006,-29574.733027783994,0.0,0.0,0.0,193.0,0.0,193.0,0.0,1.0,0.0,179.0,193.0,1.0,179.0,1744420680.4202151,0.0,2025-04-11 21:18:00.420,RIGHT,48
31.0,16291.270111950651,23777.405771899914,-31260.725112047807,-18826.24850586039,-33992.242394953064,-25219.42856543405,-14834.428111842646,-29560.651428777153,0.0,0.0,0.0,193.0,0.0,194.0,0.0,1.0,0.0,179.0,194.0,1.0,179.0,1744420680.4202583,0.0,2025-04-11 21:18:00.420,RIGHT,48
32.0,16318.919219841866,23781.47378939078,-31264.301391160658,-18827.746072738897,-33998.813807822924,-25236.728815642455,-14455.633098558557,-29524.106326592726,0.0,0.0,0.0,193.0,0.0,193.0,0.0,1.0,0.0,179.0,193.0,1.0,179.0,1744420680.4203007,0.0,2025-04-11 21:18:00.420,RIGHT,48
33.0,16322.160222787885,23767.07926596156,-31276.706609333352,-18850.231927660934,-34012.47072368512,-25249.22344079297,-14222.504403889705,-29557.969219442515,0.0,0.0,0.0,193.0,0.0,194.0,0.0,1.0,0.0,180.0,194.0,1.0,180.0,1744420680.4203434,0.0,2025-04-11 21:18:00.420,RIGHT,48
34.0,16300.054347521585,23761.759550781197,-31279.612336112543,-18846.745055525906,-34017.81279060993,-25240.41685347758,-14543.743675201378,-29567.491062580477,0.0,0.0,0.0,193.0,0.0,194.0,0.0,1.0,0.0,179.0,194.0,1.0,179.0,1744420680.420397,0.0,2025-04-11 21:18:00.420,RIGHT,48
35.0,16291.806553817578,23784.781847570164,-31267.81061504014,-18833.803395486284,-34011.822523095914,-25229.799774861312,-14860.467894133079,-29580.812702275838,0.0,0.0,0.0,193.0,0.0,193.0,0.0,1.0,0.0,179.0,193.0,1.0,179.0,1744420680.4204814,0.0,2025-04-11 21:18:00.420,RIGHT,48
36.0,16306.245780735706,23790.638004617456,-31269.84462378557,-18834.183375142024,-34016.426982453704,-25242.920248856575,-14584.200332665485,-29540.244286089455,0.0,0.0,0.0,193.0,0.0,194.0,0.0,1.0,0.0,180.0,194.0,1.0,180.0,1744420680.4205785,0.0,2025-04-11 21:18:00.420,RIGHT,48
37.0,16329.46924322477,23782.546673124634,-31279.2323564568,-18855.529291096842,-34023.73600289059,-25258.05237985282,-14238.910584319901,-29566.90991722464,0.0,0.0,0.0,193.0,0.0,193.0,0.0,1.0,0.0,179.0,193.0,1.0,179.0,1744420680.420624,0.0,2025-04-11 21:18:00.420,RIGHT,48
38.0,16311.721958127257,23774.142417209438,-31278.00301051176,-18852.288288150823,-34019.28800574398,-25248.307019270305,-14504.181087515484,-29595.85542629426,0.0,0.0,0.0,193.0,0.0,194.0,0.0,1.0,0.0,179.0,194.0,1.0,179.0,1744420680.420671,0.0,2025-04-11 21:18:00.420,RIGHT,48
39.0,16291.158353228373,23786.212359215304,-31274.471434887822,-18847.035628203826,-34015.48820918658,-25241.489737211436,-14833.645800786711,-29592.56971985933,0.0,0.0,0.0,193.0,0.0,193.0,0.0,1.0,0.0,179.0,193.0,1.0,179.0,1744420680.4207134,0.0,2025-04-11 21:18:00.420,RIGHT,48
40.0,16303.720033612257,23787.933443538364,-31272.303315675657,-18843.526404324344,-34014.70589813065,-25244.551926201813,-14657.514054478892,-29546.726291981497,0.0,0.0,0.0,193.0,0.0,194.0,0.0,1.0,0.0,180.0,194.0,1.0,180.0,1744420680.420756,0.0,2025-04-11 21:18:00.420,RIGHT,48
41.0,16318.315722741572,23775.863501532498,-31289.089475761593,-18866.079314479746,-34033.36960475083,-25265.339048545247,-14230.886308060446,-29547.486251292976,0.0,0.0,0.0,193.0,0.0,194.0,0.0,1.0,0.0,179.0,194.0,1.0,179.0,1744420680.4207983,0.0,2025-04-11 21:18:00.420,RIGHT,48
42.0,16304.815269090566,23765.13466419395,-31285.580251882107,-18864.44763713451,-34021.746697634066,-25251.570373960778,-14447.47471183237,-29597.24123445049,0.0,0.0,0.0,193.0,0.0,194.0,0.0,1.0,0.0,179.0,194.0,1.0,179.0,1744420680.4209056,0.0,2025-04-11 21:18:00.420,RIGHT,48
43.0,16285.88334153692,23778.813931800596,-31278.85237680106,-18848.242622404414,-34015.15293301975,-25232.414928962582,-14801.593399237801,-29582.869062765727,0.0,0.0,0.0,193.0,0.0,193.0,0.0,1.0,0.0,179.0,193.0,1.0,179.0,1744420680.4209492,0.0,2025-04-11 21:18:00.420,RIGHT,48
44.0,16292.477106151237,23790.28037670617,-31271.811577297638,-18837.357322854677,-34006.21223523763,-25225.262370736884,-14760.957927818052,-29549.922591438604,0.0,0.0,0.0,193.0,0.0,193.0,0.0,1.0,0.0,179.0,193.0,1.0,179.0,1744420680.420992,0.0,2025-04-11 21:18:00.420,RIGHT,48
45.0,16312.683083138834,23791.822647073586,-31284.596775126076,-18851.505977094886,-34017.09753478736,-25247.010618091896,-14267.476113733783,-29521.178248069078,0.0,0.0,0.0,193.0,0.0,194.0,0.0,0.0,0.0,180.0,194.0,0.0,180.0,1744420680.421052,0.0,2025-04-11 21:18:00.421,RIGHT,48
46.0,16305.239952235217,23772.84601603103,-31284.552071637165,-18858.055038220293,-34013.63301439679,-25244.66368492409,-14391.662405927469,-29580.94681274257,0.0,0.0,0.0,193.0,0.0,193.0,0.0,0.0,0.0,179.0,193.0,0.0,179.0,1744420680.421095,0.0,2025-04-11 21:18:00.421,RIGHT,48
47.0,16279.915425767354,23776.623460843977,-31281.62399311352,-18849.181395671534,-34004.28998521447,-25232.817260362775,-14729.06198848033,-29560.204393888045,0.0,0.0,0.0,193.0,0.0,194.0,0.0,0.0,0.0,180.0,194.0,0.0,180.0,1744420680.4211397,0.0,2025-04-11 21:18:00.421,RIGHT,48
48.0,16284.341071169505,23791.71088835131,-31272.348019164565,-18840.598325800696,-33998.478531656096,-25231.14087952863,-14796.161925335162,-29560.31615261032,0.0,0.0,0.0,193.0,0.0,193.0,0.0,1.0,0.0,179.0,193.0,1.0,179.0,1744420680.4211836,0.0,2025-04-11 21:18:00.421,RIGHT,48
49.0,16304.904676068387,23792.04616451814,-31282.5851181251,-18848.622602060153,-34011.3754882068,-25249.692827426534,-14324.495413839271,-29521.781745169374,0.0,0.0,0.0,193.0,0.0,194.0,0.0,0.0,0.0,179.0,194.0,0.0,179.0,1744420680.4212284,0.0,2025-04-11 21:18:00.421,RIGHT,48
50.0,16297.036862020119,23764.79938802712,-31287.94953679437,-18864.469988878966,-34012.89540682977,-25253.202051306016,-14322.975495216311,-29579.04691446387,0.0,0.0,0.0,193.0,0.0,193.0,0.0,0.0,0.0,179.0,193.0,0.0,179.0,1744420680.4212773,0.0,2025-04-11 21:18:00.421,RIGHT,48
51.0,16275.288614665105,23769.984992740752,-31285.42378967092,-18854.277593407347,-34008.20154049415,-25242.160289545096,-14672.936758153053,-29575.51533883993,0.0,0.0,0.0,193.0,0.0,193.0,0.0,0.0,0.0,179.0,193.0,0.0,179.0,1744420680.4213457,0.0,2025-04-11 21:18:00.421,RIGHT,48
52.0,16278.015527488653,23791.397963928935,-31275.76783606623,-18847.884994493128,-33999.797284578955,-25239.835708121744,-14839.680771789644,-29573.302516138854,0.0,0.0,0.0,193.0,0.0,194.0,0.0,0.0,0.0,179.0,194.0,0.0,179.0,1744420680.4213934,0.0,2025-04-11 21:18:00.421,RIGHT,48
53.0,16304.569399901558,23787.933443538364,-31276.259574444244,-18847.05797994828,-34005.608738137336,-25255.213708306994,-14411.71192070388,-29531.862381918716,0.0,0.0,0.0,193.0,0.0,193.0,0.0,0.0,0.0,179.0,193.0,0.0,179.0,1744420680.421442,0.0,2025-04-11 21:18:00.421,RIGHT,48
54.0,16303.60827488998,23762.89948974842,-31277.511272133743,-18859.284384165334,-34009.63205213929,-25257.962972874997,-14288.464401777317,-29579.985687730994,0.0,0.0,0.0,193.0,0.0,194.0,0.0,0.0,0.0,179.0,194.0,0.0,179.0,1744420680.4214869,0.0,2025-04-11 21:18:00.421,RIGHT,48
55.0,16280.36246065646,23761.826606014565,-31275.723132577317,-18853.4505788625,-34008.737982361075,-25247.032969836353,-14627.6521238866,-29577.683458052095,0.0,0.0,0.0,193.0,0.0,193.0,0.0,0.0,0.0,179.0,193.0,0.0,179.0,1744420680.4215333,0.0,2025-04-11 21:18:00.421,RIGHT,48
56.0,16268.136056439407,23769.26973691818,-31273.890289531984,-18853.383523629134,-34011.956633562644,-25252.66560943909,-14880.428001931668,-29601.91274904165,0.0,0.0,0.0,193.0,0.0,193.0,0.0,0.0,0.0,179.0,193.0,0.0,179.0,1744420680.4215784,0.0,2025-04-11 21:18:00.421,RIGHT,48
57.0,16294.444059663305,23774.969431754285,-31276.773664566717,-18851.751846283896,-34018.818619110425,-25258.67822869757,-14521.838965635177,-29546.413367559122,0.0,0.0,0.0,193.0,0.0,194.0,0.0,0.0,0.0,179.0,194.0,0.0,179.0,1744420680.4217412,0.0,2025-04-11 21:18:00.421,RIGHT,48
58.0,16304.971731301754,23771.37080089698,-31284.373257681524,-18868.4038959031,-34027.93813084819,-25261.15927233211,-14264.302166021129,-29562.350161355756,0.0,0.0,0.0,193.0,0.0,193.0,0.0,0.0,0.0,179.0,193.0,0.0,179.0,1744420680.4217944,0.0,2025-04-11 21:18:00.421,RIGHT,48
59.0,16284.27401593614,23769.64971657392,-31278.941783778882,-18857.518596353366,-34020.04796505546,-25246.541231458337,-14570.923396459031,-29572.27433589391,0.0,0.0,0.0,193.0,0.0,194.0,0.0,0.0,0.0,180.0,194.0,0.0,180.0,1744420680.4218628,0.0,2025-04-11 21:18:00.421,RIGHT,48
60.0,16277.233216432718,23782.121989979983,-31268.637629584984,-18845.67217179205,-34010.66023238424,-25235.320655741772,-14852.08598996234,-29563.266582878423,0.0,0.0,0.0,193.0,0.0,194.0,0.0,0.0,0.0,179.0,194.0,0.0,179.0,1744420680.4219844,0.0,2025-04-11 21:18:00.421,RIGHT,48
61.0,16295.963978286265,23788.98397552776,-31270.89515577497,-18845.4486543475,-34019.73504063309,-25248.463481481493,-14594.146858948096,-29537.003283143436,0.0,0.0,0.0,193.0,0.0,193.0,0.0,0.0,0.0,178.0,193.0,0.0,178.0,1744420680.4220335,0.0,2025-04-11 21:18:00.422,RIGHT,48
62.0,16307.810402847577,23778.27748993367,-31279.70174309036,-18863.374753400654,-34033.05668032845,-25268.222423579984,-14246.912508834901,-29573.45897835004,0.0,0.0,0.0,193.0,0.0,193.0,0.0,0.0,0.0,179.0,193.0,0.0,179.0,1744420680.4220836,0.0,2025-04-11 21:18:00.422,RIGHT,48
63.0,16289.37021367195,23763.614745570987,-31275.454911643854,-18859.239680676423,-34024.69712790217,-25260.622830465178,-14505.790413116267,-29606.42780142162,0.0,0.0,0.0,193.0,0.0,193.0,0.0,0.0,0.0,179.0,193.0,0.0,179.0,1744420680.4221344,0.0,2025-04-11 21:18:00.422,RIGHT,48
64.0,16276.294443165594,23777.405771899914,-31264.636667327486,-18840.93360196753,-34015.19763650866,-25241.445033722524,-14829.309562362381,-29580.23155692,0.0,0.0,0.0,193.0,0.0,194.0,0.0,0.0,0.0,179.0,194.0,0.0,179.0,1744420680.4221807,0.0,2025-04-11 21:18:00.422,RIGHT,48
65.0,16289.571379372048,23784.178350469872,-31260.501594603254,-18834.697465264497,-34013.40949695224,-25246.608286691702,-14694.014453174408,-29553.32005659581,0.0,0.0,0.0,193.0,0.0,193.0,0.0,0.0,0.0,179.0,193.0,0.0,179.0,1744420680.42223,0.0,2025-04-11 21:18:00.422,RIGHT,48
66.0,16304.010606290176,23777.115199221993,-31276.214870955333,-18851.930660239537,-34029.94978784917,-25263.930888644565,-14244.00678205571,-29529.738966195462,0.0,0.0,0.0,193.0,0.0,193.0,0.0,0.0,0.0,179.0,193.0,0.0,179.0,1744420680.4223075,0.0,2025-04-11 21:18:00.422,RIGHT,48
67.0,16285.70452758128,23766.095789205527,-31281.08755124659,-18857.16096844208,-34034.44248848468,-25257.784158919356,-14441.730313507356,-29579.292783652876,0.0,0.0,0.0,193.0,0.0,193.0,0.0,0.0,0.0,179.0,193.0,0.0,179.0,1744420680.4223573,0.0,2025-04-11 21:18:00.422,RIGHT,48
68.0,16271.645280318891,23779.57389111208,-31273.5326616207,-18842.58763105722,-34024.36185173534,-25237.980513331953,-14799.984073637019,-29569.592126559273,0.0,0.0,0.0,193.0,0.0,193.0,0.0,0.0,0.0,179.0,193.0,0.0,179.0,1744420680.4224083,0.0,2025-04-11 21:18:00.422,RIGHT,48
69.0,16281.815324046056,23786.19000747085,-31265.061350472137,-18832.082311163227,-34017.52221793201,-25234.583048174747,-14777.811143137355,-29552.873021706706,0.0,0.0,0.0,193.0,0.0,194.0,0.0,0.0,0.0,180.0,194.0,0.0,180.0,1744420680.422461,0.0,2025-04-11 21:18:00.422,RIGHT,48
70.0,16297.908580053876,23781.42908590187,-31281.422827413422,-18848.421436360055,-34037.14704956378,-25259.10291184222,-14298.098003637553,-29532.711748208018,0.0,0.0,0.0,193.0,0.0,194.0,0.0,0.0,0.0,180.0,194.0,0.0,180.0,1744420680.4225192,0.0,2025-04-11 21:18:00.422,RIGHT,48
71.0,16294.377004429938,23760.440797858337,-31280.126426235012,-18856.512767852877,-34032.4308314837,-25254.8113769068,-14396.736251918825,-29592.547368114876,0.0,0.0,0.0,193.0,0.0,193.0,0.0,0.0,0.0,179.0,193.0,0.0,179.0,1744420680.422587,0.0,2025-04-11 21:18:00.422,RIGHT,48
72.0,16271.645280318891,23765.112312449495,-31277.310106433644,-18849.047285204804,-34029.4804012156,-25248.396426248128,-14748.597413134268,-29585.059533722346,0.0,0.0,0.0,193.0,0.0,194.0,0.0,0.0,0.0,179.0,194.0,0.0,179.0,1744420680.4228404,0.0,2025-04-11 21:18:00.422,RIGHT,48
73.0,16271.93585299681,23771.259042174705,-31265.08370221659,-18838.20668914398,-34014.70589813065,-25242.763786645388,-14838.183204911138,-29572.207280660547,0.0,0.0,0.0,193.0,0.0,193.0,0.0,0.0,0.0,179.0,193.0,0.0,179.0,1744420680.4229755,0.0,2025-04-11 21:18:00.422,RIGHT,48
74.0,16298.93676029882,23772.42133288638,-31273.465606387334,-18844.554584569287,-34026.03823256949,-25259.684057198057,-14362.314565457651,-29530.722442951497,0.0,0.0,0.0,193.0,0.0,193.0,0.0,0.0,0.0,179.0,193.0,0.0,179.0,1744420680.4230447,0.0,2025-04-11 21:18:00.423,RIGHT,48
75.0,16294.17583872984,23757.51271933469,-31273.823234298616,-18855.708105052487,-34022.931340090196,-25258.90174614212,-14344.41081814895,-29586.937080256594,0.0,0.0,0.0,193.0,0.0,194.0,0.0,0.0,0.0,179.0,194.0,0.0,179.0,1744420680.4232624,0.0,2025-04-11 21:18:00.423,RIGHT,48
76.0,16274.394544886894,23762.854786259508,-31266.313048161635,-18844.800453758296,-34008.045078282965,-25244.797795390823,-14671.752115696921,-29574.75537952845,0.0,0.0,0.0,193.0,0.0,193.0,0.0,0.0,0.0,179.0,193.0,0.0,179.0,1744420680.4233572,0.0,2025-04-11 21:18:00.423,RIGHT,48
77.0,16273.232254175218,23779.104504478517,-31253.684312544385,-18832.954029196982,-33994.65638335424,-25235.365359230684,-14840.776007267954,-29566.865213735728,0.0,0.0,0.0,193.0,0.0,194.0,0.0,0.0,0.0,179.0,194.0,0.0,179.0,1744420680.4234233,0.0,2025-04-11 21:18:00.423,RIGHT,48
78.0,16290.487800894714,23782.613728358,-31263.09439696007,-18838.2960961218,-34005.96636604862,-25257.80651066381,-14412.114252104075,-29528.4202132726,0.0,0.0,0.0,193.0,0.0,193.0,0.0,0.0,0.0,179.0,193.0,0.0,179.0,1744420680.423499,0.0,2025-04-11 21:18:00.423,RIGHT,48
79.0,16293.482934651725,23760.954887980806,-31273.1303302205,-18858.859701020683,-34017.8798458433,-25268.848272424733,-14269.934805623867,-29587.831150034806,0.0,0.0,0.0,193.0,0.0,194.0,0.0,0.0,0.0,180.0,194.0,0.0,180.0,1744420680.4235995,0.0,2025-04-11 21:18:00.423,RIGHT,48
80.0,16280.295405423094,23758.585603068543,-31264.10022546056,-18841.894726979106,-34004.692316614666,-25244.306057012804,-14594.54919034829,-29569.770940514918,0.0,0.0,0.0,193.0,0.0,194.0,0.0,0.0,0.0,179.0,194.0,0.0,179.0,1744420680.4238367,0.0,2025-04-11 21:18:00.423,RIGHT,48
81.0,16268.806608773068,23773.315402664593,-31255.114824189524,-18829.355398339678,-33998.053848511445,-25234.583048174747,-14836.529175821446,-29570.508548081943,0.0,0.0,0.0,193.0,0.0,193.0,0.0,0.0,0.0,179.0,193.0,0.0,179.0,1744420680.423965,0.0,2025-04-11 21:18:00.423,RIGHT,48
82.0,16292.544161384603,23774.880024776463,-31256.388873623477,-18825.823822715738,-34003.91000555873,-25242.6073244342,-14507.936180583976,-29534.499887764443,0.0,0.0,0.0,193.0,0.0,194.0,0.0,0.0,0.0,179.0,194.0,0.0,179.0,1744420680.424057,0.0,2025-04-11 21:18:00.424,RIGHT,48
83.0,16301.618969633457,23762.65362055941,-31267.60944934004,-18846.45448284799,-34014.37062196382,-25253.425568750572,-14234.015552284189,-29557.209260131036,0.0,0.0,0.0,193.0,0.0,193.0,0.0,0.0,0.0,179.0,193.0,0.0,179.0,1744420680.424137,0.0,2025-04-11 21:18:00.424,RIGHT,48
84.0,16281.435344390315,23758.339733879537,-31268.391760395978,-18842.945258968506,-34015.71172663113,-25252.397388505626,-14549.01868689283,-29599.99049901849,0.0,0.0,0.0,193.0,0.0,194.0,0.0,0.0,0.0,180.0,194.0,0.0,180.0,1744420680.424214,0.0,2025-04-11 21:18:00.424,RIGHT,48
85.0,16266.280861649617,23766.252251416714,-31263.541431849175,-18835.1445001536,-34012.40366845175,-25240.081577310753,-14851.974231240063,-29597.10712398376,0.0,0.0,0.0,193.0,0.0,194.0,0.0,0.0,0.0,179.0,194.0,0.0,179.0,1744420680.424306,0.0,2025-04-11 21:18:00.424,RIGHT,48
86.0,16279.088411222509,23774.321231165082,-31263.18380393789,-18832.037607674316,-34007.754505605044,-25235.208897019496,-14608.116699232663,-29528.241399316958,0.0,0.0,0.0,193.0,0.0,193.0,0.0,0.0,0.0,179.0,193.0,0.0,179.0,1744420680.4243731,0.0,2025-04-11 21:18:00.424,RIGHT,48
87.0,16294.332300941027,23769.09092296254,-31274.985525010292,-18851.528328839344,-34018.192770265676,-25245.13307155765,-14224.001970768211,-29521.491172491453,0.0,0.0,0.0,193.0,0.0,193.0,0.0,0.0,0.0,179.0,193.0,0.0,179.0,1744420680.424482,0.0,2025-04-11 21:18:00.424,RIGHT,48
88.0,16279.088411222509,23752.572983810067,-31276.773664566717,-18851.327163139245,-34016.51638943153,-25237.51112669839,-14481.114087237607,-29564.51828056792,0.0,0.0,0.0,193.0,0.0,193.0,0.0,0.0,0.0,178.0,193.0,0.0,178.0,1744420680.4245272,0.0,2025-04-11 21:18:00.424,RIGHT,48
89.0,16261.810512758555,23760.84312925853,-31268.324705162613,-18839.570145555754,-34005.83225558189,-25221.864905579678,-14819.497146546502,-29556.13637639718,0.0,0.0,0.0,193.0,0.0,194.0,0.0,0.0,0.0,179.0,194.0,0.0,179.0,1744420680.424571,0.0,2025-04-11 21:18:00.424,RIGHT,48
90.0,16275.6909460653,23767.593356084035,-31261.3286091481,-18831.970552440947,-34002.25597646904,-25224.591818403223,-14707.470203336503,-29536.623303487697,0.0,0.0,0.0,193.0,0.0,193.0,0.0,0.0,0.0,180.0,193.0,0.0,180.0,1744420680.4247637,0.0,2025-04-11 21:18:00.424,RIGHT,48
91.0,16292.722975340246,23763.011248470695,-31278.29358318968,-18852.712971295474,-34023.154857534755,-25251.8609466387,-14260.278852019173,-29534.388129042167,0.0,0.0,0.0,193.0,0.0,193.0,0.0,0.0,0.0,179.0,193.0,0.0,179.0,1744420680.4248276,0.0,2025-04-11 21:18:00.424,RIGHT,48
92.0,16274.841579775999,23749.443739586324,-31283.881519303504,-18862.950070256004,-34028.943959348675,-25252.866775139188,-14438.7575314948,-29590.356897158254,0.0,0.0,0.0,193.0,0.0,194.0,0.0,0.0,0.0,180.0,194.0,0.0,180.0,1744420680.8966691,0.0,2025-04-11 21:18:00.896,RIGHT,48
93.0,16257.675440034323,23762.22893741476,-31276.930126777905,-18848.48849159342,-34021.29966274496,-25237.622885420667,-14784.002576351473,-29568.541594569877,0.0,0.0,0.0,193.0,0.0,193.0,0.0,0.0,0.0,179.0,193.0,0.0,179.0,1744420680.8969257,0.0,2025-04-11 21:18:00.896,RIGHT,48
94.0,16269.83478901801,23772.60014684202,-31266.402455139454,-18836.463253076465,-34014.81765685292,-25238.449899965515,-14787.35533801977,-29564.205356145547,0.0,0.0,0.0,193.0,0.0,194.0,0.0,0.0,0.0,180.0,194.0,0.0,180.0,1744420680.8970044,0.0,2025-04-11 21:18:00.897,RIGHT,48
95.0,16297.618007375957,23774.18712069835,-31272.52683312021,-18841.268878134357,-34020.49499994457,-25254.252583295416,-14299.68497749388,-29533.85168717524,0.0,0.0,0.0,193.0,0.0,193.0,0.0,0.0,0.0,179.0,193.0,0.0,179.0,1744420680.8973336,0.0,2025-04-11 21:18:00.897,RIGHT,48
96.0,16294.086431752019,23761.580736825556,-31271.76687380873,-18847.169738670556,-34018.796267365964,-25246.161251802594,-14380.978272077833,-29587.138245956692,0.0,0.0,0.0,193.0,0.0,194.0,0.0,0.0,0.0,180.0,194.0,0.0,180.0,1744420680.8973982,0.0,2025-04-11 21:18:00.897,RIGHT,48
97.0,16268.717201795245,23765.13466419395,-31268.503519118254,-18836.530308309833,-34007.26276722703,-25235.253600508404,-14717.506136596936,-29561.70196076655,0.0,0.0,0.0,193.0,0.0,193.0,0.0,0.0,0.0,179.0,193.0,0.0,179.0,1744420680.89745,0.0,2025-04-11 21:18:00.897,RIGHT,48
98.0,16266.414972116349,23771.95194625282,-31264.502556860753,-18831.277648362833,-34004.8264270814,-25232.347873729217,-14813.305713332382,-29554.348236840757,0.0,0.0,0.0,193.0,0.0,194.0,0.0,0.0,0.0,179.0,194.0,0.0,179.0,1744420680.8975036,0.0,2025-04-11 21:18:00.897,RIGHT,48
99.0,16292.454754406781,23776.176425954873,-31272.169205208924,-18837.20086064349,-34015.1305812753,-25248.686998926045,-14348.769408317734,-29514.09274507675,0.0,0.0,0.0,193.0,0.0,193.0,0.0,0.0,0.0,179.0,193.0,0.0,179.0,1744420680.8975608,0.0,2025-04-11 21:18:00.897,RIGHT,48
100.0,16287.827943304534,23759.41261761339,-31274.873766288016,-18854.836387018728,-34014.81765685292,-25251.391560005137,-14311.754919499746,-29578.42106561912,0.0,0.0,0.0,193.0,0.0,194.0,0.0,0.0,0.0,180.0,194.0,0.0,180.0,1744420680.8976085,0.0,2025-04-11 21:18:00.897,RIGHT,48
101.0,16263.755114526168,23753.93644022184,-31275.6337255995,-18848.332029382233,-34013.72242137461,-25239.008693576896,-14648.908632863599,-29565.85938523524,0.0,0.0,0.0,193.0,0.0,194.0,0.0,0.0,0.0,180.0,194.0,0.0,180.0,1744420680.897657,0.0,2025-04-11 21:18:00.897,RIGHT,48
102.0,16264.269204648639,23765.581699083057,-31262.46854811532,-18837.58084029923,-33996.48922639957,-25232.481984195947,-14839.03257120044,-29565.926440468604,0.0,0.0,0.0,193.0,0.0,193.0,0.0,0.0,0.0,179.0,193.0,0.0,179.0,1744420680.8977854,0.0,2025-04-11 21:18:00.897,RIGHT,48
103.0,16291.001891017188,23767.571004339577,-31270.29165867468,-18841.268878134357,-34007.44158118267,-25256.62186820768,-14431.76143548029,-29540.087823878268,0.0,0.0,0.0,193.0,0.0,194.0,0.0,0.0,0.0,179.0,194.0,0.0,179.0,1744420680.8978412,0.0,2025-04-11 21:18:00.897,RIGHT,48
104.0,16297.752117842689,23758.339733879537,-31278.450045400867,-18859.306735909788,-34016.24816849806,-25263.37209503318,-14272.05822134712,-29591.608594847752,0.0,0.0,0.0,193.0,0.0,193.0,0.0,0.0,0.0,179.0,193.0,0.0,179.0,1744420680.897896,0.0,2025-04-11 21:18:00.897,RIGHT,48
105.0,16274.305137909072,23761.200757169816,-31273.979696509803,-18845.49335783641,-34008.76033410554,-25242.830841878756,-14599.958312506476,-29575.157710928645,0.0,0.0,0.0,193.0,0.0,194.0,0.0,0.0,0.0,180.0,194.0,0.0,180.0,1744420680.8983953,0.0,2025-04-11 21:18:00.898,RIGHT,48
106.0,16262.436361603304,23769.31444040709,-31267.207117939844,-18835.3456658537,-34004.17822649219,-25231.453803951004,-14846.676867804155,-29550.36962632771,0.0,0.0,0.0,193.0,0.0,194.0,0.0,0.0,0.0,179.0,194.0,0.0,179.0,1744420680.898462,0.0,2025-04-11 21:18:00.898,RIGHT,48
107.0,16282.441172890804,23773.829492787063,-31271.34219066408,-18832.149366396592,-34016.13640977578,-25239.679245910556,-14537.820462920721,-29518.80896315682,0.0,0.0,0.0,193.0,0.0,193.0,0.0,0.0,0.0,179.0,193.0,0.0,179.0,1744420680.8985085,0.0,2025-04-11 21:18:00.898,RIGHT,48
108.0,16293.259417207173,23760.574908325067,-31276.95247852236,-18847.147386926103,-34021.36671797833,-25246.541231458337,-14251.807540870614,-29547.687416993074,0.0,0.0,0.0,193.0,0.0,193.0,0.0,0.0,0.0,179.0,193.0,0.0,179.0,1744420680.8985517,0.0,2025-04-11 21:18:00.898,RIGHT,48
109.0,16277.277919921627,23752.304762876603,-31272.0797982311,-18838.698427521995,-34011.66606088472,-25232.28081849585,-14533.126596585107,-29561.12081541071,0.0,0.0,0.0,193.0,0.0,193.0,0.0,0.0,0.0,179.0,193.0,0.0,179.0,1744420680.8985953,0.0,2025-04-11 21:18:00.898,RIGHT,48
110.0,16264.582129071014,23772.08605671955,-31261.485071359286,-18827.120223894148,-34003.641784625266,-25219.517972411868,-14851.951879495607,-29563.646562534163,0.0,0.0,0.0,193.0,0.0,194.0,0.0,0.0,0.0,179.0,194.0,0.0,179.0,1744420680.898668,0.0,2025-04-11 21:18:00.898,RIGHT,48
111.0,16277.277919921627,23769.537957851644,-31264.010818482737,-18829.06482566176,-34009.49794167256,-25234.247772007915,-14646.114664806684,-29531.817678429805,0.0,0.0,0.0,193.0,0.0,193.0,0.0,0.0,0.0,179.0,193.0,0.0,179.0,1744420680.8987105,0.0,2025-04-11 21:18:00.898,RIGHT,48
112.0,16288.967882271754,23758.138568179438,-31279.90290879046,-18851.81890151726,-34026.842895369875,-25257.22536530797,-14251.561671681604,-29544.84874544725,0.0,0.0,0.0,193.0,0.0,193.0,0.0,0.0,0.0,180.0,193.0,0.0,180.0,1744420680.8987525,0.0,2025-04-11 21:18:00.898,RIGHT,48
113.0,16276.339146654505,23750.270754131172,-31275.700780832864,-18847.817939259763,-34017.768087121025,-25243.43433897905,-14479.638872103558,-29577.482292351997,0.0,0.0,0.0,193.0,0.0,194.0,0.0,0.0,0.0,179.0,194.0,0.0,179.0,1744420680.8987947,0.0,2025-04-11 21:18:00.898,RIGHT,48
114.0,16262.190492414296,23766.922803750374,-31265.687199316886,-18834.11631990866,-34006.52515966001,-25226.46936493747,-14816.680826745132,-29562.685437522585,0.0,0.0,0.0,193.0,0.0,193.0,0.0,0.0,0.0,179.0,193.0,0.0,179.0,1744420680.898837,0.0,2025-04-11 21:18:00.898,RIGHT,48
115.0,16275.93681525431,23777.31636492209,-31256.61239106803,-18823.85686920367,-33998.76910433401,-25225.37412945916,-14718.400206375147,-29533.270541819402,0.0,0.0,0.0,193.0,0.0,194.0,0.0,0.0,0.0,180.0,194.0,0.0,180.0,1744420680.8988798,0.0,2025-04-11 21:18:00.898,RIGHT,48
116.0,16292.007719517676,23767.548652595124,-31273.08562673159,-18839.994828700404,-34020.003261566555,-25249.581068704258,-14256.479055461772,-29527.1685155831,0.0,0.0,0.0,193.0,0.0,193.0,0.0,0.0,0.0,179.0,193.0,0.0,179.0,1744420680.8989222,0.0,2025-04-11 21:18:00.898,RIGHT,48
117.0,16274.662765820358,23750.538975064635,-31275.47726338831,-18847.68382879303,-34019.48917144408,-25246.831804136255,-14412.22601082635,-29582.109103454248,0.0,0.0,0.0,193.0,0.0,194.0,0.0,0.0,0.0,180.0,194.0,0.0,180.0,1744420680.8989797,0.0,2025-04-11 21:18:00.898,RIGHT,48
118.0,16259.8882627354,23764.262946160194,-31264.591963838575,-18833.78104374183,-34002.50184565805,-25231.09617603972,-14747.010439277941,-29564.317114867823,0.0,0.0,0.0,193.0,0.0,194.0,0.0,0.0,0.0,180.0,194.0,0.0,180.0,1744420680.899022,0.0,2025-04-11 21:18:00.899,RIGHT,48
119.0,16269.678326806823,23777.07049573308,-31252.18674566588,-18823.096909892192,-33989.96251701862,-25226.22349574846,-14761.114390029239,-29553.56592578482,0.0,0.0,0.0,193.0,0.0,193.0,0.0,0.0,0.0,179.0,193.0,0.0,179.0,1744420680.899065,0.0,2025-04-11 21:18:00.899,RIGHT,48
120.0,16289.146696227397,23769.023867729175,-31263.943763249372,-18833.78104374183,-34003.93235730319,-25247.345894258728,-14274.82983765958,-29517.333748022767,0.0,0.0,0.0,193.0,0.0,194.0,0.0,0.0,0.0,179.0,194.0,0.0,179.0,1744420680.8993292,0.0,2025-04-11 21:18:00.899,RIGHT,48
121.0,16283.692870580302,23749.80136749761,-31267.296524917667,-18843.839328746715,-34005.83225558189,-25242.786138389845,-14331.670323809425,-29568.98862945898,0.0,0.0,0.0,193.0,0.0,193.0,0.0,0.0,0.0,179.0,193.0,0.0,179.0,1744420680.8993769,0.0,2025-04-11 21:18:00.899,RIGHT,48
122.0,16260.849387746977,23749.37668435296,-31270.582231352597,-18842.654686290585,-34010.12379051731,-25239.09810055472,-14695.891999708654,-29568.98862945898,0.0,0.0,0.0,193.0,0.0,194.0,0.0,0.0,0.0,180.0,194.0,0.0,180.0,1744420680.8994212,0.0,2025-04-11 21:18:00.899,RIGHT,48
123.0,16258.748323768179,23759.36791412448,-31262.937934748883,-18838.20668914398,-34002.83712182488,-25239.209859276994,-14836.529175821446,-29576.32000164032,0.0,0.0,0.0,193.0,0.0,194.0,0.0,0.0,0.0,179.0,194.0,0.0,179.0,1744420680.8994684,0.0,2025-04-11 21:18:00.899,RIGHT,48
124.0,16282.08354497952,23757.31155363459,-31270.559879608143,-18843.21347990197,-34008.13448526079,-25259.505243242413,-14371.076449284132,-29539.886658178173,0.0,0.0,0.0,193.0,0.0,194.0,0.0,0.0,0.0,179.0,194.0,0.0,179.0,1744420680.8995154,0.0,2025-04-11 21:18:00.899,RIGHT,48
125.0,16287.738536326711,23751.522451820667,-31269.129367963003,-18849.15904392708,-34006.435752682184,-25248.128205314664,-14300.176715871898,-29591.653298336663,0.0,0.0,0.0,193.0,0.0,194.0,0.0,0.0,0.0,180.0,194.0,0.0,180.0,1744420680.899603,0.0,2025-04-11 21:18:00.899,RIGHT,48
126.0,16266.571434327536,23754.383475110946,-31266.00012373926,-18836.664418776563,-34004.71466835912,-25224.413004447582,-14638.93975483653,-29556.918687453115,0.0,0.0,0.0,193.0,0.0,193.0,0.0,0.0,0.0,179.0,193.0,0.0,179.0,1744420680.899652,0.0,2025-04-11 21:18:00.899,RIGHT,48
127.0,16256.557852811558,23765.3581816385,-31260.635705069984,-18832.551697796785,-33999.43965666767,-25222.021367790865,-14844.374638125259,-29553.007132173436,0.0,0.0,0.0,193.0,0.0,194.0,0.0,0.0,0.0,179.0,194.0,0.0,179.0,1744420680.899702,0.0,2025-04-11 21:18:00.899,RIGHT,48
128.0,16283.447001391292,23769.51560610719,-31263.65319057145,-18831.210593129468,-34009.989680050574,-25237.26525750938,-14460.841055016645,-29515.92558812208,0.0,0.0,0.0,193.0,0.0,194.0,0.0,0.0,0.0,180.0,194.0,0.0,180.0,1744420680.899752,0.0,2025-04-11 21:18:00.899,RIGHT,48
129.0,16293.907617796376,23754.629344299956,-31273.800882554162,-18852.221232917458,-34017.58927316538,-25253.582030961756,-14260.412962485905,-29562.506623566944,0.0,0.0,0.0,193.0,0.0,193.0,0.0,0.0,0.0,179.0,193.0,0.0,179.0,1744420680.8998005,0.0,2025-04-11 21:18:00.899,RIGHT,48
130.0,16270.8406175185,23756.059855945095,-31272.392722653476,-18843.906383980084,-34013.007165552044,-25244.820147135277,-14581.31695763075,-29578.599879574762,0.0,0.0,0.0,193.0,0.0,194.0,0.0,0.0,0.0,179.0,194.0,0.0,179.0,1744420680.8998535,0.0,2025-04-11 21:18:00.899,RIGHT,48
131.0,16254.993230699687,23770.07439971857,-31262.08856845958,-18830.4953373069,-34002.18892123568,-25229.799774861312,-14853.56120509639,-29572.140225427178,0.0,0.0,0.0,193.0,0.0,193.0,0.0,0.0,0.0,179.0,193.0,0.0,179.0,1744420680.8999074,0.0,2025-04-11 21:18:00.899,RIGHT,48
132.0,16272.382887885917,23772.33192590856,-31264.927240005403,-18828.97541868394,-34008.6262236388,-25236.32648424226,-14548.549300259268,-29516.93141662257,0.0,0.0,0.0,193.0,0.0,194.0,0.0,0.0,0.0,180.0,194.0,0.0,180.0,1744420680.9000056,0.0,2025-04-11 21:18:00.900,RIGHT,48
133.0,16292.499457895692,23763.212414170794,-31279.52292913472,-18853.987020729426,-34024.85359011336,-25257.270068796883,-14239.447026186828,-29553.163594384623,0.0,0.0,0.0,193.0,0.0,193.0,0.0,0.0,0.0,179.0,193.0,0.0,179.0,1744420680.9000535,0.0,2025-04-11 21:18:00.900,RIGHT,48
134.0,16270.88532100741,23754.65169604441,-31277.62303085602,-18848.30967763778,-34020.8302761114,-25246.451824480515,-14516.943933599465,-29574.5318620839,0.0,0.0,0.0,193.0,0.0,193.0,0.0,0.0,0.0,179.0,193.0,0.0,179.0,1744420680.9000971,0.0,2025-04-11 21:18:00.900,RIGHT,48
135.0,16245.672553261824,23759.479672846755,-31265.418978383423,-18832.68580826352,-34014.25886324154,-25228.503373682903,-14842.899422991208,-29567.93809746958,0.0,0.0,0.0,193.0,0.0,194.0,0.0,0.0,0.0,180.0,194.0,0.0,180.0,1744420680.9002783,0.0,2025-04-11 21:18:00.900,RIGHT,48
136.0,16269.41010587336,23764.218242671282,-31261.641533570473,-18824.885049448618,-34011.330784717895,-25233.42075746307,-14677.697679722034,-29543.865268691217,0.0,0.0,0.0,193.0,0.0,193.0,0.0,0.0,0.0,179.0,193.0,0.0,179.0,1744420680.9003212,0.0,2025-04-11 21:18:00.900,RIGHT,48
137.0,16301.328396955538,23759.077341446562,-31270.023437741216,-18842.453520590487,-34009.363831205825,-25251.03393209385,-14247.381895468461,-29541.78655645687,0.0,0.0,0.0,193.0,0.0,194.0,0.0,0.0,0.0,180.0,194.0,0.0,180.0,1744420680.900368,0.0,2025-04-11 21:18:00.900,RIGHT,48
138.0,16285.212789203262,23752.17065240987,-31266.55891735064,-18840.575974056243,-34002.74771484706,-25237.488774953938,-14452.705020034913,-29571.335562626788,0.0,0.0,0.0,193.0,0.0,194.0,0.0,0.0,0.0,179.0,194.0,0.0,179.0,1744420680.90041,0.0,2025-04-11 21:18:00.900,RIGHT,48
139.0,16262.212844158752,23771.393152641434,-31262.535603348686,-18831.657628018576,-33998.38912467827,-25225.150612014608,-14792.764460177954,-29556.024617674902,0.0,0.0,0.0,193.0,0.0,193.0,0.0,0.0,0.0,179.0,193.0,0.0,179.0,1744420680.900452,0.0,2025-04-11 21:18:00.900,RIGHT,48
140.0,16269.141884939896,23777.204606199815,-31257.640571312975,-18823.566296525754,-33992.91294728672,-25226.447013193014,-14721.730616298988,-29538.07616687729,0.0,0.0,0.0,193.0,0.0,194.0,0.0,0.0,0.0,179.0,194.0,0.0,179.0,1744420680.9005132,0.0,2025-04-11 21:18:00.900,RIGHT,48
141.0,16289.03493750512,23765.98403048325,-31277.37716166701,-18844.01814270236,-34015.734078375586,-25249.04462683733,-14245.303183234118,-29520.4182887576,0.0,0.0,0.0,193.0,0.0,193.0,0.0,0.0,0.0,179.0,193.0,0.0,179.0,1744420680.9005556,0.0,2025-04-11 21:18:00.900,RIGHT,48
142.0,16272.539350097102,23748.37085585247,-31284.90969954845,-18856.222195174956,-34024.87594185781,-25248.57524020377,-14398.010301352777,-29581.215033676035,0.0,0.0,0.0,193.0,0.0,194.0,0.0,0.0,0.0,180.0,194.0,0.0,180.0,1744420680.9005976,0.0,2025-04-11 21:18:00.900,RIGHT,48
143.0,16255.194396399786,23760.396094369426,-31278.51710063423,-18842.34176186821,-34015.108229530844,-25237.399367976115,-14756.152302760162,-29575.04595220637,0.0,0.0,0.0,193.0,0.0,193.0,0.0,0.0,0.0,179.0,193.0,0.0,179.0,1744420680.9006405,0.0,2025-04-11 21:18:00.900,RIGHT,48
144.0,16267.59961457248,23773.89654802043,-31265.821309783616,-18830.62944777363,-34002.50184565805,-25232.079652795754,-14802.554524249379,-29575.001248717457,0.0,0.0,0.0,193.0,0.0,194.0,0.0,0.0,0.0,180.0,194.0,0.0,180.0,1744420680.9006824,0.0,2025-04-11 21:18:00.900,RIGHT,48
145.0,16296.500420153192,23775.930556765863,-31276.37133316652,-18842.453520590487,-34016.24816849806,-25249.80458614881,-14318.751015514257,-29528.688434206062,0.0,0.0,0.0,193.0,0.0,193.0,0.0,0.0,0.0,179.0,193.0,0.0,179.0,1744420680.900725,0.0,2025-04-11 21:18:00.900,RIGHT,48
146.0,16289.303158438583,23756.193966411825,-31278.785321567695,-18853.785855029328,-34014.907063830746,-25245.37894074666,-14345.014315249244,-29580.544481342375,0.0,0.0,0.0,193.0,0.0,193.0,0.0,0.0,0.0,179.0,193.0,0.0,179.0,1744420680.9007673,0.0,2025-04-11 21:18:00.900,RIGHT,48
147.0,16261.74345752519,23757.51271933469,-31279.612336112543,-18847.86264274867,-34016.20346500915,-25238.628713921156,-14695.087336908262,-29575.51533883993,0.0,0.0,0.0,193.0,0.0,193.0,0.0,0.0,0.0,179.0,193.0,0.0,179.0,1744420680.900825,0.0,2025-04-11 21:18:00.900,RIGHT,48
148.0,16265.923233738333,23768.241556673238,-31265.441330127876,-18834.272782119846,-34004.78172359249,-25224.74828061441,-14850.499016106012,-29560.003228187947,0.0,0.0,0.0,193.0,0.0,194.0,0.0,0.0,0.0,179.0,194.0,0.0,179.0,1744420680.9008684,0.0,2025-04-11 21:18:00.900,RIGHT,48
149.0,16287.269149693151,23769.26973691818,-31271.65511508645,-18838.698427521995,-34010.43671493968,-25243.56844944578,-14385.560379691171,-29501.866340859695,0.0,0.0,0.0,193.0,0.0,194.0,0.0,0.0,0.0,179.0,194.0,0.0,179.0,1744420680.9009116,0.0,2025-04-11 21:18:00.900,RIGHT,48
150.0,16282.999966502186,23754.6069925555,-31278.85237680106,-18856.78098878634,-34012.91775857422,-25256.152481574118,-14296.041643147666,-29579.337487141787,0.0,0.0,0.0,193.0,0.0,193.0,0.0,0.0,0.0,179.0,193.0,0.0,179.0,1744420680.901187,0.0,2025-04-11 21:18:00.901,RIGHT,48
151.0,16261.36347786945,23757.13273967895,-31274.94082152138,-18842.319410123757,-34005.027592781495,-25239.94746684402,-14630.759016365888,-29572.363742871734,0.0,0.0,0.0,193.0,0.0,193.0,0.0,0.0,0.0,179.0,193.0,0.0,179.0,1744420680.9012349,0.0,2025-04-11 21:18:00.901,RIGHT,48
152.0,16254.143864410386,23769.605013085013,-31267.00595223975,-18833.848098975195,-34000.51254040153,-25229.866830094677,-14833.578745553345,-29552.962428684525,0.0,0.0,0.0,193.0,0.0,193.0,0.0,0.0,0.0,179.0,193.0,0.0,179.0,1744420680.9012773,0.0,2025-04-11 21:18:00.901,RIGHT,48
153.0,16282.754097313178,23773.091885220038,-31265.843661528073,-18831.121186151646,-34008.22389223861,-25243.05435932331,-14472.754534811324,-29526.60972197172,0.0,0.0,0.0,193.0,0.0,194.0,0.0,0.0,0.0,179.0,194.0,0.0,179.0,1744420680.901329,0.0,2025-04-11 21:18:00.901,RIGHT,48
154.0,16290.979539272732,23756.484539089746,-31274.873766288016,-18850.947183483506,-34016.80696210945,-25254.252583295416,-14253.238052515753,-29562.394864844664,0.0,0.0,0.0,193.0,0.0,193.0,0.0,0.0,0.0,179.0,193.0,0.0,179.0,1744420680.9014108,0.0,2025-04-11 21:18:00.901,RIGHT,48
155.0,16274.439248375804,23761.312515892092,-31264.2790394162,-18832.26112511887,-34006.435752682184,-25228.928056827554,-14568.464704568947,-29558.304495609344,0.0,0.0,0.0,193.0,0.0,194.0,0.0,0.0,0.0,179.0,194.0,0.0,179.0,1744420680.901523,0.0,2025-04-11 21:18:00.901,RIGHT,48
156.0,16260.536463324603,23778.925690522872,-31252.56672532162,-18818.11247087866,-33995.036363009975,-25216.12050725466,-14845.22400441456,-29545.56400126982,0.0,0.0,0.0,193.0,0.0,193.0,0.0,0.0,0.0,179.0,193.0,0.0,179.0,1744420680.9015667,0.0,2025-04-11 21:18:00.901,RIGHT,48
157.0,16278.417858888848,23779.37272541198,-31254.08664394458,-18814.96087491046,-33998.277365956,-25231.677321395557,-14572.17509414853,-29519.300701534834,0.0,0.0,0.0,193.0,0.0,193.0,0.0,0.0,0.0,179.0,193.0,0.0,179.0,1744420680.9016087,0.0,2025-04-11 21:18:00.901,RIGHT,48
158.0,16287.336204926516,23755.56811756708,-31269.889327274483,-18839.368979855655,-34013.34244171887,-25250.788062904845,-14222.169127722875,-29535.572771498297,0.0,0.0,0.0,193.0,0.0,194.0,0.0,0.0,0.0,179.0,194.0,0.0,179.0,1744420680.9016507,0.0,2025-04-11 21:18:00.901,RIGHT,48
159.0,16272.762867541656,23753.89173673293,-31263.452024871356,-18829.86948846215,-34005.07229627041,-25227.519896926868,-14493.00521528783,-29546.480422792487,0.0,0.0,0.0,193.0,0.0,193.0,0.0,0.0,0.0,179.0,193.0,0.0,179.0,1744420680.9016929,0.0,2025-04-11 21:18:00.901,RIGHT,48
160.0,16252.914518465344,23768.174501439873,-31252.678484043896,-18818.2912848343,-33987.548528617444,-25216.880466566145,-14808.276570829938,-29538.70201572204,0.0,0.0,0.0,193.0,0.0,194.0,0.0,0.0,0.0,179.0,194.0,0.0,179.0,1744420680.9017348,0.0,2025-04-11 21:18:00.901,RIGHT,48
161.0,16267.085524450009,23771.437856130346,-31253.483146844286,-18815.720834221942,-33992.4212089087,-25228.61513240518,-14651.076752075764,-29530.811849929316,0.0,0.0,0.0,193.0,0.0,193.0,0.0,0.0,0.0,179.0,193.0,0.0,179.0,1744420680.9018068,0.0,2025-04-11 21:18:00.901,RIGHT,48
162.0,16288.409088660372,23764.352353138012,-31270.85045228606,-18835.524479809344,-34016.6281481538,-25246.876507625166,-14226.14773823592,-29527.79436442785,0.0,0.0,0.0,193.0,0.0,194.0,0.0,0.0,0.0,179.0,194.0,0.0,179.0,1744420680.9018502,0.0,2025-04-11 21:18:00.901,RIGHT,48
163.0,16272.829922775021,23751.567155309578,-31269.218774940822,-18835.032741431325,-34017.745735376564,-25236.41589122008,-14453.889662491043,-29570.3297341263,0.0,0.0,0.0,193.0,0.0,193.0,0.0,0.0,0.0,179.0,193.0,0.0,179.0,1744420680.9018924,0.0,2025-04-11 21:18:00.901,RIGHT,48
164.0,16253.585070799003,23764.37470488247,-31258.37817888,-18818.58185751222,-34005.34051720387,-25221.64138813512,-14794.820820667843,-29550.257867605433,0.0,0.0,0.0,193.0,0.0,194.0,0.0,0.0,0.0,180.0,194.0,0.0,180.0,1744420680.901935,0.0,2025-04-11 21:18:00.901,RIGHT,48
165.0,16268.672498306334,23773.94125150934,-31239.625065281998,-18801.929807893015,-33983.01112449302,-25212.208951974982,-14734.806386805343,-29510.851742130726,0.0,0.0,0.0,193.0,0.0,193.0,0.0,0.0,0.0,179.0,193.0,0.0,179.0,1744420680.9021728,0.0,2025-04-11 21:18:00.902,RIGHT,48
166.0,16294.242893963206,23773.337754409047,-31252.589077066074,-18822.15813662507,-33994.45521765414,-25241.534440700347,-14242.173939010376,-29493.998526811425,0.0,0.0,0.0,193.0,0.0,194.0,0.0,0.0,0.0,179.0,194.0,0.0,179.0,1744420680.902216,0.0,2025-04-11 21:18:00.902,RIGHT,48
167.0,16279.356632155972,23752.997666954718,-31260.56864983662,-18837.40202634359,-33999.28319445648,-25241.66855116708,-14371.992870806798,-29562.55132705585,0.0,0.0,0.0,193.0,0.0,193.0,0.0,0.0,0.0,178.0,193.0,0.0,178.0,1744420680.902258,0.0,2025-04-11 21:18:00.902,RIGHT,48
168.0,16259.17300691283,23761.759550781197,-31255.248934656258,-18823.119261636646,-33994.119941487304,-25220.121469512163,-14732.951192015553,-29541.674797734595,0.0,0.0,0.0,193.0,0.0,193.0,0.0,0.0,0.0,179.0,193.0,0.0,179.0,1744420680.9023,0.0,2025-04-11 21:18:00.902,RIGHT,48
169.0,16265.878530249422,23767.41454212839,-31251.672655543407,-18816.190220855504,-33994.49992114305,-25215.807582832287,-14798.330044547325,-29521.290006791358,0.0,0.0,0.0,193.0,0.0,193.0,0.0,0.0,0.0,179.0,193.0,0.0,179.0,1744420680.9023416,0.0,2025-04-11 21:18:00.902,RIGHT,48
170.0,16286.822114804045,23761.804254270108,-31269.79992029666,-18831.50116580739,-34012.89540682977,-25244.976609346464,-14317.678131780403,-29494.914948334095,0.0,0.0,0.0,193.0,0.0,193.0,0.0,0.0,0.0,179.0,193.0,0.0,179.0,1744420680.9024043,0.0,2025-04-11 21:18:00.902,RIGHT,48
171.0,16287.13503922642,23753.71292277729,-31268.57057435162,-18840.553622311785,-34004.625261381305,-25239.343969743728,-14334.620754077525,-29562.1266439112,0.0,0.0,0.0,193.0,0.0,193.0,0.0,0.0,0.0,179.0,193.0,0.0,179.0,1744420680.9024467,0.0,2025-04-11 21:18:00.902,RIGHT,48
172.0,16263.106913936963,23757.7585885237,-31275.14198722148,-18838.273744377344,-34010.88374982879,-25233.152536529607,-14674.166104098094,-29550.168460627614,0.0,0.0,0.0,193.0,0.0,193.0,0.0,0.0,0.0,179.0,193.0,0.0,179.0,1744420680.9024887,0.0,2025-04-11 21:18:00.902,RIGHT,48
173.0,16265.543254082591,23766.676934561365,-31267.36358015103,-18831.277648362833,-34002.90417705824,-25225.530591670347,-14845.045190458917,-29549.833184460782,0.0,0.0,0.0,193.0,0.0,193.0,0.0,0.0,0.0,179.0,193.0,0.0,179.0,1744420680.9025304,0.0,2025-04-11 21:18:00.902,RIGHT,48
174.0,16285.41395490336,23765.93932699434,-31274.024399998714,-18832.77521524134,-34013.6777178857,-25243.90372561261,-14430.174461623963,-29519.65832944612,0.0,0.0,0.0,193.0,0.0,194.0,0.0,0.0,0.0,179.0,194.0,0.0,179.0,1744420680.9025722,0.0,2025-04-11 21:18:00.902,RIGHT,48
175.0,16282.038841490608,23750.874251231464,-31282.473359402822,-18850.366038127668,-34023.46778195712,-25253.13499607265,-14308.558620042637,-29574.688324295086,0.0,0.0,0.0,193.0,0.0,193.0,0.0,0.0,0.0,179.0,193.0,0.0,179.0,1744420680.9026139,0.0,2025-04-11 21:18:00.902,RIGHT,48
176.0,16263.93392848181,23753.13177742145,-31275.99135351078,-18838.743131010906,-34012.53777891848,-25237.08644355374,-14630.379036710148,-29560.226745632503,0.0,0.0,0.0,193.0,0.0,194.0,0.0,0.0,0.0,180.0,194.0,0.0,180.0,1744420680.9026692,0.0,2025-04-11 21:18:00.902,RIGHT,48
177.0,16259.865910990944,23768.88975726244,-31262.24503067077,-18826.136747138113,-33997.763275833524,-25222.311940468782,-14851.013106228484,-29550.436681561077,0.0,0.0,0.0,193.0,0.0,194.0,0.0,0.0,0.0,179.0,194.0,0.0,179.0,1744420680.9027112,0.0,2025-04-11 21:18:00.902,RIGHT,48
178.0,16280.831847290023,23767.727466550765,-31266.80478653965,-18827.656665761075,-34002.83712182488,-25235.90180109761,-14488.803087330234,-29502.067506559793,0.0,0.0,0.0,193.0,0.0,193.0,0.0,0.0,0.0,179.0,193.0,0.0,179.0,1744420680.902753,0.0,2025-04-11 21:18:00.902,RIGHT,48
179.0,16290.867780550454,23756.238669900737,-31276.170167466425,-18848.48849159342,-34012.023688796005,-25247.792929147832,-14241.928069821368,-29538.27733257739,0.0,0.0,0.0,193.0,0.0,193.0,0.0,0.0,0.0,179.0,193.0,0.0,179.0,1744420680.9028032,0.0,2025-04-11 21:18:00.902,RIGHT,48
180.0,16271.958204741266,23754.204661155305,-31272.303315675657,-18840.77713975634,-34007.754505605044,-25235.94650458652,-14551.92441367202,-29555.287010107877,0.0,0.0,0.0,193.0,0.0,194.0,0.0,0.0,0.0,180.0,194.0,0.0,180.0,1744420680.9029667,0.0,2025-04-11 21:18:00.902,RIGHT,48
181.0,16260.134131924407,23767.928632250863,-31261.954457992848,-18829.511860550865,-34000.221967723606,-25224.725928869957,-14855.103475463806,-29550.61549551672,0.0,0.0,0.0,193.0,0.0,194.0,0.0,0.0,0.0,179.0,194.0,0.0,179.0,1744420680.9030097,0.0,2025-04-11 21:18:00.903,RIGHT,48
182.0,16276.517960610148,23764.620574071476,-31263.742597549273,-18827.075520405237,-34003.06063926943,-25240.12628079966,-14601.724100318444,-29517.579617211773,0.0,0.0,0.0,193.0,0.0,193.0,0.0,0.0,0.0,179.0,193.0,0.0,179.0,1744420680.9030511,0.0,2025-04-11 21:18:00.903,RIGHT,48
183.0,16292.7453270847,23755.836338500543,-31277.444216900378,-18845.739227025417,-34017.16459002073,-25258.387656019648,-14229.902831304411,-29538.254980832935,0.0,0.0,0.0,193.0,0.0,193.0,0.0,0.0,0.0,179.0,193.0,0.0,179.0,1744420680.9030929,0.0,2025-04-11 21:18:00.903,RIGHT,48
184.0,16272.584053586013,23751.6565622874,-31277.399513411467,-18842.677038035043,-34013.141276018774,-25246.787100647343,-14490.390061186561,-29572.81077776084,0.0,0.0,0.0,193.0,0.0,193.0,0.0,0.0,0.0,179.0,193.0,0.0,179.0,1744420680.9031346,0.0,2025-04-11 21:18:00.903,RIGHT,48
185.0,16258.636565045903,23763.614745570987,-31268.682333073895,-18831.612924529665,-34001.764238091026,-25227.27402773786,-14812.12107087625,-29551.397806572655,0.0,0.0,0.0,193.0,0.0,194.0,0.0,0.0,0.0,179.0,194.0,0.0,179.0,1744420680.903282,0.0,2025-04-11 21:18:00.903,RIGHT,48
186.0,16275.445076876293,23764.88879500494,-31265.038998727683,-18828.461328561465,-34003.30650845844,-25234.024254563363,-14691.108726395218,-29542.680626235084,0.0,0.0,0.0,193.0,0.0,193.0,0.0,0.0,0.0,179.0,193.0,0.0,179.0,1744420680.903325,0.0,2025-04-11 21:18:00.903,RIGHT,48
187.0,16296.478068408736,23759.18910016884,-31281.065199502136,-18850.656610805585,-34020.8302761114,-25257.71710368599,-14256.210834528309,-29546.07809139229,0.0,0.0,0.0,193.0,0.0,194.0,0.0,0.0,0.0,180.0,194.0,0.0,180.0,1744420680.9033673,0.0,2025-04-11 21:18:00.903,RIGHT,48
188.0,16286.732707826222,23749.063759930585,-31277.04188550018,-18849.024933460347,-34016.20346500915,-25240.28274301085,-14453.844959002134,-29563.937135212083,0.0,0.0,0.0,193.0,0.0,193.0,0.0,0.0,0.0,179.0,193.0,0.0,179.0,1744420680.9034088,0.0,2025-04-11 21:18:00.903,RIGHT,48
189.0,16262.369306369937,23755.12108267797,-31271.699818575362,-18839.279572877833,-34007.73215386059,-25232.37022547367,-14787.332986275314,-29543.865268691217,0.0,0.0,0.0,193.0,0.0,193.0,0.0,0.0,0.0,179.0,193.0,0.0,179.0,1744420680.9034507,0.0,2025-04-11 21:18:00.903,RIGHT,48
190.0,16270.393582629393,23763.391228126435,-31261.730940548296,-18830.048302417792,-33998.43382816718,-25228.346911471715,-14751.883119569198,-29527.146163838646,0.0,0.0,0.0,193.0,0.0,193.0,0.0,0.0,0.0,179.0,193.0,0.0,179.0,1744420680.9034925,0.0,2025-04-11 21:18:00.903,RIGHT,48
191.0,16295.628702119435,23765.671106060876,-31269.755216807753,-18842.095892679205,-34007.888616071774,-25243.076711067763,-14270.761820168713,-29500.32407049228,0.0,0.0,0.0,193.0,0.0,194.0,0.0,0.0,0.0,179.0,194.0,0.0,179.0,1744420680.9035492,0.0,2025-04-11 21:18:00.903,RIGHT,48
192.0,16289.683138094324,23746.135681406937,-31269.129367963003,-18850.54485208331,-34005.98871779307,-25239.23221102145,-14374.563321419158,-29552.247172861957,0.0,0.0,0.0,193.0,0.0,193.0,0.0,0.0,0.0,179.0,193.0,0.0,179.0,1744420680.9035912,0.0,2025-04-11 21:18:00.903,RIGHT,48
193.0,16268.426629117326,23754.629344299956,-31264.971943494314,-18840.218346144957,-34000.289022956975,-25227.117565526674,-14731.900660026153,-29543.731158224484,0.0,0.0,0.0,193.0,0.0,194.0,0.0,0.0,0.0,180.0,194.0,0.0,180.0,1744420680.903633,0.0,2025-04-11 21:18:00.903,RIGHT,48
194.0,16269.924195995833,23766.386361883448,-31259.60752482504,-18834.831575731227,-33998.255014211536,-25225.843516092722,-14822.984018681529,-29542.166536112614,0.0,0.0,0.0,193.0,0.0,193.0,0.0,0.0,0.0,179.0,193.0,0.0,179.0,1744420680.9036744,0.0,2025-04-11 21:18:00.903,RIGHT,48
195.0,16293.058251507075,23766.833396772552,-31272.52683312021,-18846.521538081353,-34012.314261473926,-25251.570373960778,-14341.572146603126,-29513.578654954275,0.0,0.0,0.0,193.0,0.0,194.0,0.0,0.0,0.0,179.0,194.0,0.0,179.0,1744420680.9037952,0.0,2025-04-11 21:18:00.903,RIGHT,48
196.0,16289.303158438583,23748.303800619102,-31273.51030987624,-18858.144445198115,-34006.435752682184,-25247.412949492093,-14320.628562048503,-29570.285030637388,0.0,0.0,0.0,193.0,0.0,193.0,0.0,0.0,0.0,179.0,193.0,0.0,179.0,1744420680.9038377,0.0,2025-04-11 21:18:00.903,RIGHT,48
197.0,16262.481065092215,23747.677951774356,-31272.795054053673,-18843.72757002444,-34002.233624724584,-25229.218629505474,-14655.52474922237,-29538.70201572204,0.0,0.0,0.0,193.0,0.0,194.0,0.0,0.0,0.0,180.0,194.0,0.0,180.0,1744420680.9038796,0.0,2025-04-11 21:18:00.903,RIGHT,48
198.0,16260.402352857871,23765.5593473386,-31259.875745758505,-18825.846174460195,-33991.281269941486,-25215.159382243084,-14834.048132186907,-29533.896390664147,0.0,0.0,0.0,193.0,0.0,193.0,0.0,0.0,0.0,179.0,193.0,0.0,179.0,1744420680.9039216,0.0,2025-04-11 21:18:00.903,RIGHT,48
199.0,16282.910559524365,23768.04039097314,-31267.900022017962,-18826.516726793852,-34003.17239799171,-25230.55973417279,-14409.722615447357,-29486.35423020771,0.0,0.0,0.0,193.0,0.0,194.0,0.0,0.0,0.0,179.0,194.0,0.0,179.0,1744420680.903963,0.0,2025-04-11 21:18:00.903,RIGHT,48
200.0,16286.196265959295,23748.728483763753,-31280.841682057584,-18850.075465449747,-34018.796267365964,-25243.43433897905,-14270.82887540208,-29546.74864372595,0.0,0.0,0.0,193.0,0.0,193.0,0.0,0.0,0.0,179.0,193.0,0.0,179.0,1744420680.9040616,0.0,2025-04-11 21:18:00.904,RIGHT,48
201.0,16270.684155307312,23752.08124543205,-31274.896118032473,-18838.519613566354,-34010.45906668414,-25227.341082971227,-14613.570524879757,-29554.012960673925,0.0,0.0,0.0,193.0,0.0,194.0,0.0,0.0,0.0,180.0,194.0,0.0,180.0,1744420680.9041045,0.0,2025-04-11 21:18:00.904,RIGHT,48
202.0,16267.912538994855,23773.069533475584,-31258.065254457626,-18820.079424390726,-33995.3716391768,-25210.309053696285,-14866.256995947004,-29549.587315271776,0.0,0.0,0.0,193.0,0.0,194.0,0.0,0.0,0.0,179.0,194.0,0.0,179.0,1744420680.904146,0.0,2025-04-11 21:18:00.904,RIGHT,48
203.0,16294.51111489667,23782.99370801374,-31255.874783501007,-18815.519668521843,-34001.29485145746,-25216.835763077233,-14540.726189699912,-29506.783724639863,0.0,0.0,0.0,193.0,0.0,193.0,0.0,0.0,0.0,179.0,193.0,0.0,179.0,1744420680.9041877,0.0,2025-04-11 21:18:00.904,RIGHT,48
204.0,16296.053385264086,23764.97820198276,-31266.178937694902,-18840.77713975634,-34005.36286894833,-25235.03008306385,-14244.34205822254,-29535.528068009386,0.0,0.0,0.0,193.0,0.0,193.0,0.0,0.0,0.0,179.0,193.0,0.0,179.0,1744420680.9042294,0.0,2025-04-11 21:18:00.904,RIGHT,48
205.0,16272.874626263932,23752.37181810997,-31263.85435627155,-18833.78104374183,-33998.63499386728,-25223.675396880557,-14520.095529567663,-29546.18985011457,0.0,0.0,0.0,193.0,0.0,193.0,0.0,0.0,0.0,179.0,193.0,0.0,179.0,1744420680.9042711,0.0,2025-04-11 21:18:00.904,RIGHT,48
206.0,16257.921309223333,23762.02777171466,-31254.578382322597,-18822.538116280808,-33989.60488910734,-25214.242960720418,-14823.989847182018,-29538.14322211066,0.0,0.0,0.0,193.0,0.0,194.0,0.0,0.0,0.0,179.0,194.0,0.0,179.0,1744420680.904327,0.0,2025-04-11 21:18:00.904,RIGHT,48
207.0,16262.190492414296,23757.646829801422,-31259.94280099187,-18823.186316870015,-33997.58446187788,-25229.308036483293,-14595.51031535987,-29503.050983315825,0.0,0.0,0.0,193.0,0.0,193.0,0.0,0.0,0.0,179.0,193.0,0.0,179.0,1744420680.904373,0.0,2025-04-11 21:18:00.904,RIGHT,48
208.0,16273.567530342047,23748.88494597494,-31272.99621975377,-18841.91707872356,-34009.29677597246,-25245.691865169036,-14232.942668550333,-29525.469783004497,0.0,0.0,0.0,193.0,0.0,194.0,0.0,0.0,0.0,179.0,194.0,0.0,179.0,1744420680.904415,0.0,2025-04-11 21:18:00.904,RIGHT,48
209.0,16255.730838266712,23736.79265222462,-31274.471434887822,-18840.710084522972,-34005.54168290397,-25237.064091809287,-14492.088793765164,-29568.429835847597,0.0,0.0,0.0,193.0,0.0,193.0,0.0,0.0,0.0,179.0,193.0,0.0,179.0,1744420680.9045455,0.0,2025-04-11 21:18:00.904,RIGHT,48
210.0,16245.136111394897,23755.50106233371,-31265.553088850153,-18823.521593036843,-33996.26570895502,-25217.215742732973,-14812.41164355417,-29544.312303580322,0.0,0.0,0.0,193.0,0.0,193.0,0.0,0.0,0.0,179.0,193.0,0.0,179.0,1744420680.904588,0.0,2025-04-11 21:18:00.904,RIGHT,48
211.0,16263.643355803892,23766.475768861266,-31255.2265829118,-18811.742223708898,-33985.08983672736,-25212.678338608544,-14682.95033966903,-29510.516465963898,0.0,0.0,0.0,193.0,0.0,193.0,0.0,0.0,0.0,179.0,193.0,0.0,179.0,1744420680.9046297,0.0,2025-04-11 21:18:00.904,RIGHT,48
212.0,16279.446039133793,23760.552556580613,-31265.240164427778,-18825.66736050455,-33997.96444153362,-25228.950408572007,-14224.180784723852,-29502.1122100487,0.0,0.0,0.0,193.0,0.0,193.0,0.0,0.0,0.0,179.0,193.0,0.0,179.0,1744420681.3784108,0.0,2025-04-11 21:18:01.378,RIGHT,48
213.0,16266.88435874991,23747.633248285445,-31267.274173173213,-18830.852965218182,-34003.03828752498,-25228.23515274944,-14414.260019571784,-29561.344332855268,0.0,0.0,0.0,193.0,0.0,193.0,0.0,0.0,0.0,179.0,193.0,0.0,179.0,1744420681.378539,0.0,2025-04-11 21:18:01.378,RIGHT,48
214.0,16245.426684072816,23758.4067891129,-31265.75425455025,-18823.365130825656,-34000.087857256876,-25223.250713735906,-14768.244596510482,-29564.18300440109,0.0,0.0,0.0,193.0,0.0,194.0,0.0,0.0,0.0,179.0,194.0,0.0,179.0,1744420681.3786025,0.0,2025-04-11 21:18:01.378,RIGHT,48
215.0,16257.228405145217,23774.589452098546,-31250.912696231928,-18806.355453295168,-33989.8731100408,-25209.236169962427,-14787.73531767551,-29538.880829677684,0.0,0.0,0.0,193.0,0.0,193.0,0.0,0.0,0.0,179.0,193.0,0.0,179.0,1744420681.3792412,0.0,2025-04-11 21:18:01.379,RIGHT,48
216.0,16285.726879325734,23772.957774753308,-31263.47437661581,-18814.178563854526,-34004.692316614666,-25225.37412945916,-14293.247675090752,-29490.086971531746,0.0,0.0,0.0,193.0,0.0,193.0,0.0,0.0,0.0,179.0,193.0,0.0,179.0,1744420681.379341,0.0,2025-04-11 21:18:01.379,RIGHT,48
217.0,16280.764792056656,23753.332943121546,-31270.67163833042,-18827.96959018345,-34011.80017135145,-25225.061205036785,-14359.431190422916,-29553.543574040363,0.0,0.0,0.0,193.0,0.0,193.0,0.0,0.0,0.0,179.0,193.0,0.0,179.0,1744420681.3794208,0.0,2025-04-11 21:18:01.379,RIGHT,48
218.0,16254.255623132662,23763.79355952663,-31268.503519118254,-18822.225191858433,-34005.76520034852,-25214.600588631703,-14728.547898357858,-29546.18985011457,0.0,0.0,0.0,193.0,0.0,193.0,0.0,0.0,0.0,179.0,193.0,0.0,179.0,1744420681.379494,0.0,2025-04-11 21:18:01.379,RIGHT,48
219.0,16249.248832374673,23765.402885127412,-31256.388873623477,-18814.37972955462,-33983.30169717094,-25207.04569900581,-14807.829535940831,-29518.138410823158,0.0,0.0,0.0,193.0,0.0,193.0,0.0,0.0,0.0,179.0,193.0,0.0,179.0,1744420681.3795931,0.0,2025-04-11 21:18:01.379,RIGHT,48
220.0,16277.680251321824,23762.787731026143,-31269.28583017419,-18823.901572692583,-33999.81963632341,-25232.012597562385,-14330.731550542301,-29481.660363872095,0.0,0.0,0.0,193.0,0.0,193.0,0.0,0.0,0.0,179.0,193.0,0.0,179.0,1744420681.3796663,0.0,2025-04-11 21:18:01.379,RIGHT,48
221.0,16283.536408369115,23749.354332608502,-31273.57736510961,-18836.82088098775,-34007.419229438216,-25230.962065572985,-14299.461460049328,-29539.886658178173,0.0,0.0,0.0,193.0,0.0,194.0,0.0,0.0,0.0,179.0,194.0,0.0,179.0,1744420681.379852,0.0,2025-04-11 21:18:01.379,RIGHT,48
222.0,16267.8901872504,23761.960716481295,-31262.84852777106,-18816.793717955796,-33992.75648507554,-25208.431507162037,-14639.789121125832,-29525.760355682418,0.0,0.0,0.0,193.0,0.0,193.0,0.0,0.0,0.0,179.0,193.0,0.0,179.0,1744420681.379926,0.0,2025-04-11 21:18:01.379,RIGHT,48
223.0,16271.779390785623,23777.71869632229,-31254.198402666858,-18808.23299982941,-33985.20159544964,-25201.636576847624,-14833.735207764532,-29529.001358628437,0.0,0.0,0.0,193.0,0.0,194.0,0.0,0.0,0.0,179.0,194.0,0.0,179.0,1744420681.3800154,0.0,2025-04-11 21:18:01.380,RIGHT,48
224.0,16287.984405515721,23775.572928854577,-31270.358713908045,-18819.96766566845,-34002.34538344686,-25230.85030685071,-14420.697321974912,-29494.847893100727,0.0,0.0,0.0,193.0,0.0,193.0,0.0,0.0,0.0,179.0,193.0,0.0,179.0,1744420681.3801224,0.0,2025-04-11 21:18:01.380,RIGHT,48
225.0,16287.380908415427,23758.65265830191,-31284.507368148254,-18847.594421815207,-34012.78364810749,-25248.776405903867,-14258.557767696115,-29562.70778926704,0.0,0.0,0.0,193.0,0.0,194.0,0.0,0.0,0.0,179.0,194.0,0.0,179.0,1744420681.3801975,0.0,2025-04-11 21:18:01.380,RIGHT,48
226.0,16265.967937227242,23752.125948920962,-31284.82029257063,-18841.514747323366,-34008.64857538326,-25233.532516185347,-14592.60458858068,-29560.427911332597,0.0,0.0,0.0,193.0,0.0,193.0,0.0,0.0,0.0,179.0,193.0,0.0,179.0,1744420681.3802664,0.0,2025-04-11 21:18:01.380,RIGHT,48
227.0,16255.619079544436,23767.481597361755,-31278.181824467403,-18836.083273420725,-34004.334688703384,-25225.03885329233,-14848.777931782954,-29550.548440283354,0.0,0.0,0.0,193.0,0.0,193.0,0.0,0.0,0.0,179.0,193.0,0.0,179.0,1744420681.3803296,0.0,2025-04-11 21:18:01.380,RIGHT,48
228.0,16282.038841490608,23780.870292290485,-31275.924298277416,-18828.930715195027,-34012.98481380759,-25234.024254563363,-14568.330594102215,-29524.531009737377,0.0,0.0,0.0,193.0,0.0,193.0,0.0,0.0,0.0,179.0,193.0,0.0,179.0,1744420681.3803933,0.0,2025-04-11 21:18:01.380,RIGHT,48
229.0,16297.729766098235,23772.868367775485,-31282.51806289173,-18846.901517737093,-34014.527084175,-25251.928001872064,-14255.540282194648,-29550.213164116525,0.0,0.0,0.0,193.0,0.0,194.0,0.0,0.0,0.0,180.0,194.0,0.0,180.0,1744420681.3804636,0.0,2025-04-11 21:18:01.380,RIGHT,48
230.0,16279.356632155972,23757.51271933469,-31279.120597734523,-18840.86654673416,-34006.77102884901,-25239.969818588474,-14523.314180769228,-29559.869117721217,0.0,0.0,0.0,193.0,0.0,194.0,0.0,0.0,0.0,180.0,194.0,0.0,180.0,1744420681.380744,0.0,2025-04-11 21:18:01.380,RIGHT,48
231.0,16268.538387839602,23766.94515549483,-31267.654152828953,-18829.2436396174,-33995.326935687895,-25225.03885329233,-14824.772158237954,-29539.819602944805,0.0,0.0,0.0,193.0,0.0,193.0,0.0,0.0,0.0,179.0,193.0,0.0,179.0,1744420681.3807888,0.0,2025-04-11 21:18:01.380,RIGHT,48
232.0,16285.615120603457,23775.90820502141,-31265.418978383423,-18825.10856689317,-33999.28319445648,-25234.00190281891,-14617.906763304087,-29518.78661141236,0.0,0.0,0.0,193.0,0.0,194.0,0.0,1.0,0.0,179.0,194.0,1.0,179.0,1744420681.3808355,0.0,2025-04-11 21:18:01.380,RIGHT,48
233.0,16299.65201612139,23773.42716138687,-31274.449083143365,-18838.83253798873,-34007.888616071774,-25242.719083156477,-14214.882459030445,-29519.23364630147,0.0,0.0,0.0,193.0,0.0,193.0,0.0,2.0,0.0,179.0,193.0,2.0,179.0,1744420681.380886,0.0,2025-04-11 21:18:01.380,RIGHT,48
234.0,16276.875588521432,23754.159957666394,-31275.76783606623,-18838.407854844078,-34004.17822649219,-25227.721062626966,-14454.604918313613,-29554.459995563033,0.0,0.0,0.0,193.0,0.0,194.0,0.0,3.0,0.0,179.0,194.0,3.0,179.0,1744420681.380928,0.0,2025-04-11 21:18:01.380,RIGHT,48
235.0,16262.637527303403,23768.5097776067,-31266.201289439356,-18824.460366303967,-33996.980964777584,-25209.616149618167,-14811.003483653485,-29547.687416993074,0.0,0.0,0.0,193.0,0.0,193.0,0.0,4.0,0.0,179.0,193.0,4.0,179.0,1744420681.3809988,0.0,2025-04-11 21:18:01.380,RIGHT,48
236.0,16273.701640808778,23773.89654802043,-31260.121614947515,-18815.407909799567,-33995.3716391768,-25213.483001408935,-14729.330209413793,-29528.08493710577,0.0,0.0,0.0,193.0,0.0,193.0,0.0,6.0,0.0,180.0,193.0,6.0,180.0,1744420681.381114,0.0,2025-04-11 21:18:01.381,RIGHT,48
237.0,16292.454754406781,23761.312515892092,-31279.835853557095,-18836.954991454484,-34016.60579640935,-25241.735606400445,-14246.711343134803,-29507.297814762333,0.0,0.0,0.0,193.0,0.0,193.0,0.0,7.0,0.0,179.0,193.0,7.0,179.0,1744420681.3811767,0.0,2025-04-11 21:18:01.381,RIGHT,48
238.0,16291.247760206195,23758.18327166835,-31272.035094742194,-18834.71981700895,-34004.08881951438,-25226.894048082122,-14400.647807198502,-29550.83901296127,0.0,0.0,0.0,193.0,0.0,193.0,0.0,8.0,0.0,179.0,193.0,8.0,179.0,1744420681.3812196,0.0,2025-04-11 21:18:01.381,RIGHT,48
239.0,16271.131190196418,23784.558330125612,-31263.407321382445,-18819.475927290434,-33995.01401126552,-25211.22547521895,-14745.669334610622,-29534.522239508897,0.0,0.0,0.0,193.0,0.0,193.0,0.0,8.0,0.0,179.0,193.0,8.0,179.0,1744420681.3812838,0.0,2025-04-11 21:18:01.381,RIGHT,48
240.0,16275.109800709464,23788.693402849844,-31250.28684738718,-18808.143592851593,-33982.85466228183,-25204.877579793643,-14781.83445713931,-29525.17921032658,0.0,0.0,0.0,193.0,0.0,194.0,0.0,9.0,0.0,180.0,194.0,9.0,180.0,1744420681.3813257,0.0,2025-04-11 21:18:01.381,RIGHT,48
241.0,16296.567475386559,23771.594318341533,-31263.742597549273,-18821.420529058043,-33997.11507524432,-25226.715234126477,-14276.77443942719,-29475.804206824807,0.0,0.0,0.0,193.0,0.0,194.0,0.0,10.0,0.0,180.0,194.0,10.0,180.0,1744420681.3813672,0.0,2025-04-11 21:18:01.381,RIGHT,48
242.0,16296.075737008541,23759.03263795765,-31261.462719614832,-18829.06482566176,-33991.95182227514,-25223.31776896927,-14338.018219234733,-29542.010073901427,0.0,0.0,0.0,193.0,0.0,194.0,0.0,11.0,0.0,179.0,194.0,11.0,179.0,1744420681.3814085,0.0,2025-04-11 21:18:01.381,RIGHT,48
243.0,16272.360536141461,23766.922803750374,-31261.28390565919,-18821.375825569132,-33985.62627859429,-25215.919341554563,-14678.658804733612,-29531.258884818424,0.0,0.0,0.0,193.0,0.0,194.0,0.0,11.0,0.0,179.0,194.0,11.0,179.0,1744420681.3814504,0.0,2025-04-11 21:18:01.381,RIGHT,48
244.0,16268.761905284156,23771.773132297174,-31258.199364924356,-18817.330159822723,-33989.11315072932,-25215.539361898824,-14820.324161091348,-29538.5232017664,0.0,0.0,0.0,193.0,0.0,193.0,0.0,12.0,0.0,179.0,193.0,12.0,179.0,1744420681.3815916,0.0,2025-04-11 21:18:01.381,RIGHT,48
245.0,16291.717146839757,23770.27556541867,-31268.548222607165,-18825.555601782275,-34001.78658983548,-25237.309960998293,-14386.677966913936,-29506.359041495212,0.0,0.0,0.0,193.0,0.0,194.0,0.0,12.0,0.0,180.0,194.0,12.0,180.0,1744420681.3816326,0.0,2025-04-11 21:18:01.381,RIGHT,48
246.0,16289.526675883137,23755.612821055987,-31272.459777886845,-18842.453520590487,-33999.81963632341,-25238.27108600987,-14307.262218864229,-29561.299629366356,0.0,0.0,0.0,193.0,0.0,193.0,0.0,12.0,0.0,179.0,193.0,12.0,179.0,1744420681.3816733,0.0,2025-04-11 21:18:01.381,RIGHT,48
247.0,16265.766771527145,23759.569079824578,-31269.84462378557,-18835.09979666469,-33994.58932812087,-25219.22739973395,-14637.866871102677,-29541.831259945782,0.0,0.0,0.0,193.0,0.0,193.0,0.0,13.0,0.0,179.0,193.0,13.0,179.0,1744420681.3817148,0.0,2025-04-11 21:18:01.381,RIGHT,48
248.0,16260.223538902228,23770.387324140946,-31264.413149882934,-18831.47881406293,-33982.877014026286,-25213.639463620122,-14826.269725116459,-29518.943073623548,0.0,0.0,0.0,193.0,0.0,194.0,0.0,13.0,0.0,180.0,194.0,13.0,180.0,1744420681.381755,0.0,2025-04-11 21:18:01.381,RIGHT,48
249.0,16288.006757260175,23775.41646664339,-31273.1303302205,-18836.932639710027,-33994.63403160978,-25235.8570976087,-14446.938269965443,-29494.914948334095,0.0,0.0,0.0,193.0,0.0,193.0,0.0,13.0,0.0,179.0,193.0,13.0,179.0,1744420681.3817954,0.0,2025-04-11 21:18:01.381,RIGHT,48
250.0,16298.310911454073,23767.481597361755,-31279.031190756705,-18849.896651494106,-34000.1772642347,-25233.398405718614,-14250.041753058644,-29530.610684229217,0.0,0.0,0.0,193.0,0.0,193.0,0.0,13.0,0.0,179.0,193.0,13.0,179.0,1744420681.3818357,0.0,2025-04-11 21:18:01.381,RIGHT,48
251.0,16271.757039041167,23756.95392572331,-31274.94082152138,-18839.145462411103,-33993.80701706493,-25216.65694912159,-14563.256748110862,-29524.08397484827,0.0,0.0,0.0,193.0,0.0,193.0,0.0,14.0,0.0,179.0,193.0,14.0,179.0,1744420681.3818917,0.0,2025-04-11 21:18:01.381,RIGHT,48
252.0,16258.323640623528,23774.388286398447,-31264.4802051163,-18827.477851805434,-33989.26961294051,-25205.36931817166,-14848.17443468266,-29527.101460349735,0.0,0.0,0.0,193.0,0.0,193.0,0.0,14.0,0.0,179.0,193.0,14.0,179.0,1744420681.3819323,0.0,2025-04-11 21:18:01.381,RIGHT,48
253.0,16278.730783311223,23778.210434700304,-31262.200327181858,-18820.682921491018,-33991.10245598584,-25211.56075138578,-14566.229530123417,-29486.13071276316,0.0,0.0,0.0,193.0,0.0,194.0,0.0,14.0,0.0,180.0,194.0,14.0,180.0,1744420681.3819728,0.0,2025-04-11 21:18:01.381,RIGHT,48
254.0,16291.471277650748,23768.12979795096,-31269.084664474092,-18837.40202634359,-33993.695258342654,-25227.251675993404,-14222.258534700697,-29503.341555993746,0.0,0.0,0.0,193.0,0.0,194.0,0.0,14.0,0.0,180.0,194.0,14.0,180.0,1744420681.3820276,0.0,2025-04-11 21:18:01.382,RIGHT,48
255.0,16271.824094274532,23766.36401013899,-31262.312085904134,-18827.567258783252,-33991.482435641585,-25212.678338608544,-14497.7214333679,-29534.879867420183,0.0,0.0,0.0,193.0,0.0,194.0,0.0,14.0,0.0,180.0,194.0,14.0,180.0,1744420681.3820689,0.0,2025-04-11 21:18:01.382,RIGHT,48
0.0,16260.849387746977,23781.630251601968,-31248.90103923095,-18813.508011520866,-33980.44067388066,-25196.629786089634,-14820.570030280356,-29523.391070770154,0.0,0.0,0.0,193.0,0.0,193.0,0.0,15.0,0.0,179.0,193.0,15.0,179.0,1744420681.3821092,0.0,2025-04-11 21:18:01.382,RIGHT,48
1.0,16272.9416814973,23781.719658579786,-31250.443309598366,-18816.25727608887,-33985.98390650558,-25213.684167109033,-14646.829920629254,-29508.236588029456,0.0,0.0,0.0,193.0,0.0,194.0,0.0,15.0,0.0,180.0,194.0,15.0,180.0,1744420681.382162,0.0,2025-04-11 21:18:01.382,RIGHT,48
2.0,16290.42074566135,23769.47090261828,-31262.42384462641,-18834.92098270905,-33998.50088340055,-25233.5548679298,-14240.698723876325,-29516.97612011148,0.0,0.0,0.0,193.0,0.0,194.0,0.0,15.0,0.0,180.0,194.0,15.0,180.0,1744420681.3822176,0.0,2025-04-11 21:18:01.382,RIGHT,48
3.0,16271.824094274532,23748.862594230486,-31268.347056907067,-18842.16294791257,-33999.663174112226,-25231.073824295265,-14454.04612470223,-29558.103329909245,0.0,0.0,0.0,193.0,0.0,194.0,0.0,15.0,0.0,180.0,194.0,15.0,180.0,1744420681.3823583,0.0,2025-04-11 21:18:01.382,RIGHT,48
4.0,16254.12151266593,23763.905318248908,-31263.250859171258,-18832.52934605233,-33990.11897922981,-25212.477172908446,-14800.7440329485,-29540.84778318975,0.0,0.0,0.0,193.0,0.0,193.0,0.0,15.0,0.0,179.0,193.0,15.0,179.0,1744420681.3824005,0.0,2025-04-11 21:18:01.382,RIGHT,48
5.0,16264.425666859826,23772.443684630834,-31250.46566134282,-18818.96183716796,-33975.746807545045,-25200.98837625842,-14744.7305613435,-29504.36973623869,0.0,0.0,0.0,193.0,0.0,194.0,0.0,15.0,0.0,180.0,194.0,15.0,180.0,1744420681.3824427,0.0,2025-04-11 21:18:01.382,RIGHT,48
6.0,16284.31871942505,23764.88879500494,-31267.98942899578,-18835.30096236479,-33996.77979907749,-25229.956237072496,-14261.44114273085,-29490.44459944303,0.0,0.0,0.0,193.0,0.0,194.0,0.0,15.0,0.0,179.0,194.0,15.0,179.0,1744420681.3824859,0.0,2025-04-11 21:18:01.382,RIGHT,48
7.0,16269.991251229198,23748.03557968564,-31270.515176119232,-18844.241660146912,-33997.65151711125,-25229.352739972204,-14397.116231574564,-29552.448338562055,0.0,0.0,0.0,193.0,0.0,193.0,0.0,15.0,0.0,180.0,193.0,15.0,180.0,1744420681.3825345,0.0,2025-04-11 21:18:01.382,RIGHT,48
8.0,16245.426684072816,23756.37278036747,-31265.08370221659,-18831.165889640557,-33989.96251701862,-25214.779402587345,-14745.982259032997,-29532.018844129903,0.0,0.0,0.0,193.0,0.0,194.0,0.0,15.0,0.0,180.0,194.0,15.0,180.0,1744420681.382581,0.0,2025-04-11 21:18:01.382,RIGHT,48
9.0,16262.615175558947,23771.191986941336,-31249.415129353423,-18815.05028188828,-33978.116092457305,-25204.519951882357,-14801.392233537703,-29515.3667945107,0.0,0.0,0.0,193.0,0.0,194.0,0.0,15.0,0.0,180.0,194.0,15.0,180.0,1744420681.3826275,0.0,2025-04-11 21:18:01.382,RIGHT,48
10.0,16285.7939345591,23771.437856130346,-31261.887402759483,-18823.588648270208,-33999.663174112226,-25229.240981249928,-14317.678131780403,-29488.58940465324,0.0,0.0,0.0,193.0,0.0,193.0,0.0,15.0,0.0,180.0,193.0,15.0,180.0,1744420681.3827047,0.0,2025-04-11 21:18:01.382,RIGHT,48
11.0,16282.575283357535,23762.877138003965,-31260.970981236816,-18831.031779173827,-34000.289022956975,-25226.55877191529,-14358.514768900248,-29555.868155463715,0.0,0.0,0.0,193.0,0.0,194.0,0.0,16.0,0.0,180.0,194.0,16.0,180.0,1744420681.3827484,0.0,2025-04-11 21:18:01.382,RIGHT,48
12.0,16261.966974969742,23764.017076971184,-31251.449138098855,-18815.966703410948,-33984.754560560534,-25211.337233941227,-14706.218505647006,-29536.51154476542,0.0,0.0,0.0,193.0,0.0,194.0,0.0,16.0,0.0,179.0,194.0,16.0,179.0,1744420681.382792,0.0,2025-04-11 21:18:01.382,RIGHT,48
13.0,16257.563681312047,23769.69442006283,-31242.016701938715,-18811.67516847553,-33974.49510985555,-25211.78426883033,-14840.217213656571,-29540.110175622725,0.0,0.0,0.0,193.0,0.0,193.0,0.0,16.0,0.0,179.0,193.0,16.0,179.0,1744420681.3828545,0.0,2025-04-11 21:18:01.382,RIGHT,48
14.0,16279.781315300623,23769.202681684816,-31253.23727765528,-18819.744148223897,-33989.649592596244,-25230.71619638398,-14390.880094871532,-29496.2113495125,0.0,0.0,0.0,193.0,0.0,194.0,0.0,16.0,0.0,179.0,194.0,16.0,179.0,1744420681.3828971,0.0,2025-04-11 21:18:01.382,RIGHT,48
15.0,16276.205036187774,23749.868422730975,-31262.066216715124,-18840.978305456436,-33997.0256682665,-25242.04853082282,-14285.424564531395,-29547.463899548522,0.0,0.0,0.0,193.0,0.0,193.0,0.0,16.0,0.0,179.0,193.0,16.0,179.0,1744420681.3829396,0.0,2025-04-11 21:18:01.382,RIGHT,48
16.0,16256.043762689087,23755.255193144705,-31253.103167188547,-18825.577953526732,-33986.14036871676,-25222.803678846798,-14632.323638477761,-29548.536783282376,0.0,0.0,0.0,193.0,0.0,194.0,0.0,16.0,0.0,180.0,194.0,16.0,180.0,1744420681.3829823,0.0,2025-04-11 21:18:01.382,RIGHT,48
17.0,16249.74057075269,23769.5603095961,-31245.078890929093,-18814.938523166005,-33980.53008085848,-25212.812449075278,-14853.024763229461,-29540.691320978563,0.0,0.0,0.0,193.0,0.0,193.0,0.0,16.0,0.0,179.0,193.0,16.0,179.0,1744420681.383024,0.0,2025-04-11 21:18:01.383,RIGHT,48
18.0,16273.567530342047,23765.313478149594,-31253.147870677458,-18817.508973778364,-33994.477569398594,-25230.47032719497,-14483.908055294522,-29499.430000714066,0.0,0.0,0.0,193.0,0.0,194.0,0.0,16.0,0.0,180.0,194.0,16.0,180.0,1744420681.383215,0.0,2025-04-11 21:18:01.383,RIGHT,48
19.0,16280.7424403122,23748.661428530388,-31264.971943494314,-18840.039532189316,-34005.85460732634,-25242.8084901343,-14259.183616540864,-29540.51250702292,0.0,0.0,0.0,193.0,0.0,193.0,0.0,16.0,0.0,179.0,193.0,16.0,179.0,1744420681.383257,0.0,2025-04-11 21:18:01.383,RIGHT,48
20.0,16261.005849958165,23747.186213396337,-31261.485071359286,-18833.28930536381,-33999.663174112226,-25228.436318449538,-14583.663890798556,-29553.32005659581,0.0,0.0,0.0,193.0,0.0,193.0,0.0,16.0,0.0,180.0,193.0,16.0,180.0,1744420681.3832984,0.0,2025-04-11 21:18:01.383,RIGHT,48
21.0,16252.869814976433,23760.88783274744,-31243.08958567257,-18816.63725574461,-33979.39014189126,-25211.94073104152,-14863.597138356823,-29539.97606515599,0.0,0.0,0.0,193.0,0.0,193.0,0.0,16.0,0.0,179.0,193.0,16.0,179.0,1744420681.3833416,0.0,2025-04-11 21:18:01.383,RIGHT,48
22.0,16271.466466363248,23761.781902525654,-31241.726129260795,-18812.748052209387,-33980.23950818056,-25220.747318356913,-14571.45983832596,-29498.200654769025,0.0,0.0,0.0,193.0,0.0,193.0,0.0,16.0,0.0,179.0,193.0,16.0,179.0,1744420681.3833869,0.0,2025-04-11 21:18:01.383,RIGHT,48
23.0,16282.977614757732,23752.59533555452,-31252.52202183271,-18830.115357651157,-33991.281269941486,-25230.403271961604,-14221.498575389216,-29506.02376532838,0.0,0.0,0.0,193.0,0.0,194.0,0.0,16.0,0.0,180.0,194.0,16.0,180.0,1744420681.3834608,0.0,2025-04-11 21:18:01.383,RIGHT,48
24.0,16266.325565138528,23747.342675607524,-31246.129422918493,-18823.00750291437,-33978.20549943513,-25217.50631541089,-14479.325947681184,-29533.047024374846,0.0,0.0,0.0,193.0,0.0,193.0,0.0,16.0,0.0,180.0,193.0,16.0,180.0,1744420681.3835535,0.0,2025-04-11 21:18:01.383,RIGHT,48
25.0,16250.522881808625,23758.026809457162,-31242.642550783465,-18815.162040610558,-33976.32795290089,-25206.64336760561,-14806.756652206977,-29528.733137694973,0.0,0.0,0.0,193.0,0.0,194.0,0.0,16.0,0.0,180.0,194.0,16.0,180.0,1744420681.3836021,0.0,2025-04-11 21:18:01.383,RIGHT,48
26.0,16268.180759928318,23768.621536328978,-31239.89328621546,-18809.417642285545,-33975.92562150069,-25204.966986771466,-14661.447961503025,-29503.050983315825,0.0,0.0,0.0,193.0,0.0,193.0,0.0,16.0,0.0,179.0,193.0,16.0,179.0,1744420681.3836503,0.0,2025-04-11 21:18:01.383,RIGHT,48
27.0,16278.686079822313,23760.865481002988,-31256.433577112388,-18829.713026250964,-33989.314316429416,-25226.6034754042,-14223.219659712275,-29499.809980369806,0.0,0.0,0.0,193.0,0.0,194.0,0.0,16.0,0.0,180.0,194.0,16.0,180.0,1744420681.383698,0.0,2025-04-11 21:18:01.383,RIGHT,48
28.0,16263.106913936963,23744.951038950807,-31258.311123646632,-18832.283476863322,-33988.71081932912,-25219.294454967316,-14427.156976122496,-29543.150012868646,0.0,0.0,0.0,193.0,0.0,193.0,0.0,16.0,0.0,179.0,193.0,16.0,179.0,1744420681.3837888,0.0,2025-04-11 21:18:01.383,RIGHT,48
29.0,16243.504434049659,23751.880079731953,-31253.37138812201,-18822.135784880615,-33984.50869137153,-25205.70459433849,-14784.181390307116,-29531.661216218617,0.0,0.0,0.0,193.0,0.0,194.0,0.0,16.0,0.0,180.0,194.0,16.0,180.0,1744420681.383844,0.0,2025-04-11 21:18:01.383,RIGHT,48
30.0,16258.077771434519,23762.09482694803,-31240.2732658712,-18808.322406807234,-33971.32116214289,-25199.669623335558,-14754.922956815119,-29514.07039333229,0.0,0.0,0.0,193.0,0.0,193.0,0.0,16.0,0.0,179.0,193.0,16.0,179.0,1744420681.3839023,0.0,2025-04-11 21:18:01.383,RIGHT,48
31.0,16276.272091421139,23757.579774568057,-31256.254763156747,-18824.460366303967,-33989.180205962686,-25223.47423118046,-14258.937747351856,-29476.340648691734,0.0,0.0,0.0,193.0,0.0,194.0,0.0,16.0,0.0,180.0,194.0,16.0,180.0,1744420681.3839784,0.0,2025-04-11 21:18:01.383,RIGHT,48
32.0,16262.257547647661,23737.17263188036,-31262.401492881956,-18840.978305456436,-33991.99652576405,-25230.827955106255,-14364.058001525165,-29546.79334721486,0.0,0.0,0.0,193.0,0.0,193.0,0.0,16.0,0.0,179.0,193.0,16.0,179.0,1744420681.384051,0.0,2025-04-11 21:18:01.384,RIGHT,48
33.0,16249.74057075269,23753.377646610457,-31255.785376523185,-18827.746072738897,-33985.51451987201,-25215.807582832287,-14716.209735418528,-29532.622341230195,0.0,0.0,0.0,193.0,0.0,194.0,0.0,16.0,0.0,180.0,194.0,16.0,180.0,1744420681.3847911,0.0,2025-04-11 21:18:01.384,RIGHT,48
34.0,16257.898957478877,23767.325135150568,-31243.827193239595,-18815.162040610558,-33978.94310700215,-25207.112754239173,-14793.345605533792,-29517.17728581158,0.0,0.0,0.0,193.0,0.0,193.0,0.0,17.0,0.0,179.0,193.0,17.0,179.0,1744420681.3848753,0.0,2025-04-11 21:18:01.384,RIGHT,48
35.0,16272.472294863737,23759.569079824578,-31259.406359124943,-18829.422453573043,-33997.49505490006,-25233.42075746307,-14317.611076547037,-29488.097666275225,0.0,0.0,0.0,193.0,0.0,194.0,0.0,16.0,0.0,180.0,194.0,16.0,180.0,1744420681.384942,0.0,2025-04-11 21:18:01.384,RIGHT,48
36.0,16269.723030295734,23738.960771436785,-31265.3295714056,-18847.035628203826,-34001.540720646466,-25234.8065656193,-14326.484719095793,-29556.024617674902,0.0,0.0,0.0,193.0,0.0,193.0,0.0,17.0,0.0,179.0,193.0,17.0,179.0,1744420681.3850331,0.0,2025-04-11 21:18:01.385,RIGHT,48
37.0,16249.561756797048,23745.733350006743,-31255.494803845264,-18833.423415830544,-33990.990697263565,-25214.913513054074,-14679.597578000734,-29534.723405208995,0.0,0.0,0.0,193.0,0.0,194.0,0.0,17.0,0.0,180.0,194.0,17.0,180.0,1744420681.3851306,0.0,2025-04-11 21:18:01.385,RIGHT,48
38.0,16245.896070706378,23764.017076971184,-31244.408338595433,-18821.308770335767,-33982.385275648274,-25206.64336760561,-14853.851777774309,-29533.494059263954,0.0,0.0,0.0,193.0,0.0,193.0,0.0,17.0,0.0,179.0,193.0,17.0,179.0,1744420681.3851998,0.0,2025-04-11 21:18:01.385,RIGHT,48
39.0,16268.359573883961,23771.28139391916,-31253.058463699635,-18823.499241292386,-33990.498958885546,-25221.88725732413,-14400.916028131966,-29475.82655856926,0.0,0.0,0.0,193.0,0.0,193.0,0.0,17.0,0.0,179.0,193.0,17.0,179.0,1744420681.385424,0.0,2025-04-11 21:18:01.385,RIGHT,48
40.0,16271.242948918696,23752.640039043432,-31263.630838826997,-18844.26401189137,-33996.13159848828,-25230.13505102814,-14261.731715408769,-29532.488230763465,0.0,0.0,0.0,193.0,0.0,193.0,0.0,17.0,0.0,179.0,193.0,17.0,179.0,1744420681.385524,0.0,2025-04-11 21:18:01.385,RIGHT,48
41.0,16255.574376055525,23749.7566640087,-31257.46175735733,-18832.596401285697,-33988.08497048437,-25217.171039244062,-14598.170172950051,-29539.283161077878,0.0,0.0,0.0,193.0,0.0,194.0,0.0,17.0,0.0,180.0,194.0,17.0,180.0,1744420681.385624,0.0,2025-04-11 21:18:01.385,RIGHT,48
42.0,16247.21482362924,23764.33000139356,-31253.550202077655,-18826.002636671383,-33985.24629893855,-25215.22643747645,-14833.422283342157,-29539.193754100055,0.0,0.0,0.0,193.0,0.0,194.0,0.0,17.0,0.0,180.0,194.0,17.0,180.0,1744420681.3857007,0.0,2025-04-11 21:18:01.385,RIGHT,48
43.0,16276.003870487675,23772.84601603103,-31252.969056721817,-18821.53228778032,-33986.96738326161,-25223.451879436005,-14494.748651355345,-29492.232738999457,0.0,0.0,0.0,193.0,0.0,193.0,0.0,17.0,0.0,179.0,193.0,17.0,179.0,1744420681.385824,0.0,2025-04-11 21:18:01.385,RIGHT,48
44.0,16289.124344482942,23762.56421358159,-31259.406359124943,-18837.804357743786,-33994.67873509869,-25232.437280707036,-14247.9630408243,-29532.309416807824,0.0,0.0,0.0,193.0,0.0,194.0,0.0,17.0,0.0,180.0,194.0,17.0,180.0,1744420681.3858972,0.0,2025-04-11 21:18:01.385,RIGHT,48
45.0,16264.380963370915,23752.774149510165,-31262.42384462641,-18834.138671653112,-33998.053848511445,-25226.8046411043,-14547.208195591951,-29552.33657983978,0.0,0.0,0.0,193.0,0.0,193.0,0.0,17.0,0.0,179.0,193.0,17.0,179.0,1744420681.3859415,0.0,2025-04-11 21:18:01.385,RIGHT,48
46.0,16252.69100102079,23763.838263015543,-31253.930181733394,-18824.01333141486,-33990.007220507534,-25214.377071187148,-14845.447521859112,-29544.535821024874,0.0,0.0,0.0,193.0,0.0,194.0,0.0,17.0,0.0,180.0,194.0,17.0,180.0,1744420681.385986,0.0,2025-04-11 21:18:01.385,RIGHT,48
47.0,16268.292518650595,23766.095789205527,-31248.94574271986,-18814.290322576802,-33986.788569305965,-25217.5510188998,-14605.188620709017,-29501.79928562633,0.0,0.0,0.0,193.0,0.0,193.0,0.0,17.0,0.0,179.0,193.0,17.0,179.0,1744420681.38603,0.0,2025-04-11 21:18:01.386,RIGHT,48
48.0,16274.036916975609,23758.518547835178,-31263.80965278264,-18835.032741431325,-34000.40078167925,-25235.320655741772,-14233.05442727261,-29508.013070584904,0.0,0.0,0.0,193.0,0.0,194.0,0.0,17.0,0.0,180.0,194.0,17.0,180.0,1744420681.3862176,0.0,2025-04-11 21:18:01.386,RIGHT,48
49.0,16261.40818135836,23756.842167001032,-31253.147870677458,-18822.985151169916,-33981.64766808125,-25215.204085731995,-14481.561122126714,-29527.23557081647,0.0,0.0,0.0,193.0,0.0,194.0,0.0,17.0,0.0,179.0,194.0,17.0,179.0,1744420681.3862624,0.0,2025-04-11 21:18:01.386,RIGHT,48
50.0,16246.812492229044,23767.41454212839,-31245.145946162458,-18808.903552163072,-33970.38238887577,-25199.110829724174,-14790.01519560995,-29507.208407784514,0.0,0.0,0.0,193.0,0.0,193.0,0.0,17.0,0.0,179.0,193.0,17.0,179.0,1744420681.386305,0.0,2025-04-11 21:18:01.386,RIGHT,48
51.0,16258.860082490455,23763.435931615346,-31248.588114808575,-18809.797621941285,-33973.6680953107,-25211.739565341424,-14649.065095074786,-29486.331878463257,0.0,0.0,0.0,193.0,0.0,194.0,0.0,17.0,0.0,180.0,194.0,17.0,180.0,1744420681.386348,0.0,2025-04-11 21:18:01.386,RIGHT,48
52.0,16275.646242576391,23757.42331235687,-31264.882536516496,-18830.316523351255,-33992.39885716425,-25233.42075746307,-14205.830002526047,-29489.818750598282,0.0,0.0,0.0,193.0,0.0,194.0,0.0,17.0,0.0,179.0,194.0,17.0,179.0,1744420681.3863907,0.0,2025-04-11 21:18:01.386,RIGHT,48
53.0,16261.005849958165,23742.98408543874,-31267.229469684302,-18834.742168753408,-33994.63403160978,-25225.12826027015,-14414.796461438711,-29548.648542004652,0.0,0.0,0.0,193.0,0.0,194.0,0.0,17.0,0.0,180.0,194.0,17.0,180.0,1744420681.3864336,0.0,2025-04-11 21:18:01.386,RIGHT,48
54.0,16241.06809390403,23750.024884942162,-31261.57447833711,-18822.716930236453,-33987.03443849498,-25210.733736840935,-14769.49629419998,-29535.28219882038,0.0,0.0,0.0,193.0,0.0,193.0,0.0,17.0,0.0,179.0,193.0,17.0,179.0,1744420681.3864956,0.0,2025-04-11 21:18:01.386,RIGHT,48
55.0,16248.824149230022,23756.5068908342,-31254.131347433493,-18813.619770243142,-33984.50869137153,-25204.542303626815,-14751.413732935636,-29510.829390386272,0.0,0.0,0.0,193.0,0.0,194.0,0.0,17.0,0.0,180.0,194.0,17.0,180.0,1744420681.3865392,0.0,2025-04-11 21:18:01.386,RIGHT,48
56.0,16277.389678643905,23759.323210635568,-31258.177013179902,-18818.939485423503,-33991.95182227514,-25213.572408386757,-14257.082552562066,-29457.073444971258,0.0,0.0,0.0,193.0,0.0,193.0,0.0,17.0,0.0,179.0,193.0,17.0,179.0,1744420681.386582,0.0,2025-04-11 21:18:01.386,RIGHT,48
57.0,16271.310004152061,23755.165786166883,-31255.628914311998,-18824.192145370504,-33992.68942984217,-25208.09623099521,-14353.955013031366,-29519.479515490475,0.0,0.0,0.0,193.0,0.0,194.0,0.0,17.0,0.0,180.0,194.0,17.0,180.0,1744420681.38664,0.0,2025-04-11 21:18:01.386,RIGHT,48
58.0,16252.199262642773,23765.5593473386,-31247.60463805254,-18808.121241107136,-33982.49703437055,-25195.534550611326,-14725.329247156293,-29511.343480508745,0.0,0.0,0.0,193.0,0.0,193.0,0.0,17.0,0.0,179.0,193.0,17.0,179.0,1744420681.3866827,0.0,2025-04-11 21:18:01.386,RIGHT,48
59.0,16257.295460378584,23772.577795097568,-31236.2723036137,-18799.515819491844,-33967.40960686321,-25194.93105351103,-14801.749861448987,-29505.688489161552,0.0,0.0,0.0,193.0,0.0,194.0,0.0,17.0,0.0,179.0,194.0,17.0,179.0,1744420681.3867257,0.0,2025-04-11 21:18:01.386,RIGHT,48
60.0,16280.541274612104,23766.743989794733,-31252.589077066074,-18814.849116188183,-33984.553394860435,-25222.26723697987,-14318.236925391786,-29473.479625401455,0.0,0.0,0.0,193.0,0.0,193.0,0.0,17.0,0.0,179.0,193.0,17.0,179.0,1744420681.386768,0.0,2025-04-11 21:18:01.386,RIGHT,48
61.0,16275.333318154017,23741.642980771423,-31265.37427489451,-18838.564317055265,-33996.69039209967,-25231.587914417734,-14299.237942604774,-29534.388129042167,0.0,0.0,0.0,193.0,0.0,194.0,0.0,17.0,0.0,180.0,194.0,17.0,180.0,1744420681.3868113,0.0,2025-04-11 21:18:01.386,RIGHT,48
62.0,16254.993230699687,23745.733350006743,-31258.780510280194,-18824.326255837233,-33988.30848792893,-25214.08649850923,-14658.497531234925,-29525.626245215684,0.0,0.0,0.0,193.0,0.0,194.0,0.0,17.0,0.0,180.0,194.0,17.0,180.0,1744420681.3868537,0.0,2025-04-11 21:18:01.386,RIGHT,48
63.0,16253.965050454743,23760.194928669327,-31248.766928764217,-18813.731528965418,-33980.48537736957,-25207.93976878402,-14853.851777774309,-29529.493097006452,0.0,0.0,0.0,193.0,0.0,194.0,0.0,17.0,0.0,179.0,194.0,17.0,179.0,1744420681.3869755,0.0,2025-04-11 21:18:01.386,RIGHT,48
64.0,16271.421762874337,23766.296954905625,-31254.131347433493,-18815.117337121646,-33990.20838620763,-25215.71817585447,-14437.170557638474,-29470.3056776888,0.0,0.0,0.0,193.0,0.0,194.0,0.0,17.0,0.0,180.0,194.0,17.0,180.0,1744420681.387019,0.0,2025-04-11 21:18:01.387,RIGHT,48
65.0,16275.26626292065,23756.909222234397,-31257.841737013074,-18834.004561186382,-33991.95182227514,-25225.99997830391,-14269.934805623867,-29520.060660846313,0.0,0.0,0.0,193.0,0.0,193.0,0.0,17.0,0.0,179.0,193.0,17.0,179.0,1744420681.387062,0.0,2025-04-11 21:18:01.387,RIGHT,48
66.0,16255.55202431107,23749.37668435296,-31254.556030578144,-18825.10856689317,-33987.48147338408,-25216.433431677036,-14585.07205069924,-29524.396899270643,0.0,0.0,0.0,193.0,0.0,194.0,0.0,17.0,0.0,180.0,194.0,17.0,180.0,1744420681.3871047,0.0,2025-04-11 21:18:01.387,RIGHT,48
67.0,16249.807625986055,23764.37470488247,-31244.14011766197,-18816.838421444707,-33982.11705471481,-25207.112754239173,-14837.22207989956,-29521.826448658285,0.0,0.0,0.0,193.0,0.0,193.0,0.0,17.0,0.0,179.0,193.0,17.0,179.0,1744420681.3871477,0.0,2025-04-11 21:18:01.387,RIGHT,48
68.0,16262.771637770134,23770.32026890758,-31250.95739972084,-18820.660569746564,-33992.39885716425,-25225.485888181436,-14522.06248307973,-29486.845968585727,0.0,0.0,0.0,193.0,0.0,194.0,0.0,17.0,0.0,180.0,194.0,17.0,180.0,1744420681.3871903,0.0,2025-04-11 21:18:01.387,RIGHT,48
69.0,16265.36444012695,23747.49913781871,-31268.592926096077,-18847.63912530412,-34003.06063926943,-25248.37407450367,-14231.042770271633,-29524.642768459653,0.0,0.0,0.0,193.0,0.0,193.0,0.0,17.0,0.0,179.0,193.0,17.0,179.0,1744420681.3872492,0.0,2025-04-11 21:18:01.387,RIGHT,48
70.0,16250.567585297536,23735.719768490766,-31267.832966784594,-18842.006485701382,-33997.562110133425,-25234.85126910821,-14533.573631474213,-29552.113062395223,0.0,0.0,0.0,193.0,0.0,194.0,0.0,17.0,0.0,180.0,194.0,17.0,180.0,1744420681.3873265,0.0,2025-04-11 21:18:01.387,RIGHT,48
71.0,16240.397541570372,23750.22605064226,-31258.89226900247,-18830.160061140068,-33985.335705916375,-25218.37803344465,-14847.928565493652,-29543.28412333538,0.0,0.0,0.0,193.0,0.0,193.0,0.0,17.0,0.0,179.0,193.0,17.0,179.0,1744420681.3874102,0.0,2025-04-11 21:18:01.387,RIGHT,48
72.0,16255.239099888695,23757.065684445584,-31254.936010233883,-18823.00750291437,-33976.19384243415,-25218.17686774455,-14615.246905713906,-29499.89938734763,0.0,0.0,0.0,193.0,0.0,194.0,0.0,17.0,0.0,179.0,194.0,17.0,179.0,1744420681.3875184,0.0,2025-04-11 21:18:01.387,RIGHT,48
73.0,16272.539350097102,23748.5049663192,-31266.5812690951,-18839.972476955947,-33983.994601249055,-25235.700635397512,-14211.887325273434,-29505.50967520591,0.0,0.0,0.0,193.0,0.0,193.0,0.0,17.0,0.0,179.0,193.0,17.0,179.0,1744420681.3876023,0.0,2025-04-11 21:18:01.387,RIGHT,48
74.0,16254.412085343849,23737.88788770293,-31265.597792339064,-18838.63137228863,-33980.507729114026,-25227.139917271128,-14449.464017088892,-29541.004245400938,0.0,0.0,0.0,193.0,0.0,194.0,0.0,17.0,0.0,180.0,194.0,17.0,180.0,1744420681.3876808,0.0,2025-04-11 21:18:01.387,RIGHT,48
75.0,16238.676457247313,23750.583678553543,-31259.00402772475,-18828.126052394637,-33972.50580459902,-25214.824106076256,-14785.567198463345,-29526.22974231598,0.0,0.0,0.0,193.0,0.0,194.0,0.0,17.0,0.0,180.0,194.0,17.0,180.0,1744420681.3877594,0.0,2025-04-11 21:18:01.387,RIGHT,48
76.0,16255.842596988989,23761.89366124793,-31252.969056721817,-18819.028892401326,-33971.276458653985,-25213.84062932022,-14690.058194405818,-29501.73223039296,0.0,0.0,0.0,193.0,0.0,194.0,0.0,17.0,0.0,180.0,194.0,17.0,180.0,1744420681.8587248,0.0,2025-04-11 21:18:01.858,RIGHT,48
77.0,16280.585978101013,23761.22310891427,-31268.65998132944,-18835.368017598157,-33990.32014492991,-25240.081577310753,-14246.130197778964,-29498.424172213578,0.0,0.0,0.0,193.0,0.0,194.0,0.0,17.0,0.0,180.0,194.0,17.0,180.0,1744420681.859199,0.0,2025-04-11 21:18:01.859,RIGHT,48
78.0,16260.64822204688,23747.02975118515,-31267.52004236222,-18835.233907131424,-33983.03347623748,-25231.632617906645,-14404.738176433824,-29547.307437337335,0.0,0.0,0.0,193.0,0.0,193.0,0.0,17.0,0.0,179.0,193.0,17.0,179.0,1744420681.859315,0.0,2025-04-11 21:18:01.859,RIGHT,48
79.0,16236.664800246335,23759.546728080124,-31254.04194045567,-18811.853982431174,-33970.33768538686,-25207.828010061745,-14748.597413134268,-29522.89933239214,0.0,0.0,0.0,193.0,0.0,194.0,0.0,17.0,0.0,180.0,194.0,17.0,180.0,1744420681.8593943,0.0,2025-04-11 21:18:01.859,RIGHT,48
80.0,16240.866928203934,23766.498120605724,-31253.460795099832,-18806.511915506355,-33978.02668547949,-25214.444126420516,-14758.633346394701,-29517.42315500059,0.0,0.0,0.0,193.0,0.0,193.0,0.0,17.0,0.0,179.0,193.0,17.0,179.0,1744420681.8594763,0.0,2025-04-11 21:18:01.859,RIGHT,48
81.0,16272.137018696907,23763.79355952663,-31258.08760620208,-18811.09402311969,-33988.8225780514,-25225.932923070544,-14290.677224478392,-29485.54956740732,0.0,0.0,0.0,193.0,0.0,194.0,0.0,17.0,0.0,180.0,194.0,17.0,180.0,1744420681.8595805,0.0,2025-04-11 21:18:01.859,RIGHT,48
82.0,16265.498550593682,23743.945210450318,-31259.76398703623,-18819.878258690627,-33988.24143269556,-25221.306111968293,-14360.638184623504,-29534.812812186818,0.0,0.0,0.0,193.0,0.0,193.0,0.0,17.0,0.0,179.0,193.0,17.0,179.0,1744420681.859658,0.0,2025-04-11 21:18:01.859,RIGHT,48
83.0,16245.672553261824,23750.471919831267,-31261.19449868137,-18813.39625279859,-33990.94599377465,-25211.38193743014,-14697.7695462429,-29512.59517819824,0.0,0.0,0.0,193.0,0.0,194.0,0.0,17.0,0.0,179.0,194.0,17.0,179.0,1744420681.859742,0.0,2025-04-11 21:18:01.859,RIGHT,48
84.0,16247.237175373695,23763.480635104257,-31253.013760210724,-18805.506087005866,-33990.275441440994,-25206.062222249773,-14818.737187235021,-29506.291986261844,0.0,0.0,0.0,193.0,0.0,193.0,0.0,17.0,0.0,179.0,193.0,17.0,179.0,1744420681.8599331,0.0,2025-04-11 21:18:01.859,RIGHT,48
85.0,16265.431495360315,23763.88296650445,-31262.312085904134,-18816.458441788967,-34002.9265288027,-25228.726891127455,-14358.112437500053,-29475.290116702334,0.0,0.0,0.0,193.0,0.0,194.0,0.0,17.0,0.0,180.0,194.0,17.0,180.0,1744420681.8600063,0.0,2025-04-11 21:18:01.860,RIGHT,48
86.0,16261.162312169352,23743.78874823913,-31266.849490028562,-18834.4962995644,-34004.80407533694,-25236.23707726444,-14308.469213064816,-29545.65340824764,0.0,0.0,0.0,193.0,0.0,194.0,0.0,17.0,0.0,180.0,194.0,17.0,180.0,1744420681.8600695,0.0,2025-04-11 21:18:01.860,RIGHT,48
87.0,16247.326582351518,23747.432082585347,-31260.032207969693,-18823.990979670405,-33997.45035141115,-25220.18852474553,-14658.296365534827,-29544.446414047055,0.0,0.0,0.0,193.0,0.0,194.0,0.0,17.0,0.0,179.0,194.0,17.0,179.0,1744420681.86017,0.0,2025-04-11 21:18:01.860,RIGHT,48
88.0,16253.875643476922,23765.693457805333,-31246.41999559641,-18811.183430097513,-33987.48147338408,-25201.010728002875,-14868.156894225705,-29527.257922560922,0.0,0.0,0.0,193.0,0.0,194.0,0.0,17.0,0.0,180.0,194.0,17.0,180.0,1744420681.86022,0.0,2025-04-11 21:18:01.860,RIGHT,48
89.0,16270.214768673752,23762.631268814956,-31257.260591657236,-18819.252409845878,-33997.11507524432,-25221.127298012652,-14461.33279339466,-29480.45336967151,0.0,0.0,0.0,193.0,0.0,193.0,0.0,17.0,0.0,179.0,193.0,17.0,179.0,1744420681.8602667,0.0,2025-04-11 21:18:01.860,RIGHT,48
90.0,16270.147713440385,23744.347541850515,-31266.290696417178,-18840.128939167134,-33996.086894999375,-25228.883353338642,-14275.902721393433,-29527.1685155831,0.0,0.0,0.0,193.0,0.0,194.0,0.0,17.0,0.0,180.0,194.0,17.0,180.0,1744420681.8603115,0.0,2025-04-11 21:18:01.860,RIGHT,48
91.0,16250.187605641797,23741.17359413786,-31262.133271948493,-18830.093005906703,-33983.9722495046,-25215.382899687636,-14588.827143767732,-29530.878905162685,0.0,0.0,0.0,193.0,0.0,194.0,0.0,17.0,0.0,180.0,194.0,17.0,180.0,1744420681.860356,0.0,2025-04-11 21:18:01.860,RIGHT,48
92.0,16233.26733508913,23748.169690152372,-31261.708588803842,-18826.4943750494,-33984.687505327165,-25213.818277575767,-14849.403780627703,-29534.343425553256,0.0,0.0,0.0,193.0,0.0,194.0,0.0,17.0,0.0,179.0,194.0,17.0,179.0,1744420681.8607793,0.0,2025-04-11 21:18:01.860,RIGHT,48
93.0,16250.92521320882,23752.125948920962,-31265.888365016985,-18823.655703503573,-33990.18603446317,-25221.864905579678,-14540.21209957744,-29483.672020873073,0.0,0.0,0.0,193.0,0.0,194.0,0.0,17.0,0.0,179.0,194.0,17.0,179.0,1744420681.86083,0.0,2025-04-11 21:18:01.860,RIGHT,48
94.0,16261.74345752519,23739.02782667015,-31278.204176211857,-18843.72757002444,-33998.97027003411,-25236.32648424226,-14237.323610463574,-29511.343480508745,0.0,0.0,0.0,193.0,0.0,193.0,0.0,17.0,0.0,179.0,193.0,17.0,179.0,1744420681.860875,0.0,2025-04-11 21:18:01.860,RIGHT,48
95.0,16244.17498638332,23743.587582539032,-31271.744522064273,-18832.417587330056,-33987.36971466181,-25214.198257231506,-14520.676674923501,-29519.121887579193,0.0,0.0,0.0,193.0,0.0,194.0,0.0,17.0,0.0,180.0,194.0,17.0,180.0,1744420681.8609197,0.0,2025-04-11 21:18:01.860,RIGHT,48
96.0,16226.986494897188,23754.45053034431,-31259.160489935937,-18817.330159822723,-33969.801243519934,-25193.478190121437,-14811.74109122051,-29491.539834921343,0.0,0.0,0.0,193.0,0.0,193.0,0.0,17.0,0.0,179.0,193.0,17.0,179.0,1744420681.860971,0.0,2025-04-11 21:18:01.860,RIGHT,48
97.0,16244.867890461433,23747.208565140794,-31255.13717593398,-18815.117337121646,-33966.47083359609,-25202.955329770488,-14607.289684687816,-29468.02579975436,0.0,0.0,0.0,193.0,0.0,193.0,0.0,17.0,0.0,179.0,193.0,17.0,179.0,1744420681.8610165,0.0,2025-04-11 21:18:01.861,RIGHT,48
98.0,16264.045687204087,23740.637152270934,-31266.156585950448,-18835.435072831522,-33981.64766808125,-25222.021367790865,-14200.487935601228,-29480.54277664933,0.0,0.0,0.0,193.0,0.0,194.0,0.0,17.0,0.0,180.0,194.0,17.0,180.0,1744420681.8610609,0.0,2025-04-11 21:18:01.861,RIGHT,48
99.0,16248.086541662997,23730.93649517733,-31263.2285074268,-18835.77034899835,-33983.502862871035,-25214.913513054074,-14437.930516949955,-29522.206428314024,0.0,0.0,0.0,193.0,0.0,194.0,0.0,17.0,0.0,179.0,194.0,17.0,179.0,1744420681.8611505,0.0,2025-04-11 21:18:01.861,RIGHT,48
100.0,16232.55207926656,23746.806233740597,-31250.778585765194,-18820.995845913392,-33970.33768538686,-25204.877579793643,-14791.937445633108,-29522.340538780754,0.0,0.0,0.0,193.0,0.0,194.0,0.0,17.0,0.0,180.0,194.0,17.0,180.0,1744420681.8611953,0.0,2025-04-11 21:18:01.861,RIGHT,48
101.0,16242.20803287125,23754.674047788867,-31246.308236874134,-18814.737357465907,-33972.12582494329,-25205.101097238196,-14695.28850260836,-29479.894576060127,0.0,0.0,0.0,193.0,0.0,193.0,0.0,17.0,0.0,179.0,193.0,17.0,179.0,1744420681.861239,0.0,2025-04-11 21:18:01.861,RIGHT,48
102.0,16264.559777326558,23745.487480817734,-31257.90879224644,-18828.662494261564,-33992.331801930886,-25225.79881260381,-14235.826043585068,-29459.710950816985,0.0,0.0,0.0,193.0,0.0,193.0,0.0,17.0,0.0,179.0,193.0,17.0,179.0,1744420681.8613002,0.0,2025-04-11 21:18:01.861,RIGHT,48
103.0,16250.165253897341,23732.03173065564,-31258.534641091188,-18832.618753030154,-33992.801188564445,-25220.47909742345,-14390.187190793418,-29514.338614265755,0.0,0.0,0.0,193.0,0.0,193.0,0.0,17.0,0.0,179.0,193.0,17.0,179.0,1744420681.861344,0.0,2025-04-11 21:18:01.861,RIGHT,48
104.0,16236.173061868318,23755.635172800445,-31243.268399628214,-18809.842325430196,-33971.87995575428,-25197.099172723196,-14737.53329962889,-29493.88676808915,0.0,0.0,0.0,193.0,0.0,194.0,0.0,17.0,0.0,180.0,194.0,17.0,180.0,1744420681.8613875,0.0,2025-04-11 21:18:01.861,RIGHT,48
105.0,16249.517053308136,23762.810082770597,-31235.355882091033,-18798.688804946996,-33967.47666209658,-25199.624919846647,-14768.088134299296,-29498.64768965813,0.0,0.0,0.0,193.0,0.0,194.0,0.0,17.0,0.0,180.0,194.0,17.0,180.0,1744420681.8614314,0.0,2025-04-11 21:18:01.861,RIGHT,48
106.0,16275.623890831936,23758.697361790822,-31251.918524732417,-18810.311712063758,-33988.35319141784,-25217.282797966338,-14287.436221532373,-29461.476738628953,0.0,0.0,0.0,193.0,0.0,194.0,0.0,17.0,0.0,179.0,194.0,17.0,179.0,1744420681.8614748,0.0,2025-04-11 21:18:01.861,RIGHT,48
107.0,16269.588919829002,23745.778053495655,-31256.679446301398,-18820.615866257653,-33989.89546178526,-25211.739565341424,-14334.55369884416,-29511.388183997657,0.0,0.0,0.0,193.0,0.0,194.0,0.0,17.0,0.0,180.0,194.0,17.0,180.0,1744420681.8615327,0.0,2025-04-11 21:18:01.861,RIGHT,48
108.0,16248.578280041014,23755.12108267797,-31253.706664288842,-18807.18246784001,-33982.56408960391,-25197.300338423294,-14690.214656617005,-29502.626300171174,0.0,0.0,0.0,193.0,0.0,193.0,0.0,17.0,0.0,179.0,193.0,17.0,179.0,1744420681.8615763,0.0,2025-04-11 21:18:01.861,RIGHT,48
109.0,16246.186643384295,23769.69442006283,-31245.972960707306,-18800.25342705887,-33973.42222612169,-25189.879559264133,-14805.057919628372,-29484.052000528816,0.0,0.0,0.0,193.0,0.0,194.0,0.0,17.0,0.0,180.0,194.0,17.0,180.0,1744420681.8616197,0.0,2025-04-11 21:18:01.861,RIGHT,48
110.0,16264.157445926363,23764.955850238308,-31259.33930389158,-18810.982264397415,-33990.7224763301,-25214.8017543318,-14363.499207913783,-29451.083177457236,0.0,0.0,0.0,193.0,0.0,193.0,0.0,17.0,0.0,179.0,193.0,17.0,179.0,1744420681.8616629,0.0,2025-04-11 21:18:01.861,RIGHT,48
111.0,16261.40818135836,23752.125948920962,-31262.133271948493,-18827.3437413387,-33987.43676989517,-25220.456745678992,-14290.16313435592,-29511.566997953298,0.0,0.0,0.0,193.0,0.0,194.0,0.0,17.0,0.0,180.0,194.0,17.0,180.0,1744420681.8617065,0.0,2025-04-11 21:18:01.861,RIGHT,48
112.0,16239.302306092062,23756.842167001032,-31255.561859078633,-18812.94921790948,-33973.48928135506,-25205.190504216018,-14614.397539424604,-29493.819712855784,0.0,0.0,0.0,193.0,0.0,193.0,0.0,17.0,0.0,179.0,193.0,17.0,179.0,1744420681.8617496,0.0,2025-04-11 21:18:01.861,RIGHT,48
113.0,16237.648277002369,23761.670143803378,-31249.66099854243,-18810.91520916405,-33963.07336843888,-25204.519951882357,-14814.199783110595,-29496.501922190422,0.0,0.0,0.0,193.0,0.0,194.0,0.0,17.0,0.0,180.0,194.0,17.0,180.0,1744420681.8618069,0.0,2025-04-11 21:18:01.861,RIGHT,48
114.0,16266.437323860804,23759.36791412448,-31253.86312650003,-18814.223267343434,-33966.515537085004,-25221.976664301954,-14431.85084245811,-29475.915965547083,0.0,0.0,0.0,193.0,0.0,194.0,0.0,17.0,0.0,180.0,194.0,17.0,180.0,1744420681.8618505,0.0,2025-04-11 21:18:01.861,RIGHT,48
115.0,16272.964033241755,23742.715864505277,-31263.630838826997,-18833.28930536381,-33974.58451683337,-25226.067033537274,-14228.829947570557,-29505.129695550168,0.0,0.0,0.0,193.0,0.0,194.0,0.0,17.0,0.0,179.0,194.0,17.0,179.0,1744420681.8618941,0.0,2025-04-11 21:18:01.861,RIGHT,48
116.0,16251.573413798025,23745.442777328823,-31261.976809737305,-18825.555601782275,-33969.10833944182,-25211.337233941227,-14546.761160702845,-29503.3639077382,0.0,0.0,0.0,193.0,0.0,194.0,0.0,17.0,0.0,180.0,194.0,17.0,180.0,1744420681.8619373,0.0,2025-04-11 21:18:01.861,RIGHT,48
117.0,16233.490852533681,23757.400960612413,-31259.026379469204,-18817.799546456285,-33969.10833944182,-25206.08457399423,-14812.746919721,-29501.665175159596,0.0,0.0,0.0,193.0,0.0,193.0,0.0,17.0,0.0,179.0,193.0,17.0,179.0,1744420681.8619945,0.0,2025-04-11 21:18:01.861,RIGHT,48
118.0,16248.019486429632,23766.095789205527,-31263.72024580482,-18815.564372010755,-33980.06069422492,-25219.339158456227,-14530.01970410582,-29479.40283768211,0.0,0.0,0.0,193.0,0.0,194.0,0.0,17.0,0.0,180.0,194.0,17.0,180.0,1744420681.8620384,0.0,2025-04-11 21:18:01.862,RIGHT,48
119.0,16265.990288971698,23767.23572817275,-31270.872804030518,-18827.857831461173,-33990.67777284119,-25216.99222528842,-14223.040845756632,-29494.5126169339,0.0,0.0,0.0,193.0,0.0,193.0,0.0,17.0,0.0,179.0,193.0,17.0,179.0,1744420681.8620813,0.0,2025-04-11 21:18:01.862,RIGHT,48
120.0,16251.21578588674,23755.054027444607,-31272.370370909022,-18824.952104681983,-33990.05192399644,-25202.105963481186,-14499.39781420205,-29498.133599535657,0.0,0.0,0.0,193.0,0.0,194.0,0.0,17.0,0.0,180.0,194.0,17.0,180.0,1744420681.8621483,0.0,2025-04-11 21:18:01.862,RIGHT,48
121.0,16227.12060536392,23751.32128612057,-31267.877670273505,-18821.77815696933,-33984.08400822688,-25200.049602991297,-14806.957817907074,-29494.713782633997,0.0,0.0,0.0,193.0,0.0,193.0,0.0,17.0,0.0,179.0,193.0,17.0,179.0,1744420681.8621936,0.0,2025-04-11 21:18:01.862,RIGHT,48
122.0,16245.158463139353,23744.36989359497,-31262.89323125997,-18820.213534857456,-33983.10053147084,-25210.532571140837,-14642.94071709403,-29481.41449468309,0.0,0.0,0.0,193.0,0.0,194.0,0.0,17.0,0.0,180.0,194.0,17.0,180.0,1744420681.8622558,0.0,2025-04-11 21:18:01.862,RIGHT,48
123.0,16268.024297717131,23738.737253992233,-31275.05258024366,-18839.793663000306,-33997.0256682665,-25231.029120806354,-14220.67156084437,-29481.77212259437,0.0,0.0,0.0,193.0,0.0,193.0,0.0,17.0,0.0,179.0,193.0,17.0,179.0,1744420681.8622997,0.0,2025-04-11 21:18:01.862,RIGHT,48
124.0,16252.825111487522,23728.321341076058,-31273.800882554162,-18841.939430468017,-33995.68456359918,-25221.149649757106,-14445.038371686742,-29531.258884818424,0.0,0.0,0.0,193.0,0.0,194.0,0.0,17.0,0.0,180.0,194.0,17.0,180.0,1744420681.8623433,0.0,2025-04-11 21:18:01.862,RIGHT,48
125.0,16229.713407720736,23739.765434237175,-31272.683295331397,-18837.111453665668,-33995.34928743235,-25214.89116130962,-14798.128878847228,-29527.012053371916,0.0,0.0,0.0,193.0,0.0,193.0,0.0,17.0,0.0,179.0,193.0,17.0,179.0,1744420681.8623867,0.0,2025-04-11 21:18:01.862,RIGHT,48
126.0,16245.963125939743,23752.7070942768,-31267.967077251327,-18830.338875095713,-33995.34928743235,-25213.348890942205,-14750.072628268317,-29513.779820654374,0.0,0.0,0.0,193.0,0.0,193.0,0.0,17.0,0.0,180.0,193.0,17.0,180.0,1744420681.8624296,0.0,2025-04-11 21:18:01.862,RIGHT,48
127.0,16268.918367495344,23752.46122508779,-31278.89708028997,-18844.44282584701,-34007.66509862722,-25233.152536529607,-14279.769573184201,-29488.79057035334,0.0,0.0,0.0,193.0,0.0,194.0,0.0,17.0,0.0,180.0,194.0,17.0,180.0,1744420681.8624728,0.0,2025-04-11 21:18:01.862,RIGHT,48
128.0,16256.021410944631,23734.468070801267,-31281.735751835797,-18856.91509925307,-34005.27346197051,-25233.308998740795,-14393.830525139634,-29544.84874544725,0.0,0.0,0.0,193.0,0.0,194.0,0.0,17.0,0.0,179.0,194.0,17.0,179.0,1744420681.862532,0.0,2025-04-11 21:18:01.862,RIGHT,48
129.0,16239.726989236713,23750.13664366444,-31269.017609240727,-18835.524479809344,-33989.13550247377,-25203.536475126326,-14726.357427401237,-29498.714744891495,0.0,0.0,0.0,193.0,0.0,194.0,0.0,17.0,0.0,180.0,194.0,17.0,180.0,1744420681.8625755,0.0,2025-04-11 21:18:01.862,RIGHT,48
130.0,16244.26439336114,23759.23380365775,-31260.412187625432,-18825.44384306,-33985.42511289419,-25201.79303905881,-14777.900550115175,-29485.281346473857,0.0,0.0,0.0,193.0,0.0,193.0,0.0,17.0,0.0,179.0,193.0,17.0,179.0,1744420681.8626187,0.0,2025-04-11 21:18:01.862,RIGHT,48
131.0,16271.108838451963,23759.882004246952,-31270.33636216359,-18833.848098975195,-34004.51350265903,-25225.32942597025,-14320.986189959787,-29469.791587566328,0.0,0.0,0.0,193.0,0.0,194.0,0.0,17.0,0.0,180.0,194.0,17.0,180.0,1744420681.862662,0.0,2025-04-11 21:18:01.862,RIGHT,48
132.0,16271.466466363248,23749.98018145325,-31270.42576914141,-18842.408817101576,-34004.267633470015,-25219.830896834243,-14350.825768807623,-29524.55336148183,0.0,0.0,0.0,193.0,0.0,193.0,0.0,17.0,0.0,179.0,193.0,17.0,179.0,1744420681.862724,0.0,2025-04-11 21:18:01.862,RIGHT,48
133.0,16248.35476259646,23746.09097791803,-31266.983600495292,-18832.998732685894,-33993.359982175825,-25209.50439089589,-14685.09610713674,-29506.671965917587,0.0,0.0,0.0,193.0,0.0,194.0,0.0,17.0,0.0,180.0,194.0,17.0,180.0,1744420681.862774,0.0,2025-04-11 21:18:01.862,RIGHT,48
134.0,16243.750303238667,23748.75083550821,-31263.541431849175,-18831.769386740852,-33991.9741740196,-25216.61224563268,-14830.069521673862,-29518.004300356424,0.0,0.0,0.0,193.0,0.0,193.0,0.0,17.0,0.0,179.0,193.0,17.0,179.0,1744420681.8628175,0.0,2025-04-11 21:18:01.862,RIGHT,48
135.0,16265.051515704576,23752.438873343333,-31272.19155695338,-18834.451596075487,-34002.56890089141,-25234.650103408112,-14398.23381879733,-29472.809073067794,0.0,0.0,0.0,193.0,0.0,194.0,0.0,17.0,0.0,180.0,194.0,17.0,180.0,1744420681.8628635,0.0,2025-04-11 21:18:01.862,RIGHT,48
136.0,16271.622928574436,23742.872326716464,-31273.37619940951,-18847.035628203826,-34002.27832821349,-25234.22542026346,-14295.68401523638,-29524.910989393116,0.0,0.0,0.0,193.0,0.0,193.0,0.0,17.0,0.0,179.0,193.0,17.0,179.0,1744420681.8629105,0.0,2025-04-11 21:18:01.862,RIGHT,48
137.0,16254.076809177019,23743.945210450318,-31267.028303984203,-18831.00942742937,-33989.58253736288,-25213.46064966448,-14628.188565753528,-29513.109268320713,0.0,0.0,0.0,193.0,0.0,193.0,0.0,17.0,0.0,179.0,193.0,17.0,179.0,1744420681.8630009,0.0,2025-04-11 21:18:01.863,RIGHT,48
138.0,16238.631753758402,23753.444701843822,-31264.748426049762,-18826.11439539366,-33986.74386581706,-25210.912550796576,-14843.435864858135,-29515.88088463317,0.0,0.0,0.0,193.0,0.0,193.0,0.0,17.0,0.0,180.0,193.0,17.0,180.0,1744420681.8630502,0.0,2025-04-11 21:18:01.863,RIGHT,48
139.0,16254.993230699687,23757.31155363459,-31271.29748717517,-18827.567258783252,-33994.611679865324,-25225.776460859357,-14471.882816777566,-29481.816826083283,0.0,0.0,0.0,193.0,0.0,194.0,0.0,17.0,0.0,180.0,194.0,17.0,180.0,1744420681.8630989,0.0,2025-04-11 21:18:01.863,RIGHT,48
140.0,16260.044724946587,23743.6546377724,-31280.729923335308,-18845.15808166958,-34003.93235730319,-25233.644274907623,-14236.407188940906,-29511.321128764288,0.0,0.0,0.0,193.0,0.0,194.0,0.0,17.0,0.0,180.0,194.0,17.0,180.0,1744420681.8631487,0.0,2025-04-11 21:18:01.863,RIGHT,48
141.0,16244.420855572327,23737.39614932491,-31277.48892038929,-18835.792700742808,-34001.00427877954,-25220.143821256617,-14555.388934062594,-29524.463954504008,0.0,0.0,0.0,193.0,0.0,194.0,0.0,17.0,0.0,179.0,194.0,17.0,179.0,1744420681.86321,0.0,2025-04-11 21:18:01.863,RIGHT,48
142.0,16243.593841027481,23755.27754488916,-31258.93697249138,-18816.503145277875,-33981.15592970323,-25200.809562302777,-14850.32020215037,-29518.85366664573,0.0,0.0,0.0,193.0,0.0,194.0,0.0,17.0,0.0,179.0,194.0,17.0,179.0,1744420681.8632677,0.0,2025-04-11 21:18:01.863,RIGHT,48
143.0,16263.129265681418,23759.18910016884,-31259.831042269594,-18816.279627833323,-33982.7205518151,-25216.07580376575,-14568.710573757957,-29476.295945202823,0.0,0.0,0.0,193.0,0.0,193.0,0.0,17.0,0.0,179.0,193.0,17.0,179.0,1744420681.86342,0.0,2025-04-11 21:18:01.863,RIGHT,48
144.0,16275.445076876293,23748.996704697216,-31276.728961077806,-18842.20765140148,-34002.90417705824,-25237.779347631855,-14212.826098540558,-29499.31824199179,0.0,0.0,0.0,193.0,0.0,194.0,0.0,17.0,0.0,179.0,194.0,17.0,179.0,1744420681.863488,0.0,2025-04-11 21:18:01.863,RIGHT,48
145.0,16258.994192957187,23745.08514941754,-31271.968039508825,-18839.167814155557,-33992.53296763098,-25222.624864891157,-14490.926503053488,-29528.308454550322,0.0,0.0,0.0,193.0,0.0,193.0,0.0,17.0,0.0,179.0,193.0,17.0,179.0,1744420681.8635468,0.0,2025-04-11 21:18:01.863,RIGHT,48
146.0,16245.381980583905,23765.089960705038,-31258.266420157724,-18823.946276181494,-33974.62922032228,-25204.85522804919,-14791.378652021725,-29502.380430982168,0.0,0.0,0.0,193.0,0.0,194.0,0.0,17.0,0.0,180.0,194.0,17.0,180.0,1744420681.8636732,0.0,2025-04-11 21:18:01.863,RIGHT,48
147.0,16266.571434327536,23775.058838732104,-31248.52105957521,-18809.90938066356,-33971.87995575428,-25207.000995516897,-14653.7589614104,-29489.617584898187,0.0,0.0,0.0,193.0,0.0,193.0,0.0,17.0,0.0,179.0,193.0,17.0,179.0,1744420681.8637223,0.0,2025-04-11 21:18:01.863,RIGHT,48
148.0,16290.241931705707,23768.64388807343,-31259.294600402667,-18823.81216571476,-33985.96155476112,-25221.976664301954,-14225.38777892444,-29485.281346473857,0.0,0.0,0.0,193.0,0.0,194.0,0.0,17.0,0.0,180.0,194.0,17.0,180.0,1744420681.863768,0.0,2025-04-11 21:18:01.863,RIGHT,48
149.0,16280.720088567745,23753.84703324402,-31257.3276468906,-18826.516726793852,-33986.74386581706,-25212.9018560531,-14429.861537201588,-29531.50475400743,0.0,0.0,0.0,193.0,0.0,194.0,0.0,17.0,0.0,179.0,194.0,17.0,179.0,1744420681.8638122,0.0,2025-04-11 21:18:01.863,RIGHT,48
150.0,16255.26145163315,23760.485501347244,-31256.4782806013,-18822.38165406962,-33988.196729206655,-25210.08553625173,-14778.235826282005,-29524.396899270643,0.0,0.0,0.0,193.0,0.0,193.0,0.0,17.0,0.0,179.0,193.0,17.0,179.0,1744420681.8638601,0.0,2025-04-11 21:18:01.863,RIGHT,48
151.0,16265.342088382495,23765.045257216127,-31252.030283454693,-18818.000712156383,-33987.12384547279,-25217.37220494416,-14756.10759927125,-29522.117021336202,0.0,0.0,0.0,193.0,0.0,193.0,0.0,17.0,0.0,179.0,193.0,17.0,179.0,1744420681.8639238,0.0,2025-04-11 21:18:01.863,RIGHT,48
152.0,16287.917350282354,23757.60212631251,-31272.4821296313,-18836.977343198938,-34015.08587778638,-25246.988266347442,-14273.309919036617,-29501.911044348606,0.0,0.0,0.0,193.0,0.0,193.0,0.0,17.0,0.0,179.0,193.0,17.0,179.0,1744420681.8639681,0.0,2025-04-11 21:18:01.863,RIGHT,48
153.0,16277.83671353301,23747.02975118515,-31272.750350564762,-18841.268878134357,-34015.599967908856,-25238.96399008799,-14411.04136837022,-29563.914783467626,0.0,0.0,0.0,193.0,0.0,194.0,0.0,17.0,0.0,180.0,194.0,17.0,180.0,1744420681.864014,0.0,2025-04-11 21:18:01.864,RIGHT,48
154.0,16251.528710309114,23753.556460566102,-31261.596830081566,-18821.733453480418,-33991.7730083195,-25215.606417132192,-14736.303953683848,-29520.485343990964,0.0,0.0,0.0,193.0,0.0,193.0,0.0,17.0,0.0,179.0,193.0,17.0,179.0,1744420681.864064,0.0,2025-04-11 21:18:01.864,RIGHT,48
155.0,16247.997134685176,23758.8091205131,-31256.2771149012,-18816.369034811145,-33983.45815938213,-25209.660853107078,-14792.049204355384,-29503.676832160574,0.0,0.0,0.0,193.0,0.0,194.0,0.0,17.0,0.0,180.0,194.0,17.0,180.0,1744420681.86412,0.0,2025-04-11 21:18:01.864,RIGHT,48
156.0,16271.131190196418,23758.65265830191,-31271.34219066408,-18829.40010182859,-34002.30067995795,-25231.364396973182,-14324.137785927986,-29473.949012035016,0.0,0.0,0.0,193.0,0.0,193.0,0.0,17.0,0.0,179.0,193.0,17.0,179.0,1744420681.8641853,0.0,2025-04-11 21:18:01.864,RIGHT,48
157.0,16262.436361603304,23738.200812125306,-31281.95926928035,-18849.695485794007,-34016.292871986974,-25238.986341832442,-14340.365152402539,-29550.66019900563,0.0,0.0,0.0,193.0,0.0,193.0,0.0,17.0,0.0,179.0,193.0,17.0,179.0,1744420681.8642533,0.0,2025-04-11 21:18:01.864,RIGHT,48
158.0,16244.26439336114,23740.92772494885,-31275.85724304405,-18836.5973635432,-34007.37452594931,-25224.256542236395,-14678.636452989156,-29532.890562163662,0.0,0.0,0.0,193.0,0.0,193.0,0.0,17.0,0.0,179.0,193.0,17.0,179.0,1744420681.864454,0.0,2025-04-11 21:18:01.864,RIGHT,48
159.0,16253.07098067653,23759.144396679927,-31254.488975344775,-18816.458441788967,-33985.022781494,-25203.51412338187,-14838.585536311333,-29512.684585176063,0.0,0.0,0.0,193.0,0.0,194.0,0.0,17.0,0.0,180.0,194.0,17.0,180.0,1744420681.8645267,0.0,2025-04-11 21:18:01.864,RIGHT,48
160.0,16278.060230977564,23760.41844611388,-31253.95253347785,-18811.71987196444,-33986.363886161314,-25205.548132127304,-14392.332958261128,-29437.336854617224,0.0,0.0,0.0,193.0,0.0,193.0,0.0,17.0,0.0,179.0,193.0,17.0,179.0,1744420681.8645775,0.0,2025-04-11 21:18:01.864,RIGHT,48
161.0,16275.847408276488,23739.51956504817,-31267.452987128854,-18837.133805410125,-33999.3278979454,-25221.194353246017,-14251.896947848434,-29501.441657715044,0.0,0.0,0.0,193.0,0.0,193.0,0.0,17.0,0.0,180.0,193.0,17.0,180.0,1744420681.8646688,0.0,2025-04-11 21:18:01.864,RIGHT,48
162.0,16256.110817922452,23743.297009861115,-31265.866013272527,-18830.338875095713,-33997.18213047768,-25211.56075138578,-14601.880562529632,-29521.51352423591,0.0,0.0,0.0,193.0,0.0,194.0,0.0,17.0,0.0,180.0,194.0,17.0,180.0,1744420681.8647509,0.0,2025-04-11 21:18:01.864,RIGHT,48
163.0,16255.909652222355,23765.313478149594,-31249.213963653325,-18812.72570046493,-33980.641839580756,-25193.053506976787,-14852.711838807088,-29510.091782819247,0.0,0.0,0.0,193.0,0.0,194.0,0.0,17.0,0.0,180.0,194.0,17.0,180.0,1744420681.8648002,0.0,2025-04-11 21:18:01.864,RIGHT,48
164.0,16279.758963556167,23766.542824094635,-31251.739710776772,-18810.73639520841,-33984.08400822688,-25207.69389959501,-14496.49208742286,-29464.203651452503,0.0,0.0,0.0,193.0,0.0,193.0,0.0,17.0,0.0,179.0,193.0,17.0,179.0,1744420681.864849,0.0,2025-04-11 21:18:01.864,RIGHT,48
165.0,16279.356632155972,23749.823719242064,-31268.19059469588,-18836.5973635432,-33998.36677293382,-25223.854210836198,-14218.771662565669,-29493.4620849445,0.0,0.0,0.0,193.0,0.0,193.0,0.0,17.0,0.0,179.0,193.0,17.0,179.0,1744420681.8648963,0.0,2025-04-11 21:18:01.864,RIGHT,48
166.0,16262.503416836671,23748.03557968564,-31264.94959174986,-18830.115357651157,-33992.01887750851,-25212.164248486075,-14534.691218696978,-29518.40663175662,0.0,0.0,0.0,193.0,0.0,194.0,0.0,17.0,0.0,180.0,194.0,17.0,180.0,1744420681.8649976,0.0,2025-04-11 21:18:01.864,RIGHT,48
167.0,16249.941736452787,23762.07247520357,-31256.210059667836,-18818.358340067665,-33981.15592970323,-25201.12248672515,-14837.110321177284,-29515.94793986654,0.0,0.0,0.0,193.0,0.0,194.0,0.0,17.0,0.0,179.0,194.0,17.0,179.0,1744420681.8650436,0.0,2025-04-11 21:18:01.865,RIGHT,48
168.0,16259.195358657285,23761.5583850811,-31260.14396669197,-18815.273799332834,-33986.9226797727,-25214.578236887246,-14596.046757226797,-29489.528177920365,0.0,0.0,0.0,193.0,0.0,194.0,0.0,17.0,0.0,179.0,194.0,17.0,179.0,1744420681.8650923,0.0,2025-04-11 21:18:01.865,RIGHT,48
169.0,16266.571434327536,23736.74794873571,-31278.51710063423,-18839.145462411103,-34007.24041548257,-25239.18750753254,-14231.802729583113,-29517.266692789402,0.0,0.0,0.0,193.0,0.0,193.0,0.0,17.0,0.0,179.0,193.0,17.0,179.0,1744420681.8651404,0.0,2025-04-11 21:18:01.865,RIGHT,48
170.0,16257.07194293403,23730.46710854377,-31269.330533663102,-18830.67415126254,-33995.01401126552,-25217.036928777332,-14488.758383841323,-29537.539725010363,0.0,0.0,0.0,193.0,0.0,194.0,0.0,17.0,0.0,180.0,194.0,17.0,180.0,1744420681.8651867,0.0,2025-04-11 21:18:01.865,RIGHT,48
171.0,16246.45486431776,23745.66629477338,-31259.51811784722,-18819.3418168237,-33985.670982083204,-25203.402364659592,-14823.475757059547,-29524.620416715195,0.0,0.0,0.0,193.0,0.0,193.0,0.0,17.0,0.0,179.0,193.0,17.0,179.0,1744420681.8652372,0.0,2025-04-11 21:18:01.865,RIGHT,48
172.0,16257.541329567592,23749.5554983086,-31258.89226900247,-18815.720834221942,-33984.128711715784,-25212.343062441716,-14689.968787427997,-29497.999489068927,0.0,0.0,0.0,193.0,0.0,194.0,0.0,17.0,0.0,180.0,194.0,17.0,180.0,1744420681.8652878,0.0,2025-04-11 21:18:01.865,RIGHT,48
173.0,16283.961091513765,23748.75083550821,-31271.94568776437,-18832.998732685894,-33997.897386300254,-25235.343007486226,-14233.166185994887,-29497.686564646552,0.0,0.0,0.0,193.0,0.0,193.0,0.0,17.0,0.0,179.0,193.0,17.0,179.0,1744420681.8653836,0.0,2025-04-11 21:18:01.865,RIGHT,48
174.0,16275.378021642928,23743.98991393923,-31268.79409179617,-18833.73634025292,-33993.270575198,-25217.99805378891,-14426.061740644187,-29542.21123960152,0.0,0.0,0.0,193.0,0.0,194.0,0.0,17.0,0.0,180.0,194.0,17.0,180.0,1744420681.865434,0.0,2025-04-11 21:18:01.865,RIGHT,48
175.0,16247.8853759629,23750.114291919985,-31270.626934841508,-18827.455500060976,-33991.59419436386,-25204.072916993253,-14755.772323104422,-29506.89548336214,0.0,0.0,0.0,193.0,0.0,194.0,0.0,17.0,0.0,180.0,194.0,17.0,180.0,1744420681.8654842,0.0,2025-04-11 21:18:01.865,RIGHT,48
176.0,16252.422780087327,23754.674047788867,-31268.458815629343,-18827.746072738897,-33991.124807730295,-25209.660853107078,-14758.655698139155,-29507.208407784514,0.0,0.0,0.0,193.0,0.0,194.0,0.0,17.0,0.0,180.0,194.0,17.0,180.0,1744420681.8655689,0.0,2025-04-11 21:18:01.865,RIGHT,48
177.0,16284.095201980497,23761.71484729229,-31271.409245897445,-18834.652761775586,-33990.700124585645,-25221.596684646214,-14285.513971509215,-29482.77795109486,0.0,0.0,0.0,193.0,0.0,194.0,0.0,17.0,0.0,180.0,194.0,17.0,180.0,1744420681.8656223,0.0,2025-04-11 21:18:01.865,RIGHT,48
178.0,16271.466466363248,23735.429195812845,-31278.785321567695,-18849.002581715893,-33998.63499386728,-25223.76480385838,-14362.9404143024,-29537.763242454916,0.0,0.0,0.0,193.0,0.0,193.0,0.0,17.0,0.0,179.0,193.0,17.0,179.0,1744420681.8656924,0.0,2025-04-11 21:18:01.865,RIGHT,48
179.0,16249.919384708332,23741.352408093502,-31272.795054053673,-18835.01038968687,-33989.6719443407,-25206.50925713888,-14710.621799304701,-29515.098573577237,0.0,0.0,0.0,193.0,0.0,194.0,0.0,17.0,0.0,179.0,194.0,17.0,179.0,1744420681.8657675,0.0,2025-04-11 21:18:01.865,RIGHT,48
180.0,16258.971841212731,23754.003495455207,-31259.786338780683,-18819.319465079247,-33978.0713889684,-25198.261463434872,-14801.593399237801,-29502.78276238236,0.0,0.0,0.0,193.0,0.0,194.0,0.0,17.0,0.0,179.0,194.0,17.0,179.0,1744420681.865812,0.0,2025-04-11 21:18:01.865,RIGHT,48
181.0,16282.999966502186,23754.98697221124,-31270.962211008336,-18824.840345959707,-33995.21517696562,-25220.076766023252,-14333.145538943476,-29467.60111660971,0.0,0.0,0.0,193.0,0.0,194.0,0.0,17.0,0.0,180.0,194.0,17.0,180.0,1744420681.8658774,0.0,2025-04-11 21:18:01.865,RIGHT,48
182.0,16270.371230884939,23736.16680337987,-31282.115731491536,-18845.091026436214,-34005.519331159514,-25228.972760316465,-14300.73550948328,-29530.65538771813,0.0,0.0,0.0,193.0,0.0,193.0,0.0,17.0,0.0,179.0,193.0,17.0,179.0,1744420681.8659208,0.0,2025-04-11 21:18:01.865,RIGHT,48
183.0,16245.851367217467,23740.860669715486,-31278.606507612054,-18837.06675017676,-33998.031496766984,-25219.6520828786,-14649.378019497159,-29529.381338284176,0.0,0.0,0.0,193.0,0.0,193.0,0.0,18.0,0.0,180.0,193.0,18.0,180.0,1744420681.865965,0.0,2025-04-11 21:18:01.865,RIGHT,48
184.0,16250.187605641797,23760.440797858337,-31259.89809750296,-18818.425395301034,-33980.6194878363,-25198.261463434872,-14841.714780535076,-29519.971253868494,0.0,0.0,0.0,193.0,0.0,194.0,0.0,17.0,0.0,180.0,194.0,17.0,180.0,1744420681.8660076,0.0,2025-04-11 21:18:01.866,RIGHT,48
