Sample Index,EXG Channel 0,EXG Channel 1,EXG Channel 2,EXG Channel 3,EXG Channel 4,EXG Channel 5,EXG Channel 6,EXG Channel 7,Accel Channel 0,Accel Channel 1,Accel Channel 2,Not Used,Digital Channel 0 (D11),Digital Channel 1 (D12),Digital Channel 2 (D13),Digital Channel 3 (D17),Not Used,Digital Channel 4 (D18),Analog Channel 0,Analog Channel 1,Analog Channel 2,Timestamp,Marker Channel,Timestamp (Formatted),Stimulus_Direction,Stimulus_Number
132.0,12598.292541300361,1349.486571489164,-59554.54672033152,-56471.727069822206,-34107.867969020364,-31375.12134017007,-9285.987530468408,-21034.466747577997,0.0,0.0,0.0,193.0,1.0,155.0,0.0,10.0,3.0,252.0,411.0,10.0,1020.0,1744252806.3039546,0.0,2025-04-09 22:40:06.303,RIGHT,29
133.0,12529.270354422373,1346.5361412210634,-59555.7090110432,-56430.2198803687,-34105.65514631929,-31387.21363392039,-9058.69264110239,-21039.182965658067,0.0,0.0,0.0,193.0,1.0,154.0,0.0,9.0,3.0,250.0,410.0,9.0,1018.0,1744252806.3039641,0.0,2025-04-09 22:40:06.303,RIGHT,29
134.0,12461.745734422891,1321.0551525420133,-59590.80124983803,-56491.97775029871,-34131.24789372062,-31406.279671940767,-9137.594299029624,-21064.373381659196,0.0,0.0,0.0,193.0,1.0,154.0,0.0,8.0,3.0,250.0,410.0,8.0,1018.0,1744252806.303973,0.0,2025-04-09 22:40:06.303,RIGHT,29
135.0,12533.316020168784,1316.0260100395692,-59584.52040964609,-56420.69803723074,-34180.24291756665,-31448.70328291694,-8956.053430563621,-21089.630852893693,0.0,0.0,0.0,193.0,1.0,155.0,0.0,8.0,3.0,252.0,411.0,8.0,1020.0,1744252806.3039825,0.0,2025-04-09 22:40:06.303,RIGHT,29
136.0,12597.39847152215,1347.1396383213566,-59575.914988030796,-56481.427726915805,-34134.33243445545,-31388.934718243447,-9251.521140518325,-21051.677590808584,0.0,0.0,0.0,193.0,1.0,154.0,0.0,7.0,3.0,250.0,410.0,7.0,1018.0,1744252806.3040197,0.0,2025-04-09 22:40:06.304,RIGHT,29
137.0,12540.9603167725,1350.2688825450996,-59547.08123768345,-56418.90989767431,-34093.27227989105,-31360.190374873924,-9097.428214243439,-21009.052814132312,0.0,0.0,0.0,193.0,1.0,154.0,0.0,7.0,3.0,249.0,410.0,7.0,1017.0,1744252806.304029,0.0,2025-04-09 22:40:06.304,RIGHT,29
138.0,12464.070315846244,1319.8258065969715,-59598.60200865293,-56494.570552655525,-34127.00106227411,-31396.176683446967,-9115.130795852041,-21049.911802996612,0.0,0.0,0.0,193.0,1.0,154.0,0.0,6.0,3.0,251.0,410.0,6.0,1019.0,1744252806.304038,0.0,2025-04-09 22:40:06.304,RIGHT,29
139.0,12502.537668053827,1304.7160273451839,-59593.90814231732,-56436.81364498301,-34173.85031865243,-31442.958884591924,-8997.895896183956,-21092.961262817535,0.0,0.0,0.0,193.0,1.0,154.0,0.0,6.0,3.0,250.0,410.0,6.0,1018.0,1744252806.3040469,0.0,2025-04-09 22:40:06.304,RIGHT,29
140.0,12589.418898751605,1330.3087747465104,-59594.93632256226,-56485.361633939945,-34152.839678864446,-31407.397259163532,-9170.205494189919,-21061.758227557926,0.0,0.0,0.0,193.0,1.0,154.0,0.0,6.0,3.0,252.0,410.0,6.0,1020.0,1744252806.3040555,0.0,2025-04-09 22:40:06.304,RIGHT,29
141.0,12546.660011608603,1340.7470394071388,-59551.48453134114,-56433.39382808135,-34096.60268981489,-31363.945467942416,-9163.835247020155,-21017.658235747604,0.0,0.0,0.0,193.0,1.0,154.0,0.0,5.0,3.0,249.0,410.0,5.0,1017.0,1744252806.304064,0.0,2025-04-09 22:40:06.304,RIGHT,29
142.0,12478.263673575364,1327.7159723896948,-59594.04225278405,-56487.41799442983,-34123.44713490571,-31394.857930524104,-9091.773222896245,-21043.765073271403,0.0,0.0,0.0,193.0,1.0,153.0,0.0,5.0,3.0,250.0,409.0,5.0,1018.0,1744252806.3040729,0.0,2025-04-09 22:40:06.304,RIGHT,29
143.0,12487.964330668967,1311.2874402150442,-59585.548589891034,-56446.58135730998,-34158.67348416728,-31432.27475074229,-9051.473027643327,-21075.705716098037,0.0,0.0,0.0,193.0,1.0,155.0,0.0,5.0,3.0,252.0,411.0,5.0,1020.0,1744252806.304082,0.0,2025-04-09 22:40:06.304,RIGHT,29
144.0,12597.174954077596,1341.2834812740662,-59585.056851513014,-56463.43457262929,-34158.38291148936,-31429.07845128518,-9096.712958420869,-21075.83982656477,0.0,0.0,0.0,193.0,1.0,154.0,0.0,5.0,3.0,250.0,410.0,5.0,1018.0,1744252806.3040905,0.0,2025-04-09 22:40:06.304,RIGHT,29
145.0,12557.00886929141,1346.9384726212588,-59539.548699802006,-56439.16057815082,-34087.43847458821,-31363.654895264495,-9222.128596559596,-21011.466802533487,0.0,0.0,0.0,193.0,1.0,154.0,0.0,5.0,3.0,249.0,410.0,5.0,1017.0,1744252806.304099,0.0,2025-04-09 22:40:06.304,RIGHT,29
146.0,12495.09453715021,1343.8762836308817,-59573.18807520725,-56463.054592973545,-34109.67846032124,-31391.795741533726,-9063.721783604835,-21042.11104418171,0.0,0.0,0.0,193.0,1.0,154.0,0.0,4.0,3.0,249.0,410.0,4.0,1017.0,1744252806.304108,0.0,2025-04-09 22:40:06.304,RIGHT,29
147.0,12470.75348743838,1308.582879135952,-59584.140429990344,-56460.14886619436,-34149.46456545169,-31434.599332165642,-9097.405862498983,-21082.813570834824,0.0,0.0,0.0,193.0,1.0,154.0,0.0,4.0,3.0,250.0,410.0,4.0,1018.0,1744252806.3041167,0.0,2025-04-09 22:40:06.304,RIGHT,29
148.0,12584.903846371633,1327.4701032006865,-59589.99658703764,-56447.676592788295,-34175.21377506421,-31452.74894866335,-9024.092140685576,-21095.151733774153,0.0,0.0,0.0,193.0,1.0,154.0,0.0,4.0,3.0,252.0,410.0,4.0,1020.0,1744252806.3041255,0.0,2025-04-09 22:40:06.304,RIGHT,29
149.0,12573.258587510418,1347.452562743731,-59541.806225992,-56451.45403760124,-34094.83690200292,-31366.49356681032,-9286.7921932688,-21021.63684626065,0.0,0.0,0.0,193.0,1.0,154.0,0.0,4.0,3.0,250.0,410.0,4.0,1018.0,1744252806.3041344,0.0,2025-04-09 22:40:06.304,RIGHT,29
150.0,12517.200412416509,1356.6614814593174,-59558.6594413113,-56439.96524095121,-34104.26933816306,-31384.620831563574,-9054.110533489053,-21034.824375489283,0.0,0.0,0.0,193.0,1.0,154.0,0.0,4.0,3.0,252.0,410.0,4.0,1020.0,1744252806.3041432,0.0,2025-04-09 22:40:06.304,RIGHT,29
151.0,12461.70103093398,1314.0143530385917,-59587.783764336564,-56476.9797297692,-34149.84454510743,-31426.44094543945,-9141.595261287124,-21081.248948722954,0.0,0.0,0.0,193.0,1.0,154.0,0.0,4.0,3.0,252.0,410.0,4.0,1020.0,1744252806.304157,0.0,2025-04-09 22:40:06.304,RIGHT,29
152.0,12579.15944804662,1334.2650335150997,-59581.03353751106,-56427.56002277852,-34185.562632747016,-31457.420463254508,-8994.431375793383,-21108.920408358623,0.0,0.0,0.0,193.0,1.0,154.0,0.0,4.0,3.0,252.0,410.0,4.0,1020.0,1744252806.3041658,0.0,2025-04-09 22:40:06.304,RIGHT,29
153.0,12593.576323220292,1355.163914580812,-59544.17551090426,-56462.2275784287,-34102.12357069535,-31372.372075602067,-9308.94277202401,-21041.753416270425,0.0,0.0,0.0,193.0,1.0,154.0,0.0,4.0,3.0,250.0,410.0,4.0,1018.0,1744252806.3041747,0.0,2025-04-09 22:40:06.304,RIGHT,29
154.0,12532.980744001956,1352.9287401352813,-59549.58463306244,-56429.39286582385,-34101.14009393932,-31385.02316296377,-9055.943376534387,-21045.97789597248,0.0,0.0,0.0,193.0,1.0,154.0,0.0,4.0,3.0,250.0,410.0,4.0,1018.0,1744252806.3041832,0.0,2025-04-09 22:40:06.304,RIGHT,29
155.0,12467.713650192458,1318.8646815853933,-59577.03257525356,-56478.05261350306,-34126.688137851736,-31403.21748295039,-9146.28912762274,-21058.628983334183,0.0,0.0,0.0,193.0,1.0,154.0,0.0,4.0,3.0,252.0,410.0,4.0,1020.0,1744252806.304192,0.0,2025-04-09 22:40:06.304,RIGHT,29
156.0,12552.806741333812,1322.7538851206166,-59578.6642525988,-56420.183947108264,-34178.7677024326,-31456.012303353826,-8965.418811490395,-21101.70079489956,0.0,0.0,0.0,193.0,1.0,154.0,0.0,4.0,3.0,250.0,410.0,4.0,1018.0,1744252806.3042004,0.0,2025-04-09 22:40:06.304,RIGHT,29
157.0,12593.44221275356,1343.74217316415,-59560.62639482336,-56481.025395515615,-34115.53461736853,-31384.59847981912,-9290.927265993032,-21044.256811649422,0.0,0.0,0.0,193.0,1.0,154.0,0.0,3.0,3.0,251.0,410.0,3.0,1019.0,1744252806.3042092,0.0,2025-04-09 22:40:06.304,RIGHT,29
158.0,12532.9583922575,1347.2290452991779,-59549.271708640066,-56427.7164849897,-34100.31307939447,-31380.999848961816,-9081.446716957893,-21036.433701090064,0.0,0.0,0.0,193.0,1.0,154.0,0.0,3.0,3.0,249.0,410.0,3.0,1017.0,1744252806.304218,0.0,2025-04-09 22:40:06.304,RIGHT,29
159.0,12467.512484492361,1326.4195712112871,-59583.872209056884,-56489.58611364199,-34124.98940527313,-31400.289404426745,-9148.032563690253,-21059.79127404586,0.0,0.0,0.0,193.0,1.0,154.0,0.0,3.0,3.0,252.0,410.0,3.0,1020.0,1744252806.3042266,0.0,2025-04-09 22:40:06.304,RIGHT,29
160.0,12528.800967788813,1323.580899665463,-59575.66911884178,-56417.88171742937,-34170.81048140651,-31443.56238169222,-8975.857076151024,-21085.115800513722,0.0,0.0,0.0,193.0,1.0,154.0,0.0,3.0,3.0,251.0,410.0,3.0,1019.0,1744252806.3042352,0.0,2025-04-09 22:40:06.304,RIGHT,29
161.0,12592.704605186535,1343.7868766530605,-59576.809057809005,-56481.6288926159,-34138.31104496849,-31390.991078733336,-9231.762198419834,-21044.323866882787,0.0,0.0,0.0,193.0,1.0,154.0,0.0,3.0,3.0,250.0,410.0,3.0,1018.0,1744252806.304244,0.0,2025-04-09 22:40:06.304,RIGHT,29
162.0,12547.084694753254,1354.6945279472504,-59540.666287024775,-56420.58627850846,-34092.24409964611,-31357.664627750473,-9119.33292380964,-21004.403651285607,0.0,0.0,0.0,193.0,1.0,155.0,0.0,3.0,3.0,252.0,411.0,3.0,1020.0,1744252806.3042529,0.0,2025-04-09 22:40:06.304,RIGHT,29
163.0,12473.480400261928,1332.521597447586,-59583.447525912234,-56485.45104091776,-34116.965129013675,-31386.78895077574,-9117.209508086386,-21040.88169823667,0.0,0.0,0.0,193.0,1.0,155.0,0.0,3.0,3.0,250.0,411.0,3.0,1018.0,1744252806.3042614,0.0,2025-04-09 22:40:06.304,RIGHT,29
164.0,12502.492964564915,1311.7791785930608,-59581.07824099997,-56434.15378739283,-34164.015551092096,-31440.65665491303,-9015.129091158997,-21084.422896435608,0.0,0.0,0.0,193.0,1.0,155.0,0.0,3.0,3.0,252.0,411.0,3.0,1020.0,1744252806.30427,0.0,2025-04-09 22:40:06.304,RIGHT,29
165.0,12594.49274474296,1332.968632336692,-59587.60495038092,-56482.45590716075,-34158.24880102263,-31423.892846571547,-9163.544674342236,-21077.113875998723,0.0,0.0,0.0,193.0,1.0,155.0,0.0,3.0,3.0,250.0,411.0,3.0,1018.0,1744252806.3042789,0.0,2025-04-09 22:40:06.304,RIGHT,29
166.0,12550.258642465908,1344.3680220088986,-59542.11915041437,-56435.51724380461,-34096.267413648064,-31370.427473834454,-9197.318160214205,-21019.334616581753,0.0,0.0,0.0,193.0,1.0,154.0,0.0,3.0,3.0,250.0,410.0,3.0,1018.0,1744252806.3042915,0.0,2025-04-09 22:40:06.304,RIGHT,29
167.0,12473.055717117277,1324.229100254667,-59594.37752895088,-56492.71535786574,-34131.53846639854,-31412.5158086438,-9108.537031237725,-21062.78640780287,0.0,0.0,0.0,193.0,1.0,154.0,0.0,3.0,3.0,252.0,410.0,3.0,1020.0,1744252806.3043003,0.0,2025-04-09 22:40:06.304,RIGHT,29
168.0,12479.761240453869,1303.5313848890526,-59580.74296483314,-56453.5774533245,-34151.43151896376,-31438.265018256312,-9079.055080301176,-21081.271300467408,0.0,0.0,0.0,193.0,1.0,154.0,0.0,3.0,3.0,252.0,410.0,3.0,1020.0,1744252806.3043091,0.0,2025-04-09 22:40:06.304,RIGHT,29
169.0,12612.664712985124,1350.3135860340103,-59561.38635413485,-56441.57456655199,-34136.187629245236,-31417.70141335743,-9064.07941151612,-21058.0701897228,0.0,0.0,0.0,193.0,1.0,154.0,0.0,3.0,3.0,248.0,410.0,3.0,1016.0,1744252806.3043177,0.0,2025-04-09 22:40:06.304,RIGHT,29
170.0,12582.199285292541,1360.6177402279068,-59518.42630129174,-56425.25779309962,-34068.6406575013,-31355.563563771673,-9230.01876235232,-21006.52706700886,0.0,0.0,0.0,193.0,1.0,155.0,0.0,3.0,3.0,253.0,411.0,3.0,1021.0,1744252806.3043263,0.0,2025-04-09 22:40:06.304,RIGHT,29
171.0,12507.097423922709,1347.3408040214545,-59566.21433093719,-56459.12068594941,-34106.258643419584,-31399.149465459523,-9063.31945220464,-21046.78255877287,0.0,0.0,0.0,193.0,1.0,154.0,0.0,3.0,3.0,250.0,410.0,3.0,1018.0,1744252806.304335,0.0,2025-04-09 22:40:06.304,RIGHT,29
172.0,12465.031440857822,1306.0794837569576,-59583.35811893441,-56468.642529087374,-34148.346978228925,-31433.057061798223,-9120.830490688144,-21081.98655628998,0.0,0.0,0.0,193.0,1.0,154.0,0.0,3.0,3.0,249.0,410.0,3.0,1017.0,1744252806.3043437,0.0,2025-04-09 22:40:06.304,RIGHT,29
173.0,12584.680328927081,1336.321394004988,-59585.213313724205,-56446.000211954146,-34175.57140297549,-31455.98995160937,-9023.64510579647,-21111.915542115636,0.0,0.0,0.0,193.0,1.0,154.0,0.0,3.0,3.0,251.0,410.0,3.0,1019.0,1744252806.3043523,0.0,2025-04-09 22:40:06.304,RIGHT,29
174.0,12583.9203696156,1362.3835280398762,-59545.002525449105,-56460.193569683266,-34099.84369276091,-31373.86964248057,-9307.244039445406,-21053.84571002075,0.0,0.0,0.0,193.0,1.0,154.0,0.0,3.0,3.0,249.0,410.0,3.0,1017.0,1744252806.304361,0.0,2025-04-09 22:40:06.304,RIGHT,29
175.0,12528.175118944064,1358.2037518267337,-59555.08316219845,-56437.97593569469,-34103.75524804059,-31371.075674423657,-9062.760658593257,-21020.29574159333,0.0,0.0,0.0,193.0,1.0,155.0,0.0,3.0,3.0,251.0,411.0,3.0,1019.0,1744252806.3043697,0.0,2025-04-09 22:40:06.304,RIGHT,29
176.0,12473.23453107292,1319.7811031080607,-59572.67398508477,-56469.827171543504,-34131.42670767626,-31404.26801493979,-9146.557348556204,-21058.74074205646,0.0,0.0,0.0,193.0,1.0,154.0,0.0,3.0,3.0,250.0,410.0,3.0,1018.0,1744252806.3043785,0.0,2025-04-09 22:40:06.304,RIGHT,29
177.0,12576.119610800697,1330.129960790868,-59575.24443569713,-56424.78840646606,-34175.973734375686,-31449.351483506143,-8979.63452096397,-21098.728012887004,0.0,0.0,0.0,193.0,1.0,155.0,0.0,3.0,3.0,252.0,411.0,3.0,1020.0,1744252806.304387,0.0,2025-04-09 22:40:06.304,RIGHT,29
178.0,12589.575360962792,1348.0560598440243,-59547.371810361365,-56471.12357272191,-34105.11870445236,-31369.91338371198,-9315.13420523813,-21032.92447721058,0.0,0.0,0.0,193.0,1.0,154.0,0.0,3.0,3.0,250.0,410.0,3.0,1018.0,1744252806.304396,0.0,2025-04-09 22:40:06.304,RIGHT,29
179.0,12515.389921115628,1332.9239288477813,-59563.12979020236,-56446.71546777672,-34116.94277726922,-31398.858892781605,-9077.468106444849,-21049.777692529882,0.0,0.0,0.0,193.0,1.0,154.0,0.0,3.0,3.0,249.0,410.0,3.0,1017.0,1744252806.3044045,0.0,2025-04-09 22:40:06.304,RIGHT,29
180.0,12443.238490013897,1293.8307277954493,-59596.947979563236,-56511.31200925255,-34144.68129213826,-31432.431212953477,-9182.476601895882,-21087.440381937075,0.0,0.0,0.0,193.0,1.0,155.0,0.0,3.0,3.0,252.0,411.0,3.0,1020.0,1744252806.3044133,0.0,2025-04-09 22:40:06.304,RIGHT,29
181.0,12526.163461943086,1298.8598702978934,-59591.89648531634,-56445.73199102068,-34192.737542717165,-31479.548690265263,-8994.610189749026,-21121.772661420426,0.0,0.0,0.0,193.0,1.0,154.0,0.0,3.0,3.0,250.0,410.0,3.0,1018.0,1744252806.304426,0.0,2025-04-09 22:40:06.304,RIGHT,29
182.0,12584.926198116089,1330.7558096356165,-59573.36688916289,-56504.00298881567,-34131.82903907645,-31412.336994688154,-9311.423815658549,-21073.090561996767,0.0,0.0,0.0,193.0,1.0,154.0,0.0,3.0,3.0,251.0,410.0,3.0,1019.0,1744252806.3044345,0.0,2025-04-09 22:40:06.304,RIGHT,29
183.0,12537.965183015489,1343.9209871197925,-59545.717781271676,-56435.226671126686,-34098.79316077151,-31392.376886889564,-9110.883964405533,-21040.278201136374,0.0,0.0,0.0,193.0,1.0,155.0,0.0,3.0,3.0,253.0,411.0,3.0,1021.0,1744252806.3044434,0.0,2025-04-09 22:40:06.304,RIGHT,29
184.0,12465.366717024652,1318.328239718466,-59588.54372364804,-56505.56761092754,-34130.28676870904,-31425.815096594706,-9161.28714815225,-21080.80191383385,0.0,0.0,0.0,193.0,1.0,154.0,0.0,2.0,3.0,249.0,410.0,2.0,1017.0,1744252806.3044522,0.0,2025-04-09 22:40:06.304,RIGHT,29
185.0,12519.234421161942,1311.0415710260359,-59575.89263628634,-56434.60082228194,-34172.17393781828,-31467.903431404047,-9009.697617256357,-21112.049652582366,0.0,0.0,0.0,193.0,1.0,155.0,0.0,3.0,3.0,252.0,411.0,3.0,1020.0,1744252806.3044608,0.0,2025-04-09 22:40:06.304,RIGHT,29
186.0,12590.938817374566,1331.4487137137312,-59576.49613338663,-56493.76588985514,-34145.30714098301,-31421.680023870475,-9235.941974632977,-21073.13526548568,0.0,0.0,0.0,193.0,1.0,154.0,0.0,3.0,3.0,250.0,410.0,3.0,1018.0,1744252806.3044696,0.0,2025-04-09 22:40:06.304,RIGHT,29
187.0,12537.316982426284,1331.806341625016,-59547.93060397275,-56441.865139229914,-34105.74455329711,-31394.45559912391,-9165.265758665295,-21042.289858137352,0.0,0.0,0.0,193.0,1.0,154.0,0.0,3.0,3.0,251.0,410.0,3.0,1019.0,1744252806.304478,0.0,2025-04-09 22:40:06.304,RIGHT,29
188.0,12465.634937958115,1316.584803650952,-59596.92562781878,-56507.37810222842,-34134.13126875535,-31428.720823373897,-9135.537938539737,-21076.309213198332,0.0,0.0,0.0,193.0,1.0,154.0,0.0,3.0,3.0,252.0,410.0,3.0,1020.0,1744252806.3044868,0.0,2025-04-09 22:40:06.304,RIGHT,29
189.0,12490.579484770238,1308.7169896026837,-59589.057813770516,-56456.41612487032,-34175.66080995331,-31470.60799248314,-9061.821885326133,-21117.838754396293,0.0,0.0,0.0,193.0,1.0,154.0,0.0,3.0,3.0,250.0,410.0,3.0,1018.0,1744252806.304495,0.0,2025-04-09 22:40:06.304,RIGHT,29
190.0,12593.15164007564,1332.9462805922367,-59593.08112777247,-56490.92721830931,-34171.25751629561,-31449.396186995054,-9169.66905232299,-21101.52198094392,0.0,0.0,0.0,193.0,1.0,155.0,0.0,2.0,3.0,252.0,411.0,2.0,1020.0,1744252806.304504,0.0,2025-04-09 22:40:06.304,RIGHT,29
191.0,12559.19934024803,1345.9773476096807,-59540.5545283025,-56445.150845664844,-34099.03902996052,-31385.693715297428,-9234.265593798827,-21042.02163720389,0.0,0.0,0.0,193.0,1.0,154.0,0.0,2.0,3.0,249.0,410.0,2.0,1017.0,1744252806.3045125,0.0,2025-04-09 22:40:06.304,RIGHT,29
192.0,12492.479383048938,1341.5293504630747,-59575.35619441941,-56480.75717458215,-34119.42382090376,-31410.347689431634,-9110.503984749792,-21061.288840924364,0.0,0.0,0.0,193.0,1.0,155.0,0.0,2.0,3.0,252.0,411.0,2.0,1020.0,1744252806.304521,0.0,2025-04-09 22:40:06.304,RIGHT,29
193.0,12478.777763697835,1313.0755797714687,-59578.37367992088,-56460.61825282792,-34157.46648996669,-31446.915143360515,-9099.261057288773,-21088.893245326668,0.0,0.0,0.0,193.0,1.0,154.0,0.0,3.0,3.0,251.0,410.0,3.0,1019.0,1744252806.3045297,0.0,2025-04-09 22:40:06.304,RIGHT,29
194.0,12590.022395851898,1328.5653386789966,-59589.48249691517,-56471.52590412211,-34180.33232454447,-31463.991876124368,-9091.393243240505,-21116.967036362534,0.0,0.0,0.0,193.0,1.0,154.0,0.0,2.0,3.0,249.0,410.0,2.0,1017.0,1744252806.3045382,0.0,2025-04-09 22:40:06.304,RIGHT,29
195.0,12565.435476951061,1337.1037050609239,-59540.06278992448,-56459.81359002752,-34100.08956194992,-31380.977497217358,-9291.061376459764,-21043.3180383823,0.0,0.0,0.0,193.0,1.0,155.0,0.0,2.0,3.0,252.0,411.0,2.0,1020.0,1744252806.3045468,0.0,2025-04-09 22:40:06.304,RIGHT,29
196.0,12502.850592476201,1342.5351789635633,-59564.89557801433,-56467.03320348659,-34113.92529176775,-31402.65868933901,-9094.857763631078,-21068.128474727688,0.0,0.0,0.0,193.0,1.0,155.0,0.0,2.0,3.0,252.0,411.0,2.0,1020.0,1744252806.3045597,0.0,2025-04-09 22:40:06.304,RIGHT,29
197.0,12459.689373933003,1308.7169896026837,-59581.05588925551,-56479.01373851464,-34150.91742884128,-31431.000701308338,-9152.055877692208,-21086.523960414408,0.0,0.0,0.0,193.0,1.0,154.0,0.0,2.0,3.0,250.0,410.0,2.0,1018.0,1744252806.3045683,0.0,2025-04-09 22:40:06.304,RIGHT,29
198.0,12566.038974051355,1312.9638210491921,-59596.99268305215,-56462.138171450875,-34199.2195486092,-31477.64879198656,-9032.183472178396,-21133.32851330382,0.0,0.0,0.0,193.0,1.0,155.0,0.0,2.0,3.0,252.0,411.0,2.0,1020.0,1744252806.3045769,0.0,2025-04-09 22:40:06.304,RIGHT,29
199.0,12569.279976997374,1335.6955451602394,-59552.333897630444,-56480.533657137596,-34112.58418710044,-31381.31277338419,-9338.201205516007,-21047.27429715089,0.0,0.0,0.0,193.0,1.0,154.0,0.0,2.0,3.0,249.0,410.0,2.0,1017.0,1744252806.3045857,0.0,2025-04-09 22:40:06.304,RIGHT,29
200.0,12517.267467649874,1346.0891063319573,-59561.2075401792,-56454.47152310271,-34112.29361442252,-31390.49934035532,-9080.70910939087,-21044.994419216448,0.0,0.0,0.0,193.0,1.0,154.0,0.0,2.0,3.0,251.0,410.0,2.0,1019.0,1744252806.3045943,0.0,2025-04-09 22:40:06.304,RIGHT,29
201.0,12459.979946610922,1307.3535331909102,-59590.80124983803,-56503.75711962666,-34147.11763228389,-31429.54783791874,-9173.245331435839,-21088.781486604392,0.0,0.0,0.0,193.0,1.0,155.0,0.0,2.0,3.0,252.0,411.0,2.0,1020.0,1744252806.3046029,0.0,2025-04-09 22:40:06.304,RIGHT,29
202.0,12564.206131006018,1321.2786699865665,-59582.97813927867,-56445.441418342765,-34185.62968798038,-31467.81402442623,-8993.559657759626,-21110.239161281486,0.0,0.0,0.0,193.0,1.0,154.0,0.0,2.0,3.0,249.0,410.0,2.0,1017.0,1744252806.3046112,0.0,2025-04-09 22:40:06.304,RIGHT,29
203.0,12591.363500519217,1342.0210888410913,-59555.93252848775,-56495.59873290047,-34115.221692946165,-31387.705372298406,-9321.482100663436,-21042.647486048638,0.0,0.0,0.0,193.0,1.0,154.0,0.0,2.0,3.0,251.0,410.0,2.0,1019.0,1744252806.3046198,0.0,2025-04-09 22:40:06.304,RIGHT,29
204.0,12525.582316587248,1340.1211905623902,-59556.26780465458,-56451.94577597926,-34108.82909403194,-31395.17085494648,-9080.865571602055,-21037.506584823917,0.0,0.0,0.0,193.0,1.0,155.0,0.0,2.0,3.0,252.0,411.0,2.0,1020.0,1744252806.3046284,0.0,2025-04-09 22:40:06.304,RIGHT,29
205.0,12451.553338951271,1309.4322454252535,-59593.93049406177,-56517.90577386687,-34138.04282403503,-31428.609064651617,-9174.362918658606,-21079.952547544544,0.0,0.0,0.0,193.0,1.0,154.0,0.0,2.0,3.0,250.0,410.0,2.0,1018.0,1744252806.3046367,0.0,2025-04-09 22:40:06.304,RIGHT,29
206.0,12524.151804942108,1305.1854139787454,-59585.95092129122,-56448.74947652215,-34184.75796994662,-31476.151225108057,-8992.263256581218,-21116.788222406893,0.0,0.0,0.0,193.0,1.0,155.0,0.0,2.0,3.0,252.0,411.0,2.0,1020.0,1744252806.3046455,0.0,2025-04-09 22:40:06.304,RIGHT,29
207.0,12580.925235858589,1327.2465857561333,-59573.63511009635,-56512.42959647532,-34130.82321057597,-31416.516770901297,-9289.630864814624,-21075.437495164573,0.0,0.0,0.0,193.0,1.0,155.0,0.0,2.0,3.0,250.0,411.0,2.0,1018.0,1744252806.3046544,0.0,2025-04-09 22:40:06.304,RIGHT,29
208.0,12521.849575263212,1326.8889578448484,-59551.55158657451,-56453.42099111331,-34106.45980911968,-31402.50222712782,-9130.799368715212,-21057.578451344783,0.0,0.0,0.0,193.0,1.0,155.0,0.0,2.0,3.0,249.0,411.0,2.0,1017.0,1744252806.3046627,0.0,2025-04-09 22:40:06.304,RIGHT,29
209.0,12446.255975515363,1298.0552074975024,-59597.55147666353,-56522.756102413674,-34135.29355946703,-31424.965730305405,-9167.210360432908,-21077.40444867664,0.0,0.0,0.0,193.0,1.0,155.0,0.0,2.0,3.0,252.0,411.0,2.0,1020.0,1744252806.3046715,0.0,2025-04-09 22:40:06.304,RIGHT,29
210.0,12493.932246438533,1285.4935271136198,-59584.855685812916,-56452.638680057375,-34170.363446517404,-31461.734349934384,-9008.155346888941,-21094.50353318495,0.0,0.0,0.0,193.0,1.0,154.0,0.0,2.0,3.0,250.0,410.0,2.0,1018.0,1744252806.3046808,0.0,2025-04-09 22:40:06.304,RIGHT,29
211.0,12560.629851893169,1287.6392945813293,-59604.03348255557,-56520.655038434874,-34166.80951914901,-31442.46714621391,-9215.624238923101,-21089.65320463815,0.0,0.0,0.0,193.0,1.0,154.0,0.0,2.0,3.0,248.0,410.0,2.0,1016.0,1744252806.3046937,0.0,2025-04-09 22:40:06.304,RIGHT,29
212.0,12518.04977870581,1298.681056342251,-59561.02872622356,-56462.31698540652,-34110.12549521035,-31397.584843347653,-9184.82353506369,-21044.681494794073,0.0,0.0,0.0,193.0,1.0,155.0,0.0,2.0,3.0,252.0,411.0,2.0,1020.0,1744252806.3047023,0.0,2025-04-09 22:40:06.304,RIGHT,29
213.0,12438.522271933827,1280.9784747336478,-59609.44260471375,-56522.42082624684,-34140.0097775471,-31432.855896098128,-9124.451473289904,-21076.59978587625,0.0,0.0,0.0,193.0,1.0,154.0,0.0,2.0,3.0,249.0,410.0,2.0,1017.0,1744252806.304711,0.0,2025-04-09 22:40:06.304,RIGHT,29
214.0,12436.197690510475,1248.9931284181034,-59608.03444481307,-56478.164372225336,-34184.10976935742,-31467.61285872613,-9067.722745862335,-21088.155637759643,0.0,0.0,0.0,193.0,1.0,155.0,0.0,2.0,3.0,252.0,411.0,2.0,1020.0,1744252806.3047197,0.0,2025-04-09 22:40:06.304,RIGHT,29
215.0,12535.618249847681,1261.4430500797093,-59615.94696235025,-56507.06517780604,-34186.166129847305,-31463.65659995754,-9146.199720644918,-21093.967091318023,0.0,0.0,0.0,193.0,1.0,154.0,0.0,2.0,3.0,250.0,410.0,2.0,1018.0,1744252806.3047285,0.0,2025-04-09 22:40:06.304,RIGHT,29
216.0,12498.402595329595,1276.485774098131,-59565.18615069224,-56466.98849999768,-34109.14201845432,-31394.187378190447,-9255.991489409387,-21029.996398686933,0.0,0.0,0.0,193.0,1.0,153.0,0.0,2.0,3.0,249.0,409.0,2.0,1017.0,1744252806.304737,0.0,2025-04-09 22:40:06.304,RIGHT,29
217.0,12439.393989967584,1276.195201420212,-59590.108345759916,-56482.41120367184,-34115.4005069018,-31409.051288253224,-9099.842202644611,-21039.518241824895,0.0,0.0,0.0,193.0,1.0,154.0,0.0,2.0,3.0,252.0,410.0,2.0,1020.0,1744252806.3047457,0.0,2025-04-09 22:40:06.304,RIGHT,29
218.0,12409.867335542123,1231.0223258760366,-59604.502869189135,-56474.20811345674,-34160.305161512515,-31450.446718984454,-9111.08513010563,-21076.063344009322,0.0,0.0,0.0,193.0,1.0,155.0,0.0,2.0,3.0,252.0,411.0,2.0,1020.0,1744252806.3047545,0.0,2025-04-09 22:40:06.304,RIGHT,29
219.0,12522.408368874594,1254.0222709205475,-59603.76526162211,-56458.584244082485,-34174.94555413074,-31456.593448709664,-9060.525484147725,-21082.254777223443,0.0,0.0,0.0,193.0,1.0,154.0,0.0,2.0,3.0,251.0,410.0,2.0,1019.0,1744252806.3047633,0.0,2025-04-09 22:40:06.304,RIGHT,29
220.0,12499.050795918798,1265.645178037307,-59557.05011571052,-56450.73878177867,-34090.947698467695,-31374.11551166958,-9284.758184523367,-21005.11890710818,0.0,0.0,0.0,193.0,1.0,155.0,0.0,2.0,3.0,251.0,411.0,2.0,1019.0,1744252806.304772,0.0,2025-04-09 22:40:06.304,RIGHT,29
221.0,12426.74290260588,1250.9824336746258,-59590.13069750437,-56457.958395237736,-34112.60653884489,-31405.810285307205,-9073.377737209528,-21024.475517806473,0.0,0.0,0.0,193.0,1.0,154.0,0.0,2.0,3.0,250.0,410.0,2.0,1018.0,1744252806.3047807,0.0,2025-04-09 22:40:06.304,RIGHT,29
222.0,12379.156038660532,1210.8610523773496,-59608.57088668,-56475.97390126871,-34146.44707995022,-31438.60029442314,-9153.32992712616,-21061.490006624463,0.0,0.0,0.0,193.0,1.0,154.0,0.0,2.0,3.0,251.0,410.0,2.0,1019.0,1744252806.3047895,0.0,2025-04-09 22:40:06.304,RIGHT,29
223.0,12493.172287127052,1231.201139831679,-59604.74873837814,-56427.805891967524,-34178.81240592151,-31461.510832489832,-9003.774404975702,-21082.679460368094,0.0,0.0,0.0,193.0,1.0,155.0,0.0,2.0,3.0,252.0,411.0,2.0,1020.0,1744252806.3047984,0.0,2025-04-09 22:40:06.304,RIGHT,29
224.0,12493.798135971801,1248.8813696958268,-59574.573883363475,-56457.399601626355,-34106.683326564234,-31379.79285476123,-9323.873737320155,-21017.05473864731,0.0,0.0,0.0,193.0,1.0,155.0,0.0,2.0,3.0,252.0,411.0,2.0,1020.0,1744252806.3048067,0.0,2025-04-09 22:40:06.304,RIGHT,29
225.0,12421.1326147476,1238.398401546288,-59597.37266270789,-56436.03133392708,-34123.62594886136,-31403.128075972567,-9087.682853660925,-21031.382206843165,0.0,0.0,0.0,193.0,1.0,154.0,0.0,2.0,3.0,249.0,410.0,2.0,1017.0,1744252806.3048155,0.0,2025-04-09 22:40:06.304,RIGHT,29
226.0,12346.63425047806,1192.8008428574615,-59632.82252941401,-56491.59777064297,-34157.55589694451,-31438.823811867693,-9184.331796685672,-21068.88843403917,0.0,0.0,0.0,193.0,1.0,154.0,0.0,2.0,3.0,251.0,410.0,2.0,1019.0,1744252806.3048284,0.0,2025-04-09 22:40:06.304,RIGHT,29
227.0,12459.890539633101,1220.3828955153103,-59609.0179215691,-56413.65723772732,-34182.52279550109,-31466.584678481184,-8987.614093734515,-21091.866027339223,0.0,0.0,0.0,193.0,1.0,155.0,0.0,2.0,3.0,252.0,411.0,2.0,1020.0,1744252806.3048372,0.0,2025-04-09 22:40:06.304,RIGHT,29
228.0,12493.216990615963,1237.6384422348074,-59589.50484865962,-56468.26254943163,-34123.402431416805,-31395.4614276244,-9317.79406282831,-21036.634866790162,0.0,0.0,0.0,193.0,1.0,154.0,0.0,2.0,3.0,250.0,410.0,2.0,1018.0,1744252806.304846,0.0,2025-04-09 22:40:06.304,RIGHT,29
229.0,12435.638896899092,1238.3760498018326,-59584.81098232401,-56421.74856922014,-34113.969995256666,-31398.74713405933,-9102.99379861281,-21029.571715542283,0.0,0.0,0.0,193.0,1.0,154.0,0.0,2.0,3.0,252.0,410.0,2.0,1020.0,1744252806.3048544,0.0,2025-04-09 22:40:06.304,RIGHT,29
230.0,12376.227960136886,1226.328459540422,-59609.867287858404,-56474.07400299001,-34125.347033184415,-31405.87734054057,-9164.103467953619,-21032.388035343654,0.0,0.0,0.0,193.0,1.0,154.0,0.0,2.0,3.0,250.0,410.0,2.0,1018.0,1744252806.3048632,0.0,2025-04-09 22:40:06.304,RIGHT,29
231.0,12446.971231337933,1227.133122340813,-59598.624360397385,-56402.2131445662,-34168.10592032742,-31456.816966154216,-8981.869695409501,-21078.343221943764,0.0,0.0,0.0,193.0,1.0,154.0,0.0,2.0,3.0,249.0,410.0,2.0,1017.0,1744252806.304872,0.0,2025-04-09 22:40:06.304,RIGHT,29
232.0,12507.656217534091,1245.3050905829778,-59595.60687489592,-56468.55312210955,-34128.81155357499,-31402.904558528015,-9255.611509753646,-21031.44926207653,0.0,0.0,0.0,193.0,1.0,155.0,0.0,2.0,3.0,252.0,411.0,2.0,1020.0,1744252806.3048804,0.0,2025-04-09 22:40:06.304,RIGHT,29
233.0,12466.551359480782,1264.035852436525,-59559.15117968931,-56400.201487565224,-34085.784445498524,-31366.62767727705,-9128.206566358396,-20986.097572576713,0.0,0.0,0.0,193.0,1.0,155.0,0.0,2.0,3.0,251.0,411.0,2.0,1019.0,1744252806.3048892,0.0,2025-04-09 22:40:06.304,RIGHT,29
234.0,12401.17250694901,1252.6364627643184,-59598.15497376383,-56461.869950517415,-34106.59391958641,-31396.087276469145,-9130.151168126007,-21020.452203804518,0.0,0.0,0.0,193.0,1.0,155.0,0.0,2.0,3.0,252.0,411.0,2.0,1020.0,1744252806.304898,0.0,2025-04-09 22:40:06.304,RIGHT,29
235.0,12427.525213661816,1225.903776395771,-59600.90423833183,-56417.1664616068,-34160.931010357264,-31457.867498143616,-9015.598477792559,-21073.649355608148,0.0,0.0,0.0,193.0,1.0,155.0,0.0,2.0,3.0,252.0,411.0,2.0,1020.0,1744252806.3049066,0.0,2025-04-09 22:40:06.304,RIGHT,29
236.0,12519.770863028869,1244.455724293676,-59608.95086633574,-56476.01860475762,-34149.822193362976,-31437.84033511166,-9195.306503213227,-21070.676573595592,0.0,0.0,0.0,193.0,1.0,154.0,0.0,2.0,3.0,250.0,410.0,2.0,1018.0,1744252806.3049152,0.0,2025-04-09 22:40:06.304,RIGHT,29
237.0,12488.433717302529,1272.909494985282,-59557.094819199425,-56416.65237148433,-34085.918555965254,-31375.30015412571,-9198.256933481329,-21007.309378064798,0.0,0.0,0.0,193.0,1.0,154.0,0.0,2.0,3.0,252.0,410.0,2.0,1020.0,1744252806.3049238,0.0,2025-04-09 22:40:06.304,RIGHT,29
238.0,12426.765254350335,1273.3341781299328,-59589.34838644844,-56454.29270914706,-34104.448152118704,-31391.952203744913,-9118.70707496489,-21024.296703850832,0.0,0.0,0.0,193.0,1.0,154.0,0.0,2.0,3.0,251.0,410.0,2.0,1019.0,1744252806.3049324,0.0,2025-04-09 22:40:06.304,RIGHT,29
239.0,12427.100530517166,1245.8415324499051,-59596.79151735205,-56427.805891967524,-34154.44900446523,-31444.344692748153,-9077.51280993376,-21073.716410841516,0.0,0.0,0.0,193.0,1.0,155.0,0.0,2.0,3.0,252.0,411.0,2.0,1020.0,1744252806.3049407,0.0,2025-04-09 22:40:06.304,RIGHT,29
240.0,12534.81358704729,1271.2331141511338,-59607.20743026822,-56455.41029636983,-34167.34596101594,-31447.85391662764,-9116.740121452824,-21082.724163857005,0.0,0.0,0.0,193.0,1.0,154.0,0.0,2.0,3.0,251.0,410.0,2.0,1019.0,1744252806.3049493,0.0,2025-04-09 22:40:06.304,RIGHT,29
241.0,12511.366607113672,1291.3496841609103,-59547.08123768345,-56417.41233079581,-34078.69894250619,-31361.196203374413,-9244.63680322609,-20997.564017482284,0.0,0.0,0.0,193.0,1.0,155.0,0.0,2.0,3.0,251.0,411.0,2.0,1019.0,1744252806.3049622,0.0,2025-04-09 22:40:06.304,RIGHT,29
242.0,12450.234586028408,1287.6616463257847,-59585.12390674638,-56442.155711907835,-34105.47633236365,-31390.476988610866,-9075.054118043676,-21024.8107939733,0.0,0.0,0.0,193.0,1.0,154.0,0.0,2.0,3.0,249.0,410.0,2.0,1017.0,1744252806.3049707,0.0,2025-04-09 22:40:06.304,RIGHT,29
243.0,12416.639914112082,1245.2380353496117,-59606.536877934566,-56453.15277017985,-34157.69000741124,-31437.773279878293,-9124.205604100896,-21065.088637481767,0.0,0.0,0.0,193.0,1.0,154.0,0.0,2.0,3.0,252.0,410.0,2.0,1020.0,1744252806.3049793,0.0,2025-04-09 22:40:06.304,RIGHT,29
244.0,12530.566755600781,1262.6053407913853,-59609.84493611395,-56440.23346188468,-34178.58888847696,-31461.510832489832,-9033.748094290268,-21087.55214065935,0.0,0.0,0.0,193.0,1.0,155.0,0.0,2.0,3.0,250.0,411.0,2.0,1018.0,1744252806.7841945,0.0,2025-04-09 22:40:06.784,RIGHT,29
245.0,12526.275220665362,1282.364282889877,-59559.754676789606,-56444.27912763109,-34089.8971664783,-31375.88129948155,-9294.682359061522,-21020.943942182534,0.0,0.0,0.0,193.0,1.0,154.0,0.0,2.0,3.0,249.0,410.0,2.0,1017.0,1744252806.784233,0.0,2025-04-09 22:40:06.784,RIGHT,29
246.0,12468.56301648176,1288.6898265707287,-59576.540836875545,-56432.3209443475,-34097.36264912637,-31390.387581633044,-9060.391373680994,-21025.43664281805,0.0,0.0,0.0,193.0,1.0,155.0,0.0,2.0,3.0,251.0,411.0,2.0,1019.0,1744252806.7842536,0.0,2025-04-09 22:40:06.784,RIGHT,29
247.0,12423.07721651521,1261.063070423969,-59591.784726594065,-56457.35489813744,-34127.939835541234,-31415.622701123084,-9141.841130476134,-21051.856404764225,0.0,0.0,0.0,193.0,1.0,154.0,0.0,2.0,3.0,250.0,410.0,2.0,1018.0,1744252806.784271,0.0,2025-04-09 22:40:06.784,RIGHT,29
248.0,12532.220784690475,1282.3419311454215,-59590.6671393713,-56410.326827803474,-34168.15062381633,-31454.2241637974,-8974.650081950436,-21084.288785968874,0.0,0.0,0.0,193.0,1.0,154.0,0.0,2.0,3.0,249.0,410.0,2.0,1017.0,1744252806.7842915,0.0,2025-04-09 22:40:06.784,RIGHT,29
249.0,12538.14399697113,1292.6907888282287,-59567.42132513778,-56458.13720919338,-34101.877701506346,-31383.16796817398,-9304.450071388492,-21031.672779521083,0.0,0.0,0.0,193.0,1.0,155.0,0.0,2.0,3.0,252.0,411.0,2.0,1020.0,1744252806.7843091,0.0,2025-04-09 22:40:06.784,RIGHT,29
250.0,12482.734022466424,1297.4740621416643,-59568.87418852737,-56416.87588892888,-34097.13913168182,-31380.59751756162,-9054.624623611526,-20998.16751458258,0.0,0.0,0.0,193.0,1.0,154.0,0.0,2.0,3.0,252.0,410.0,2.0,1020.0,1744252806.7843268,0.0,2025-04-09 22:40:06.784,RIGHT,29
251.0,12417.757501334847,1266.8968757268044,-59600.792479609554,-56469.15661920985,-34129.63856811984,-31404.469180639888,-9145.32800261116,-21024.743738739937,0.0,0.0,0.0,193.0,1.0,154.0,0.0,2.0,3.0,249.0,410.0,2.0,1017.0,1744252806.7843444,0.0,2025-04-09 22:40:06.784,RIGHT,29
252.0,12507.276237878352,1270.6743205397513,-59592.32116846099,-56403.487194000154,-34171.771606418086,-31455.386454509076,-8956.545168941639,-21075.482198653484,0.0,0.0,0.0,193.0,1.0,154.0,0.0,2.0,3.0,251.0,410.0,2.0,1019.0,1744252806.784362,0.0,2025-04-09 22:40:06.784,RIGHT,29
253.0,12552.896148311633,1293.2495824396112,-59573.18807520725,-56461.311156906035,-34114.998175501605,-31385.17962517496,-9290.569638081746,-21037.26071563491,0.0,0.0,0.0,193.0,1.0,154.0,0.0,2.0,3.0,252.0,410.0,2.0,1020.0,1744252806.784371,0.0,2025-04-09 22:40:06.784,RIGHT,29
254.0,12505.443394833017,1306.3030012015106,-59551.75275227461,-56399.240362553646,-34091.28297463453,-31368.72874125585,-9091.616760685058,-21003.800154185315,0.0,0.0,0.0,193.0,1.0,154.0,0.0,2.0,3.0,251.0,410.0,2.0,1019.0,1744252806.78438,0.0,2025-04-09 22:40:06.784,RIGHT,29
255.0,12438.07523704472,1284.9570852466925,-59585.772107335586,-56463.9263110073,-34111.35484115539,-31399.618852093085,-9151.05004919172,-21042.647486048638,0.0,0.0,0.0,193.0,1.0,155.0,0.0,2.0,3.0,252.0,411.0,2.0,1020.0,1744252806.784423,0.0,2025-04-09 22:40:06.784,RIGHT,29
0.0,12501.28597036433,1282.6325038233406,-59576.40672640881,-56392.087804327944,-34158.85229812292,-31439.002625823337,-8982.294378554152,-21065.98270725998,0.0,0.0,0.0,193.0,1.0,155.0,0.0,2.0,3.0,249.0,411.0,2.0,1017.0,1744252806.7844324,0.0,2025-04-09 22:40:06.784,RIGHT,29
1.0,12575.225541022486,1312.4497309267201,-59567.35426990441,-56442.98272645268,-34116.674556335754,-31382.229194906857,-9229.39291350757,-21020.25103810442,0.0,0.0,0.0,193.0,1.0,155.0,0.0,2.0,3.0,251.0,411.0,2.0,1019.0,1744252806.7844412,0.0,2025-04-09 22:40:06.784,RIGHT,29
2.0,12521.514299096383,1320.0493240415244,-59535.078350910946,-56381.91776060078,-34071.92636393623,-31354.133052126534,-9115.399016785505,-20990.0538313453,0.0,0.0,0.0,193.0,1.0,155.0,0.0,2.0,3.0,252.0,411.0,2.0,1020.0,1744252806.78445,0.0,2025-04-09 22:40:06.784,RIGHT,29
3.0,12444.758408636859,1297.16113771929,-59585.07920325747,-56452.99630796866,-34108.69498356521,-31392.68981131194,-9115.108444107585,-21041.664009292606,0.0,0.0,0.0,193.0,1.0,155.0,0.0,2.0,3.0,249.0,411.0,2.0,1017.0,1744252806.7844589,0.0,2025-04-09 22:40:06.784,RIGHT,29
4.0,12473.838028173212,1283.6606840682846,-59573.99273800764,-56395.75349041862,-34151.31976024148,-31426.55270416173,-9030.26122215524,-21067.59203286076,0.0,0.0,0.0,193.0,1.0,154.0,0.0,2.0,3.0,250.0,410.0,2.0,1018.0,1744252806.7844677,0.0,2025-04-09 22:40:06.784,RIGHT,29
5.0,12581.72989865898,1312.0697512709799,-59572.65163334032,-56433.818511226,-34137.595789145926,-31403.664517839497,-9160.080153951663,-21055.27622166589,0.0,0.0,0.0,193.0,1.0,154.0,0.0,2.0,3.0,251.0,410.0,2.0,1019.0,1744252806.7844768,0.0,2025-04-09 22:40:06.784,RIGHT,29
6.0,12536.020581247876,1321.3010217310216,-59525.802376962,-56389.56205720449,-34071.36757032485,-31350.132089869036,-9189.785622332767,-20990.34440402322,0.0,0.0,0.0,193.0,1.0,154.0,0.0,2.0,3.0,249.0,410.0,2.0,1017.0,1744252806.7844856,0.0,2025-04-09 22:40:06.784,RIGHT,29
7.0,12472.854551417178,1319.1105507744016,-59562.79451403553,-56431.65039201384,-34095.37334386985,-31380.64222105053,-9085.917065848955,-21018.976988670467,0.0,0.0,0.0,193.0,1.0,154.0,0.0,2.0,3.0,251.0,410.0,2.0,1019.0,1744252806.7844944,0.0,2025-04-09 22:40:06.784,RIGHT,29
8.0,12465.94786238049,1288.0863294704354,-59566.23668268164,-56409.700978958725,-34136.4558501787,-31428.810230351715,-9070.919045319444,-21071.995326518456,0.0,0.0,0.0,193.0,1.0,154.0,0.0,2.0,3.0,250.0,410.0,2.0,1018.0,1744252806.7845032,0.0,2025-04-09 22:40:06.784,RIGHT,29
9.0,12578.175971290586,1315.578975150463,-59572.182246706754,-56421.3685895644,-34148.74930962912,-31437.303893244734,-9072.260149986763,-21090.569626160817,0.0,0.0,0.0,193.0,1.0,154.0,0.0,2.0,3.0,249.0,410.0,2.0,1017.0,1744252806.7845118,0.0,2025-04-09 22:40:06.784,RIGHT,29
10.0,12550.213938976996,1324.6537833993177,-59525.355342072886,-56405.00711262311,-34074.47446280414,-31360.43624406293,-9248.526006761314,-21013.143183367632,0.0,0.0,0.0,193.0,1.0,155.0,0.0,2.0,3.0,252.0,411.0,2.0,1020.0,1744252806.7845206,0.0,2025-04-09 22:40:06.784,RIGHT,29
11.0,12476.140257852108,1312.4720826711755,-59563.68858381374,-56429.19170012375,-34099.28489914953,-31389.69467755493,-9055.675155600924,-21023.179116628067,0.0,0.0,0.0,193.0,1.0,154.0,0.0,2.0,3.0,249.0,410.0,2.0,1017.0,1744252806.7845297,0.0,2025-04-09 22:40:06.784,RIGHT,29
12.0,12440.377466723618,1276.5975328204077,-59579.78183982156,-56443.87679623089,-34139.76390835809,-31424.98808204986,-9113.365008040073,-21060.35006765724,0.0,0.0,0.0,193.0,1.0,155.0,0.0,2.0,3.0,251.0,411.0,2.0,1019.0,1744252806.784538,0.0,2025-04-09 22:40:06.784,RIGHT,29
13.0,12566.038974051355,1308.7169896026837,-59574.015089752094,-56411.0644353705,-34163.23324003616,-31438.533239189775,-9010.099948656554,-21080.533692900382,0.0,0.0,0.0,193.0,1.0,155.0,0.0,2.0,3.0,252.0,411.0,2.0,1020.0,1744252806.7845469,0.0,2025-04-09 22:40:06.784,RIGHT,29
14.0,12560.786314104356,1326.64308865584,-59534.810129977486,-56428.90112744584,-34087.41612284376,-31356.72585448335,-9303.801870799289,-21011.846782189226,0.0,0.0,0.0,193.0,1.0,154.0,0.0,2.0,3.0,249.0,410.0,2.0,1017.0,1744252806.7845557,0.0,2025-04-09 22:40:06.784,RIGHT,29
15.0,12498.983740685433,1324.7655421215943,-59554.94905173172,-56417.680551729274,-34092.40056185729,-31380.709276283895,-9050.310736931651,-21024.96725618449,0.0,0.0,0.0,193.0,1.0,154.0,0.0,2.0,3.0,251.0,410.0,2.0,1019.0,1744252806.7846231,0.0,2025-04-09 22:40:06.784,RIGHT,29
16.0,12439.617507412137,1287.259314925589,-59579.15599097681,-56458.785409782584,-34120.720222082164,-31411.375869676576,-9127.893641936022,-21052.79517803135,0.0,0.0,0.0,193.0,1.0,155.0,0.0,2.0,3.0,252.0,411.0,2.0,1020.0,1744252806.7846322,0.0,2025-04-09 22:40:06.784,RIGHT,29
17.0,12547.174101731074,1309.9239838032704,-59571.578749606466,-56401.49788874363,-34159.63460917886,-31446.26694277131,-8956.589872430548,-21082.947681301557,0.0,0.0,0.0,193.0,1.0,154.0,0.0,2.0,3.0,250.0,410.0,2.0,1018.0,1744252806.7846408,0.0,2025-04-09 22:40:06.784,RIGHT,29
18.0,12569.8164188643,1326.777199122572,-59545.762484760584,-56451.096409689955,-34093.56285256897,-31372.528537813254,-9304.159498710573,-21030.130509153667,0.0,0.0,0.0,193.0,1.0,155.0,0.0,2.0,3.0,252.0,411.0,2.0,1020.0,1744252806.78465,0.0,2025-04-09 22:40:06.784,RIGHT,29
19.0,12511.031330946844,1325.5255014330749,-59544.55549056,-56407.264638813096,-34085.53857630951,-31376.93183147095,-9051.897710787978,-21020.67572124907,0.0,0.0,0.0,193.0,1.0,155.0,0.0,2.0,3.0,252.0,411.0,2.0,1020.0,1744252806.784659,0.0,2025-04-09 22:40:06.784,RIGHT,29
20.0,12438.209347511453,1287.7063498146952,-59582.64286311184,-56470.07304073251,-34116.8533702914,-31404.156256217513,-9143.942194454932,-21047.78838727336,0.0,0.0,0.0,193.0,1.0,154.0,0.0,2.0,3.0,249.0,410.0,2.0,1017.0,1744252806.7846675,0.0,2025-04-09 22:40:06.784,RIGHT,29
21.0,12518.943848484023,1292.2437539391226,-59573.72451707417,-56395.82054565198,-34161.847431879934,-31436.968617077902,-8956.299299752629,-21061.512358368916,0.0,0.0,0.0,193.0,1.0,154.0,0.0,2.0,3.0,252.0,410.0,2.0,1020.0,1744252806.7846766,0.0,2025-04-09 22:40:06.784,RIGHT,29
22.0,12569.794067119845,1316.1377687618458,-59562.63805182434,-56459.23244467169,-34109.209073687685,-31378.988191960838,-9271.324786105728,-21025.995436429435,0.0,0.0,0.0,193.0,1.0,154.0,0.0,2.0,3.0,248.0,410.0,2.0,1016.0,1744252806.7846854,0.0,2025-04-09 22:40:06.784,RIGHT,29
23.0,12520.57552582926,1326.4642747001976,-59541.96268820318,-56400.38030152086,-34085.94090770971,-31367.611154033086,-9092.711996163369,-21003.68839546304,0.0,0.0,0.0,193.0,1.0,154.0,0.0,2.0,3.0,251.0,410.0,2.0,1019.0,1744252806.784694,0.0,2025-04-09 22:40:06.784,RIGHT,29
24.0,12441.048019057276,1295.4400533962314,-59588.633130625865,-56475.03512800159,-34119.73674532613,-31404.200959706424,-9144.8586159776,-21043.250983148933,0.0,0.0,0.0,193.0,1.0,154.0,0.0,2.0,3.0,252.0,410.0,2.0,1020.0,1744252806.784703,0.0,2025-04-09 22:40:06.784,RIGHT,29
25.0,12491.630016759636,1283.392463134821,-59579.044232254535,-56408.225763824674,-34160.14869930133,-31447.876268372092,-8996.688901983369,-21078.49968415495,0.0,0.0,0.0,193.0,1.0,154.0,0.0,2.0,3.0,249.0,410.0,2.0,1017.0,1744252806.7847118,0.0,2025-04-09 22:40:06.784,RIGHT,29
26.0,12579.874703869189,1320.6081176529071,-59568.31539491599,-56454.06919170251,-34121.591940115926,-31396.288442169243,-9212.115015043619,-21045.55321282783,0.0,0.0,0.0,193.0,1.0,153.0,0.0,2.0,3.0,250.0,409.0,2.0,1018.0,1744252806.7847247,0.0,2025-04-09 22:40:06.784,RIGHT,29
27.0,12536.802892303813,1334.5109027041083,-59525.355342072886,-56389.13737405984,-34069.6911894907,-31350.24384859131,-9148.323136368172,-20998.122811093668,0.0,0.0,0.0,193.0,1.0,154.0,0.0,2.0,3.0,250.0,410.0,2.0,1018.0,1744252806.7847376,0.0,2025-04-09 22:40:06.784,RIGHT,29
28.0,12461.879844889623,1314.7072571167062,-59576.27261594208,-56454.15859868033,-34105.074000963454,-31387.928889742958,-9116.069569119165,-21032.142166154645,0.0,0.0,0.0,193.0,1.0,153.0,0.0,2.0,3.0,250.0,409.0,2.0,1018.0,1744252806.784748,0.0,2025-04-09 22:40:06.784,RIGHT,29
29.0,12471.356984538674,1287.2146114366785,-59579.29010144355,-56411.466766770696,-34152.50440269761,-31431.492439686353,-9040.49832111577,-21061.758227557926,0.0,0.0,0.0,193.0,1.0,155.0,0.0,2.0,3.0,252.0,411.0,2.0,1020.0,1744252806.784757,0.0,2025-04-09 22:40:06.784,RIGHT,29
30.0,12582.020471336898,1322.5303676760636,-59573.43394439625,-56435.20431938223,-34134.33243445545,-31406.92787252997,-9125.971391912864,-21045.64261980565,0.0,0.0,0.0,193.0,1.0,154.0,0.0,2.0,3.0,250.0,410.0,2.0,1018.0,1744252806.7847724,0.0,2025-04-09 22:40:06.784,RIGHT,29
31.0,12538.523976626871,1330.2640712575999,-59533.51372879908,-56404.180098078265,-34074.83209071542,-31355.72002598286,-9198.078119525686,-20995.127677336655,0.0,0.0,0.0,193.0,1.0,154.0,0.0,2.0,3.0,248.0,410.0,2.0,1016.0,1744252806.7847812,0.0,2025-04-09 22:40:06.784,RIGHT,29
32.0,12474.508580506872,1319.7140478746949,-59576.1608572198,-56446.44724684325,-34106.057477719485,-31390.11936069958,-9082.31843499165,-21030.108157409213,0.0,0.0,0.0,193.0,1.0,155.0,0.0,2.0,3.0,251.0,411.0,2.0,1019.0,1744252806.78479,0.0,2025-04-09 22:40:06.784,RIGHT,29
33.0,12458.169455310042,1292.4672713836756,-59577.6137206094,-56428.565851279,-34144.94951307172,-31427.89380882905,-9097.51762122126,-21072.08473349628,0.0,0.0,0.0,193.0,1.0,154.0,0.0,2.0,3.0,250.0,410.0,2.0,1018.0,1744252806.7847986,0.0,2025-04-09 22:40:06.784,RIGHT,29
34.0,12571.984538076465,1315.8248443394714,-59580.69826134423,-56428.67761000129,-34160.19340279024,-31436.812154866715,-9065.196998738886,-21084.735820857983,0.0,0.0,0.0,193.0,1.0,155.0,0.0,2.0,3.0,252.0,411.0,2.0,1020.0,1744252806.7848072,0.0,2025-04-09 22:40:06.784,RIGHT,29
35.0,12549.923366299077,1329.772332879583,-59531.68088575374,-56417.747606962635,-34075.41323607126,-31348.098081123604,-9265.379222080615,-20993.33953778023,0.0,0.0,0.0,193.0,1.0,154.0,0.0,2.0,3.0,250.0,410.0,2.0,1018.0,1744252806.7848165,0.0,2025-04-09 22:40:06.784,RIGHT,29
36.0,12490.914760937067,1329.8170363684937,-59560.26876691208,-56426.129511133375,-34094.032239202534,-31375.367209359076,-9059.094972502586,-21013.29964557882,0.0,0.0,0.0,193.0,1.0,154.0,0.0,2.0,3.0,249.0,410.0,2.0,1017.0,1744252806.784825,0.0,2025-04-09 22:40:06.784,RIGHT,29
37.0,12448.982888338911,1291.3496841609103,-59576.540836875545,-56445.55317706504,-34130.242065220125,-31414.415706922497,-9129.435912303437,-21050.671762308095,0.0,0.0,0.0,193.0,1.0,155.0,0.0,2.0,3.0,251.0,411.0,2.0,1019.0,1744252806.7848341,0.0,2025-04-09 22:40:06.784,RIGHT,29
38.0,12568.520017685893,1323.73736187665,-59568.87418852737,-56402.19079282174,-34155.32072249898,-31436.767451377804,-8991.570352503104,-21073.93992828607,0.0,0.0,0.0,193.0,1.0,155.0,0.0,2.0,3.0,252.0,411.0,2.0,1020.0,1744252806.784843,0.0,2025-04-09 22:40:06.784,RIGHT,29
39.0,12561.278052482374,1331.068734057991,-59542.007391692096,-56435.427836826784,-34089.65129728929,-31364.414854575978,-9308.98747551292,-21023.983779428458,0.0,0.0,0.0,193.0,1.0,154.0,0.0,2.0,3.0,250.0,410.0,2.0,1018.0,1744252806.7848516,0.0,2025-04-09 22:40:06.784,RIGHT,29
40.0,12504.14699365461,1337.0590015720131,-59551.372772618866,-56411.08678711495,-34090.99240195661,-31375.50131982581,-9067.588635395603,-21017.479421791963,0.0,0.0,0.0,193.0,1.0,155.0,0.0,2.0,3.0,251.0,411.0,2.0,1019.0,1744252806.7848601,0.0,2025-04-09 22:40:06.784,RIGHT,29
41.0,12446.770065637835,1302.1455767328237,-59572.91985427378,-56455.11972369191,-34114.5511406125,-31401.809323049703,-9149.66424103549,-21046.491986094952,0.0,0.0,0.0,193.0,1.0,154.0,0.0,2.0,3.0,250.0,410.0,2.0,1018.0,1744252806.7848687,0.0,2025-04-09 22:40:06.784,RIGHT,29
42.0,12542.368476673184,1309.8345768254492,-59573.63511009635,-56400.53676373205,-34164.12730981437,-31443.875306114594,-8973.756012172224,-21086.0769255253,0.0,0.0,0.0,193.0,1.0,154.0,0.0,2.0,3.0,249.0,410.0,2.0,1017.0,1744252806.7848773,0.0,2025-04-09 22:40:06.784,RIGHT,29
43.0,12567.558892674315,1325.8160741109937,-59554.70318254271,-56458.51718884912,-34097.85438750439,-31370.82980523465,-9312.451995903491,-21026.978913185467,0.0,0.0,0.0,193.0,1.0,155.0,0.0,2.0,3.0,251.0,411.0,2.0,1019.0,1744252806.784886,0.0,2025-04-09 22:40:06.784,RIGHT,29
44.0,12506.09159542222,1324.9220043327814,-59553.56324357549,-56416.04887438403,-34086.00796294308,-31377.3565146156,-9079.435059956915,-21020.452203804518,0.0,0.0,0.0,193.0,1.0,155.0,0.0,2.0,3.0,252.0,411.0,2.0,1020.0,1744252806.7848947,0.0,2025-04-09 22:40:06.784,RIGHT,29
45.0,12442.031495813311,1300.2680301985777,-59582.03936601155,-56471.570607611015,-34105.65514631929,-31396.243738680332,-9156.123895183075,-21040.54642206984,0.0,0.0,0.0,193.0,1.0,155.0,0.0,2.0,3.0,249.0,411.0,2.0,1017.0,1744252806.7849088,0.0,2025-04-09 22:40:06.784,RIGHT,29
46.0,12510.964275713477,1297.4740621416643,-59576.049098497526,-56403.64365621134,-34156.0136265771,-31448.390358494566,-8969.173904558886,-21084.869931324713,0.0,0.0,0.0,193.0,1.0,155.0,0.0,2.0,3.0,253.0,411.0,2.0,1021.0,1744252806.784917,0.0,2025-04-09 22:40:06.784,RIGHT,29
47.0,12561.590976904748,1317.7694461070832,-59576.47378164218,-56474.856314045945,-34120.76492557108,-31396.668421824983,-9265.714498247446,-21049.68828555206,0.0,0.0,0.0,193.0,1.0,154.0,0.0,2.0,3.0,250.0,410.0,2.0,1018.0,1744252806.784926,0.0,2025-04-09 22:40:06.784,RIGHT,29
48.0,12518.608572317193,1335.8743591158818,-59541.716819014175,-56404.604781222915,-34081.291744863,-31361.822052219162,-9117.477729019849,-21004.582465241252,0.0,0.0,0.0,193.0,1.0,155.0,0.0,2.0,3.0,252.0,411.0,2.0,1020.0,1744252806.7849345,0.0,2025-04-09 22:40:06.784,RIGHT,29
49.0,12451.978022095922,1315.578975150463,-59575.3114909305,-56462.45109587325,-34102.72706779565,-31380.530462328254,-9133.570985027669,-21026.777747485372,0.0,0.0,0.0,193.0,1.0,154.0,0.0,2.0,3.0,250.0,410.0,2.0,1018.0,1744252806.784943,0.0,2025-04-09 22:40:06.784,RIGHT,29
50.0,12490.646540003603,1300.2680301985777,-59567.53308386006,-56400.469708498684,-34147.162335772795,-31425.301006472233,-8998.901724684445,-21058.852500778736,0.0,0.0,0.0,193.0,1.0,154.0,0.0,2.0,3.0,249.0,410.0,2.0,1017.0,1744252806.784952,0.0,2025-04-09 22:40:06.784,RIGHT,29
51.0,12578.846523624245,1325.9948880666361,-59567.53308386006,-56451.99047946817,-34127.89513205232,-31394.83557877965,-9195.440613679959,-21047.006076217425,0.0,0.0,0.0,193.0,1.0,155.0,0.0,2.0,3.0,252.0,411.0,2.0,1020.0,1744252806.7849605,0.0,2025-04-09 22:40:06.784,RIGHT,29
52.0,12535.081807980754,1333.8850538593597,-59522.18139436024,-56395.48526948515,-34069.22180285714,-31346.77932820074,-9170.272549423284,-20995.19473257002,0.0,0.0,0.0,193.0,1.0,154.0,0.0,2.0,3.0,251.0,410.0,2.0,1019.0,1744252806.784969,0.0,2025-04-09 22:40:06.784,RIGHT,29
53.0,12456.582481453715,1316.9647833066922,-59573.948034518726,-56459.634776071885,-34101.98946022862,-31387.481854853853,-9112.94032489542,-21041.35108487023,0.0,0.0,0.0,193.0,1.0,154.0,0.0,2.0,3.0,250.0,410.0,2.0,1018.0,1744252806.784978,0.0,2025-04-09 22:40:06.784,RIGHT,29
54.0,12467.311318792263,1296.9152685302818,-59567.309566415504,-56414.059569127516,-34140.523867669566,-31422.75290760433,-9064.325280705129,-21070.74362882896,0.0,0.0,0.0,193.0,1.0,154.0,0.0,2.0,3.0,252.0,410.0,2.0,1020.0,1744252806.7849865,0.0,2025-04-09 22:40:06.784,RIGHT,29
55.0,12575.292596255851,1319.6022891524183,-59574.059793241,-56439.629964784384,-34146.51413518359,-31417.723765101884,-9118.774130198257,-21069.78250381738,0.0,0.0,0.0,193.0,1.0,154.0,0.0,2.0,3.0,249.0,410.0,2.0,1017.0,1744252806.7849953,0.0,2025-04-09 22:40:06.784,RIGHT,29
56.0,12544.380133674162,1335.5614346935076,-59525.46710079517,-56408.02459812458,-34076.21789887165,-31347.516935767766,-9236.903099644554,-20996.759354681893,0.0,0.0,0.0,193.0,1.0,155.0,0.0,2.0,3.0,251.0,411.0,2.0,1019.0,1744252806.785004,0.0,2025-04-09 22:40:06.785,RIGHT,29
57.0,12484.410403300573,1339.6071004399182,-59553.36207787539,-56428.34233383445,-34089.56189031147,-31367.58880228863,-9078.071603545142,-21011.73502346695,0.0,0.0,0.0,193.0,1.0,154.0,0.0,2.0,3.0,249.0,410.0,2.0,1017.0,1744252806.7850127,0.0,2025-04-09 22:40:06.785,RIGHT,29
58.0,12455.196673297487,1299.5974778649186,-59564.91792975878,-56424.36372332141,-34135.002986789106,-31409.58773012015,-9107.41944401496,-21058.49487286745,0.0,0.0,0.0,193.0,1.0,153.0,0.0,2.0,3.0,250.0,409.0,2.0,1018.0,1744252806.7850213,0.0,2025-04-09 22:40:06.785,RIGHT,29
59.0,12570.598729920237,1318.5741089074743,-59572.13754321785,-56420.13924361936,-34164.8649173814,-31432.45356469793,-9058.089144002097,-21084.08762026878,0.0,0.0,0.0,193.0,1.0,155.0,0.0,2.0,3.0,252.0,411.0,2.0,1020.0,1744252806.78503,0.0,2025-04-09 22:40:06.785,RIGHT,29
60.0,12554.773694845879,1329.101780545924,-59527.232888607134,-56423.93904017676,-34082.632849530324,-31357.083482394635,-9301.544344609303,-21018.976988670467,0.0,0.0,0.0,193.0,1.0,154.0,0.0,2.0,3.0,250.0,410.0,2.0,1018.0,1744252806.7850437,0.0,2025-04-09 22:40:06.785,RIGHT,29
61.0,12490.601836514692,1324.8549490994155,-59555.82076976547,-56428.27527860109,-34100.06721020546,-31385.1572734305,-9073.064812787154,-21038.132433668667,0.0,0.0,0.0,193.0,1.0,154.0,0.0,2.0,3.0,250.0,410.0,2.0,1018.0,1744252806.7850523,0.0,2025-04-09 22:40:06.785,RIGHT,29
62.0,12442.880862102613,1293.7189690731727,-59571.62345309537,-56449.755305022634,-34128.565684385976,-31414.862741811605,-9146.602052045113,-21072.151788729643,0.0,0.0,0.0,193.0,1.0,154.0,0.0,2.0,3.0,252.0,410.0,2.0,1020.0,1744252806.785079,0.0,2025-04-09 22:40:06.785,RIGHT,29
63.0,12552.739686100447,1310.1251495033682,-59569.88001702786,-56407.68932195775,-34161.355693501915,-31445.03759682627,-8992.35266355904,-21090.055536038344,0.0,0.0,0.0,193.0,1.0,154.0,0.0,2.0,3.0,249.0,410.0,2.0,1017.0,1744252806.7850876,0.0,2025-04-09 22:40:06.785,RIGHT,29
64.0,12553.700811112025,1326.8219026114825,-59537.045304423016,-56443.42976134179,-34086.477349576635,-31358.938677184426,-9305.165327211062,-21009.566904254785,0.0,0.0,0.0,193.0,1.0,154.0,0.0,2.0,3.0,252.0,410.0,2.0,1020.0,1744252806.7850962,0.0,2025-04-09 22:40:06.785,RIGHT,29
65.0,12502.023577931355,1338.7577341506164,-59539.92867945775,-56409.432758025265,-34083.70573326418,-31372.863813980082,-9058.782048080213,-21019.558134026305,0.0,0.0,0.0,193.0,1.0,154.0,0.0,2.0,3.0,249.0,410.0,2.0,1017.0,1744252806.7851048,0.0,2025-04-09 22:40:06.785,RIGHT,29
66.0,12440.51157719035,1302.5702598774744,-59569.76825830559,-56458.852465015945,-34115.6016726019,-31399.37298290408,-9147.943156712432,-21049.040084962857,0.0,0.0,0.0,193.0,1.0,154.0,0.0,2.0,3.0,250.0,410.0,2.0,1018.0,1744252806.7851136,0.0,2025-04-09 22:40:06.785,RIGHT,29
67.0,12534.925345769567,1300.4691958986755,-59565.208502436704,-56396.9604846192,-34160.19340279024,-31438.89086710106,-8962.781305644668,-21069.46957939501,0.0,0.0,0.0,193.0,1.0,155.0,0.0,2.0,3.0,252.0,411.0,2.0,1020.0,1744252806.785122,0.0,2025-04-09 22:40:06.785,RIGHT,29
68.0,12569.592901419748,1318.5070536741084,-59545.561319060485,-56454.91855799181,-34098.7484572826,-31367.007656932794,-9300.136184708617,-21022.30739859431,0.0,0.0,0.0,193.0,1.0,154.0,0.0,2.0,3.0,249.0,410.0,2.0,1017.0,1744252806.7851305,0.0,2025-04-09 22:40:06.785,RIGHT,29
69.0,12515.121700182164,1334.488550959653,-59535.279516611045,-56401.09555734343,-34086.0973699209,-31361.263258607778,-9093.293141519207,-21015.35600606871,0.0,0.0,0.0,193.0,1.0,155.0,0.0,2.0,3.0,252.0,411.0,2.0,1020.0,1744252806.7851558,0.0,2025-04-09 22:40:06.785,RIGHT,29
70.0,12444.534891192305,1309.0522657695135,-59573.34453741843,-56467.16731395332,-34112.58418710044,-31382.67622979596,-9159.387249873549,-21038.758282513416,0.0,0.0,0.0,193.0,1.0,154.0,0.0,2.0,3.0,250.0,410.0,2.0,1018.0,1744252806.7851644,0.0,2025-04-09 22:40:06.785,RIGHT,29
71.0,12500.257790119385,1291.3720359053655,-59571.46699088419,-56405.49885100113,-34160.97571384617,-31438.399128723042,-8983.769593688201,-21082.99238479047,0.0,0.0,0.0,193.0,1.0,154.0,0.0,2.0,3.0,251.0,410.0,2.0,1019.0,1744252806.7851732,0.0,2025-04-09 22:40:06.785,RIGHT,29
72.0,12577.058384067821,1322.7538851206166,-59558.88295875585,-56460.394735383365,-34112.204207444694,-31381.26806989528,-9258.07020164373,-21049.710637296517,0.0,0.0,0.0,193.0,1.0,155.0,0.0,2.0,3.0,252.0,411.0,2.0,1020.0,1744252806.7851815,0.0,2025-04-09 22:40:06.785,RIGHT,29
73.0,12533.204261446508,1335.1814550377674,-59522.94135367172,-56392.17721130577,-34072.12752963633,-31346.44405203391,-9126.440778546426,-21007.48819202044,0.0,0.0,0.0,193.0,1.0,154.0,0.0,2.0,3.0,249.0,410.0,2.0,1017.0,1744252806.78519,0.0,2025-04-09 22:40:06.785,RIGHT,29
74.0,12447.105341804665,1305.811262823494,-59582.329938689465,-56474.230465201195,-34115.95930051319,-31390.409933377498,-9134.733275739345,-21046.15670992812,0.0,0.0,0.0,193.0,1.0,154.0,0.0,2.0,3.0,251.0,410.0,2.0,1019.0,1744252806.7851987,0.0,2025-04-09 22:40:06.785,RIGHT,29
75.0,12476.475534018939,1286.611114336385,-59577.88194154286,-56422.2179558537,-34158.65113242282,-31440.120213046102,-9017.677190026903,-21084.132323757687,0.0,0.0,0.0,193.0,1.0,155.0,0.0,2.0,3.0,252.0,411.0,2.0,1020.0,1744252806.7852125,0.0,2025-04-09 22:40:06.785,RIGHT,29
76.0,12574.44322996655,1317.1659490067898,-59574.283310685554,-56461.1770464393,-34138.69102462423,-31410.705317342916,-9169.467886622893,-21066.49679738245,0.0,0.0,0.0,193.0,1.0,154.0,0.0,2.0,3.0,249.0,410.0,2.0,1017.0,1744252806.7852209,0.0,2025-04-09 22:40:06.785,RIGHT,29
77.0,12525.939944498534,1317.903556573815,-59535.860661966886,-56417.00999939561,-34090.56771881196,-31363.319619097667,-9199.933314315476,-21011.623264744674,0.0,0.0,0.0,193.0,1.0,154.0,0.0,2.0,3.0,251.0,410.0,2.0,1019.0,1744252806.7852292,0.0,2025-04-09 22:40:06.785,RIGHT,29
78.0,12464.18207456852,1323.3126787319993,-59567.26486292659,-56455.298537647555,-34110.66193707728,-31381.603346062107,-9122.23865058883,-21030.77870974287,0.0,0.0,0.0,193.0,1.0,154.0,0.0,2.0,3.0,249.0,410.0,2.0,1017.0,1744252806.785238,0.0,2025-04-09 22:40:06.785,RIGHT,29
79.0,12466.171379825042,1302.0561697550024,-59563.97915649166,-56419.69220873025,-34148.19051601774,-31415.533294145265,-9079.591522168103,-21055.745608299447,0.0,0.0,0.0,193.0,1.0,154.0,0.0,2.0,3.0,252.0,410.0,2.0,1020.0,1744252806.7852466,0.0,2025-04-09 22:40:06.785,RIGHT,29
80.0,12579.58413119127,1326.3972194668318,-59568.53891236054,-56434.31024960402,-34150.67155965228,-31415.13096274507,-9090.543876951204,-21067.256756693932,0.0,0.0,0.0,193.0,1.0,154.0,0.0,2.0,3.0,252.0,410.0,2.0,1020.0,1744252806.7852552,0.0,2025-04-09 22:40:06.785,RIGHT,29
81.0,12552.806741333812,1340.2105975402114,-59520.63912399282,-56412.47259527119,-34077.402541327785,-31341.39255778701,-9249.800056195267,-21005.58829374174,0.0,0.0,0.0,193.0,1.0,154.0,0.0,2.0,3.0,249.0,410.0,2.0,1017.0,1744252806.7852635,0.0,2025-04-09 22:40:06.785,RIGHT,29
82.0,12484.544513767305,1336.1872835382562,-59557.13952268834,-56437.260679872124,-34101.430666617234,-31374.227270391857,-9084.777126881734,-21035.025541189378,0.0,0.0,0.0,193.0,1.0,153.0,0.0,2.0,3.0,251.0,409.0,2.0,1019.0,1744252806.7852724,0.0,2025-04-09 22:40:06.785,RIGHT,29
83.0,12446.524196448827,1293.6966173287176,-59572.91985427378,-56446.40254335434,-34141.59675140343,-31417.187323234957,-9119.712903465379,-21070.475407895497,0.0,0.0,0.0,193.0,1.0,154.0,0.0,2.0,3.0,252.0,410.0,2.0,1020.0,1744252806.7852807,0.0,2025-04-09 22:40:06.785,RIGHT,29
84.0,12567.849465352234,1314.4613879276978,-59573.56805486299,-56427.73883673416,-34168.91058312781,-31442.2212770249,-9029.970649477322,-21094.54823667386,0.0,0.0,0.0,193.0,1.0,154.0,0.0,2.0,3.0,249.0,410.0,2.0,1017.0,1744252806.7852893,0.0,2025-04-09 22:40:06.785,RIGHT,29
85.0,12554.281956467863,1325.54785317753,-59531.16679563127,-56439.60761303993,-34089.85246298939,-31357.754034728296,-9297.297513162794,-21018.284084592353,0.0,0.0,0.0,193.0,1.0,155.0,0.0,2.0,3.0,252.0,411.0,2.0,1020.0,1744252806.785298,0.0,2025-04-09 22:40:06.785,RIGHT,29
86.0,12487.80786845778,1328.3641729788988,-59558.72649654466,-56438.42297058379,-34110.48312312164,-31387.191282175936,-9069.8908650745,-21039.138262169155,0.0,0.0,0.0,193.0,1.0,154.0,0.0,2.0,3.0,250.0,410.0,2.0,1018.0,1744252806.7853067,0.0,2025-04-09 22:40:06.785,RIGHT,29
87.0,12437.114112033143,1296.5129371300861,-59578.82071480998,-56470.6318343439,-34142.267303737084,-31420.1154017586,-9160.683651051957,-21077.382096932186,0.0,0.0,0.0,193.0,1.0,153.0,0.0,2.0,3.0,249.0,409.0,2.0,1017.0,1744252806.7853153,0.0,2025-04-09 22:40:06.785,RIGHT,29
88.0,12553.454941923017,1317.8588530849045,-59568.09187747144,-56413.88075517187,-34171.10105408443,-31446.758681149327,-8987.010596634222,-21094.995271562966,0.0,0.0,0.0,193.0,1.0,154.0,0.0,2.0,3.0,252.0,410.0,2.0,1020.0,1744252806.7853236,0.0,2025-04-09 22:40:06.785,RIGHT,29
89.0,12567.782410118869,1335.4943794601418,-59536.39710383381,-56455.05266845854,-34094.43457060272,-31369.891031967527,-9319.582202384736,-21041.753416270425,0.0,0.0,0.0,193.0,1.0,154.0,0.0,2.0,3.0,251.0,410.0,2.0,1019.0,1744252806.785332,0.0,2025-04-09 22:40:06.785,RIGHT,29
90.0,12510.51724082437,1340.3000045180327,-59539.99573469112,-56414.43954878325,-34093.85342524689,-31378.58586056064,-9079.904446590477,-21044.815605260803,0.0,0.0,0.0,193.0,1.0,153.0,0.0,2.0,3.0,249.0,409.0,2.0,1017.0,1744252806.7853453,0.0,2025-04-09 22:40:06.785,RIGHT,29
91.0,12442.41147546905,1300.938582532237,-59576.63024385336,-56475.348052423964,-34123.31302443898,-31406.100857985126,-9167.590340088647,-21056.21499493301,0.0,0.0,0.0,193.0,1.0,154.0,0.0,2.0,3.0,252.0,410.0,2.0,1020.0,1744252806.7853537,0.0,2025-04-09 22:40:06.785,RIGHT,29
92.0,12536.311153925795,1317.389466451343,-59561.49811285712,-56396.982836363655,-34159.03111207856,-31438.2203147674,-8964.01065158971,-21076.666841109614,0.0,0.0,0.0,193.0,1.0,154.0,0.0,2.0,3.0,250.0,410.0,2.0,1018.0,1744252806.785362,0.0,2025-04-09 22:40:06.785,RIGHT,29
93.0,12577.281901512373,1335.9861178381584,-59558.6594413113,-56467.03320348659,-34115.55696911299,-31381.06690419518,-9294.570600339246,-21044.525032582886,0.0,0.0,0.0,193.0,1.0,154.0,0.0,2.0,3.0,251.0,410.0,2.0,1019.0,1744252806.7853708,0.0,2025-04-09 22:40:06.785,RIGHT,29
94.0,12531.259659678897,1348.83837089996,-59536.464159067174,-56407.84578416894,-34088.66782053326,-31369.3545901006,-9104.580772469137,-21025.995436429435,0.0,0.0,0.0,193.0,1.0,155.0,0.0,2.0,3.0,251.0,411.0,2.0,1019.0,1744252806.7853796,0.0,2025-04-09 22:40:06.785,RIGHT,29
95.0,12449.69814416148,1308.2699547135776,-59580.228874710665,-56482.61236937194,-34122.977748272155,-31408.60425336412,-9161.801238274722,-21070.363649173218,0.0,0.0,0.0,193.0,1.0,153.0,0.0,2.0,3.0,250.0,409.0,2.0,1018.0,1744252806.785388,0.0,2025-04-09 22:40:06.785,RIGHT,29
96.0,12489.707766736481,1281.6490270673069,-59576.809057809005,-56420.98860990866,-34174.96790587519,-31456.146413820556,-9004.266143353718,-21102.75132688896,0.0,0.0,0.0,193.0,1.0,155.0,0.0,2.0,3.0,251.0,411.0,2.0,1019.0,1744252806.7853966,0.0,2025-04-09 22:40:06.785,RIGHT,29
97.0,12561.72508737148,1306.1912424792342,-59574.48447638565,-56481.003043771154,-34140.590922902935,-31411.21940746539,-9241.976945635908,-21073.515245141418,0.0,0.0,0.0,193.0,1.0,155.0,0.0,2.0,3.0,252.0,411.0,2.0,1020.0,1744252806.7854052,0.0,2025-04-09 22:40:06.785,RIGHT,29
98.0,12518.608572317193,1325.0114113106026,-59527.85873745188,-56408.248115569135,-34086.67851527673,-31364.68307550944,-9153.017002703788,-21025.481346306962,0.0,0.0,0.0,193.0,1.0,154.0,0.0,2.0,3.0,251.0,410.0,2.0,1019.0,1744252806.7854137,0.0,2025-04-09 22:40:06.785,RIGHT,29
99.0,12456.828350642723,1312.6285448823626,-59566.191979192736,-56465.89326451937,-34112.18185570024,-31386.945412986926,-9133.928612938955,-21044.010942460412,0.0,0.0,0.0,193.0,1.0,155.0,0.0,2.0,3.0,252.0,411.0,2.0,1020.0,1744252806.7854223,0.0,2025-04-09 22:40:06.785,RIGHT,29
100.0,12474.486228762416,1281.4031578782985,-59567.93541526025,-56424.22961285468,-34160.70749291271,-31438.667349656505,-9035.804454780156,-21081.36070744523,0.0,0.0,0.0,193.0,1.0,154.0,0.0,2.0,3.0,250.0,410.0,2.0,1018.0,1744252806.7854311,0.0,2025-04-09 22:40:06.785,RIGHT,29
101.0,12579.807648635824,1316.6742106287732,-59560.671098312276,-56453.5774533245,-34136.411146689796,-31406.68200334096,-9146.7585142563,-21063.479311880983,0.0,0.0,0.0,193.0,1.0,154.0,0.0,2.0,3.0,250.0,410.0,2.0,1018.0,1744252806.7854395,0.0,2025-04-09 22:40:06.785,RIGHT,29
102.0,12539.19452896053,1331.0240305690802,-59518.02396989155,-56410.95267664822,-34076.59787852739,-31352.5013747813,-9194.43478517947,-21015.02072990188,0.0,0.0,0.0,193.0,1.0,154.0,0.0,2.0,3.0,252.0,410.0,2.0,1020.0,1744252806.785448,0.0,2025-04-09 22:40:06.785,RIGHT,29
103.0,12474.866208418156,1328.3418212344434,-59558.81590352248,-56454.89620624736,-34099.910747994276,-31384.419665863476,-9087.928722849932,-21052.21403267551,0.0,0.0,0.0,193.0,1.0,154.0,0.0,2.0,3.0,251.0,410.0,2.0,1019.0,1744252806.785457,0.0,2025-04-09 22:40:06.785,RIGHT,29
104.0,12465.23260655792,1297.2728964415667,-59560.514636101085,-56428.92347919029,-34136.99229204563,-31413.409878422008,-9073.690661631903,-21070.31894568431,0.0,0.0,0.0,193.0,1.0,154.0,0.0,2.0,3.0,252.0,410.0,2.0,1020.0,1744252806.7854652,0.0,2025-04-09 22:40:06.785,RIGHT,29
105.0,12574.465581711005,1315.578975150463,-59569.90236877232,-56439.85348222894,-34151.94560908623,-31425.815096594706,-9051.338917176596,-21076.8233033208,0.0,0.0,0.0,193.0,1.0,154.0,0.0,2.0,3.0,250.0,410.0,2.0,1018.0,1744252806.7854784,0.0,2025-04-09 22:40:06.785,RIGHT,29
106.0,12547.9117092981,1327.4477514562311,-59525.75767347308,-56428.92347919029,-34076.73198899412,-31352.456671292388,-9241.284041557794,-21014.52899152386,0.0,0.0,0.0,193.0,1.0,154.0,0.0,2.0,3.0,250.0,410.0,2.0,1018.0,1744252806.7854867,0.0,2025-04-09 22:40:06.785,RIGHT,29
107.0,12489.908932436578,1330.9122718468038,-59553.09385694192,-56440.948717707244,-34096.2450619036,-31380.64222105053,-9056.949205034876,-21047.65427680663,0.0,0.0,0.0,193.0,1.0,155.0,0.0,2.0,3.0,252.0,411.0,2.0,1020.0,1744252806.7854955,0.0,2025-04-09 22:40:06.785,RIGHT,29
108.0,12445.250147014875,1287.035797481036,-59573.6127583519,-56455.723220792206,-34141.932027570256,-31417.321433701687,-9120.718731965868,-21070.520111384405,0.0,0.0,0.0,193.0,1.0,154.0,0.0,2.0,3.0,250.0,410.0,2.0,1018.0,1744252807.0621672,0.0,2025-04-09 22:40:07.062,RIGHT,29
109.0,12555.064267523798,1304.000771522614,-59575.93733977525,-56429.75049373514,-34173.11271108541,-31445.484631715375,-9009.921134700911,-21096.068155296824,0.0,0.0,0.0,193.0,1.0,154.0,0.0,2.0,3.0,249.0,410.0,2.0,1017.0,1744252807.0622058,0.0,2025-04-09 22:40:07.062,RIGHT,29
110.0,12552.694982611536,1323.9832310656586,-59531.07738865345,-56448.19068291077,-34088.39959959979,-31365.465386565375,-9296.738719551411,-21029.459956820006,0.0,0.0,0.0,193.0,1.0,154.0,0.0,2.0,3.0,252.0,410.0,2.0,1020.0,1744252807.0622256,0.0,2025-04-09 22:40:07.062,RIGHT,29
111.0,12494.133412138632,1321.904518831315,-59548.46704583968,-56432.298592603045,-34099.30725089398,-31385.78312227525,-9052.07652474362,-21030.97987544297,0.0,0.0,0.0,193.0,1.0,154.0,0.0,2.0,3.0,250.0,410.0,2.0,1018.0,1744252807.0622458,0.0,2025-04-09 22:40:07.062,RIGHT,29
112.0,12436.823539355224,1285.359416646888,-59572.91985427378,-56470.78829655508,-34133.77364084407,-31413.096953999637,-9152.637023048046,-21065.714486326517,0.0,0.0,0.0,193.0,1.0,154.0,0.0,2.0,3.0,249.0,410.0,2.0,1017.0,1744252807.0622568,0.0,2025-04-09 22:40:07.062,RIGHT,29
113.0,12546.90588079761,1307.2194227241782,-59561.83338902395,-56409.38805453635,-34166.00485634862,-31449.798518395248,-8971.118506326498,-21097.74453613097,0.0,0.0,0.0,193.0,1.0,154.0,0.0,2.0,3.0,252.0,410.0,2.0,1020.0,1744252807.062266,0.0,2025-04-09 22:40:07.062,RIGHT,29
114.0,12566.195436262542,1320.317544974988,-59540.88980446933,-56463.7251453072,-34098.63669856032,-31381.178662917457,-9299.912667264065,-21051.476425108485,0.0,0.0,0.0,193.0,1.0,154.0,0.0,1.0,3.0,250.0,410.0,1.0,1018.0,1744252807.0622747,0.0,2025-04-09 22:40:07.062,RIGHT,29
115.0,12509.131432668142,1329.8840916018596,-59540.50982481359,-56418.39580755184,-34096.66974504825,-31383.68205829645,-9076.954016322377,-21049.68828555206,0.0,0.0,0.0,193.0,1.0,155.0,0.0,2.0,3.0,252.0,411.0,2.0,1020.0,1744252807.062284,0.0,2025-04-09 22:40:07.062,RIGHT,29
116.0,12437.158815522054,1294.9930185071253,-59574.88680778585,-56479.37136642592,-34122.28484419404,-31411.286462698754,-9162.918825497487,-21077.247986465452,0.0,0.0,0.0,193.0,1.0,154.0,0.0,2.0,3.0,252.0,410.0,2.0,1020.0,1744252807.062293,0.0,2025-04-09 22:40:07.062,RIGHT,29
117.0,12517.08865369423,1295.8647365408822,-59563.7109355582,-56406.75054869063,-34158.695835911734,-31452.1230998186,-8957.327479997573,-21096.850466352756,0.0,0.0,0.0,193.0,1.0,154.0,0.0,2.0,3.0,251.0,410.0,2.0,1019.0,1744252807.0623019,0.0,2025-04-09 22:40:07.062,RIGHT,29
118.0,12571.24693050944,1320.5634141639966,-59546.29892662751,-56460.59590108346,-34103.1517509403,-31381.89391874003,-9254.605681253157,-21039.741759269447,0.0,0.0,0.0,193.0,1.0,154.0,0.0,2.0,3.0,249.0,410.0,2.0,1017.0,1744252807.062311,0.0,2025-04-09 22:40:07.062,RIGHT,29
119.0,12527.10223521021,1338.6012719394294,-59514.246525078604,-56389.13737405984,-34071.032294158016,-31354.35656957109,-9087.638150172013,-21005.700052464017,0.0,0.0,0.0,193.0,1.0,155.0,0.0,2.0,3.0,253.0,411.0,2.0,1021.0,1744252807.0623505,0.0,2025-04-09 22:40:07.062,RIGHT,29
120.0,12457.834179143212,1318.6188123963848,-59555.66430755429,-56455.767924281114,-34100.98363172813,-31376.887127982038,-9128.832415203146,-21029.79523298684,0.0,0.0,0.0,193.0,1.0,154.0,0.0,6.0,3.0,250.0,410.0,6.0,1018.0,1744252807.06236,0.0,2025-04-09 22:40:07.062,RIGHT,29
121.0,12499.386072085628,1297.384655163843,-59552.02097320807,-56396.580504963466,-34148.79401311803,-31426.03861403926,-8979.411003519417,-21071.1236084847,0.0,0.0,0.0,193.0,1.0,154.0,0.0,17.0,3.0,249.0,410.0,17.0,1017.0,1744252807.0623689,0.0,2025-04-09 22:40:07.062,RIGHT,29
122.0,12573.213884021508,1312.807358838005,-59560.60404307891,-56460.528845850095,-34132.81251583249,-31400.3117561712,-9199.665093382013,-21070.0730764953,0.0,0.0,0.0,193.0,1.0,155.0,0.0,28.0,3.0,252.0,411.0,28.0,1020.0,1744252807.062378,0.0,2025-04-09 22:40:07.062,RIGHT,29
123.0,12522.207203174497,1322.2397949981446,-59524.796548461505,-56406.571734734986,-34085.002134442584,-31364.906592953994,-9160.080153951663,-21030.01875043139,0.0,0.0,0.0,193.0,1.0,154.0,0.0,36.0,3.0,249.0,410.0,36.0,1017.0,1744252807.0623868,0.0,2025-04-09 22:40:07.062,RIGHT,29
124.0,12459.018821599344,1321.613946153396,-59558.50297910011,-56457.42195337081,-34100.961279983676,-31385.224328663866,-9105.743063180813,-21049.97885822998,0.0,0.0,0.0,193.0,1.0,155.0,0.0,39.0,3.0,252.0,411.0,39.0,1020.0,1744252807.0623956,0.0,2025-04-09 22:40:07.062,RIGHT,29
125.0,12467.400725770083,1288.868640526371,-59561.78868553504,-56420.58627850846,-34152.63851316435,-31435.471050199398,-9037.614946081036,-21088.088582526278,0.0,0.0,0.0,193.0,1.0,155.0,0.0,39.0,3.0,252.0,411.0,39.0,1020.0,1744252807.0624044,0.0,2025-04-09 22:40:07.062,RIGHT,29
126.0,12578.354785246229,1317.9482600627257,-59560.44758086772,-56447.63188929938,-34146.46943169468,-31419.824829080684,-9126.23961284633,-21078.79025683287,0.0,0.0,0.0,193.0,1.0,154.0,0.0,39.0,3.0,249.0,410.0,39.0,1017.0,1744252807.0624132,0.0,2025-04-09 22:40:07.062,RIGHT,29
127.0,12542.703752840014,1331.0910858024463,-59512.72660645564,-56408.806909180516,-34076.776692483036,-31353.73072072634,-9215.803052878744,-21013.63492174565,0.0,0.0,0.0,193.0,1.0,155.0,0.0,38.0,3.0,252.0,411.0,38.0,1020.0,1744252807.0624218,0.0,2025-04-09 22:40:07.062,RIGHT,29
128.0,12481.907007921578,1332.1192660473903,-59545.11428417138,-56439.96524095121,-34094.099294435895,-31376.5071483263,-9078.675100645436,-21039.294724380343,0.0,0.0,0.0,193.0,1.0,154.0,0.0,38.0,3.0,250.0,410.0,38.0,1018.0,1744252807.0624309,0.0,2025-04-09 22:40:07.062,RIGHT,29
129.0,12474.821504929247,1305.6324488678515,-59542.67794402575,-56418.64167674085,-34123.91652153928,-31405.31854692919,-9081.446716957893,-21062.920518269602,0.0,0.0,0.0,193.0,1.0,155.0,0.0,38.0,3.0,251.0,411.0,38.0,1019.0,1744252807.06244,0.0,2025-04-09 22:40:07.062,RIGHT,29
130.0,12592.503439486438,1326.9783648226696,-59550.56810981847,-56418.28404882956,-34146.44707995022,-31417.41084067951,-9038.531367603704,-21071.816512562815,0.0,0.0,0.0,193.0,1.0,154.0,0.0,39.0,3.0,252.0,410.0,39.0,1020.0,1744252807.0624485,0.0,2025-04-09 22:40:07.062,RIGHT,29
131.0,12579.025337579887,1355.2756733030885,-59494.733452169115,-56404.895353900836,-34060.07993937492,-31330.90958963747,-9264.55220753577,-21003.554284996306,0.0,0.0,0.0,193.0,1.0,154.0,0.0,39.0,3.0,249.0,410.0,39.0,1017.0,1744252807.0624576,0.0,2025-04-09 22:40:07.062,RIGHT,29
132.0,12518.407406617094,1361.9588448952252,-59520.84028969292,-56407.756377191115,-34074.58622152641,-31354.82595620465,-9043.627565339513,-21017.769994469883,0.0,0.0,0.0,193.0,1.0,154.0,0.0,39.0,3.0,251.0,410.0,39.0,1019.0,1744252807.0624664,0.0,2025-04-09 22:40:07.062,RIGHT,29
133.0,12468.89829264859,1320.6081176529071,-59544.3543248599,-56434.26554611511,-34116.071059235466,-31396.69077356944,-9115.376665041049,-21065.06628573731,0.0,0.0,0.0,193.0,1.0,154.0,0.0,39.0,3.0,250.0,410.0,39.0,1018.0,1744252807.0624752,0.0,2025-04-09 22:40:07.062,RIGHT,29
134.0,12570.15169503113,1325.4807979441641,-59553.675002297765,-56409.075130113975,-34159.411091734306,-31438.443832211953,-8986.362396045017,-21100.404393721154,0.0,0.0,0.0,193.0,1.0,154.0,0.0,40.0,3.0,250.0,410.0,40.0,1018.0,1744252807.0624895,0.0,2025-04-09 22:40:07.062,RIGHT,29
135.0,12572.543331687848,1339.1153620619014,-59515.40881579028,-56437.10421766093,-34079.1906808842,-31353.663665492975,-9311.870850547653,-21034.287933622352,0.0,0.0,0.0,193.0,1.0,155.0,0.0,40.0,3.0,250.0,411.0,40.0,1018.0,1744252807.0624983,0.0,2025-04-09 22:40:07.062,RIGHT,29
136.0,12515.456976348994,1338.8247893839825,-59528.52928978554,-56411.64558072634,-34088.04197168851,-31373.601421547108,-9075.411745954962,-21043.005113959924,0.0,0.0,0.0,193.0,1.0,154.0,0.0,40.0,3.0,250.0,410.0,40.0,1018.0,1744252807.0625072,0.0,2025-04-09 22:40:07.062,RIGHT,29
137.0,12457.253033787374,1307.6664576132844,-59546.477740583156,-56450.85054050095,-34103.5987858294,-31386.34191588663,-9154.313403882195,-21041.373436614685,0.0,0.0,0.0,193.0,1.0,154.0,0.0,40.0,3.0,252.0,410.0,40.0,1020.0,1744252807.0625157,0.0,2025-04-09 22:40:07.062,RIGHT,29
138.0,12545.967107530489,1306.101835501413,-59544.801359749006,-56392.69130142824,-34145.32949272746,-31429.99487280785,-8948.096209537533,-21071.145960229154,0.0,0.0,0.0,193.0,1.0,155.0,0.0,41.0,3.0,250.0,411.0,41.0,1018.0,1744252807.0625246,0.0,2025-04-09 22:40:07.062,RIGHT,29
139.0,12572.476276454483,1325.4360944552534,-59530.317429341965,-56454.113895191425,-34088.019619944054,-31365.64420052102,-9292.64835031609,-21032.231573132467,0.0,0.0,0.0,193.0,1.0,154.0,0.0,41.0,3.0,250.0,410.0,41.0,1018.0,1744252807.0625336,0.0,2025-04-09 22:40:07.062,RIGHT,29
140.0,12510.114909424175,1330.711106146706,-59527.456406051686,-56406.95171439072,-34082.07405591894,-31370.315715112178,-9070.98610055281,-21028.54353529734,0.0,0.0,0.0,193.0,1.0,154.0,0.0,41.0,3.0,252.0,410.0,41.0,1020.0,1744252807.0625455,0.0,2025-04-09 22:40:07.062,RIGHT,29
141.0,12437.114112033143,1294.5012801291086,-59568.47185712717,-56475.52686637961,-34115.04287899052,-31399.59650034863,-9150.245386391329,-21061.132378713177,0.0,0.0,0.0,193.0,1.0,153.0,0.0,41.0,3.0,249.0,409.0,41.0,1017.0,1744252807.0625548,0.0,2025-04-09 22:40:07.062,RIGHT,29
142.0,12514.76407227088,1300.6256581098626,-59552.065676696984,-56398.34629277543,-34152.50440269761,-31435.94043683296,-8971.207913304319,-21097.40925996414,0.0,0.0,0.0,193.0,1.0,153.0,0.0,41.0,3.0,250.0,409.0,41.0,1018.0,1744252807.0625637,0.0,2025-04-09 22:40:07.062,RIGHT,29
143.0,12586.82609639479,1335.3155655044993,-59532.19497587621,-56451.163464923324,-34098.90491949379,-31368.34876160011,-9258.293719088284,-21046.313172139307,0.0,0.0,0.0,193.0,1.0,154.0,0.0,42.0,3.0,251.0,410.0,42.0,1019.0,1744252807.0625725,0.0,2025-04-09 22:40:07.062,RIGHT,29
144.0,12520.933153740545,1328.9453183347366,-59521.376731559845,-56405.096519600935,-34081.291744863,-31362.380845830543,-9117.9024121645,-21021.59214277174,0.0,0.0,0.0,193.0,1.0,154.0,0.0,42.0,3.0,250.0,410.0,42.0,1018.0,1744252807.0625813,0.0,2025-04-09 22:40:07.062,RIGHT,29
145.0,12446.658306915559,1307.5994023799185,-59565.16379894779,-56473.62696810091,-34106.348050397406,-31383.34678212962,-9139.449493819415,-21033.416215588597,0.0,0.0,0.0,193.0,1.0,153.0,0.0,42.0,3.0,250.0,409.0,42.0,1018.0,1744252807.06259,0.0,2025-04-09 22:40:07.062,RIGHT,29
146.0,12485.527990523338,1292.6237335948626,-59555.12786568736,-56410.70680745922,-34146.894114839335,-31423.42345993799,-9006.903649199445,-21059.9700880015,0.0,0.0,0.0,193.0,1.0,154.0,0.0,42.0,3.0,251.0,410.0,42.0,1019.0,1744252807.0625987,0.0,2025-04-09 22:40:07.062,RIGHT,29
147.0,12576.052555567332,1316.1377687618458,-59554.54672033152,-56460.30532840554,-34121.61429186038,-31393.695639812428,-9179.615578605602,-21049.576526829784,0.0,0.0,0.0,193.0,1.0,153.0,0.0,42.0,3.0,251.0,409.0,42.0,1019.0,1744252807.0626075,0.0,2025-04-09 22:40:07.062,RIGHT,29
148.0,12529.382113144651,1324.6537833993177,-59509.73147269863,-56406.68349345726,-34063.186831854204,-31345.43822353342,-9170.29490116774,-21002.906084407103,0.0,0.0,0.0,193.0,1.0,154.0,0.0,42.0,3.0,251.0,410.0,42.0,1019.0,1744252807.0626163,0.0,2025-04-09 22:40:07.062,RIGHT,29
149.0,12468.071278103744,1320.0940275304351,-59550.523406329565,-56457.868988259914,-34093.205224657686,-31374.316677369676,-9102.055025345686,-21022.508564294407,0.0,0.0,0.0,193.0,1.0,154.0,0.0,42.0,3.0,250.0,410.0,42.0,1018.0,1744252807.0626302,0.0,2025-04-09 22:40:07.062,RIGHT,29
150.0,12464.427943757528,1282.2972276565108,-59562.347479146425,-56438.13239790588,-34146.02239680557,-31436.722747888896,-9053.998774766776,-21081.964204545522,0.0,0.0,0.0,193.0,1.0,154.0,0.0,42.0,3.0,250.0,410.0,42.0,1018.0,1744252807.0626388,0.0,2025-04-09 22:40:07.062,RIGHT,29
151.0,12572.163352032108,1309.2087279807006,-59565.38731639234,-56460.193569683266,-34146.51413518359,-31428.13967801806,-9108.8499556601,-21083.64058537967,0.0,0.0,0.0,193.0,1.0,155.0,0.0,43.0,3.0,253.0,411.0,43.0,1021.0,1744252807.062648,0.0,2025-04-09 22:40:07.062,RIGHT,29
152.0,12547.241156964441,1330.353478235421,-59505.75286218558,-56419.31222907451,-34062.89625917629,-31339.470307763855,-9233.148006576062,-20995.39589827012,0.0,0.0,0.0,193.0,1.0,154.0,0.0,43.0,3.0,249.0,410.0,43.0,1017.0,1744252807.0626569,0.0,2025-04-09 22:40:07.062,RIGHT,29
153.0,12475.581464240726,1317.4788734291642,-59549.24935689561,-56453.30923239103,-34091.14886416779,-31382.340953629133,-9078.250417500785,-21043.474500593486,0.0,0.0,0.0,193.0,1.0,154.0,0.0,43.0,3.0,252.0,410.0,43.0,1020.0,1744252807.0626657,0.0,2025-04-09 22:40:07.062,RIGHT,29
154.0,12452.112132562654,1289.7850620490387,-59555.485493598644,-56446.15667416533,-34130.7561553426,-31412.784029577262,-9113.499118506805,-21066.697963082548,0.0,0.0,0.0,193.0,1.0,154.0,0.0,43.0,3.0,250.0,410.0,43.0,1018.0,1744252807.0626745,0.0,2025-04-09 22:40:07.062,RIGHT,29
155.0,12570.978709575977,1317.322411217977,-59552.51271158609,-56425.68247624427,-34149.97865557417,-31423.624625638084,-9033.993963479277,-21076.063344009322,0.0,0.0,0.0,193.0,1.0,155.0,0.0,43.0,3.0,251.0,411.0,43.0,1019.0,1744252807.0626833,0.0,2025-04-09 22:40:07.062,RIGHT,29
156.0,12551.219767477485,1322.1503880203234,-59517.28636232452,-56439.74172350666,-34080.62119252935,-31353.373092815054,-9290.36847238165,-21022.57561952777,0.0,0.0,0.0,193.0,1.0,154.0,0.0,43.0,3.0,250.0,410.0,43.0,1018.0,1744252807.062692,0.0,2025-04-09 22:40:07.062,RIGHT,29
157.0,12492.300569093297,1324.5420246770411,-59537.179414889746,-56431.82920596948,-34092.355858368384,-31370.58393604564,-9067.253359228773,-21031.002227187422,0.0,0.0,0.0,193.0,1.0,154.0,0.0,43.0,3.0,249.0,410.0,43.0,1017.0,1744252807.0627007,0.0,2025-04-09 22:40:07.062,RIGHT,29
158.0,12439.349286478673,1289.4274341377538,-59557.027763966056,-56460.43943887227,-34124.20709421719,-31405.564416118195,-9137.661354262991,-21065.31215492632,0.0,0.0,0.0,193.0,1.0,154.0,0.0,43.0,3.0,252.0,410.0,43.0,1020.0,1744252807.0627096,0.0,2025-04-09 22:40:07.062,RIGHT,29
159.0,12553.030258778366,1308.4040651803095,-59553.33972613094,-56414.953638905725,-34162.02624583557,-31441.550724691242,-8989.245771079752,-21104.27124551192,0.0,0.0,0.0,193.0,1.0,154.0,0.0,43.0,3.0,250.0,410.0,43.0,1018.0,1744252807.0627182,0.0,2025-04-09 22:40:07.062,RIGHT,29
160.0,12566.553064173826,1328.8559113569154,-59513.01717913356,-56443.65327878634,-34078.96716343965,-31349.461537535375,-9314.50835639338,-21025.101366651223,0.0,0.0,0.0,193.0,1.0,154.0,0.0,43.0,3.0,252.0,410.0,43.0,1020.0,1744252807.0627272,0.0,2025-04-09 22:40:07.062,RIGHT,29
161.0,12497.03913891782,1317.1883007512452,-59532.44084506522,-56420.899202930836,-34090.41125660077,-31372.21561339088,-9066.024013283732,-21029.79523298684,0.0,0.0,0.0,193.0,1.0,154.0,0.0,43.0,3.0,250.0,410.0,43.0,1018.0,1744252807.062736,0.0,2025-04-09 22:40:07.062,RIGHT,29
162.0,12433.336667220196,1286.0299689805472,-59563.800342536015,-56476.15271522436,-34119.73674532613,-31399.21652069289,-9168.618520333592,-21059.34423915675,0.0,0.0,0.0,193.0,1.0,154.0,0.0,43.0,3.0,251.0,410.0,43.0,1019.0,1744252807.062745,0.0,2025-04-09 22:40:07.062,RIGHT,29
163.0,12535.081807980754,1308.3593616913988,-59545.561319060485,-56397.51927823058,-34154.67252190978,-31427.51382917331,-8973.599549961036,-21076.108047498234,0.0,0.0,0.0,193.0,1.0,155.0,0.0,43.0,3.0,252.0,411.0,43.0,1020.0,1744252807.062754,0.0,2025-04-09 22:40:07.062,RIGHT,29
164.0,12572.364517732207,1330.7558096356165,-59524.863603694874,-56451.56579632352,-34092.489968835114,-31358.469290550864,-9301.097309720197,-21031.62807603217,0.0,0.0,0.0,193.0,1.0,155.0,0.0,43.0,3.0,251.0,411.0,43.0,1019.0,1744252807.0627675,0.0,2025-04-09 22:40:07.062,RIGHT,29
165.0,12505.242229132919,1322.5974229094295,-59523.65660949428,-56407.28699055756,-34089.24896588909,-31362.73847374183,-9099.462222988872,-21013.210238600997,0.0,0.0,0.0,193.0,1.0,155.0,0.0,43.0,3.0,252.0,411.0,43.0,1020.0,1744252807.0627763,0.0,2025-04-09 22:40:07.062,RIGHT,29
166.0,12436.756484121857,1290.9473527607147,-59561.47576111266,-56474.20811345674,-34116.76396331358,-31391.393410133533,-9161.935348741454,-21042.02163720389,0.0,0.0,0.0,193.0,1.0,154.0,0.0,43.0,3.0,249.0,410.0,43.0,1017.0,1744252807.062785,0.0,2025-04-09 22:40:07.062,RIGHT,29
167.0,12509.779633257347,1297.16113771929,-59542.72264751466,-56394.188868306745,-34152.10207129742,-31431.067756541703,-8976.862904651513,-21072.12943698519,0.0,0.0,0.0,193.0,1.0,155.0,0.0,43.0,3.0,251.0,411.0,43.0,1019.0,1744252807.0627937,0.0,2025-04-09 22:40:07.062,RIGHT,29
168.0,12581.372270747695,1329.6605741573067,-59534.586612532934,-56451.096409689955,-34113.76882955657,-31382.11743618458,-9243.139236347584,-21045.39675061664,0.0,0.0,0.0,193.0,1.0,154.0,0.0,43.0,3.0,251.0,410.0,43.0,1019.0,1744252807.0628023,0.0,2025-04-09 22:40:07.062,RIGHT,29
169.0,12523.436549119539,1330.7781613800719,-59505.1940685742,-56392.73600491715,-34077.33548609442,-31357.128185883546,-9134.397999572517,-21018.01586365889,0.0,0.0,0.0,193.0,1.0,154.0,0.0,44.0,3.0,250.0,410.0,44.0,1018.0,1744252807.0628111,0.0,2025-04-09 22:40:07.062,RIGHT,29
170.0,12447.328859249219,1304.1795854782565,-59557.228929666155,-56464.14982845185,-34111.868931277866,-31391.326354900168,-9128.698304736412,-21045.955544228025,0.0,0.0,0.0,193.0,1.0,155.0,0.0,43.0,3.0,252.0,411.0,43.0,1020.0,1744252807.0628204,0.0,2025-04-09 22:40:07.062,RIGHT,29
171.0,12473.122772350642,1286.0299689805472,-59553.049153453016,-56406.54938299053,-34153.28671375355,-31433.45939319842,-9021.633448795492,-21071.30242244034,0.0,0.0,0.0,193.0,1.0,154.0,0.0,43.0,3.0,250.0,410.0,43.0,1018.0,1744252807.0628295,0.0,2025-04-09 22:40:07.062,RIGHT,29
172.0,12574.420878222094,1325.1231700328792,-59547.952955717206,-56437.14892114984,-34128.4539256637,-31395.796703791228,-9162.695308052935,-21044.63679130516,0.0,0.0,0.0,193.0,1.0,154.0,0.0,44.0,3.0,251.0,410.0,44.0,1019.0,1744252807.0628383,0.0,2025-04-09 22:40:07.062,RIGHT,29
173.0,12536.489967881438,1342.937510363759,-59501.55073422799,-56382.70007165672,-34065.46670978865,-31339.33619729712,-9194.255971223829,-20995.1053255922,0.0,0.0,0.0,193.0,1.0,155.0,0.0,44.0,3.0,252.0,411.0,44.0,1020.0,1744252807.062847,0.0,2025-04-09 22:40:07.062,RIGHT,29
174.0,12470.731135693924,1333.3933154813428,-59544.30962137099,-56428.29763034554,-34088.39959959979,-31369.578107545152,-9106.301856792195,-21025.8613259627,0.0,0.0,0.0,193.0,1.0,154.0,0.0,43.0,3.0,249.0,410.0,43.0,1017.0,1744252807.0628557,0.0,2025-04-09 22:40:07.062,RIGHT,29
175.0,12461.030478600322,1297.5858208639409,-59548.37763886186,-56399.083900342455,-34128.23040821915,-31408.917177786494,-9069.756754607768,-21046.313172139307,0.0,0.0,0.0,193.0,1.0,154.0,0.0,43.0,3.0,252.0,410.0,43.0,1020.0,1744252807.164189,0.0,2025-04-09 22:40:07.164,RIGHT,29
176.0,12578.846523624245,1319.803454852516,-59551.21631040768,-56406.66114171281,-34134.5559519,-31408.380735919567,-9083.771298381245,-21047.564869828806,0.0,0.0,0.0,193.0,1.0,154.0,0.0,44.0,3.0,250.0,410.0,44.0,1018.0,1744252807.1642156,0.0,2025-04-09 22:40:07.164,RIGHT,29
177.0,12553.544348900838,1337.0366498275578,-59497.05803359247,-56375.10047854191,-34053.93320964971,-31328.115621580557,-9249.285966072794,-20978.788552139828,0.0,0.0,0.0,193.0,1.0,154.0,0.0,44.0,3.0,249.0,410.0,44.0,1017.0,1744252807.1642263,0.0,2025-04-09 22:40:07.164,RIGHT,29
178.0,12479.425964287038,1331.8286933694712,-59540.82274923596,-56400.08972884295,-34085.60563154288,-31365.510090054286,-9075.434097699415,-21006.035328630845,0.0,0.0,0.0,193.0,1.0,155.0,0.0,44.0,3.0,251.0,411.0,44.0,1019.0,1744252807.164236,0.0,2025-04-09 22:40:07.164,RIGHT,29
179.0,12438.70108588947,1288.4439573817203,-59565.29790941453,-56413.8136999385,-34131.82903907645,-31414.907445300516,-9123.557403511692,-21051.252907663933,0.0,0.0,0.0,193.0,1.0,154.0,0.0,44.0,3.0,250.0,410.0,44.0,1018.0,1744252807.164274,0.0,2025-04-09 22:40:07.164,RIGHT,29
180.0,12562.753267616425,1314.2602222276,-59557.83242676645,-56379.235551266145,-34150.04571080753,-31424.943378560947,-9023.73451277429,-21057.779617044882,0.0,0.0,0.0,193.0,1.0,155.0,0.0,44.0,3.0,251.0,411.0,44.0,1019.0,1744252807.1642833,0.0,2025-04-09 22:40:07.164,RIGHT,29
181.0,12556.67359312458,1335.449675971231,-59512.994827389106,-56386.90219961431,-34065.712578977655,-31336.519877495753,-9293.698882305489,-20978.96736609547,0.0,0.0,0.0,193.0,1.0,154.0,0.0,44.0,3.0,250.0,410.0,44.0,1018.0,1744252807.164292,0.0,2025-04-09 22:40:07.164,RIGHT,29
182.0,12497.597932529205,1339.0483068285355,-59536.01712417807,-56375.77103087557,-34079.86123321787,-31366.58297378814,-9058.871455058033,-21006.52706700886,0.0,0.0,0.0,193.0,1.0,154.0,0.0,44.0,3.0,249.0,410.0,44.0,1017.0,1744252807.1643012,0.0,2025-04-09 22:40:07.164,RIGHT,29
183.0,12444.669001659036,1304.2689924560777,-59558.39122037783,-56407.28699055756,-34110.14784695481,-31394.746171801828,-9147.920804967976,-21036.254887134422,0.0,0.0,0.0,193.0,1.0,155.0,0.0,44.0,3.0,252.0,411.0,44.0,1020.0,1744252807.16431,0.0,2025-04-09 22:40:07.164,RIGHT,29
184.0,12557.344145458239,1321.904518831315,-59550.27753714056,-56347.205501461685,-34145.59771366092,-31421.232988981366,-8973.308977283117,-21052.526957097885,0.0,0.0,0.0,193.0,1.0,154.0,0.0,44.0,3.0,250.0,410.0,44.0,1018.0,1744252807.1643188,0.0,2025-04-09 22:40:07.164,RIGHT,29
185.0,12573.10212529923,1337.8189608834937,-59522.2484495936,-56393.33950201744,-34074.69798024869,-31345.281761322232,-9306.484080133925,-20993.116020335678,0.0,0.0,0.0,193.0,1.0,155.0,0.0,44.0,3.0,251.0,411.0,44.0,1019.0,1744252807.1643279,0.0,2025-04-09 22:40:07.164,RIGHT,29
186.0,12515.099348437709,1336.2990422605328,-59522.82959494944,-56352.81578931997,-34069.51237553506,-31350.087386380124,-9062.872417315533,-20981.940148108024,0.0,0.0,0.0,193.0,1.0,154.0,0.0,44.0,3.0,249.0,410.0,44.0,1017.0,1744252807.1643367,0.0,2025-04-09 22:40:07.164,RIGHT,29
187.0,12443.372600480629,1299.5751261204632,-59561.69927855722,-56416.47355752868,-34102.637660817825,-31381.44688385092,-9152.167636414486,-21016.1606688691,0.0,0.0,0.0,193.0,1.0,155.0,0.0,44.0,3.0,249.0,411.0,44.0,1017.0,1744252807.1643455,0.0,2025-04-09 22:40:07.164,RIGHT,29
188.0,12522.698941552513,1302.8608325553935,-59558.32416514447,-56351.18411197473,-34150.51509744109,-31429.12315477409,-8968.279834780675,-21057.623154833695,0.0,0.0,0.0,193.0,1.0,154.0,0.0,44.0,3.0,252.0,410.0,44.0,1020.0,1744252807.1643543,0.0,2025-04-09 22:40:07.164,RIGHT,29
189.0,12566.396601962639,1325.7266671331724,-59543.616717292876,-56411.86909817089,-34093.98753571362,-31359.87745045155,-9291.08372820422,-21013.478459534464,0.0,0.0,0.0,193.0,1.0,154.0,0.0,44.0,3.0,249.0,410.0,44.0,1017.0,1744252807.1643631,0.0,2025-04-09 22:40:07.164,RIGHT,29
190.0,12515.278162393352,1329.7052776462172,-59524.68478973923,-56350.75942883008,-34070.24998310208,-31342.376034543042,-9099.886906133523,-20983.705935919996,0.0,0.0,0.0,193.0,1.0,154.0,0.0,44.0,3.0,251.0,410.0,44.0,1019.0,1744252807.164372,0.0,2025-04-09 22:40:07.164,RIGHT,29
191.0,12450.726324406425,1310.9745157926698,-59561.45340936821,-56415.60183949493,-34091.75236126809,-31367.946430199914,-9152.480560836859,-21014.573695012772,0.0,0.0,0.0,193.0,1.0,154.0,0.0,44.0,3.0,252.0,410.0,44.0,1020.0,1744252807.1643808,0.0,2025-04-09 22:40:07.164,RIGHT,29
192.0,12502.738833753925,1306.2135942236894,-59551.439827852235,-56348.99364101811,-34136.61231238989,-31420.584788392163,-8998.633503750982,-21062.853463036237,0.0,0.0,0.0,193.0,1.0,154.0,0.0,44.0,3.0,249.0,410.0,44.0,1017.0,1744252807.1643896,0.0,2025-04-09 22:40:07.164,RIGHT,29
193.0,12570.53167468687,1319.1105507744016,-59560.179359934256,-56420.69803723074,-34114.39467840132,-31387.63831706504,-9233.259765298339,-21040.25584939192,0.0,0.0,0.0,193.0,1.0,155.0,0.0,44.0,3.0,252.0,411.0,44.0,1020.0,1744252807.1643987,0.0,2025-04-09 22:40:07.164,RIGHT,29
194.0,12531.304363167807,1336.4778562161753,-59509.1950308317,-56349.172454973756,-34051.5862764819,-31332.92124663845,-9147.09379042313,-20971.121903791656,0.0,0.0,0.0,193.0,1.0,154.0,0.0,44.0,3.0,249.0,410.0,44.0,1017.0,1744252807.1644127,0.0,2025-04-09 22:40:07.164,RIGHT,29
195.0,12465.478475746928,1328.4312282122646,-59546.14246441633,-56403.64365621134,-34074.02742791503,-31357.57522077265,-9114.124967351552,-21004.850686174716,0.0,0.0,0.0,193.0,1.0,154.0,0.0,44.0,3.0,251.0,410.0,44.0,1019.0,1744252807.1644216,0.0,2025-04-09 22:40:07.164,RIGHT,29
196.0,12475.045022373799,1297.6528760973067,-59556.29015639903,-56368.08203078295,-34135.11474551138,-31415.421535422985,-9044.991021751288,-21055.656201321628,0.0,0.0,0.0,193.0,1.0,154.0,0.0,44.0,3.0,251.0,410.0,44.0,1019.0,1744252807.1644304,0.0,2025-04-09 22:40:07.164,RIGHT,29
197.0,12571.515151442904,1317.255355984611,-59564.53795010304,-56408.73985394715,-34129.03507101954,-31405.07267774018,-9163.544674342236,-21055.812663532815,0.0,0.0,0.0,193.0,1.0,154.0,0.0,44.0,3.0,249.0,410.0,44.0,1017.0,1744252807.1644392,0.0,2025-04-09 22:40:07.164,RIGHT,29
198.0,12534.992401002932,1327.35834447841,-59513.79949018949,-56366.27153948206,-34057.59889574038,-31344.767671199763,-9218.194689535463,-20993.697165691516,0.0,0.0,0.0,193.0,1.0,154.0,0.0,44.0,3.0,252.0,410.0,44.0,1020.0,1744252807.1644475,0.0,2025-04-09 22:40:07.164,RIGHT,29
199.0,12474.03919387331,1327.648917156329,-59543.057923681496,-56396.73696717465,-34070.473500546635,-31355.63061900504,-9082.050214058187,-20989.003299355903,0.0,0.0,0.0,193.0,1.0,154.0,0.0,44.0,3.0,250.0,410.0,44.0,1018.0,1744252807.1644564,0.0,2025-04-09 22:40:07.164,RIGHT,29
200.0,12461.27634778933,1296.870565041371,-59543.86258648188,-56378.54264718803,-34106.39275388631,-31397.78600904775,-9074.025937798731,-21022.57561952777,0.0,0.0,0.0,193.0,1.0,154.0,0.0,44.0,3.0,251.0,410.0,44.0,1019.0,1744252807.370185,0.0,2025-04-09 22:40:07.370,RIGHT,29
201.0,12582.579264948281,1324.1843967657562,-59540.82274923596,-56376.17336227577,-34114.70760282369,-31403.93273877296,-9044.812207795645,-21032.119814410187,0.0,0.0,0.0,193.0,1.0,155.0,0.0,44.0,3.0,252.0,411.0,44.0,1020.0,1744252807.3702188,0.0,2025-04-09 22:40:07.370,RIGHT,29
202.0,12553.209072734007,1333.9074056038148,-59498.935580126716,-56368.886693583336,-34044.07609034492,-31332.25069430479,-9248.794227694778,-20973.357078237186,0.0,0.0,0.0,193.0,1.0,154.0,0.0,44.0,3.0,250.0,410.0,44.0,1018.0,1744252807.3702447,0.0,2025-04-09 22:40:07.370,RIGHT,29
203.0,12491.652368504092,1342.0881440744572,-59525.221231606156,-56375.793382620024,-34060.97400915313,-31354.043645148715,-9055.138713733997,-20993.83127615825,0.0,0.0,0.0,193.0,1.0,155.0,0.0,44.0,3.0,252.0,411.0,44.0,1020.0,1744252807.3702643,0.0,2025-04-09 22:40:07.370,RIGHT,29
204.0,12444.289022003297,1298.2116697086894,-59547.59532780592,-56396.20052530772,-34104.53755909653,-31390.54404384423,-9122.193947099919,-21029.214087631,0.0,0.0,0.0,193.0,1.0,154.0,0.0,44.0,3.0,250.0,410.0,44.0,1018.0,1744252807.3702817,0.0,2025-04-09 22:40:07.370,RIGHT,29
205.0,12552.33735470025,1306.5041669016084,-59553.69735404222,-56368.55141741651,-34138.82513509096,-31419.109573258113,-8996.532439772182,-21050.0682652078,0.0,0.0,0.0,193.0,1.0,155.0,0.0,44.0,3.0,250.0,411.0,44.0,1018.0,1744252807.370291,0.0,2025-04-09 22:40:07.370,RIGHT,29
206.0,12543.776636573868,1315.869547828382,-59523.120167627356,-56399.240362553646,-34064.17030861024,-31344.05241537719,-9303.377187654638,-20992.3560610242,0.0,0.0,0.0,193.0,1.0,154.0,0.0,44.0,3.0,252.0,410.0,44.0,1020.0,1744252807.3703008,0.0,2025-04-09 22:40:07.370,RIGHT,29
207.0,12489.640711503114,1321.3680769643877,-59535.03364742204,-56376.151010531314,-34068.6406575013,-31361.06209290768,-9066.381641195017,-20997.87694190466,0.0,0.0,0.0,193.0,1.0,154.0,0.0,44.0,3.0,249.0,410.0,44.0,1017.0,1744252807.3703096,0.0,2025-04-09 22:40:07.370,RIGHT,29
208.0,12422.853699070656,1282.4760416121533,-59564.649708825316,-56420.02748489708,-34105.87866376384,-31395.573186346675,-9165.601034832125,-21037.238363890454,0.0,0.0,0.0,193.0,1.0,154.0,0.0,44.0,3.0,250.0,410.0,44.0,1018.0,1744252807.370319,0.0,2025-04-09 22:40:07.370,RIGHT,29
209.0,12528.175118944064,1301.1173964878794,-59551.10455168541,-56353.26282420908,-34138.51221066859,-31423.535218660265,-8983.34491054355,-21056.147939699644,0.0,0.0,0.0,193.0,1.0,154.0,0.0,44.0,3.0,249.0,410.0,44.0,1017.0,1744252807.37036,0.0,2025-04-09 22:40:07.370,RIGHT,29
210.0,12559.467561181495,1325.3019839885217,-59521.91317342677,-56401.810813166005,-34064.192660354696,-31345.661740977976,-9309.36745516866,-20996.49113374843,0.0,0.0,0.0,193.0,1.0,155.0,0.0,44.0,3.0,251.0,411.0,44.0,1019.0,1744252807.3703687,0.0,2025-04-09 22:40:07.370,RIGHT,29
211.0,12508.259714634385,1338.4895132171528,-59514.69355996771,-56352.99460327561,-34053.86615441634,-31346.91343866747,-9076.41757445545,-20992.981909868948,0.0,0.0,0.0,193.0,1.0,154.0,0.0,44.0,3.0,250.0,410.0,44.0,1018.0,1744252807.3703775,0.0,2025-04-09 22:40:07.370,RIGHT,29
212.0,12433.604888153659,1302.4585011551978,-59556.02193546557,-56422.82145295399,-34088.51135832207,-31381.44688385092,-9170.33960465665,-21029.817584731292,0.0,0.0,0.0,193.0,1.0,154.0,0.0,44.0,3.0,249.0,410.0,44.0,1017.0,1744252807.3703868,0.0,2025-04-09 22:40:07.370,RIGHT,29
213.0,12507.589162300726,1295.6412190963292,-59551.66334529679,-56356.52617889955,-34136.23233273415,-31432.185343764468,-8993.134974614975,-21066.340335171266,0.0,0.0,0.0,193.0,1.0,155.0,0.0,44.0,3.0,252.0,411.0,44.0,1020.0,1744252807.3703957,0.0,2025-04-09 22:40:07.370,RIGHT,29
214.0,12555.980689046466,1308.6722861137732,-59548.131769672844,-56422.709694231715,-34092.10998917937,-31378.11647392708,-9294.905876506076,-21036.21018364551,0.0,0.0,0.0,193.0,1.0,154.0,0.0,44.0,3.0,250.0,410.0,44.0,1018.0,1744252807.3704045,0.0,2025-04-09 22:40:07.370,RIGHT,29
215.0,12509.33259836824,1322.6197746538849,-59515.52057451256,-56353.016955020066,-34052.6368084713,-31342.465441520864,-9126.843109946622,-20986.365793510176,0.0,0.0,0.0,193.0,1.0,155.0,0.0,44.0,3.0,251.0,411.0,44.0,1019.0,1744252807.3704135,0.0,2025-04-09 22:40:07.370,RIGHT,29
216.0,12432.241431741886,1298.9492772757146,-59561.721630301676,-56424.58724076596,-34083.43751233072,-31375.411912847987,-9150.960642213899,-21020.452203804518,0.0,0.0,0.0,193.0,1.0,154.0,0.0,44.0,3.0,249.0,410.0,44.0,1017.0,1744252807.3704224,0.0,2025-04-09 22:40:07.370,RIGHT,29
217.0,12474.575635740237,1284.5324021020415,-59557.36304013289,-56367.6573476383,-34134.17597224426,-31430.039576296756,-9017.386617348984,-21070.296593939853,0.0,0.0,0.0,193.0,1.0,155.0,0.0,44.0,3.0,252.0,411.0,44.0,1020.0,1744252807.3704314,0.0,2025-04-09 22:40:07.370,RIGHT,29
218.0,12569.995232819943,1317.8812048293598,-59549.763447018086,-56415.78065345057,-34104.04582071851,-31390.097008955123,-9215.959515089931,-21044.815605260803,0.0,0.0,0.0,193.0,1.0,155.0,0.0,44.0,3.0,250.0,411.0,44.0,1018.0,1744252807.37044,0.0,2025-04-09 22:40:07.370,RIGHT,29
219.0,12519.547345584315,1326.0395915555468,-59508.47977500913,-56361.68943186873,-34051.69803520418,-31348.254543334788,-9174.653491336525,-21001.96731113998,0.0,0.0,0.0,193.0,1.0,154.0,0.0,44.0,3.0,249.0,410.0,44.0,1017.0,1744252807.3704488,0.0,2025-04-09 22:40:07.370,RIGHT,29
220.0,12447.328859249219,1312.516786160086,-59550.47870284066,-56419.289877330055,-34077.670762261245,-31372.729703513352,-9122.730388966846,-21016.78651771385,0.0,0.0,0.0,193.0,1.0,155.0,0.0,44.0,3.0,252.0,411.0,44.0,1020.0,1744252807.3704576,0.0,2025-04-09 22:40:07.370,RIGHT,29
221.0,12465.9925658694,1293.9201347732705,-59546.38833360533,-56374.98871981964,-34121.770754071564,-31412.44875341043,-9066.068716772643,-21050.98468673047,0.0,0.0,0.0,193.0,1.0,154.0,0.0,44.0,3.0,249.0,410.0,44.0,1017.0,1744252807.3704662,0.0,2025-04-09 22:40:07.370,RIGHT,29
222.0,12570.397564220139,1314.126111760868,-59553.518540086574,-56404.20244982272,-34125.68230935124,-31408.090163241646,-9140.589432786635,-21056.147939699644,0.0,0.0,0.0,193.0,1.0,155.0,0.0,44.0,3.0,252.0,411.0,44.0,1020.0,1744252807.3704753,0.0,2025-04-09 22:40:07.370,RIGHT,29
223.0,12533.807758546802,1325.9948880666361,-59504.85879240737,-56370.29485348402,-34052.68151196021,-31344.67826422194,-9244.502692759359,-20999.195694827522,0.0,0.0,0.0,193.0,1.0,154.0,0.0,44.0,3.0,249.0,410.0,44.0,1017.0,1744252807.3704896,0.0,2025-04-09 22:40:07.370,RIGHT,29
224.0,12468.18303682602,1326.710143889206,-59544.13080741535,-56404.42596726728,-34078.095445405896,-31375.434264592444,-9102.010321856776,-21032.857421977213,0.0,0.0,0.0,193.0,1.0,155.0,0.0,44.0,3.0,252.0,411.0,44.0,1020.0,1744252807.3704984,0.0,2025-04-09 22:40:07.370,RIGHT,29
225.0,12452.89444361859,1297.2058412082006,-59546.343630116426,-56391.663121183294,-34113.27709117855,-31405.430305651465,-9117.56713599767,-21056.50556761093,0.0,0.0,0.0,193.0,1.0,154.0,0.0,44.0,3.0,251.0,410.0,44.0,1019.0,1744252807.3705072,0.0,2025-04-09 22:40:07.370,RIGHT,29
226.0,12569.682308397569,1322.5750711649741,-59546.321278371965,-56382.76712689008,-34132.2537222211,-31414.75098308933,-9064.884074316511,-21066.98853576047,0.0,0.0,0.0,193.0,1.0,154.0,0.0,44.0,3.0,249.0,410.0,44.0,1017.0,1744252807.370516,0.0,2025-04-09 22:40:07.370,RIGHT,29
227.0,12542.703752840014,1330.1746642797787,-59504.72468194064,-56383.92941760176,-34057.822413184935,-31337.771575185252,-9300.583219597724,-21002.906084407103,0.0,0.0,0.0,193.0,1.0,155.0,0.0,44.0,3.0,250.0,411.0,44.0,1018.0,1744252807.370525,0.0,2025-04-09 22:40:07.370,RIGHT,29
228.0,12472.631033972626,1318.5964606519296,-59540.06278992448,-56395.172345062776,-34084.30923036447,-31370.874508723562,-9091.013263584766,-21027.671817263585,0.0,0.0,0.0,193.0,1.0,154.0,0.0,44.0,3.0,250.0,410.0,44.0,1018.0,1744252807.370556,0.0,2025-04-09 22:40:07.370,RIGHT,29
229.0,12420.707931602947,1276.0610909534803,-59565.94611000373,-56426.04010415556,-34125.36938492887,-31408.380735919567,-9165.24340692084,-21056.840843777758,0.0,0.0,0.0,193.0,1.0,155.0,0.0,44.0,3.0,252.0,411.0,44.0,1020.0,1744252807.370565,0.0,2025-04-09 22:40:07.370,RIGHT,29
230.0,12541.362648172695,1306.0571320125023,-59552.73622903064,-56375.72632738666,-34144.27896073806,-31428.206733251423,-9006.233096865786,-21068.687268339072,0.0,0.0,0.0,193.0,1.0,154.0,0.0,44.0,3.0,250.0,410.0,44.0,1018.0,1744252807.3705735,0.0,2025-04-09 22:40:07.370,RIGHT,29
231.0,12554.281956467863,1331.4263619692758,-59505.41758601875,-56396.155821818815,-34059.23057308562,-31333.368281527553,-9320.051589018296,-20991.81961915727,0.0,0.0,0.0,193.0,1.0,154.0,0.0,44.0,3.0,249.0,410.0,44.0,1017.0,1744252807.3705823,0.0,2025-04-09 22:40:07.370,RIGHT,29
232.0,12497.307359851286,1335.8743591158818,-59514.73826345662,-56366.42800169325,-34062.27041033154,-31347.405177045486,-9071.522542419738,-20999.285101805344,0.0,0.0,0.0,193.0,1.0,155.0,0.0,44.0,3.0,252.0,411.0,44.0,1020.0,1744252807.3705912,0.0,2025-04-09 22:40:07.370,RIGHT,29
233.0,12431.325010219218,1299.195146464723,-59548.17647316176,-56421.61445875341,-34093.13816942432,-31387.750075787317,-9165.19870343193,-21049.73298904097,0.0,0.0,0.0,193.0,1.0,154.0,0.0,44.0,3.0,250.0,410.0,44.0,1018.0,1744252807.3706,0.0,2025-04-09 22:40:07.370,RIGHT,29
234.0,12519.994380473421,1298.0775592419577,-59548.86937723987,-56365.310414470485,-34140.590922902935,-31430.955997819427,-8972.549017971638,-21074.54342538636,0.0,0.0,0.0,193.0,1.0,155.0,0.0,44.0,3.0,252.0,411.0,44.0,1020.0,1744252807.3706083,0.0,2025-04-09 22:40:07.370,RIGHT,29
235.0,12552.650279122625,1319.1552542633121,-59525.556507772984,-56417.568793007,-34074.85444245988,-31347.74045321232,-9297.230457929429,-20995.798229670316,0.0,0.0,0.0,193.0,1.0,154.0,0.0,44.0,3.0,250.0,410.0,44.0,1018.0,1744252807.3706172,0.0,2025-04-09 22:40:07.370,RIGHT,29
236.0,12500.973045941955,1328.6547456568178,-59512.16781284426,-56359.67777486775,-34059.007055641065,-31342.376034543042,-9078.026900056231,-20982.610700441684,0.0,0.0,0.0,193.0,1.0,155.0,0.0,44.0,3.0,250.0,411.0,44.0,1018.0,1744252807.3706255,0.0,2025-04-09 22:40:07.370,RIGHT,29
237.0,12433.783702109302,1306.7053326017062,-59546.813016749984,-56421.234479097664,-34085.67268677625,-31367.20882263289,-9163.924653997976,-21018.82052645928,0.0,0.0,0.0,193.0,1.0,155.0,0.0,44.0,3.0,252.0,411.0,44.0,1020.0,1744252807.3706343,0.0,2025-04-09 22:40:07.370,RIGHT,29
238.0,12497.933208696033,1303.2855157000442,-59540.666287024775,-56350.357097429885,-34133.728937355154,-31416.136791245557,-8985.91536115591,-21058.383114145174,0.0,0.0,0.0,193.0,1.0,154.0,0.0,44.0,3.0,249.0,410.0,44.0,1017.0,1744252807.370648,0.0,2025-04-09 22:40:07.370,RIGHT,29
239.0,12555.511302412904,1315.4672164281865,-59541.4038945918,-56420.51922327509,-34097.943794482206,-31375.72483727036,-9265.111001147152,-21030.73400625396,0.0,0.0,0.0,193.0,1.0,155.0,0.0,44.0,3.0,252.0,411.0,44.0,1020.0,1744252807.3706565,0.0,2025-04-09 22:40:07.370,RIGHT,29
240.0,12502.42590933155,1324.4973211881306,-59513.10658611138,-56357.59906263341,-34064.952619666175,-31352.099043381102,-9129.27945009225,-20996.69229944853,0.0,0.0,0.0,193.0,1.0,154.0,0.0,44.0,3.0,250.0,410.0,44.0,1018.0,1744252807.3706653,0.0,2025-04-09 22:40:07.370,RIGHT,29
241.0,12437.896423089078,1308.873451813871,-59552.3562493749,-56420.74274071965,-34088.62311704434,-31371.656819779495,-9145.752685755811,-21015.06543339079,0.0,0.0,0.0,193.0,1.0,154.0,0.0,44.0,3.0,249.0,410.0,44.0,1017.0,1744252807.370674,0.0,2025-04-09 22:40:07.370,RIGHT,29
242.0,12472.631033972626,1287.102852714402,-59545.2036911492,-56360.86241732388,-34134.33243445545,-31414.326299944678,-9028.897765743466,-21053.912765254114,0.0,0.0,0.0,193.0,1.0,155.0,0.0,44.0,3.0,251.0,411.0,44.0,1019.0,1744252807.3706827,0.0,2025-04-09 22:40:07.370,RIGHT,29
243.0,12559.132285014664,1306.97355353517,-59553.07150519747,-56413.8136999385,-34126.57637912946,-31391.147540944523,-9203.978980061887,-21047.721332039993,0.0,0.0,0.0,193.0,1.0,155.0,0.0,44.0,3.0,250.0,411.0,44.0,1018.0,1744252807.3706913,0.0,2025-04-09 22:40:07.370,RIGHT,29
244.0,12517.513336838883,1323.580899665463,-59505.216420318655,-56358.0013940336,-34062.44922428718,-31332.58597047162,-9204.046035295252,-20987.371622010665,0.0,0.0,0.0,193.0,1.0,154.0,0.0,44.0,3.0,249.0,410.0,44.0,1017.0,1744252807.3707001,0.0,2025-04-09 22:40:07.370,RIGHT,29
245.0,12450.860434873157,1313.1202832603792,-59545.270746382565,-56408.225763824674,-34083.23634663062,-31363.476081308854,-9123.557403511692,-21024.54257303984,0.0,0.0,0.0,193.0,1.0,155.0,0.0,44.0,3.0,252.0,411.0,44.0,1020.0,1744252807.3707087,0.0,2025-04-09 22:40:07.370,RIGHT,29
246.0,12444.959574336955,1285.2700096690667,-59549.271708640066,-56378.453240210205,-34127.023414018564,-31406.74905857433,-9084.732423392823,-21057.958431000523,0.0,0.0,0.0,193.0,1.0,154.0,0.0,44.0,3.0,249.0,410.0,44.0,1017.0,1744252807.3707175,0.0,2025-04-09 22:40:07.370,RIGHT,29
247.0,12557.947642558533,1316.2048239952117,-59547.304755128,-56392.579542705964,-34123.49183839463,-31396.40020089152,-9109.744025438313,-21045.39675061664,0.0,0.0,0.0,193.0,1.0,155.0,0.0,44.0,3.0,252.0,411.0,44.0,1020.0,1744252807.3707268,0.0,2025-04-09 22:40:07.370,RIGHT,29
248.0,12526.990476487932,1326.777199122572,-59500.16492607176,-56368.953748816704,-34051.02748287052,-31326.550999468687,-9245.396762537572,-20970.876034602647,0.0,0.0,0.0,193.0,1.0,154.0,0.0,44.0,3.0,250.0,410.0,44.0,1018.0,1744252807.3707356,0.0,2025-04-09 22:40:07.370,RIGHT,29
249.0,12461.790437911803,1320.9880973086474,-59539.39223759082,-56401.09555734343,-34075.50264304908,-31364.616020276073,-9088.018129827755,-21007.331729809255,0.0,0.0,0.0,193.0,1.0,155.0,0.0,44.0,3.0,251.0,411.0,44.0,1019.0,1744252807.3707445,0.0,2025-04-09 22:40:07.370,RIGHT,29
250.0,12426.564088650239,1281.224343922656,-59556.31250814349,-56409.18688883626,-34119.58028311495,-31409.520674886786,-9128.586546014136,-21048.436587862565,0.0,0.0,0.0,193.0,1.0,155.0,0.0,44.0,3.0,252.0,411.0,44.0,1020.0,1744252807.3707533,0.0,2025-04-09 22:40:07.370,RIGHT,29
251.0,12546.034162763854,1301.743245332628,-59555.26197615409,-56391.99839735012,-34140.07683278046,-31430.17368676349,-9048.79081830869,-21072.040030007367,0.0,0.0,0.0,193.0,1.0,154.0,0.0,44.0,3.0,249.0,410.0,44.0,1017.0,1744252807.370762,0.0,2025-04-09 22:40:07.370,RIGHT,29
252.0,12535.372380658673,1319.0434955410358,-59505.30582729648,-56393.6077229509,-34056.615418984344,-31342.376034543042,-9309.322751679749,-21000.290930305833,0.0,0.0,0.0,193.0,1.0,155.0,0.0,44.0,3.0,251.0,411.0,44.0,1019.0,1744252807.570784,0.0,2025-04-09 22:40:07.570,RIGHT,29
253.0,12474.41917352905,1321.971574064681,-59527.523461285055,-56386.34340600293,-34070.92053543574,-31364.68307550944,-9079.323301234639,-21013.97019791248,0.0,0.0,0.0,193.0,1.0,155.0,0.0,44.0,3.0,253.0,411.0,44.0,1021.0,1744252807.5708692,0.0,2025-04-09 22:40:07.570,RIGHT,29
254.0,12419.590344380182,1285.2253061801562,-59554.2561476536,-56423.73787447666,-34112.494780122615,-31407.59842486363,-9167.05389822172,-21053.0186954759,0.0,0.0,0.0,193.0,1.0,154.0,0.0,44.0,3.0,249.0,410.0,44.0,1017.0,1744252807.57088,0.0,2025-04-09 22:40:07.570,RIGHT,29
255.0,12536.825244048268,1305.0960070009241,-59544.64489753782,-56372.15004827381,-34143.20607700421,-31440.120213046102,-8995.727776971791,-21076.488027153973,0.0,0.0,0.0,193.0,1.0,155.0,0.0,44.0,3.0,251.0,411.0,44.0,1019.0,1744252807.5708897,0.0,2025-04-09 22:40:07.570,RIGHT,29
0.0,12553.253776222919,1326.128998533368,-59504.97055112965,-56404.962409134205,-34061.62220974234,-31349.506241024286,-9319.984533784931,-21007.1082123647,0.0,0.0,0.0,193.0,1.0,155.0,0.0,44.0,3.0,252.0,411.0,44.0,1020.0,1744252807.5708992,0.0,2025-04-09 22:40:07.570,RIGHT,29
1.0,12500.794231986312,1335.9861178381584,-59507.943333142204,-56364.99749004811,-34061.39869229778,-31354.244810848813,-9066.024013283732,-20991.998433112913,0.0,0.0,0.0,193.0,1.0,154.0,0.0,44.0,3.0,250.0,410.0,44.0,1018.0,1744252807.570908,0.0,2025-04-09 22:40:07.570,RIGHT,29
2.0,12433.627239898115,1299.1057394869017,-59542.23090913665,-56424.20726111022,-34094.36751536936,-31389.02412522127,-9163.09763945313,-21034.556154555816,0.0,0.0,0.0,193.0,1.0,154.0,0.0,44.0,3.0,249.0,410.0,44.0,1017.0,1744252807.570917,0.0,2025-04-09 22:40:07.570,RIGHT,29
3.0,12522.14014794113,1304.1795854782565,-59533.178452632244,-56354.80509457649,-34139.07100427998,-31431.671253641995,-8978.047547107642,-21071.45888465153,0.0,0.0,0.0,193.0,1.0,154.0,0.0,44.0,3.0,250.0,410.0,44.0,1018.0,1744252807.570926,0.0,2025-04-09 22:40:07.570,RIGHT,29
4.0,12561.523921671382,1327.6042136674182,-59517.71104546917,-56411.533822004065,-34081.91759370775,-31361.73264524134,-9303.444242888003,-21018.619360759185,0.0,0.0,0.0,193.0,1.0,154.0,0.0,44.0,3.0,251.0,410.0,44.0,1019.0,1744252807.5709352,0.0,2025-04-09 22:40:07.570,RIGHT,29
5.0,12498.223781373952,1323.9161758322925,-59511.20668783268,-56363.231702236146,-34071.36757032485,-31362.805528975194,-9104.13373758003,-21007.48819202044,0.0,0.0,0.0,193.0,1.0,155.0,0.0,44.0,3.0,252.0,411.0,44.0,1020.0,1744252807.570944,0.0,2025-04-09 22:40:07.570,RIGHT,29
6.0,12436.532966677305,1301.4079691657985,-59544.91311847128,-56428.9681826792,-34094.16634966926,-31383.570299574174,-9174.698194825434,-21032.656256277118,0.0,0.0,0.0,193.0,1.0,154.0,0.0,44.0,3.0,250.0,410.0,44.0,1018.0,1744252807.570953,0.0,2025-04-09 22:40:07.570,RIGHT,29
7.0,12493.641673760614,1291.6626085832845,-59536.24064162262,-56359.72247835666,-34135.002986789106,-31430.35250071913,-8998.49939328425,-21068.731971827983,0.0,0.0,0.0,193.0,1.0,154.0,0.0,44.0,3.0,249.0,410.0,44.0,1017.0,1744252807.5709615,0.0,2025-04-09 22:40:07.570,RIGHT,29
8.0,12560.428686193072,1312.2485652266223,-59538.2522986236,-56427.09063614496,-34105.11870445236,-31393.02508747877,-9249.174207350517,-21049.50947159642,0.0,0.0,0.0,193.0,1.0,154.0,0.0,44.0,3.0,249.0,410.0,44.0,1017.0,1744252807.5709703,0.0,2025-04-09 22:40:07.570,RIGHT,29
9.0,12513.601781559204,1325.972536322181,-59499.04733884899,-56363.61168189188,-34061.733968464614,-31356.502337038797,-9155.8109707607,-21011.377395555664,0.0,0.0,0.0,193.0,1.0,154.0,0.0,44.0,3.0,250.0,410.0,44.0,1018.0,1744252807.570979,0.0,2025-04-09 22:40:07.570,RIGHT,29
10.0,12439.393989967584,1305.028951767558,-59543.3037928705,-56428.67761000129,-34091.864119990365,-31380.374000117066,-9146.28912762274,-21033.527974310873,0.0,0.0,0.0,193.0,1.0,154.0,0.0,44.0,3.0,252.0,410.0,44.0,1020.0,1744252807.570988,0.0,2025-04-09 22:40:07.570,RIGHT,29
11.0,12471.602853727682,1291.4390911387316,-59531.90440319829,-56369.3560802169,-34126.59873087391,-31419.198980235935,-9043.515806617237,-21068.240233449964,0.0,0.0,0.0,193.0,1.0,154.0,0.0,44.0,3.0,251.0,410.0,44.0,1019.0,1744252807.5709968,0.0,2025-04-09 22:40:07.570,RIGHT,29
12.0,12561.076886782275,1311.868585570882,-59540.174548646755,-56415.19950809473,-34119.51322788158,-31399.328279415167,-9173.111220969107,-21057.399637389142,0.0,0.0,0.0,193.0,1.0,154.0,0.0,44.0,3.0,252.0,410.0,44.0,1020.0,1744252807.5710115,0.0,2025-04-09 22:40:07.571,RIGHT,29
13.0,12518.183889172542,1320.0269722970693,-59494.465231235656,-56370.25014999511,-34055.587238739405,-31340.364377542068,-9211.422110965505,-20991.663156946084,0.0,0.0,0.0,193.0,1.0,154.0,0.0,44.0,3.0,251.0,410.0,44.0,1019.0,1744252807.5710204,0.0,2025-04-09 22:40:07.571,RIGHT,29
14.0,12450.279289517319,1307.644105868829,-59537.42528407875,-56417.52408951808,-34079.41419832876,-31372.77440700226,-9104.111385835575,-21025.481346306962,0.0,0.0,0.0,193.0,1.0,155.0,0.0,44.0,3.0,249.0,411.0,44.0,1017.0,1744252807.5710292,0.0,2025-04-09 22:40:07.571,RIGHT,29
15.0,12439.103417289665,1270.651968795296,-59548.10941792839,-56401.96727537719,-34129.99619603112,-31420.92006455899,-9101.8985631345,-21073.761114330428,0.0,0.0,0.0,193.0,1.0,155.0,0.0,44.0,3.0,252.0,411.0,44.0,1020.0,1744252807.571038,0.0,2025-04-09 22:40:07.571,RIGHT,29
16.0,12551.510340155404,1293.0707684839688,-59552.95974647519,-56416.272391828585,-34140.50151592511,-31429.212561751912,-9100.75862416728,-21086.88158832569,0.0,0.0,0.0,193.0,1.0,155.0,0.0,44.0,3.0,252.0,411.0,44.0,1020.0,1744252807.571047,0.0,2025-04-09 22:40:07.571,RIGHT,29
17.0,12525.537613098337,1308.9852105361474,-59499.02498710454,-56393.3618537619,-34054.469651516636,-31344.946485155404,-9268.396707582082,-21003.576636740763,0.0,0.0,0.0,193.0,1.0,154.0,0.0,44.0,3.0,249.0,410.0,44.0,1017.0,1744252807.571056,0.0,2025-04-09 22:40:07.571,RIGHT,29
18.0,12460.56109196676,1308.2028994802117,-59534.34074334392,-56408.225763824674,-34079.45890181767,-31367.991133688825,-9082.340786736106,-21013.612570001194,0.0,0.0,0.0,193.0,1.0,155.0,0.0,44.0,3.0,252.0,411.0,44.0,1020.0,1744252807.5710647,0.0,2025-04-09 22:40:07.571,RIGHT,29
19.0,12426.45232992796,1276.4187188647652,-59547.863548739384,-56417.52408951808,-34115.221692946165,-31408.22427370838,-9135.873214706566,-21056.371457144196,0.0,0.0,0.0,193.0,1.0,154.0,0.0,44.0,3.0,251.0,410.0,44.0,1019.0,1744252807.5710733,0.0,2025-04-09 22:40:07.571,RIGHT,29
20.0,12531.416121890083,1290.1426899603237,-59553.317374386475,-56394.52414447357,-34149.5092689406,-31432.498268186842,-9025.679114541903,-21077.717373099014,0.0,0.0,0.0,193.0,1.0,155.0,0.0,44.0,3.0,251.0,411.0,44.0,1019.0,1744252807.571082,0.0,2025-04-09 22:40:07.571,RIGHT,29
21.0,12516.842784505223,1301.4750243991643,-59519.67799898124,-56416.898240673334,-34076.53082329402,-31351.696711980905,-9321.37034194116,-21012.96436941199,0.0,0.0,0.0,193.0,1.0,154.0,0.0,45.0,3.0,249.0,410.0,45.0,1017.0,1744252807.571091,0.0,2025-04-09 22:40:07.571,RIGHT,29
22.0,12473.256882817375,1318.2835362295552,-59525.556507772984,-56389.383243248856,-34075.97202968264,-31359.989209173826,-9087.03465307172,-21014.14901186812,0.0,0.0,0.0,193.0,1.0,154.0,0.0,44.0,3.0,249.0,410.0,44.0,1017.0,1744252807.5711,0.0,2025-04-09 22:40:07.571,RIGHT,29
23.0,12415.924658289512,1280.6655503112734,-59554.63612730934,-56432.23153736968,-34112.94181501172,-31399.194168948434,-9170.160790701007,-21055.052704221333,0.0,0.0,0.0,193.0,1.0,154.0,0.0,44.0,3.0,251.0,410.0,44.0,1019.0,1744252807.5711086,0.0,2025-04-09 22:40:07.571,RIGHT,29
24.0,12520.799043273813,1291.4390911387316,-59550.34459237392,-56378.90027509932,-34151.31976024148,-31437.661521156017,-8987.390576289961,-21087.663899381627,0.0,0.0,0.0,193.0,1.0,154.0,0.0,44.0,3.0,249.0,410.0,44.0,1017.0,1744252807.5711176,0.0,2025-04-09 22:40:07.571,RIGHT,29
25.0,12535.215918447486,1305.6324488678515,-59526.6517432513,-56426.59889776694,-34086.41029434327,-31360.5032992963,-9329.349914711704,-21032.097462665733,0.0,0.0,0.0,193.0,1.0,154.0,0.0,45.0,3.0,250.0,410.0,45.0,1018.0,1744252807.571126,0.0,2025-04-09 22:40:07.571,RIGHT,29
26.0,12490.914760937067,1323.9832310656586,-59511.385501788325,-56368.596120905415,-34068.46184354566,-31348.72392996835,-9086.207638526874,-21007.756412953906,0.0,0.0,0.0,193.0,1.0,154.0,0.0,45.0,3.0,250.0,410.0,45.0,1018.0,1744252807.5711348,0.0,2025-04-09 22:40:07.571,RIGHT,29
27.0,12416.706969345447,1287.9522190037035,-59548.981135962145,-56431.9186129473,-34102.928233495746,-31378.183529160444,-9166.360994143604,-21035.83020398977,0.0,0.0,0.0,193.0,1.0,154.0,0.0,44.0,3.0,250.0,410.0,44.0,1018.0,1744252807.5711484,0.0,2025-04-09 22:40:07.571,RIGHT,29
28.0,12504.370511099161,1294.7918528070275,-59536.77708348955,-56360.415382434774,-34145.44125144974,-31422.73055585987,-8986.228285578285,-21075.102218997745,0.0,0.0,0.0,193.0,1.0,154.0,0.0,44.0,3.0,252.0,410.0,44.0,1020.0,1744252807.5711575,0.0,2025-04-09 22:40:07.571,RIGHT,29
29.0,12543.709581340503,1305.1854139787454,-59531.725589242655,-56430.622211768896,-34099.46371310517,-31366.91824995497,-9291.821335771243,-21029.124680653178,0.0,0.0,0.0,193.0,1.0,155.0,0.0,44.0,3.0,251.0,411.0,44.0,1019.0,1744252807.571166,0.0,2025-04-09 22:40:07.571,RIGHT,29
30.0,12493.529915038338,1313.612021638396,-59508.368016286855,-56369.33372847244,-34071.34521858039,-31350.221496846858,-9112.895621406511,-21000.067412861277,0.0,0.0,0.0,193.0,1.0,155.0,0.0,45.0,3.0,252.0,411.0,45.0,1020.0,1744252807.5711749,0.0,2025-04-09 22:40:07.571,RIGHT,29
31.0,12428.21811773993,1299.3963121648208,-59540.21925213567,-56429.97401117969,-34090.03127694503,-31374.003752947305,-9157.822627761678,-21037.081901679267,0.0,0.0,0.0,193.0,1.0,154.0,0.0,44.0,3.0,252.0,410.0,44.0,1020.0,1744252807.5711837,0.0,2025-04-09 22:40:07.571,RIGHT,29
32.0,12474.888560162612,1288.3321986594437,-59534.00546717709,-56368.01497554958,-34138.46750717968,-31428.810230351715,-9013.095082413565,-21083.327660957297,0.0,0.0,0.0,193.0,1.0,155.0,0.0,44.0,3.0,251.0,411.0,44.0,1019.0,1744252807.5711925,0.0,2025-04-09 22:40:07.571,RIGHT,29
33.0,12548.917537798588,1305.9900767791364,-59538.20759513469,-56429.88460420187,-34113.83588478993,-31386.252508908812,-9234.131483332096,-21041.97693371498,0.0,0.0,0.0,193.0,1.0,155.0,0.0,44.0,3.0,252.0,411.0,44.0,1020.0,1744252807.571201,0.0,2025-04-09 22:40:07.571,RIGHT,29
34.0,12498.223781373952,1309.231079725156,-59503.54003948451,-56374.139353530336,-34068.50654703457,-31347.695749723407,-9169.356127900617,-21002.660215218093,0.0,0.0,0.0,193.0,1.0,154.0,0.0,45.0,3.0,250.0,410.0,45.0,1018.0,1744252807.57121,0.0,2025-04-09 22:40:07.571,RIGHT,29
35.0,12438.186995766997,1303.6431436113292,-59539.81692073547,-56427.805891967524,-34090.79123625651,-31372.081502924146,-9135.068551906175,-21031.225744631978,0.0,0.0,0.0,193.0,1.0,155.0,0.0,44.0,3.0,252.0,411.0,44.0,1020.0,1744252807.5712187,0.0,2025-04-09 22:40:07.571,RIGHT,29
36.0,12456.98481285391,1284.4429951242203,-59535.1007026554,-56379.39201347733,-34133.37130944387,-31410.995890020837,-9059.854931814067,-21061.937041513567,0.0,0.0,0.0,193.0,1.0,154.0,0.0,44.0,3.0,250.0,410.0,44.0,1018.0,1744252807.5712273,0.0,2025-04-09 22:40:07.571,RIGHT,29
37.0,12553.05261052282,1305.0513035120134,-59543.54966205951,-56416.60766799542,-34132.36548094338,-31400.244700937834,-9158.895511495533,-21059.59010834576,0.0,0.0,0.0,193.0,1.0,155.0,0.0,44.0,3.0,251.0,411.0,44.0,1019.0,1744252807.5712361,0.0,2025-04-09 22:40:07.571,RIGHT,29
38.0,12510.964275713477,1311.198033237223,-59498.242676048605,-56380.57665593346,-34064.48323303262,-31339.49265950831,-9235.338477532683,-20999.15099133861,0.0,0.0,0.0,193.0,1.0,155.0,0.0,45.0,3.0,250.0,411.0,45.0,1018.0,1744252807.5712447,0.0,2025-04-09 22:40:07.571,RIGHT,29
39.0,12451.575690695727,1311.846233826427,-59533.625487521356,-56415.42302553928,-34087.63964028831,-31364.459558064886,-9119.66819997647,-21028.632942275162,0.0,0.0,0.0,193.0,1.0,154.0,0.0,44.0,3.0,251.0,410.0,44.0,1019.0,1744252807.5712535,0.0,2025-04-09 22:40:07.571,RIGHT,29
40.0,12432.800225353269,1281.2690474115668,-59542.38737134783,-56402.63782771085,-34130.68910010924,-31406.704355085418,-9127.938345424933,-21070.02837300639,0.0,0.0,0.0,193.0,1.0,155.0,0.0,44.0,3.0,252.0,411.0,44.0,1020.0,1744252807.5712624,0.0,2025-04-09 22:40:07.571,RIGHT,29
41.0,12557.947642558533,1316.0260100395692,-59533.670191010264,-56392.44543223923,-34129.72797509765,-31408.201921963922,-9072.818943598146,-21069.0225445059,0.0,0.0,0.0,193.0,1.0,154.0,0.0,44.0,3.0,250.0,410.0,44.0,1018.0,1744252807.5712707,0.0,2025-04-09 22:40:07.571,RIGHT,29
42.0,12530.47734862296,1323.938527576748,-59492.83355389042,-56388.75739440411,-34057.10715736236,-31333.144764083,-9274.185809396007,-21010.30451182181,0.0,0.0,0.0,193.0,1.0,155.0,0.0,44.0,3.0,251.0,411.0,44.0,1019.0,1744252807.5712843,0.0,2025-04-09 22:40:07.571,RIGHT,29
43.0,12467.937167637012,1318.2611844850999,-59523.00840890508,-56396.1111183299,-34078.67659076174,-31352.568430014664,-9076.79755411119,-21012.31616882279,0.0,0.0,0.0,193.0,1.0,155.0,0.0,44.0,3.0,252.0,411.0,44.0,1020.0,1744252807.571293,0.0,2025-04-09 22:40:07.571,RIGHT,29
44.0,12423.680713615504,1282.163117189779,-59542.007391692096,-56415.847708683934,-34118.86502729238,-31393.472122367875,-9151.09475268063,-21049.777692529882,0.0,0.0,0.0,193.0,1.0,155.0,0.0,44.0,3.0,250.0,411.0,44.0,1018.0,1744252807.5713017,0.0,2025-04-09 22:40:07.571,RIGHT,29
45.0,12539.61921210518,1303.1737569777677,-59540.1521969023,-56382.74477514563,-34151.1632980303,-31427.69264312895,-9023.555698818649,-21085.585187147284,0.0,0.0,0.0,193.0,1.0,155.0,0.0,44.0,3.0,252.0,411.0,44.0,1020.0,1744252807.5713103,0.0,2025-04-09 22:40:07.571,RIGHT,29
46.0,12542.10025573972,1325.54785317753,-59495.359301013865,-56400.06737709849,-34065.042026644,-31335.82697341764,-9318.486966906425,-21002.079069862255,0.0,0.0,0.0,193.0,1.0,154.0,0.0,45.0,3.0,249.0,410.0,45.0,1017.0,1744252807.571319,0.0,2025-04-09 22:40:07.571,RIGHT,29
47.0,12474.977967140434,1320.6528211418179,-59516.86167917987,-56384.57761819096,-34079.347143095394,-31357.552869028197,-9066.783972595213,-21004.31424430779,0.0,0.0,0.0,193.0,1.0,154.0,0.0,44.0,3.0,251.0,410.0,44.0,1019.0,1744252807.8778193,0.0,2025-04-09 22:40:07.877,RIGHT,29
48.0,12412.79541406577,1283.615980579374,-59547.997659206114,-56436.70188626074,-34115.422858646256,-31393.226253178866,-9168.395002889038,-21044.100349438235,0.0,0.0,0.0,193.0,1.0,154.0,0.0,44.0,3.0,249.0,410.0,44.0,1017.0,1744252807.877875,0.0,2025-04-09 22:40:07.877,RIGHT,29
