Sample Index,EXG Channel 0,EXG Channel 1,EXG Channel 2,EXG Channel 3,EXG Channel 4,EXG Channel 5,EXG Channel 6,EXG Channel 7,Accel Channel 0,Accel Channel 1,Accel Channel 2,Not Used,Digital Channel 0 (D11),Digital Channel 1 (D12),Digital Channel 2 (D13),Digital Channel 3 (D17),Not Used,Digital Channel 4 (D18),Analog Channel 0,Analog Channel 1,Analog Channel 2,Timestamp,Marker Channel,Timestamp (Formatted),Stimulus_Direction,Stimulus_Number
178.0,11516.691627108054,657.4765631528572,-56579.373071118964,-52888.384805725196,-32489.042876844753,-29712.285663161954,-170.16383053825265,-19683.817885377157,0.0,0.0,0.0,193.0,1.0,155.0,0.0,10.0,3.0,252.0,411.0,10.0,1020.0,1744252902.5019107,0.0,2025-04-09 22:41:42.501,RIGHT,41
179.0,11453.5032455329,639.259891421782,-56624.23302224076,-52958.502228081496,-32517.787220214275,-29742.1699454987,-212.81095895897855,-19714.059795625188,0.0,0.0,0.0,193.0,1.0,156.0,0.0,9.0,3.0,252.0,412.0,9.0,1020.0,1744252902.5019197,0.0,2025-04-09 22:41:42.501,RIGHT,41
180.0,11505.336940924757,633.2472721633044,-56597.276818427665,-52881.16519226613,-32542.552953070757,-29769.99786734556,-150.53899890649308,-19735.539822046736,0.0,0.0,0.0,193.0,1.0,155.0,0.0,8.0,3.0,251.0,411.0,8.0,1019.0,1744252902.501934,0.0,2025-04-09 22:41:42.501,RIGHT,41
181.0,11577.466020282034,653.4308974064467,-56603.37884466397,-52937.08925689331,-32528.739574997377,-29740.337102453366,-257.44739263622677,-19719.04423463872,0.0,0.0,0.0,193.0,1.0,154.0,0.0,8.0,3.0,250.0,410.0,8.0,1018.0,1744252902.501943,0.0,2025-04-09 22:41:42.501,RIGHT,41
182.0,11529.990915058961,661.3434149436254,-56573.62867279395,-52889.770613881425,-32486.450074487937,-29701.73563977905,-192.87320290484465,-19673.960766072367,0.0,0.0,0.0,193.0,1.0,154.0,0.0,7.0,3.0,251.0,410.0,7.0,1019.0,1744252902.501952,0.0,2025-04-09 22:41:42.501,RIGHT,41
183.0,11467.473085817468,649.9887287603294,-56615.09115875854,-52943.3477453408,-32508.6230049876,-29733.98920702806,-203.5573367544814,-19704.8508769096,0.0,0.0,0.0,193.0,1.0,155.0,0.0,7.0,3.0,252.0,411.0,7.0,1020.0,1744252902.501961,0.0,2025-04-09 22:41:42.501,RIGHT,41
184.0,11473.150428909115,624.2395191478156,-56605.658722598404,-52898.577201196815,-32542.59765655967,-29771.40602724624,-179.61861844284755,-19727.493194042825,0.0,0.0,0.0,193.0,1.0,155.0,0.0,6.0,3.0,252.0,411.0,6.0,1020.0,1744252902.50197,0.0,2025-04-09 22:41:42.501,RIGHT,41
185.0,11569.128819600204,647.5523886147009,-56613.88416455796,-52926.0921986213,-32548.476165351414,-29764.521689954006,-234.1792266582521,-19729.14722313252,0.0,0.0,0.0,193.0,1.0,155.0,0.0,6.0,3.0,251.0,411.0,6.0,1019.0,1744252902.5019789,0.0,2025-04-09 22:41:42.501,RIGHT,41
186.0,11538.059894807328,656.1131067410835,-56576.780268762144,-52904.70157917757,-32485.108969820616,-29705.535436336453,-231.9217004682661,-19685.807190633677,0.0,0.0,0.0,193.0,1.0,155.0,0.0,6.0,3.0,251.0,411.0,6.0,1019.0,1744252902.501988,0.0,2025-04-09 22:41:42.501,RIGHT,41
187.0,11485.242722659437,663.2433132223265,-56609.525574389176,-52927.96974515555,-32497.067153104206,-29727.797773813938,-180.57974345442577,-19699.575865218147,0.0,0.0,0.0,193.0,1.0,155.0,0.0,6.0,3.0,250.0,411.0,6.0,1018.0,1744252902.5019984,0.0,2025-04-09 22:41:42.501,RIGHT,41
188.0,11460.722858991965,627.100542438095,-56619.3156384606,-52923.3429340533,-32537.143830912573,-29764.499338209553,-197.5000140070932,-19721.61468525108,0.0,0.0,0.0,193.0,1.0,154.0,0.0,5.0,3.0,250.0,410.0,5.0,1018.0,1744252902.5020077,0.0,2025-04-09 22:41:42.502,RIGHT,41
189.0,11569.374688789212,648.289996181726,-56619.852080327524,-52912.368227525745,-32557.43921487799,-29777.910384882736,-205.21136584417414,-19744.994609951333,0.0,0.0,0.0,193.0,1.0,154.0,0.0,5.0,3.0,250.0,410.0,5.0,1018.0,1744252902.502017,0.0,2025-04-09 22:41:42.502,RIGHT,41
190.0,11546.866482122718,654.4367259069355,-56587.3079404006,-52922.96295439756,-32486.9194611215,-29703.724945035574,-256.9333025137547,-19683.28144351023,0.0,0.0,0.0,193.0,1.0,155.0,0.0,5.0,3.0,251.0,411.0,5.0,1019.0,1744252902.502026,0.0,2025-04-09 22:41:42.502,RIGHT,41
191.0,11493.848144274729,661.388118432536,-56612.40894942391,-52916.59270722779,-32499.01175487182,-29730.412927915208,-166.96753108114376,-19706.549609488204,0.0,0.0,0.0,193.0,1.0,154.0,0.0,5.0,3.0,252.0,410.0,5.0,1020.0,1744252902.502035,0.0,2025-04-09 22:41:42.502,RIGHT,41
192.0,11447.334164063235,625.6923825374106,-56628.59161240955,-52941.73841974002,-32531.24297037637,-29767.2262510331,-215.26965084906232,-19744.122891917574,0.0,0.0,0.0,193.0,1.0,155.0,0.0,4.0,3.0,251.0,411.0,4.0,1019.0,1744252902.5020435,0.0,2025-04-09 22:41:42.502,RIGHT,41
193.0,11560.590453218276,647.9547200148965,-56616.94635354834,-52888.34010223629,-32557.752139300366,-29790.74028620008,-168.37569098182811,-19758.87504325808,0.0,0.0,0.0,193.0,1.0,155.0,0.0,4.0,3.0,252.0,411.0,4.0,1020.0,1744252902.5020525,0.0,2025-04-09 22:41:42.502,RIGHT,41
194.0,11560.165770073625,660.806973076698,-56595.39927189342,-52932.350687068785,-32498.162388582517,-29717.292453919945,-286.0799772834751,-19704.828525165143,0.0,0.0,0.0,193.0,1.0,155.0,0.0,4.0,3.0,250.0,411.0,4.0,1018.0,1744252902.5020618,0.0,2025-04-09 22:41:42.502,RIGHT,41
195.0,11517.093958508249,669.5241534142677,-56599.936676017845,-52896.006750584456,-32499.63760371657,-29722.142782466744,-167.28045550351806,-19684.980176088833,0.0,0.0,0.0,193.0,1.0,154.0,0.0,4.0,3.0,250.0,410.0,4.0,1018.0,1744252902.502076,0.0,2025-04-09 22:41:42.502,RIGHT,41
196.0,11466.64607127262,642.6350048345333,-56621.79668209513,-52939.078562149836,-32524.068060406218,-29745.92503856719,-231.63112779034708,-19722.017016651276,0.0,0.0,0.0,193.0,1.0,154.0,0.0,4.0,3.0,249.0,410.0,4.0,1017.0,1744252902.5020845,0.0,2025-04-09 22:41:42.502,RIGHT,41
197.0,11552.119142069716,650.3463566716143,-56609.81614706709,-52868.402346182156,-32564.39060740359,-29784.54885298596,-168.6662636597471,-19754.069418200186,0.0,0.0,0.0,193.0,1.0,154.0,0.0,4.0,3.0,249.0,410.0,4.0,1017.0,1744252902.5020933,0.0,2025-04-09 22:41:42.502,RIGHT,41
198.0,11577.421316793123,666.1266882570611,-56598.595571350525,-52934.42939930313,-32508.86887417661,-29719.59468359884,-299.31221000101687,-19706.437850765928,0.0,0.0,0.0,193.0,1.0,154.0,0.0,4.0,3.0,249.0,410.0,4.0,1017.0,1744252902.502102,0.0,2025-04-09 22:41:42.502,RIGHT,41
199.0,11528.895679580652,674.3074267277035,-56584.849248510516,-52877.611264897736,-32488.618193700102,-29716.443087630643,-165.35820548036165,-19690.813981391668,0.0,0.0,0.0,193.0,1.0,154.0,0.0,4.0,3.0,250.0,410.0,4.0,1018.0,1744252902.5021107,0.0,2025-04-09 22:41:42.502,RIGHT,41
200.0,11467.36132709519,647.8876647815305,-56617.39338843744,-52942.207806373575,-32513.272167834304,-29740.068881519903,-226.5572817989924,-19717.77018520477,0.0,0.0,0.0,193.0,1.0,154.0,0.0,4.0,3.0,250.0,410.0,4.0,1018.0,1744252902.5021195,0.0,2025-04-09 22:41:42.502,RIGHT,41
201.0,11535.109464539226,648.289996181726,-56594.549905604115,-52858.14289547717,-32547.35857812865,-29776.681038937695,-149.89079831728915,-19737.395016836526,0.0,0.0,0.0,193.0,1.0,155.0,0.0,4.0,3.0,251.0,411.0,4.0,1019.0,1744252902.502128,0.0,2025-04-09 22:41:42.502,RIGHT,41
202.0,11580.796430205874,657.8788945530528,-56608.54209763314,-52933.42357080264,-32533.72401401091,-29734.950332039636,-298.4851954561705,-19708.673025211458,0.0,0.0,0.0,193.0,1.0,154.0,0.0,4.0,3.0,251.0,410.0,4.0,1019.0,1744252902.5021367,0.0,2025-04-09 22:41:42.502,RIGHT,41
203.0,11546.084171066783,680.4318047084575,-56566.587873290526,-52859.931035033595,-32482.158539552518,-29700.036907200447,-183.53017372252629,-19665.75767585727,0.0,0.0,0.0,193.0,1.0,154.0,0.0,3.0,3.0,250.0,410.0,3.0,1018.0,1744252902.5021455,0.0,2025-04-09 22:41:42.502,RIGHT,41
204.0,11483.096955191726,665.7690603457762,-56608.944429033334,-52924.52757650943,-32507.25954857583,-29733.206895972122,-216.56605202747014,-19706.66136821048,0.0,0.0,0.0,193.0,1.0,154.0,0.0,3.0,3.0,252.0,410.0,3.0,1020.0,1744252902.502154,0.0,2025-04-09 22:41:42.502,RIGHT,41
205.0,11511.081339249771,651.6874613389327,-56596.82978353856,-52861.808581567835,-32545.413976361036,-29775.339934270378,-174.1424410512973,-19734.891621457533,0.0,0.0,0.0,193.0,1.0,155.0,0.0,3.0,3.0,252.0,411.0,3.0,1020.0,1744252902.5021627,0.0,2025-04-09 22:41:42.502,RIGHT,41
206.0,11586.339662830791,663.578589389156,-56608.34093193304,-52914.491643249,-32536.316816367726,-29755.40217821624,-265.1587444733077,-19716.33967355963,0.0,0.0,0.0,193.0,1.0,154.0,0.0,3.0,3.0,249.0,410.0,3.0,1017.0,1744252902.5021803,0.0,2025-04-09 22:41:42.502,RIGHT,41
207.0,11548.319345512313,670.8652580815861,-56568.62188203596,-52865.250750213956,-32479.23046102887,-29707.189465426145,-208.02768564554285,-19665.712972368357,0.0,0.0,0.0,193.0,1.0,154.0,0.0,3.0,3.0,249.0,410.0,3.0,1017.0,1744252902.5021892,0.0,2025-04-09 22:41:42.502,RIGHT,41
208.0,11492.685853563054,666.9760545463628,-56607.67037959938,-52907.31673327884,-32499.90582465003,-29733.698634350138,-203.31146756547304,-19693.116211070563,0.0,0.0,0.0,193.0,1.0,154.0,0.0,3.0,3.0,249.0,410.0,3.0,1017.0,1744252902.502198,0.0,2025-04-09 22:41:42.502,RIGHT,41
209.0,11493.110536707705,641.1821414449385,-56602.99886500822,-52869.296415960365,-32534.126345411107,-29775.474044737108,-193.43199651622731,-19736.389188336037,0.0,0.0,0.0,193.0,1.0,154.0,0.0,3.0,3.0,251.0,410.0,3.0,1019.0,1744252902.5022073,0.0,2025-04-09 22:41:42.502,RIGHT,41
210.0,11594.587456534799,668.0265865357621,-56605.166984220385,-52876.89600907517,-32538.30612162425,-29766.622753932807,-234.11217142488618,-19721.122946873063,0.0,0.0,0.0,193.0,1.0,154.0,0.0,3.0,3.0,250.0,410.0,3.0,1018.0,1744252902.5022206,0.0,2025-04-09 22:41:42.502,RIGHT,41
211.0,11553.035563592382,671.0217202927734,-56572.24286463772,-52859.707517589035,-32477.978763339375,-29704.753125280517,-240.66123255029115,-19652.011353017253,0.0,0.0,0.0,193.0,1.0,154.0,0.0,3.0,3.0,251.0,410.0,3.0,1019.0,1744252902.5022292,0.0,2025-04-09 22:41:42.502,RIGHT,41
212.0,11503.235876945959,676.2743802397705,-56604.5634871201,-52870.79398283887,-32494.608461214124,-29722.92509352268,-183.82074640044527,-19656.32523969713,0.0,0.0,0.0,193.0,1.0,155.0,0.0,3.0,3.0,252.0,411.0,3.0,1020.0,1744252902.502238,0.0,2025-04-09 22:41:42.502,RIGHT,41
213.0,11478.045460944828,644.6466618355109,-56616.74518784824,-52867.03888977038,-32532.606426788145,-29757.63735266177,-222.71278175267958,-19698.793554162214,0.0,0.0,0.0,193.0,1.0,154.0,0.0,3.0,3.0,250.0,410.0,3.0,1018.0,1744252902.5022464,0.0,2025-04-09 22:41:42.502,RIGHT,41
214.0,11584.640930252186,666.5066679128013,-56616.924001803876,-52843.435447625576,-32553.192383431484,-29769.528480711997,-210.37461881335008,-19714.573885747657,0.0,0.0,0.0,193.0,1.0,154.0,0.0,3.0,3.0,249.0,410.0,3.0,1017.0,1744252902.5022552,0.0,2025-04-09 22:41:42.502,RIGHT,41
215.0,11573.308595813347,676.9225808289744,-56582.39055662043,-52860.04279375587,-32480.929193607473,-29690.06802917338,-275.82052657848914,-19649.351495427072,0.0,0.0,0.0,193.0,1.0,155.0,0.0,3.0,3.0,249.0,411.0,3.0,1017.0,1744252902.5022843,0.0,2025-04-09 22:41:42.502,RIGHT,41
216.0,11520.156147498627,685.5950576776336,-56599.15436496191,-52843.86013077023,-32482.13618780806,-29708.64232881574,-168.9791880821214,-19658.627469376024,0.0,0.0,0.0,193.0,1.0,155.0,0.0,3.0,3.0,252.0,411.0,3.0,1020.0,1744252902.502293,0.0,2025-04-09 22:41:42.502,RIGHT,41
217.0,11462.5557020373,644.2666821797708,-56625.037685041156,-52881.34400622178,-32512.065173633717,-29748.16021301272,-217.50482529459302,-19696.80424890569,0.0,0.0,0.0,193.0,1.0,155.0,0.0,3.0,3.0,252.0,411.0,3.0,1020.0,1744252902.502302,0.0,2025-04-09 22:41:42.502,RIGHT,41
218.0,11567.318328299323,662.8186300776756,-56611.55958313461,-52821.217813637,-32534.57338030021,-29766.399236488254,-157.6468536432807,-19701.364004774572,0.0,0.0,0.0,193.0,1.0,154.0,0.0,3.0,3.0,252.0,410.0,3.0,1020.0,1744252902.502311,0.0,2025-04-09 22:41:42.502,RIGHT,41
219.0,11568.90530215565,666.2160952348823,-56598.55086786162,-52877.834782342296,-32476.66001041651,-29694.78424725345,-279.7320818581679,-19653.575975129126,0.0,0.0,0.0,193.0,1.0,154.0,0.0,3.0,3.0,249.0,410.0,3.0,1017.0,1744252902.5023198,0.0,2025-04-09 22:41:42.502,RIGHT,41
220.0,11517.988028286461,668.4065661915024,-56606.2622196987,-52841.334383646776,-32478.828129628677,-29707.74825903753,-163.637121157303,-19661.399085688485,0.0,0.0,0.0,193.0,1.0,154.0,0.0,3.0,3.0,252.0,410.0,3.0,1020.0,1744252902.5023284,0.0,2025-04-09 22:41:42.502,RIGHT,41
221.0,11454.509074033389,632.6214233185558,-56642.00265908273,-52904.36630301074,-32512.892188178565,-29740.02417803099,-240.63888080583584,-19699.91114138498,0.0,0.0,0.0,193.0,1.0,155.0,0.0,3.0,3.0,251.0,411.0,3.0,1019.0,1744252902.5023372,0.0,2025-04-09 22:41:42.502,RIGHT,41
222.0,11536.85290060674,640.5786443446451,-56627.94341182034,-52831.92429923109,-32552.790052031287,-29781.531367484495,-177.36109225286154,-19739.13845290404,0.0,0.0,0.0,193.0,1.0,155.0,0.0,3.0,3.0,251.0,411.0,3.0,1019.0,1744252902.5023458,0.0,2025-04-09 22:41:42.502,RIGHT,41
223.0,11566.983052132495,652.0227375057623,-56623.7636356072,-52904.43335824411,-32507.39365904256,-29726.434317402163,-315.6066317089357,-19698.793554162214,0.0,0.0,0.0,193.0,1.0,155.0,0.0,3.0,3.0,252.0,411.0,3.0,1020.0,1744252902.5023544,0.0,2025-04-09 22:41:42.502,RIGHT,41
224.0,11522.23485973297,665.8808190680527,-56603.62471385297,-52843.86013077023,-32479.588088940156,-29719.125296965278,-174.70123466268,-19672.038516049208,0.0,0.0,0.0,193.0,1.0,155.0,0.0,3.0,3.0,252.0,411.0,3.0,1020.0,1744252902.502363,0.0,2025-04-09 22:41:42.502,RIGHT,41
225.0,11454.509074033389,640.7351065558322,-56648.43996148586,-52916.23507931651,-32516.781391713786,-29746.461480434118,-242.89640699582185,-19693.607949448582,0.0,0.0,0.0,193.0,1.0,155.0,0.0,3.0,3.0,252.0,411.0,3.0,1020.0,1744252902.5023763,0.0,2025-04-09 22:41:42.502,RIGHT,41
226.0,11521.340789954756,641.1597897004831,-56621.90844081741,-52832.46074109802,-32548.073833951217,-29777.46334999363,-180.24446728759617,-19721.48057478435,0.0,0.0,0.0,193.0,1.0,155.0,0.0,3.0,3.0,252.0,411.0,3.0,1020.0,1744252902.502385,0.0,2025-04-09 22:41:42.502,RIGHT,41
227.0,11582.517514528932,651.7321648278433,-56628.30103973163,-52904.20984079956,-32529.141906397574,-29742.63933213226,-318.0206201101089,-19711.6011037351,0.0,0.0,0.0,193.0,1.0,155.0,0.0,3.0,3.0,249.0,411.0,3.0,1017.0,1744252902.5023935,0.0,2025-04-09 22:41:42.502,RIGHT,41
228.0,11545.90535711114,669.4123946919913,-56595.48867887124,-52847.43640988308,-32487.47825473288,-29710.519875349986,-215.02378166005394,-19667.210539246862,0.0,0.0,0.0,193.0,1.0,155.0,0.0,3.0,3.0,250.0,411.0,3.0,1018.0,1744252902.5024023,0.0,2025-04-09 22:41:42.502,RIGHT,41
229.0,11486.963806982494,665.3890806900359,-56639.02987707018,-52912.54704148138,-32512.266339333815,-29743.913381566214,-237.9119679822884,-19702.973330375353,0.0,0.0,0.0,193.0,1.0,154.0,0.0,3.0,3.0,251.0,410.0,3.0,1019.0,1744252902.502411,0.0,2025-04-09 22:41:42.502,RIGHT,41
230.0,11495.301007664324,634.5436733417122,-56625.864699586,-52853.04669774136,-32549.30317989626,-29784.347687285866,-193.47670000513793,-19738.981990692853,0.0,0.0,0.0,193.0,1.0,155.0,0.0,2.0,3.0,252.0,411.0,2.0,1020.0,1744252902.5024197,0.0,2025-04-09 22:41:42.502,RIGHT,41
231.0,11575.141438858682,645.7866008027316,-56627.764597864705,-52891.06701505983,-32540.429537347503,-29761.057169563435,-273.18302073276294,-19725.973275419867,0.0,0.0,0.0,193.0,1.0,155.0,0.0,3.0,3.0,252.0,411.0,3.0,1020.0,1744252902.5024283,0.0,2025-04-09 22:41:42.502,RIGHT,41
232.0,11541.971450087005,663.8021068337091,-56580.490658341725,-52845.804732537836,-32477.934059850464,-29700.573349067374,-228.34542135541696,-19660.393257187996,0.0,0.0,0.0,193.0,1.0,155.0,0.0,2.0,3.0,252.0,411.0,2.0,1020.0,1744252902.5024369,0.0,2025-04-09 22:41:42.502,RIGHT,41
233.0,11491.188286684548,669.904133070008,-56608.85502205551,-52875.75607010795,-32490.316926278705,-29715.54901785243,-199.57872624143675,-19674.9442428284,0.0,0.0,0.0,193.0,1.0,155.0,0.0,3.0,3.0,252.0,411.0,3.0,1020.0,1744252902.5024455,0.0,2025-04-09 22:41:42.502,RIGHT,41
234.0,11483.476934847467,641.584472845134,-56610.911382545404,-52850.56565410682,-32526.794973229764,-29755.759806127528,-196.8518134178893,-19713.27748456925,0.0,0.0,0.0,193.0,1.0,155.0,0.0,3.0,3.0,252.0,411.0,3.0,1020.0,1744252902.502454,0.0,2025-04-09 22:41:42.502,RIGHT,41
235.0,11571.073421367815,648.4911618818238,-56630.893842088444,-52872.872695073216,-32554.332322398703,-29777.75392267155,-241.95763372869897,-19746.246307640828,0.0,0.0,0.0,193.0,1.0,155.0,0.0,2.0,3.0,250.0,411.0,2.0,1018.0,1744252902.5024624,0.0,2025-04-09 22:41:42.502,RIGHT,41
236.0,11538.819854118807,656.9177695414746,-56595.935713760344,-52866.10011650326,-32493.781446669276,-29709.60345382732,-275.17232598928524,-19683.996699332798,0.0,0.0,0.0,193.0,1.0,155.0,0.0,2.0,3.0,250.0,411.0,2.0,1018.0,1744252902.5024707,0.0,2025-04-09 22:41:42.502,RIGHT,41
237.0,11500.687778078054,677.4366709514464,-56611.02314126768,-52861.92034029011,-32495.457827503426,-29714.67729981867,-196.1589093397748,-19678.31935624115,0.0,0.0,0.0,193.0,1.0,154.0,0.0,2.0,3.0,251.0,410.0,2.0,1019.0,1744252902.5024796,0.0,2025-04-09 22:41:42.502,RIGHT,41
238.0,11461.03578341434,634.2978041527039,-56625.44001644135,-52874.21379974053,-32531.555894798745,-29751.60238165884,-224.50092130910414,-19708.225990322353,0.0,0.0,0.0,193.0,1.0,155.0,0.0,2.0,3.0,252.0,411.0,2.0,1020.0,1744252902.502488,0.0,2025-04-09 22:41:42.502,RIGHT,41
239.0,11565.396078276168,649.7875630602316,-56622.646048384435,-52847.41405813862,-32554.28761890979,-29775.630506948295,-199.91400240826636,-19729.23663011034,0.0,0.0,0.0,193.0,1.0,155.0,0.0,2.0,3.0,252.0,411.0,2.0,1020.0,1744252902.5024967,0.0,2025-04-09 22:41:42.502,RIGHT,41
240.0,11547.067647822816,650.2569496937931,-56601.81422255209,-52885.724948135015,-32495.390772270057,-29711.503352106018,-292.78550062006724,-19686.231873778328,0.0,0.0,0.0,193.0,1.0,155.0,0.0,2.0,3.0,250.0,411.0,2.0,1018.0,1744252902.50251,0.0,2025-04-09 22:41:42.502,RIGHT,41
241.0,11499.860763533206,664.807935334198,-56619.33799020505,-52867.754145592946,-32505.180836341482,-29729.630616859275,-196.71770295115746,-19694.77024016026,0.0,0.0,0.0,193.0,1.0,154.0,0.0,2.0,3.0,250.0,410.0,2.0,1018.0,1744252902.502519,0.0,2025-04-09 22:41:42.502,RIGHT,41
242.0,11450.21753909797,634.9013012529971,-56635.43124621287,-52900.63356168671,-32527.86785696362,-29749.054282790934,-248.32788089846147,-19714.171554347464,0.0,0.0,0.0,193.0,1.0,154.0,0.0,2.0,3.0,249.0,410.0,2.0,1017.0,1744252902.5025277,0.0,2025-04-09 22:41:42.502,RIGHT,41
243.0,11544.519548954911,645.4736763803573,-56625.0153332967,-52842.40726738063,-32557.863898022642,-29784.99588787507,-186.07827259043128,-19745.08401692915,0.0,0.0,0.0,193.0,1.0,154.0,0.0,2.0,3.0,250.0,410.0,2.0,1018.0,1744252902.5025363,0.0,2025-04-09 22:41:42.502,RIGHT,41
244.0,11558.511740983933,652.581531117145,-56603.91528653089,-52898.42073898563,-32492.775618168787,-29714.610244585307,-305.7495124041453,-19689.785801146725,0.0,0.0,0.0,193.0,1.0,154.0,0.0,2.0,3.0,249.0,410.0,2.0,1017.0,1744252902.5025449,0.0,2025-04-09 22:41:42.502,RIGHT,41
245.0,11518.546821897844,668.7865458472427,-56594.43814688184,-52845.245938926455,-32479.342219751146,-29711.615110828297,-175.88587711881127,-19675.726553884335,0.0,0.0,0.0,193.0,1.0,154.0,0.0,2.0,3.0,250.0,410.0,2.0,1018.0,1744252902.5025537,0.0,2025-04-09 22:41:42.502,RIGHT,41
246.0,11450.262242586881,631.0568012066843,-56633.10666478952,-52912.345875781284,-32510.992289899863,-29745.45565193363,-242.4046686178051,-19711.8022694352,0.0,0.0,0.0,193.0,1.0,154.0,0.0,2.0,3.0,249.0,410.0,2.0,1017.0,1744252902.5025623,0.0,2025-04-09 22:41:42.502,RIGHT,41
247.0,11519.507946909422,629.648641306,-56621.953144306324,-52840.10503770173,-32550.420767119023,-29784.70531519715,-172.57781893942584,-19737.998513936822,0.0,0.0,0.0,193.0,1.0,155.0,0.0,2.0,3.0,251.0,411.0,2.0,1019.0,1744252902.5025709,0.0,2025-04-09 22:41:42.502,RIGHT,41
248.0,11556.56713921632,641.6738798229552,-56623.09308327355,-52914.9386781381,-32511.975766655898,-29738.660721619217,-316.09837008695246,-19714.998568892308,0.0,0.0,0.0,193.0,1.0,155.0,0.0,2.0,3.0,252.0,411.0,2.0,1020.0,1744252902.5025795,0.0,2025-04-09 22:41:42.502,RIGHT,41
249.0,11512.467147406,658.7953160757204,-56600.09313822904,-52852.867883785715,-32485.19837679844,-29720.779326054973,-199.98105764163228,-19688.37764124604,0.0,0.0,0.0,193.0,1.0,155.0,0.0,2.0,3.0,252.0,411.0,2.0,1020.0,1744252902.502588,0.0,2025-04-09 22:41:42.502,RIGHT,41
250.0,11449.323469319757,642.1432664565166,-56635.811225868616,-52918.04557061739,-32510.7240689664,-29741.342930953855,-256.57567460246975,-19706.683719954937,0.0,0.0,0.0,193.0,1.0,154.0,0.0,2.0,3.0,251.0,410.0,2.0,1019.0,1744252902.5025969,0.0,2025-04-09 22:41:42.502,RIGHT,41
251.0,11494.809269286308,624.2842226367262,-56623.83069084057,-52850.18567445108,-32552.231258419903,-29787.432228020698,-192.7614441825681,-19738.400845337015,0.0,0.0,0.0,193.0,1.0,154.0,0.0,2.0,3.0,250.0,410.0,2.0,1018.0,1744252902.5026057,0.0,2025-04-09 22:41:42.502,RIGHT,41
252.0,11565.485485253988,641.4727141228574,-56628.815129854105,-52912.368227525745,-32528.694871508465,-29754.12812878229,-303.02259958059784,-19729.32603708816,0.0,0.0,0.0,193.0,1.0,154.0,0.0,2.0,3.0,249.0,410.0,2.0,1017.0,1744252902.502614,0.0,2025-04-09 22:41:42.502,RIGHT,41
253.0,11524.872365578696,662.0363190217399,-56584.87160025497,-52848.15166570564,-32472.94962083693,-29708.910549749202,-203.44557803220488,-19671.859702093567,0.0,0.0,0.0,193.0,1.0,154.0,0.0,2.0,3.0,250.0,410.0,2.0,1018.0,1744252902.5026228,0.0,2025-04-09 22:41:42.502,RIGHT,41
254.0,11468.41185908459,656.873066052564,-56622.69075187335,-52903.24871578797,-32499.704658949933,-29736.336140195865,-226.84785447691138,-19705.67789145445,0.0,0.0,0.0,193.0,1.0,155.0,0.0,2.0,3.0,252.0,411.0,2.0,1020.0,1744252902.5026317,0.0,2025-04-09 22:41:42.502,RIGHT,41
255.0,11489.064870961294,639.7292780553435,-56604.474080142274,-52846.989374993966,-32531.66765352102,-29770.3778470013,-193.56610698295916,-19732.723502245368,0.0,0.0,0.0,193.0,1.0,155.0,0.0,2.0,3.0,252.0,411.0,2.0,1020.0,1744252902.5026445,0.0,2025-04-09 22:41:42.502,RIGHT,41
0.0,11579.991767405483,657.387156175036,-56610.419644167385,-52879.82408759881,-32533.254627377348,-29755.55864042743,-266.0751659959753,-19727.135566131543,0.0,0.0,0.0,193.0,1.0,155.0,0.0,2.0,3.0,251.0,411.0,2.0,1019.0,1744252902.5026531,0.0,2025-04-09 22:41:42.502,RIGHT,41
1.0,11538.506929696434,661.3434149436254,-56573.47221058276,-52851.79500005186,-32477.732894150366,-29704.194331669132,-252.95469200071003,-19690.456353480382,0.0,0.0,0.0,193.0,1.0,155.0,0.0,2.0,3.0,249.0,411.0,2.0,1017.0,1744252902.502662,0.0,2025-04-09 22:41:42.502,RIGHT,41
2.0,11486.829696515762,666.0372812792399,-56607.22334471028,-52882.26042774444,-32495.435475758968,-29721.82985804437,-223.00335443059856,-19701.967501874864,0.0,0.0,0.0,193.0,1.0,155.0,0.0,2.0,3.0,250.0,411.0,2.0,1018.0,1744252902.5026703,0.0,2025-04-09 22:41:42.502,RIGHT,41
3.0,11473.664519031587,638.097600710106,-56607.67037959938,-52863.68612810208,-32529.074851164205,-29749.970704313604,-221.32697359645053,-19723.402824807505,0.0,0.0,0.0,193.0,1.0,154.0,0.0,2.0,3.0,250.0,410.0,2.0,1018.0,1744252902.502679,0.0,2025-04-09 22:41:42.502,RIGHT,41
4.0,11570.067592867326,652.6709380949662,-56621.8637373285,-52874.884352074194,-32556.72395905542,-29775.809320903936,-250.78657278854524,-19756.416351367992,0.0,0.0,0.0,193.0,1.0,154.0,0.0,2.0,3.0,249.0,410.0,2.0,1017.0,1744252902.5026877,0.0,2025-04-09 22:41:42.502,RIGHT,41
5.0,11537.076418051294,652.0450892502176,-56597.835612039045,-52890.41881447063,-32497.80476067123,-29723.327424922878,-304.43075948128217,-19713.322188058162,0.0,0.0,0.0,193.0,1.0,154.0,0.0,2.0,3.0,249.0,410.0,2.0,1017.0,1744252902.5026965,0.0,2025-04-09 22:41:42.502,RIGHT,41
6.0,11492.84231577424,667.7583656022985,-56615.448786669825,-52887.80366036936,-32497.558891482222,-29734.235076217068,-207.89357517881098,-19703.062737353175,0.0,0.0,0.0,193.0,1.0,154.0,0.0,2.0,3.0,250.0,410.0,2.0,1018.0,1744252902.5027053,0.0,2025-04-09 22:41:42.502,RIGHT,41
7.0,11454.665536244576,633.3813826300362,-56628.30103973163,-52905.39448325569,-32530.43830757598,-29771.04839933496,-248.66315706529107,-19744.011133195298,0.0,0.0,0.0,193.0,1.0,155.0,0.0,2.0,3.0,251.0,411.0,2.0,1019.0,1744252902.502714,0.0,2025-04-09 22:41:42.502,RIGHT,41
8.0,11556.544787471867,647.6194438480668,-56622.511937917705,-52864.08845950228,-32561.77545330232,-29788.84038792138,-215.35905782688354,-19750.649601298526,0.0,0.0,0.0,193.0,1.0,155.0,0.0,2.0,3.0,252.0,411.0,2.0,1020.0,1744252902.5027227,0.0,2025-04-09 22:41:42.502,RIGHT,41
9.0,11544.072514065805,650.5028188828014,-56602.305960930105,-52904.880393133215,-32503.079772362686,-29718.901779520726,-312.9020706298436,-19691.305719769683,0.0,0.0,0.0,193.0,1.0,154.0,0.0,2.0,3.0,249.0,410.0,2.0,1017.0,1744252902.5027316,0.0,2025-04-09 22:41:42.502,RIGHT,41
10.0,11499.614894344199,668.5406766582342,-56609.235001711255,-52873.073860773315,-32503.48210376288,-29727.46249764711,-202.216232087163,-19690.501056969293,0.0,0.0,0.0,193.0,1.0,154.0,0.0,2.0,3.0,249.0,410.0,2.0,1017.0,1744252902.5027406,0.0,2025-04-09 22:41:42.502,RIGHT,41
11.0,11451.849216443208,637.002365231796,-56631.676153144384,-52918.67141946214,-32531.555894798745,-29752.161175270223,-268.8691340528887,-19718.66425498298,0.0,0.0,0.0,193.0,1.0,154.0,0.0,2.0,3.0,250.0,410.0,2.0,1018.0,1744252902.9736876,0.0,2025-04-09 22:41:42.973,RIGHT,41
12.0,11548.4758077235,653.3191386841702,-56612.96774303529,-52846.162360449125,-32558.936781756496,-29780.279669795,-194.77310118354575,-19737.28325811425,0.0,0.0,0.0,193.0,1.0,154.0,0.0,2.0,3.0,250.0,410.0,2.0,1018.0,1744252902.973728,0.0,2025-04-09 22:41:42.973,RIGHT,41
13.0,11560.366935773724,657.2306939638489,-56609.0114842667,-52919.11845435124,-32508.466542776412,-29725.204971457122,-332.0351638835864,-19705.27556005425,0.0,0.0,0.0,193.0,1.0,154.0,0.0,2.0,3.0,250.0,410.0,2.0,1018.0,1744252902.973748,0.0,2025-04-09 22:41:42.973,RIGHT,41
14.0,11512.958885784017,664.5844178896449,-56599.84726904002,-52867.88825605968,-32489.221690800394,-29724.17679121218,-189.9674761256547,-19687.260054023274,0.0,0.0,0.0,193.0,1.0,155.0,0.0,2.0,3.0,251.0,411.0,2.0,1019.0,1744252902.9737685,0.0,2025-04-09 22:41:42.973,RIGHT,41
15.0,11453.88322518864,646.0324699917401,-56630.60326941053,-52927.07567537733,-32511.662842233523,-29746.12620426729,-252.79822978952288,-19714.32801655865,0.0,0.0,0.0,193.0,1.0,155.0,0.0,2.0,3.0,251.0,411.0,2.0,1019.0,1744252902.9738626,0.0,2025-04-09 22:41:42.973,RIGHT,41
16.0,11523.173633000093,645.9877665028295,-56614.77823433617,-52849.11279071722,-32550.666636308033,-29787.074600109412,-180.57974345442577,-19746.849804741123,0.0,0.0,0.0,193.0,1.0,155.0,0.0,2.0,3.0,252.0,411.0,2.0,1020.0,1744252902.9738724,0.0,2025-04-09 22:41:42.973,RIGHT,41
17.0,11552.834397892286,643.1714467014607,-56631.51969093319,-52932.350687068785,-32531.220618631916,-29749.188393257667,-328.14596034836296,-19719.84889743911,0.0,0.0,0.0,193.0,1.0,155.0,0.0,2.0,3.0,250.0,411.0,2.0,1018.0,1744252902.973882,0.0,2025-04-09 22:41:42.973,RIGHT,41
18.0,11505.448699647033,650.324004927159,-56611.20195522332,-52875.71136661904,-32504.398525285545,-29735.50912565102,-225.3279358539505,-19705.543780987715,0.0,0.0,0.0,193.0,1.0,155.0,0.0,2.0,3.0,250.0,411.0,2.0,1018.0,1744252902.9738915,0.0,2025-04-09 22:41:42.973,RIGHT,41
19.0,11448.317640819268,638.9916704883183,-56648.50701671923,-52937.58099527133,-32528.091374408174,-29756.899745094746,-267.3715671743831,-19735.785691235746,0.0,0.0,0.0,193.0,1.0,154.0,0.0,2.0,3.0,249.0,410.0,2.0,1017.0,1744252902.973901,0.0,2025-04-09 22:41:42.973,RIGHT,41
20.0,11493.311702407802,635.7059640533881,-56627.22815599778,-52860.73569783398,-32559.316761412236,-29784.593556474872,-206.37365655585012,-19744.10054017312,0.0,0.0,0.0,193.0,1.0,154.0,0.0,2.0,3.0,249.0,410.0,2.0,1017.0,1744252902.9739103,0.0,2025-04-09 22:41:42.973,RIGHT,41
21.0,11558.735258428485,644.0208129907624,-56646.0706765736,-52927.455655033074,-32555.762834043842,-29770.534309212486,-323.5191492461144,-19746.08984542964,0.0,0.0,0.0,193.0,1.0,155.0,0.0,2.0,3.0,249.0,411.0,2.0,1017.0,1744252902.9739194,0.0,2025-04-09 22:41:42.973,RIGHT,41
22.0,11512.400092172635,649.0499554932065,-56612.654818612915,-52883.1321457782,-32507.125438109095,-29737.02904427398,-260.33076767096134,-19715.66912122597,0.0,0.0,0.0,193.0,1.0,155.0,0.0,2.0,3.0,251.0,411.0,2.0,1019.0,1744252902.9739287,0.0,2025-04-09 22:41:42.973,RIGHT,41
23.0,11466.735478250443,658.0577085086952,-56641.26505151571,-52921.867718919246,-32518.547179525758,-29740.135936753268,-253.33467165645024,-19701.27459779675,0.0,0.0,0.0,193.0,1.0,155.0,0.0,2.0,3.0,251.0,411.0,2.0,1019.0,1744252902.9739382,0.0,2025-04-09 22:41:42.973,RIGHT,41
24.0,11476.056155688306,637.2705861652597,-56629.06099904311,-52872.24684622847,-32547.515040339833,-29770.690771423673,-218.91298519527737,-19719.312455572184,0.0,0.0,0.0,193.0,1.0,155.0,0.0,2.0,3.0,251.0,411.0,2.0,1019.0,1744252902.9739473,0.0,2025-04-09 22:41:42.973,RIGHT,41
25.0,11559.808142162341,643.0373362347289,-56642.49439746075,-52902.26523903194,-32558.44504337848,-29763.694675409162,-274.9711602891875,-19726.777938220257,0.0,0.0,0.0,193.0,1.0,155.0,0.0,2.0,3.0,252.0,411.0,2.0,1020.0,1744252902.973956,0.0,2025-04-09 22:41:42.973,RIGHT,41
26.0,11522.346618455245,646.6583188364887,-56609.235001711255,-52887.44603245807,-32501.8727781621,-29713.358546895808,-275.9769887896763,-19687.818847634655,0.0,0.0,0.0,193.0,1.0,154.0,0.0,2.0,3.0,250.0,410.0,2.0,1018.0,1744252902.9739652,0.0,2025-04-09 22:41:42.973,RIGHT,41
27.0,11477.061984188795,657.7224323418657,-56632.32435373359,-52904.36630301074,-32511.48402827788,-29729.585913370363,-227.89838646631082,-19699.687623940423,0.0,0.0,0.0,193.0,1.0,154.0,0.0,2.0,3.0,249.0,410.0,2.0,1017.0,1744252902.9739745,0.0,2025-04-09 22:41:42.973,RIGHT,41
28.0,11455.425495556057,632.2861471517261,-56630.51386243271,-52892.631637171704,-32542.39649085957,-29761.660666663727,-238.51546508258167,-19728.454319054406,0.0,0.0,0.0,193.0,1.0,154.0,0.0,2.0,3.0,251.0,410.0,2.0,1019.0,1744252902.9739833,0.0,2025-04-09 22:41:42.973,RIGHT,41
29.0,11562.847979408263,656.2248654633601,-56627.22815599778,-52877.70067187556,-32559.20500268996,-29776.636335448784,-236.90613948179956,-19751.610726310104,0.0,0.0,0.0,193.0,1.0,155.0,0.0,2.0,3.0,252.0,411.0,2.0,1020.0,1744252902.973992,0.0,2025-04-09 22:41:42.973,RIGHT,41
30.0,11542.083208809283,660.0470137652176,-56593.81229803709,-52891.08936680429,-32491.3674582681,-29707.860017759805,-295.0653785545085,-19696.156048316487,0.0,0.0,0.0,193.0,1.0,155.0,0.0,2.0,3.0,252.0,411.0,2.0,1020.0,1744252902.9740076,0.0,2025-04-09 22:41:42.974,RIGHT,41
31.0,11493.244647174437,666.7972405907203,-56613.37007443549,-52882.97568356701,-32501.62690897309,-29723.93092202317,-202.01506638706525,-19692.46801048136,0.0,0.0,0.0,193.0,1.0,155.0,0.0,2.0,3.0,252.0,411.0,2.0,1020.0,1744252902.974017,0.0,2025-04-09 22:41:42.974,RIGHT,41
32.0,11445.5013210179,629.067495950162,-56634.58187992357,-52913.77638742643,-32541.457717592446,-29763.113530053324,-265.0693374954865,-19736.545650547225,0.0,0.0,0.0,193.0,1.0,155.0,0.0,2.0,3.0,252.0,411.0,2.0,1020.0,1744252902.9740255,0.0,2025-04-09 22:41:42.974,RIGHT,41
33.0,11555.471903738011,652.0897927391283,-56624.054208285124,-52863.70847984654,-32568.704494083464,-29790.002678633056,-222.4445608192159,-19759.322078147183,0.0,0.0,0.0,193.0,1.0,154.0,0.0,2.0,3.0,249.0,410.0,2.0,1017.0,1744252902.9740345,0.0,2025-04-09 22:41:42.974,RIGHT,41
34.0,11549.839264135273,657.163638730483,-56601.70246382982,-52908.12139607923,-32504.420877030003,-29717.381860897764,-325.888434158377,-19697.452449494893,0.0,0.0,0.0,193.0,1.0,154.0,0.0,2.0,3.0,251.0,410.0,2.0,1019.0,1744252902.9740436,0.0,2025-04-09 22:41:42.974,RIGHT,41
35.0,11502.252400189926,665.9255225569633,-56600.71898707378,-52865.98835778098,-32497.268318804305,-29726.63548310226,-198.17056634075243,-19696.960711116877,0.0,0.0,0.0,193.0,1.0,155.0,0.0,2.0,3.0,252.0,411.0,2.0,1020.0,1744252902.9740527,0.0,2025-04-09 22:41:42.974,RIGHT,41
36.0,11446.238928584926,635.6836123089329,-56625.55177516363,-52916.212727572056,-32522.05640340524,-29752.541154925962,-256.30745366900607,-19726.912048686987,0.0,0.0,0.0,193.0,1.0,155.0,0.0,2.0,3.0,252.0,411.0,2.0,1020.0,1744252902.9740732,0.0,2025-04-09 22:41:42.974,RIGHT,41
37.0,11533.343676727258,643.8643507795753,-56611.58193487906,-52846.02824998239,-32558.981485245407,-29790.203844333155,-191.37563602633907,-19753.935307733456,0.0,0.0,0.0,193.0,1.0,155.0,0.0,2.0,3.0,252.0,411.0,2.0,1020.0,1744252902.974082,0.0,2025-04-09 22:41:42.974,RIGHT,41
38.0,11548.006421089938,643.1937984459161,-56613.10185350202,-52920.79483518539,-32522.63754876108,-29733.60922737232,-337.6454517418685,-19713.545705502715,0.0,0.0,0.0,193.0,1.0,155.0,0.0,2.0,3.0,252.0,411.0,2.0,1020.0,1744252902.9740913,0.0,2025-04-09 22:41:42.974,RIGHT,41
39.0,11498.676121077076,656.3813276745472,-56595.935713760344,-52861.808581567835,-32497.558891482222,-29726.21079995761,-201.9480111536993,-19694.591426204614,0.0,0.0,0.0,193.0,1.0,154.0,0.0,2.0,3.0,249.0,410.0,2.0,1017.0,1744252902.9741,0.0,2025-04-09 22:41:42.974,RIGHT,41
40.0,11437.365286036169,634.0742867081508,-56633.26312700071,-52931.41191380166,-32521.29644409376,-29759.872527107305,-263.23649445015127,-19737.819699981177,0.0,0.0,0.0,193.0,1.0,154.0,0.0,2.0,3.0,250.0,410.0,2.0,1018.0,1744252902.974109,0.0,2025-04-09 22:41:42.974,RIGHT,41
41.0,11509.539068882355,638.3211181546591,-56604.742301075734,-52842.56372959182,-32545.615142061135,-29781.620774462317,-173.94127535119955,-19734.19871737942,0.0,0.0,0.0,193.0,1.0,155.0,0.0,2.0,3.0,249.0,411.0,2.0,1017.0,1744252902.9741175,0.0,2025-04-09 22:41:42.974,RIGHT,41
42.0,11566.536017243388,654.7272985848545,-56606.82101331008,-52910.7365501805,-32516.06613589122,-29733.720986094595,-308.18585254977376,-19703.867400153566,0.0,0.0,0.0,193.0,1.0,154.0,0.0,2.0,3.0,251.0,410.0,2.0,1019.0,1744252902.9741266,0.0,2025-04-09 22:41:42.974,RIGHT,41
43.0,11526.146415012649,671.8487348376196,-56572.22051289326,-52842.36256389172,-32474.536594693258,-29697.578215310365,-195.957743639677,-19658.403951931472,0.0,0.0,0.0,193.0,1.0,154.0,0.0,2.0,3.0,251.0,410.0,2.0,1019.0,1744252902.9741352,0.0,2025-04-09 22:41:42.974,RIGHT,41
44.0,11460.36523108068,652.514475883779,-56620.54498440564,-52915.81039617186,-32507.840693931663,-29731.485811649065,-239.74481102762354,-19700.447583251906,0.0,0.0,0.0,193.0,1.0,154.0,0.0,2.0,3.0,251.0,410.0,2.0,1019.0,1744252902.974144,0.0,2025-04-09 22:41:42.974,RIGHT,41
45.0,11495.569228597788,641.9644525008741,-56601.0095597517,-52851.14679946266,-32542.374139115112,-29772.61302144683,-197.5223657515485,-19739.741950004336,0.0,0.0,0.0,193.0,1.0,155.0,0.0,2.0,3.0,252.0,411.0,2.0,1020.0,1744252902.9741578,0.0,2025-04-09 22:41:42.974,RIGHT,41
46.0,11576.594302248277,663.6903481114326,-56607.46921389928,-52900.45474773106,-32533.276979121805,-29754.575163671398,-288.53866917355884,-19736.076263913663,0.0,0.0,0.0,193.0,1.0,154.0,0.0,2.0,3.0,250.0,410.0,2.0,1018.0,1744252902.9741664,0.0,2025-04-09 22:41:42.974,RIGHT,41
47.0,11544.13956929917,679.4706796968794,-56560.776419732145,-52848.55399710584,-32468.792196368242,-29699.813389755895,-214.12971188184167,-19670.89857708199,0.0,0.0,0.0,193.0,1.0,154.0,0.0,2.0,3.0,249.0,410.0,2.0,1017.0,1744252902.9741752,0.0,2025-04-09 22:41:42.974,RIGHT,41
48.0,11489.735423294953,674.6650546389884,-56600.54017311814,-52893.972741839025,-32494.116722836105,-29726.300206935433,-202.05976987597586,-19697.206580305887,0.0,0.0,0.0,193.0,1.0,154.0,0.0,2.0,3.0,249.0,410.0,2.0,1017.0,1744252902.974184,0.0,2025-04-09 22:41:42.974,RIGHT,41
49.0,11488.506077349912,645.5854351026339,-56595.35456840451,-52860.623939111705,-32533.232275632894,-29764.633448676283,-201.67979022023562,-19739.026694181764,0.0,0.0,0.0,193.0,1.0,154.0,0.0,2.0,3.0,250.0,410.0,2.0,1018.0,1744252902.9741929,0.0,2025-04-09 22:41:42.974,RIGHT,41
50.0,11583.72450872952,665.3890806900359,-56607.60332436601,-52883.93680857859,-32550.756043285855,-29772.03187609099,-250.80892453300055,-19762.831302026665,0.0,0.0,0.0,193.0,1.0,155.0,0.0,2.0,3.0,252.0,411.0,2.0,1020.0,1744252902.9742017,0.0,2025-04-09 22:41:42.974,RIGHT,41
51.0,11553.303784525846,678.4648511963906,-56565.33617560103,-52864.35668043574,-32481.53269070777,-29698.919319977682,-251.72534605566813,-19687.55062670119,0.0,0.0,0.0,193.0,1.0,155.0,0.0,2.0,3.0,252.0,411.0,2.0,1020.0,1744252902.9742453,0.0,2025-04-09 22:41:42.974,RIGHT,41
52.0,11499.234914688459,683.6951593989324,-56595.26516142669,-52879.287645731885,-32499.972879883397,-29722.723927822582,-185.7876999125123,-19701.60987396358,0.0,0.0,0.0,193.0,1.0,155.0,0.0,2.0,3.0,251.0,411.0,2.0,1019.0,1744252902.9742541,0.0,2025-04-09 22:41:42.974,RIGHT,41
53.0,11475.251492887914,650.7933915607205,-56600.74133881824,-52878.6841486316,-32532.29350236577,-29756.69857939465,-214.62145025985842,-19739.630191282056,0.0,0.0,0.0,193.0,1.0,155.0,0.0,2.0,3.0,250.0,411.0,2.0,1018.0,1744252902.974263,0.0,2025-04-09 22:41:42.974,RIGHT,41
54.0,11585.713813986042,674.0168540497845,-56593.96876024828,-52850.29743317336,-32547.470336850925,-29767.963858600124,-194.99661862809882,-19750.023752453777,0.0,0.0,0.0,193.0,1.0,155.0,0.0,2.0,3.0,252.0,411.0,2.0,1020.0,1744252902.974272,0.0,2025-04-09 22:41:42.974,RIGHT,41
55.0,11562.915034641628,677.9507610739186,-56570.52178031466,-52878.728852120505,-32490.42868500098,-29705.26721540299,-268.0421195080423,-19697.743022172814,0.0,0.0,0.0,193.0,1.0,154.0,0.0,2.0,3.0,249.0,410.0,2.0,1017.0,1744252902.9742806,0.0,2025-04-09 22:41:42.974,RIGHT,41
56.0,11517.071606763793,688.8584123681084,-56583.642254309925,-52862.568540879314,-32496.32954553718,-29714.297320162932,-164.33002523541754,-19696.737193672325,0.0,0.0,0.0,193.0,1.0,154.0,0.0,2.0,3.0,250.0,410.0,2.0,1018.0,1744252902.9742892,0.0,2025-04-09 22:41:42.974,RIGHT,41
57.0,11474.446830087523,655.8448858076198,-56599.109661473,-52890.821145870825,-32523.039880161272,-29734.63740761726,-212.6768484922467,-19714.439775280927,0.0,0.0,0.0,193.0,1.0,154.0,0.0,2.0,3.0,250.0,410.0,2.0,1018.0,1744252902.974298,0.0,2025-04-09 22:41:42.974,RIGHT,41
58.0,11567.117162599227,661.5222288992678,-56594.21462943729,-52840.44031386857,-32555.36050264365,-29767.293306266467,-148.77321109452382,-19735.89744995802,0.0,0.0,0.0,193.0,1.0,154.0,0.0,2.0,3.0,250.0,410.0,2.0,1018.0,1744252902.974307,0.0,2025-04-09 22:41:42.974,RIGHT,41
59.0,11564.72552594251,664.3832521895471,-56578.72487052976,-52899.18069829711,-32498.072981604695,-29700.908625234202,-269.986721275654,-19693.384432004026,0.0,0.0,0.0,193.0,1.0,153.0,0.0,2.0,3.0,250.0,409.0,2.0,1018.0,1744252902.974316,0.0,2025-04-09 22:41:42.974,RIGHT,41
60.0,11521.810176588318,680.9235430864744,-56574.52274257216,-52851.951462263045,-32488.752304166832,-29706.384802625755,-137.3961731667725,-19689.405821490982,0.0,0.0,0.0,193.0,1.0,155.0,0.0,2.0,3.0,250.0,411.0,2.0,1018.0,1744252902.97433,0.0,2025-04-09 22:41:42.974,RIGHT,41
61.0,11461.438114814535,645.9430630139188,-56612.20778372381,-52912.56939322584,-32525.319758095713,-29741.253523976033,-210.30756357998416,-19729.303685343708,0.0,0.0,0.0,193.0,1.0,154.0,0.0,2.0,3.0,249.0,410.0,2.0,1017.0,1744252902.9743388,0.0,2025-04-09 22:41:42.974,RIGHT,41
62.0,11541.56911868681,651.6427578500221,-56593.32055965908,-52835.254709154935,-32557.752139300366,-29774.46821623662,-134.17752196520829,-19757.24336591284,0.0,0.0,0.0,193.0,1.0,155.0,0.0,2.0,3.0,252.0,411.0,2.0,1020.0,1744252902.974348,0.0,2025-04-09 22:41:42.974,RIGHT,41
63.0,11559.04818285086,651.1063159830948,-56603.24473419723,-52916.32448629433,-32526.079717407196,-29728.40127091423,-284.40359644932704,-19736.8585749696,0.0,0.0,0.0,193.0,1.0,155.0,0.0,2.0,3.0,252.0,411.0,2.0,1020.0,1744252902.974357,0.0,2025-04-09 22:41:42.974,RIGHT,41
64.0,11521.676066121587,671.4016999485135,-56578.72487052976,-52848.55399710584,-32494.697868191943,-29706.898892748224,-149.0190802835322,-19693.675004681947,0.0,0.0,0.0,193.0,1.0,155.0,0.0,2.0,3.0,252.0,411.0,2.0,1020.0,1744252902.9743657,0.0,2025-04-09 22:41:42.974,RIGHT,41
65.0,11462.823922970763,650.0110805047847,-56613.39242617994,-52914.51399499345,-32517.518999280812,-29732.491640149554,-200.02576113054292,-19719.647731739013,0.0,0.0,0.0,193.0,1.0,154.0,0.0,2.0,3.0,250.0,410.0,2.0,1018.0,1744252902.9743743,0.0,2025-04-09 22:41:42.974,RIGHT,41
66.0,11519.060912020315,645.9877665028295,-56594.415795137385,-52839.434485368074,-32553.997046231874,-29776.12224532631,-129.84128354087872,-19753.95765947791,0.0,0.0,0.0,193.0,1.0,154.0,0.0,2.0,3.0,252.0,410.0,2.0,1020.0,1744252902.974383,0.0,2025-04-09 22:41:42.974,RIGHT,41
67.0,11573.755630702452,656.7613073302874,-56601.747167318725,-52909.30603853537,-32529.588941286678,-29736.202029729135,-245.46685760818215,-19728.320208587673,0.0,0.0,0.0,193.0,1.0,154.0,0.0,2.0,3.0,250.0,410.0,2.0,1018.0,1744252902.974392,0.0,2025-04-09 22:41:42.974,RIGHT,41
68.0,11532.13668252667,666.6631301239885,-56565.76085874568,-52850.61035759573,-32484.170196553496,-29700.863921745295,-144.21345522564116,-19687.61768193456,0.0,0.0,0.0,193.0,1.0,154.0,0.0,2.0,3.0,250.0,410.0,2.0,1018.0,1744252902.9744008,0.0,2025-04-09 22:41:42.974,RIGHT,41
69.0,11474.022146942872,657.8341910641421,-56605.189335964846,-52911.92119263663,-32507.214845086917,-29725.003805757024,-169.9403130936996,-19709.924722900956,0.0,0.0,0.0,193.0,1.0,154.0,0.0,2.0,3.0,250.0,410.0,2.0,1018.0,1744252902.9744096,0.0,2025-04-09 22:41:42.974,RIGHT,41
70.0,11505.739272324952,648.1111822260835,-56583.28462639864,-52847.43640988308,-32531.757060498843,-29756.85504160584,-121.61584158132572,-19737.126795903063,0.0,0.0,0.0,193.0,1.0,154.0,0.0,2.0,3.0,250.0,410.0,2.0,1018.0,1744252902.9744184,0.0,2025-04-09 22:41:42.974,RIGHT,41
71.0,11571.185180090091,646.1889322029272,-56609.81614706709,-52905.70740767806,-32548.029130462306,-29754.664570649216,-218.60006077290308,-19747.296839630228,0.0,0.0,0.0,193.0,1.0,154.0,0.0,2.0,3.0,250.0,410.0,2.0,1018.0,1744252902.9744272,0.0,2025-04-09 22:41:42.974,RIGHT,41
72.0,11529.610935403221,650.1675427159719,-56570.432373336844,-52868.00001478196,-32488.506434977822,-29699.858093244806,-177.6069614418699,-19693.831466893134,0.0,0.0,0.0,193.0,1.0,154.0,0.0,2.0,3.0,249.0,410.0,2.0,1017.0,1744252902.9744358,0.0,2025-04-09 22:41:42.974,RIGHT,41
73.0,11477.419612100079,652.3133101836813,-56606.2622196987,-52905.930925122615,-32507.080734620184,-29719.058241731913,-147.7897343384903,-19703.688586197924,0.0,0.0,0.0,193.0,1.0,154.0,0.0,2.0,3.0,249.0,410.0,2.0,1017.0,1744252902.9744444,0.0,2025-04-09 22:41:42.974,RIGHT,41
74.0,11470.043536429828,628.1063709385837,-56603.20003070832,-52878.32652072031,-32542.508249581846,-29754.35164622684,-148.95202505016627,-19734.265772612784,0.0,0.0,0.0,193.0,1.0,154.0,0.0,2.0,3.0,250.0,410.0,2.0,1018.0,1744252902.9744534,0.0,2025-04-09 22:41:42.974,RIGHT,41
75.0,11567.586549232788,646.5465601142121,-56607.49156564374,-52886.66372140214,-32552.05244446426,-29759.492547451562,-170.67792066072474,-19741.083054671653,0.0,0.0,0.0,193.0,1.0,154.0,0.0,2.0,3.0,251.0,410.0,2.0,1019.0,1744252902.9744668,0.0,2025-04-09 22:41:42.974,RIGHT,41
76.0,11540.160958786126,654.03439450674,-56569.56065530308,-52881.2322474995,-32485.779522154276,-29699.791038011437,-195.9800953841323,-19692.199789547896,0.0,0.0,0.0,193.0,1.0,154.0,0.0,2.0,3.0,250.0,410.0,2.0,1018.0,1744252902.9744759,0.0,2025-04-09 22:41:42.974,RIGHT,41
77.0,11487.567304082788,660.5834556321449,-56595.756899804706,-52886.46255570204,-32499.63760371657,-29714.45378237412,-122.53226310399332,-19698.391222762017,0.0,0.0,0.0,193.0,1.0,155.0,0.0,2.0,3.0,252.0,411.0,2.0,1020.0,1744252902.9744847,0.0,2025-04-09 22:41:42.974,RIGHT,41
78.0,11447.848254185708,626.7205627823547,-56605.36814992048,-52894.19625928358,-32532.09233666567,-29745.1203757668,-151.6342343848031,-19725.794461464222,0.0,0.0,0.0,193.0,1.0,155.0,0.0,2.0,3.0,252.0,411.0,2.0,1020.0,1744252902.9744935,0.0,2025-04-09 22:41:42.974,RIGHT,41
79.0,11556.81300840533,647.6864990814328,-56598.21559169479,-52860.199255967054,-32552.991217731385,-29762.957067842137,-121.74995204805757,-19742.647676783523,0.0,0.0,0.0,193.0,1.0,155.0,0.0,2.0,3.0,252.0,411.0,2.0,1020.0,1744252902.974502,0.0,2025-04-09 22:41:42.974,RIGHT,41
80.0,11542.95492684304,652.6485863505109,-56573.29339662712,-52892.162250538146,-32489.735780922867,-29692.660831530196,-210.7769502135456,-19693.004452348287,0.0,0.0,0.0,193.0,1.0,155.0,0.0,2.0,3.0,251.0,411.0,2.0,1019.0,1744252902.974511,0.0,2025-04-09 22:41:42.974,RIGHT,41
81.0,11490.584789584254,659.5776271316561,-56589.90074275741,-52873.29737821787,-32498.296499049247,-29709.804619527415,-103.4662250836164,-19701.587522219124,0.0,0.0,0.0,193.0,1.0,155.0,0.0,2.0,3.0,252.0,411.0,2.0,1020.0,1744252902.9745195,0.0,2025-04-09 22:41:42.974,RIGHT,41
82.0,11434.079579601239,621.065571435162,-56615.60524888102,-52916.548003738884,-32534.90865646704,-29738.414852430207,-165.5146676915488,-19725.32507483066,0.0,0.0,0.0,193.0,1.0,155.0,0.0,2.0,3.0,250.0,411.0,2.0,1018.0,1744252902.9745283,0.0,2025-04-09 22:41:42.974,RIGHT,41
83.0,11542.798464631853,644.0431647352177,-56595.37692014896,-52844.97771799299,-32561.954267257963,-29761.37009398581,-101.38751284927284,-19737.462072069895,0.0,0.0,0.0,193.0,1.0,154.0,0.0,2.0,3.0,249.0,410.0,2.0,1017.0,1744252902.9745371,0.0,2025-04-09 22:41:42.974,RIGHT,41
84.0,11557.707078183543,657.9459497864187,-56577.65198679591,-52901.92996286511,-32503.7726764408,-29693.197273397123,-229.30654636699515,-19687.12594355654,0.0,0.0,0.0,193.0,1.0,154.0,0.0,2.0,3.0,249.0,410.0,2.0,1017.0,1744252902.9745457,0.0,2025-04-09 22:41:42.974,RIGHT,41
85.0,11507.99679851494,666.6407783795331,-56574.09805942751,-52855.30422393134,-32495.837807159165,-29701.087439189847,-98.39237909226169,-19683.974347588344,0.0,0.0,0.0,193.0,1.0,154.0,0.0,2.0,3.0,250.0,410.0,2.0,1018.0,1744252902.9745543,0.0,2025-04-09 22:41:42.974,RIGHT,41
86.0,11445.948355907007,639.7292780553435,-56605.23403945375,-52917.91146015066,-32519.754173726342,-29731.776384326982,-153.31061521895114,-19717.256095082295,0.0,0.0,0.0,193.0,1.0,154.0,0.0,2.0,3.0,250.0,410.0,2.0,1018.0,1744252902.9745631,0.0,2025-04-09 22:41:42.974,RIGHT,41
87.0,11523.061874277815,645.1831037024384,-56585.54215258863,-52837.51223534492,-32548.140889184582,-29766.08631206588,-57.9357216281559,-19738.937287203942,0.0,0.0,0.0,193.0,1.0,154.0,0.0,2.0,3.0,249.0,410.0,2.0,1017.0,1744252902.974572,0.0,2025-04-09 22:41:42.974,RIGHT,41
88.0,11563.250310808458,657.454211408402,-56587.687920056334,-52909.484852491005,-32512.422801545003,-29710.40811662771,-202.75267395409037,-19709.27652231175,0.0,0.0,0.0,193.0,1.0,154.0,0.0,2.0,3.0,249.0,410.0,2.0,1017.0,1744252902.9745808,0.0,2025-04-09 22:41:42.974,RIGHT,41
89.0,11513.674141606587,663.7350516003432,-56569.22537913625,-52851.79500005186,-32485.04191458725,-29700.081610689358,-83.70728298512495,-19685.22604527784,0.0,0.0,0.0,193.0,1.0,154.0,0.0,2.0,3.0,251.0,410.0,2.0,1019.0,1744252902.9745896,0.0,2025-04-09 22:41:42.974,RIGHT,41
90.0,11454.777294966852,647.0606502366842,-56605.323446431576,-52916.3915415277,-32506.47723751989,-29723.372128411786,-129.57306260741504,-19711.489345012826,0.0,0.0,0.0,193.0,1.0,154.0,0.0,2.0,3.0,249.0,410.0,2.0,1017.0,1744252902.9746027,0.0,2025-04-09 22:41:42.974,RIGHT,41
91.0,11498.452603632522,635.9518332423966,-56590.59364683553,-52848.15166570564,-32543.737595526887,-29771.964820857625,-66.98817813255526,-19753.7117902889,0.0,0.0,0.0,193.0,1.0,154.0,0.0,2.0,3.0,250.0,410.0,2.0,1018.0,1744252902.9746115,0.0,2025-04-09 22:41:42.974,RIGHT,41
92.0,11551.023906591405,634.7001355528994,-56612.31954244609,-52926.829806188325,-32540.451889091957,-29752.2729339925,-194.72839769463513,-19740.591316293638,0.0,0.0,0.0,193.0,1.0,154.0,0.0,2.0,3.0,249.0,410.0,2.0,1017.0,1744252902.97462,0.0,2025-04-09 22:41:42.974,RIGHT,41
93.0,11509.762586326908,646.4348013919356,-56574.65685303889,-52870.7269276055,-32495.167254825505,-29712.665642817694,-115.37970487829506,-19696.04428959421,0.0,0.0,0.0,193.0,1.0,154.0,0.0,2.0,3.0,250.0,410.0,2.0,1018.0,1744252902.9746292,0.0,2025-04-09 22:41:42.974,RIGHT,41
94.0,11455.067867644771,643.9314060129411,-56606.88806854345,-52917.93381189511,-32512.19928410045,-29728.244808703043,-130.44478064117203,-19717.457260782394,0.0,0.0,0.0,193.0,1.0,154.0,0.0,2.0,3.0,249.0,410.0,2.0,1017.0,1744252902.974638,0.0,2025-04-09 22:41:42.974,RIGHT,41
95.0,11477.866646989185,630.4980075953016,-56590.0572049686,-52863.44025891308,-32541.323607125716,-29766.421588232708,-96.00074243554383,-19751.700133287923,0.0,0.0,0.0,193.0,1.0,154.0,0.0,2.0,3.0,250.0,410.0,2.0,1018.0,1744252902.974647,0.0,2025-04-09 22:41:42.974,RIGHT,41
96.0,11558.154113072647,638.8128565326758,-56605.815184809595,-52908.94841062408,-32546.755081028354,-29766.287477765978,-161.24548450058515,-19753.264755399796,0.0,0.0,0.0,193.0,1.0,155.0,0.0,2.0,3.0,251.0,411.0,2.0,1019.0,1744252902.974656,0.0,2025-04-09 22:41:42.974,RIGHT,41
97.0,11523.643019633653,647.0382984922288,-56562.586911033024,-52876.96306430853,-32480.48215871837,-29706.608320070307,-128.32136491791783,-19687.12594355654,0.0,0.0,0.0,193.0,1.0,155.0,0.0,2.0,3.0,252.0,411.0,2.0,1020.0,1744252902.9746647,0.0,2025-04-09 22:41:42.974,RIGHT,41
98.0,11478.045460944828,660.4716969098683,-56587.06207121159,-52899.56067795285,-32490.76396116781,-29718.342985909345,-90.79278597745729,-19694.211446548874,0.0,0.0,0.0,193.0,1.0,155.0,0.0,2.0,3.0,251.0,411.0,2.0,1019.0,1744252902.9746733,0.0,2025-04-09 22:41:42.974,RIGHT,41
99.0,11471.250530630414,638.8799117660418,-56577.45082109581,-52872.20214273955,-32517.362537069625,-29740.60532338683,-95.53135580198239,-19708.002472877797,0.0,0.0,0.0,193.0,1.0,155.0,0.0,2.0,3.0,252.0,411.0,2.0,1020.0,1744252902.974682,0.0,2025-04-09 22:41:42.974,RIGHT,41
100.0,11567.430087021601,647.0382984922288,-56590.23601892424,-52880.069956787826,-32543.44702284897,-29762.577088186397,-113.59156532187049,-19730.689493499936,0.0,0.0,0.0,193.0,1.0,155.0,0.0,2.0,3.0,252.0,411.0,2.0,1020.0,1744252902.974691,0.0,2025-04-09 22:41:42.974,RIGHT,41
101.0,11537.411694218123,651.0616124941841,-56561.849303466006,-52889.2341720145,-32484.103141320127,-29695.030116442456,-162.9889205680991,-19673.111399783065,0.0,0.0,0.0,193.0,1.0,154.0,0.0,2.0,3.0,250.0,410.0,2.0,1018.0,1744252902.9746997,0.0,2025-04-09 22:41:42.974,RIGHT,41
102.0,11495.301007664324,670.2841127257482,-56579.77540251916,-52883.333311478294,-32489.08758033366,-29713.20208468462,-81.36034981731771,-19690.61281569157,0.0,0.0,0.0,193.0,1.0,154.0,0.0,2.0,3.0,250.0,410.0,2.0,1018.0,1744252902.9747083,0.0,2025-04-09 22:41:42.974,RIGHT,41
103.0,11453.391486810624,636.5553303426898,-56593.09704221452,-52897.90664886316,-32520.894112693564,-29743.153422254734,-127.2261294396078,-19722.262885840286,0.0,0.0,0.0,193.0,1.0,154.0,0.0,2.0,3.0,250.0,410.0,2.0,1018.0,1744252902.9747171,0.0,2025-04-09 22:41:42.974,RIGHT,41
104.0,11551.917976369617,646.390097903025,-56589.99014973523,-52859.573407122305,-32547.336226384192,-29765.79573938796,-82.67910274018082,-19737.618534281082,0.0,0.0,0.0,193.0,1.0,155.0,0.0,2.0,3.0,251.0,411.0,2.0,1019.0,1744252902.974726,0.0,2025-04-09 22:41:42.974,RIGHT,41
105.0,11546.061819322327,648.580568859645,-56568.95715820279,-52902.17583205412,-32483.499644219835,-29699.165189166688,-181.07148183244252,-19689.025841835242,0.0,0.0,0.0,193.0,1.0,155.0,0.0,2.0,3.0,252.0,411.0,2.0,1020.0,1744252902.9747393,0.0,2025-04-09 22:41:42.974,RIGHT,41
106.0,11502.431214145567,668.384214447047,-56572.28756812663,-52866.077764758804,-32481.37622849658,-29701.579177567863,-65.93764614315583,-19676.8441411071,0.0,0.0,0.0,193.0,1.0,155.0,0.0,1.0,3.0,250.0,411.0,1.0,1018.0,1744252902.974748,0.0,2025-04-09 22:41:42.974,RIGHT,41
107.0,11442.819111683264,631.3920773735139,-56603.20003070832,-52917.21855607254,-32517.496647536358,-29732.670454105195,-129.57306260741504,-19702.638054208524,0.0,0.0,0.0,193.0,1.0,154.0,0.0,2.0,3.0,250.0,410.0,2.0,1018.0,1744252902.9747565,0.0,2025-04-09 22:41:42.974,RIGHT,41
108.0,11536.539976184366,639.483408866335,-56591.04068172463,-52855.103058231245,-32550.44311886348,-29771.115454568324,-64.06009960891004,-19737.52912730326,0.0,0.0,0.0,193.0,1.0,154.0,0.0,2.0,3.0,249.0,410.0,2.0,1017.0,1744252902.9748576,0.0,2025-04-09 22:41:42.974,RIGHT,41
109.0,11561.216302063025,655.420202662969,-56573.27104488266,-52914.53634673791,-32492.44034200196,-29701.042735700936,-196.2036128286854,-19692.870341881557,0.0,0.0,0.0,193.0,1.0,155.0,0.0,2.0,3.0,251.0,411.0,2.0,1019.0,1744252902.9748664,0.0,2025-04-09 22:41:42.974,RIGHT,41
110.0,11516.937496297061,676.676711639966,-56557.69187899731,-52852.8231802968,-32473.37430398158,-29695.49950307602,-57.82396290587937,-19679.32518474164,0.0,0.0,0.0,193.0,1.0,155.0,0.0,2.0,3.0,251.0,411.0,2.0,1019.0,1744252902.9748757,0.0,2025-04-09 22:41:42.974,RIGHT,41
111.0,11438.818149425764,633.7837140302317,-56608.944429033334,-52929.422608545145,-32519.128324881596,-29740.56061989792,-141.66535635773616,-19728.18609812094,0.0,0.0,0.0,193.0,1.0,154.0,0.0,2.0,3.0,250.0,410.0,2.0,1018.0,1744252902.974884,0.0,2025-04-09 22:41:42.974,RIGHT,41
112.0,11519.038560275862,639.5057606107904,-56578.680167040846,-52839.07685745679,-32541.72593852591,-29766.421588232708,-59.05330885092126,-19740.211336637894,0.0,0.0,0.0,193.0,1.0,155.0,0.0,2.0,3.0,252.0,411.0,2.0,1020.0,1744252902.9748929,0.0,2025-04-09 22:41:42.974,RIGHT,41
113.0,11561.842150907774,647.8429612926199,-56579.48482984124,-52909.82012865783,-32503.05742061823,-29713.69382306264,-180.6467986877917,-19695.32903377164,0.0,0.0,0.0,193.0,1.0,155.0,0.0,2.0,3.0,251.0,411.0,2.0,1019.0,1744252902.9749017,0.0,2025-04-09 22:41:42.974,RIGHT,41
114.0,11506.767452569897,651.2404264498266,-56562.54220754412,-52856.19829370955,-32481.33152500767,-29699.232244400057,-74.11838461379821,-19664.640088634504,0.0,0.0,0.0,193.0,1.0,155.0,0.0,2.0,3.0,252.0,411.0,2.0,1020.0,1744252902.9749105,0.0,2025-04-09 22:41:42.974,RIGHT,41
115.0,11448.854082686197,640.9586240003854,-56598.327350417065,-52918.582012484316,-32502.610385729124,-29716.532494608462,-118.24072816857436,-19684.376678988538,0.0,0.0,0.0,193.0,1.0,155.0,0.0,2.0,3.0,251.0,411.0,2.0,1019.0,1744252902.9749193,0.0,2025-04-09 22:41:42.974,RIGHT,41
116.0,11486.852048260218,629.3357168836257,-56582.748184531716,-52848.531645361385,-32540.809517003243,-29747.959047312626,-62.04844260793241,-19713.47865026935,0.0,0.0,0.0,193.0,1.0,155.0,0.0,2.0,3.0,252.0,411.0,2.0,1020.0,1744252902.974928,0.0,2025-04-09 22:41:42.974,RIGHT,41
117.0,11556.723601427508,644.2666821797708,-56594.840478282036,-52908.300210034875,-32530.147734898062,-29722.54511386694,-169.9626648381549,-19708.293045555718,0.0,0.0,0.0,193.0,1.0,155.0,0.0,2.0,3.0,252.0,411.0,2.0,1020.0,1744252902.9749367,0.0,2025-04-09 22:41:42.974,RIGHT,41
118.0,11515.37287418519,654.6378916070332,-56559.83764646503,-52858.388764666175,-32482.672629674988,-29685.240052371035,-100.962829704622,-19674.050173050186,0.0,0.0,0.0,193.0,1.0,155.0,0.0,2.0,3.0,251.0,411.0,2.0,1019.0,1744252902.974949,0.0,2025-04-09 22:41:42.974,RIGHT,41
119.0,11456.856007201197,650.3687084160696,-56594.0581672261,-52904.1874890551,-32503.035068873774,-29706.898892748224,-105.85786174033424,-19697.161876816976,0.0,0.0,0.0,193.0,1.0,155.0,0.0,2.0,3.0,252.0,411.0,2.0,1020.0,1744252902.9749575,0.0,2025-04-09 22:41:42.974,RIGHT,41
120.0,11462.041611914829,622.294917380204,-56587.17382993387,-52863.37320367971,-32539.691929780478,-29750.305980480432,-87.19415512015286,-19729.370740577073,0.0,0.0,0.0,193.0,1.0,155.0,0.0,2.0,3.0,251.0,411.0,2.0,1019.0,1744252902.9749722,0.0,2025-04-09 22:41:42.974,RIGHT,41
121.0,11560.411639262635,642.5903013456227,-56591.398309635915,-52889.0330063144,-32542.620008304122,-29747.199088001144,-139.38547842329484,-19732.90231620101,0.0,0.0,0.0,193.0,1.0,155.0,0.0,2.0,3.0,252.0,411.0,2.0,1020.0,1744252902.9749808,0.0,2025-04-09 22:41:42.974,RIGHT,41
122.0,11519.843223076252,645.7195455693658,-56558.78711447563,-52871.866866572724,-32486.04774308774,-29700.819218256383,-139.36312667883954,-19692.13273431453,0.0,0.0,0.0,193.0,1.0,155.0,0.0,2.0,3.0,250.0,411.0,2.0,1018.0,1744252902.97499,0.0,2025-04-09 22:41:42.974,RIGHT,41
123.0,11461.885149703641,648.5582171151897,-56594.14757420392,-52900.00771284196,-32504.71144970792,-29728.557733125417,-94.34671334585111,-19709.924722900956,0.0,0.0,0.0,193.0,1.0,155.0,0.0,2.0,3.0,252.0,411.0,2.0,1020.0,1744252902.9749985,0.0,2025-04-09 22:41:42.974,RIGHT,41
124.0,11437.253527313893,616.8857952220196,-56596.82978353856,-52892.005788326955,-32538.23906639088,-29760.833652118883,-111.28933564297387,-19734.735159246346,0.0,0.0,0.0,193.0,1.0,154.0,0.0,2.0,3.0,251.0,410.0,2.0,1019.0,1744252902.9750073,0.0,2025-04-09 22:41:42.975,RIGHT,41
125.0,11551.515644969422,644.6243100910557,-56585.58685607754,-52870.59281713877,-32546.464508350437,-29761.034817818978,-105.85786174033424,-19729.013112665787,0.0,0.0,0.0,193.0,1.0,155.0,0.0,2.0,3.0,249.0,411.0,2.0,1017.0,1744252902.9750159,0.0,2025-04-09 22:41:42.975,RIGHT,41
126.0,11538.551633185343,659.1082404980947,-56541.218643333756,-52873.967930551524,-32466.93700157845,-29683.653078514708,-148.1920657386858,-19662.22610023333,0.0,0.0,0.0,193.0,1.0,155.0,0.0,2.0,3.0,252.0,411.0,2.0,1020.0,1744252902.9750245,0.0,2025-04-09 22:41:42.975,RIGHT,41
127.0,11489.46720236149,668.160697002494,-56562.8998354554,-52870.50341016095,-32476.212975527404,-29706.675375303672,-55.25351229351906,-19677.581748674125,0.0,0.0,0.0,193.0,1.0,154.0,0.0,2.0,3.0,250.0,410.0,2.0,1018.0,1744252902.9750335,0.0,2025-04-09 22:41:42.975,RIGHT,41
128.0,11433.78900692332,615.8799667215308,-56592.381786391954,-52906.9367536231,-32523.66572900602,-29754.105777037836,-121.72760030360226,-19728.633133010047,0.0,0.0,0.0,193.0,1.0,155.0,0.0,2.0,3.0,252.0,411.0,2.0,1020.0,1744252902.9750426,0.0,2025-04-09 22:41:42.975,RIGHT,41
129.0,11531.577888915288,626.4970453378016,-56586.2574084112,-52863.68612810208,-32555.896944510576,-29784.70531519715,-80.77920446147972,-19754.047066455732,0.0,0.0,0.0,193.0,1.0,154.0,0.0,2.0,3.0,249.0,410.0,2.0,1017.0,1744252902.9750514,0.0,2025-04-09 22:41:42.975,RIGHT,41
130.0,11536.316458739813,642.4785426233462,-56558.80946622008,-52904.746282666485,-32487.254737288327,-29706.518913092485,-185.65358944578045,-19694.859647138077,0.0,0.0,0.0,193.0,1.0,154.0,0.0,2.0,3.0,250.0,410.0,2.0,1018.0,1744252902.97506,0.0,2025-04-09 22:41:42.975,RIGHT,41
131.0,11494.049309974827,657.3424526861254,-56561.80459997709,-52864.043756013365,-32481.845615130143,-29706.69772704813,-58.60627396181512,-19681.202731275884,0.0,0.0,0.0,193.0,1.0,154.0,0.0,2.0,3.0,249.0,410.0,2.0,1017.0,1744252903.3390963,0.0,2025-04-09 22:41:43.339,RIGHT,41
132.0,11443.668477972566,636.7564960427876,-56583.15051593191,-52907.45084374557,-32505.851388675143,-29718.58885509835,-125.41563813872793,-19700.671100696458,0.0,0.0,0.0,193.0,1.0,154.0,0.0,2.0,3.0,249.0,410.0,2.0,1017.0,1744252903.339138,0.0,2025-04-09 22:41:43.339,RIGHT,41
133.0,11534.751836627942,647.1724089589607,-56571.125277414954,-52833.62303180969,-32546.10688043915,-29753.725797382092,-57.466334994594455,-19728.342560332127,0.0,0.0,0.0,193.0,1.0,154.0,0.0,2.0,3.0,250.0,410.0,2.0,1018.0,1744252903.3391576,0.0,2025-04-09 22:41:43.339,RIGHT,41
134.0,11561.015136362927,660.8516765656086,-56562.117524399466,-52903.60634369926,-32488.864062889108,-29694.82895074236,-181.22794404362966,-19688.17647554594,0.0,0.0,0.0,193.0,1.0,154.0,0.0,2.0,3.0,250.0,410.0,2.0,1018.0,1744252903.339178,0.0,2025-04-09 22:41:43.339,RIGHT,41
135.0,11515.551688140833,674.642702894533,-56548.19238760381,-52845.804732537836,-32473.262545259306,-29687.430523327654,-51.34195701384032,-19660.817940332647,0.0,0.0,0.0,193.0,1.0,154.0,0.0,2.0,3.0,250.0,410.0,2.0,1018.0,1744252903.33922,0.0,2025-04-09 22:41:43.339,RIGHT,41
136.0,11448.138826863627,639.1257809550501,-56590.16896369088,-52916.838576416805,-32508.131266609584,-29719.438221387652,-122.57696659290393,-19692.579769203636,0.0,0.0,0.0,193.0,1.0,154.0,0.0,2.0,3.0,251.0,410.0,2.0,1019.0,1744252903.3392296,0.0,2025-04-09 22:41:43.339,RIGHT,41
137.0,11511.260153205414,633.3813826300362,-56569.29243436962,-52836.59581382225,-32542.10591818165,-29758.576125928896,-48.525637212471636,-19720.072414883663,0.0,0.0,0.0,193.0,1.0,155.0,0.0,2.0,3.0,251.0,411.0,2.0,1019.0,1744252903.3392391,0.0,2025-04-09 22:41:43.339,RIGHT,41
138.0,11562.646813708165,648.580568859645,-56572.13110591545,-52907.16027106765,-32512.33339456718,-29717.73948880905,-182.0102550995654,-19707.220161821864,0.0,0.0,0.0,193.0,1.0,155.0,0.0,2.0,3.0,251.0,411.0,2.0,1019.0,1744252903.3392487,0.0,2025-04-09 22:41:43.339,RIGHT,41
139.0,11518.725635853487,660.2481794653153,-56541.24099507821,-52846.11765696021,-32478.783426139766,-29689.285718117444,-80.3545213168289,-19673.021992805243,0.0,0.0,0.0,193.0,1.0,155.0,0.0,2.0,3.0,251.0,411.0,2.0,1019.0,1744252903.339258,0.0,2025-04-09 22:41:43.339,RIGHT,41
140.0,11463.583882282244,649.1840659599384,-56574.43333559434,-52901.68409367611,-32494.831978658676,-29704.619014813783,-101.9239547162002,-19684.42138247745,0.0,0.0,0.0,193.0,1.0,155.0,0.0,2.0,3.0,251.0,411.0,2.0,1019.0,1744252903.3392668,0.0,2025-04-09 22:41:43.339,RIGHT,41
141.0,11492.641150074143,632.420257618458,-56560.776419732145,-52837.221662667,-32528.6278162751,-29739.957122797627,-43.004756332010786,-19700.42523150745,0.0,0.0,0.0,193.0,1.0,155.0,0.0,2.0,3.0,251.0,411.0,2.0,1019.0,1744252903.3392758,0.0,2025-04-09 22:41:43.339,RIGHT,41
142.0,11570.939310901083,651.3521851721031,-56568.48777156923,-52889.83766911479,-32520.15650512654,-29717.895951020237,-144.3028622034624,-19694.7478884158,0.0,0.0,0.0,193.0,1.0,155.0,0.0,2.0,3.0,252.0,411.0,2.0,1020.0,1744252903.339285,0.0,2025-04-09 22:41:43.339,RIGHT,41
143.0,11535.37768547269,666.0372812792399,-56525.483015237216,-52840.26149991292,-32464.254792243817,-29669.3032585744,-91.28452435547405,-19651.765483828247,0.0,0.0,0.0,193.0,1.0,155.0,0.0,2.0,3.0,252.0,411.0,2.0,1020.0,1744252903.339294,0.0,2025-04-09 22:41:43.339,RIGHT,41
144.0,11477.441963844534,659.9129032984857,-56566.0514314236,-52887.37897722471,-32490.406333256524,-29697.82408449937,-83.75198647403556,-19679.347536486093,0.0,0.0,0.0,193.0,1.0,155.0,0.0,2.0,3.0,251.0,411.0,2.0,1019.0,1744252903.339303,0.0,2025-04-09 22:41:43.339,RIGHT,41
145.0,11477.956053967006,638.5446355992121,-56562.36339358847,-52853.51608437492,-32525.92325519601,-29738.347797196842,-74.90069566973396,-19712.405766535496,0.0,0.0,0.0,193.0,1.0,155.0,0.0,1.0,3.0,252.0,411.0,1.0,1020.0,1744252903.3393123,0.0,2025-04-09 22:41:43.339,RIGHT,41
146.0,11574.917921414128,658.0800602531506,-56569.11362041398,-52870.056375271844,-32534.461621577935,-29736.64906461824,-113.81508276642356,-19710.505868256794,0.0,0.0,0.0,193.0,1.0,155.0,0.0,2.0,3.0,253.0,411.0,2.0,1021.0,1744252903.3393211,0.0,2025-04-09 22:41:43.339,RIGHT,41
147.0,11541.300897753346,662.3715951885695,-56535.38483803092,-52862.74735483496,-32472.681399903468,-29681.552014535908,-126.48852187258267,-19663.924832811932,0.0,0.0,0.0,193.0,1.0,154.0,0.0,2.0,3.0,250.0,410.0,2.0,1018.0,1744252903.33933,0.0,2025-04-09 22:41:43.339,RIGHT,41
148.0,11489.243684916937,670.1052987701057,-56563.32451860005,-52880.71815737703,-32484.393713998048,-29704.484904347053,-68.44104152215023,-19686.99183308981,0.0,0.0,0.0,193.0,1.0,155.0,0.0,2.0,3.0,250.0,411.0,2.0,1018.0,1744252903.339339,0.0,2025-04-09 22:41:43.339,RIGHT,41
149.0,11459.471161302466,633.2696239077598,-56566.945501201815,-52877.09717477527,-32511.86400793362,-29735.777346584484,-82.05325389543222,-19710.461164767883,0.0,0.0,0.0,193.0,1.0,154.0,0.0,2.0,3.0,250.0,410.0,2.0,1018.0,1744252903.3393483,0.0,2025-04-09 22:41:43.339,RIGHT,41
150.0,11559.003479361949,643.5290746127456,-56569.851227981,-52858.58993036627,-32541.72593852591,-29751.31180898092,-77.76171896001327,-19722.15112711801,0.0,0.0,0.0,193.0,1.0,154.0,0.0,2.0,3.0,250.0,410.0,2.0,1018.0,1744252903.3393624,0.0,2025-04-09 22:41:43.339,RIGHT,41
151.0,11543.401961732145,648.3794031595472,-56541.39745728939,-52883.44507020058,-32477.732894150366,-29688.034020427946,-152.68476637420255,-19679.638109164014,0.0,0.0,0.0,193.0,1.0,154.0,0.0,2.0,3.0,251.0,410.0,2.0,1019.0,1744252903.3393717,0.0,2025-04-09 22:41:43.339,RIGHT,41
152.0,11491.076527962272,653.5203043842679,-56565.22441687875,-52875.55490440785,-32492.976783868886,-29710.229302672065,-62.89780889723407,-19686.678908667436,0.0,0.0,0.0,193.0,1.0,154.0,0.0,2.0,3.0,250.0,410.0,2.0,1018.0,1744252903.3393807,0.0,2025-04-09 22:41:43.339,RIGHT,41
153.0,11442.5508907498,624.9100714814748,-56582.591722320525,-52903.695750677085,-32523.598673772656,-29729.45180290363,-125.19212069417486,-19703.956807131388,0.0,0.0,0.0,193.0,1.0,154.0,0.0,2.0,3.0,249.0,410.0,2.0,1017.0,1744252903.3393896,0.0,2025-04-09 22:41:43.339,RIGHT,41
154.0,11545.413618733122,646.8371327921311,-56565.2020651343,-52840.86499701322,-32545.570438572224,-29753.099948537347,-58.82979140636819,-19715.400900292505,0.0,0.0,0.0,193.0,1.0,154.0,0.0,2.0,3.0,251.0,410.0,2.0,1019.0,1744252903.3393984,0.0,2025-04-09 22:41:43.339,RIGHT,41
155.0,11544.228976276992,648.2005892039048,-56551.63455624993,-52899.292457019386,-32486.450074487937,-29689.19631113962,-170.05207181597612,-19668.775161358735,0.0,0.0,0.0,193.0,1.0,154.0,0.0,2.0,3.0,249.0,410.0,2.0,1017.0,1744252903.3394072,0.0,2025-04-09 22:41:43.339,RIGHT,41
156.0,11502.095937978738,662.5727608886673,-56549.77936146014,-52853.96311926402,-32477.017638327798,-29690.06802917338,-45.82107613337948,-19661.13086475502,0.0,0.0,0.0,193.0,1.0,154.0,0.0,2.0,3.0,250.0,410.0,2.0,1018.0,1744252903.339416,0.0,2025-04-09 22:41:43.339,RIGHT,41
157.0,11438.639335470121,627.1452459270056,-56587.9561409898,-52913.552869981875,-32511.86400793362,-29723.215666200602,-116.94432699016656,-19689.763449402268,0.0,0.0,0.0,193.0,1.0,154.0,0.0,2.0,3.0,250.0,410.0,2.0,1018.0,1744252903.339425,0.0,2025-04-09 22:41:43.339,RIGHT,41
158.0,11520.066740520804,633.940176241419,-56574.32157687206,-52836.148778933144,-32549.236124662893,-29764.499338209553,-50.67140468018111,-19720.67591198396,0.0,0.0,0.0,193.0,1.0,154.0,0.0,2.0,3.0,249.0,410.0,2.0,1017.0,1744252903.339434,0.0,2025-04-09 22:41:43.339,RIGHT,41
159.0,11549.079304823794,643.7525920572987,-56569.15832390289,-52905.86386988925,-32501.649260717546,-29706.965947981593,-194.19195582770777,-19687.461219723373,0.0,0.0,0.0,193.0,1.0,154.0,0.0,2.0,3.0,251.0,410.0,2.0,1019.0,1744252903.3394425,0.0,2025-04-09 22:41:43.339,RIGHT,41
160.0,11502.811193801308,651.2180747053712,-56551.14281787191,-52842.34021214727,-32474.871870860086,-29695.16422690919,-56.84048614984586,-19666.204710746373,0.0,0.0,0.0,193.0,1.0,155.0,0.0,1.0,3.0,251.0,411.0,1.0,1019.0,1744252903.3394513,0.0,2025-04-09 22:41:43.339,RIGHT,41
161.0,11454.419667055568,644.3784409020473,-56570.208855892284,-52889.636503414695,-32482.270298274794,-29701.668584545685,-99.57702154839296,-19668.79751310319,0.0,0.0,0.0,193.0,1.0,155.0,0.0,2.0,3.0,252.0,411.0,2.0,1020.0,1744252903.33946,0.0,2025-04-09 22:41:43.339,RIGHT,41
162.0,11509.382606671168,641.2491966783043,-56548.19238760381,-52804.54341227334,-32513.093353878663,-29740.337102453366,-25.03395378994391,-19692.93739711492,0.0,0.0,0.0,193.0,1.0,155.0,0.0,2.0,3.0,252.0,411.0,2.0,1020.0,1744252903.3394692,0.0,2025-04-09 22:41:43.339,RIGHT,41
163.0,11557.058877594338,646.3677461585696,-56568.06308842458,-52880.44993644356,-32502.588033984666,-29713.62676782927,-165.71583339164656,-19682.946167343398,0.0,0.0,0.0,193.0,1.0,155.0,0.0,2.0,3.0,252.0,411.0,2.0,1020.0,1744252903.339478,0.0,2025-04-09 22:41:43.339,RIGHT,41
164.0,11516.959848041517,658.3259294421589,-56536.27890780913,-52818.468549068995,-32463.18190850996,-29678.400418567708,-82.67910274018082,-19635.895745264977,0.0,0.0,0.0,193.0,1.0,156.0,0.0,2.0,3.0,252.0,412.0,2.0,1020.0,1744252903.3394868,0.0,2025-04-09 22:41:43.339,RIGHT,41
165.0,11456.453675801002,642.8808740235418,-56581.92116998687,-52875.35373870775,-32490.071057089695,-29710.653985816716,-114.53033858899339,-19673.55843467217,0.0,0.0,0.0,193.0,1.0,155.0,0.0,2.0,3.0,252.0,411.0,2.0,1020.0,1744252903.3394957,0.0,2025-04-09 22:41:43.339,RIGHT,41
166.0,11480.705318535009,625.6476790485,-56568.53247505814,-52813.95349668903,-32516.91550218052,-29748.964875813115,-57.578093716870995,-19704.023862364753,0.0,0.0,0.0,193.0,1.0,155.0,0.0,6.0,3.0,250.0,411.0,6.0,1018.0,1744252903.3395092,0.0,2025-04-09 22:41:43.339,RIGHT,41
167.0,11569.821723678318,650.1898944604271,-56577.562579818084,-52852.46555238552,-32512.13222886708,-29731.284645948966,-142.53707439149315,-19698.078298339642,0.0,0.0,0.0,193.0,1.0,154.0,0.0,16.0,3.0,250.0,410.0,16.0,1018.0,1744252903.339518,0.0,2025-04-09 22:41:43.339,RIGHT,41
168.0,11535.020057561405,664.807935334198,-56533.66375370786,-52803.40347330612,-32449.27912345876,-29674.287697587934,-95.73252150208015,-19639.002637744266,0.0,0.0,0.0,193.0,1.0,155.0,0.0,27.0,3.0,250.0,411.0,27.0,1018.0,1744252903.339527,0.0,2025-04-09 22:41:43.339,RIGHT,41
169.0,11476.83846674424,659.8458480651198,-56571.415850092875,-52842.16139819162,-32469.79802486873,-29708.50821834901,-81.22623935058587,-19676.598271918094,0.0,0.0,0.0,193.0,1.0,155.0,0.0,36.0,3.0,250.0,411.0,36.0,1018.0,1744252903.339536,0.0,2025-04-09 22:41:43.339,RIGHT,41
170.0,11462.734515992943,630.0733244506508,-56572.13110591545,-52814.57934553378,-32508.757115454333,-29748.920172324204,-87.88705919826737,-19715.04327238122,0.0,0.0,0.0,193.0,1.0,155.0,0.0,39.0,3.0,249.0,411.0,39.0,1017.0,1744252903.3395448,0.0,2025-04-09 22:41:43.339,RIGHT,41
171.0,11559.159941573136,644.7584205577875,-56581.92116998687,-52820.94959270354,-32529.63364477559,-29738.1689832412,-123.51573986002683,-19682.074449309643,0.0,0.0,0.0,193.0,1.0,155.0,0.0,39.0,3.0,249.0,411.0,39.0,1017.0,1744252903.339554,0.0,2025-04-09 22:41:43.339,RIGHT,41
172.0,11531.466130193012,653.8108770621869,-56545.10784686898,-52812.5676885328,-32464.6124201551,-29669.169148107667,-151.36601345133943,-19621.79179451368,0.0,0.0,0.0,193.0,1.0,154.0,0.0,39.0,3.0,250.0,410.0,39.0,1018.0,1744252903.339563,0.0,2025-04-09 22:41:43.339,RIGHT,41
173.0,11492.171763440581,668.9430080584298,-56556.26136735218,-52803.5599355173,-32455.22468748387,-29677.3051830894,-56.95224487212239,-19623.959913725845,0.0,0.0,0.0,193.0,1.0,155.0,0.0,38.0,3.0,250.0,411.0,38.0,1018.0,1744252903.3395717,0.0,2025-04-09 22:41:43.339,RIGHT,41
174.0,11455.403143811602,630.0509727061955,-56569.22537913625,-52813.238240866456,-32486.561833210213,-29712.44212537314,-78.1640503602088,-19656.36994318604,0.0,0.0,0.0,193.0,1.0,155.0,0.0,38.0,3.0,251.0,411.0,38.0,1019.0,1744252903.3395803,0.0,2025-04-09 22:41:43.339,RIGHT,41
175.0,11554.063743837327,645.4736763803573,-56574.88037048345,-52792.182897589555,-32524.49274355087,-29742.88520132127,-65.512962998505,-19687.57297844565,0.0,0.0,0.0,193.0,1.0,155.0,0.0,38.0,3.0,252.0,411.0,38.0,1020.0,1744252903.3395889,0.0,2025-04-09 22:41:43.339,RIGHT,41
176.0,11545.99476408896,658.4600399088907,-56542.33623055652,-52817.440368824056,-32454.598838639122,-29665.72697946155,-152.19302799618578,-19636.54394585418,0.0,0.0,0.0,193.0,1.0,155.0,0.0,39.0,3.0,251.0,411.0,39.0,1019.0,1744252903.3395977,0.0,2025-04-09 22:41:43.339,RIGHT,41
177.0,11506.052196747327,669.9711883033739,-56550.718134727256,-52793.56870574578,-32455.984646795354,-29680.076799401857,-48.883265123756544,-19649.016219260244,0.0,0.0,0.0,193.0,1.0,155.0,0.0,39.0,3.0,252.0,411.0,39.0,1020.0,1744252903.3396063,0.0,2025-04-09 22:41:43.339,RIGHT,41
178.0,11450.5528152648,633.9848797303296,-56578.903684485405,-52838.4733603565,-32494.653164703035,-29714.45378237412,-118.59835607985927,-19683.147333043496,0.0,0.0,0.0,193.0,1.0,155.0,0.0,39.0,3.0,251.0,411.0,39.0,1019.0,1744252903.339615,0.0,2025-04-09 22:41:43.339,RIGHT,41
179.0,11536.495272695456,641.1597897004831,-56577.428469351355,-52787.24316206493,-32536.33916811218,-29754.284590993477,-63.74717518653574,-19701.654577452493,0.0,0.0,0.0,193.0,1.0,155.0,0.0,39.0,3.0,252.0,411.0,39.0,1020.0,1744252903.3396237,0.0,2025-04-09 22:41:43.339,RIGHT,41
180.0,11546.151226300148,647.2394641923266,-56562.67631801085,-52843.68131681458,-32475.5647749382,-29682.982526181047,-179.84213588740062,-19637.013332487742,0.0,0.0,0.0,193.0,1.0,156.0,0.0,40.0,3.0,252.0,412.0,40.0,1020.0,1744252903.3396325,0.0,2025-04-09 22:41:43.339,RIGHT,41
181.0,11508.309722937312,663.355071944603,-56553.1991783618,-52794.39572029063,-32458.622152641077,-29682.78136048095,-50.24672153553028,-19634.576992342114,0.0,0.0,0.0,193.0,1.0,155.0,0.0,40.0,3.0,249.0,411.0,40.0,1017.0,1744252903.339646,0.0,2025-04-09 22:41:43.339,RIGHT,41
182.0,11446.440094285022,638.164655943472,-56583.91047524339,-52857.69586058806,-32482.13618780806,-29713.760878296005,-112.89866124375597,-19673.75960037227,0.0,0.0,0.0,193.0,1.0,154.0,0.0,40.0,3.0,249.0,410.0,40.0,1017.0,1744252903.3396547,0.0,2025-04-09 22:41:43.339,RIGHT,41
183.0,11518.502118408933,639.9527954998965,-56571.66171928188,-52783.46571725199,-32523.598673772656,-29755.379826471788,-40.41195397519517,-19708.69537695591,0.0,0.0,0.0,193.0,1.0,154.0,0.0,40.0,3.0,250.0,410.0,40.0,1018.0,1744252903.3396633,0.0,2025-04-09 22:41:43.339,RIGHT,41
184.0,11555.38249676019,652.9168072839747,-56571.706422770796,-52857.65115709915,-32486.606536699124,-29699.344003122333,-186.21238305716315,-19674.81013236167,0.0,0.0,0.0,193.0,1.0,154.0,0.0,41.0,3.0,249.0,410.0,41.0,1017.0,1744252903.339672,0.0,2025-04-09 22:41:43.339,RIGHT,41
185.0,11512.936534039562,661.7680980882762,-56543.36441080146,-52789.6124469772,-32451.983684537852,-29672.030171397946,-52.2136750475973,-19624.27283814822,0.0,0.0,0.0,193.0,1.0,154.0,0.0,41.0,3.0,250.0,410.0,41.0,1018.0,1744252903.339681,0.0,2025-04-09 22:41:43.339,RIGHT,41
186.0,11453.5032455329,643.1267432125501,-56583.19521942082,-52855.50538963144,-32478.649315673032,-29697.667622288183,-107.33307687438452,-19652.994829773288,0.0,0.0,0.0,193.0,1.0,154.0,0.0,41.0,3.0,250.0,410.0,41.0,1018.0,1744252903.3396895,0.0,2025-04-09 22:41:43.339,RIGHT,41
187.0,11497.80440304332,631.5261878402457,-56571.08057392605,-52790.14888884412,-32520.312967337726,-29747.690826379163,-54.02416634847717,-19701.9004466415,0.0,0.0,0.0,193.0,1.0,154.0,0.0,41.0,3.0,248.0,410.0,41.0,1016.0,1744252903.3396988,0.0,2025-04-09 22:41:43.339,RIGHT,41
188.0,11553.862578137228,636.5553303426898,-56587.73262354525,-52863.68612810208,-32510.455848032936,-29724.333253423367,-180.95972311016598,-19699.128830329042,0.0,0.0,0.0,193.0,1.0,154.0,0.0,42.0,3.0,250.0,410.0,42.0,1018.0,1744252903.3397076,0.0,2025-04-09 22:41:43.339,RIGHT,41
189.0,11515.596391629744,651.0616124941841,-56548.7958847041,-52803.89521168414,-32460.924382319976,-29676.768741222473,-89.31757084340703,-19635.806338287155,0.0,0.0,0.0,193.0,1.0,155.0,0.0,42.0,3.0,249.0,411.0,42.0,1017.0,1744252903.3397164,0.0,2025-04-09 22:41:43.339,RIGHT,41
190.0,11456.274861845359,646.5912636031227,-56588.894914256925,-52857.60645361024,-32481.890318619055,-29699.07578218887,-96.73835000256896,-19652.950126284377,0.0,0.0,0.0,193.0,1.0,154.0,0.0,42.0,3.0,249.0,410.0,42.0,1017.0,1744252903.3397253,0.0,2025-04-09 22:41:43.339,RIGHT,41
191.0,11473.664519031587,625.0888854371174,-56576.512047828684,-52805.70570298502,-32512.71337422292,-29735.17384948419,-64.10480309782065,-19681.538007442716,0.0,0.0,0.0,193.0,1.0,154.0,0.0,42.0,3.0,249.0,410.0,42.0,1017.0,1744252903.339734,0.0,2025-04-09 22:41:43.339,RIGHT,41
192.0,11562.847979408263,650.3687084160696,-56585.54215258863,-52841.78141853588,-32514.00977540133,-29727.060166246913,-138.9384435341887,-19691.149257558496,0.0,0.0,0.0,193.0,1.0,154.0,0.0,42.0,3.0,249.0,410.0,42.0,1017.0,1744252903.339743,0.0,2025-04-09 22:41:43.339,RIGHT,41
193.0,11519.127967253682,654.2802636957483,-56552.327460328044,-52816.14396764564,-32458.733911363353,-29681.373200580267,-115.64792581175874,-19648.770350071234,0.0,0.0,0.0,193.0,1.0,154.0,0.0,42.0,3.0,250.0,410.0,42.0,1018.0,1744252903.3397517,0.0,2025-04-09 22:41:43.339,RIGHT,41
194.0,11463.18155088205,646.6806705809439,-56589.11843170148,-52849.26925292841,-32477.57643193918,-29704.149628180225,-85.94245743065565,-19662.919004311443,0.0,0.0,0.0,193.0,1.0,154.0,0.0,42.0,3.0,249.0,410.0,42.0,1017.0,1744252903.3397605,0.0,2025-04-09 22:41:43.339,RIGHT,41
195.0,11450.84338794272,619.1656731564609,-56584.96100723279,-52825.12936891668,-32505.56081599722,-29728.624788358786,-86.79182371995732,-19671.144446271,0.0,0.0,0.0,193.0,1.0,154.0,0.0,42.0,3.0,250.0,410.0,42.0,1018.0,1744252903.3397696,0.0,2025-04-09 22:41:43.339,RIGHT,41
196.0,11556.656546194143,642.7467635568099,-56588.44787936782,-52827.141025917655,-32522.592845272167,-29739.823012330893,-105.65669604023648,-19689.785801146725,0.0,0.0,0.0,193.0,1.0,154.0,0.0,42.0,3.0,249.0,410.0,42.0,1017.0,1744252903.339783,0.0,2025-04-09 22:41:43.339,RIGHT,41
197.0,11526.548746412844,640.131609455539,-56554.80850396258,-52828.70564802953,-32458.912725318998,-29680.054447657403,-151.18719949569697,-19647.116320981542,0.0,0.0,0.0,193.0,1.0,154.0,0.0,43.0,3.0,250.0,410.0,43.0,1018.0,1744252903.3397915,0.0,2025-04-09 22:41:43.339,RIGHT,41
198.0,11468.590673040233,642.1209147120613,-56577.629635051446,-52830.60554630823,-32467.674609145477,-29699.522817077974,-74.3419020583513,-19657.264012964253,0.0,0.0,0.0,193.0,1.0,154.0,0.0,43.0,3.0,250.0,410.0,43.0,1018.0,1744252903.3398004,0.0,2025-04-09 22:41:43.339,RIGHT,41
199.0,11440.74039944892,617.8245684891425,-56581.45178335331,-52840.8202935243,-32490.473388489892,-29722.209837700113,-110.23880365357444,-19680.643937664503,0.0,0.0,0.0,193.0,1.0,154.0,0.0,43.0,3.0,250.0,410.0,43.0,1018.0,1744252903.3398092,0.0,2025-04-09 22:41:43.339,RIGHT,41
200.0,11543.401961732145,633.873121008053,-56578.56840831857,-52804.74457797344,-32522.48108654989,-29755.245716005054,-84.02020740749924,-19723.93926667443,0.0,0.0,0.0,193.0,1.0,155.0,0.0,42.0,3.0,252.0,411.0,42.0,1020.0,1744252903.339818,0.0,2025-04-09 22:41:43.339,RIGHT,41
201.0,11531.80140635984,643.1937984459161,-56551.9474806723,-52842.00493598043,-32456.834013084655,-29681.082627902346,-184.08896733390895,-19662.427265933427,0.0,0.0,0.0,193.0,1.0,155.0,0.0,43.0,3.0,252.0,411.0,43.0,1020.0,1744252903.3398268,0.0,2025-04-09 22:41:43.339,RIGHT,41
202.0,11486.494420348934,656.4260311634578,-56558.18361737533,-52807.27032509689,-32456.163460750995,-29684.658907015197,-56.23698904955257,-19634.018198730733,0.0,0.0,0.0,193.0,1.0,155.0,0.0,43.0,3.0,251.0,411.0,43.0,1019.0,1744252903.3398356,0.0,2025-04-09 22:41:43.339,RIGHT,41
203.0,11429.095140587706,620.0150394457626,-56586.41387062238,-52854.611319853226,-32487.567661710702,-29716.577198097373,-114.15035893325317,-19669.624527648037,0.0,0.0,0.0,193.0,1.0,155.0,0.0,43.0,3.0,252.0,411.0,43.0,1020.0,1744252903.3398442,0.0,2025-04-09 22:41:43.339,RIGHT,41
204.0,11532.404903460134,642.970281001363,-56565.269120367666,-52780.783507917346,-32513.227464345393,-29743.64516063275,-42.7141836540918,-19688.914083112966,0.0,0.0,0.0,193.0,1.0,155.0,0.0,43.0,3.0,252.0,411.0,43.0,1020.0,1744252903.3398533,0.0,2025-04-09 22:41:43.339,RIGHT,41
205.0,11543.67018266561,640.2433681778155,-56564.91149245638,-52857.60645361024,-32470.781501624766,-29693.1078664193,-185.58653421241453,-19658.515710653748,0.0,0.0,0.0,193.0,1.0,155.0,0.0,43.0,3.0,251.0,411.0,43.0,1019.0,1744252903.3398619,0.0,2025-04-09 22:41:43.339,RIGHT,41
206.0,11502.453565890022,656.6719003524662,-56549.533492271126,-52802.665865739094,-32449.90497230351,-29686.73761924954,-57.66750069469222,-19641.37192265653,0.0,0.0,0.0,193.0,1.0,155.0,0.0,43.0,3.0,252.0,411.0,43.0,1020.0,1744252903.3398707,0.0,2025-04-09 22:41:43.339,RIGHT,41
207.0,11438.237004069926,630.3415453841145,-56586.078594455554,-52870.01167178294,-32474.782463882264,-29720.488753377052,-116.96667873462187,-19684.71195515537,0.0,0.0,0.0,193.0,1.0,154.0,0.0,43.0,3.0,249.0,410.0,43.0,1017.0,1744252903.3398795,0.0,2025-04-09 22:41:43.339,RIGHT,41
208.0,11501.224219944981,629.939213983919,-56571.79582974861,-52793.367540045685,-32515.596749257656,-29761.1242247968,-51.453715736116855,-19714.842106681124,0.0,0.0,0.0,193.0,1.0,154.0,0.0,43.0,3.0,249.0,410.0,43.0,1017.0,1744252903.339888,0.0,2025-04-09 22:41:43.339,RIGHT,41
209.0,11554.376668259702,646.3006909252038,-56570.18650414783,-52861.89798854566,-32482.672629674988,-29707.30122414842,-191.5320982375262,-19671.814998604656,0.0,0.0,0.0,193.0,1.0,154.0,0.0,43.0,3.0,250.0,410.0,43.0,1018.0,1744252903.339897,0.0,2025-04-09 22:41:43.339,RIGHT,41
210.0,11508.756757826419,655.0849264961394,-56549.55584401558,-52804.6104675067,-32459.09153927464,-29695.4100960982,-86.7024167421361,-19657.711047853358,0.0,0.0,0.0,193.0,1.0,154.0,0.0,43.0,3.0,249.0,410.0,43.0,1017.0,1744252903.3399055,0.0,2025-04-09 22:41:43.339,RIGHT,41
211.0,11445.143693106616,635.1471704420055,-56589.38665263494,-52873.0291572844,-32481.689152918956,-29716.487791119554,-124.32040266041788,-19675.03364980622,0.0,0.0,0.0,193.0,1.0,154.0,0.0,43.0,3.0,250.0,410.0,43.0,1018.0,1744252903.339919,0.0,2025-04-09 22:41:43.339,RIGHT,41
212.0,11493.80344078582,629.8274552616424,-56562.16222788837,-52795.37919704666,-32507.527769509292,-29743.108718765823,-54.56060821540454,-19683.66142316597,0.0,0.0,0.0,193.0,1.0,154.0,0.0,43.0,3.0,250.0,410.0,43.0,1018.0,1744252903.339928,0.0,2025-04-09 22:41:43.339,RIGHT,41
213.0,11561.439819507577,649.2064177043936,-56577.11554492898,-52857.494694887966,-32503.81737992971,-29719.88525627676,-171.34847299438394,-19685.56132144467,0.0,0.0,0.0,193.0,1.0,155.0,0.0,43.0,3.0,252.0,411.0,43.0,1020.0,1744252903.3399365,0.0,2025-04-09 22:41:43.339,RIGHT,41
214.0,11514.791728829352,654.4367259069355,-56543.25265207919,-52811.628915265675,-32456.43168168446,-29681.239090113533,-103.24270763906333,-19653.061885006653,0.0,0.0,0.0,193.0,1.0,155.0,0.0,43.0,3.0,252.0,411.0,43.0,1020.0,1744252903.3399453,0.0,2025-04-09 22:41:43.339,RIGHT,41
215.0,11450.977498409451,644.7807723022428,-56584.11164094349,-52866.345985692264,-32480.929193607473,-29710.20695092761,-111.57990832089286,-19685.829542378135,0.0,0.0,0.0,193.0,1.0,155.0,0.0,43.0,3.0,251.0,411.0,43.0,1019.0,1744252903.3399541,0.0,2025-04-09 22:41:43.339,RIGHT,41
216.0,11465.103800905204,626.3852866155252,-56570.34296635902,-52819.60848803622,-32513.20511260094,-29740.337102453366,-87.86470745381206,-19703.57682747565,0.0,0.0,0.0,193.0,1.0,155.0,0.0,43.0,3.0,252.0,411.0,43.0,1020.0,1744252903.3399627,0.0,2025-04-09 22:41:43.339,RIGHT,41
217.0,11567.139514343682,648.6476240930109,-56572.68989952683,-52842.34021214727,-32514.099182379152,-29730.479983148576,-140.30189994596242,-19702.481591997337,0.0,0.0,0.0,193.0,1.0,155.0,0.0,43.0,3.0,250.0,411.0,43.0,1018.0,1744252903.3399713,0.0,2025-04-09 22:41:43.339,RIGHT,41
218.0,11521.117272510204,643.1267432125501,-56542.71621021226,-52828.5715375628,-32460.477347430868,-29679.11567439028,-138.9384435341887,-19663.477797922827,0.0,0.0,0.0,193.0,1.0,154.0,0.0,44.0,3.0,249.0,410.0,44.0,1017.0,1744252903.3399804,0.0,2025-04-09 22:41:43.339,RIGHT,41
219.0,11465.059097416293,641.4056588894915,-56581.2059141643,-52860.5792356228,-32485.645411687543,-29705.73660203655,-98.95117270364436,-19686.231873778328,0.0,0.0,0.0,193.0,1.0,154.0,0.0,44.0,3.0,249.0,410.0,44.0,1017.0,1744252903.3971095,0.0,2025-04-09 22:41:43.397,RIGHT,41
220.0,11441.701524460499,607.0733794061398,-56586.659739811395,-52853.136104719175,-32521.25174060485,-29745.232134489077,-118.77717003550173,-19717.23374333784,0.0,0.0,0.0,193.0,1.0,154.0,0.0,43.0,3.0,249.0,410.0,43.0,1017.0,1744252903.39714,0.0,2025-04-09 22:41:43.397,RIGHT,41
221.0,11546.374743744702,628.0393157052179,-56584.73748978824,-52840.19444467955,-32538.82021174672,-29760.811300374426,-122.30874565944025,-19731.270638855774,0.0,0.0,0.0,193.0,1.0,154.0,0.0,43.0,3.0,248.0,410.0,43.0,1016.0,1744252903.3971536,0.0,2025-04-09 22:41:43.397,RIGHT,41
222.0,11526.839319090763,640.6904030669216,-56545.64428873591,-52846.83291278278,-32466.93700157845,-29685.329459348854,-175.21532478515206,-19667.478760180325,0.0,0.0,0.0,193.0,1.0,154.0,0.0,44.0,3.0,250.0,410.0,44.0,1018.0,1744252903.3971648,0.0,2025-04-09 22:41:43.397,RIGHT,41
223.0,11483.856914503207,659.9576067873963,-56552.30510858358,-52827.18572940656,-32462.533707920757,-29696.438276343142,-75.48184102557195,-19675.681850395424,0.0,0.0,0.0,193.0,1.0,155.0,0.0,44.0,3.0,250.0,411.0,44.0,1018.0,1744252903.3971753,0.0,2025-04-09 22:41:43.397,RIGHT,41
224.0,11435.5994982242,620.5291295682347,-56571.5052570707,-52853.426677397096,-32495.837807159165,-29733.050433760935,-123.35927764883968,-19704.113269342575,0.0,0.0,0.0,193.0,1.0,155.0,0.0,44.0,3.0,252.0,411.0,44.0,1020.0,1744252903.3971848,0.0,2025-04-09 22:41:43.397,RIGHT,41
225.0,11544.296031510357,635.3930396310138,-56562.27398661066,-52803.82815645077,-32522.034051660783,-29753.055245048436,-75.81711719240155,-19709.410632778483,0.0,0.0,0.0,193.0,1.0,155.0,0.0,43.0,3.0,252.0,411.0,43.0,1020.0,1744252903.397194,0.0,2025-04-09 22:41:43.397,RIGHT,41
226.0,11539.4233512191,646.5912636031227,-56544.79492244661,-52852.51025587443,-32462.086673031652,-29687.765799494482,-192.24735406009606,-19669.535120670214,0.0,0.0,0.0,193.0,1.0,155.0,0.0,44.0,3.0,252.0,411.0,44.0,1020.0,1744252903.3972447,0.0,2025-04-09 22:41:43.397,RIGHT,41
227.0,11491.545914595832,657.454211408402,-56552.21570160577,-52816.859223468215,-32461.37141720908,-29702.473247346075,-77.78407070446858,-19681.98504233182,0.0,0.0,0.0,193.0,1.0,155.0,0.0,44.0,3.0,250.0,411.0,44.0,1018.0,1744252903.3972545,0.0,2025-04-09 22:41:43.397,RIGHT,41
228.0,11436.73943719142,626.1394174265167,-56577.070841440065,-52864.44608741356,-32487.85823438862,-29723.662701089706,-129.32719341840667,-19689.22700753534,0.0,0.0,0.0,193.0,1.0,154.0,0.0,44.0,3.0,251.0,410.0,44.0,1019.0,1744252903.3972638,0.0,2025-04-09 22:41:43.397,RIGHT,41
229.0,11526.593449901755,638.2317111768378,-56560.57525403205,-52786.28203705335,-32524.179819128494,-29747.489660679064,-55.18645706015314,-19691.7974581477,0.0,0.0,0.0,193.0,1.0,154.0,0.0,44.0,3.0,251.0,410.0,44.0,1019.0,1744252903.3972728,0.0,2025-04-09 22:41:43.397,RIGHT,41
230.0,11542.70905765403,637.3152896541703,-56559.56942553156,-52861.182732723086,-32480.52686220728,-29692.951404208114,-193.83432791642284,-19656.392294930494,0.0,0.0,0.0,193.0,1.0,154.0,0.0,44.0,3.0,251.0,410.0,44.0,1019.0,1744252903.3972816,0.0,2025-04-09 22:41:43.397,RIGHT,41
231.0,11493.80344078582,648.2676444372707,-56545.71134396927,-52805.459833796005,-32464.768882366287,-29687.36346809429,-69.26805606699659,-19638.063864477142,0.0,0.0,0.0,193.0,1.0,155.0,0.0,44.0,3.0,251.0,411.0,44.0,1019.0,1744252903.3972905,0.0,2025-04-09 22:41:43.397,RIGHT,41
232.0,11438.974611636952,631.0791529511396,-56571.19233264832,-52862.94852053506,-32479.878661618077,-29703.88140724676,-118.88892875777826,-19658.694524609393,0.0,0.0,0.0,193.0,1.0,155.0,0.0,44.0,3.0,252.0,411.0,44.0,1020.0,1744252903.8326783,0.0,2025-04-09 22:41:43.832,RIGHT,41
233.0,11511.483670649966,638.7234495548546,-56540.74925670019,-52774.12268806967,-32504.175007840993,-29731.150535482233,-28.364363713784662,-19676.575920173636,0.0,0.0,0.0,193.0,1.0,155.0,0.0,44.0,3.0,252.0,411.0,44.0,1020.0,1744252903.8327146,0.0,2025-04-09 22:41:43.832,RIGHT,41
234.0,11560.255177051447,645.4513246359021,-56549.108809126476,-52849.53747386187,-32480.48215871837,-29692.660831530196,-161.20078101167454,-19657.219309475342,0.0,0.0,0.0,193.0,1.0,155.0,0.0,44.0,3.0,252.0,411.0,44.0,1020.0,1744252903.8327353,0.0,2025-04-09 22:41:43.832,RIGHT,41
235.0,11517.205717230525,654.0120427622846,-56525.08068383702,-52793.18872609005,-32451.51429790429,-29675.91937493317,-67.88224791076755,-19646.82574830362,0.0,0.0,0.0,193.0,1.0,154.0,0.0,44.0,3.0,249.0,410.0,44.0,1017.0,1744252903.8327556,0.0,2025-04-09 22:41:43.832,RIGHT,41
236.0,11459.493513046922,653.0062142617959,-56564.44210582282,-52853.918415775115,-32475.698885404934,-29696.125351920768,-106.26019314052978,-19672.485550938316,0.0,0.0,0.0,193.0,1.0,153.0,0.0,44.0,3.0,249.0,409.0,44.0,1017.0,1744252903.8327732,0.0,2025-04-09 22:41:43.832,RIGHT,41
237.0,11485.577998826266,633.0908099521173,-56558.60830051998,-52797.88259242566,-32518.703641736945,-29743.51105016602,-64.30596879791842,-19711.019958379264,0.0,0.0,0.0,193.0,1.0,154.0,0.0,44.0,3.0,250.0,410.0,44.0,1018.0,1744252903.8327932,0.0,2025-04-09 22:41:43.832,RIGHT,41
238.0,11568.950005644561,651.4415921499243,-56561.29050985462,-52842.40726738063,-32502.7221444514,-29706.787134025948,-154.04822278597626,-19674.318393983653,0.0,0.0,0.0,193.0,1.0,154.0,0.0,44.0,3.0,251.0,410.0,44.0,1019.0,1744252903.8328104,0.0,2025-04-09 22:41:43.832,RIGHT,41
239.0,11529.610935403221,662.3268916996589,-56520.05154133458,-52794.68629296855,-32443.780594322754,-29655.713397945572,-87.41767256470592,-19617.20968690034,0.0,0.0,0.0,193.0,1.0,155.0,0.0,44.0,3.0,251.0,411.0,44.0,1019.0,1744252903.832828,0.0,2025-04-09 22:41:43.832,RIGHT,41
240.0,11476.704356277509,662.840981822131,-56557.04367840811,-52840.08268595728,-32464.03127479926,-29683.720133748073,-78.1416986157535,-19654.51474839625,0.0,0.0,0.0,193.0,1.0,154.0,0.0,44.0,3.0,251.0,410.0,44.0,1019.0,1744252903.8328683,0.0,2025-04-09 22:41:43.832,RIGHT,41
241.0,11463.561530537789,624.9547749703855,-56565.51498955667,-52821.10605491472,-32513.652147490044,-29738.213686730112,-82.29912308444061,-19708.829487422645,0.0,0.0,0.0,193.0,1.0,155.0,0.0,44.0,3.0,251.0,411.0,44.0,1019.0,1744252903.8328776,0.0,2025-04-09 22:41:43.832,RIGHT,41
242.0,11553.147322314659,639.9974989888071,-56579.19425716332,-52844.59773833725,-32530.080679664694,-29737.006692529525,-133.5516731204597,-19706.28138855474,0.0,0.0,0.0,193.0,1.0,154.0,0.0,44.0,3.0,251.0,410.0,44.0,1019.0,1744252903.8328872,0.0,2025-04-09 22:41:43.832,RIGHT,41
243.0,11536.629383162188,663.5338859002454,-56523.00197160268,-52811.1148251432,-32443.69118734493,-29653.25470605549,-118.24072816857436,-19628.56437308364,0.0,0.0,0.0,193.0,1.0,155.0,0.0,44.0,3.0,250.0,411.0,44.0,1018.0,1744252903.8328962,0.0,2025-04-09 22:41:43.832,RIGHT,41
244.0,11482.60521681371,661.5669323881784,-56554.92026268486,-52827.766874762405,-32458.689207874446,-29678.31101158989,-59.14271582874249,-19652.74896058428,0.0,0.0,0.0,193.0,1.0,154.0,0.0,44.0,3.0,249.0,410.0,44.0,1017.0,1744252903.8329055,0.0,2025-04-09 22:41:43.832,RIGHT,41
245.0,11445.568376251267,621.8925859800084,-56571.77347800416,-52837.60164232274,-32501.515150250812,-29726.568427868897,-101.00753319353262,-19711.981083390845,0.0,0.0,0.0,193.0,1.0,154.0,0.0,44.0,3.0,250.0,410.0,44.0,1018.0,1744252903.8329146,0.0,2025-04-09 22:41:43.832,RIGHT,41
246.0,11548.229938534492,642.1432664565166,-56572.35462336,-52818.02151417989,-32527.10789765214,-29740.65002687574,-91.95507668913325,-19713.366891547073,0.0,0.0,0.0,193.0,1.0,154.0,0.0,44.0,3.0,250.0,410.0,44.0,1018.0,1744252903.832924,0.0,2025-04-09 22:41:43.832,RIGHT,41
247.0,11529.499176680943,645.8536560360976,-56539.34109679951,-52835.29941264384,-32458.778614852265,-29656.361598534775,-148.99672853907688,-19620.1824689129,0.0,0.0,0.0,193.0,1.0,154.0,0.0,44.0,3.0,250.0,410.0,44.0,1018.0,1744252903.8329327,0.0,2025-04-09 22:41:43.832,RIGHT,41
248.0,11479.6100830567,655.4425544074243,-56559.725887742745,-52824.749389260935,-32469.462748701902,-29681.21673836908,-63.21073331960837,-19644.903498280466,0.0,0.0,0.0,193.0,1.0,155.0,0.0,44.0,3.0,252.0,411.0,44.0,1020.0,1744252903.8329425,0.0,2025-04-09 22:41:43.832,RIGHT,41
249.0,11430.25743129938,619.0092109452738,-56582.01057696469,-52860.065145500324,-32504.845560174654,-29717.9630062536,-126.42146663921675,-19690.65751918048,0.0,0.0,0.0,193.0,1.0,155.0,0.0,44.0,3.0,252.0,411.0,44.0,1020.0,1744252903.8329513,0.0,2025-04-09 22:41:43.832,RIGHT,41
250.0,11532.315496482313,628.5981093166005,-56575.55092281711,-52809.371389075684,-32535.310987867237,-29755.625695660794,-76.2418003370524,-19723.402824807505,0.0,0.0,0.0,193.0,1.0,155.0,0.0,44.0,3.0,252.0,411.0,44.0,1020.0,1744252903.8329604,0.0,2025-04-09 22:41:43.832,RIGHT,41
251.0,11531.242612748458,628.9333854834301,-56562.65396626639,-52869.788154338385,-32476.280030760772,-29694.3595641088,-192.91790639375526,-19680.398068475493,0.0,0.0,0.0,193.0,1.0,155.0,0.0,44.0,3.0,250.0,411.0,44.0,1018.0,1744252903.8329704,0.0,2025-04-09 22:41:43.832,RIGHT,41
252.0,11479.721841778975,641.0927344671172,-56559.68118425384,-52826.649287539636,-32464.433606199458,-29697.913491477193,-55.946416371633575,-19668.931623569923,0.0,0.0,0.0,193.0,1.0,155.0,0.0,44.0,3.0,250.0,411.0,44.0,1018.0,1744252903.83298,0.0,2025-04-09 22:41:43.832,RIGHT,41
253.0,11421.584954450722,608.9956294292962,-56591.84534452503,-52885.47907894601,-32499.23527231637,-29728.110698236313,-130.84711204136755,-19709.678853711946,0.0,0.0,0.0,193.0,1.0,154.0,0.0,44.0,3.0,250.0,410.0,44.0,1018.0,1744252903.8329885,0.0,2025-04-09 22:41:43.832,RIGHT,41
254.0,11510.65665610512,625.357106370581,-56568.93480645833,-52801.81649944979,-32531.600598287656,-29753.681093893185,-61.75786993001341,-19718.41838579397,0.0,0.0,0.0,193.0,1.0,154.0,0.0,44.0,3.0,250.0,410.0,44.0,1018.0,1744252903.8329976,0.0,2025-04-09 22:41:43.832,RIGHT,41
255.0,11539.780979130386,640.5786443446451,-56561.22345462126,-52870.25754097194,-32481.644449430045,-29693.331383863853,-190.97330462614354,-19675.167760272954,0.0,0.0,0.0,193.0,1.0,155.0,0.0,44.0,3.0,251.0,411.0,44.0,1019.0,1744252903.8330731,0.0,2025-04-09 22:41:43.833,RIGHT,41
0.0,11493.624626830177,652.4697723948684,-56538.2458613212,-52805.817461707295,-32453.14597524953,-29677.908680189692,-50.67140468018111,-19640.299038922672,0.0,0.0,0.0,193.0,1.0,155.0,0.0,44.0,3.0,252.0,411.0,44.0,1020.0,1744252903.833082,0.0,2025-04-09 22:41:43.833,RIGHT,41
1.0,11429.944506877007,624.5747953146453,-56580.62476880846,-52881.14284052168,-32483.834920386664,-29709.35758463831,-117.99485897956599,-19677.671155651948,0.0,0.0,0.0,193.0,1.0,154.0,0.0,44.0,3.0,250.0,410.0,44.0,1018.0,1744252903.8330913,0.0,2025-04-09 22:41:43.833,RIGHT,41
2.0,11491.545914595832,621.3337923686257,-56555.3002423406,-52802.44234829454,-32513.42863004549,-29745.612114144817,-43.63060517675939,-19703.465068753372,0.0,0.0,0.0,193.0,1.0,154.0,0.0,44.0,3.0,250.0,410.0,44.0,1018.0,1744252903.8331003,0.0,2025-04-09 22:41:43.833,RIGHT,41
3.0,11550.398057746657,635.5047983532904,-56563.21275987777,-52871.15161075015,-32494.273185047292,-29708.619977071285,-168.86742935984486,-19682.745001643303,0.0,0.0,0.0,193.0,1.0,154.0,0.0,44.0,3.0,250.0,410.0,44.0,1018.0,1744252903.8331099,0.0,2025-04-09 22:41:43.833,RIGHT,41
4.0,11501.335978667257,640.131609455539,-56538.42467527684,-52821.39662759264,-32463.04779804323,-29690.559767551396,-88.89288769875618,-19675.100705039586,0.0,0.0,0.0,193.0,1.0,154.0,0.0,44.0,3.0,250.0,410.0,44.0,1018.0,1744252903.833119,0.0,2025-04-09 22:41:43.833,RIGHT,41
5.0,11441.679172716043,632.3084988961815,-56579.28366414114,-52883.1321457782,-32487.075923332683,-29720.84638128834,-119.22420492460788,-19710.595275234613,0.0,0.0,0.0,193.0,1.0,154.0,0.0,44.0,3.0,250.0,410.0,44.0,1018.0,1744252903.833128,0.0,2025-04-09 22:41:43.833,RIGHT,41
6.0,11462.578053781755,608.9732776848409,-56568.398364591405,-52827.38689510666,-32525.34210984017,-29757.257373006032,-77.31468407090713,-19725.101557386108,0.0,0.0,0.0,193.0,1.0,154.0,0.0,44.0,3.0,250.0,410.0,44.0,1018.0,1744252903.833137,0.0,2025-04-09 22:41:43.833,RIGHT,41
7.0,11549.548691457354,631.8838157515306,-56570.499428570205,-52863.95434903555,-32518.368365570113,-29728.244808703043,-157.35628096536172,-19696.960711116877,0.0,0.0,0.0,193.0,1.0,154.0,0.0,44.0,3.0,250.0,410.0,44.0,1018.0,1744252903.8331463,0.0,2025-04-09 22:41:43.833,RIGHT,41
8.0,11519.396188187146,651.2627781942819,-56522.957268113765,-52818.78147349137,-32452.430719426957,-29671.136101619733,-114.50798684453808,-19644.41175990245,0.0,0.0,0.0,193.0,1.0,155.0,0.0,44.0,3.0,252.0,411.0,44.0,1020.0,1744252903.8331552,0.0,2025-04-09 22:41:43.833,RIGHT,41
9.0,11465.170856138571,650.2345979493377,-56556.77545747465,-52856.8241425543,-32467.249926000826,-29696.080648431856,-86.09891964184281,-19672.93258582742,0.0,0.0,0.0,193.0,1.0,155.0,0.0,44.0,3.0,251.0,411.0,44.0,1019.0,1744252903.833172,0.0,2025-04-09 22:41:43.833,RIGHT,41
10.0,11459.98525142494,621.9372894689191,-56549.444085293304,-52829.107979429726,-32489.37815301158,-29727.306035435922,-63.27778855297429,-19692.51271397027,0.0,0.0,0.0,193.0,1.0,155.0,0.0,44.0,3.0,252.0,411.0,44.0,1020.0,1744252903.833181,0.0,2025-04-09 22:41:43.833,RIGHT,41
11.0,11558.042354350371,635.1918739309161,-56557.80363771959,-52842.63078482518,-32503.415048529514,-29733.631579116773,-93.6985127566472,-19701.006376863286,0.0,0.0,0.0,193.0,1.0,155.0,0.0,44.0,3.0,252.0,411.0,44.0,1020.0,1744252903.83319,0.0,2025-04-09 22:41:43.833,RIGHT,41
12.0,11522.816005088807,633.4260861189468,-56531.89796589589,-52848.48694187248,-32451.022559526275,-29682.1555116362,-139.78780982349036,-19657.84515832009,0.0,0.0,0.0,193.0,1.0,154.0,0.0,44.0,3.0,250.0,410.0,44.0,1018.0,1744252903.8331988,0.0,2025-04-09 22:41:43.833,RIGHT,41
13.0,11462.242777614925,637.5388070987234,-56568.331309358044,-52868.35764269324,-32474.670705159988,-29716.912474264205,-86.25538185302996,-19685.382507489026,0.0,0.0,0.0,193.0,1.0,154.0,0.0,44.0,3.0,249.0,410.0,44.0,1017.0,1744252903.8333545,0.0,2025-04-09 22:41:43.833,RIGHT,41
14.0,11425.250640541391,600.5466700251901,-56577.16024841789,-52876.89600907517,-32503.95149039644,-29751.669436892207,-116.16201593423081,-19717.658426482492,0.0,0.0,0.0,193.0,1.0,154.0,0.0,44.0,3.0,249.0,410.0,44.0,1017.0,1744252903.833364,0.0,2025-04-09 22:41:43.833,RIGHT,41
15.0,11533.589545916266,621.1773301574386,-56569.873579725456,-52842.720191803004,-32524.29157785077,-29767.628582433295,-86.7024167421361,-19733.37170283457,0.0,0.0,0.0,193.0,1.0,154.0,0.0,44.0,3.0,249.0,410.0,44.0,1017.0,1744252903.8333821,0.0,2025-04-09 22:41:43.833,RIGHT,41
16.0,11521.720769610498,629.1121994390726,-56541.419809033854,-52874.41496544063,-32456.386978195547,-29697.555863565907,-171.2367142721074,-19685.158990044474,0.0,0.0,0.0,193.0,1.0,154.0,0.0,44.0,3.0,249.0,410.0,44.0,1017.0,1744252903.8333912,0.0,2025-04-09 22:41:43.833,RIGHT,41
17.0,11476.682004533053,641.6068245895892,-56551.67925973884,-52847.88344477218,-32457.638675885046,-29707.368279381786,-59.4779919955721,-19676.397106217995,0.0,0.0,0.0,193.0,1.0,154.0,0.0,44.0,3.0,249.0,410.0,44.0,1017.0,1744252903.8334005,0.0,2025-04-09 22:41:43.833,RIGHT,41
18.0,11423.663666685065,605.26288810526,-56575.52857107265,-52885.724948135015,-32491.099237334638,-29731.2175907156,-115.8714432563118,-19689.025841835242,0.0,0.0,0.0,193.0,1.0,154.0,0.0,44.0,3.0,251.0,410.0,44.0,1019.0,1744252903.8334093,0.0,2025-04-09 22:41:43.833,RIGHT,41
19.0,11521.5196039104,617.3104783666705,-56567.72781225775,-52828.817406751805,-32527.5772842857,-29769.439073734175,-59.634454206759244,-19729.013112665787,0.0,0.0,0.0,193.0,1.0,155.0,0.0,44.0,3.0,251.0,411.0,44.0,1019.0,1744252903.8334181,0.0,2025-04-09 22:41:43.833,RIGHT,41
20.0,11550.152188557648,640.4892373668239,-56537.508253754175,-52873.476192173504,-32457.146937507026,-29691.87852047426,-179.50685972057101,-19686.097763311598,0.0,0.0,0.0,193.0,1.0,154.0,0.0,44.0,3.0,252.0,410.0,44.0,1020.0,1744252903.8334274,0.0,2025-04-09 22:41:43.833,RIGHT,41
21.0,11490.070699461783,640.1092577110836,-56534.42371301934,-52823.81061599382,-32451.46959441538,-29687.74344775003,-48.63739593474817,-19658.694524609393,0.0,0.0,0.0,193.0,1.0,155.0,0.0,44.0,3.0,252.0,411.0,44.0,1020.0,1744252903.8335032,0.0,2025-04-09 22:41:43.833,RIGHT,41
22.0,11415.214707280958,601.4407398034025,-56574.92507397236,-52892.47517496052,-32487.031219843775,-29717.06893647539,-116.49729210106041,-19677.358231229573,0.0,0.0,0.0,193.0,1.0,155.0,0.0,44.0,3.0,252.0,411.0,44.0,1020.0,1744252903.8335123,0.0,2025-04-09 22:41:43.833,RIGHT,41
23.0,11506.14160372515,617.8469202335979,-56546.024268391644,-52803.35876981721,-32510.880531177587,-29742.304055965433,-32.34297422682932,-19687.774144145747,0.0,0.0,0.0,193.0,1.0,155.0,0.0,44.0,3.0,252.0,411.0,44.0,1020.0,1744252903.8335211,0.0,2025-04-09 22:41:43.833,RIGHT,41
24.0,11545.19010128857,630.7662285287653,-56552.50627428368,-52879.913494576635,-32478.62696392858,-29699.344003122333,-179.97624635413246,-19673.580786416627,0.0,0.0,0.0,193.0,1.0,154.0,0.0,44.0,3.0,252.0,410.0,44.0,1020.0,1744252903.83353,0.0,2025-04-09 22:41:43.833,RIGHT,41
25.0,11502.85589729022,648.2676444372707,-56529.77455017264,-52815.29460135634,-32450.03908277024,-29680.72499999106,-57.48868673904977,-19646.60223085907,0.0,0.0,0.0,193.0,1.0,154.0,0.0,44.0,3.0,249.0,410.0,44.0,1017.0,1744252903.8335388,0.0,2025-04-09 22:41:43.833,RIGHT,41
26.0,11435.755960435386,620.1267981680392,-56573.2039896493,-52886.50725919095,-32480.459806973915,-29710.653985816716,-116.83256826789001,-19686.433039478427,0.0,0.0,0.0,193.0,1.0,154.0,0.0,44.0,3.0,249.0,410.0,44.0,1017.0,1744252903.8335478,0.0,2025-04-09 22:41:43.833,RIGHT,41
27.0,11479.833600501252,601.5748502701343,-56559.167094131364,-52819.20615663602,-32522.034051660783,-29754.84338460486,-61.221428063086044,-19723.849859696613,0.0,0.0,0.0,193.0,1.0,154.0,0.0,44.0,3.0,250.0,410.0,44.0,1018.0,1744252903.833557,0.0,2025-04-09 22:41:43.833,RIGHT,41
28.0,11533.254269749435,606.4698823058466,-56578.47900134075,-52894.2856662614,-32513.741554467866,-29732.491640149554,-180.1103568208643,-19710.7517374458,0.0,0.0,0.0,193.0,1.0,154.0,0.0,44.0,3.0,250.0,410.0,44.0,1018.0,1744252903.8335657,0.0,2025-04-09 22:41:43.833,RIGHT,41
29.0,11494.898676264129,624.9100714814748,-56535.47424500874,-52831.74548527545,-32461.460824186903,-29686.178825638155,-91.23982086656343,-19651.206690216863,0.0,0.0,0.0,193.0,1.0,154.0,0.0,44.0,3.0,249.0,410.0,44.0,1017.0,1744252903.8335743,0.0,2025-04-09 22:41:43.833,RIGHT,41
30.0,11442.327373305247,627.0781906936396,-56564.44210582282,-52875.577256152304,-32479.163405795505,-29701.757991523504,-101.99100994956612,-19676.441809706906,0.0,0.0,0.0,193.0,1.0,154.0,0.0,44.0,3.0,251.0,410.0,44.0,1019.0,1744252903.8335888,0.0,2025-04-09 22:41:43.833,RIGHT,41
31.0,11463.494475304422,612.8624812200643,-56553.66856499536,-52822.804787493325,-32519.463601048425,-29743.198125743646,-82.05325389543222,-19713.836278180635,0.0,0.0,0.0,193.0,1.0,155.0,0.0,44.0,3.0,252.0,411.0,44.0,1020.0,1744252903.8335977,0.0,2025-04-09 22:41:43.833,RIGHT,41
32.0,11551.962679858529,626.9440802269078,-56565.93967270132,-52864.28962520238,-32523.777487728297,-29743.198125743646,-157.11041177635335,-19719.960656161387,0.0,0.0,0.0,193.0,1.0,154.0,0.0,44.0,3.0,251.0,410.0,44.0,1019.0,1744252903.8336065,0.0,2025-04-09 22:41:43.833,RIGHT,41
33.0,11516.646923619142,637.1588274429831,-56521.482052979714,-52830.53849107486,-32455.60466713961,-29687.564633794384,-122.93459450418885,-19659.61094613206,0.0,0.0,0.0,193.0,1.0,154.0,0.0,44.0,3.0,249.0,410.0,44.0,1017.0,1744252903.8336153,0.0,2025-04-09 22:41:43.833,RIGHT,41
34.0,11466.087277661238,637.9858419878295,-56553.71326848427,-52860.64629085616,-32472.10025454763,-29712.486828862053,-87.46237605361654,-19679.839274864113,0.0,0.0,0.0,193.0,1.0,154.0,0.0,44.0,3.0,250.0,410.0,44.0,1018.0,1744252903.8336241,0.0,2025-04-09 22:41:43.833,RIGHT,41
35.0,11450.150483864605,606.4028270724806,-56556.663698752374,-52845.06712497081,-32509.874702677098,-29751.736492125572,-102.63921053877003,-19721.927609673454,0.0,0.0,0.0,193.0,1.0,154.0,0.0,44.0,3.0,248.0,410.0,44.0,1016.0,1744252903.8336327,0.0,2025-04-09 22:41:43.833,RIGHT,41
36.0,11560.076363095804,634.4989698528016,-56549.68995448232,-52835.99231672196,-32519.19538011496,-29753.16700377071,-123.31457415992907,-19741.79831049422,0.0,0.0,0.0,193.0,1.0,154.0,0.0,44.0,3.0,249.0,410.0,44.0,1017.0,1744252903.8336415,0.0,2025-04-09 22:41:43.833,RIGHT,41
37.0,11528.649810391642,639.9080920109859,-56513.167204042344,-52836.97579347799,-32451.491946159837,-29680.613241268784,-159.07736528842037,-19666.539986913205,0.0,0.0,0.0,193.0,1.0,154.0,0.0,44.0,3.0,251.0,410.0,44.0,1019.0,1744252903.83365,0.0,2025-04-09 22:41:43.833,RIGHT,41
38.0,11471.228178885958,639.0810774661395,-56544.54905325759,-52844.59773833725,-32467.227574256372,-29701.53447407895,-69.91625665620049,-19661.13086475502,0.0,0.0,0.0,193.0,1.0,155.0,0.0,44.0,3.0,253.0,411.0,44.0,1021.0,1744252903.8336587,0.0,2025-04-09 22:41:43.833,RIGHT,41
39.0,11430.07861734374,600.7701874697432,-56563.235111622234,-52868.06707001532,-32506.544292753257,-29739.241866975055,-122.06287647043187,-19698.346519273106,0.0,0.0,0.0,193.0,1.0,155.0,0.0,44.0,3.0,252.0,411.0,44.0,1020.0,1744252903.8336706,0.0,2025-04-09 22:41:43.833,RIGHT,41
40.0,11536.249403506446,620.5067778237793,-56555.747277229704,-52826.73869451746,-32530.751231998354,-29762.621791675305,-92.37975983378409,-19720.161821861486,0.0,0.0,0.0,193.0,1.0,155.0,0.0,44.0,3.0,252.0,411.0,44.0,1020.0,1744252903.8336797,0.0,2025-04-09 22:41:43.833,RIGHT,41
41.0,11532.583717415777,633.2696239077598,-56526.13121582642,-52856.26534894292,-32459.33740846365,-29681.239090113533,-179.4174527427498,-19651.31844893914,0.0,0.0,0.0,193.0,1.0,155.0,0.0,44.0,3.0,253.0,411.0,44.0,1021.0,1744252903.8336885,0.0,2025-04-09 22:41:43.833,RIGHT,41
42.0,11492.79761228533,651.195722960916,-56531.562689729064,-52822.44715958204,-32457.884545074052,-29687.184654138644,-63.456602508616754,-19652.190166972898,0.0,0.0,0.0,193.0,1.0,154.0,0.0,45.0,3.0,250.0,410.0,45.0,1018.0,1744252903.8336973,0.0,2025-04-09 22:41:43.833,RIGHT,41
43.0,11437.16412033607,618.3833621005252,-56558.72005924226,-52871.01750028342,-32490.5180919788,-29716.219570186087,-131.2941469304737,-19691.84216163661,0.0,0.0,0.0,193.0,1.0,154.0,0.0,44.0,3.0,249.0,410.0,44.0,1017.0,1744252903.833706,0.0,2025-04-09 22:41:43.833,RIGHT,41
44.0,11537.434045962578,639.4387053774244,-56537.88823340991,-52795.69212146904,-32518.860103948133,-29739.420680930696,-62.942512386144685,-19704.716766442867,0.0,0.0,0.0,193.0,1.0,154.0,0.0,44.0,3.0,249.0,410.0,44.0,1017.0,1744252903.8337147,0.0,2025-04-09 22:41:43.833,RIGHT,41
45.0,11548.654621679143,642.4785426233462,-56530.95919262877,-52865.56367463633,-32465.48413818886,-29679.96504067958,-191.08506334842008,-19662.784893844713,0.0,0.0,0.0,193.0,1.0,154.0,0.0,44.0,3.0,251.0,410.0,44.0,1019.0,1744252903.8337283,0.0,2025-04-09 22:41:43.833,RIGHT,41
46.0,11497.826754787775,645.4960281248127,-56522.063198335556,-52813.506461799916,-32449.99437928133,-29680.21090986859,-61.55670422991565,-19649.440902404895,0.0,0.0,0.0,193.0,1.0,154.0,0.0,44.0,3.0,249.0,410.0,44.0,1017.0,1744252903.8337371,0.0,2025-04-09 22:41:43.833,RIGHT,41
47.0,11430.5480039773,608.3697805845476,-56561.73754474372,-52881.83574459979,-32481.935022107962,-29711.63746257275,-129.88598702978933,-19680.80039987569,0.0,0.0,0.0,193.0,1.0,155.0,0.0,44.0,3.0,253.0,411.0,44.0,1021.0,1744252903.833746,0.0,2025-04-09 22:41:43.833,RIGHT,41
48.0,11500.03957748885,617.4445888334023,-56542.06800962306,-52802.77762446137,-32516.11083938013,-29749.993056058058,-63.590712975348595,-19714.573885747657,0.0,0.0,0.0,193.0,1.0,154.0,0.0,44.0,3.0,251.0,410.0,44.0,1019.0,1744252903.8337548,0.0,2025-04-09 22:41:43.833,RIGHT,41
49.0,11554.466075237522,640.7798100447428,-56534.066085108054,-52866.010709525435,-32471.541460936245,-29692.280851874457,-196.1589093397748,-19681.35919348707,0.0,0.0,0.0,193.0,1.0,155.0,0.0,44.0,3.0,253.0,411.0,44.0,1021.0,1744252903.8337636,0.0,2025-04-09 22:41:43.833,RIGHT,41
50.0,11501.13481296716,639.2151879328713,-56521.1914803018,-52817.82034847979,-32450.84374557063,-29690.26919487348,-90.56926853290422,-19680.465123708862,0.0,0.0,0.0,193.0,1.0,154.0,0.0,44.0,3.0,250.0,410.0,44.0,1018.0,1744252903.8337724,0.0,2025-04-09 22:41:43.833,RIGHT,41
51.0,11432.224384811449,617.1540161554833,-56568.91245471388,-52890.128241792714,-32479.878661618077,-29713.49265736254,-140.2795482015071,-19691.976272103344,0.0,0.0,0.0,193.0,1.0,154.0,0.0,45.0,3.0,249.0,410.0,45.0,1017.0,1744252903.8337812,0.0,2025-04-09 22:41:43.833,RIGHT,41
52.0,11479.923007479074,612.5719085421454,-56541.39745728939,-52813.75233098893,-32503.32564155169,-29739.532439652976,-68.97748338907759,-19691.08220232513,0.0,0.0,0.0,193.0,1.0,154.0,0.0,44.0,3.0,249.0,410.0,44.0,1017.0,1744252903.83379,0.0,2025-04-09 22:41:43.833,RIGHT,41
53.0,11556.075400838305,632.0179262182625,-56548.32649807054,-52871.866866572724,-32491.658030946022,-29718.812372542903,-180.19976379868555,-19697.027766350242,0.0,0.0,0.0,193.0,1.0,154.0,0.0,44.0,3.0,249.0,410.0,44.0,1017.0,1744252903.833814,0.0,2025-04-09 22:41:43.833,RIGHT,41
54.0,11507.817984559297,638.7905047882206,-56518.71043666726,-52824.190595649554,-32450.41906242598,-29678.378066823254,-111.0658181984208,-19645.08231223611,0.0,0.0,0.0,193.0,1.0,154.0,0.0,44.0,3.0,249.0,410.0,44.0,1017.0,1744252903.8338227,0.0,2025-04-09 22:41:43.833,RIGHT,41
55.0,11441.433303527034,625.938251726419,-56564.88914071192,-52883.08744228929,-32477.755245894823,-29708.865846260294,-124.47686487160503,-19672.954937571878,0.0,0.0,0.0,193.0,1.0,154.0,0.0,45.0,3.0,250.0,410.0,45.0,1018.0,1744252903.8338315,0.0,2025-04-09 22:41:43.833,RIGHT,41
56.0,11464.276786360359,616.4387603329135,-56545.063143380066,-52827.3198398733,-32505.449057274946,-29733.855096561325,-102.61685879431472,-19693.71970817086,0.0,0.0,0.0,193.0,1.0,155.0,0.0,44.0,3.0,252.0,411.0,44.0,1020.0,1744252903.8338404,0.0,2025-04-09 22:41:43.833,RIGHT,41
57.0,11555.784828160386,632.8002372741983,-56556.10490514099,-52856.80179080985,-32511.86400793362,-29734.88327680627,-156.86454258734497,-19707.95776938889,0.0,0.0,0.0,193.0,1.0,155.0,0.0,44.0,3.0,252.0,411.0,44.0,1020.0,1744252903.8338492,0.0,2025-04-09 22:41:43.833,RIGHT,41
58.0,11513.808252073319,634.096638452606,-56520.90090762388,-52838.607470823226,-32450.307303703703,-29678.892156945727,-141.7771150800127,-19648.92681228242,0.0,0.0,0.0,193.0,1.0,155.0,0.0,44.0,3.0,252.0,411.0,44.0,1020.0,1744252903.833858,0.0,2025-04-09 22:41:43.833,RIGHT,41
59.0,11467.093106161727,641.2939001672149,-56546.76187595867,-52857.15941872113,-32462.958391065407,-29694.87365423127,-99.82289073740134,-19667.70227762488,0.0,0.0,0.0,193.0,1.0,155.0,0.0,44.0,3.0,251.0,411.0,44.0,1019.0,1744252903.8338668,0.0,2025-04-09 22:41:43.833,RIGHT,41
60.0,11453.235024599437,614.7400277543102,-56556.50723654118,-52856.26534894292,-32504.19735958545,-29747.84728859035,-133.01523125353233,-19729.48249929935,0.0,0.0,0.0,193.0,1.0,155.0,0.0,44.0,3.0,252.0,411.0,44.0,1020.0,1744252903.8338802,0.0,2025-04-09 22:41:43.833,RIGHT,41
61.0,11562.356241030246,644.9148827689747,-56552.30510858358,-52838.00397372294,-32523.889246450573,-29751.021236303,-137.0161935110323,-19729.14722313252,0.0,0.0,0.0,193.0,1.0,155.0,0.0,44.0,3.0,252.0,411.0,44.0,1020.0,1744252903.8338888,0.0,2025-04-09 22:41:43.833,RIGHT,41
62.0,11526.28052547938,641.2715484227597,-56515.78235814362,-52843.34604064775,-32456.834013084655,-29671.404322553197,-189.5651447254592,-19653.911251295955,0.0,0.0,0.0,193.0,1.0,155.0,0.0,44.0,3.0,250.0,411.0,44.0,1018.0,1744252903.833898,0.0,2025-04-09 22:41:43.833,RIGHT,41
63.0,11479.051289445317,651.4639438943797,-56530.28864029511,-52827.766874762405,-32460.32088521968,-29682.110808147292,-96.09014941336507,-19653.486568151304,0.0,0.0,0.0,193.0,1.0,155.0,0.0,45.0,3.0,252.0,411.0,45.0,1020.0,1744252903.833907,0.0,2025-04-09 22:41:43.833,RIGHT,41
64.0,11427.888146387118,610.7837689857208,-56557.71423074177,-52861.227436212,-32500.4199147725,-29726.188448213157,-149.55552215045955,-19700.8499146521,0.0,0.0,0.0,193.0,1.0,154.0,0.0,44.0,3.0,249.0,410.0,44.0,1017.0,1744252903.8339157,0.0,2025-04-09 22:41:43.833,RIGHT,41
65.0,11533.164862771615,629.1569029279832,-56549.1982161043,-52815.20519437852,-32529.924217453507,-29752.49645143705,-112.40692286573922,-19729.0578161547,0.0,0.0,0.0,193.0,1.0,154.0,0.0,44.0,3.0,250.0,410.0,44.0,1018.0,1744252903.8339243,0.0,2025-04-09 22:41:43.833,RIGHT,41
66.0,11535.4223889616,637.6505658209999,-56525.75123617068,-52858.99226176647,-32466.28880098925,-29679.696819746117,-222.4445608192159,-19672.70906838287,0.0,0.0,0.0,193.0,1.0,154.0,0.0,44.0,3.0,251.0,410.0,44.0,1019.0,1744252903.833933,0.0,2025-04-09 22:41:43.833,RIGHT,41
67.0,11493.55757159681,652.581531117145,-56523.739579169705,-52813.95349668903,-32454.554135150214,-29682.714305247584,-85.60718126382605,-19661.42143743294,0.0,0.0,0.0,193.0,1.0,155.0,0.0,44.0,3.0,252.0,411.0,44.0,1020.0,1744252903.8339417,0.0,2025-04-09 22:41:43.833,RIGHT,41
68.0,11434.21369006797,621.2443853908045,-56554.42852430684,-52867.59768338176,-32488.014696599806,-29714.67729981867,-151.85775182935618,-19697.0501180947,0.0,0.0,0.0,193.0,1.0,155.0,0.0,44.0,3.0,252.0,411.0,44.0,1020.0,1744252903.8339505,0.0,2025-04-09 22:41:43.833,RIGHT,41
69.0,11520.737292854465,629.2239581613492,-56539.83283517753,-52795.80388019131,-32519.7765254708,-29740.873544320293,-72.33024505737366,-19689.204655790887,0.0,0.0,0.0,193.0,1.0,155.0,0.0,44.0,3.0,252.0,411.0,44.0,1020.0,1744252903.8339596,0.0,2025-04-09 22:41:43.833,RIGHT,41
70.0,11549.90631936864,643.5961298461116,-56528.344038527495,-52861.741526334474,-32466.89229808954,-29680.188558124133,-205.7254559666462,-19652.056056506164,0.0,0.0,0.0,193.0,1.0,155.0,0.0,44.0,3.0,252.0,411.0,44.0,1020.0,1744252903.833968,0.0,2025-04-09 22:41:43.833,RIGHT,41
71.0,11502.408862401113,653.743821828821,-56514.10597730947,-52802.799976205824,-32451.84957407112,-29672.030171397946,-79.95218991663336,-19635.091082464587,0.0,0.0,0.0,193.0,1.0,154.0,0.0,45.0,3.0,249.0,410.0,45.0,1017.0,1744252903.8339767,0.0,2025-04-09 22:41:43.833,RIGHT,41
72.0,11442.483835516434,634.4095628749803,-56550.718134727256,-52869.296415960365,-32482.80674014172,-29697.108828676803,-159.05501354396506,-19668.953975314376,0.0,0.0,0.0,193.0,1.0,154.0,0.0,45.0,3.0,249.0,410.0,45.0,1017.0,1744252903.8339858,0.0,2025-04-09 22:41:43.833,RIGHT,41
73.0,11513.60708637322,641.2939001672149,-56522.46552973575,-52782.99633061842,-32509.874702677098,-29727.708366836116,-83.43906205166127,-19692.535065714725,0.0,0.0,0.0,193.0,1.0,155.0,0.0,44.0,3.0,249.0,411.0,44.0,1017.0,1744252903.8339946,0.0,2025-04-09 22:41:43.833,RIGHT,41
74.0,11559.606976462243,647.0606502366842,-56530.0427711061,-52858.99226176647,-32482.471463974893,-29686.78232273845,-212.81095895897855,-19672.37379221604,0.0,0.0,0.0,193.0,1.0,154.0,0.0,44.0,3.0,251.0,410.0,44.0,1019.0,1744252903.8340034,0.0,2025-04-09 22:41:43.834,RIGHT,41
75.0,11523.687723122564,667.8924760690303,-56497.96801781274,-52795.42390053558,-32446.440451912935,-29658.73088344704,-115.26794615601852,-19646.9375070259,0.0,0.0,0.0,193.0,1.0,155.0,0.0,44.0,3.0,251.0,411.0,44.0,1019.0,1744252903.8340175,0.0,2025-04-09 22:41:43.834,RIGHT,41
76.0,11455.581957767245,647.3735746590585,-56549.01940214865,-52866.770668836914,-32480.348048251635,-29693.86782573078,-156.17163850923043,-19685.538969700214,0.0,0.0,0.0,193.0,1.0,155.0,0.0,44.0,3.0,251.0,411.0,44.0,1019.0,1744252903.8340263,0.0,2025-04-09 22:41:43.834,RIGHT,41
77.0,11485.645054059632,629.8498070060978,-56534.75898918617,-52804.67752274007,-32514.277996334793,-29738.034872774468,-109.74706527555767,-19731.58356327815,0.0,0.0,0.0,193.0,1.0,154.0,0.0,44.0,3.0,249.0,410.0,44.0,1017.0,1744252903.8340352,0.0,2025-04-09 22:41:43.834,RIGHT,41
78.0,11553.57200545931,638.0528972211954,-56551.99218416121,-52865.720136847514,-32513.026298645294,-29731.195238971144,-213.86149094837796,-19734.176365634965,0.0,0.0,0.0,193.0,1.0,154.0,0.0,44.0,3.0,249.0,410.0,44.0,1017.0,1744252903.834044,0.0,2025-04-09 22:41:43.834,RIGHT,41
79.0,11511.327208438779,647.3288711701479,-56511.53552669711,-52819.720246758494,-32456.252867728817,-29678.06514240088,-152.90828381875562,-19661.756713599767,0.0,0.0,0.0,193.0,1.0,154.0,0.0,44.0,3.0,250.0,410.0,44.0,1018.0,1744252903.8340526,0.0,2025-04-09 22:41:43.834,RIGHT,41
80.0,11465.41672532758,656.0236997632622,-56538.491730510206,-52853.31491867482,-32466.5123184338,-29685.48592156004,-127.76257130653516,-19655.095893752088,0.0,0.0,0.0,193.0,1.0,154.0,0.0,45.0,3.0,251.0,410.0,45.0,1019.0,1744252903.8340616,0.0,2025-04-09 22:41:43.834,RIGHT,41
81.0,11458.688850246532,622.809007502676,-56539.16228284386,-52825.68816252806,-32505.62787123059,-29735.84440181785,-113.54686183295988,-19699.03942335122,0.0,0.0,0.0,193.0,1.0,154.0,0.0,44.0,3.0,250.0,410.0,44.0,1018.0,1744252903.8340704,0.0,2025-04-09 22:41:43.834,RIGHT,41
82.0,11551.605051947243,636.6000338316004,-56551.52279752765,-52849.26925292841,-32522.10110689415,-29741.74526235405,-172.19783928368562,-19719.938304416934,0.0,0.0,0.0,193.0,1.0,155.0,0.0,44.0,3.0,252.0,411.0,44.0,1020.0,1744252903.8340793,0.0,2025-04-09 22:41:43.834,RIGHT,41
83.0,11526.973429557494,646.5689118586674,-56507.19928827278,-52827.65511604013,-32449.502640903313,-29673.483034787543,-177.8751823753336,-19666.78585610221,0.0,0.0,0.0,193.0,1.0,155.0,0.0,44.0,3.0,250.0,411.0,44.0,1018.0,1744252903.8341024,0.0,2025-04-09 22:41:43.834,RIGHT,41
84.0,11471.764620752887,647.6864990814328,-56542.17976834533,-52847.50346511644,-32465.439434699947,-29698.002898455015,-114.30682114444032,-19672.57495791614,0.0,0.0,0.0,193.0,1.0,154.0,0.0,45.0,3.0,250.0,410.0,45.0,1018.0,1744252903.8341112,0.0,2025-04-09 22:41:43.834,RIGHT,41
85.0,11445.635431484632,618.1374929115168,-56548.37120155945,-52844.485979614976,-32499.458789760924,-29722.902741778227,-148.30382446096237,-19688.578806946138,0.0,0.0,0.0,193.0,1.0,154.0,0.0,44.0,3.0,250.0,410.0,44.0,1018.0,1744252903.83412,0.0,2025-04-09 22:41:43.834,RIGHT,41
86.0,11553.124970570205,638.0081937322848,-56547.499483525695,-52823.296525871345,-32519.083621392685,-29741.991131543058,-135.65273709925856,-19711.288179312727,0.0,0.0,0.0,193.0,1.0,154.0,0.0,44.0,3.0,249.0,410.0,44.0,1017.0,1744252903.8341289,0.0,2025-04-09 22:41:43.834,RIGHT,41
87.0,11538.931612841085,649.4522868934021,-56517.592849444496,-52844.44127612606,-32453.57065839418,-29674.44415979912,-204.98784839962107,-19663.857777578567,0.0,0.0,0.0,193.0,1.0,154.0,0.0,45.0,3.0,250.0,410.0,45.0,1018.0,1744252903.8341408,0.0,2025-04-09 22:41:43.834,RIGHT,41
88.0,11488.886057005651,658.9070747979969,-56531.67444845134,-52831.611374808715,-32455.202335739417,-29695.723020520574,-100.51579481551586,-19682.387373732017,0.0,0.0,0.0,193.0,1.0,154.0,0.0,44.0,3.0,251.0,410.0,44.0,1019.0,1744252903.934682,0.0,2025-04-09 22:41:43.934,RIGHT,41
89.0,11437.633506969632,621.3337923686257,-56553.1991783618,-52864.3790321802,-32493.177949568984,-29724.623826101284,-156.9763013096215,-19705.946112387912,0.0,0.0,0.0,193.0,1.0,155.0,0.0,44.0,3.0,250.0,411.0,44.0,1018.0,1744252903.9347084,0.0,2025-04-09 22:41:43.934,RIGHT,41
90.0,11538.484577951978,632.3979058740027,-56543.96790790176,-52806.68917974105,-32526.996138929862,-29748.920172324204,-106.95309721864429,-19713.85862992509,0.0,0.0,0.0,193.0,1.0,155.0,0.0,44.0,3.0,251.0,411.0,44.0,1019.0,1744252903.9347484,0.0,2025-04-09 22:41:43.934,RIGHT,41
91.0,11544.13956929917,639.7292780553435,-56526.75706467117,-52856.33240417629,-32469.23923125735,-29675.092360388324,-228.03249693304267,-19658.471007164837,0.0,0.0,0.0,193.0,1.0,155.0,0.0,44.0,3.0,251.0,411.0,44.0,1019.0,1744252903.9347594,0.0,2025-04-09 22:41:43.934,RIGHT,41
92.0,11513.85295556223,672.0946040266281,-56514.910640109854,-52800.05071163782,-32451.648408371024,-29672.34309582032,-100.11346341532034,-19657.956917042367,0.0,0.0,0.0,193.0,1.0,155.0,0.0,44.0,3.0,251.0,411.0,44.0,1019.0,1744252903.9347692,0.0,2025-04-09 22:41:43.934,RIGHT,41
93.0,11448.295289074815,638.7234495548546,-56550.8969486829,-52860.31101468933,-32486.070094832194,-29704.574311324875,-161.67016764523598,-19688.958786601877,0.0,0.0,0.0,193.0,1.0,155.0,0.0,44.0,3.0,252.0,411.0,44.0,1020.0,1744252903.9347787,0.0,2025-04-09 22:41:43.934,RIGHT,41
94.0,11519.932630054072,630.6321180620334,-56548.66177423737,-52796.385025547155,-32533.880476222097,-29752.02706480349,-97.02892268048797,-19715.803231692702,0.0,0.0,0.0,193.0,1.0,155.0,0.0,44.0,3.0,250.0,411.0,44.0,1018.0,1744252903.9347875,0.0,2025-04-09 22:41:43.934,RIGHT,41
