Sample Index,EXG Channel 0,EXG Channel 1,EXG Channel 2,EXG Channel 3,EXG Channel 4,EXG Channel 5,EXG Channel 6,EXG Channel 7,Accel Channel 0,Accel Channel 1,Accel Channel 2,Not Used,Digital Channel 0 (D11),Digital Channel 1 (D12),Digital Channel 2 (D13),Digital Channel 3 (D17),Not Used,Digital Channel 4 (D18),Analog Channel 0,Analog Channel 1,Analog Channel 2,Timestamp,Marker Channel,Timestamp (Formatted),Stimulus_Direction,Stimulus_Number
47.0,21943.892174231074,26795.36065999993,-32261.09978688953,-24021.397414374045,-36723.78202960277,-30047.13714684691,-13264.91096793544,-38380.49332863013,0.0,0.0,0.0,193.0,0.0,193.0,0.0,1.0,0.0,179.0,193.0,1.0,179.0,1744420463.5990489,0.0,2025-04-11 21:14:23.599,RIGHT,21
48.0,21928.983560679386,26784.318898239006,-32258.417577554894,-24027.208867932426,-36723.670270880495,-30038.196449064788,-13444.082551489182,-38416.47963720318,0.0,0.0,0.0,193.0,0.0,193.0,0.0,1.0,0.0,179.0,193.0,1.0,179.0,1744420463.599092,0.0,2025-04-11 21:14:23.599,RIGHT,21
49.0,21908.643473225056,26797.528779212094,-32240.24560931273,-24005.147696155036,-36695.64118333354,-30011.50846618515,-13781.482134042042,-38379.822776296474,0.0,0.0,0.0,193.0,0.0,193.0,0.0,1.0,0.0,179.0,193.0,1.0,179.0,1744420463.5991342,0.0,2025-04-11 21:14:23.599,RIGHT,21
50.0,21916.555990762234,26802.31205252553,-32235.73055693276,-23999.93973969695,-36689.87443326407,-30014.011861564144,-13783.96317767658,-38377.43113963975,0.0,0.0,0.0,193.0,0.0,193.0,0.0,1.0,0.0,179.0,193.0,1.0,179.0,1744420463.599176,0.0,2025-04-11 21:14:23.599,RIGHT,21
51.0,21939.555935806744,26795.003032088644,-32259.423406055383,-24022.582056830175,-36713.47787540888,-30045.103138101476,-13301.500773608777,-38383.13083447586,0.0,0.0,0.0,193.0,0.0,193.0,0.0,1.0,0.0,179.0,193.0,1.0,179.0,1744420463.599218,0.0,2025-04-11 21:14:23.599,RIGHT,21
52.0,21928.29065660127,26777.099284779943,-32263.9161066909,-24032.439176134965,-36711.51092189681,-30036.94475137529,-13365.73968717333,-38410.55642492252,0.0,0.0,0.0,193.0,0.0,193.0,0.0,1.0,0.0,180.0,193.0,1.0,180.0,1744420463.59926,0.0,2025-04-11 21:14:23.599,RIGHT,21
53.0,21901.066231854707,26786.419962217806,-32261.52447003418,-24020.011606217817,-36706.88411079456,-30019.018652322135,-13706.559086627853,-38382.70615133121,0.0,0.0,0.0,193.0,0.0,193.0,0.0,1.0,0.0,179.0,193.0,1.0,179.0,1744420463.599318,0.0,2025-04-11 21:14:23.599,RIGHT,21
54.0,21907.347072046647,26790.465627964215,-32251.265019329196,-24012.45671659192,-36695.4623693779,-30011.70963188525,-13827.772596808982,-38377.49819487312,0.0,0.0,0.0,193.0,0.0,194.0,0.0,1.0,0.0,179.0,194.0,1.0,179.0,1744420463.5993602,0.0,2025-04-11 21:14:23.599,RIGHT,21
55.0,21931.218735124916,26783.044848805053,-32270.398112582938,-24028.95230399994,-36717.3670789441,-30036.676530441826,-13370.567663975677,-38361.11436618738,0.0,0.0,0.0,193.0,0.0,193.0,0.0,1.0,0.0,179.0,193.0,1.0,179.0,1744420463.5994072,0.0,2025-04-11 21:14:23.599,RIGHT,21
56.0,21919.841697197164,26762.77181658409,-32275.449606829836,-24043.27977219579,-36722.82090459119,-30036.475364741727,-13325.573602387143,-38408.09773303244,0.0,0.0,0.0,193.0,0.0,193.0,0.0,1.0,0.0,179.0,193.0,1.0,179.0,1744420463.5994496,0.0,2025-04-11 21:14:23.599,RIGHT,21
57.0,21896.70764168592,26770.974906799187,-32268.58762128206,-24026.42655687649,-36712.203825974924,-30019.666852911338,-13662.749667495451,-38394.6643346148,0.0,0.0,0.0,193.0,0.0,193.0,0.0,1.0,0.0,179.0,193.0,1.0,179.0,1744420463.5994916,0.0,2025-04-11 21:14:23.599,RIGHT,21
58.0,21894.29365328475,26786.86699710691,-32254.81894669759,-24011.137963669058,-36699.17275895748,-30001.159608502345,-13853.186530254667,-38371.999665737116,0.0,0.0,0.0,193.0,0.0,194.0,0.0,1.0,0.0,178.0,194.0,1.0,178.0,1744420463.599538,0.0,2025-04-11 21:14:23.599,RIGHT,21
59.0,21923.820307710208,26788.9233575968,-32261.747987478735,-24012.27790263628,-36712.3155846972,-30014.16832377533,-13455.146664994558,-38336.79566822001,0.0,0.0,0.0,193.0,0.0,194.0,0.0,1.0,0.0,179.0,194.0,1.0,179.0,1744420463.5995955,0.0,2025-04-11 21:14:23.599,RIGHT,21
60.0,21928.29065660127,26772.785398100066,-32273.39324633995,-24036.10486222564,-36726.30777672622,-30028.428736737817,-13280.668947776432,-38390.64102061284,0.0,0.0,0.0,193.0,0.0,193.0,0.0,1.0,0.0,179.0,193.0,1.0,179.0,1744420463.599638,0.0,2025-04-11 21:14:23.599,RIGHT,21
61.0,21898.115801586606,26765.789302085555,-32275.15903415192,-24034.89786802505,-36728.67706163848,-30022.706690157258,-13604.88100110066,-38391.24451771314,0.0,0.0,0.0,193.0,0.0,193.0,0.0,1.0,0.0,179.0,193.0,1.0,179.0,1744420463.59968,0.0,2025-04-11 21:14:23.599,RIGHT,21
62.0,21885.48706596936,26783.246014505152,-32265.793653225144,-24024.32549289769,-36721.725669112886,-30016.917588343335,-13870.352669996342,-38390.84218631294,0.0,0.0,0.0,193.0,0.0,193.0,0.0,1.0,0.0,179.0,193.0,1.0,179.0,1744420463.599778,0.0,2025-04-11 21:14:23.599,RIGHT,21
63.0,21913.449098282945,26791.49380820916,-32266.91124044791,-24021.956207985426,-36721.435096434965,-30035.290722285597,-13572.06864024027,-38382.79555830903,0.0,0.0,0.0,193.0,0.0,193.0,0.0,1.0,0.0,179.0,193.0,1.0,179.0,1744420463.599821,0.0,2025-04-11 21:14:23.599,RIGHT,21
64.0,21927.642456012065,26777.792188858057,-32281.797502255144,-24047.727769342397,-36739.38354723257,-30055.809623695568,-13272.443505816878,-38423.1181053064,0.0,0.0,0.0,193.0,0.0,193.0,0.0,1.0,0.0,179.0,193.0,1.0,179.0,1744420463.5998633,0.0,2025-04-11 21:14:23.599,RIGHT,21
65.0,21915.170182606005,26776.518139424104,-32267.447682314836,-24032.349769157147,-36725.41370694801,-30034.53076297412,-13560.82571277925,-38413.797427868536,0.0,0.0,0.0,193.0,0.0,194.0,0.0,1.0,0.0,180.0,194.0,1.0,180.0,1744420463.5999053,0.0,2025-04-11 21:14:23.599,RIGHT,21
66.0,21901.08858359916,26790.73384889768,-32260.540993278148,-24021.196248673947,-36725.79368660375,-30025.23243728071,-13856.762809367516,-38393.92672704777,0.0,0.0,0.0,193.0,0.0,194.0,0.0,1.0,0.0,179.0,194.0,1.0,179.0,1744420463.5999472,0.0,2025-04-11 21:14:23.599,RIGHT,21
67.0,21924.848487955154,26800.099229824453,-32258.641094999446,-24018.692853294953,-36724.9666720589,-30033.547286218083,-13681.189856671079,-38377.18527045075,0.0,0.0,0.0,193.0,0.0,193.0,0.0,1.0,0.0,179.0,193.0,1.0,179.0,1744420463.5999892,0.0,2025-04-11 21:14:23.599,RIGHT,21
68.0,21950.843566756674,26794.555997199535,-32267.246516614738,-24033.310894168724,-36732.87918959608,-30050.266391070654,-13273.896369206474,-38387.91410778929,0.0,0.0,0.0,193.0,0.0,193.0,0.0,1.0,0.0,179.0,193.0,1.0,179.0,1744420463.6000476,0.0,2025-04-11 21:14:23.600,RIGHT,21
69.0,21931.464604313926,26782.39664821585,-32264.988990424754,-24030.449870878445,-36730.442849450454,-30040.833954910515,-13492.09409857918,-38405.23670974216,0.0,0.0,0.0,193.0,0.0,194.0,0.0,1.0,0.0,179.0,194.0,1.0,179.0,1744420463.6000898,0.0,2025-04-11 21:14:23.600,RIGHT,21
70.0,21908.509362758323,26798.266386779116,-32257.34469382104,-24018.491687594855,-36720.83159933467,-30029.12164081593,-13832.77938756697,-38394.30670670351,0.0,0.0,0.0,193.0,0.0,193.0,0.0,1.0,0.0,179.0,193.0,1.0,179.0,1744420463.600132,0.0,2025-04-11 21:14:23.600,RIGHT,21
71.0,21916.310121573224,26800.792133902567,-32257.188231609853,-24017.262341649814,-36725.10078252564,-30042.912667144858,-13768.741639702517,-38396.877157315874,0.0,0.0,0.0,193.0,0.0,193.0,0.0,1.0,0.0,179.0,193.0,1.0,179.0,1744420463.6001737,0.0,2025-04-11 21:14:23.600,RIGHT,21
72.0,21935.219697382414,26787.582252929482,-32276.67895277488,-24038.51885062681,-36744.88207636858,-30072.349914592498,-13316.744663327298,-38412.99276506815,0.0,0.0,0.0,193.0,0.0,193.0,0.0,1.0,0.0,179.0,193.0,1.0,179.0,1744420463.600216,0.0,2025-04-11 21:14:23.600,RIGHT,21
73.0,21922.456851298437,26764.895232307343,-32274.600240540534,-24044.017379762816,-36731.02399480629,-30067.164309878866,-13443.657868344531,-38439.05489910304,0.0,0.0,0.0,193.0,0.0,194.0,0.0,1.0,0.0,179.0,194.0,1.0,179.0,1744420463.6002584,0.0,2025-04-11 21:14:23.600,RIGHT,21
74.0,21910.38690929257,26782.44135170476,-32260.161013622408,-24021.442117862956,-36715.95891904341,-30039.761071176657,-13776.520046772963,-38413.26098600161,0.0,0.0,0.0,193.0,0.0,193.0,0.0,1.0,0.0,179.0,193.0,1.0,179.0,1744420463.6003153,0.0,2025-04-11 21:14:23.600,RIGHT,21
75.0,21918.187668107472,26790.95736634223,-32254.99776065323,-24014.75894627082,-36712.02501201928,-30035.357777518962,-13819.100119960323,-38401.19104399574,0.0,0.0,0.0,193.0,0.0,193.0,0.0,1.0,0.0,178.0,193.0,1.0,178.0,1744420463.600358,0.0,2025-04-11 21:14:23.600,RIGHT,21
76.0,21947.311991132738,26797.908758867834,-32271.582755039068,-24027.208867932426,-36733.393279718555,-30062.626905754438,-13348.886471854028,-38407.717753376695,0.0,0.0,0.0,193.0,0.0,193.0,0.0,1.0,0.0,179.0,193.0,1.0,179.0,1744420463.600432,0.0,2025-04-11 21:14:23.600,RIGHT,21
77.0,21937.074892172204,26779.8709010924,-32278.131816164474,-24040.396397161057,-36739.830582121685,-30065.443225555806,-13394.439327053944,-38461.98778891418,0.0,0.0,0.0,193.0,0.0,193.0,0.0,1.0,0.0,179.0,193.0,1.0,179.0,1744420463.6004899,0.0,2025-04-11 21:14:23.600,RIGHT,21
78.0,21908.24114182486,26781.882558093377,-32270.174595138385,-24026.80653653223,-36723.98319530287,-30043.538515989607,-13725.066331036847,-38426.582625696974,0.0,0.0,0.0,193.0,0.0,194.0,0.0,0.0,0.0,180.0,194.0,0.0,180.0,1744420463.600532,0.0,2025-04-11 21:14:23.600,RIGHT,21
79.0,21913.605560494132,26796.657061178335,-32256.00358915372,-24012.881399736572,-36707.241738705845,-30029.36751000494,-13852.515977921008,-38407.98597431016,0.0,0.0,0.0,193.0,0.0,193.0,0.0,0.0,0.0,179.0,193.0,0.0,179.0,1744420463.6005733,0.0,2025-04-11 21:14:23.600,RIGHT,21
80.0,21938.594810795166,26799.763953657624,-32270.152243393928,-24020.190420173458,-36725.279596481276,-30047.003036380178,-13413.237144140858,-38383.89079378734,0.0,0.0,0.0,193.0,0.0,193.0,0.0,1.0,0.0,179.0,193.0,1.0,179.0,1744420464.073814,0.0,2025-04-11 21:14:24.073,RIGHT,21
81.0,21927.418938567513,26768.96324979821,-32283.183310411372,-24042.743330328864,-36731.44867795094,-30056.1448998624,-13320.835032562618,-38422.58166343947,0.0,0.0,0.0,193.0,0.0,194.0,0.0,1.0,0.0,179.0,194.0,1.0,179.0,1744420464.073975,0.0,2025-04-11 21:14:24.073,RIGHT,21
82.0,21900.082755098672,26767.91271780881,-32278.53414756467,-24029.600504589143,-36725.65957613702,-30038.487021742705,-13657.251138359445,-38412.92570983478,0.0,0.0,0.0,193.0,0.0,194.0,0.0,0.0,0.0,179.0,194.0,0.0,179.0,1744420464.0740752,0.0,2025-04-11 21:14:24.074,RIGHT,21
83.0,21901.96030163292,26791.225587275698,-32258.864612444,-24006.019414188795,-36712.09206725265,-30015.37531797592,-13875.56062645443,-38394.79844508153,0.0,0.0,0.0,193.0,0.0,193.0,0.0,0.0,0.0,179.0,193.0,0.0,179.0,1744420464.074124,0.0,2025-04-11 21:14:24.074,RIGHT,21
84.0,21928.983560679386,26794.466590221717,-32270.28635386066,-24011.316777624703,-36726.50894242632,-30034.687225185306,-13515.71989246844,-38383.108482731404,0.0,0.0,0.0,193.0,0.0,193.0,0.0,0.0,0.0,179.0,193.0,0.0,179.0,1744420464.0741715,0.0,2025-04-11 21:14:24.074,RIGHT,21
85.0,21934.39268283757,26774.506482423127,-32285.23967090126,-24037.28950468177,-36739.29414025476,-30050.51226025966,-13305.546439355188,-38426.582625696974,0.0,0.0,0.0,193.0,0.0,194.0,0.0,0.0,0.0,179.0,194.0,0.0,179.0,1744420464.0742185,0.0,2025-04-11 21:14:24.074,RIGHT,21
86.0,21909.872819170098,26769.00795328712,-32285.91022323492,-24033.690873824464,-36736.72368964239,-30042.0409491111,-13616.50390821742,-38425.15211405184,0.0,0.0,0.0,193.0,0.0,194.0,0.0,0.0,0.0,180.0,194.0,0.0,180.0,1744420464.0742657,0.0,2025-04-11 21:14:24.074,RIGHT,21
87.0,21900.48508649887,26787.135218040374,-32274.734351007268,-24019.765737028807,-36724.34082321415,-30031.334463517007,-13891.251551062054,-38419.29595700454,0.0,0.0,0.0,193.0,0.0,193.0,0.0,0.0,0.0,179.0,193.0,0.0,179.0,1744420464.0743232,0.0,2025-04-11 21:14:24.074,RIGHT,21
88.0,21925.809612966732,26798.57931120149,-32265.972467180785,-24004.879475221573,-36719.73636385636,-30030.37333850543,-13606.557381934808,-38393.4126369253,0.0,0.0,0.0,193.0,0.0,193.0,0.0,0.0,0.0,178.0,193.0,0.0,178.0,1744420464.07437,0.0,2025-04-11 21:14:24.074,RIGHT,21
89.0,21936.963133449928,26784.095380794453,-32277.841243486553,-24025.308969653724,-36734.95790183043,-30040.588085721505,-13277.986738441794,-38415.42910521378,0.0,0.0,0.0,193.0,0.0,193.0,0.0,0.0,0.0,178.0,193.0,0.0,178.0,1744420464.0744352,0.0,2025-04-11 21:14:24.074,RIGHT,21
90.0,21921.495726286856,26777.25574699113,-32271.00160968323,-24019.22929516188,-36732.27569249579,-30023.064318068544,-13554.701334798496,-38414.37857322438,0.0,0.0,0.0,193.0,0.0,194.0,0.0,0.0,0.0,180.0,194.0,0.0,180.0,1744420464.0744815,0.0,2025-04-11 21:14:24.074,RIGHT,21
91.0,21912.264455826815,26793.617223932415,-32256.942362420843,-24007.740498511852,-36717.63529987756,-30009.65327139536,-13869.726821151593,-38392.339753191445,0.0,0.0,0.0,193.0,0.0,193.0,0.0,0.0,0.0,179.0,193.0,0.0,179.0,1744420464.0745273,0.0,2025-04-11 21:14:24.074,RIGHT,21
92.0,21919.75229021934,26789.7727238861,-32264.363141580005,-24015.384795115566,-36724.45258193643,-30033.860210640458,-13701.887572036692,-38388.67406710077,0.0,0.0,0.0,193.0,0.0,193.0,0.0,0.0,0.0,179.0,193.0,0.0,179.0,1744420464.0746057,0.0,2025-04-11 21:14:24.074,RIGHT,21
93.0,21928.80474672374,26785.794113373056,-32281.97631621079,-24039.23410644938,-36742.490439711866,-30060.347027819997,-13279.551360553665,-38415.00442206913,0.0,0.0,0.0,193.0,0.0,193.0,0.0,0.0,0.0,179.0,193.0,0.0,179.0,1744420464.0746756,0.0,2025-04-11 21:14:24.074,RIGHT,21
94.0,21918.880572185586,26775.691124879257,-32274.220260884795,-24035.09903372515,-36732.65567215153,-30049.819356181546,-13506.868601664139,-38444.01698637212,0.0,0.0,0.0,193.0,0.0,194.0,0.0,0.0,0.0,179.0,194.0,0.0,179.0,1744420464.0747192,0.0,2025-04-11 21:14:24.074,RIGHT,21
95.0,21895.5677027187,26788.09634305195,-32268.05117941513,-24024.70547255343,-36721.81507609071,-30035.268370541144,-13840.557794637418,-38415.13853253586,0.0,0.0,0.0,193.0,0.0,194.0,0.0,0.0,0.0,179.0,194.0,0.0,179.0,1744420464.074761,0.0,2025-04-11 21:14:24.074,RIGHT,21
96.0,21904.217827822904,26784.67652615029,-32262.642057256948,-24019.65397830653,-36714.573110887184,-30033.48023098472,-13770.842703681315,-38391.53509039105,0.0,0.0,0.0,193.0,0.0,194.0,0.0,0.0,0.0,179.0,194.0,0.0,179.0,1744420464.074802,0.0,2025-04-11 21:14:24.074,RIGHT,21
97.0,21931.174031636005,26777.479264435682,-32277.39420859745,-24036.66365583702,-36728.431192449476,-30053.79796669459,-13291.218971159336,-38393.07736075847,0.0,0.0,0.0,193.0,0.0,193.0,0.0,0.0,0.0,179.0,193.0,0.0,179.0,1744420464.0749772,0.0,2025-04-11 21:14:24.074,RIGHT,21
98.0,21918.05355764074,26760.20136597173,-32281.685743532867,-24047.727769342397,-36732.968596573905,-30049.618190481448,-13420.859089000118,-38429.95773910973,0.0,0.0,0.0,193.0,0.0,193.0,0.0,0.0,0.0,179.0,193.0,0.0,179.0,1744420464.075019,0.0,2025-04-11 21:14:24.075,RIGHT,21
99.0,21898.831057409177,26774.39472370085,-32271.04631317214,-24027.164164443515,-36722.95501505792,-30027.9369983598,-13777.63763399573,-38411.83047435647,0.0,0.0,0.0,193.0,0.0,193.0,0.0,0.0,0.0,179.0,193.0,0.0,179.0,1744420464.0750604,0.0,2025-04-11 21:14:24.075,RIGHT,21
100.0,21913.069118627205,26789.795075630558,-32254.61778099749,-24008.27694037878,-36707.88993929505,-30018.25869301065,-13832.444111400142,-38401.12398876238,0.0,0.0,0.0,193.0,0.0,193.0,0.0,0.0,0.0,178.0,193.0,0.0,178.0,1744420464.0751014,0.0,2025-04-11 21:14:24.075,RIGHT,21
101.0,21945.702665531953,26795.248901277653,-32268.073531159585,-24017.687024794464,-36725.92779707048,-30035.357777518962,-13341.800968861697,-38374.07837797146,0.0,0.0,0.0,193.0,0.0,193.0,0.0,0.0,0.0,179.0,193.0,0.0,179.0,1744420464.0751429,0.0,2025-04-11 21:14:24.075,RIGHT,21
102.0,21938.393645095068,26780.49674993715,-32272.745045750744,-24029.95813250043,-36728.207675004924,-30032.295588528585,-13363.16923656097,-38419.184198282266,0.0,0.0,0.0,193.0,0.0,194.0,0.0,0.0,0.0,180.0,194.0,0.0,180.0,1744420464.075184,0.0,2025-04-11 21:14:24.075,RIGHT,21
103.0,21911.213923837415,26782.083723793476,-32269.302877104627,-24018.89401899505,-36720.675137123486,-30022.952559346268,-13705.642665105184,-38406.48840743165,0.0,0.0,0.0,193.0,0.0,193.0,0.0,0.0,0.0,179.0,193.0,0.0,179.0,1744420464.0752254,0.0,2025-04-11 21:14:24.075,RIGHT,21
104.0,21910.364557548113,26794.891273366367,-32259.53516477766,-24006.04176593325,-36711.10859049661,-30014.838876108992,-13843.307059205421,-38399.179386994765,0.0,0.0,0.0,193.0,0.0,193.0,0.0,0.0,0.0,179.0,193.0,0.0,179.0,1744420464.0752835,0.0,2025-04-11 21:14:24.075,RIGHT,21
105.0,21933.00687468134,26791.65027042035,-32276.500138819236,-24012.65788229202,-36733.5720936742,-30031.781498406115,-13419.853260499629,-38372.73727330414,0.0,0.0,0.0,193.0,0.0,193.0,0.0,0.0,0.0,179.0,193.0,0.0,179.0,1744420464.075325,0.0,2025-04-11 21:14:24.075,RIGHT,21
106.0,21938.214831139427,26773.7688748561,-32278.645906286947,-24024.012568475315,-36733.01330006281,-30033.055547840067,-13324.076035508639,-38417.66427965931,0.0,0.0,0.0,193.0,0.0,193.0,0.0,0.0,0.0,179.0,193.0,0.0,179.0,1744420464.075366,0.0,2025-04-11 21:14:24.075,RIGHT,21
107.0,21910.588074992665,26773.05361903353,-32277.796539997646,-24014.155449170525,-36732.27569249579,-30018.41515522184,-13651.976126667993,-38403.13564576336,0.0,0.0,0.0,193.0,0.0,193.0,0.0,0.0,0.0,179.0,193.0,0.0,179.0,1744420464.0754204,0.0,2025-04-11 21:14:24.075,RIGHT,21
108.0,21901.826191166187,26788.945709341257,-32266.441853814347,-24001.616120531096,-36720.541026656756,-30007.21693124973,-13880.187437556677,-38394.17259623678,0.0,0.0,0.0,193.0,0.0,193.0,0.0,0.0,0.0,179.0,193.0,0.0,179.0,1744420464.0754619,0.0,2025-04-11 21:14:24.075,RIGHT,21
109.0,21931.933990947484,26798.668718179313,-32268.475862559782,-23996.743440239843,-36722.99971854684,-30016.64936740987,-13522.939505927505,-38368.46809011318,0.0,0.0,0.0,193.0,0.0,194.0,0.0,0.0,0.0,179.0,194.0,0.0,179.0,1744420464.075503,0.0,2025-04-11 21:14:24.075,RIGHT,21
110.0,21938.77362475081,26783.603642416438,-32281.73044702178,-24019.452812606432,-36737.03661406477,-30028.36168150445,-13277.092668663583,-38406.08607603146,0.0,0.0,0.0,193.0,0.0,194.0,0.0,0.0,0.0,179.0,194.0,0.0,179.0,1744420464.0755491,0.0,2025-04-11 21:14:24.075,RIGHT,21
111.0,21922.032168153786,26782.284889493574,-32271.023961427687,-24009.685100279465,-36724.27376798079,-30011.9331493298,-13595.761489362894,-38406.64486964284,0.0,0.0,0.0,193.0,0.0,193.0,0.0,0.0,0.0,179.0,193.0,0.0,179.0,1744420464.0755904,0.0,2025-04-11 21:14:24.075,RIGHT,21
112.0,21910.632778481577,26796.947633856256,-32256.49532753174,-23997.525751295776,-36706.59353811664,-29995.79518983307,-13873.79483864246,-38381.05212224151,0.0,0.0,0.0,193.0,0.0,193.0,0.0,0.0,0.0,179.0,193.0,0.0,179.0,1744420464.0757122,0.0,2025-04-11 21:14:24.075,RIGHT,21
113.0,21927.463642056424,26799.49573272416,-32263.29025784615,-24001.92904495347,-36711.55562538572,-30015.75529763166,-13614.335789005256,-38375.01715123858,0.0,0.0,0.0,193.0,0.0,193.0,0.0,0.0,0.0,179.0,193.0,0.0,179.0,1744420464.075754,0.0,2025-04-11 21:14:24.075,RIGHT,21
114.0,21939.980618951395,26785.704706395234,-32280.657563287925,-24029.779318544784,-36732.633320407076,-30038.75524267617,-13259.077162632604,-38410.243500500146,0.0,0.0,0.0,193.0,0.0,194.0,0.0,0.0,0.0,179.0,194.0,0.0,179.0,1744420464.0757957,0.0,2025-04-11 21:14:24.075,RIGHT,21
115.0,21913.784374449777,26771.377238199384,-32278.42238884239,-24027.879420266083,-36726.59834940414,-30022.483172712706,-13514.356436056667,-38403.515625419095,0.0,0.0,0.0,193.0,0.0,194.0,0.0,0.0,0.0,180.0,194.0,0.0,180.0,1744420464.075837,0.0,2025-04-11 21:14:24.075,RIGHT,21
116.0,21900.4180312655,26793.706630910234,-32261.971504923287,-24008.813382245706,-36710.54979688523,-30000.109076512945,-13834.701637590128,-38383.62257285388,0.0,0.0,0.0,193.0,0.0,194.0,0.0,0.0,0.0,179.0,194.0,0.0,179.0,1744420464.0758784,0.0,2025-04-11 21:14:24.075,RIGHT,21
117.0,21921.18280186448,26802.088535080977,-32260.317475833595,-24000.051498419227,-36713.85785506461,-30002.724230614214,-13691.270493420423,-38362.701340043706,0.0,0.0,0.0,193.0,0.0,193.0,0.0,0.0,0.0,179.0,193.0,0.0,179.0,1744420464.0759196,0.0,2025-04-11 21:14:24.075,RIGHT,21
118.0,21941.277020129804,26784.564767428015,-32281.52928132168,-24022.425594618988,-36736.74604138685,-30029.166344304842,-13260.86530218903,-38380.873308285874,0.0,0.0,0.0,193.0,0.0,193.0,0.0,0.0,0.0,179.0,193.0,0.0,179.0,1744420464.0759606,0.0,2025-04-11 21:14:24.075,RIGHT,21
119.0,21931.352845591646,26770.974906799187,-32276.075455674585,-24019.206943417426,-36732.342747729155,-30019.108059299953,-13471.351679724656,-38412.74689587914,0.0,0.0,0.0,193.0,0.0,193.0,0.0,0.0,0.0,179.0,193.0,0.0,179.0,1744420464.0760164,0.0,2025-04-11 21:14:24.076,RIGHT,21
120.0,21911.280979070783,26787.895177351857,-32262.127967134475,-24001.12438215308,-36717.94822429994,-30000.578463146507,-13805.420852353676,-38388.271735700575,0.0,0.0,0.0,193.0,0.0,193.0,0.0,0.0,0.0,179.0,193.0,0.0,179.0,1744420464.0760577,0.0,2025-04-11 21:14:24.076,RIGHT,21
121.0,21921.8757059426,26800.45685773574,-32246.95113264932,-23987.80274245772,-36702.32435492568,-29995.41521017733,-13764.67362221165,-38364.1542034333,0.0,0.0,0.0,193.0,0.0,194.0,0.0,0.0,0.0,179.0,194.0,0.0,179.0,1744420464.076099,0.0,2025-04-11 21:14:24.076,RIGHT,21
122.0,21944.473319586912,26798.109924567932,-32258.127004876973,-24000.006794930316,-36709.74513408484,-30014.302434242065,-13264.843912702074,-38351.994854449615,0.0,0.0,0.0,193.0,0.0,194.0,0.0,0.0,0.0,179.0,194.0,0.0,179.0,1744420464.0761528,0.0,2025-04-11 21:14:24.076,RIGHT,21
123.0,21921.093394886662,26765.074046262987,-32271.135720149963,-24018.62579806159,-36721.278634223774,-30025.187733791798,-13384.448097282422,-38406.13077952037,0.0,0.0,0.0,193.0,0.0,193.0,0.0,0.0,0.0,179.0,193.0,0.0,179.0,1744420464.0761943,0.0,2025-04-11 21:14:24.076,RIGHT,21
124.0,21905.04484236775,26775.892290579355,-32261.8150427121,-24001.54906529773,-36705.94533752744,-30011.620224907427,-13731.48128169552,-38389.63519211235,0.0,0.0,0.0,193.0,0.0,193.0,0.0,0.0,0.0,179.0,193.0,0.0,179.0,1744420464.0762353,0.0,2025-04-11 21:14:24.076,RIGHT,21
125.0,21917.807688451732,26797.573482701002,-32245.364158792992,-23984.47233253388,-36696.624660089576,-29993.627070620903,-13794.893180715226,-38368.24457266862,0.0,0.0,0.0,193.0,0.0,193.0,0.0,0.0,0.0,179.0,193.0,0.0,179.0,1744420464.0762763,0.0,2025-04-11 21:14:24.076,RIGHT,21
126.0,21949.837738256185,26801.10505832494,-32254.282504830662,-23989.99321341434,-36712.3155846972,-30007.239282994185,-13322.913744796962,-38332.571188517955,0.0,0.0,0.0,193.0,0.0,193.0,0.0,0.0,0.0,179.0,193.0,0.0,179.0,1744420464.0763173,0.0,2025-04-11 21:14:24.076,RIGHT,21
127.0,21950.374180123115,26780.11677028141,-32262.48559504576,-24007.3158153672,-36727.62652964908,-30016.627015665417,-13330.289820467213,-38394.776093337074,0.0,0.0,0.0,193.0,0.0,193.0,0.0,0.0,0.0,179.0,193.0,0.0,179.0,1744420464.0764418,0.0,2025-04-11 21:14:24.076,RIGHT,21
128.0,21919.260551841326,26786.084686050977,-32254.39426355294,-23994.50826579431,-36720.093991767644,-30001.78545734709,-13704.659188349151,-38394.41846542579,0.0,0.0,0.0,193.0,0.0,194.0,0.0,0.0,0.0,180.0,194.0,0.0,180.0,1744420464.0764837,0.0,2025-04-11 21:14:24.076,RIGHT,21
129.0,21910.163391848015,26798.266386779116,-32240.80440292411,-23982.661841233,-36697.00463974531,-29988.732038585193,-13862.641318159262,-38373.4078256378,0.0,0.0,0.0,193.0,0.0,193.0,0.0,0.0,0.0,179.0,193.0,0.0,179.0,1744420464.0765247,0.0,2025-04-11 21:14:24.076,RIGHT,21
130.0,21935.510270060335,26798.109924567932,-32256.987065909754,-23991.26726284829,-36714.34959344263,-30013.721288886227,-13422.13313843407,-38361.91902898777,0.0,0.0,0.0,193.0,0.0,193.0,0.0,0.0,0.0,179.0,193.0,0.0,179.0,1744420464.076566,0.0,2025-04-11 21:14:24.076,RIGHT,21
131.0,21936.67256077201,26774.372371956393,-32271.180423638874,-24011.98732995836,-36733.12505878509,-30021.522047701128,-13298.77386078523,-38409.6176516554,0.0,0.0,0.0,193.0,0.0,193.0,0.0,0.0,0.0,179.0,193.0,0.0,179.0,1744420464.0766072,0.0,2025-04-11 21:14:24.076,RIGHT,21
132.0,21913.985540149875,26777.85924409142,-32260.09395838904,-23993.055402404716,-36718.149390000035,-29991.213082219732,-13630.630210713174,-38370.77031979207,0.0,0.0,0.0,193.0,0.0,194.0,0.0,0.0,0.0,179.0,194.0,0.0,179.0,1744420464.0766482,0.0,2025-04-11 21:14:24.076,RIGHT,21
133.0,21903.659034211523,26788.878654107888,-32255.66831298689,-23985.99225115684,-36714.12607599808,-29985.22281470571,-13862.194283270155,-38371.88790701484,0.0,0.0,0.0,193.0,0.0,193.0,0.0,0.0,0.0,179.0,193.0,0.0,179.0,1744420464.0766895,0.0,2025-04-11 21:14:24.076,RIGHT,21
134.0,21937.29840961676,26797.908758867834,-32254.349560064027,-23980.40431504301,-36715.89186381005,-29991.861282808935,-13533.91421245506,-38353.335959116936,0.0,0.0,0.0,193.0,0.0,194.0,0.0,0.0,0.0,180.0,194.0,0.0,180.0,1744420464.0767455,0.0,2025-04-11 21:14:24.076,RIGHT,21
135.0,21943.48984283088,26781.72609588219,-32266.10657764752,-24003.85129497663,-36726.039555792755,-30004.55707365955,-13288.20148565787,-38392.406808424814,0.0,0.0,0.0,193.0,0.0,193.0,0.0,0.0,0.0,179.0,193.0,0.0,179.0,1744420464.0767872,0.0,2025-04-11 21:14:24.076,RIGHT,21
136.0,21917.315950073713,26772.181900999774,-32261.546821778637,-23997.03401291776,-36711.64503236354,-29986.921547284313,-13572.470971640465,-38368.60220057991,0.0,0.0,0.0,193.0,0.0,193.0,0.0,0.0,0.0,179.0,193.0,0.0,179.0,1744420464.0768285,0.0,2025-04-11 21:14:24.076,RIGHT,21
137.0,21908.10703135813,26788.9233575968,-32251.10855711801,-23986.014602901294,-36701.92202352548,-29975.79037854557,-13853.767675610505,-38362.008435965596,0.0,0.0,0.0,193.0,0.0,193.0,0.0,0.0,0.0,179.0,193.0,0.0,179.0,1744420464.0768824,0.0,2025-04-11 21:14:24.076,RIGHT,21
138.0,21924.401453066046,26792.812561132025,-32254.0142838972,-23987.42276280198,-36710.43803816295,-29988.486169396183,-13618.850841385227,-38344.57407529045,0.0,0.0,0.0,193.0,0.0,194.0,0.0,0.0,0.0,179.0,194.0,0.0,179.0,1744420464.076924,0.0,2025-04-11 21:14:24.076,RIGHT,21
139.0,21936.091415416173,26785.88352035088,-32267.917068948398,-24013.194324158947,-36728.498247682845,-30015.107097042455,-13259.077162632604,-38377.654657084306,0.0,0.0,0.0,193.0,0.0,194.0,0.0,0.0,0.0,180.0,194.0,0.0,180.0,1744420464.0769649,0.0,2025-04-11 21:14:24.076,RIGHT,21
140.0,21913.314987816215,26770.930203310276,-32266.553612536623,-24014.89305673755,-36728.632358149574,-30010.614396406938,-13525.979343173427,-38399.671125372784,0.0,0.0,0.0,193.0,0.0,193.0,0.0,0.0,0.0,179.0,193.0,0.0,179.0,1744420464.0770059,0.0,2025-04-11 21:14:24.077,RIGHT,21
141.0,21902.38498477757,26786.24114826216,-32252.740234463246,-24004.253626376823,-36714.573110887184,-29998.432695678795,-13856.047553544946,-38385.12013973238,0.0,0.0,0.0,193.0,0.0,193.0,0.0,0.0,0.0,179.0,193.0,0.0,179.0,1744420464.0770464,0.0,2025-04-11 21:14:24.077,RIGHT,21
142.0,21916.019548895307,26793.460761721228,-32250.683873973358,-24005.90765546652,-36716.338898699156,-30012.380184218906,-13733.358828229766,-38383.22024145368,0.0,0.0,0.0,193.0,0.0,193.0,0.0,0.0,0.0,179.0,193.0,0.0,179.0,1744420464.0771012,0.0,2025-04-11 21:14:24.077,RIGHT,21
143.0,21945.25563064285,26789.750372141647,-32263.04438865714,-24024.727824297886,-36727.13479127107,-30034.32959727402,-13304.428852132423,-38394.73138984816,0.0,0.0,0.0,193.0,0.0,194.0,0.0,0.0,0.0,179.0,194.0,0.0,179.0,1744420464.0771427,0.0,2025-04-11 21:14:24.077,RIGHT,21
144.0,21929.43059556849,26771.15372075483,-32260.988028167252,-24027.924123754994,-36718.641128378054,-30025.679472169817,-13455.884272561583,-38401.25809922911,0.0,0.0,0.0,193.0,0.0,194.0,0.0,0.0,0.0,180.0,194.0,0.0,180.0,1744420464.0771837,0.0,2025-04-11 21:14:24.077,RIGHT,21
145.0,21913.00206339384,26787.515197696117,-32243.08428085855,-24010.065079935204,-36703.888977037546,-30007.79807660557,-13791.696881258116,-38377.45349138421,0.0,0.0,0.0,193.0,0.0,193.0,0.0,0.0,0.0,179.0,193.0,0.0,179.0,1744420464.0772247,0.0,2025-04-11 21:14:24.077,RIGHT,21
146.0,21921.04869139775,26796.411191989326,-32237.51869648918,-24006.175876399982,-36702.346706670134,-30016.537608687595,-13788.098250400812,-38388.60701186741,0.0,0.0,0.0,193.0,0.0,193.0,0.0,0.0,0.0,179.0,193.0,0.0,179.0,1744420464.077266,0.0,2025-04-11 21:14:24.077,RIGHT,21
147.0,21946.30616263225,26797.39466874536,-32248.582809994557,-24015.09422243765,-36712.270881208286,-30032.005015850667,-13313.861288292563,-38373.8548605269,0.0,0.0,0.0,193.0,0.0,193.0,0.0,0.0,0.0,179.0,193.0,0.0,179.0,1744420464.0773072,0.0,2025-04-11 21:14:24.077,RIGHT,21
148.0,21930.5258310468,26781.16730227081,-32254.52837401967,-24025.66659756501,-36716.09302951015,-30031.401518750376,-13402.240085868847,-38405.25906148661,0.0,0.0,0.0,193.0,0.0,193.0,0.0,0.0,0.0,179.0,193.0,0.0,179.0,1744420464.077348,0.0,2025-04-11 21:14:24.077,RIGHT,21
149.0,21912.24210408236,26787.582252929482,-32243.08428085855,-24008.5675130567,-36706.191206716445,-30011.776687118614,-13748.267441781456,-38384.67310484328,0.0,0.0,0.0,193.0,0.0,194.0,0.0,0.0,0.0,180.0,194.0,0.0,180.0,1744420464.0774035,0.0,2025-04-11 21:14:24.077,RIGHT,21
150.0,21918.411185552024,26798.19933154575,-32231.036690597142,-23996.139943139548,-36699.128055468565,-30000.869035824424,-13837.964992280602,-38367.797537779516,0.0,0.0,0.0,193.0,0.0,194.0,0.0,0.0,0.0,179.0,194.0,0.0,179.0,1744420464.0774453,0.0,2025-04-11 21:14:24.077,RIGHT,21
151.0,21941.34407536317,26796.277081522596,-32249.23101058376,-24005.88530372206,-36720.13869525656,-30027.355853003963,-13378.83780942414,-38362.52252608806,0.0,0.0,0.0,193.0,0.0,193.0,0.0,0.0,0.0,179.0,193.0,0.0,179.0,1744420464.0774865,0.0,2025-04-11 21:14:24.077,RIGHT,21
152.0,21933.990351437373,26775.802883601533,-32250.57211525108,-24016.52473408279,-36715.4671806654,-30023.399594235372,-13352.418047477968,-38394.39611368133,0.0,0.0,0.0,193.0,0.0,193.0,0.0,0.0,0.0,179.0,193.0,0.0,179.0,1744420464.0775435,0.0,2025-04-11 21:14:24.077,RIGHT,21
153.0,21907.123554602094,26780.854377848435,-32243.218391325285,-24000.61029203061,-36706.90646253902,-30004.26650098163,-13676.652452546652,-38367.21639242368,0.0,0.0,0.0,193.0,0.0,193.0,0.0,0.0,0.0,179.0,193.0,0.0,179.0,1744420464.0775852,0.0,2025-04-11 21:14:24.077,RIGHT,21
154.0,21910.878647670586,26796.79117164507,-32235.685853443847,-23991.289614592748,-36706.23591020536,-29999.818503835024,-13867.692812406161,-38380.806253052506,0.0,0.0,0.0,193.0,0.0,193.0,0.0,0.0,0.0,179.0,193.0,0.0,179.0,1744420464.0776267,0.0,2025-04-11 21:14:24.077,RIGHT,21
155.0,21937.25370612785,26797.81935189001,-32248.515754761193,-23996.83284721766,-36719.40108768953,-30021.79026863459,-13466.277833733302,-38358.67802604175,0.0,0.0,0.0,193.0,0.0,194.0,0.0,0.0,0.0,179.0,194.0,0.0,179.0,1744420464.0776677,0.0,2025-04-11 21:14:24.077,RIGHT,21
156.0,21927.709511245434,26770.77374109909,-32267.7159032483,-24024.504306853334,-36734.04148030776,-30037.16826881984,-13293.208276415859,-38400.49813991763,0.0,0.0,0.0,193.0,0.0,194.0,0.0,0.0,0.0,179.0,194.0,0.0,179.0,1744420464.0777087,0.0,2025-04-11 21:14:24.077,RIGHT,21
157.0,21906.743574946355,26770.594927143447,-32254.6624844864,-24007.718146767398,-36721.569206901695,-30017.051698810068,-13617.845012884738,-38392.406808424814,0.0,0.0,0.0,193.0,0.0,193.0,0.0,0.0,0.0,178.0,193.0,0.0,178.0,1744420464.0777645,0.0,2025-04-11 21:14:24.077,RIGHT,21
158.0,21904.106069100628,26785.660002906323,-32233.987120865244,-23987.5121697798,-36706.50413113882,-29999.773800346113,-13883.786068413981,-38388.78582582305,0.0,0.0,0.0,193.0,0.0,193.0,0.0,0.0,0.0,178.0,193.0,0.0,178.0,1744420464.077806,0.0,2025-04-11 21:14:24.077,RIGHT,21
159.0,21923.373272821103,26785.838816861968,-32243.017225625186,-23991.110800637103,-36714.88603530956,-30017.766954632636,-13561.92094825756,-38363.17072667727,0.0,0.0,0.0,193.0,0.0,193.0,0.0,0.0,0.0,179.0,193.0,0.0,179.0,1744420464.0778613,0.0,2025-04-11 21:14:24.077,RIGHT,21
160.0,21937.454871827947,26774.908813823324,-32253.723711219278,-24013.171972414493,-36721.77037260179,-30026.931169859312,-13272.555264539154,-38387.42236941127,0.0,0.0,0.0,193.0,0.0,193.0,0.0,0.0,0.0,179.0,193.0,0.0,179.0,1744420464.077903,0.0,2025-04-11 21:14:24.077,RIGHT,21
161.0,21923.015644909818,26775.8699388349,-32243.821888425577,-24002.97957694287,-36711.75679108582,-30005.875826582414,-13571.040459995325,-38381.52150887508,0.0,0.0,0.0,193.0,0.0,193.0,0.0,0.0,0.0,179.0,193.0,0.0,179.0,1744420464.0779445,0.0,2025-04-11 21:14:24.077,RIGHT,21
162.0,21902.876723155587,26784.43065696128,-32234.501210987713,-23990.619062259088,-36703.55370087072,-29992.822407820513,-13875.135943309779,-38367.48461335714,0.0,0.0,0.0,193.0,0.0,193.0,0.0,0.0,0.0,179.0,193.0,0.0,179.0,1744420464.0779853,0.0,2025-04-11 21:14:24.077,RIGHT,21
163.0,21922.43449955398,26783.804808116533,-32238.725690689767,-23992.340146582144,-36709.901596296026,-30009.02742255061,-13647.148149865647,-38350.385528848834,0.0,0.0,0.0,193.0,0.0,194.0,0.0,0.0,0.0,179.0,194.0,0.0,179.0,1744420464.0780401,0.0,2025-04-11 21:14:24.078,RIGHT,21
164.0,21933.63272352609,26771.53370041057,-32260.183365366862,-24023.81140277522,-36734.62262566359,-30039.537553732105,-13272.845837217073,-38388.45054965622,0.0,0.0,0.0,193.0,0.0,193.0,0.0,0.0,0.0,179.0,193.0,0.0,179.0,1744420464.0780816,0.0,2025-04-11 21:14:24.078,RIGHT,21
165.0,21919.595828008158,26761.25189796113,-32249.923914661875,-24016.301216638236,-36721.34568945714,-30023.578408191017,-13528.192165874501,-38400.90047131783,0.0,0.0,0.0,193.0,0.0,193.0,0.0,0.0,0.0,179.0,193.0,0.0,179.0,1744420464.078123,0.0,2025-04-11 21:14:24.078,RIGHT,21
166.0,21907.48118251338,26778.574499913993,-32237.652806955914,-23999.738573996852,-36707.64407010604,-30005.56290216004,-13848.470312174597,-38376.179441950255,0.0,0.0,0.0,193.0,0.0,193.0,0.0,0.0,0.0,179.0,193.0,0.0,179.0,1744420464.078164,0.0,2025-04-11 21:14:24.078,RIGHT,21
167.0,21922.501554787345,26786.48701745117,-32235.976426121764,-23995.737611739354,-36707.15233172802,-30014.145972030878,-13731.347171228788,-38369.94330524722,0.0,0.0,0.0,193.0,0.0,193.0,0.0,0.0,0.0,179.0,193.0,0.0,179.0,1744420464.0782175,0.0,2025-04-11 21:14:24.078,RIGHT,21
168.0,21947.33434287719,26779.759142370123,-32252.51671701869,-24014.84835324864,-36729.258206994324,-30036.877696141924,-13283.619378044532,-38392.87619505837,0.0,0.0,0.0,193.0,0.0,193.0,0.0,0.0,0.0,179.0,193.0,0.0,179.0,1744420464.0782588,0.0,2025-04-11 21:14:24.078,RIGHT,21
169.0,21938.66186602853,26773.657116133825,-32241.743176191234,-24007.159353156014,-36718.015279533305,-30013.430716208306,-13454.342002194167,-38384.74016007664,0.0,0.0,0.0,193.0,0.0,193.0,0.0,0.0,0.0,179.0,193.0,0.0,179.0,1744420464.0782995,0.0,2025-04-11 21:14:24.078,RIGHT,21
170.0,21922.792127465265,26793.907796610332,-32231.975463864266,-23991.244911103837,-36711.086238752156,-30002.8806928254,-13802.537477318941,-38378.74989256262,0.0,0.0,0.0,193.0,0.0,193.0,0.0,0.0,0.0,179.0,193.0,0.0,179.0,1744420464.0783403,0.0,2025-04-11 21:14:24.078,RIGHT,21
171.0,21929.944685690964,26804.83779964898,-32226.09695507252,-23981.901881921516,-36707.42055266149,-30009.250939995163,-13813.981570480059,-38385.54482287703,0.0,0.0,0.0,193.0,0.0,193.0,0.0,0.0,0.0,179.0,193.0,0.0,179.0,1744420464.0783815,0.0,2025-04-11 21:14:24.078,RIGHT,21
172.0,21954.196328424972,26802.647328692357,-32243.799536681123,-24001.50436180882,-36721.07746852368,-30042.443280511296,-13320.410349417967,-38392.42916016927,0.0,0.0,0.0,193.0,0.0,194.0,0.0,0.0,0.0,179.0,194.0,0.0,179.0,1744420464.0784366,0.0,2025-04-11 21:14:24.078,RIGHT,21
173.0,21942.39460735257,26779.580328414482,-32245.58767623755,-24011.830867747172,-36720.63043363457,-30039.828126410026,-13390.639530496543,-38423.296919262044,0.0,0.0,0.0,193.0,0.0,193.0,0.0,0.0,0.0,180.0,193.0,0.0,180.0,1744420464.078478,0.0,2025-04-11 21:14:24.078,RIGHT,21
174.0,21922.61331350962,26790.19740703075,-32231.75194641971,-23992.921291937982,-36702.05613399221,-30016.939940087792,-13717.846717577782,-38379.80042455202,0.0,0.0,0.0,193.0,0.0,193.0,0.0,0.0,0.0,179.0,193.0,0.0,179.0,1744420464.078519,0.0,2025-04-11 21:14:24.078,RIGHT,21
175.0,21921.85335419814,26802.98260485919,-32224.085298071543,-23986.75221046832,-36693.07073272118,-30016.694070898782,-13830.901841032726,-38389.38932292334,0.0,0.0,0.0,193.0,0.0,193.0,0.0,0.0,0.0,179.0,193.0,0.0,179.0,1744420464.07856,0.0,2025-04-11 21:14:24.078,RIGHT,21
176.0,21939.175956151004,26795.248901277653,-32246.39233903794,-24006.801725244728,-36716.607119632616,-30048.835879425515,-13390.08073688516,-38393.16676773629,0.0,0.0,0.0,193.0,0.0,194.0,0.0,0.0,0.0,180.0,194.0,0.0,180.0,1744420464.078601,0.0,2025-04-11 21:14:24.078,RIGHT,21
177.0,21933.655075270544,26771.421941688295,-32253.410786796903,-24024.481955108877,-36720.3175092122,-30046.75716719117,-13351.143998044015,-38426.02383208559,0.0,0.0,0.0,193.0,0.0,193.0,0.0,0.0,0.0,179.0,193.0,0.0,179.0,1744420464.0786424,0.0,2025-04-11 21:14:24.078,RIGHT,21
178.0,21910.76688894831,26774.864110334413,-32250.259190828707,-24011.517943324798,-36713.79079983125,-30025.813582636547,-13682.553313082852,-38400.11816026189,0.0,0.0,0.0,193.0,0.0,193.0,0.0,0.0,0.0,179.0,193.0,0.0,179.0,1744420464.07874,0.0,2025-04-11 21:14:24.078,RIGHT,21
179.0,21904.933083645476,26784.900043594844,-32242.637245969447,-24002.107858909116,-36704.78304681576,-30015.80000112057,-13872.99017584207,-38391.89271830234,0.0,0.0,0.0,193.0,0.0,193.0,0.0,0.0,0.0,179.0,193.0,0.0,179.0,1744420464.078782,0.0,2025-04-11 21:14:24.078,RIGHT,21
180.0,21935.174993893506,26793.326651254494,-32252.047330385132,-24004.18657114346,-36719.31168071171,-30030.820373394537,-13480.202970528957,-38378.6604855848,0.0,0.0,0.0,193.0,0.0,194.0,0.0,0.0,0.0,180.0,194.0,0.0,180.0,1744420464.0788236,0.0,2025-04-11 21:14:24.078,RIGHT,21
181.0,21935.644380527065,26771.712514366212,-32265.078397402576,-24026.158335943026,-36732.052175051234,-30035.84951589698,-13308.742738812298,-38413.12687553488,0.0,0.0,0.0,193.0,0.0,193.0,0.0,0.0,0.0,179.0,193.0,0.0,179.0,1744420464.0788653,0.0,2025-04-11 21:14:24.078,RIGHT,21
182.0,21911.593903493154,26768.471511420194,-32257.031769398665,-24013.03786194776,-36719.02110803379,-30015.196504020278,-13628.618553712196,-38394.17259623678,0.0,0.0,0.0,193.0,0.0,193.0,0.0,0.0,0.0,179.0,193.0,0.0,179.0,1744420464.0789201,0.0,2025-04-11 21:14:24.078,RIGHT,21
183.0,21891.253816038825,26774.77470335659,-32252.42731004087,-24007.159353156014,-36713.74609634234,-30008.245111494674,-13875.962957854625,-38384.3601804209,0.0,0.0,0.0,193.0,0.0,193.0,0.0,0.0,0.0,179.0,193.0,0.0,179.0,1744420464.0789614,0.0,2025-04-11 21:14:24.078,RIGHT,21
184.0,21913.18087734948,26774.998220801142,-32256.405920553916,-24004.47714382138,-36723.64791913604,-30023.17607679082,-13580.15997173309,-38370.16682269178,0.0,0.0,0.0,193.0,0.0,194.0,0.0,0.0,0.0,180.0,194.0,0.0,180.0,1744420464.0790024,0.0,2025-04-11 21:14:24.079,RIGHT,21
185.0,21929.832926968687,26764.939935796254,-32264.34078983555,-24020.503344595832,-36733.90736984103,-30034.50841122966,-13304.674721321431,-38409.28237548857,0.0,0.0,0.0,193.0,0.0,193.0,0.0,0.0,0.0,179.0,193.0,0.0,179.0,1744420464.0790436,0.0,2025-04-11 21:14:24.079,RIGHT,21
186.0,21915.326644817193,26764.649363118337,-32253.366083307992,-24005.84060023315,-36718.66348012251,-30013.475419697217,-13575.577864119752,-38395.960735793204,0.0,0.0,0.0,193.0,0.0,193.0,0.0,0.0,0.0,179.0,193.0,0.0,179.0,1744420464.0790846,0.0,2025-04-11 21:14:24.079,RIGHT,21
187.0,21900.328624287682,26781.256709248628,-32246.727615204767,-23997.257530362313,-36715.44482892094,-30009.250939995163,-13874.331280509386,-38403.247404485635,0.0,0.0,0.0,193.0,0.0,193.0,0.0,0.0,0.0,179.0,193.0,0.0,179.0,1744420464.0791392,0.0,2025-04-11 21:14:24.079,RIGHT,21
188.0,21924.021473410306,26785.68235465078,-32244.15716459241,-23992.675422748976,-36715.69069810995,-30018.45985871075,-13692.924522510115,-38394.53022414807,0.0,0.0,0.0,193.0,0.0,194.0,0.0,0.0,0.0,179.0,194.0,0.0,179.0,1744420464.0791807,0.0,2025-04-11 21:14:24.079,RIGHT,21
189.0,21939.06419742873,26772.74069461116,-32264.38549332446,-24019.94455098445,-36739.38354723257,-30041.124527588432,-13289.028500202716,-38397.815930583,0.0,0.0,0.0,193.0,0.0,193.0,0.0,0.0,0.0,179.0,193.0,0.0,179.0,1744420464.079222,0.0,2025-04-11 21:14:24.079,RIGHT,21
190.0,21924.021473410306,26767.19746198624,-32255.48949903125,-24015.429498604477,-36732.36509947361,-30024.85245762497,-13510.757805199362,-38403.33681146346,0.0,0.0,0.0,193.0,0.0,193.0,0.0,0.0,0.0,179.0,193.0,0.0,179.0,1744420464.0792675,0.0,2025-04-11 21:14:24.079,RIGHT,21
191.0,21911.437441281967,26787.984584329675,-32238.077490100564,-23998.375117585078,-36712.87437830858,-30008.155704516856,-13847.285669718465,-38387.64588685583,0.0,0.0,0.0,193.0,0.0,193.0,0.0,0.0,0.0,179.0,193.0,0.0,179.0,1744420464.0793087,0.0,2025-04-11 21:14:24.079,RIGHT,21
192.0,21919.886400686075,26793.68427916578,-32241.09497560203,-24001.057326919716,-36714.237834720356,-30029.70278617177,-13758.862168653272,-38395.334886948454,0.0,0.0,0.0,193.0,0.0,193.0,0.0,0.0,0.0,179.0,193.0,0.0,179.0,1744420464.0793498,0.0,2025-04-11 21:14:24.079,RIGHT,21
193.0,21944.115691675626,26788.29750875205,-32256.450624042827,-24023.967864986404,-36730.12992502808,-30059.81058595307,-13323.45018666389,-38422.73812565066,0.0,0.0,0.0,193.0,0.0,193.0,0.0,0.0,0.0,179.0,193.0,0.0,179.0,1744420464.0794048,0.0,2025-04-11 21:14:24.079,RIGHT,21
194.0,21930.704645002443,26766.079874763476,-32256.29416183164,-24030.38281564508,-36725.41370694801,-30051.473385271238,-13462.321574964712,-38433.735183922676,0.0,0.0,0.0,193.0,0.0,193.0,0.0,0.0,0.0,179.0,193.0,0.0,179.0,1744420464.0794463,0.0,2025-04-11 21:14:24.079,RIGHT,21
195.0,21915.997197150853,26783.134255782876,-32242.838411669545,-24011.89792298054,-36712.60615737512,-30029.836896638502,-13789.037023667936,-38406.93544232076,0.0,0.0,0.0,193.0,0.0,194.0,0.0,0.0,0.0,179.0,194.0,0.0,179.0,1744420464.0794876,0.0,2025-04-11 21:14:24.079,RIGHT,21
196.0,21916.064252384218,26791.985546587177,-32237.742213933732,-24003.60542578762,-36708.7616573288,-30027.75818440416,-13818.384864137754,-38397.301840460525,0.0,0.0,0.0,193.0,0.0,193.0,0.0,0.0,0.0,179.0,193.0,0.0,179.0,1744420464.0795288,0.0,2025-04-11 21:14:24.079,RIGHT,21
197.0,21936.158470649538,26780.9214330818,-32259.736330477757,-24024.303141153236,-36729.59348316115,-30059.36355106396,-13351.300460255201,-38404.96848880869,0.0,0.0,0.0,193.0,0.0,193.0,0.0,0.0,0.0,180.0,193.0,0.0,180.0,1744420464.0795865,0.0,2025-04-11 21:14:24.079,RIGHT,21
198.0,21931.039921169275,26759.508461893616,-32259.66927524439,-24031.61216159012,-36726.28542498177,-30051.227516082232,-13408.498574316332,-38443.301730549545,0.0,0.0,0.0,193.0,0.0,194.0,0.0,0.0,0.0,179.0,194.0,0.0,179.0,1744420464.0796275,0.0,2025-04-11 21:14:24.079,RIGHT,21
199.0,21902.04970861074,26763.554127640025,-32259.19988861083,-24019.98925447336,-36726.37483195959,-30035.31307403005,-13748.356848759277,-38421.620538427895,0.0,0.0,0.0,193.0,0.0,194.0,0.0,0.0,0.0,179.0,194.0,0.0,179.0,1744420464.0796685,0.0,2025-04-11 21:14:24.079,RIGHT,21
200.0,21911.504496515336,26784.117732538907,-32244.313626803596,-23999.291539107748,-36713.388468431054,-30016.85053310997,-13868.899806606747,-38398.10650326091,0.0,0.0,0.0,193.0,0.0,194.0,0.0,0.0,0.0,180.0,194.0,0.0,180.0,1744420464.5532331,0.0,2025-04-11 21:14:24.553,RIGHT,21
201.0,21940.450005584957,26789.39274423036,-32256.584734509557,-24006.51115256681,-36725.45841043692,-30037.145917075388,-13420.635571555564,-38387.26590720009,0.0,0.0,0.0,193.0,0.0,193.0,0.0,0.0,0.0,179.0,193.0,0.0,179.0,1744420464.553382,0.0,2025-04-11 21:14:24.553,RIGHT,21
202.0,21942.126386419106,26774.35002021194,-32257.612914754503,-24018.290521894756,-36722.329166213174,-30031.736794917204,-13340.906899083484,-38418.71481164871,0.0,0.0,0.0,193.0,0.0,194.0,0.0,0.0,0.0,179.0,194.0,0.0,179.0,1744420464.553481,0.0,2025-04-11 21:14:24.553,RIGHT,21
203.0,21914.47727852789,26776.115808023907,-32253.76841470819,-24005.70648976642,-36718.23879697786,-30010.83791385149,-13668.449362331554,-38398.59824163893,0.0,0.0,0.0,193.0,0.0,194.0,0.0,0.0,0.0,179.0,194.0,0.0,179.0,1744420464.5535293,0.0,2025-04-11 21:14:24.553,RIGHT,21
204.0,21910.990406392862,26788.073991307498,-32241.072623857573,-23995.044707661236,-36705.99004101635,-30001.04784978007,-13867.111667050323,-38391.490386902144,0.0,0.0,0.0,193.0,0.0,193.0,0.0,0.0,0.0,178.0,193.0,0.0,178.0,1744420464.553577,0.0,2025-04-11 21:14:24.553,RIGHT,21
205.0,21936.024360182808,26783.603642416438,-32250.862687929,-24002.93487345396,-36722.2174074909,-30026.46178322575,-13492.80935440175,-38385.74598857713,0.0,0.0,0.0,193.0,0.0,193.0,0.0,0.0,0.0,179.0,193.0,0.0,179.0,1744420464.5536232,0.0,2025-04-11 21:14:24.553,RIGHT,21
206.0,21944.965057964928,26767.57744164198,-32257.23293509876,-24021.777394029785,-36724.094954025146,-30031.982664106214,-13305.97112249984,-38423.40867798432,0.0,0.0,0.0,193.0,0.0,194.0,0.0,0.0,0.0,179.0,194.0,0.0,179.0,1744420464.553677,0.0,2025-04-11 21:14:24.553,RIGHT,21
207.0,21920.8251739532,26772.67363937779,-32251.466185029294,-24009.774507257287,-36713.65668936452,-30010.50263768466,-13619.83431814126,-38391.73625609115,0.0,0.0,0.0,193.0,0.0,194.0,0.0,0.0,0.0,179.0,194.0,0.0,179.0,1744420464.5537243,0.0,2025-04-11 21:14:24.553,RIGHT,21
208.0,21905.42482202349,26776.473435935193,-32244.93947564834,-24001.12438215308,-36705.20772996041,-30000.310242213043,-13872.632547930783,-38383.48846238714,0.0,0.0,0.0,193.0,0.0,193.0,0.0,0.0,0.0,179.0,193.0,0.0,179.0,1744420464.5537903,0.0,2025-04-11 21:14:24.553,RIGHT,21
209.0,21934.236220626382,26783.246014505152,-32242.48078375826,-23992.116629137592,-36703.15136947052,-30005.853474837957,-13584.250340968412,-38360.57792432045,0.0,0.0,0.0,193.0,0.0,193.0,0.0,0.0,0.0,179.0,193.0,0.0,179.0,1744420464.5538375,0.0,2025-04-11 21:14:24.553,RIGHT,21
210.0,21935.711435760433,26769.857319576422,-32267.96177243731,-24026.270094665302,-36728.69941338294,-30035.76010891916,-13270.878883705007,-38400.87811957337,0.0,0.0,0.0,193.0,0.0,193.0,0.0,0.0,0.0,179.0,193.0,0.0,179.0,1744420464.5538845,0.0,2025-04-11 21:14:24.553,RIGHT,21
211.0,21910.252798825837,26761.87774680588,-32259.937496177852,-24017.441155605455,-36715.93656729896,-30025.679472169817,-13544.196014904503,-38408.09773303244,0.0,0.0,0.0,193.0,0.0,194.0,0.0,0.0,0.0,180.0,194.0,0.0,180.0,1744420464.5539484,0.0,2025-04-11 21:14:24.553,RIGHT,21
212.0,21894.85244689613,26779.356810969926,-32244.7606616927,-23999.89503620804,-36696.78112230076,-30009.072126039522,-13844.335239450365,-38398.88881431685,0.0,0.0,0.0,193.0,0.0,194.0,0.0,0.0,0.0,179.0,194.0,0.0,179.0,1744420464.5539956,0.0,2025-04-11 21:14:24.553,RIGHT,21
213.0,21913.069118627205,26782.709572638225,-32249.454528028316,-23997.07871640667,-36705.274785193775,-30019.37628023342,-13683.737955538983,-38384.02490425407,0.0,0.0,0.0,193.0,0.0,193.0,0.0,0.0,0.0,179.0,193.0,0.0,179.0,1744420464.5540416,0.0,2025-04-11 21:14:24.554,RIGHT,21
214.0,21932.15750839204,26769.58909864296,-32263.156147379417,-24015.809478260217,-36716.87534056608,-30037.525896731127,-13279.372546598024,-38391.155110735315,0.0,0.0,0.0,193.0,0.0,193.0,0.0,0.0,0.0,179.0,193.0,0.0,179.0,1744420464.5540888,0.0,2025-04-11 21:14:24.554,RIGHT,21
215.0,21924.557915277233,26764.49290090715,-32249.8121559396,-24002.018451931293,-36704.78304681576,-30014.0342133086,-13489.367185755633,-38388.85288105642,0.0,0.0,0.0,193.0,0.0,194.0,0.0,0.0,0.0,180.0,194.0,0.0,180.0,1744420464.5541365,0.0,2025-04-11 21:14:24.554,RIGHT,21
216.0,21900.70860394342,26774.998220801142,-32242.257266313707,-23990.060268647703,-36696.73641881185,-30004.288852726087,-13810.718215789584,-38377.16291870629,0.0,0.0,0.0,193.0,0.0,194.0,0.0,0.0,0.0,180.0,194.0,0.0,180.0,1744420464.554184,0.0,2025-04-11 21:14:24.554,RIGHT,21
217.0,21909.068156369707,26779.15564526983,-32240.200905823818,-23987.5121697798,-36698.52455836828,-30013.497771441675,-13742.634802178718,-38379.35338966291,0.0,0.0,0.0,193.0,0.0,193.0,0.0,0.0,0.0,179.0,193.0,0.0,179.0,1744420464.554247,0.0,2025-04-11 21:14:24.554,RIGHT,21
218.0,21934.616200282122,26773.947688811742,-32256.160051364906,-24008.589864801153,-36720.42926793447,-30043.784385178613,-13292.448317104378,-38394.12789274787,0.0,0.0,0.0,193.0,0.0,193.0,0.0,0.0,0.0,179.0,193.0,0.0,179.0,1744420464.5542936,0.0,2025-04-11 21:14:24.554,RIGHT,21
219.0,21919.52877277479,26755.127519980375,-32253.231972841262,-24013.75311777033,-36716.808285332714,-30041.437452010807,-13435.119501962603,-38437.155000824336,0.0,0.0,0.0,193.0,0.0,193.0,0.0,0.0,0.0,179.0,193.0,0.0,179.0,1744420464.55434,0.0,2025-04-11 21:14:24.554,RIGHT,21
220.0,21904.173124333993,26775.35584871243,-32238.94920813432,-23991.7142977374,-36702.10083748112,-30017.208161021255,-13781.057450897391,-38405.951965564724,0.0,0.0,0.0,193.0,0.0,194.0,0.0,0.0,0.0,180.0,194.0,0.0,180.0,1744420464.5543861,0.0,2025-04-11 21:14:24.554,RIGHT,21
221.0,21920.266380341815,26792.67845066529,-32224.71114691629,-23976.381001041056,-36694.791817044235,-30001.98662304719,-13826.051512485923,-38367.95399999071,0.0,0.0,0.0,193.0,0.0,193.0,0.0,0.0,0.0,179.0,193.0,0.0,179.0,1744420464.5544329,0.0,2025-04-11 21:14:24.554,RIGHT,21
222.0,21939.66769452902,26784.944747083755,-32246.794670438132,-23995.290576850246,-36721.435096434965,-30030.105117571966,-13349.042934065215,-38367.48461335714,0.0,0.0,0.0,193.0,0.0,193.0,0.0,0.0,0.0,179.0,193.0,0.0,179.0,1744420464.5544791,0.0,2025-04-11 21:14:24.554,RIGHT,21
223.0,21935.86789797162,26765.834005574467,-32243.553667492113,-24003.158390898516,-36712.67321260848,-30022.393765734883,-13384.045765882227,-38412.90335809033,0.0,0.0,0.0,193.0,0.0,194.0,0.0,0.0,0.0,179.0,194.0,0.0,179.0,1744420464.5545397,0.0,2025-04-11 21:14:24.554,RIGHT,21
224.0,21912.95735990493,26775.646421390345,-32234.72472843227,-23988.42859130247,-36700.62562234708,-30005.51819867113,-13726.653304893174,-38398.93351780576,0.0,0.0,0.0,193.0,0.0,194.0,0.0,0.0,0.0,179.0,194.0,0.0,179.0,1744420464.5545864,0.0,2025-04-11 21:14:24.554,RIGHT,21
225.0,21915.639569239567,26791.046773320053,-32217.893864857422,-23972.894128906028,-36686.29815415122,-29989.69316359677,-13850.750190109038,-38374.994799494125,0.0,0.0,0.0,193.0,0.0,194.0,0.0,0.0,0.0,179.0,194.0,0.0,179.0,1744420464.554633,0.0,2025-04-11 21:14:24.554,RIGHT,21
226.0,21937.81249973923,26781.34611622645,-32235.14941157692,-23984.87466393407,-36706.23591020536,-30015.84470460948,-13400.31783584569,-38365.45060461171,0.0,0.0,0.0,193.0,0.0,193.0,0.0,0.0,0.0,179.0,193.0,0.0,179.0,1744420464.5546927,0.0,2025-04-11 21:14:24.554,RIGHT,21
227.0,21941.14290966307,26760.44723516074,-32242.816059925088,-23998.933911196462,-36713.3661166866,-30018.996300577677,-13310.48617487981,-38403.582680652464,0.0,0.0,0.0,193.0,0.0,194.0,0.0,0.0,0.0,179.0,194.0,0.0,179.0,1744420464.5547397,0.0,2025-04-11 21:14:24.554,RIGHT,21
228.0,21924.066176899218,26772.561880655514,-32234.992949365733,-23980.5607772542,-36710.25922420731,-29997.091591011478,-13652.758437723927,-38383.01907575358,0.0,0.0,0.0,193.0,0.0,194.0,0.0,0.0,0.0,180.0,194.0,0.0,180.0,1744420464.554786,0.0,2025-04-11 21:14:24.554,RIGHT,21
229.0,21921.00398790884,26785.950575584244,-32222.833600382044,-23968.177910825958,-36696.57995660066,-29983.9264135273,-13885.283635292488,-38375.86651752788,0.0,0.0,0.0,193.0,0.0,193.0,0.0,0.0,0.0,180.0,193.0,0.0,180.0,1744420464.554832,0.0,2025-04-11 21:14:24.554,RIGHT,21
230.0,21940.494709073868,26780.429694703784,-32234.076527843063,-23975.621041729577,-36697.943413012435,-30006.36756496043,-13485.880313620606,-38353.62653179485,0.0,0.0,0.0,193.0,0.0,193.0,0.0,0.0,0.0,179.0,193.0,0.0,179.0,1744420464.5548787,0.0,2025-04-11 21:14:24.554,RIGHT,21
231.0,21940.91939221852,26762.280078206073,-32249.767452450687,-23999.93973969695,-36711.19799747443,-30025.880637869912,-13265.156837124448,-38406.868387087394,0.0,0.0,0.0,193.0,0.0,194.0,0.0,0.0,0.0,179.0,194.0,0.0,179.0,1744420464.554926,0.0,2025-04-11 21:14:24.554,RIGHT,21
232.0,21915.68427272848,26753.898174035334,-32246.57115299358,-23988.160370369,-36709.163988729,-30009.69797488427,-13583.199808979012,-38394.35141019242,0.0,0.0,0.0,193.0,0.0,193.0,0.0,0.0,0.0,179.0,193.0,0.0,179.0,1744420464.5549912,0.0,2025-04-11 21:14:24.554,RIGHT,21
233.0,21907.68234821348,26775.177034756787,-32229.94145511883,-23969.07198060417,-36694.90357576652,-29986.40745716184,-13855.64522214475,-38364.06479645548,0.0,0.0,0.0,193.0,0.0,193.0,0.0,0.0,0.0,179.0,193.0,0.0,179.0,1744420464.555038,0.0,2025-04-11 21:14:24.555,RIGHT,21
234.0,21930.548182791255,26786.710534895723,-32229.784992907644,-23963.32758227916,-36697.45167463442,-29995.45991366624,-13587.714861358985,-38341.91421770027,0.0,0.0,0.0,193.0,0.0,194.0,0.0,0.0,0.0,179.0,194.0,0.0,179.0,1744420464.555085,0.0,2025-04-11 21:14:24.555,RIGHT,21
235.0,21940.78528175179,26774.72999986768,-32244.33597854805,-23987.825094202173,-36713.5672823867,-30016.17998077631,-13259.792418455174,-38375.82181403897,0.0,0.0,0.0,193.0,0.0,194.0,0.0,0.0,0.0,179.0,194.0,0.0,179.0,1744420464.5551312,0.0,2025-04-11 21:14:24.555,RIGHT,21
236.0,21921.316912331215,26760.223717716184,-32241.139679090942,-23986.528693023767,-36708.851064306626,-30006.814599849535,-13536.574070045242,-38387.243555455636,0.0,0.0,0.0,193.0,0.0,194.0,0.0,0.0,0.0,180.0,194.0,0.0,180.0,1744420464.5551739,0.0,2025-04-11 21:14:24.555,RIGHT,21
237.0,21903.211999322415,26773.433598689273,-32232.534257475647,-23977.967974897383,-36697.07169497868,-29996.30927995554,-13853.588861654862,-38378.772244307074,0.0,0.0,0.0,193.0,0.0,193.0,0.0,0.0,0.0,179.0,193.0,0.0,179.0,1744420464.5552156,0.0,2025-04-11 21:14:24.555,RIGHT,21
238.0,21922.05451989824,26782.64251740486,-32233.38362376495,-23977.990326641837,-36700.379753158064,-30009.45210569526,-13695.986711500493,-38368.51279360209,0.0,0.0,0.0,193.0,0.0,193.0,0.0,0.0,0.0,179.0,193.0,0.0,179.0,1744420464.5552745,0.0,2025-04-11 21:14:24.555,RIGHT,21
239.0,21945.970886465417,26772.74069461116,-32245.051234370618,-23998.688042007452,-36713.5672823867,-30026.730004159213,-13268.308433092647,-38377.54289836203,0.0,0.0,0.0,193.0,0.0,193.0,0.0,0.0,0.0,179.0,193.0,0.0,179.0,1744420464.5553167,0.0,2025-04-11 21:14:24.555,RIGHT,21
240.0,21933.275095614805,26751.215964700696,-32240.580885479558,-23996.922254195484,-36708.82871256217,-30016.358794731954,-13471.128162280103,-38397.48065441616,0.0,0.0,0.0,193.0,0.0,194.0,0.0,0.0,0.0,179.0,194.0,0.0,179.0,1744420464.555358,0.0,2025-04-11 21:14:24.555,RIGHT,21
241.0,21911.7727174488,26767.35392419743,-32232.71307143129,-23984.89701567853,-36702.614927603594,-30005.51819867113,-13810.226477411567,-38389.59048862344,0.0,0.0,0.0,193.0,0.0,193.0,0.0,0.0,0.0,179.0,193.0,0.0,179.0,1744420464.5554123,0.0,2025-04-11 21:14:24.555,RIGHT,21
242.0,21923.95441817694,26778.68625863627,-32228.443888240326,-23975.46457951839,-36698.18928220145,-30010.212065006745,-13771.379145548242,-38385.94715427723,0.0,0.0,0.0,193.0,0.0,193.0,0.0,0.0,0.0,179.0,193.0,0.0,179.0,1744420464.555454,0.0,2025-04-11 21:14:24.555,RIGHT,21
243.0,21942.282848630293,26772.74069461116,-32251.15326060692,-23994.88824545005,-36722.329166213174,-30036.60947520846,-13307.602799845077,-38390.17163397928,0.0,0.0,0.0,193.0,0.0,193.0,0.0,0.0,0.0,179.0,193.0,0.0,179.0,1744420464.5554955,0.0,2025-04-11 21:14:24.555,RIGHT,21
244.0,21929.408243824037,26750.76892981159,-32251.7120542183,-24000.52088505279,-36718.46231442241,-30030.686262927804,-13420.792033766751,-38420.435895971765,0.0,0.0,0.0,193.0,0.0,193.0,0.0,0.0,0.0,180.0,193.0,0.0,180.0,1744420464.5555372,0.0,2025-04-11 21:14:24.555,RIGHT,21
245.0,21919.484069285878,26777.00987780212,-32229.740289418733,-23966.859157903094,-36689.58386058615,-29992.822407820513,-13754.190654062111,-38372.98314249315,0.0,0.0,0.0,193.0,0.0,193.0,0.0,0.0,0.0,179.0,193.0,0.0,179.0,1744420464.5555787,0.0,2025-04-11 21:14:24.555,RIGHT,21
246.0,21916.600694251145,26784.67652615029,-32233.875362142964,-23966.300364291714,-36695.95410775591,-30002.500713169662,-13808.773614021971,-38375.46418612769,0.0,0.0,0.0,193.0,0.0,193.0,0.0,0.0,0.0,179.0,193.0,0.0,179.0,1744420464.5556333,0.0,2025-04-11 21:14:24.555,RIGHT,21
247.0,21939.622991040113,26781.055543548533,-32252.315551318596,-23982.684192977453,-36717.41178243301,-30032.18382980631,-13339.87871883854,-38386.57300312197,0.0,0.0,0.0,193.0,0.0,193.0,0.0,0.0,0.0,179.0,193.0,0.0,179.0,1744420464.5556743,0.0,2025-04-11 21:14:24.555,RIGHT,21
248.0,21936.091415416173,26758.10030199293,-32251.9132199184,-23991.17785587047,-36718.23879697786,-30022.505524457163,-13373.69690819942,-38422.112276805914,0.0,0.0,0.0,193.0,0.0,194.0,0.0,0.0,0.0,179.0,194.0,0.0,179.0,1744420464.5557156,0.0,2025-04-11 21:14:24.555,RIGHT,21
249.0,21908.263493569317,26758.54733688204,-32251.309722818107,-23986.349879068122,-36715.19895973193,-30009.60856790645,-13715.09745300978,-38405.43787544226,0.0,0.0,0.0,193.0,0.0,194.0,0.0,0.0,0.0,179.0,194.0,0.0,179.0,1744420464.5557563,0.0,2025-04-11 21:14:24.555,RIGHT,21
250.0,21916.131307617583,26780.58615691497,-32231.79664990862,-23968.356724781603,-36694.50124436632,-29987.70385834025,-13863.26716700401,-38376.89469777283,0.0,0.0,0.0,193.0,0.0,193.0,0.0,0.0,0.0,179.0,193.0,0.0,179.0,1744420464.5557976,0.0,2025-04-11 21:14:24.555,RIGHT,21
251.0,21938.7289212619,26777.747485369146,-32246.8617256715,-23980.538425509745,-36708.64989860653,-30012.22372200772,-13419.696798288442,-38351.570171304964,0.0,0.0,0.0,193.0,0.0,193.0,0.0,0.0,0.0,179.0,193.0,0.0,179.0,1744420464.5558388,0.0,2025-04-11 21:14:24.555,RIGHT,21
252.0,21946.708494032442,26763.420017173295,-32246.99583613823,-23992.876588449075,-36711.35445968562,-30005.339384715488,-13306.976951000328,-38384.3601804209,0.0,0.0,0.0,193.0,0.0,193.0,0.0,0.0,0.0,179.0,193.0,0.0,179.0,1744420464.5558798,0.0,2025-04-11 21:14:24.555,RIGHT,21
253.0,21926.43546181148,26767.085703263965,-32240.37971977946,-23976.760980696796,-36699.79860780223,-29984.21698620522,-13635.435835771064,-38362.67898829925,0.0,0.0,0.0,193.0,0.0,194.0,0.0,0.0,0.0,180.0,194.0,0.0,180.0,1744420464.555935,0.0,2025-04-11 21:14:24.555,RIGHT,21
254.0,21909.850467425644,26772.87480507789,-32243.218391325285,-23976.291594063234,-36701.81026480321,-29989.246128707666,-13857.254547745533,-38376.62647683937,0.0,0.0,0.0,193.0,0.0,194.0,0.0,0.0,0.0,179.0,194.0,0.0,179.0,1744420464.5559762,0.0,2025-04-11 21:14:24.555,RIGHT,21
255.0,21924.24499085486,26769.87967132088,-32260.9656764228,-23986.528693023767,-36727.581826160174,-30019.75625988916,-13539.032761935327,-38391.06570375749,0.0,0.0,0.0,193.0,0.0,193.0,0.0,0.0,0.0,179.0,193.0,0.0,179.0,1744420464.5560172,0.0,2025-04-11 21:14:24.556,RIGHT,21
0.0,21935.24204912687,26759.597868871435,-32266.33009509207,-24000.543236797243,-36731.96276807341,-30017.431678465808,-13306.194639944391,-38405.59433765344,0.0,0.0,0.0,193.0,0.0,193.0,0.0,0.0,0.0,179.0,193.0,0.0,179.0,1744420464.5560715,0.0,2025-04-11 21:14:24.556,RIGHT,21
1.0,21915.28194132828,26754.18874671325,-32256.22710659827,-23987.37805931307,-36716.24949172133,-29998.07506776751,-13592.811059094794,-38376.84999428392,0.0,0.0,0.0,193.0,0.0,194.0,0.0,0.0,0.0,180.0,194.0,0.0,180.0,1744420464.5561123,0.0,2025-04-11 21:14:24.556,RIGHT,21
2.0,21907.90586565803,26776.920470824298,-32240.84910641302,-23971.75418993881,-36701.27382293628,-29984.395800160863,-13867.491646706063,-38360.98025572065,0.0,0.0,0.0,193.0,0.0,194.0,0.0,0.0,0.0,179.0,194.0,0.0,179.0,1744420464.5561538,0.0,2025-04-11 21:14:24.556,RIGHT,21
3.0,21933.208040381436,26779.602680158936,-32247.554629749615,-23973.877605662063,-36715.02014577629,-30003.774762603614,-13614.872230872183,-38352.88892422783,0.0,0.0,0.0,193.0,0.0,194.0,0.0,0.0,0.0,179.0,194.0,0.0,179.0,1744420464.5561955,0.0,2025-04-11 21:14:24.556,RIGHT,21
4.0,21951.312953390236,26769.410284687317,-32259.5128130332,-23995.961129183906,-36728.69941338294,-30023.019614579633,-13280.780706498708,-38390.55161363502,0.0,0.0,0.0,193.0,0.0,193.0,0.0,0.0,0.0,179.0,193.0,0.0,179.0,1744420464.5562365,0.0,2025-04-11 21:14:24.556,RIGHT,21
5.0,21928.424767068,26756.133348480864,-32257.23293509876,-23994.50826579431,-36723.804381347225,-30018.0351755661,-13542.005543947882,-38406.175483009276,0.0,0.0,0.0,193.0,0.0,193.0,0.0,0.0,0.0,179.0,193.0,0.0,179.0,1744420464.556291,0.0,2025-04-11 21:14:24.556,RIGHT,21
6.0,21913.784374449777,26772.226604488686,-32244.15716459241,-23982.84065518864,-36710.77331432978,-30009.765030117636,-13861.568434425406,-38403.29210797454,0.0,0.0,0.0,193.0,0.0,193.0,0.0,0.0,0.0,179.0,193.0,0.0,179.0,1744420464.556332,0.0,2025-04-11 21:14:24.556,RIGHT,21
7.0,21931.084624658182,26776.786360357568,-32246.23587682675,-23982.997117399827,-36713.5672823867,-30021.61145467895,-13724.731054870017,-38394.59727938143,0.0,0.0,0.0,193.0,0.0,194.0,0.0,0.0,0.0,180.0,194.0,0.0,180.0,1744420464.556373,0.0,2025-04-11 21:14:24.556,RIGHT,21
8.0,21953.637534813588,26770.19259574325,-32259.244592099738,-23999.7162222524,-36727.64888139354,-30037.436489753305,-13292.448317104378,-38401.32515446248,0.0,0.0,0.0,193.0,0.0,194.0,0.0,0.0,0.0,179.0,194.0,0.0,179.0,1744420464.556414,0.0,2025-04-11 21:14:24.556,RIGHT,21
9.0,21938.326589861703,26756.982714770165,-32255.44479554234,-23997.436344317957,-36719.93752955646,-30020.538570945093,-13485.790906642784,-38417.84309361495,0.0,0.0,0.0,193.0,0.0,193.0,0.0,0.0,0.0,179.0,193.0,0.0,179.0,1744420464.556455,0.0,2025-04-11 21:14:24.556,RIGHT,21
10.0,21923.797955965754,26781.59198541546,-32239.709167445802,-23975.911614407494,-36704.64893634903,-29994.31997469902,-13818.787195537949,-38395.066666014995,0.0,0.0,0.0,193.0,0.0,193.0,0.0,0.0,0.0,179.0,193.0,0.0,179.0,1744420464.556496,0.0,2025-04-11 21:14:24.556,RIGHT,21
11.0,21931.06227291373,26787.694011651758,-32236.28935054414,-23969.161387581993,-36699.21746244639,-29992.777704331602,-13797.664797027684,-38380.806253052506,0.0,0.0,0.0,193.0,0.0,193.0,0.0,0.0,0.0,179.0,193.0,0.0,179.0,1744420464.5565372,0.0,2025-04-11 21:14:24.556,RIGHT,21
12.0,21953.77164528032,26782.44135170476,-32258.57403976608,-23990.060268647703,-36717.858817322114,-30021.432640723306,-13308.653331834475,-38379.37574140737,0.0,0.0,0.0,193.0,0.0,193.0,0.0,0.0,0.0,179.0,193.0,0.0,179.0,1744420464.556592,0.0,2025-04-11 21:14:24.556,RIGHT,21
13.0,21935.286752615782,26756.826252558978,-32265.34661833604,-24003.448963576433,-36723.33499471367,-30023.019614579633,-13408.65503652752,-38425.12976230738,0.0,0.0,0.0,193.0,0.0,194.0,0.0,1.0,0.0,179.0,194.0,1.0,179.0,1744420464.5566337,0.0,2025-04-11 21:14:24.556,RIGHT,21
14.0,21909.649301725545,26764.53760439606,-32261.926801434376,-23991.781352970764,-36719.78106734527,-30004.847646337468,-13759.15274133119,-38400.20756723971,0.0,0.0,0.0,193.0,0.0,194.0,0.0,2.0,0.0,180.0,194.0,2.0,180.0,1744420464.5566754,0.0,2025-04-11 21:14:24.556,RIGHT,21
15.0,21919.595828008158,26781.502578437638,-32249.85685942851,-23981.83482668815,-36708.02404976178,-29999.12559975691,-13846.391599940252,-38397.27948871607,0.0,0.0,0.0,193.0,0.0,193.0,0.0,3.0,0.0,179.0,193.0,3.0,179.0,1744420464.5567305,0.0,2025-04-11 21:14:24.556,RIGHT,21
16.0,21940.740578262878,26773.455950433727,-32272.968563195296,-24003.963053698906,-36735.40493671953,-30034.776632163124,-13374.41216402199,-38402.688610874255,0.0,0.0,0.0,193.0,0.0,193.0,0.0,4.0,0.0,179.0,193.0,4.0,179.0,1744420464.5567727,0.0,2025-04-11 21:14:24.556,RIGHT,21
17.0,21934.795014237763,26762.347133439438,-32279.271755131693,-24021.218600418404,-36738.80240187674,-30034.843687396493,-13370.813533164684,-38442.7205851937,0.0,0.0,0.0,193.0,0.0,193.0,0.0,5.0,0.0,179.0,193.0,5.0,179.0,1744420464.5568156,0.0,2025-04-11 21:14:24.556,RIGHT,21
18.0,21920.02051115281,26770.952555054733,-32260.9656764228,-23995.312928594703,-36719.64695687854,-30001.47253292472,-13713.71164485355,-38391.69155260224,0.0,0.0,0.0,193.0,0.0,193.0,0.0,6.0,0.0,179.0,193.0,6.0,179.0,1744420464.5568607,0.0,2025-04-11 21:14:24.556,RIGHT,21
19.0,21913.225580838392,26771.556052155025,-32252.00262689622,-23985.344050567634,-36709.45456140692,-29985.42398040581,-13855.175835511189,-38356.129927173846,0.0,0.0,0.0,193.0,0.0,193.0,0.0,7.0,0.0,179.0,193.0,7.0,179.0,1744420464.556904,0.0,2025-04-11 21:14:24.556,RIGHT,21
20.0,21949.904793489553,26781.815502860012,-32251.600295496024,-23982.348916810624,-36710.99683177433,-29996.733963100192,-13440.953307265438,-38346.22810438015,0.0,0.0,0.0,193.0,0.0,194.0,0.0,8.0,0.0,180.0,194.0,8.0,180.0,1744420464.5569675,0.0,2025-04-11 21:14:24.556,RIGHT,21
21.0,21947.379046366103,26757.563860126003,-32265.43602531386,-24004.454792076922,-36725.45841043692,-30008.155704516856,-13300.87492476403,-38394.68668635925,0.0,0.0,0.0,193.0,0.0,194.0,0.0,9.0,0.0,179.0,194.0,9.0,179.0,1744420464.557011,0.0,2025-04-11 21:14:24.557,RIGHT,21
22.0,21922.278037342792,26758.90496479332,-32263.759644479713,-23996.139943139548,-36721.65861387952,-29994.945823543767,-13632.463053758509,-38389.65754385681,0.0,0.0,0.0,193.0,0.0,193.0,0.0,10.0,0.0,179.0,193.0,10.0,179.0,1744420464.557053,0.0,2025-04-11 21:14:24.557,RIGHT,21
23.0,21914.499630272345,26776.764008613114,-32248.67221697238,-23978.236195830847,-36709.409857918006,-29978.58434660248,-13885.283635292488,-38377.43113963975,0.0,0.0,0.0,193.0,0.0,193.0,0.0,10.0,0.0,179.0,193.0,10.0,179.0,1744420464.5570953,0.0,2025-04-11 21:14:24.557,RIGHT,21
24.0,21934.549145048757,26775.244089990152,-32260.7645107227,-23984.360573811602,-36726.75481161533,-29997.56097764504,-13529.600325775185,-38345.579903790946,0.0,0.0,0.0,193.0,0.0,193.0,0.0,11.0,0.0,179.0,193.0,11.0,179.0,1744420464.557137,0.0,2025-04-11 21:14:24.557,RIGHT,21
25.0,21954.82217726972,26770.88549982137,-32262.776167723678,-23999.760925741306,-36726.8665703376,-30004.847646337468,-13281.495962321278,-38383.82373855397,0.0,0.0,0.0,193.0,0.0,194.0,0.0,11.0,0.0,179.0,194.0,11.0,179.0,1744420464.5571792,0.0,2025-04-11 21:14:24.557,RIGHT,21
26.0,21937.29840961676,26766.8174823305,-32251.644998984935,-23986.17106511248,-36712.337936441654,-29987.301526940053,-13579.40001242161,-38375.24066868313,0.0,0.0,0.0,193.0,0.0,194.0,0.0,12.0,0.0,180.0,194.0,12.0,180.0,1744420464.5572212,0.0,2025-04-11 21:14:24.557,RIGHT,21
27.0,21921.227505353392,26781.010840059622,-32240.647940712923,-23975.41987602948,-36704.82775030467,-29975.343343656463,-13876.320585765909,-38371.55263084801,0.0,0.0,0.0,193.0,0.0,193.0,0.0,12.0,0.0,179.0,193.0,12.0,179.0,1744420464.5572772,0.0,2025-04-11 21:14:24.557,RIGHT,21
28.0,21944.6297817981,26784.20713951673,-32239.79857442362,-23973.36351553959,-36709.92394804048,-29990.833102563993,-13653.026658657393,-38360.44381385372,0.0,0.0,0.0,193.0,0.0,193.0,0.0,12.0,0.0,179.0,193.0,12.0,179.0,1744420464.5573199,0.0,2025-04-11 21:14:24.557,RIGHT,21
29.0,21954.196328424972,26767.063351519508,-32260.250420600227,-24002.577245542678,-36731.582788417676,-30023.109021557455,-13284.893427478484,-38396.85480557142,0.0,0.0,0.0,193.0,0.0,193.0,0.0,13.0,0.0,180.0,193.0,13.0,180.0,1744420464.557362,0.0,2025-04-11 21:14:24.557,RIGHT,21
30.0,21938.326589861703,26761.83304331697,-32250.415653039894,-23993.904768694018,-36712.29323295275,-30008.46862893923,-13522.783043716317,-38400.67695387328,0.0,0.0,0.0,193.0,0.0,194.0,0.0,13.0,0.0,180.0,194.0,13.0,180.0,1744420464.5574179,0.0,2025-04-11 21:14:24.557,RIGHT,21
31.0,21917.695929729456,26774.417075445304,-32242.167859335885,-23982.326565066167,-36698.703372323915,-29994.252919465653,-13830.812434054904,-38387.869404300385,0.0,0.0,0.0,193.0,0.0,193.0,0.0,13.0,0.0,179.0,193.0,13.0,179.0,1744420464.55746,0.0,2025-04-11 21:14:24.557,RIGHT,21
32.0,21934.035054926284,26781.614337159914,-32237.049309855618,-23974.83873067364,-36691.863738520595,-29997.337460200484,-13726.698008382084,-38380.31451467449,0.0,0.0,0.0,193.0,0.0,193.0,0.0,14.0,0.0,179.0,193.0,14.0,179.0,1744420464.557502,0.0,2025-04-11 21:14:24.557,RIGHT,21
33.0,21949.14483417807,26767.242165475152,-32261.52447003418,-24004.968882199395,-36717.14356149954,-30030.41804199434,-13290.570770570133,-38403.20270099672,0.0,0.0,0.0,193.0,0.0,193.0,0.0,14.0,0.0,179.0,193.0,14.0,179.0,1744420464.5575445,0.0,2025-04-11 21:14:24.557,RIGHT,21
34.0,21934.258572370836,26753.7640635686,-32258.08230138806,-24005.684138021963,-36713.92491029798,-30019.532742444604,-13474.056240803748,-38423.721602406695,0.0,0.0,0.0,193.0,0.0,194.0,0.0,14.0,0.0,180.0,194.0,14.0,180.0,1744420464.557587,0.0,2025-04-11 21:14:24.557,RIGHT,21
35.0,21908.799935436244,26760.737807838657,-32253.94722866383,-23996.475219306376,-36702.57022411469,-30009.429753950808,-13793.77559349246,-38405.14730276434,0.0,0.0,0.0,193.0,0.0,194.0,0.0,14.0,0.0,180.0,194.0,14.0,180.0,1744420464.557643,0.0,2025-04-11 21:14:24.557,RIGHT,21
36.0,21919.95345591944,26761.67658110578,-32247.554629749615,-23989.948509925427,-36695.2612036778,-30009.586216161995,-13783.516142787474,-38403.940308563746,0.0,0.0,0.0,193.0,0.0,194.0,0.0,14.0,0.0,179.0,194.0,14.0,179.0,1744420464.5576856,0.0,2025-04-11 21:14:24.557,RIGHT,21
37.0,21949.81538651173,26762.68240960627,-32260.473938044783,-23998.777448985275,-36712.472046908384,-30020.113887800442,-13309.68151207942,-38381.58856410844,0.0,0.0,0.0,193.0,0.0,193.0,0.0,14.0,0.0,179.0,193.0,14.0,179.0,1744420464.5577276,0.0,2025-04-11 21:14:24.557,RIGHT,21
38.0,21936.024360182808,26747.706740821213,-32264.877231702478,-24009.08160317917,-36714.08137250917,-30012.402535963363,-13379.910693157995,-38407.918919076794,0.0,0.0,0.0,193.0,0.0,193.0,0.0,15.0,0.0,179.0,193.0,15.0,179.0,1744420464.55777,0.0,2025-04-11 21:14:24.557,RIGHT,21
39.0,21911.370386048602,26760.603697371924,-32258.886964188456,-24000.163257141503,-36708.35932592861,-30003.953576559255,-13749.988526104515,-38416.99372732565,0.0,0.0,0.0,193.0,0.0,194.0,0.0,15.0,0.0,180.0,194.0,15.0,180.0,1744420464.557812,0.0,2025-04-11 21:14:24.557,RIGHT,21
40.0,21916.444232039958,26771.846624832946,-32244.358330292504,-23981.968937154885,-36695.50707286681,-29984.909890283336,-13852.69479187665,-38392.11623574689,0.0,0.0,0.0,193.0,0.0,194.0,0.0,15.0,0.0,180.0,194.0,15.0,180.0,1744420464.5578542,0.0,2025-04-11 21:14:24.557,RIGHT,21
41.0,21937.72309276141,26765.25286021863,-32259.848089200033,-23991.580187270665,-36715.33307019866,-30003.104210269954,-13358.251852780802,-38353.470069583665,0.0,0.0,0.0,193.0,0.0,194.0,0.0,15.0,0.0,179.0,194.0,15.0,179.0,1744420464.557896,0.0,2025-04-11 21:14:24.557,RIGHT,21
42.0,21943.95922946444,26753.473490890683,-32257.992894410243,-23999.358594341113,-36714.97544228738,-29990.408419419342,-13328.50168091079,-38375.19596519422,0.0,0.0,0.0,193.0,0.0,193.0,0.0,15.0,0.0,179.0,193.0,15.0,179.0,1744420464.5579524,0.0,2025-04-11 21:14:24.557,RIGHT,21
43.0,21922.769775720808,26757.47445314818,-32254.416615297392,-23988.048611646725,-36706.72764858337,-29979.2772506806,-13671.869179233216,-38362.88015399935,0.0,0.0,0.0,193.0,0.0,193.0,0.0,15.0,0.0,179.0,193.0,15.0,179.0,1744420464.5579948,0.0,2025-04-11 21:14:24.557,RIGHT,21
44.0,21909.202266836437,26766.191633485752,-32251.10855711801,-23985.74638196783,-36706.83940730565,-29983.211157704733,-13856.606347156328,-38380.29216293003,0.0,0.0,0.0,193.0,0.0,193.0,0.0,15.0,0.0,179.0,193.0,15.0,179.0,1744420464.5580373,0.0,2025-04-11 21:14:24.558,RIGHT,21
45.0,21928.357711834637,26764.895232307343,-32264.34078983555,-23994.687079749954,-36724.229064491876,-30006.009937049144,-13474.279758248302,-38371.93261050375,0.0,0.0,0.0,193.0,0.0,194.0,0.0,15.0,0.0,180.0,194.0,15.0,180.0,1744420464.5580933,0.0,2025-04-11 21:14:24.558,RIGHT,21
46.0,21953.883404002598,26764.49290090715,-32246.459394271304,-23987.84744594663,-36703.75486657082,-29982.98764026018,-13307.401634144979,-38376.26884892808,0.0,0.0,0.0,193.0,0.0,194.0,0.0,15.0,0.0,180.0,194.0,15.0,180.0,1744420464.5581355,0.0,2025-04-11 21:14:24.558,RIGHT,21
47.0,21929.363540335125,26763.040037517552,-32245.118289603986,-23977.02920163026,-36703.59840435963,-29972.616430832917,-13609.753681391918,-38370.390340136335,0.0,0.0,0.0,193.0,0.0,194.0,0.0,15.0,0.0,180.0,194.0,15.0,180.0,1744420464.558178,0.0,2025-04-11 21:14:24.558,RIGHT,21
48.0,21919.305255330237,26783.424828460793,-32233.696548187323,-23963.707561934898,-36693.942450754934,-29959.87593649339,-13859.824998357893,-38364.69064530023,0.0,0.0,0.0,193.0,0.0,194.0,0.0,15.0,0.0,179.0,194.0,15.0,179.0,1744420464.5582201,0.0,2025-04-11 21:14:24.558,RIGHT,21
49.0,21938.326589861703,26780.899081337346,-32241.765527935688,-23966.07684684716,-36709.43220966247,-29980.193672203266,-13548.912232984572,-38346.58573229143,0.0,0.0,0.0,193.0,0.0,193.0,0.0,16.0,0.0,179.0,193.0,16.0,179.0,1744420464.558262,0.0,2025-04-11 21:14:24.558,RIGHT,21
50.0,21950.374180123115,26765.521081152092,-32254.95305716432,-23991.17785587047,-36725.72663137038,-30001.04784978007,-13282.837066988597,-38395.98308753766,0.0,0.0,0.0,193.0,0.0,193.0,0.0,16.0,0.0,179.0,193.0,16.0,179.0,1744420464.5583224,0.0,2025-04-11 21:14:24.558,RIGHT,21
51.0,21930.81640372472,26760.268421205095,-32246.705263460313,-23982.70654472191,-36717.56824464419,-29987.256823451142,-13589.614759637685,-38405.28141323107,0.0,0.0,0.0,193.0,0.0,193.0,0.0,16.0,0.0,179.0,193.0,16.0,179.0,1744420464.5583649,0.0,2025-04-11 21:14:24.558,RIGHT,21
52.0,21920.601656508643,26772.606584144425,-32237.496344744726,-23974.257585317802,-36704.514825882296,-29977.35500065744,-13888.055251604945,-38396.541881149045,0.0,0.0,0.0,193.0,0.0,193.0,0.0,16.0,0.0,179.0,193.0,16.0,179.0,1744420464.5584068,0.0,2025-04-11 21:14:24.558,RIGHT,21
53.0,21931.28579035828,26768.046828275543,-32246.95113264932,-23981.27603307677,-36709.29809919573,-29994.185864232288,-13653.89837669115,-38365.78588077854,0.0,0.0,0.0,193.0,0.0,193.0,0.0,16.0,0.0,180.0,193.0,16.0,180.0,1744420464.5584493,0.0,2025-04-11 21:14:24.558,RIGHT,21
54.0,21940.807633496242,26755.328685680473,-32266.508909047716,-24009.215713645903,-36724.27376798079,-30017.498733699173,-13271.169456382926,-38389.948116534724,0.0,0.0,0.0,193.0,0.0,194.0,0.0,16.0,0.0,180.0,194.0,16.0,180.0,1744420464.5584912,0.0,2025-04-11 21:14:24.558,RIGHT,21
55.0,21923.95441817694,26746.67856057627,-32255.86947868699,-23999.000966429827,-36706.14650322754,-29998.99148929018,-13505.527496996821,-38400.63225038436,0.0,0.0,0.0,193.0,0.0,194.0,0.0,16.0,0.0,180.0,194.0,16.0,180.0,1744420464.5585334,0.0,2025-04-11 21:14:24.558,RIGHT,21
56.0,21900.798010921244,26753.942877524245,-32254.170746108386,-23989.523826780776,-36702.36905841459,-29986.630974606393,-13823.771634551482,-38385.65658159931,0.0,0.0,0.0,193.0,0.0,194.0,0.0,16.0,0.0,179.0,194.0,16.0,179.0,1744420464.5585895,0.0,2025-04-11 21:14:24.558,RIGHT,21
57.0,21915.952493661942,26763.040037517552,-32251.890868173945,-23983.533559266754,-36702.03378224776,-29985.714553083726,-13718.04788327788,-38362.16489817678,0.0,0.0,0.0,193.0,0.0,193.0,0.0,16.0,0.0,179.0,193.0,16.0,179.0,1744420464.558632,0.0,2025-04-11 21:14:24.558,RIGHT,21
58.0,21944.562726564734,26767.95742129772,-32262.48559504576,-23994.08358264966,-36714.439000420454,-29998.07506776751,-13276.019784929727,-38363.885982499836,0.0,0.0,0.0,193.0,0.0,193.0,0.0,16.0,0.0,179.0,193.0,16.0,179.0,1744420464.558674,0.0,2025-04-11 21:14:24.558,RIGHT,21
59.0,21927.62010426761,26744.041054730544,-32262.19502236784,-23995.469390805887,-36708.60519511762,-29990.27430895261,-13434.314839162213,-38393.34558169193,0.0,0.0,0.0,193.0,0.0,193.0,0.0,16.0,0.0,179.0,193.0,16.0,179.0,1744420464.558716,0.0,2025-04-11 21:14:24.558,RIGHT,21
60.0,21909.001101136342,26756.558031625515,-32249.43217628386,-23979.063210375694,-36693.31660191019,-29971.78941628807,-13757.476360497041,-38369.42921512476,0.0,0.0,0.0,193.0,0.0,193.0,0.0,16.0,0.0,179.0,193.0,16.0,179.0,1744420464.5587711,0.0,2025-04-11 21:14:24.558,RIGHT,21
61.0,21915.080775628183,26763.352961939927,-32246.14646984893,-23977.923271408472,-36694.54594785523,-29976.08095122349,-13777.436468295631,-38369.83154652495,0.0,0.0,0.0,193.0,0.0,193.0,0.0,16.0,0.0,179.0,193.0,16.0,179.0,1744420464.5588138,0.0,2025-04-11 21:14:24.558,RIGHT,21
62.0,21949.502462089356,26770.19259574325,-32255.534202520157,-23984.785256956253,-36706.0123927608,-29995.571672388516,-13305.367625399545,-38364.17655517776,0.0,0.0,0.0,193.0,0.0,193.0,0.0,16.0,0.0,179.0,193.0,16.0,179.0,1744420464.558856,0.0,2025-04-11 21:14:24.558,RIGHT,21
63.0,21933.72213050391,26745.471566375683,-32264.273734602182,-23998.84450421864,-36712.56145388621,-29992.196558975764,-13380.022451880272,-38402.50979691861,0.0,0.0,0.0,193.0,0.0,194.0,0.0,16.0,0.0,180.0,194.0,16.0,180.0,1744420464.5588984,0.0,2025-04-11 21:14:24.558,RIGHT,21
64.0,21913.42674653849,26757.183880470264,-32258.417577554894,-23985.187588356446,-36706.07944799417,-29975.857433778936,-13730.363694472755,-38376.98410475065,0.0,0.0,0.0,193.0,0.0,193.0,0.0,16.0,0.0,179.0,193.0,16.0,179.0,1744420465.0342312,0.0,2025-04-11 21:14:25.034,RIGHT,21
65.0,21917.740633218364,26771.600755643936,-32250.929743162364,-23980.18079759846,-36699.99977350233,-29976.013895990123,-13837.607364369318,-38374.19013669374,0.0,0.0,0.0,193.0,0.0,193.0,0.0,16.0,0.0,179.0,193.0,16.0,179.0,1744420465.0344586,0.0,2025-04-11 21:14:25.034,RIGHT,21
66.0,21940.829985240696,26770.01378178761,-32271.0686649166,-23995.894073950538,-36720.876302823584,-30006.836951593992,-13391.354786319112,-38381.90148853081,0.0,0.0,0.0,193.0,0.0,193.0,0.0,16.0,0.0,179.0,193.0,16.0,179.0,1744420465.03451,0.0,2025-04-11 21:14:25.034,RIGHT,21
67.0,21939.73474976239,26757.1168252369,-32278.91412722041,-24012.300254380734,-36738.64593966555,-30012.491942941186,-13370.41120176449,-38441.29007354857,0.0,0.0,0.0,193.0,0.0,193.0,0.0,16.0,0.0,179.0,193.0,16.0,179.0,1744420465.0345588,0.0,2025-04-11 21:14:25.034,RIGHT,21
68.0,21926.882496700586,26772.807749844524,-32257.47880428777,-23983.578262755665,-36710.88507305206,-29981.06539023702,-13718.964304800547,-38397.48065441616,0.0,0.0,0.0,193.0,0.0,193.0,0.0,16.0,0.0,179.0,193.0,16.0,179.0,1744420465.034608,0.0,2025-04-11 21:14:25.034,RIGHT,21
69.0,21916.421880295504,26775.802883601533,-32248.62751348347,-23974.481102762355,-36691.97549724287,-29975.11982621191,-13856.986326812068,-38363.953037733205,0.0,0.0,0.0,193.0,0.0,194.0,0.0,16.0,0.0,180.0,194.0,16.0,180.0,1744420465.0346565,0.0,2025-04-11 21:14:25.034,RIGHT,21
70.0,21939.511232317833,26771.757217855124,-32262.083263645563,-23980.024335387272,-36710.0133550183,-29994.27527121011,-13443.322592177701,-38344.529371801545,0.0,0.0,0.0,193.0,0.0,194.0,0.0,16.0,0.0,180.0,194.0,16.0,180.0,1744420465.0347073,0.0,2025-04-11 21:14:25.034,RIGHT,21
71.0,21945.00976145384,26755.731017080667,-32269.258173615715,-23997.324585595677,-36718.26114872231,-30000.064373024034,-13285.809849001153,-38395.312535204,0.0,0.0,0.0,193.0,0.0,193.0,0.0,16.0,0.0,179.0,193.0,16.0,179.0,1744420465.0347779,0.0,2025-04-11 21:14:25.034,RIGHT,21
72.0,21923.86501119912,26753.406435657318,-32263.759644479713,-23985.187588356446,-36709.968651529394,-29977.60086984645,-13616.369797750689,-38378.72754081816,0.0,0.0,0.0,193.0,0.0,193.0,0.0,17.0,0.0,179.0,193.0,17.0,179.0,1744420465.0348265,0.0,2025-04-11 21:14:25.034,RIGHT,21
73.0,21911.99623489335,26768.359752697917,-32253.544897263637,-23974.36934404008,-36697.33991591215,-29965.665038307317,-13866.105838549835,-38371.507927359096,0.0,0.0,0.0,193.0,0.0,193.0,0.0,17.0,0.0,179.0,193.0,17.0,179.0,1744420465.034875,0.0,2025-04-11 21:14:25.034,RIGHT,21
74.0,21937.43252008349,26775.691124879257,-32255.154222864418,-23972.067114361183,-36702.72668632587,-29975.835082034482,-13567.01714599337,-38357.8510114969,0.0,0.0,0.0,193.0,0.0,194.0,0.0,17.0,0.0,180.0,194.0,17.0,180.0,1744420465.0349228,0.0,2025-04-11 21:14:25.034,RIGHT,21
75.0,21948.474281844414,26759.0167235156,-32269.034656171163,-23994.307100094215,-36718.26114872231,-29988.977907774202,-13261.781723711698,-38380.85095654141,0.0,0.0,0.0,193.0,0.0,194.0,0.0,17.0,0.0,180.0,194.0,17.0,180.0,1744420465.0349877,0.0,2025-04-11 21:14:25.034,RIGHT,21
76.0,21926.703682744945,26755.373389169385,-32259.57986826657,-23980.627832487564,-36707.28644219475,-29965.84385226296,-13550.409799863077,-38372.3572936484,0.0,0.0,0.0,193.0,0.0,194.0,0.0,17.0,0.0,180.0,194.0,17.0,180.0,1744420465.035036,0.0,2025-04-11 21:14:25.035,RIGHT,21
77.0,21911.459793026424,26771.936031810765,-32251.24266758474,-23969.049628859717,-36699.37392465758,-29956.567878314007,-13858.036858801468,-38366.59054357893,0.0,0.0,0.0,193.0,0.0,193.0,0.0,17.0,0.0,179.0,193.0,17.0,179.0,1744420465.035084,0.0,2025-04-11 21:14:25.035,RIGHT,21
78.0,21933.409206081535,26779.021534803098,-32247.62168498298,-23965.11572183558,-36697.228157189864,-29968.011971475124,-13662.906129706638,-38360.26499989808,0.0,0.0,0.0,193.0,0.0,193.0,0.0,17.0,0.0,179.0,193.0,17.0,179.0,1744420465.0351324,0.0,2025-04-11 21:14:25.035,RIGHT,21
79.0,21949.658924300544,26765.185804985264,-32264.43019681337,-23990.88728319255,-36715.69069810995,-29993.045925265065,-13262.765200467731,-38382.59439260893,0.0,0.0,0.0,193.0,0.0,194.0,0.0,17.0,0.0,180.0,194.0,17.0,180.0,1744420465.0351803,0.0,2025-04-11 21:14:25.035,RIGHT,21
80.0,21932.448081069957,26749.986618755654,-32259.5128130332,-23989.4120680585,-36708.5157881398,-29979.724285569704,-13494.396328258077,-38386.036561255045,0.0,0.0,0.0,193.0,0.0,194.0,0.0,17.0,0.0,180.0,194.0,17.0,180.0,1744420465.0352423,0.0,2025-04-11 21:14:25.035,RIGHT,21
81.0,21902.742612688853,26748.019665243588,-32252.38260655196,-23980.94075690994,-36698.859834535106,-29970.56007034303,-13804.705596531106,-38360.510869087084,0.0,0.0,0.0,193.0,0.0,193.0,0.0,17.0,0.0,179.0,193.0,17.0,179.0,1744420465.0352905,0.0,2025-04-11 21:14:25.035,RIGHT,21
82.0,21925.6755025,26764.62701137388,-32239.79857442362,-23969.429608515456,-36692.86956702108,-29969.666000564815,-13725.021627547936,-38349.49145907062,0.0,0.0,0.0,193.0,0.0,193.0,0.0,17.0,0.0,179.0,193.0,17.0,179.0,1744420465.035338,0.0,2025-04-11 21:14:25.035,RIGHT,21
83.0,21953.659886558045,26766.683371863768,-32252.069682129586,-23983.578262755665,-36710.34863118513,-29993.291794454075,-13275.617453529532,-38360.48851734263,0.0,0.0,0.0,193.0,0.0,194.0,0.0,17.0,0.0,180.0,194.0,17.0,180.0,1744420465.0353856,0.0,2025-04-11 21:14:25.035,RIGHT,21
84.0,21935.286752615782,26747.036188487553,-32251.75675770721,-23987.35570756861,-36709.78983757375,-29990.877806052904,-13427.452853614433,-38401.10163701793,0.0,0.0,0.0,193.0,0.0,194.0,0.0,17.0,0.0,180.0,194.0,17.0,180.0,1744420465.0354338,0.0,2025-04-11 21:14:25.035,RIGHT,21
85.0,21909.09050811416,26757.09447349244,-32244.917123903888,-23975.129303351558,-36699.4633316354,-29981.64653559286,-13768.227549580044,-38387.80234906702,0.0,0.0,0.0,193.0,0.0,194.0,0.0,17.0,0.0,180.0,194.0,17.0,180.0,1744420465.035482,0.0,2025-04-11 21:14:25.035,RIGHT,21
86.0,21916.645397740056,26771.600755643936,-32234.501210987713,-23965.249832302314,-36691.01437223129,-29977.77968380209,-13807.968951221581,-38381.812081553,0.0,0.0,0.0,193.0,0.0,193.0,0.0,17.0,0.0,179.0,193.0,17.0,179.0,1744420465.035544,0.0,2025-04-11 21:14:25.035,RIGHT,21
87.0,21944.428616098,26777.233395246672,-32254.841298442043,-23982.125399366072,-36718.95405280043,-30006.144047515878,-13339.230518249336,-38386.14831997732,0.0,0.0,0.0,193.0,0.0,193.0,0.0,17.0,0.0,179.0,193.0,17.0,179.0,1744420465.0355928,0.0,2025-04-11 21:14:25.035,RIGHT,21
88.0,21940.852336985154,26760.648400860835,-32261.747987478735,-23994.709431494408,-36730.375794217085,-30002.32189921402,-13400.630760268064,-38425.263872774114,0.0,0.0,0.0,193.0,0.0,194.0,0.0,17.0,0.0,180.0,194.0,17.0,180.0,1744420465.0356412,0.0,2025-04-11 21:14:25.035,RIGHT,21
89.0,21920.109918130627,26763.352961939927,-32247.018187882688,-23972.625907972564,-36706.07944799417,-29975.54450935656,-13728.396740960687,-38366.41172962329,0.0,0.0,0.0,193.0,0.0,194.0,0.0,17.0,0.0,180.0,194.0,17.0,180.0,1744420465.0357032,0.0,2025-04-11 21:14:25.035,RIGHT,21
90.0,21923.44032805447,26772.383066699873,-32238.837449412043,-23967.775579425765,-36691.439055375944,-29975.45510237874,-13828.800777053926,-38365.45060461171,0.0,0.0,0.0,193.0,0.0,194.0,0.0,17.0,0.0,180.0,194.0,17.0,180.0,1744420465.0357513,0.0,2025-04-11 21:14:25.035,RIGHT,21
91.0,21953.637534813588,26778.038058047066,-32256.540031020646,-23978.236195830847,-36715.31071845421,-29997.963309045233,-13394.752251476319,-38368.19986917971,0.0,0.0,0.0,193.0,0.0,193.0,0.0,17.0,0.0,179.0,193.0,17.0,179.0,1744420465.035797,0.0,2025-04-11 21:14:25.035,RIGHT,21
92.0,21950.910621990042,26760.179014227273,-32262.44089155685,-23994.217693116392,-36716.49536091034,-29997.1809979893,-13327.942887299407,-38404.78967485305,0.0,0.0,0.0,193.0,0.0,194.0,0.0,17.0,0.0,180.0,194.0,17.0,180.0,1744420465.0358448,0.0,2025-04-11 21:14:25.035,RIGHT,21
93.0,21925.58609552218,26770.416113187806,-32251.9132199184,-23977.677402219466,-36701.45263689192,-29971.87882326589,-13657.228786614989,-38377.11821521738,0.0,0.0,0.0,193.0,0.0,194.0,0.0,17.0,0.0,180.0,194.0,17.0,180.0,1744420465.0358925,0.0,2025-04-11 21:14:25.035,RIGHT,21
94.0,21922.836830954177,26785.414133717317,-32239.038615112142,-23965.65216370251,-36691.97549724287,-29960.36767487141,-13861.79195186996,-38369.09393895792,0.0,0.0,0.0,193.0,0.0,194.0,0.0,17.0,0.0,179.0,194.0,17.0,179.0,1744420465.0359826,0.0,2025-04-11 21:14:25.035,RIGHT,21
95.0,21951.00002896786,26787.44814246275,-32250.23683908425,-23969.988402126837,-36705.85593054962,-29982.898233282358,-13491.892932879084,-38355.05704343999,0.0,0.0,0.0,193.0,0.0,193.0,0.0,17.0,0.0,179.0,193.0,17.0,179.0,1744420465.0360594,0.0,2025-04-11 21:14:25.036,RIGHT,21
96.0,21953.25755515785,26771.91368006631,-32263.49142354625,-23991.803704715217,-36717.47883766638,-29990.184901974786,-13283.731136766808,-38387.89175604484,0.0,0.0,0.0,193.0,0.0,193.0,0.0,17.0,0.0,179.0,193.0,17.0,179.0,1744420465.0361087,0.0,2025-04-11 21:14:25.036,RIGHT,21
97.0,21925.630799011087,26767.53273815307,-32260.80921421161,-23983.89118717804,-36714.39429693155,-29975.902137267847,-13596.901428330117,-38375.7100553167,0.0,0.0,0.0,193.0,0.0,194.0,0.0,17.0,0.0,180.0,194.0,17.0,180.0,1744420465.0361571,0.0,2025-04-11 21:14:25.036,RIGHT,21
98.0,21920.86987744211,26785.794113373056,-32242.72665294727,-23965.96508812488,-36695.93175601146,-29958.8701079929,-13870.866760118815,-38361.13671793183,0.0,0.0,0.0,193.0,0.0,193.0,0.0,17.0,0.0,179.0,193.0,17.0,179.0,1744420465.0362055,0.0,2025-04-11 21:14:25.036,RIGHT,21
99.0,21940.874688729607,26785.50354069514,-32250.259190828707,-23971.37421028307,-36707.75582882832,-29978.78551230258,-13588.11719275918,-38352.64305503882,0.0,0.0,0.0,193.0,0.0,193.0,0.0,17.0,0.0,180.0,193.0,17.0,180.0,1744420465.0362537,0.0,2025-04-11 21:14:25.036,RIGHT,21
100.0,21955.023342969816,26774.640592889857,-32259.356350822018,-23992.27309134878,-36718.93170105597,-29994.78936133258,-13281.987700699294,-38389.814006067994,0.0,0.0,0.0,193.0,0.0,194.0,0.0,17.0,0.0,179.0,194.0,17.0,179.0,1744420465.036302,0.0,2025-04-11 21:14:25.036,RIGHT,21
101.0,21933.76683399282,26760.9166217943,-32254.506022275214,-23985.835788945653,-36708.918119539994,-29976.907965768336,-13558.367020889167,-38382.72850307566,0.0,0.0,0.0,193.0,0.0,193.0,0.0,17.0,0.0,179.0,193.0,17.0,179.0,1744420465.0363653,0.0,2025-04-11 21:14:25.036,RIGHT,21
102.0,21916.176011106494,26772.986563800165,-32245.788841937643,-23977.096256863628,-36692.82486353217,-29966.603811574438,-13847.173910996189,-38352.285427127536,0.0,0.0,0.0,193.0,0.0,193.0,0.0,17.0,0.0,179.0,193.0,17.0,179.0,1744420465.0364137,0.0,2025-04-11 21:14:25.036,RIGHT,21
103.0,21939.48888057338,26783.000145316142,-32236.222295310774,-23969.720181193374,-36689.18152918596,-29973.46579712222,-13675.13253392369,-38343.34472934541,0.0,0.0,0.0,193.0,0.0,194.0,0.0,17.0,0.0,180.0,194.0,17.0,180.0,1744420465.0364678,0.0,2025-04-11 21:14:25.036,RIGHT,21
104.0,21957.325572648715,26771.936031810765,-32252.51671701869,-23991.401373315024,-36707.57701487267,-29999.50557941265,-13261.334688822591,-38368.31162790199,0.0,0.0,0.0,193.0,0.0,193.0,0.0,17.0,0.0,179.0,193.0,17.0,179.0,1744420465.0365312,0.0,2025-04-11 21:14:25.036,RIGHT,21
105.0,21941.455834085446,26762.168319483797,-32249.767452450687,-23990.552007025723,-36703.061962492706,-29989.55905313004,-13483.153400797059,-38387.82470081147,0.0,0.0,0.0,193.0,0.0,193.0,0.0,17.0,0.0,180.0,193.0,17.0,180.0,1744420465.0365791,0.0,2025-04-11 21:14:25.036,RIGHT,21
106.0,21922.635665254078,26784.67652615029,-32236.51286798869,-23972.514149250288,-36687.86277626309,-29968.414302875317,-13807.678378543662,-38352.19602014971,0.0,0.0,0.0,193.0,0.0,193.0,0.0,17.0,0.0,180.0,193.0,17.0,180.0,1744420465.0366268,0.0,2025-04-11 21:14:25.036,RIGHT,21
107.0,21925.76490947782,26790.666793664313,-32238.61393196749,-23974.324640551167,-36694.88122402206,-29983.188805960275,-13758.549244230897,-38363.193078421726,0.0,0.0,0.0,193.0,0.0,194.0,0.0,17.0,0.0,180.0,194.0,17.0,180.0,1744420465.0366745,0.0,2025-04-11 21:14:25.036,RIGHT,21
108.0,21948.898964989065,26769.790264343057,-32258.28346708816,-23996.27405360628,-36718.73053535587,-30015.084745298,-13310.73204406882,-38383.15318622031,0.0,0.0,0.0,193.0,0.0,194.0,0.0,17.0,0.0,180.0,194.0,17.0,180.0,1744420465.0367224,0.0,2025-04-11 21:14:25.036,RIGHT,21
109.0,21935.264400871325,26749.09254897744,-32253.05315888562,-23996.5646262842,-36704.60423286012,-30003.193617247776,-13431.967905994405,-38402.08511377396,0.0,0.0,0.0,193.0,0.0,193.0,0.0,17.0,0.0,179.0,193.0,17.0,179.0,1744420465.036784,0.0,2025-04-11 21:14:25.036,RIGHT,21
110.0,21919.171144863503,26767.756255597622,-32243.15133609192,-23978.32560280867,-36697.250508934325,-29985.289869939075,-13768.16049434668,-38377.31938091748,0.0,0.0,0.0,193.0,0.0,193.0,0.0,17.0,0.0,179.0,193.0,17.0,179.0,1744420465.036832,0.0,2025-04-11 21:14:25.036,RIGHT,21
111.0,21921.518078031313,26778.127465024885,-32240.580885479558,-23975.062248118193,-36702.413761903495,-29988.307355440542,-13829.3148671764,-38380.940363519236,0.0,0.0,0.0,193.0,0.0,194.0,0.0,17.0,0.0,180.0,194.0,17.0,180.0,1744420465.03688,0.0,2025-04-11 21:14:25.036,RIGHT,21
112.0,21953.34696213567,26787.71636339621,-32241.765527935688,-23975.129303351558,-36703.35253517062,-29998.74562010117,-13366.49964648481,-38368.93747674674,0.0,0.0,0.0,193.0,0.0,194.0,0.0,17.0,0.0,179.0,194.0,17.0,179.0,1744420465.0369277,0.0,2025-04-11 21:14:25.036,RIGHT,21
113.0,21946.172052165515,26764.62701137388,-32247.778147194167,-23991.17785587047,-36709.87924455157,-30003.88652132589,-13382.145867603525,-38411.003459811625,0.0,0.0,0.0,193.0,0.0,193.0,0.0,17.0,0.0,179.0,193.0,17.0,179.0,1744420465.036976,0.0,2025-04-11 21:14:25.036,RIGHT,21
114.0,21919.461717541424,26769.58909864296,-32248.29223731664,-23983.5112075223,-36713.23200621987,-29999.818503835024,-13728.039113049403,-38407.82951209897,0.0,0.0,0.0,193.0,0.0,193.0,0.0,17.0,0.0,179.0,193.0,17.0,179.0,1744420465.0370238,0.0,2025-04-11 21:14:25.037,RIGHT,21
115.0,21926.033130411284,26783.849511605444,-32229.181495807352,-23965.585108469142,-36692.06490422069,-29985.893367039367,-13878.578111955896,-38395.066666014995,0.0,0.0,0.0,193.0,0.0,193.0,0.0,17.0,0.0,179.0,193.0,17.0,179.0,1744420465.037072,0.0,2025-04-11 21:14:25.037,RIGHT,21
116.0,21947.826081255207,26780.20617725923,-32246.0123593822,-23971.75418993881,-36705.3641921716,-30000.757277102148,-13414.824117997185,-38351.21254339368,0.0,0.0,0.0,193.0,0.0,194.0,0.0,17.0,0.0,180.0,194.0,17.0,180.0,1744420465.037139,0.0,2025-04-11 21:14:25.037,RIGHT,21
117.0,21941.858165485643,26759.82138631599,-32259.557516522113,-23994.55296928322,-36723.7149743694,-30009.02742255061,-13311.670817335942,-38398.285317216556,0.0,0.0,0.0,193.0,0.0,193.0,0.0,17.0,0.0,179.0,193.0,17.0,179.0,1744420465.0371869,0.0,2025-04-11 21:14:25.037,RIGHT,21
118.0,21924.58026702169,26769.075008520485,-32247.66638847189,-23980.203149342913,-36711.019183518794,-29985.78160831709,-13662.280280861889,-38387.35531417791,0.0,0.0,0.0,193.0,0.0,193.0,0.0,17.0,0.0,179.0,193.0,17.0,179.0,1744420465.0372343,0.0,2025-04-11 21:14:25.037,RIGHT,21
119.0,21915.639569239567,26785.235319761672,-32240.513830246193,-23970.07780910466,-36704.73834332685,-29976.907965768336,-13890.022205117013,-38380.7615495636,0.0,0.0,0.0,193.0,0.0,194.0,0.0,17.0,0.0,179.0,194.0,17.0,179.0,1744420465.037296,0.0,2025-04-11 21:14:25.037,RIGHT,21
120.0,21947.133177177093,26800.143933313364,-32240.066795357085,-23962.41116075649,-36710.102761996124,-29987.122712984412,-13545.850043994194,-38373.02784598206,0.0,0.0,0.0,193.0,0.0,193.0,0.0,17.0,0.0,179.0,193.0,17.0,179.0,1744420465.0373442,0.0,2025-04-11 21:14:25.037,RIGHT,21
121.0,21947.602563810655,26774.685296378768,-32253.99193215274,-23985.344050567634,-36723.2679394803,-29998.857378823446,-13315.15768947097,-38399.64877362833,0.0,0.0,0.0,193.0,0.0,193.0,0.0,17.0,0.0,179.0,193.0,17.0,179.0,1744420465.037392,0.0,2025-04-11 21:14:25.037,RIGHT,21
122.0,21925.943723433462,26767.286868964064,-32248.068719872084,-23975.5092830073,-36715.780105087775,-29979.724285569704,-13615.609838439208,-38378.74989256262,0.0,0.0,0.0,193.0,0.0,193.0,0.0,17.0,0.0,179.0,193.0,17.0,179.0,1744420465.0374396,0.0,2025-04-11 21:14:25.037,RIGHT,21
123.0,21917.003025651342,26780.764970870612,-32236.557571477602,-23962.344105523123,-36702.81609330369,-29969.084855208977,-13902.025091889513,-38376.02297973907,0.0,0.0,0.0,193.0,0.0,194.0,0.0,17.0,0.0,180.0,194.0,17.0,180.0,1744420465.0374873,0.0,2025-04-11 21:14:25.037,RIGHT,21
124.0,21937.410168339036,26784.900043594844,-32239.41859476788,-23961.561794467187,-36700.93854676945,-29981.55712861504,-13618.448509985032,-38356.21933415167,0.0,0.0,0.0,193.0,0.0,193.0,0.0,17.0,0.0,179.0,193.0,17.0,179.0,1744420465.0375476,0.0,2025-04-11 21:14:25.037,RIGHT,21
125.0,21952.229374912906,26772.96421205571,-32253.231972841262,-23982.326565066167,-36712.87437830858,-29989.156721729843,-13261.826427200607,-38359.92972373125,0.0,0.0,0.0,193.0,0.0,194.0,0.0,17.0,0.0,180.0,194.0,17.0,180.0,1744420465.0375955,0.0,2025-04-11 21:14:25.037,RIGHT,21
126.0,21926.18959262247,26758.97202002669,-32251.7120542183,-23981.723067965875,-36709.186340473454,-29974.583384344984,-13531.232003120424,-38359.63915105333,0.0,0.0,0.0,193.0,0.0,193.0,0.0,17.0,0.0,179.0,193.0,17.0,179.0,1744420465.0376432,0.0,2025-04-11 21:14:25.037,RIGHT,21
127.0,21909.828115681186,26782.463703449215,-32239.977388379266,-23968.46848350388,-36698.63631709055,-29962.11111093892,-13849.74436160855,-38356.06287194048,0.0,0.0,0.0,193.0,0.0,194.0,0.0,17.0,0.0,180.0,194.0,17.0,180.0,1744420465.0376909,0.0,2025-04-11 21:14:25.037,RIGHT,21
128.0,21926.994255422862,26790.555034942037,-32237.116365088987,-23962.88054739005,-36691.707276309404,-29970.82829127649,-13710.09066225179,-38339.88020895484,0.0,0.0,0.0,193.0,0.0,194.0,0.0,17.0,0.0,180.0,194.0,17.0,180.0,1744420465.037738,0.0,2025-04-11 21:14:25.037,RIGHT,21
129.0,21944.741540520376,26787.850473862945,-32253.656655985913,-23984.13705636705,-36699.99977350233,-29992.084800253488,-13280.087802420594,-38345.46814506866,0.0,0.0,0.0,193.0,0.0,193.0,0.0,17.0,0.0,179.0,193.0,17.0,179.0,1744420465.0377858,0.0,2025-04-11 21:14:25.037,RIGHT,21
130.0,21932.6268950256,26756.580383369972,-32257.009417654208,-23995.201169872424,-36700.93854676945,-29994.722306099215,-13468.781229112295,-38380.98506700815,0.0,0.0,0.0,193.0,0.0,193.0,0.0,17.0,0.0,179.0,193.0,17.0,179.0,1744420465.0378468,0.0,2025-04-11 21:14:25.037,RIGHT,21
131.0,21913.493801771856,26762.39183692835,-32246.682911715856,-23983.779428455764,-36692.93662225445,-29983.54643387156,-13815.479137358563,-38375.86651752788,0.0,0.0,0.0,193.0,0.0,193.0,0.0,17.0,0.0,179.0,193.0,17.0,179.0,1744420465.0378945,0.0,2025-04-11 21:14:25.037,RIGHT,21
132.0,21926.323703089205,26778.73096212518,-32230.455545241304,-23962.67938168995,-36681.716046537884,-29970.2247941762,-13774.128410116246,-38350.69845327121,0.0,0.0,0.0,193.0,0.0,194.0,0.0,17.0,0.0,180.0,194.0,17.0,180.0,1744420465.0379422,0.0,2025-04-11 21:14:25.037,RIGHT,21
133.0,21952.6317063131,26784.117732538907,-32244.7606616927,-23976.51511150779,-36697.42932288996,-29992.93416654279,-13288.983796713806,-38343.92587470125,0.0,0.0,0.0,193.0,0.0,193.0,0.0,17.0,0.0,179.0,193.0,17.0,179.0,1744420465.03799,0.0,2025-04-11 21:14:25.037,RIGHT,21
134.0,21932.604543281144,26757.452101403727,-32253.38843505245,-23992.764829726795,-36706.750000327826,-29997.69508811177,-13395.489859043344,-38389.478729901166,0.0,0.0,0.0,193.0,0.0,193.0,0.0,17.0,0.0,179.0,193.0,17.0,179.0,1744420465.038052,0.0,2025-04-11 21:14:25.038,RIGHT,21
135.0,21910.208095336926,26765.386970685362,-32242.637245969447,-23975.911614407494,-36695.082389722156,-29979.724285569704,-13757.141084330213,-38378.436968140246,0.0,0.0,0.0,193.0,0.0,193.0,0.0,17.0,0.0,179.0,193.0,17.0,179.0,1744420465.0381,0.0,2025-04-11 21:14:25.038,RIGHT,21
136.0,21919.484069285878,26778.283927236072,-32234.791783665634,-23969.02727711526,-36690.2097094309,-29977.533814613085,-13836.422721913186,-38383.957849020706,0.0,0.0,0.0,193.0,0.0,194.0,0.0,17.0,0.0,179.0,194.0,17.0,179.0,1744420465.0381477,0.0,2025-04-11 21:14:25.038,RIGHT,21
137.0,21945.188575409484,26779.69208713676,-32252.33790306305,-23982.84065518864,-36715.02014577629,-30000.04202127958,-13377.608463479099,-38376.13473846135,0.0,0.0,0.0,193.0,0.0,193.0,0.0,17.0,0.0,180.0,193.0,17.0,180.0,1744420465.0381956,0.0,2025-04-11 21:14:25.038,RIGHT,21
138.0,21942.461662585934,26763.263554962108,-32258.35052232153,-23998.241007118348,-36722.50798016882,-30001.22666373571,-13383.531675759754,-38414.624442413384,0.0,0.0,0.0,193.0,0.0,194.0,0.0,17.0,0.0,180.0,194.0,17.0,180.0,1744420465.0382433,0.0,2025-04-11 21:14:25.038,RIGHT,21
139.0,21924.557915277233,26775.40055220134,-32245.8111936821,-23976.805684185707,-36705.45359914942,-29979.299602425053,-13725.960400815058,-38394.50787240361,0.0,0.0,0.0,193.0,0.0,193.0,0.0,17.0,0.0,179.0,193.0,17.0,179.0,1744420465.038304,0.0,2025-04-11 21:14:25.038,RIGHT,21
140.0,21924.222639110405,26783.96127032772,-32233.38362376495,-23964.869852646574,-36692.44488387643,-29968.481358108686,-13872.36432699732,-38375.73240706115,0.0,0.0,0.0,193.0,0.0,193.0,0.0,17.0,0.0,179.0,193.0,17.0,179.0,1744420465.0383515,0.0,2025-04-11 21:14:25.038,RIGHT,21
141.0,21943.5792498087,26776.115808023907,-32254.282504830662,-23984.673498233977,-36715.422477176486,-30006.814599849535,-13442.428522399488,-38371.06089246999,0.0,0.0,0.0,193.0,0.0,194.0,0.0,17.0,0.0,180.0,194.0,17.0,180.0,1744420465.0383992,0.0,2025-04-11 21:14:25.038,RIGHT,21
142.0,21941.20996489644,26756.53567988106,-32263.111443890506,-24005.862951977608,-36722.88795982456,-30017.364623232443,-13335.698942625397,-38428.50487572013,0.0,0.0,0.0,193.0,0.0,194.0,0.0,17.0,0.0,180.0,194.0,17.0,180.0,1744420465.038448,0.0,2025-04-11 21:14:25.038,RIGHT,21
143.0,21924.222639110405,26764.15762474032,-32252.673179229878,-23987.646280246532,-36709.29809919573,-29989.98373627469,-13653.071362146302,-38394.95490729272,0.0,0.0,0.0,193.0,0.0,194.0,0.0,17.0,0.0,180.0,194.0,17.0,180.0,1744420465.0384965,0.0,2025-04-11 21:14:25.038,RIGHT,21
144.0,21908.419955780504,26768.091531764454,-32249.186307094853,-23977.65505047501,-36709.87924455157,-29979.21019544723,-13904.506135524052,-38387.60118336692,0.0,0.0,0.0,193.0,0.0,194.0,0.0,17.0,0.0,180.0,194.0,17.0,180.0,1744420465.038545,0.0,2025-04-11 21:14:25.038,RIGHT,21
145.0,21933.34215084817,26771.44429343275,-32250.72857746227,-23974.905785907005,-36710.97448002988,-29995.70578285525,-13565.363116903678,-38369.11629070238,0.0,0.0,0.0,193.0,0.0,194.0,0.0,17.0,0.0,180.0,194.0,17.0,180.0,1744420465.0388088,0.0,2025-04-11 21:14:25.038,RIGHT,21
146.0,21950.664752801033,26762.88357530637,-32255.265981586694,-23990.775524470275,-36713.7684480868,-30001.718402113725,-13289.699052536376,-38387.28825894454,0.0,0.0,0.0,193.0,0.0,194.0,0.0,17.0,0.0,180.0,194.0,17.0,180.0,1744420465.0388553,0.0,2025-04-11 21:14:25.038,RIGHT,21
147.0,21929.899982202052,26761.497767150136,-32245.118289603986,-23976.179835340958,-36700.379753158064,-29979.724285569704,-13582.037518267336,-38363.304837144,0.0,0.0,0.0,193.0,0.0,194.0,0.0,17.0,0.0,179.0,194.0,17.0,179.0,1744420465.038898,0.0,2025-04-11 21:14:25.038,RIGHT,21
148.0,21918.254723340837,26777.032229546578,-32232.087222586542,-23963.640506701533,-36687.102816951614,-29973.89048026687,-13867.581053683884,-38370.50209885861,0.0,0.0,0.0,193.0,0.0,194.0,0.0,17.0,0.0,179.0,194.0,17.0,179.0,1744420465.03894,0.0,2025-04-11 21:14:25.038,RIGHT,21
149.0,21937.700741016954,26776.696953379746,-32235.7082051883,-23963.88637589054,-36695.574128100176,-29990.229605463697,-13627.880946145171,-38362.23195341015,0.0,0.0,0.0,193.0,0.0,194.0,0.0,17.0,0.0,180.0,194.0,17.0,180.0,1744420465.0390005,0.0,2025-04-11 21:14:25.039,RIGHT,21
150.0,21949.256592900347,26765.945764296743,-32251.37677805147,-23984.494684278332,-36714.573110887184,-30005.98758530469,-13263.949842923861,-38381.722674575176,0.0,0.0,0.0,193.0,0.0,194.0,0.0,17.0,0.0,180.0,194.0,17.0,180.0,1744420465.0390437,0.0,2025-04-11 21:14:25.039,RIGHT,21
151.0,21929.497650801855,26752.445310645737,-32247.778147194167,-23978.258547575304,-36709.8121893182,-29990.810750819535,-13525.241735606402,-38394.0608375145,0.0,0.0,0.0,193.0,0.0,193.0,0.0,17.0,0.0,179.0,193.0,17.0,179.0,1744420465.0390902,0.0,2025-04-11 21:14:25.039,RIGHT,21
152.0,21911.99623489335,26769.522043409594,-32235.439984254837,-23963.79696891272,-36698.09987522363,-29974.225756433698,-13838.635544614262,-38380.82860479696,0.0,0.0,0.0,193.0,0.0,193.0,0.0,17.0,0.0,179.0,193.0,17.0,179.0,1744420465.0391328,0.0,2025-04-11 21:14:25.039,RIGHT,21
153.0,21932.492784558868,26790.890311108866,-32225.515809716682,-23951.21293678438,-36692.37782864307,-29968.906041253336,-13708.883668051205,-38355.52643007355,0.0,0.0,0.0,193.0,0.0,193.0,0.0,17.0,0.0,179.0,193.0,17.0,179.0,1744420465.0391746,0.0,2025-04-11 21:14:25.039,RIGHT,21
154.0,21955.805654025753,26782.508406938126,-32241.765527935688,-23967.864986403583,-36710.8627213076,-29986.74273332867,-13281.920645465929,-38367.55166859051,0.0,0.0,0.0,193.0,0.0,194.0,0.0,17.0,0.0,180.0,194.0,17.0,180.0,1744420465.0392318,0.0,2025-04-11 21:14:25.039,RIGHT,21
155.0,21939.555935806744,26760.44723516074,-32244.93947564834,-23971.284803305247,-36709.208692217915,-29984.59696586096,-13473.162171025537,-38397.39124743835,0.0,0.0,0.0,193.0,0.0,194.0,0.0,17.0,0.0,180.0,194.0,17.0,180.0,1744420465.0392745,0.0,2025-04-11 21:14:25.039,RIGHT,21
156.0,21914.745499461354,26768.96324979821,-32242.972522136275,-23965.875681147063,-36699.21746244639,-29981.244204192666,-13814.562715835897,-38398.754703850114,0.0,0.0,0.0,193.0,0.0,193.0,0.0,17.0,0.0,179.0,193.0,17.0,179.0,1744420465.0393164,0.0,2025-04-11 21:14:25.039,RIGHT,21
157.0,21925.38492982208,26779.580328414482,-32233.763603420688,-23954.92332636396,-36689.3603431416,-29975.29864016755,-13805.420852353676,-38378.23580244015,0.0,0.0,0.0,193.0,0.0,193.0,0.0,17.0,0.0,179.0,193.0,17.0,179.0,1744420465.0393589,0.0,2025-04-11 21:14:25.039,RIGHT,21
158.0,21949.480110344903,26776.473435935193,-32250.05802512861,-23973.095294606126,-36703.71016308191,-29996.063410766532,-13310.77674755773,-38353.26890388357,0.0,0.0,0.0,193.0,0.0,193.0,0.0,17.0,0.0,179.0,193.0,17.0,179.0,1744420465.0394008,0.0,2025-04-11 21:14:25.039,RIGHT,21
159.0,21938.952438706452,26752.82529030148,-32252.047330385132,-23984.919367422983,-36705.8112270607,-29997.56097764504,-13402.217734124391,-38396.3630671934,0.0,0.0,0.0,193.0,0.0,194.0,0.0,17.0,0.0,180.0,194.0,17.0,180.0,1744420465.0394428,0.0,2025-04-11 21:14:25.039,RIGHT,21
160.0,21925.38492982208,26770.43846493226,-32240.826754668567,-23966.41212301399,-36700.469160135886,-29981.26655593712,-13755.285889540422,-38383.98020076516,0.0,0.0,0.0,193.0,0.0,193.0,0.0,17.0,0.0,179.0,193.0,17.0,179.0,1744420465.039498,0.0,2025-04-11 21:14:25.039,RIGHT,21
161.0,21929.8776304576,26784.83298836148,-32235.372929021472,-23960.377152011057,-36702.03378224776,-29979.970154758714,-13842.97178303859,-38379.822776296474,0.0,0.0,0.0,193.0,0.0,193.0,0.0,17.0,0.0,179.0,193.0,17.0,179.0,1744420465.0395412,0.0,2025-04-11 21:14:25.039,RIGHT,21
162.0,21955.448026114467,26786.464665706717,-32253.679007730367,-23974.21288182889,-36722.88795982456,-30005.674660882316,-13376.736745445342,-38375.777110550065,0.0,0.0,0.0,193.0,0.0,193.0,0.0,17.0,0.0,179.0,193.0,17.0,179.0,1744420465.039583,0.0,2025-04-11 21:14:25.039,RIGHT,21
163.0,21954.419845869525,26767.085703263965,-32259.311647333107,-23987.869797691084,-36731.001643061834,-30005.98758530469,-13395.713376487896,-38439.83721015897,0.0,0.0,0.0,193.0,0.0,194.0,0.0,17.0,0.0,180.0,194.0,17.0,180.0,1744420465.0396392,0.0,2025-04-11 21:14:25.039,RIGHT,21
164.0,21942.64047654158,26777.233395246672,-32244.671254714878,-23964.065189846184,-36711.77914283027,-29976.036247734577,-13737.046866064891,-38392.85384331392,0.0,0.0,0.0,193.0,0.0,194.0,0.0,17.0,0.0,180.0,194.0,17.0,180.0,1744420465.0396812,0.0,2025-04-11 21:14:25.039,RIGHT,21
165.0,21931.375197336103,26786.084686050977,-32236.915199388888,-23956.778521153752,-36700.06682873569,-29972.16939594381,-13883.65195794725,-38376.73823556164,0.0,0.0,0.0,193.0,0.0,193.0,0.0,17.0,0.0,179.0,193.0,17.0,179.0,1744420465.0397236,0.0,2025-04-11 21:14:25.039,RIGHT,21
166.0,21946.596735310166,26777.747485369146,-32258.037597899154,-23975.978669640863,-36725.45841043692,-30008.60273940596,-13480.650005418063,-38388.78582582305,0.0,0.0,0.0,193.0,0.0,193.0,0.0,17.0,0.0,180.0,193.0,17.0,180.0,1744420465.0397656,0.0,2025-04-11 21:14:25.039,RIGHT,21
167.0,21947.691970788477,26760.514290394105,-32267.782958481668,-23998.330414096166,-36731.13575352857,-30020.225646522722,-13339.4987391828,-38441.133611337376,0.0,0.0,0.0,193.0,0.0,194.0,0.0,17.0,0.0,180.0,194.0,17.0,180.0,1744420465.039808,0.0,2025-04-11 21:14:25.039,RIGHT,21
168.0,21929.72116824641,26766.59396488595,-32255.891830431443,-23978.727934208862,-36709.186340473454,-29992.397724675862,-13653.384286568677,-38404.61086089741,0.0,0.0,0.0,193.0,0.0,194.0,0.0,17.0,0.0,179.0,194.0,17.0,179.0,1744420465.0398629,0.0,2025-04-11 21:14:25.039,RIGHT,21
169.0,21924.557915277233,26780.049715048044,-32241.65376921341,-23961.83001540065,-36691.95314549842,-29975.209233189733,-13884.926007381202,-38378.19109895123,0.0,0.0,0.0,193.0,0.0,193.0,0.0,17.0,0.0,179.0,193.0,17.0,179.0,1744420465.0399053,0.0,2025-04-11 21:14:25.039,RIGHT,21
170.0,21943.288677130782,26777.613374902416,-32254.14839436393,-23969.161387581993,-36707.44290440594,-29997.628032878405,-13554.030782464837,-38374.95009600522,0.0,0.0,0.0,193.0,0.0,193.0,0.0,17.0,0.0,179.0,193.0,17.0,179.0,1744420465.0399473,0.0,2025-04-11 21:14:25.039,RIGHT,21
171.0,21953.279906902302,26770.30435446553,-32265.257211358217,-23990.28378609226,-36718.26114872231,-30009.139181272887,-13291.643654303987,-38411.67401214528,0.0,0.0,0.0,193.0,0.0,194.0,0.0,17.0,0.0,180.0,194.0,17.0,180.0,1744420465.0399892,0.0,2025-04-11 21:14:25.039,RIGHT,21
172.0,21931.464604313926,26762.704761350724,-32257.545859521135,-23978.839692931142,-36707.28644219475,-29985.625146105904,-13588.83244858175,-38396.58658463795,0.0,0.0,0.0,193.0,0.0,194.0,0.0,17.0,0.0,180.0,194.0,17.0,180.0,1744420465.0400312,0.0,2025-04-11 21:14:25.040,RIGHT,21
173.0,21916.15365936204,26773.321839966997,-32249.745100706234,-23966.479178247355,-36700.62562234708,-29973.175224444298,-13876.901731121747,-38384.96367752119,0.0,0.0,0.0,193.0,0.0,194.0,0.0,17.0,0.0,180.0,194.0,17.0,180.0,1744420465.0400815,0.0,2025-04-11 21:14:25.040,RIGHT,21
174.0,21937.991313694874,26781.949613326742,-32247.889905916443,-23959.751303166307,-36705.05126774922,-29980.104265225444,-13648.578661510786,-38367.48461335714,0.0,0.0,0.0,193.0,0.0,193.0,0.0,17.0,0.0,179.0,193.0,17.0,179.0,1744420465.0401244,0.0,2025-04-11 21:14:25.040,RIGHT,21
175.0,21951.268249901324,26770.952555054733,-32261.85974620101,-23980.337259809647,-36717.94822429994,-29996.68925961128,-13273.784610484197,-38386.952982777715,0.0,0.0,0.0,193.0,0.0,194.0,0.0,17.0,0.0,180.0,194.0,17.0,180.0,1744420465.0401793,0.0,2025-04-11 21:14:25.040,RIGHT,21
176.0,21922.546258276256,26752.087682734455,-32266.173632880884,-23984.07000113368,-36717.03180277727,-29989.760218830135,-13523.207726860968,-38400.34167770644,0.0,0.0,0.0,193.0,0.0,194.0,0.0,17.0,0.0,180.0,194.0,17.0,180.0,1744420465.0402217,0.0,2025-04-11 21:14:25.040,RIGHT,21
177.0,21917.405357051535,26770.371409698895,-32250.929743162364,-23966.97091662537,-36697.5634333567,-29969.196613931254,-13860.02616405799,-38386.14831997732,0.0,0.0,0.0,193.0,0.0,193.0,0.0,17.0,0.0,179.0,193.0,17.0,179.0,1744420465.0402637,0.0,2025-04-11 21:14:25.040,RIGHT,21
178.0,21933.230392125894,26774.797055101044,-32247.398167538428,-23961.003000855806,-36689.96384024189,-29970.98475348768,-13742.43363647862,-38363.43894761073,0.0,0.0,0.0,193.0,0.0,193.0,0.0,17.0,0.0,179.0,193.0,17.0,179.0,1744420465.0403192,0.0,2025-04-11 21:14:25.040,RIGHT,21
179.0,21942.99810445286,26758.97202002669,-32278.757665009223,-23991.669594248488,-36721.725669112886,-30002.724230614214,-13287.173305412925,-38376.62647683937,0.0,0.0,0.0,193.0,0.0,194.0,0.0,17.0,0.0,180.0,194.0,17.0,180.0,1744420465.0403616,0.0,2025-04-11 21:14:25.040,RIGHT,21
180.0,21926.39075832257,26743.661075074804,-32276.85776673052,-23994.575321027678,-36717.098858010635,-29991.9283380423,-13464.601452899153,-38402.50979691861,0.0,0.0,0.0,193.0,0.0,194.0,0.0,17.0,0.0,180.0,194.0,17.0,180.0,1744420465.0404036,0.0,2025-04-11 21:14:25.040,RIGHT,21
181.0,21905.134249345574,26759.10613049342,-32271.135720149963,-23981.208977843402,-36714.2154829759,-29980.46189313673,-13821.02236998348,-38397.90533756081,0.0,0.0,0.0,193.0,0.0,193.0,0.0,17.0,0.0,179.0,193.0,17.0,179.0,1744420465.040446,0.0,2025-04-11 21:14:25.040,RIGHT,21
182.0,21913.76202270532,26766.661020119314,-32267.38062708147,-23972.827073672663,-36708.44873290643,-29984.574614116507,-13836.892108546748,-38395.17842473727,0.0,0.0,0.0,193.0,0.0,193.0,0.0,17.0,0.0,179.0,193.0,17.0,179.0,1744420465.040488,0.0,2025-04-11 21:14:25.040,RIGHT,21
183.0,21939.041845684274,26769.097360264943,-32285.10556043453,-23989.36736456959,-36724.720802869895,-30011.55316967406,-13336.59301240361,-38387.28825894454,0.0,0.0,0.0,193.0,0.0,193.0,0.0,17.0,0.0,180.0,193.0,17.0,180.0,1744420465.0405433,0.0,2025-04-11 21:14:25.040,RIGHT,21
184.0,21937.72309276141,26760.089607249454,-32276.298973119137,-23989.36736456959,-36716.16008474351,-29997.31510845603,-13413.483013329866,-38417.79839012604,0.0,0.0,0.0,193.0,0.0,194.0,0.0,17.0,0.0,180.0,194.0,17.0,180.0,1744420465.5146601,0.0,2025-04-11 21:14:25.514,RIGHT,21
185.0,21919.215848352414,26767.19746198624,-32262.530298534668,-23969.586070726644,-36704.60423286012,-29977.869090779914,-13755.442351751608,-38389.38932292334,0.0,0.0,0.0,193.0,0.0,194.0,0.0,17.0,0.0,180.0,194.0,17.0,180.0,1744420465.514922,0.0,2025-04-11 21:14:25.514,RIGHT,21
186.0,21924.692025743967,26780.87672959289,-32248.67221697238,-23953.157538551994,-36699.2621659353,-29976.84091053497,-13865.994079827558,-38400.43108468426,0.0,0.0,0.0,193.0,0.0,193.0,0.0,17.0,0.0,179.0,193.0,17.0,179.0,1744420465.5150433,0.0,2025-04-11 21:14:25.515,RIGHT,21
187.0,21943.44513934197,26770.77374109909,-32276.522490563693,-23974.302288806713,-36734.95790183043,-30013.1848470193,-13401.234257368358,-38392.85384331392,0.0,0.0,0.0,193.0,0.0,194.0,0.0,17.0,0.0,180.0,194.0,17.0,180.0,1744420465.515138,0.0,2025-04-11 21:14:25.515,RIGHT,21
188.0,21939.310066617738,26753.33938042395,-32281.641040043956,-23990.015565158792,-36742.60219843414,-30007.663966138836,-13382.727012959363,-38425.397983240844,0.0,0.0,0.0,193.0,0.0,194.0,0.0,17.0,0.0,180.0,194.0,17.0,180.0,1744420465.5151904,0.0,2025-04-11 21:14:25.515,RIGHT,21
189.0,21912.6220837381,26757.027418259077,-32275.516662063204,-23979.93492840945,-36732.5215616848,-29994.744657843672,-13720.2383542345,-38410.243500500146,0.0,0.0,0.0,193.0,0.0,194.0,0.0,17.0,0.0,179.0,194.0,17.0,179.0,1744420465.515246,0.0,2025-04-11 21:14:25.515,RIGHT,21
190.0,21915.013720394818,26776.898119079844,-32259.401054310925,-23964.914556135485,-36714.19313123145,-29985.580442616996,-13916.911353696747,-38406.9130905763,0.0,0.0,0.0,193.0,0.0,193.0,0.0,17.0,0.0,179.0,193.0,17.0,179.0,1744420465.515407,0.0,2025-04-11 21:14:25.515,RIGHT,21
191.0,21941.72405501891,26776.80871210202,-32266.33009509207,-23966.814454414183,-36720.384564445565,-29999.55028290156,-13492.787002657296,-38371.39616863682,0.0,0.0,0.0,193.0,0.0,193.0,0.0,17.0,0.0,179.0,193.0,17.0,179.0,1744420465.515473,0.0,2025-04-11 21:14:25.515,RIGHT,21
192.0,21947.177880666004,26756.334514180962,-32276.231917885772,-23991.870759948586,-36732.678023895984,-30014.347137730976,-13332.68145712393,-38426.18029429678,0.0,0.0,0.0,193.0,0.0,194.0,0.0,17.0,0.0,180.0,194.0,17.0,180.0,1744420465.5155325,0.0,2025-04-11 21:14:25.515,RIGHT,21
193.0,21924.133232132583,26755.48514789166,-32272.543880050645,-23984.13705636705,-36728.766468616304,-30003.595948647973,-13656.401772070143,-38422.84988437294,0.0,0.0,0.0,193.0,0.0,193.0,0.0,17.0,0.0,179.0,193.0,17.0,179.0,1744420465.5157816,0.0,2025-04-11 21:14:25.515,RIGHT,21
194.0,21914.521982016802,26773.38889520036,-32253.8131181971,-23964.020486357273,-36710.460389907406,-29977.466759379717,-13906.026054147012,-38399.26879397259,0.0,0.0,0.0,193.0,0.0,193.0,0.0,17.0,0.0,179.0,193.0,17.0,179.0,1744420465.5158253,0.0,2025-04-11 21:14:25.515,RIGHT,21
195.0,21938.326589861703,26777.278098735584,-32257.188231609853,-23961.673553189463,-36718.708183611416,-29984.37344841641,-13582.439849667533,-38358.4545085972,0.0,0.0,0.0,193.0,0.0,194.0,0.0,17.0,0.0,180.0,194.0,17.0,180.0,1744420465.5158682,0.0,2025-04-11 21:14:25.515,RIGHT,21
196.0,21946.127348676604,26765.319915451997,-32275.38255159647,-23988.048611646725,-36738.757698387824,-30005.406439948852,-13300.696110808387,-38398.37472419438,0.0,0.0,0.0,193.0,0.0,194.0,0.0,17.0,0.0,179.0,194.0,17.0,179.0,1744420465.5159109,0.0,2025-04-11 21:14:25.515,RIGHT,21
197.0,21928.469470556913,26764.939935796254,-32262.8655747015,-23974.905785907005,-36728.5205994273,-29988.396762418364,-13607.83143136876,-38413.4174482128,0.0,0.0,0.0,193.0,0.0,194.0,0.0,17.0,0.0,180.0,194.0,17.0,180.0,1744420465.515954,0.0,2025-04-11 21:14:25.515,RIGHT,21
198.0,21916.46658378441,26777.85924409142,-32251.53324026266,-23961.964125867384,-36717.232968477365,-29975.835082034482,-13920.398225831776,-38406.22018649819,0.0,0.0,0.0,193.0,0.0,193.0,0.0,17.0,0.0,179.0,193.0,17.0,179.0,1744420465.5160203,0.0,2025-04-11 21:14:25.516,RIGHT,21
199.0,21934.079758415195,26778.999183058644,-32253.00845539671,-23960.421855499968,-36711.68973585245,-29987.16741647332,-13701.932275525603,-38380.42627339676,0.0,0.0,0.0,193.0,0.0,194.0,0.0,17.0,0.0,180.0,194.0,17.0,180.0,1744420465.5160627,0.0,2025-04-11 21:14:25.516,RIGHT,21
200.0,21956.699723803966,26775.78053185708,-32261.36800782299,-23979.97963189836,-36721.52450341279,-30002.32189921402,-13289.453183347367,-38399.44760792823,0.0,0.0,0.0,193.0,0.0,194.0,0.0,17.0,0.0,180.0,194.0,17.0,180.0,1744420465.5161047,0.0,2025-04-11 21:14:25.516,RIGHT,21
201.0,21940.986447451884,26763.68823810676,-32250.370949550983,-23973.22940507286,-36705.61006136061,-29985.535739128085,-13499.693691693985,-38396.49717766013,0.0,0.0,0.0,193.0,0.0,193.0,0.0,17.0,0.0,179.0,193.0,17.0,179.0,1744420465.516147,0.0,2025-04-11 21:14:25.516,RIGHT,21
202.0,21910.96805464841,26771.645459132847,-32247.554629749615,-23968.155559081504,-36703.956032270915,-29980.59600360346,-13816.373207136776,-38396.09484625993,0.0,0.0,0.0,193.0,0.0,193.0,0.0,17.0,0.0,179.0,193.0,17.0,179.0,1744420465.516189,0.0,2025-04-11 21:14:25.516,RIGHT,21
203.0,21923.28386584328,26774.260613234117,-32238.90450464541,-23957.806701398695,-36699.82095954668,-29974.672791322806,-13746.658116180673,-38372.87138377087,0.0,0.0,0.0,193.0,0.0,193.0,0.0,17.0,0.0,179.0,193.0,17.0,179.0,1744420465.5162308,0.0,2025-04-11 21:14:25.516,RIGHT,21
204.0,21946.86495624363,26761.721284594692,-32256.22710659827,-23977.140960352535,-36715.04249752075,-29996.242224722177,-13295.018767716738,-38368.713959302186,0.0,0.0,0.0,193.0,0.0,194.0,0.0,17.0,0.0,180.0,194.0,17.0,180.0,1744420465.5162897,0.0,2025-04-11 21:14:25.516,RIGHT,21
205.0,21934.5267933043,26747.952610010223,-32254.886001930954,-23982.997117399827,-36708.35932592861,-29992.867111309424,-13447.055333501738,-38400.27462247308,0.0,0.0,0.0,193.0,0.0,194.0,0.0,17.0,0.0,180.0,194.0,17.0,180.0,1744420465.5163383,0.0,2025-04-11 21:14:25.516,RIGHT,21
206.0,21910.744537203853,26759.48611014916,-32252.695530974335,-23973.452922517412,-36703.15136947052,-29981.668887337317,-13795.340215604332,-38387.444721155734,0.0,0.0,0.0,193.0,0.0,194.0,0.0,17.0,0.0,179.0,194.0,17.0,179.0,1744420465.516381,0.0,2025-04-11 21:14:25.516,RIGHT,21
207.0,21922.166278620516,26775.601717901438,-32245.028882626164,-23962.388809012034,-36698.68102057946,-29973.01876223311,-13821.447053128131,-38373.676046571265,0.0,0.0,0.0,193.0,0.0,193.0,0.0,17.0,0.0,179.0,193.0,17.0,179.0,1744420465.5164232,0.0,2025-04-11 21:14:25.516,RIGHT,21
208.0,21945.63561029859,26763.6658863623,-32267.559441037112,-23982.617137744088,-36720.675137123486,-30004.780591104103,-13346.941870086417,-38377.18527045075,0.0,0.0,0.0,193.0,0.0,193.0,0.0,18.0,0.0,179.0,193.0,18.0,179.0,1744420465.516483,0.0,2025-04-11 21:14:25.516,RIGHT,21
209.0,21941.411130596534,26747.282057676563,-32267.112406148008,-23991.356669826113,-36713.61198587561,-29996.957480544745,-13408.342112105145,-38413.26098600161,0.0,0.0,0.0,193.0,0.0,194.0,0.0,17.0,0.0,180.0,194.0,17.0,180.0,1744420465.5165267,0.0,2025-04-11 21:14:25.516,RIGHT,21
210.0,21910.632778481577,26752.490014134648,-32265.167804380395,-23981.23132958786,-36705.297136938236,-29982.8758815379,-13745.585232446818,-38394.4631689147,0.0,0.0,0.0,193.0,0.0,193.0,0.0,17.0,0.0,179.0,193.0,17.0,179.0,1744420465.5165706,0.0,2025-04-11 21:14:25.516,RIGHT,21
211.0,21909.582246492177,26758.90496479332,-32258.417577554894,-23973.251756817313,-36701.989078758845,-29981.55712861504,-13847.442131929653,-38385.16484322129,0.0,0.0,0.0,193.0,0.0,193.0,0.0,17.0,0.0,179.0,193.0,17.0,179.0,1744420465.5166132,0.0,2025-04-11 21:14:25.516,RIGHT,21
212.0,21943.19927015296,26763.710589851213,-32269.593449782547,-23979.264376075793,-36721.03276503477,-30002.567768403027,-13395.780431721263,-38370.59150583643,0.0,0.0,0.0,193.0,0.0,193.0,0.0,17.0,0.0,179.0,193.0,17.0,179.0,1744420465.5166562,0.0,2025-04-11 21:14:25.516,RIGHT,21
213.0,21936.136118905084,26743.28109541906,-32275.76253125221,-23994.709431494408,-36730.75577387283,-30002.992451547678,-13350.87577711055,-38418.15601803733,0.0,0.0,0.0,193.0,0.0,194.0,0.0,17.0,0.0,180.0,194.0,17.0,180.0,1744420465.5167139,0.0,2025-04-11 21:14:25.516,RIGHT,21
214.0,21915.505458772834,26753.406435657318,-32263.0667404016,-23976.358649296602,-36722.2174074909,-29981.802997804047,-13693.304502165855,-38399.55936665051,0.0,0.0,0.0,193.0,0.0,193.0,0.0,17.0,0.0,179.0,193.0,17.0,179.0,1744420465.516759,0.0,2025-04-11 21:14:25.516,RIGHT,21
215.0,21915.080775628183,26772.427770188784,-32244.827716926065,-23958.857233388095,-36712.136770741556,-29970.82829127649,-13917.47014730813,-38403.56032890801,0.0,0.0,0.0,193.0,0.0,193.0,0.0,17.0,0.0,179.0,193.0,17.0,179.0,1744420465.5168023,0.0,2025-04-11 21:14:25.516,RIGHT,21
216.0,21935.5773252937,26767.644496875346,-32255.84712694253,-23963.908727634996,-36724.81020984772,-29995.50461715515,-13525.129976884125,-38391.289221202045,0.0,0.0,0.0,193.0,0.0,194.0,0.0,18.0,0.0,180.0,194.0,18.0,180.0,1744420465.5168447,0.0,2025-04-11 21:14:25.516,RIGHT,21
217.0,21941.545241063268,26753.38408391286,-32266.017170669696,-23985.187588356446,-36728.81117210522,-30001.22666373571,-13324.008980275272,-38423.90041636234,0.0,0.0,0.0,193.0,0.0,194.0,0.0,17.0,0.0,180.0,194.0,17.0,180.0,1744420465.5168867,0.0,2025-04-11 21:14:25.516,RIGHT,21
218.0,21928.916505446017,26761.7659880836,-32250.639170484446,-23963.93107937945,-36709.476913151375,-29970.582422087482,-13647.036391143369,-38396.45247417122,0.0,0.0,0.0,193.0,0.0,193.0,0.0,17.0,0.0,179.0,193.0,17.0,179.0,1744420465.516929,0.0,2025-04-11 21:14:25.516,RIGHT,21
219.0,21915.72897621739,26776.562842913016,-32240.536181990647,-23950.855308873095,-36697.809302545706,-29959.183032415276,-13890.46924000612,-38379.93453501875,0.0,0.0,0.0,193.0,0.0,193.0,0.0,17.0,0.0,179.0,193.0,17.0,179.0,1744420465.5169835,0.0,2025-04-11 21:14:25.516,RIGHT,21
