Sample Index,EXG Channel 0,EXG Channel 1,EXG Channel 2,EXG Channel 3,EXG Channel 4,EXG Channel 5,EXG Channel 6,EXG Channel 7,Accel Channel 0,Accel Channel 1,Accel Channel 2,Not Used,Digital Channel 0 (D11),Digital Channel 1 (D12),Digital Channel 2 (D13),Digital Channel 3 (D17),Not Used,Digital Channel 4 (D18),Analog Channel 0,Analog Channel 1,Analog Channel 2,Timestamp,Marker Channel,Timestamp (Formatted),Stimulus_Direction,Stimulus_Number
203.0,17511.04951036567,3226.139035956745,-65417.9904363144,-63765.66007920028,-38023.37950746769,-35651.457089359414,-31145.837145547528,-22773.58892841207,0.0,0.0,0.0,193.0,1.0,154.0,0.0,10.0,3.0,252.0,410.0,10.0,1020.0,1744252629.4906976,0.0,2025-04-09 22:37:09.490,RIGHT,7
204.0,17519.431414536408,3193.7066547520944,-65433.97193359995,-63750.63970692632,-38085.651467520176,-35709.25870052084,-31081.039438371594,-22825.46732729284,0.0,0.0,0.0,193.0,1.0,155.0,0.0,9.0,3.0,251.0,411.0,9.0,1019.0,1744252629.4907064,0.0,2025-04-09 22:37:09.490,RIGHT,7
205.0,17656.224090602886,3228.620079591284,-65431.490889965404,-63768.230529812645,-38084.15390064167,-35693.61247940212,-31083.073447117025,-22817.152478355467,0.0,0.0,0.0,193.0,1.0,155.0,0.0,9.0,3.0,250.0,411.0,9.0,1018.0,1744252629.4907153,0.0,2025-04-09 22:37:09.490,RIGHT,7
206.0,17611.922933092468,3248.7590013455156,-65362.06637168722,-63709.020758750536,-37986.096797716236,-35602.126789346556,-31420.07069826969,-22727.96901797879,0.0,0.0,0.0,193.0,1.0,154.0,0.0,8.0,3.0,250.0,410.0,8.0,1018.0,1744252629.490724,0.0,2025-04-09 22:37:09.490,RIGHT,7
207.0,17527.433339051408,3234.7221058275827,-65410.50260192187,-63751.66788717126,-38015.042306785865,-35641.331749121164,-31099.121999635936,-22762.88244281798,0.0,0.0,0.0,193.0,1.0,155.0,0.0,7.0,3.0,251.0,411.0,7.0,1019.0,1744252629.4907324,0.0,2025-04-09 22:37:09.490,RIGHT,7
208.0,17494.732736913295,3191.717349495572,-65429.36747424215,-63756.92054711826,-38065.49019402149,-35688.27041247731,-31131.420270373856,-22802.333271781597,0.0,0.0,0.0,193.0,1.0,155.0,0.0,7.0,3.0,251.0,411.0,7.0,1019.0,1744252629.490741,0.0,2025-04-09 22:37:09.490,RIGHT,7
209.0,17629.759625167804,3212.370361372276,-65444.14197732711,-63762.28496578753,-38103.06347645086,-35715.47248547942,-30937.474183735158,-22835.23503961981,0.0,0.0,0.0,193.0,1.0,155.0,0.0,6.0,3.0,250.0,411.0,6.0,1018.0,1744252629.4907496,0.0,2025-04-09 22:37:09.490,RIGHT,7
210.0,17613.19698252642,3243.2381204650546,-65372.83991251468,-63723.12470950183,-37998.92669903358,-35602.86439691358,-31456.302876031743,-22737.177936694377,0.0,0.0,0.0,193.0,1.0,154.0,0.0,6.0,3.0,249.0,410.0,6.0,1017.0,1744252629.4907582,0.0,2025-04-09 22:37:09.490,RIGHT,7
211.0,17543.012504936756,3240.5112076415076,-65404.06529951874,-63735.23935499661,-38020.18320801058,-35634.268597873284,-31100.753676981174,-22753.561765380116,0.0,0.0,0.0,193.0,1.0,155.0,0.0,6.0,3.0,252.0,411.0,6.0,1020.0,1744252629.4907665,0.0,2025-04-09 22:37:09.490,RIGHT,7
212.0,17481.88048385149,3195.718311753072,-65428.7416253974,-63765.503616989095,-38054.9848741275,-35675.64167686006,-31174.581488917054,-22787.044678574166,0.0,0.0,0.0,193.0,1.0,155.0,0.0,6.0,3.0,250.0,411.0,6.0,1018.0,1744252629.490775,0.0,2025-04-09 22:37:09.490,RIGHT,7
213.0,17613.599313926617,3205.7765967579603,-65446.734779683924,-63753.679544172235,-38112.2947469109,-35730.3810990311,-30874.82224402693,-22843.03579843471,0.0,0.0,0.0,193.0,1.0,155.0,0.0,6.0,3.0,252.0,411.0,6.0,1020.0,1744252629.490784,0.0,2025-04-09 22:37:09.490,RIGHT,7
214.0,17628.463223989394,3243.8863210542586,-65380.46185737394,-63740.469663199154,-38003.06177175781,-35611.626280740056,-31452.301913774245,-22743.726997819784,0.0,0.0,0.0,193.0,1.0,155.0,0.0,5.0,3.0,251.0,411.0,5.0,1019.0,1744252629.4907925,0.0,2025-04-09 22:37:09.490,RIGHT,7
215.0,17553.56252831966,3243.4392861651527,-65399.86317156115,-63727.99738979309,-38019.84793184375,-35637.53195256376,-31113.00243294268,-22760.669620116907,0.0,0.0,0.0,193.0,1.0,155.0,0.0,5.0,3.0,249.0,411.0,5.0,1017.0,1744252629.490801,0.0,2025-04-09 22:37:09.490,RIGHT,7
216.0,17471.21870174631,3200.5686402998736,-65439.51516622486,-63786.67071898827,-38058.449394518066,-35679.39676992855,-31204.93515788736,-22809.46347826284,0.0,0.0,0.0,193.0,1.0,154.0,0.0,5.0,3.0,250.0,410.0,5.0,1018.0,1744252629.4908097,0.0,2025-04-09 22:37:09.490,RIGHT,7
217.0,17586.71016534688,3197.8640792207816,-65447.22651806194,-63749.16449179227,-38119.17908420313,-35738.718299712935,-30887.428627899724,-22855.016333462758,0.0,0.0,0.0,193.0,1.0,155.0,0.0,5.0,3.0,252.0,411.0,5.0,1020.0,1744252629.4908228,0.0,2025-04-09 22:37:09.490,RIGHT,7
218.0,17638.07447410518,3234.252719194021,-65400.91370355055,-63764.98952686662,-38023.93830107907,-35634.53681880675,-31402.41282015,-22768.403323698443,0.0,0.0,0.0,193.0,1.0,155.0,0.0,4.0,3.0,250.0,411.0,4.0,1018.0,1744252629.4908316,0.0,2025-04-09 22:37:09.490,RIGHT,7
219.0,17575.71310707487,3244.6686321101943,-65387.256787688355,-63716.46388965415,-38007.71093460452,-35633.88861821754,-31176.88371859595,-22758.389742182466,0.0,0.0,0.0,193.0,1.0,155.0,0.0,4.0,3.0,250.0,411.0,4.0,1018.0,1744252629.49084,0.0,2025-04-09 22:37:09.490,RIGHT,7
220.0,17486.328480998098,3209.0175997039796,-65435.447148734,-63789.621149256374,-38044.256036788945,-35673.45120590344,-31202.118838085993,-22802.84736190407,0.0,0.0,0.0,193.0,1.0,155.0,0.0,4.0,3.0,252.0,411.0,4.0,1020.0,1744252629.4908483,0.0,2025-04-09 22:37:09.490,RIGHT,7
221.0,17565.543063347704,3199.115776910279,-65437.05647433478,-63743.80007312299,-38103.175235173134,-35731.1857618315,-30944.179707071748,-22847.103815925577,0.0,0.0,0.0,193.0,1.0,155.0,0.0,4.0,3.0,250.0,411.0,4.0,1018.0,1744252629.4908571,0.0,2025-04-09 22:37:09.490,RIGHT,7
222.0,17633.805290914213,3220.841672520837,-65426.260581762865,-63789.73290797865,-38054.180211327104,-35672.35597042513,-31288.24010947229,-22798.667585690928,0.0,0.0,0.0,193.0,1.0,155.0,0.0,4.0,3.0,249.0,411.0,4.0,1017.0,1744252629.4908662,0.0,2025-04-09 22:37:09.490,RIGHT,7
223.0,17579.222330954355,3241.40527741972,-65380.03717422929,-63714.96632277565,-38004.00054502494,-35627.11603964759,-31262.356789393045,-22749.426692655885,0.0,0.0,0.0,193.0,1.0,155.0,0.0,4.0,3.0,251.0,411.0,4.0,1019.0,1744252629.4908748,0.0,2025-04-09 22:37:09.490,RIGHT,7
224.0,17492.229341534297,3217.712428297094,-65430.95444809848,-63782.8038671975,-38042.71376642153,-35657.78263304027,-31172.145148771426,-22788.095210563566,0.0,0.0,0.0,193.0,1.0,154.0,0.0,4.0,3.0,249.0,410.0,4.0,1017.0,1744252629.490883,0.0,2025-04-09 22:37:09.490,RIGHT,7
225.0,17531.479004797817,3193.907820452192,-65437.48115747943,-63746.415227224265,-38101.5435578279,-35715.584244201695,-31019.750955075142,-22833.983341930314,0.0,0.0,0.0,193.0,1.0,154.0,0.0,4.0,3.0,250.0,410.0,4.0,1018.0,1744252629.4908917,0.0,2025-04-09 22:37:09.490,RIGHT,7
226.0,17644.087093363654,3219.0982364533234,-65436.76590165686,-63783.72028872017,-38079.86236570625,-35687.06341827672,-31157.79532883112,-22819.074728378622,0.0,0.0,0.0,193.0,1.0,155.0,0.0,4.0,3.0,252.0,411.0,4.0,1020.0,1744252629.4909005,0.0,2025-04-09 22:37:09.490,RIGHT,7
227.0,17593.43804042793,3240.332393685865,-65373.64457531507,-63717.290904199,-37997.89851878864,-35614.93433891945,-31350.132089869036,-22736.84266052755,0.0,0.0,0.0,193.0,1.0,155.0,0.0,4.0,3.0,251.0,411.0,4.0,1019.0,1744252629.4909089,0.0,2025-04-09 22:37:09.490,RIGHT,7
228.0,17519.118490114033,3237.7395913290493,-65408.04391003179,-63759.11101807488,-38012.13658000667,-35634.93915020694,-31118.523313823145,-22758.903832304935,0.0,0.0,0.0,193.0,1.0,154.0,0.0,3.0,3.0,250.0,410.0,3.0,1018.0,1744252629.4909174,0.0,2025-04-09 22:37:09.490,RIGHT,7
229.0,17495.447992735862,3178.842744689315,-65438.82226214675,-63763.76018092158,-38080.91289769565,-35707.02352607531,-31072.992810367683,-22820.66170223495,0.0,0.0,0.0,193.0,1.0,154.0,0.0,4.0,3.0,249.0,410.0,4.0,1017.0,1744252629.490926,0.0,2025-04-09 22:37:09.490,RIGHT,7
230.0,17630.765453668293,3206.1789281581555,-65445.214861060966,-63783.98850965363,-38089.60772628876,-35713.81845638972,-31017.09109748496,-22835.413853575454,0.0,0.0,0.0,193.0,1.0,155.0,0.0,3.0,3.0,251.0,411.0,3.0,1019.0,1744252629.4909348,0.0,2025-04-09 22:37:09.490,RIGHT,7
231.0,17608.614874913084,3247.1273240002783,-65365.35207812215,-63720.062520511456,-37985.15802444911,-35610.508693517295,-31421.814134337204,-22739.63662858446,0.0,0.0,0.0,193.0,1.0,155.0,0.0,3.0,3.0,252.0,411.0,3.0,1020.0,1744252629.4909437,0.0,2025-04-09 22:37:09.490,RIGHT,7
232.0,17517.576219746617,3227.122512712778,-65417.05166304728,-63760.51917797556,-38026.59815866926,-35653.02171147129,-31091.29888907658,-22778.93099533689,0.0,0.0,0.0,193.0,1.0,154.0,0.0,3.0,3.0,251.0,410.0,3.0,1019.0,1744252629.4909573,0.0,2025-04-09 22:37:09.490,RIGHT,7
233.0,17478.862998350025,3189.4374715611307,-65427.020541074344,-63763.559015221486,-38061.08690036379,-35685.31998220921,-31156.87890730845,-22806.244827061277,0.0,0.0,0.0,193.0,1.0,154.0,0.0,3.0,3.0,249.0,410.0,3.0,1017.0,1744252629.4909658,0.0,2025-04-09 22:37:09.490,RIGHT,7
234.0,17620.416595985484,3208.972896215069,-65441.079788336734,-63759.490997730616,-38101.945889228096,-35716.2324447909,-30916.73176488063,-22831.301132595676,0.0,0.0,0.0,193.0,1.0,155.0,0.0,3.0,3.0,251.0,411.0,3.0,1019.0,1744252629.4909744,0.0,2025-04-09 22:37:09.490,RIGHT,7
235.0,17600.09886027561,3231.1234749702785,-65387.18973245499,-63745.20823302367,-38008.82852182729,-35619.47174304387,-31458.448643499454,-22752.69004734636,0.0,0.0,0.0,193.0,1.0,155.0,0.0,3.0,3.0,252.0,411.0,3.0,1020.0,1744252629.490983,0.0,2025-04-09 22:37:09.490,RIGHT,7
236.0,17533.60242052107,3234.1409604717446,-65409.072090276735,-63744.09064580091,-38023.93830107907,-35641.823487499176,-31103.54764503809,-22767.03986728667,0.0,0.0,0.0,193.0,1.0,154.0,0.0,3.0,3.0,250.0,410.0,3.0,1018.0,1744252629.4909916,0.0,2025-04-09 22:37:09.490,RIGHT,7
237.0,17468.402381944943,3196.4112158311864,-65438.352875513185,-63785.59783525442,-38063.32207480932,-35680.84963331815,-31203.4152392644,-22811.162210841445,0.0,0.0,0.0,193.0,1.0,154.0,0.0,3.0,3.0,250.0,410.0,3.0,1018.0,1744252629.4910004,0.0,2025-04-09 22:37:09.491,RIGHT,7
238.0,17606.267941745275,3212.3033061389096,-65439.336352269216,-63752.74077090511,-38106.885624752715,-35723.36265127214,-30890.02143025654,-22847.975533959336,0.0,0.0,0.0,193.0,1.0,155.0,0.0,3.0,3.0,250.0,411.0,3.0,1018.0,1744252629.4910092,0.0,2025-04-09 22:37:09.491,RIGHT,7
239.0,17624.194040798433,3236.622004106284,-65382.56292135274,-63753.99246859461,-38002.79355082435,-35614.01791739678,-31439.82964036818,-22754.724056091793,0.0,0.0,0.0,193.0,1.0,155.0,0.0,3.0,3.0,252.0,411.0,3.0,1020.0,1744252629.4910176,0.0,2025-04-09 22:37:09.491,RIGHT,7
240.0,17545.918231715947,3232.7998558044264,-65399.4384884165,-63736.066369541455,-38018.28330973188,-35633.97802519536,-31126.77110752715,-22760.155529994434,0.0,0.0,0.0,193.0,1.0,155.0,0.0,3.0,3.0,251.0,411.0,3.0,1019.0,1744252629.491026,0.0,2025-04-09 22:37:09.491,RIGHT,7
241.0,17467.329498211086,3196.5676780423737,-65435.11187256717,-63793.9573876807,-38050.402766514155,-35667.03625524476,-31215.37342254799,-22799.98633861379,0.0,0.0,0.0,193.0,1.0,154.0,0.0,3.0,3.0,248.0,410.0,3.0,1016.0,1744252629.4910347,0.0,2025-04-09 22:37:09.491,RIGHT,7
242.0,17572.449752384397,3193.0584541628905,-65443.06909359326,-63755.087704072925,-38109.836055020816,-35732.97390138792,-30894.022392514038,-22852.669400294948,0.0,0.0,0.0,193.0,1.0,155.0,0.0,3.0,3.0,250.0,411.0,3.0,1018.0,1744252629.491043,0.0,2025-04-09 22:37:09.491,RIGHT,7
243.0,17624.395206498528,3223.546233599929,-65412.51425892285,-63786.08957363243,-38031.98492908298,-35649.378377125075,-31358.983380673337,-22784.295414006167,0.0,0.0,0.0,193.0,1.0,154.0,0.0,3.0,3.0,251.0,410.0,3.0,1019.0,1744252629.491052,0.0,2025-04-09 22:37:09.491,RIGHT,7
244.0,17567.465313370863,3239.4159721631972,-65386.94386326598,-63726.92450605924,-38001.81007406832,-35634.134487406554,-31191.50175946972,-22758.300335204643,0.0,0.0,0.0,193.0,1.0,155.0,0.0,3.0,3.0,252.0,411.0,3.0,1020.0,1744252629.4910605,0.0,2025-04-09 22:37:09.491,RIGHT,7
245.0,17481.612262918028,3208.7270270260606,-65432.630828932626,-63796.43843131524,-38033.79542038387,-35666.924496522486,-31181.152901786914,-22801.439202003385,0.0,0.0,0.0,193.0,1.0,154.0,0.0,3.0,3.0,250.0,410.0,3.0,1018.0,1744252629.4910693,0.0,2025-04-09 22:37:09.491,RIGHT,7
246.0,17543.10191191458,3188.029311660446,-65442.823224404245,-63759.558052963985,-38098.928403726626,-35733.80091593277,-30947.26424780658,-22856.0445137077,0.0,0.0,0.0,193.0,1.0,154.0,0.0,3.0,3.0,251.0,410.0,3.0,1019.0,1744252629.4910822,0.0,2025-04-09 22:37:09.491,RIGHT,7
247.0,17633.425311258474,3218.1594631862004,-65427.35581724117,-63796.14785863732,-38050.33571128079,-35672.73595008087,-31241.5249635607,-22801.55096072566,0.0,0.0,0.0,193.0,1.0,154.0,0.0,3.0,3.0,249.0,410.0,3.0,1017.0,1744252629.4910908,0.0,2025-04-09 22:37:09.491,RIGHT,7
248.0,17575.75781056378,3230.7658470589936,-65383.32288066422,-63731.104282272376,-38000.357210678725,-35634.35800485111,-31277.779493067206,-22758.702666604837,0.0,0.0,0.0,193.0,1.0,154.0,0.0,3.0,3.0,250.0,410.0,3.0,1018.0,1744252629.491099,0.0,2025-04-09 22:37:09.491,RIGHT,7
249.0,17494.21864679082,3217.8018352749154,-65425.90295385158,-63790.82814345696,-38027.51458019192,-35660.353083652626,-31149.681645593842,-22792.453800732354,0.0,0.0,0.0,193.0,1.0,155.0,0.0,3.0,3.0,253.0,411.0,3.0,1021.0,1744252629.4911077,0.0,2025-04-09 22:37:09.491,RIGHT,7
250.0,17517.263295324243,3191.560887284385,-65434.776596400334,-63760.29566053101,-38086.746702998484,-35715.45013373496,-31027.372899934402,-22829.89297269499,0.0,0.0,0.0,193.0,1.0,155.0,0.0,3.0,3.0,252.0,411.0,3.0,1020.0,1744252629.9605184,0.0,2025-04-09 22:37:09.960,RIGHT,7
251.0,17632.911221136,3213.711466039594,-65441.19154705901,-63797.08663190444,-38080.24234536199,-35701.70381089495,-31116.10932542197,-22834.385673330507,0.0,0.0,0.0,193.0,1.0,155.0,0.0,3.0,3.0,251.0,411.0,3.0,1019.0,1744252629.9605584,0.0,2025-04-09 22:37:09.960,RIGHT,7
252.0,17582.9997757673,3232.7551523155157,-65382.004127741355,-63737.13925327531,-38004.17935898058,-35632.323996105675,-31387.191282175936,-22773.65598364544,0.0,0.0,0.0,193.0,1.0,155.0,0.0,3.0,3.0,251.0,411.0,3.0,1019.0,1744252629.960579,0.0,2025-04-09 22:37:09.960,RIGHT,7
253.0,17502.019405605723,3222.9874399885466,-65426.975837585436,-63787.83300969995,-38031.29202500487,-35666.72333082239,-31140.53978211162,-22799.963986869334,0.0,0.0,0.0,193.0,1.0,154.0,0.0,3.0,3.0,250.0,410.0,3.0,1018.0,1744252629.9605987,0.0,2025-04-09 22:37:09.960,RIGHT,7
254.0,17485.099135053057,3187.112890137779,-65441.97385811494,-63781.775686952555,-38081.62815351822,-35712.74557265587,-31135.35417739799,-22830.787042473203,0.0,0.0,0.0,193.0,1.0,154.0,0.0,3.0,3.0,249.0,410.0,3.0,1017.0,1744252629.9606164,0.0,2025-04-09 22:37:09.960,RIGHT,7
255.0,17628.35146526712,3215.2090329180996,-65444.656067449585,-63787.96712016668,-38093.318115868344,-35719.33933727018,-31019.192161463758,-22840.778272244726,0.0,0.0,0.0,193.0,1.0,154.0,0.0,3.0,3.0,250.0,410.0,3.0,1018.0,1744252629.9606342,0.0,2025-04-09 22:37:09.960,RIGHT,7
0.0,17600.165915508976,3234.9232715276808,-65372.61639507013,-63740.78258762153,-37994.344591420246,-35623.85268495711,-31462.583716223686,-22760.44610267235,0.0,0.0,0.0,193.0,1.0,155.0,0.0,3.0,3.0,252.0,411.0,3.0,1020.0,1744252629.9606516,0.0,2025-04-09 22:37:09.960,RIGHT,7
1.0,17524.214687849842,3230.587033103351,-65409.496773421386,-63764.47543674415,-38021.83723710028,-35660.10721446362,-31128.78276452813,-22798.93580662439,0.0,0.0,0.0,193.0,1.0,155.0,0.0,3.0,3.0,250.0,411.0,3.0,1018.0,1744252629.9606693,0.0,2025-04-09 22:37:09.960,RIGHT,7
2.0,17473.565634914117,3188.4986982940077,-65429.211012030966,-63780.72515496316,-38061.91391490864,-35698.21693875992,-31197.201454305825,-22820.95227491287,0.0,0.0,0.0,193.0,1.0,155.0,0.0,2.0,3.0,252.0,411.0,2.0,1020.0,1744252629.9606867,0.0,2025-04-09 22:37:09.960,RIGHT,7
3.0,17613.934590093446,3212.035085205446,-65441.88445113712,-63768.76697167957,-38106.885624752715,-35734.60557873316,-30930.54514295401,-22851.685923538917,0.0,0.0,0.0,193.0,1.0,155.0,0.0,2.0,3.0,251.0,411.0,2.0,1019.0,1744252629.9606957,0.0,2025-04-09 22:37:09.960,RIGHT,7
4.0,17616.0580058167,3249.138981001256,-65371.54351133628,-63743.80007312299,-37998.01027751092,-35617.72830697636,-31489.718733992428,-22754.657000858428,0.0,0.0,0.0,193.0,1.0,154.0,0.0,2.0,3.0,249.0,410.0,2.0,1017.0,1744252629.9607048,0.0,2025-04-09 22:37:09.960,RIGHT,7
5.0,17556.08827544311,3260.9854055625688,-65381.35592715215,-63727.818575837446,-38002.34651593525,-35631.07229841618,-31125.809982515573,-22755.97575378129,0.0,0.0,0.0,193.0,1.0,154.0,0.0,2.0,3.0,251.0,410.0,2.0,1019.0,1744252629.960745,0.0,2025-04-09 22:37:09.960,RIGHT,7
6.0,17473.923262825403,3207.7659020144824,-65421.94669508299,-63783.36266080888,-38048.86049614674,-35678.949735039445,-31217.65330048243,-22803.763783426737,0.0,0.0,0.0,193.0,1.0,155.0,0.0,3.0,3.0,252.0,411.0,3.0,1020.0,1744252629.960754,0.0,2025-04-09 22:37:09.960,RIGHT,7
7.0,17603.652787644005,3222.7639225439934,-65425.38886372911,-63747.733980147124,-38099.35308687128,-35728.660014708046,-30900.54910189499,-22848.981362459825,0.0,0.0,0.0,193.0,1.0,155.0,0.0,3.0,3.0,251.0,411.0,3.0,1019.0,1744252629.9607627,0.0,2025-04-09 22:37:09.960,RIGHT,7
8.0,17630.117253079086,3250.748306602038,-65378.517255606326,-63760.56388146447,-38006.39218168166,-35629.664138515494,-31450.670236429007,-22777.254614502745,0.0,0.0,0.0,193.0,1.0,154.0,0.0,3.0,3.0,250.0,410.0,3.0,1018.0,1744252629.9607716,0.0,2025-04-09 22:37:09.960,RIGHT,7
9.0,17575.020202996755,3265.4781061980852,-65368.861302001635,-63714.76515707555,-37996.445655399046,-35628.03246117025,-31170.11114002599,-22762.480111417786,0.0,0.0,0.0,193.0,1.0,154.0,0.0,3.0,3.0,250.0,410.0,3.0,1018.0,1744252629.9607804,0.0,2025-04-09 22:37:09.960,RIGHT,7
10.0,17486.864922865025,3226.9436987571357,-65413.18481125651,-63779.540512507025,-38035.96353959603,-35660.10721446362,-31224.023547652192,-22790.75506815375,0.0,0.0,0.0,193.0,1.0,155.0,0.0,2.0,3.0,253.0,411.0,2.0,1021.0,1744252629.9607892,0.0,2025-04-09 22:37:09.960,RIGHT,7
11.0,17571.019240739257,3211.1857189161447,-65431.446186476496,-63748.82921562543,-38111.95947074407,-35734.29265431078,-30931.483916221136,-22857.162100930465,0.0,0.0,0.0,193.0,1.0,155.0,0.0,2.0,3.0,252.0,411.0,2.0,1020.0,1744252629.960798,0.0,2025-04-09 22:37:09.960,RIGHT,7
12.0,17635.660485704004,3241.002946019524,-65401.69601460648,-63780.65809972979,-38040.6797576761,-35652.507621348814,-31384.509072841298,-22805.238998560788,0.0,0.0,0.0,193.0,1.0,155.0,0.0,2.0,3.0,251.0,411.0,2.0,1019.0,1744252629.960807,0.0,2025-04-09 22:37:09.960,RIGHT,7
13.0,17573.34382216261,3250.0330507794683,-65375.432714871495,-63723.30352345748,-38009.83435032777,-35633.24041762834,-31262.557955093143,-22771.286698733176,0.0,0.0,0.0,193.0,1.0,154.0,0.0,2.0,3.0,249.0,410.0,2.0,1017.0,1744252629.960816,0.0,2025-04-09 22:37:09.960,RIGHT,7
14.0,17482.50633269624,3219.388809131242,-65425.075939306735,-63797.041928415536,-38040.56799895382,-35668.77969131228,-31212.735916702262,-22802.020347359223,0.0,0.0,0.0,193.0,1.0,155.0,0.0,2.0,3.0,250.0,411.0,2.0,1018.0,1744252629.9608245,0.0,2025-04-09 22:37:09.960,RIGHT,7
15.0,17537.37986533402,3198.8252042323597,-65432.47436672144,-63759.58040470844,-38102.772903772944,-35730.9845961314,-31005.244672923647,-22849.964839215856,0.0,0.0,0.0,193.0,1.0,155.0,0.0,2.0,3.0,252.0,411.0,2.0,1020.0,1744252629.9608333,0.0,2025-04-09 22:37:09.960,RIGHT,7
16.0,17636.39809327103,3222.071018465879,-65420.69499739349,-63795.34319583693,-38064.484365521,-35681.38607518507,-31250.018626453715,-22818.337120811597,0.0,0.0,0.0,193.0,1.0,155.0,0.0,2.0,3.0,251.0,411.0,2.0,1019.0,1744252629.960842,0.0,2025-04-09 22:37:09.960,RIGHT,7
17.0,17581.412801910974,3240.466504152597,-65366.134389178085,-63723.057654268465,-38000.13369323417,-35624.344423335126,-31353.417796303966,-22755.93105029238,0.0,0.0,0.0,193.0,1.0,154.0,0.0,2.0,3.0,250.0,410.0,2.0,1018.0,1744252629.9608507,0.0,2025-04-09 22:37:09.960,RIGHT,7
18.0,17499.717175926828,3228.329506913365,-65407.77568909833,-63777.28298631704,-38024.13946677917,-35649.780708525264,-31178.917727341384,-22778.215739514322,0.0,0.0,0.0,193.0,1.0,154.0,0.0,2.0,3.0,252.0,410.0,2.0,1020.0,1744252629.9608595,0.0,2025-04-09 22:37:09.960,RIGHT,7
19.0,17503.248751550764,3186.10706163729,-65428.495756208395,-63763.603718710394,-38091.52997631192,-35718.48997098088,-31088.34845880848,-22835.771481486736,0.0,0.0,0.0,193.0,1.0,155.0,0.0,2.0,3.0,252.0,411.0,2.0,1020.0,1744252629.960868,0.0,2025-04-09 22:37:09.960,RIGHT,7
20.0,17633.53706998075,3220.30523065391,-65423.37720672813,-63780.81456194098,-38077.604839516265,-35692.00315380134,-31116.645767288897,-22812.793888186683,0.0,0.0,0.0,193.0,1.0,154.0,0.0,2.0,3.0,249.0,410.0,2.0,1017.0,1744252629.960882,0.0,2025-04-09 22:37:09.960,RIGHT,7
21.0,17587.447772913907,3238.4101436627084,-65360.65821178654,-63723.57174439094,-37990.96947800749,-35612.94503366292,-31424.02695703828,-22740.038959984657,0.0,0.0,0.0,193.0,1.0,154.0,0.0,2.0,3.0,251.0,410.0,2.0,1019.0,1744252629.9608917,0.0,2025-04-09 22:37:09.960,RIGHT,7
22.0,17505.863905652037,3224.9767452450687,-65408.60270364317,-63773.259672315085,-38021.23373999998,-35654.38516788306,-31141.679721078843,-22785.055373317646,0.0,0.0,0.0,193.0,1.0,154.0,0.0,2.0,3.0,249.0,410.0,2.0,1017.0,1744252629.9609044,0.0,2025-04-09 22:37:09.960,RIGHT,7
23.0,17476.180789015387,3182.7319482245384,-65427.55698294127,-63775.27132931606,-38073.29095283639,-35700.966203327924,-31172.569831916077,-22822.852173191568,0.0,0.0,0.0,193.0,1.0,155.0,0.0,2.0,3.0,250.0,411.0,2.0,1018.0,1744252629.9609132,0.0,2025-04-09 22:37:09.960,RIGHT,7
24.0,17621.06479657469,3213.487948595041,-65428.60751493067,-63774.53372174904,-38086.746702998484,-35708.07405806471,-31000.12612344338,-22819.70057722337,0.0,0.0,0.0,193.0,1.0,155.0,0.0,2.0,3.0,252.0,411.0,2.0,1020.0,1744252629.960922,0.0,2025-04-09 22:37:09.960,RIGHT,7
25.0,17602.423441698964,3246.322661199887,-65353.43859832748,-63730.053750282976,-37976.53025108937,-35597.67879219995,-31469.937440149482,-22723.25279989872,0.0,0.0,0.0,193.0,1.0,154.0,0.0,2.0,3.0,250.0,410.0,2.0,1018.0,1744252629.9609308,0.0,2025-04-09 22:37:09.960,RIGHT,7
26.0,17526.785138462204,3241.092352997345,-65392.84472380218,-63752.13727380482,-38007.01803052641,-35633.39687983953,-31115.68464227732,-22756.288678203666,0.0,0.0,0.0,193.0,1.0,154.0,0.0,2.0,3.0,249.0,410.0,2.0,1017.0,1744252629.9609396,0.0,2025-04-09 22:37:09.960,RIGHT,7
27.0,17468.536492411673,3194.6454280192174,-65420.76205262686,-63782.3568323084,-38051.98974037048,-35678.592107128155,-31209.539617245155,-22805.618978216527,0.0,0.0,0.0,193.0,1.0,155.0,0.0,2.0,3.0,252.0,411.0,2.0,1020.0,1744252629.9609482,0.0,2025-04-09 22:37:09.960,RIGHT,7
28.0,17613.040520315233,3218.87471900877,-65424.20422127298,-63760.07214308646,-38092.24523213449,-35718.1323430696,-30925.292483007015,-22843.683999023917,0.0,0.0,0.0,193.0,1.0,155.0,0.0,2.0,3.0,251.0,411.0,2.0,1019.0,1744252629.9609566,0.0,2025-04-09 22:37:09.960,RIGHT,7
29.0,17617.890848862036,3247.5073036560184,-65364.03332519929,-63751.95845984918,-37990.83536754076,-35611.89450167352,-31484.80135021226,-22753.204137468834,0.0,0.0,0.0,193.0,1.0,155.0,0.0,2.0,3.0,251.0,411.0,2.0,1019.0,1744252629.9609656,0.0,2025-04-09 22:37:09.960,RIGHT,7
30.0,17551.75203701878,3252.9611293031135,-65377.60083408366,-63736.02166605255,-38002.07829500178,-35626.780763480754,-31137.365834398966,-22745.82806179858,0.0,0.0,0.0,193.0,1.0,154.0,0.0,2.0,3.0,250.0,410.0,2.0,1018.0,1744252629.9609745,0.0,2025-04-09 22:37:09.960,RIGHT,7
31.0,17460.534567896673,3199.6075152882954,-65423.98070382842,-63799.679434261256,-38049.39693801367,-35671.126624480086,-31228.09156514306,-22789.257501275242,0.0,0.0,0.0,193.0,1.0,154.0,0.0,2.0,3.0,249.0,410.0,2.0,1017.0,1744252629.9609828,0.0,2025-04-09 22:37:09.960,RIGHT,7
32.0,17580.92106353296,3206.3130386248877,-65430.82033763175,-63767.26940480107,-38103.71167704006,-35730.604616475655,-30909.53450316602,-22842.85698447907,0.0,0.0,0.0,193.0,1.0,154.0,0.0,2.0,3.0,249.0,410.0,2.0,1017.0,1744252629.9609914,0.0,2025-04-09 22:37:09.960,RIGHT,7
33.0,17619.790747140738,3230.095294725334,-65391.302453434764,-63788.011823655586,-38019.89263533266,-35637.487249074846,-31441.12604154659,-22779.93682383738,0.0,0.0,0.0,193.0,1.0,154.0,0.0,2.0,3.0,251.0,410.0,2.0,1019.0,1744252629.9610012,0.0,2025-04-09 22:37:09.961,RIGHT,7
34.0,17550.835615496115,3235.549120372429,-65384.82044754273,-63740.894346343805,-38009.99081253896,-35630.46880131588,-31197.424971750377,-22757.495672404253,0.0,0.0,0.0,193.0,1.0,155.0,0.0,2.0,3.0,252.0,411.0,2.0,1020.0,1744252629.9610097,0.0,2025-04-09 22:37:09.961,RIGHT,7
35.0,17474.16913201441,3212.146843927723,-65414.190639757,-63792.75039348011,-38029.23566451498,-35647.210257912906,-31233.27716985669,-22776.56171042463,0.0,0.0,0.0,193.0,1.0,154.0,0.0,2.0,3.0,249.0,410.0,2.0,1017.0,1744252629.9610233,0.0,2025-04-09 22:37:09.961,RIGHT,7
36.0,17556.0435719542,3203.027332189957,-65425.634732918115,-63755.69120117321,-38097.319078125845,-35719.07111633672,-30952.181631586747,-22837.89489720999,0.0,0.0,0.0,193.0,1.0,154.0,0.0,2.0,3.0,250.0,410.0,2.0,1018.0,1744252629.961032,0.0,2025-04-09 22:37:09.961,RIGHT,7
37.0,17639.192061327944,3245.1603704882114,-65393.269406946834,-63781.798038697016,-38025.61468191322,-35637.64371128604,-31341.97370314285,-22777.612242414027,0.0,0.0,0.0,193.0,1.0,155.0,0.0,2.0,3.0,252.0,411.0,2.0,1020.0,1744252629.9610405,0.0,2025-04-09 22:37:09.961,RIGHT,7
38.0,17572.226234939844,3251.329451957876,-65366.201444411454,-63722.9905990351,-37993.919908275595,-35615.24726334182,-31268.123539462515,-22744.17403270889,0.0,0.0,0.0,193.0,1.0,155.0,0.0,2.0,3.0,251.0,411.0,2.0,1019.0,1744252629.9610493,0.0,2025-04-09 22:37:09.961,RIGHT,7
39.0,17483.51216119673,3220.0593614649015,-65416.22464850243,-63795.11967839237,-38027.268711002915,-35650.33950213665,-31194.40748624891,-22776.0252685577,0.0,0.0,0.0,193.0,1.0,154.0,0.0,2.0,3.0,250.0,410.0,2.0,1018.0,1744252629.9610577,0.0,2025-04-09 22:37:09.961,RIGHT,7
40.0,17525.958123917357,3193.2819716074437,-65426.48409920742,-63765.52596873355,-38091.52997631192,-35717.618252947126,-31023.3719376769,-22832.083443651612,0.0,0.0,0.0,193.0,1.0,154.0,0.0,2.0,3.0,250.0,410.0,2.0,1018.0,1744252629.9610665,0.0,2025-04-09 22:37:09.961,RIGHT,7
41.0,17632.888869391547,3227.5024923685187,-65418.68334039251,-63799.83589647245,-38061.15395559716,-35678.10036875014,-31209.316099800602,-22806.490696250286,0.0,0.0,0.0,193.0,1.0,155.0,0.0,2.0,3.0,252.0,411.0,2.0,1020.0,1744252629.9610748,0.0,2025-04-09 22:37:09.961,RIGHT,7
42.0,17568.649955826993,3234.9903267610466,-65375.70093580496,-63744.02359056754,-38003.12882699118,-35629.932359448954,-31364.995999931816,-22751.326590934586,0.0,0.0,0.0,193.0,1.0,155.0,0.0,2.0,3.0,251.0,411.0,2.0,1019.0,1744252629.9610837,0.0,2025-04-09 22:37:09.961,RIGHT,7
43.0,17488.094268810066,3222.1827771881553,-65416.55992466926,-63794.04679465852,-38023.46891444551,-35656.28506616176,-31166.69132312433,-22774.46064644583,0.0,0.0,0.0,193.0,1.0,154.0,0.0,2.0,3.0,251.0,410.0,2.0,1019.0,1744252629.961092,0.0,2025-04-09 22:37:09.961,RIGHT,7
44.0,17492.832838634593,3188.9904366720248,-65424.69595965099,-63771.11390484738,-38072.86626969174,-35710.84567437717,-31110.09670616349,-22819.70057722337,0.0,0.0,0.0,193.0,1.0,154.0,0.0,2.0,3.0,250.0,410.0,2.0,1018.0,1744252629.9611006,0.0,2025-04-09 22:37:09.961,RIGHT,7
45.0,17632.620648458083,3224.485006867052,-65422.505488694376,-63779.16053285129,-38072.10631038026,-35696.0264678033,-31075.42915051331,-22806.021309616724,0.0,0.0,0.0,193.0,1.0,154.0,0.0,2.0,3.0,250.0,410.0,2.0,1018.0,1744252629.9611092,0.0,2025-04-09 22:37:09.961,RIGHT,7
46.0,17590.666424115472,3245.339184443854,-65354.51148206133,-63720.48720365611,-37981.067655213796,-35604.361963792086,-31444.814079381715,-22714.423860838877,0.0,0.0,0.0,193.0,1.0,155.0,0.0,2.0,3.0,252.0,411.0,2.0,1020.0,1744252629.9611175,0.0,2025-04-09 22:37:09.961,RIGHT,7
47.0,17515.072824367624,3241.159408230711,-65393.73879358039,-63749.14214004781,-38003.911138047115,-35638.78365025326,-31133.20840993028,-22742.765872808206,0.0,0.0,0.0,193.0,1.0,154.0,0.0,2.0,3.0,251.0,410.0,2.0,1019.0,1744252629.9611263,0.0,2025-04-09 22:37:09.961,RIGHT,7
48.0,17474.236187247778,3193.7737099854603,-65421.365549727154,-63761.39089600932,-38058.06941486233,-35695.71354338092,-31173.955640072305,-22794.46545773333,0.0,0.0,0.0,193.0,1.0,154.0,0.0,2.0,3.0,251.0,410.0,2.0,1019.0,1744252629.9611351,0.0,2025-04-09 22:37:09.961,RIGHT,7
49.0,17621.02009308578,3225.557890600907,-65422.30432299428,-63748.717456903156,-38079.34827558378,-35716.45596223545,-30966.978486416163,-22812.123335853023,0.0,0.0,0.0,193.0,1.0,154.0,0.0,2.0,3.0,249.0,410.0,2.0,1017.0,1744252629.9611435,0.0,2025-04-09 22:37:09.961,RIGHT,7
50.0,17607.989026068335,3259.197266006144,-65349.05765641423,-63707.50084012757,-37966.60607655121,-35602.77498993576,-31486.813007213237,-22714.937950961346,0.0,0.0,0.0,193.0,1.0,154.0,0.0,2.0,3.0,251.0,410.0,2.0,1019.0,1744252629.961157,0.0,2025-04-09 22:37:09.961,RIGHT,7
51.0,17535.636429266506,3262.639434652261,-65380.327746907205,-63712.932314030215,-37986.655591327624,-35629.932359448954,-31114.321185865545,-22720.4141283529,0.0,0.0,0.0,193.0,1.0,155.0,0.0,2.0,3.0,251.0,411.0,2.0,1019.0,1744252629.961166,0.0,2025-04-09 22:37:09.961,RIGHT,7
52.0,17467.1730359999,3204.614306046284,-65415.82231710223,-63749.633878425826,-38032.74488839447,-35670.25490644633,-31206.3656695325,-22754.657000858428,0.0,0.0,0.0,193.0,1.0,154.0,0.0,2.0,3.0,249.0,410.0,2.0,1017.0,1744252629.9611742,0.0,2025-04-09 22:37:09.961,RIGHT,7
53.0,17603.943360321922,3211.7668642719823,-65427.84755561919,-63724.06348276896,-38080.6893802511,-35719.22757854791,-30905.35472695288,-22798.913454879937,0.0,0.0,0.0,193.0,1.0,154.0,0.0,2.0,3.0,250.0,410.0,2.0,1018.0,1744252629.9611828,0.0,2025-04-09 22:37:09.961,RIGHT,7
54.0,17615.096880805122,3245.942681544147,-65370.895310747066,-63717.00033152108,-37977.983114478964,-35609.43580978344,-31467.61285872613,-22709.88645671445,0.0,0.0,0.0,193.0,1.0,155.0,0.0,2.0,3.0,252.0,411.0,2.0,1020.0,1744252629.9611912,0.0,2025-04-09 22:37:09.961,RIGHT,7
55.0,17543.481891570318,3253.363460703309,-65384.395764398076,-63693.10631669836,-37987.75082680593,-35628.09951640362,-31142.77495655715,-22720.369424863988,0.0,0.0,0.0,193.0,1.0,155.0,0.0,2.0,3.0,251.0,411.0,2.0,1019.0,1744252629.9612,0.0,2025-04-09 22:37:09.961,RIGHT,7
56.0,17455.50542539423,3202.915573467681,-65430.50741320937,-63755.11005581738,-38028.69922264805,-35670.52312737979,-31230.349091333046,-22770.75025686625,0.0,0.0,0.0,193.0,1.0,154.0,0.0,2.0,3.0,250.0,410.0,2.0,1018.0,1744252629.9612086,0.0,2025-04-09 22:37:09.961,RIGHT,7
57.0,17575.780162308238,3209.755207271005,-65430.395654487096,-63703.58928484789,-38079.281220350415,-35718.445267491974,-30914.78716311302,-22805.015481116236,0.0,0.0,0.0,193.0,1.0,155.0,0.0,2.0,3.0,250.0,411.0,2.0,1018.0,1744252629.9612172,0.0,2025-04-09 22:37:09.961,RIGHT,7
58.0,17615.141584294033,3233.135131971256,-65399.0361570163,-63729.42790143823,-38001.675963601585,-35626.19961812492,-31405.631471351564,-22728.818384268092,0.0,0.0,0.0,193.0,1.0,154.0,0.0,2.0,3.0,249.0,410.0,2.0,1017.0,1744252629.9612257,0.0,2025-04-09 22:37:09.961,RIGHT,7
59.0,17552.33318237462,3244.8250943213816,-65382.94290100848,-63674.64377577827,-37983.12401570368,-35614.487304030336,-31202.901149141926,-22706.44428806833,0.0,0.0,0.0,193.0,1.0,153.0,0.0,2.0,3.0,250.0,409.0,2.0,1018.0,1744252629.9612343,0.0,2025-04-09 22:37:09.961,RIGHT,7
60.0,17473.990318058768,3220.931079498658,-65419.15272702608,-63733.9429538182,-38007.219196226506,-35639.029519442265,-31211.014832379205,-22735.099224460035,0.0,0.0,0.0,193.0,1.0,154.0,0.0,2.0,3.0,250.0,410.0,2.0,1018.0,1744252629.961243,0.0,2025-04-09 22:37:09.961,RIGHT,7
61.0,17533.2894960987,3190.1080238947898,-65446.04187560581,-63710.56302911795,-38093.00519144597,-35724.90492163956,-30958.03778863404,-22811.117507352534,0.0,0.0,0.0,193.0,1.0,154.0,0.0,2.0,3.0,250.0,410.0,2.0,1018.0,1744252629.9612515,0.0,2025-04-09 22:37:09.961,RIGHT,7
62.0,17615.700377905414,3221.6910388101387,-65429.18866028651,-63746.9963725801,-38037.99754834146,-35662.185926697966,-31304.75804862476,-22770.45968418833,0.0,0.0,0.0,193.0,1.0,154.0,0.0,2.0,3.0,252.0,410.0,2.0,1020.0,1744252629.96126,0.0,2025-04-09 22:37:09.961,RIGHT,7
63.0,17564.537234847216,3247.1496757447335,-65377.93611025049,-63667.73708674158,-37980.285344157855,-35612.2074260959,-31301.204121256367,-22713.619198038483,0.0,0.0,0.0,193.0,1.0,154.0,0.0,2.0,3.0,249.0,410.0,2.0,1017.0,1744252629.9612684,0.0,2025-04-09 22:37:09.961,RIGHT,7
64.0,17480.82995186209,3228.3518586578202,-65426.260581762865,-63729.80788109397,-38011.600138139744,-35638.09074617514,-31188.193701290336,-22739.189593695355,0.0,0.0,0.0,193.0,1.0,154.0,0.0,2.0,3.0,248.0,410.0,2.0,1016.0,1744252629.961277,0.0,2025-04-09 22:37:09.961,RIGHT,7
65.0,17507.450879508364,3203.4073118456977,-65443.672590693546,-63705.39977614878,-38079.01299941695,-35701.43558996148,-31040.314559974024,-22792.096172821068,0.0,0.0,0.0,193.0,1.0,154.0,0.0,2.0,3.0,251.0,410.0,2.0,1019.0,1744252629.9612901,0.0,2025-04-09 22:37:09.961,RIGHT,7
66.0,17627.2115262999,3233.6045186048173,-65437.77173015735,-63733.11593927335,-38054.448432260564,-35669.092615734655,-31165.59608764602,-22775.332364479586,0.0,0.0,0.0,193.0,1.0,154.0,0.0,2.0,3.0,251.0,410.0,2.0,1019.0,1744252629.9612987,0.0,2025-04-09 22:37:09.961,RIGHT,7
67.0,17576.316604175165,3251.5976728913397,-65373.46576135943,-63661.56800527192,-37972.864564998694,-35595.46596949887,-31386.140750186536,-22707.941854946836,0.0,0.0,0.0,193.0,1.0,154.0,0.0,2.0,3.0,251.0,410.0,2.0,1019.0,1744252629.9613073,0.0,2025-04-09 22:37:09.961,RIGHT,7
68.0,17488.36248974353,3231.4363993926527,-65428.428700975026,-63721.89536355679,-38013.09770501825,-35636.14614440753,-31148.16172697088,-22750.991314767758,0.0,0.0,0.0,193.0,1.0,154.0,0.0,2.0,3.0,251.0,410.0,2.0,1019.0,1744252629.961316,0.0,2025-04-09 22:37:09.961,RIGHT,7
69.0,17473.722097125305,3185.7047302370943,-65446.35480002819,-63716.910924543256,-38071.88279293571,-35696.0264678033,-31134.862439019973,-22803.42850725991,0.0,0.0,0.0,193.0,1.0,154.0,0.0,2.0,3.0,250.0,410.0,2.0,1018.0,1744252629.9613247,0.0,2025-04-09 22:37:09.961,RIGHT,7
70.0,17611.475898203364,3214.6278875622615,-65448.0982360957,-63727.97503804864,-38078.856537205764,-35697.00994455933,-31055.29022875908,-22804.27787354921,0.0,0.0,0.0,193.0,1.0,154.0,0.0,2.0,3.0,250.0,410.0,2.0,1018.0,1744252629.9613333,0.0,2025-04-09 22:37:09.961,RIGHT,7
71.0,17583.267996700764,3244.8921495547474,-65372.72815379241,-63673.906168211244,-37973.35630337671,-35596.04711485471,-31470.496233760863,-22713.194514893832,0.0,0.0,0.0,193.0,1.0,154.0,0.0,2.0,3.0,252.0,410.0,2.0,1020.0,1744252629.9613416,0.0,2025-04-09 22:37:09.961,RIGHT,7
72.0,17510.378958032008,3242.031126264468,-65406.054604775265,-63700.057709223955,-37992.08706523026,-35625.752583235815,-31125.050023204094,-22738.92137276189,0.0,0.0,0.0,193.0,1.0,155.0,0.0,2.0,3.0,252.0,411.0,2.0,1020.0,1744252629.9613504,0.0,2025-04-09 22:37:09.961,RIGHT,7
73.0,17461.9203760529,3189.2810093499434,-65432.65318067708,-63725.717511858646,-38041.90910362114,-35680.626115873594,-31181.93521284285,-22785.41300122893,0.0,0.0,0.0,193.0,1.0,155.0,0.0,2.0,3.0,251.0,411.0,2.0,1019.0,1744252629.9613588,0.0,2025-04-09 22:37:09.961,RIGHT,7
74.0,17610.91710459198,3214.9184602401806,-65437.101177823686,-63715.68157859822,-38076.19667961558,-35708.29757550926,-30943.46445124918,-22805.41781251643,0.0,0.0,0.0,193.0,1.0,154.0,0.0,2.0,3.0,249.0,410.0,2.0,1017.0,1744252629.9613671,0.0,2025-04-09 22:37:09.961,RIGHT,7
75.0,17600.2553224868,3244.333355943365,-65369.95653747995,-63693.37453763182,-37967.924829474076,-35600.13748409003,-31482.342658322177,-22709.908808458902,0.0,0.0,0.0,193.0,1.0,153.0,0.0,2.0,3.0,249.0,409.0,2.0,1017.0,1744252629.9613757,0.0,2025-04-09 22:37:09.961,RIGHT,7
76.0,17523.32061807163,3242.098181497834,-65398.723232593926,-63699.32010165693,-37988.42137913959,-35635.743813007335,-31120.02088070165,-22738.69785531734,0.0,0.0,0.0,193.0,1.0,154.0,0.0,2.0,3.0,249.0,410.0,2.0,1017.0,1744252629.9613843,0.0,2025-04-09 22:37:09.961,RIGHT,7
77.0,17445.558899111616,3188.588105271829,-65441.437416248016,-63754.9982970951,-38040.88092337619,-35689.857386333635,-31218.368556305,-22791.447972231865,0.0,0.0,0.0,193.0,1.0,154.0,0.0,2.0,3.0,252.0,410.0,2.0,1020.0,1744252629.9613926,0.0,2025-04-09 22:37:09.961,RIGHT,7
78.0,17581.636319355526,3204.591954301829,-65447.80766341778,-63726.1421950033,-38095.62034554724,-35738.47243052393,-30908.528674665533,-22828.52951628322,0.0,0.0,0.0,193.0,1.0,155.0,0.0,2.0,3.0,251.0,411.0,2.0,1019.0,1744252629.9614017,0.0,2025-04-09 22:37:09.961,RIGHT,7
79.0,17605.753851622805,3237.8960535402366,-65389.29079643379,-63723.45998566866,-37991.975306507986,-35622.64569075652,-31469.04337037127,-22735.3674453935,0.0,0.0,0.0,193.0,1.0,155.0,0.0,2.0,3.0,252.0,411.0,2.0,1020.0,1744252629.96141,0.0,2025-04-09 22:37:09.961,RIGHT,7
80.0,17541.202013635877,3243.998079776535,-65389.64842434507,-63689.41827886323,-37986.81205353881,-35628.36773733708,-31155.291933452125,-22729.69010230185,0.0,0.0,0.0,193.0,1.0,154.0,0.0,2.0,3.0,250.0,410.0,2.0,1018.0,1744252629.9614637,0.0,2025-04-09 22:37:09.961,RIGHT,7
81.0,17461.562748141616,3210.515166582485,-65421.857288105166,-63743.554203933985,-38015.33287946378,-35654.698092305436,-31224.89526568595,-22764.536471907675,0.0,0.0,0.0,193.0,1.0,154.0,0.0,2.0,3.0,251.0,410.0,2.0,1019.0,1744252629.9614725,0.0,2025-04-09 22:37:09.961,RIGHT,7
82.0,17552.690810285905,3197.7299687540494,-65440.588049958715,-63715.234543709106,-38088.378380343725,-35728.54825598577,-30911.59086365591,-22825.288513337196,0.0,0.0,0.0,193.0,1.0,153.0,0.0,2.0,3.0,249.0,409.0,2.0,1017.0,1744252629.961481,0.0,2025-04-09 22:37:09.961,RIGHT,7
83.0,17611.58765692564,3235.5714721168843,-65403.57356114073,-63738.3462474759,-38006.48158865948,-35636.97315895238,-31383.391485618533,-22750.812500812113,0.0,0.0,0.0,193.0,1.0,153.0,0.0,2.0,3.0,249.0,409.0,2.0,1017.0,1744252629.9614897,0.0,2025-04-09 22:37:09.961,RIGHT,7
84.0,17551.61792655205,3244.333355943365,-65376.617357327625,-63676.81189499044,-37978.13957669015,-35614.353193563606,-31217.89916967144,-22713.194514893832,0.0,0.0,0.0,193.0,1.0,154.0,0.0,2.0,3.0,250.0,410.0,2.0,1018.0,1744252629.961498,0.0,2025-04-09 22:37:09.961,RIGHT,7
85.0,17460.355753941032,3210.0234282044685,-65425.366511984656,-63748.4939394586,-38011.91306256212,-35647.43377535746,-31195.2121490493,-22745.291619931653,0.0,0.0,0.0,193.0,1.0,154.0,0.0,2.0,3.0,251.0,410.0,2.0,1019.0,1744252629.9615068,0.0,2025-04-09 22:37:09.961,RIGHT,7
86.0,17529.221478607833,3199.048721676913,-65427.66874166355,-63702.89638076978,-38068.507679522954,-35709.05753482074,-30968.99014341714,-22795.47128623382,0.0,0.0,0.0,193.0,1.0,155.0,0.0,2.0,3.0,252.0,411.0,2.0,1020.0,1744252629.9615152,0.0,2025-04-09 22:37:09.961,RIGHT,7
87.0,17625.401034999017,3234.4985883830295,-65414.592971157195,-63737.541584675506,-38023.40185921214,-35655.34629289464,-31259.60752482504,-22760.60256488354,0.0,0.0,0.0,193.0,1.0,154.0,0.0,2.0,3.0,251.0,410.0,2.0,1019.0,1744252629.9615238,0.0,2025-04-09 22:37:09.961,RIGHT,7
88.0,17564.91721450296,3247.842579822848,-65374.404534626556,-63674.956700200644,-37972.50693708741,-35615.58253950865,-31305.026269558224,-22719.3635963635,0.0,0.0,0.0,193.0,1.0,154.0,0.0,2.0,3.0,251.0,410.0,2.0,1019.0,1744252629.9615324,0.0,2025-04-09 22:37:09.961,RIGHT,7
89.0,17481.45580070684,3227.5471958574294,-65417.61045665866,-63734.389988707306,-37999.306678689325,-35641.57761831017,-31169.75351211471,-22748.77849206668,0.0,0.0,0.0,193.0,1.0,154.0,0.0,2.0,3.0,249.0,410.0,2.0,1017.0,1744252629.9615407,0.0,2025-04-09 22:37:09.961,RIGHT,7
90.0,17490.351795000053,3183.871887191759,-65436.90001212359,-63716.486241398605,-38065.579600999314,-35706.911767353035,-31051.691597901776,-22801.148629325467,0.0,0.0,0.0,193.0,1.0,154.0,0.0,2.0,3.0,250.0,410.0,2.0,1018.0,1744252629.9615493,0.0,2025-04-09 22:37:09.961,RIGHT,7
91.0,17613.800479626712,3214.5831840733513,-65431.17796554303,-63741.453139955185,-38043.04904258836,-35678.659162361524,-31119.909121979374,-22779.489788948275,0.0,0.0,0.0,193.0,1.0,154.0,0.0,2.0,3.0,249.0,410.0,2.0,1017.0,1744252629.9615579,0.0,2025-04-09 22:37:09.961,RIGHT,7
92.0,17563.352592391086,3233.0457249934348,-65365.64265080007,-63679.091772924876,-37961.01814043739,-35607.066524871174,-31391.840445022637,-22711.40637533741,0.0,0.0,0.0,193.0,1.0,154.0,0.0,2.0,3.0,251.0,410.0,2.0,1019.0,1744252629.9615664,0.0,2025-04-09 22:37:09.961,RIGHT,7
93.0,17481.612262918028,3219.947602742625,-65409.45206993247,-63728.176203748735,-37988.48843437296,-35640.92941772097,-31129.07333720605,-22739.994256495746,0.0,0.0,0.0,193.0,1.0,154.0,0.0,2.0,3.0,251.0,410.0,2.0,1019.0,1744252629.9615748,0.0,2025-04-09 22:37:09.961,RIGHT,7
94.0,17459.618146374007,3176.3840527992315,-65429.1439567976,-63725.315180458456,-38046.491211234475,-35696.09352303667,-31129.92270349535,-22789.525722208706,0.0,0.0,0.0,193.0,1.0,154.0,0.0,2.0,3.0,249.0,410.0,2.0,1017.0,1744252629.9615831,0.0,2025-04-09 22:37:09.961,RIGHT,7
95.0,17608.77133712427,3212.8620997502926,-65425.210049773465,-63727.103320014874,-38051.453298503555,-35698.35104922665,-31006.09403921295,-22795.98537635629,0.0,0.0,0.0,193.0,1.0,154.0,0.0,2.0,3.0,249.0,410.0,2.0,1017.0,1744252629.9616084,0.0,2025-04-09 22:37:09.961,RIGHT,7
96.0,17581.077525744146,3241.0252977639793,-65352.83510122718,-63678.823551991416,-37947.361224575194,-35595.08598984313,-31449.060910828226,-22704.656148511905,0.0,0.0,0.0,193.0,1.0,154.0,0.0,2.0,3.0,249.0,410.0,2.0,1017.0,1744252629.961617,0.0,2025-04-09 22:37:09.961,RIGHT,7
97.0,17512.569428988627,3243.036954764957,-65389.40255515606,-63702.3375871584,-37974.74211153294,-35628.39008908154,-31109.448505574288,-22735.099224460035,0.0,0.0,0.0,193.0,1.0,154.0,0.0,2.0,3.0,252.0,410.0,2.0,1020.0,1744252629.9616256,0.0,2025-04-09 22:37:09.961,RIGHT,7
98.0,17457.338268439566,3195.7630152419824,-65420.449128204484,-63733.65238114028,-38028.453353459045,-35682.39190368556,-31187.858425123504,-22785.524759951208,0.0,0.0,0.0,193.0,1.0,154.0,0.0,2.0,3.0,251.0,410.0,2.0,1019.0,1744252629.961634,0.0,2025-04-09 22:37:09.961,RIGHT,7
99.0,17596.94726430741,3218.1818149306555,-65426.260581762865,-63719.05669201096,-38069.714673723545,-35716.25479653535,-30923.861971361875,-22814.425565531918,0.0,0.0,0.0,193.0,1.0,155.0,0.0,2.0,3.0,252.0,411.0,2.0,1020.0,1744252629.9616425,0.0,2025-04-09 22:37:09.961,RIGHT,7
100.0,17596.276711973755,3256.448001438141,-65360.12176991961,-63700.37063364633,-37967.500146329425,-35603.66905971397,-31480.1298356211,-22724.72801503277,0.0,0.0,0.0,193.0,1.0,154.0,0.0,2.0,3.0,249.0,410.0,2.0,1017.0,1744252629.961651,0.0,2025-04-09 22:37:09.961,RIGHT,7
101.0,17521.0854436261,3247.619062378295,-65387.70382257746,-63700.52709585752,-37993.47287338649,-35637.53195256376,-31130.43679361782,-22752.98062002428,0.0,0.0,0.0,193.0,1.0,154.0,0.0,2.0,3.0,250.0,410.0,2.0,1018.0,1744252629.9616597,0.0,2025-04-09 22:37:09.961,RIGHT,7
102.0,17449.246936946744,3198.48992806553,-65415.86702059115,-63745.163529534766,-38025.05588830184,-35671.193679713455,-31225.766983719706,-22794.666623433426,0.0,0.0,0.0,193.0,1.0,154.0,0.0,2.0,3.0,251.0,410.0,2.0,1019.0,1744252629.9616685,0.0,2025-04-09 22:37:09.961,RIGHT,7
103.0,17574.237891940822,3208.6599717926947,-65423.71248289496,-63712.17235471873,-38081.69520875159,-35721.865084393634,-30892.904805291273,-22829.065958150146,0.0,0.0,0.0,193.0,1.0,155.0,0.0,2.0,3.0,253.0,411.0,2.0,1021.0,1744252629.9616773,0.0,2025-04-09 22:37:09.961,RIGHT,7
104.0,17607.363177223586,3244.6686321101943,-65369.442447357476,-63719.16845073325,-37980.0618267133,-35609.882844672546,-31432.61002690912,-22729.421881368387,0.0,0.0,0.0,193.0,1.0,155.0,0.0,2.0,3.0,251.0,411.0,2.0,1019.0,1744252629.9616857,0.0,2025-04-09 22:37:09.961,RIGHT,7
105.0,17542.56547004765,3249.0719257678898,-65367.27432814531,-63680.81285724793,-37978.00546622342,-35616.47660928686,-31148.094671737515,-22724.392738865943,0.0,0.0,0.0,193.0,1.0,155.0,0.0,2.0,3.0,251.0,411.0,2.0,1019.0,1744252629.961694,0.0,2025-04-09 22:37:09.961,RIGHT,7
106.0,17455.75129458324,3212.146843927723,-65411.97781705592,-63746.52698594654,-38018.126847520696,-35649.13250793606,-31210.21016957881,-22768.559785909627,0.0,0.0,0.0,193.0,1.0,154.0,0.0,2.0,3.0,249.0,410.0,2.0,1017.0,1744252629.9617023,0.0,2025-04-09 22:37:09.961,RIGHT,7
107.0,17548.84631023959,3205.8213002468706,-65418.929209581525,-63705.77975580451,-38082.16459538515,-35712.41029648904,-30916.843523602907,-22821.913399924448,0.0,0.0,0.0,193.0,1.0,154.0,0.0,2.0,3.0,250.0,410.0,2.0,1018.0,1744252629.9617107,0.0,2025-04-09 22:37:09.961,RIGHT,7
108.0,17612.034691814744,3235.7726378169823,-65390.542494123285,-63737.02749455303,-38012.9188910626,-35631.78755423875,-31347.96397065687,-22762.83773932907,0.0,0.0,0.0,193.0,1.0,154.0,0.0,2.0,3.0,250.0,410.0,2.0,1018.0,1744252629.9617195,0.0,2025-04-09 22:37:09.961,RIGHT,7
109.0,17558.72578128884,3258.7949346059486,-65350.71168550393,-63665.18898787368,-37969.78002426386,-35598.86343465608,-31234.350053590544,-22724.88447724396,0.0,0.0,0.0,193.0,1.0,155.0,0.0,2.0,3.0,252.0,411.0,2.0,1020.0,1744252629.961728,0.0,2025-04-09 22:37:09.961,RIGHT,7
110.0,17468.31297496712,3224.753227800516,-65399.79611632778,-63736.15577651928,-38001.00541126793,-35631.51933330528,-31181.331715742555,-22757.696838104348,0.0,0.0,0.0,193.0,1.0,155.0,0.0,2.0,3.0,251.0,411.0,2.0,1019.0,1744252629.9617512,0.0,2025-04-09 22:37:09.961,RIGHT,7
111.0,17511.071862110122,3195.6289047752507,-65419.10802353716,-63710.92065702924,-38074.877926692716,-35708.789313887275,-30975.360390586902,-22821.220495846334,0.0,0.0,0.0,193.0,1.0,155.0,0.0,2.0,3.0,252.0,411.0,2.0,1020.0,1744252629.96176,0.0,2025-04-09 22:37:09.961,RIGHT,7
112.0,17614.38162498255,3229.8941290252365,-65401.62895937311,-63741.25197425509,-38026.10642029124,-35655.97214173939,-31217.295672571145,-22779.065105803624,0.0,0.0,0.0,193.0,1.0,154.0,0.0,2.0,3.0,250.0,410.0,2.0,1018.0,1744252629.9617684,0.0,2025-04-09 22:37:09.961,RIGHT,7
113.0,17564.91721450296,3251.7988385914373,-65344.967287178915,-63664.31726983992,-37959.2076491365,-35592.8508153976,-31311.57533068363,-22712.479259071264,0.0,0.0,0.0,193.0,1.0,154.0,0.0,2.0,3.0,249.0,410.0,2.0,1017.0,1744252629.9617767,0.0,2025-04-09 22:37:09.961,RIGHT,7
114.0,17474.549111670152,3227.480140624063,-65402.41127042905,-63733.11593927335,-38000.33485893427,-35636.43671708545,-31139.55630535559,-22757.96505903781,0.0,0.0,0.0,193.0,1.0,154.0,0.0,2.0,3.0,250.0,410.0,2.0,1018.0,1744252629.9617853,0.0,2025-04-09 22:37:09.961,RIGHT,7
115.0,17474.727925625793,3184.207163358589,-65425.12064279564,-63723.08000601292,-38066.831298688805,-35708.96812784292,-31064.253278285658,-22817.957141155857,0.0,0.0,0.0,193.0,1.0,155.0,0.0,2.0,3.0,252.0,411.0,2.0,1020.0,1744252630.4101117,0.0,2025-04-09 22:37:10.410,RIGHT,7
116.0,17611.475898203364,3223.6579923222057,-65416.78344211382,-63737.385122464315,-38052.86145840424,-35685.40938918703,-31096.886825190406,-22804.009652615747,0.0,0.0,0.0,193.0,1.0,155.0,0.0,2.0,3.0,252.0,411.0,2.0,1020.0,1744252630.410149,0.0,2025-04-09 22:37:10.410,RIGHT,7
117.0,17557.51878708825,3232.5092831265074,-65364.43565659948,-63688.814781762936,-37980.79943428033,-35610.776914450755,-31415.063907511703,-22737.78143379467,0.0,0.0,0.0,193.0,1.0,154.0,0.0,2.0,3.0,251.0,410.0,2.0,1019.0,1744252630.410168,0.0,2025-04-09 22:37:10.410,RIGHT,7
118.0,17484.294472252666,3227.4130853906972,-65402.925360551526,-63730.1431572608,-37999.8207688118,-35641.30939737671,-31132.71667155226,-22759.686143360872,0.0,0.0,0.0,193.0,1.0,154.0,0.0,2.0,3.0,249.0,410.0,2.0,1017.0,1744252630.4101849,0.0,2025-04-09 22:37:10.410,RIGHT,7
119.0,17461.2721754637,3188.7892709719267,-65417.18577351401,-63731.12663401683,-38043.496077477466,-35689.52211016681,-31142.618494345963,-22802.355623526055,0.0,0.0,0.0,193.0,1.0,154.0,0.0,2.0,3.0,250.0,410.0,2.0,1018.0,1744252630.4102015,0.0,2025-04-09 22:37:10.410,RIGHT,7
120.0,17597.081374774145,3204.4354920906417,-65433.65900917757,-63743.86712835636,-38075.213202859544,-35712.142075555574,-30977.93084119926,-22836.75495824277,0.0,0.0,0.0,193.0,1.0,154.0,0.0,2.0,3.0,250.0,410.0,2.0,1018.0,1744252630.4102187,0.0,2025-04-09 22:37:10.410,RIGHT,7
121.0,17576.696583830904,3234.4762366385744,-65360.12176991961,-63702.60580809186,-37965.08615792825,-35602.79734168021,-31469.490405260374,-22738.340227406054,0.0,0.0,0.0,193.0,1.0,155.0,0.0,2.0,3.0,252.0,411.0,2.0,1020.0,1744252630.410236,0.0,2025-04-09 22:37:10.410,RIGHT,7
122.0,17507.450879508364,3236.9572802731136,-65387.547360366276,-63713.13347973031,-37981.78291103637,-35621.125772133564,-31105.53695029461,-22736.4179773829,0.0,0.0,0.0,193.0,1.0,154.0,0.0,2.0,3.0,250.0,410.0,2.0,1018.0,1744252630.410245,0.0,2025-04-09 22:37:10.410,RIGHT,7
123.0,17446.274154934188,3182.910762180181,-65419.71152063746,-63749.38800923682,-38031.69435640507,-35672.69124659196,-31191.70292516982,-22785.636518673484,0.0,0.0,0.0,193.0,1.0,154.0,0.0,2.0,3.0,250.0,410.0,2.0,1018.0,1744252630.410254,0.0,2025-04-09 22:37:10.410,RIGHT,7
124.0,17580.38462166603,3193.5725442853627,-65436.676494679035,-63740.93904983271,-38085.562060542354,-35722.714450682935,-30906.11468626436,-22826.27199009323,0.0,0.0,0.0,193.0,1.0,155.0,0.0,2.0,3.0,251.0,411.0,2.0,1019.0,1744252630.410263,0.0,2025-04-09 22:37:10.410,RIGHT,7
125.0,17590.599368882104,3230.072942980879,-65368.34721187916,-63722.923543801735,-37972.68575104306,-35604.16079809199,-31466.584678481184,-22728.25959065671,0.0,0.0,0.0,193.0,1.0,154.0,0.0,2.0,3.0,251.0,410.0,2.0,1019.0,1744252630.411657,0.0,2025-04-09 22:37:10.411,RIGHT,7
126.0,17520.70546397036,3233.649222093728,-65387.36854641063,-63711.8370785519,-37990.05305648483,-35632.27929261676,-31119.327976623536,-22752.153605479434,0.0,0.0,0.0,193.0,1.0,154.0,0.0,2.0,3.0,249.0,410.0,2.0,1017.0,1744252630.4116693,0.0,2025-04-09 22:37:10.411,RIGHT,7
127.0,17435.299448406633,3189.01278841648,-65426.90878235207,-63769.839855413426,-38030.66617616012,-35674.21116521492,-31218.346204560545,-22792.722021665817,0.0,0.0,0.0,193.0,1.0,155.0,0.0,2.0,3.0,252.0,411.0,2.0,1020.0,1744252630.4116783,0.0,2025-04-09 22:37:10.411,RIGHT,7
128.0,17547.81812999465,3182.9554656690916,-65441.079788336734,-63739.82146260994,-38092.4911013235,-35736.63958747859,-30895.564662881454,-22842.991094945803,0.0,0.0,0.0,193.0,1.0,155.0,0.0,2.0,3.0,251.0,411.0,2.0,1019.0,1744252630.4116871,0.0,2025-04-09 22:37:10.411,RIGHT,7
129.0,17594.801496839704,3223.3897713887422,-65387.61441559964,-63748.225718525144,-37993.47287338649,-35627.496019303326,-31428.07262278469,-22756.847471815046,0.0,0.0,0.0,193.0,1.0,155.0,0.0,2.0,3.0,252.0,411.0,2.0,1020.0,1744252630.4116962,0.0,2025-04-09 22:37:10.411,RIGHT,7
130.0,17533.758882732258,3233.872739538281,-65379.18780793999,-63704.14807845928,-37987.840233783754,-35630.848780971624,-31182.248137265226,-22752.555936879628,0.0,0.0,0.0,193.0,1.0,154.0,0.0,2.0,3.0,250.0,410.0,2.0,1018.0,1744252630.411705,0.0,2025-04-09 22:37:10.411,RIGHT,7
131.0,17443.100207221534,3194.846593719315,-65424.62890441763,-63775.53955024953,-38021.03257429988,-35667.684455833965,-31219.106163872024,-22791.13504780949,0.0,0.0,0.0,193.0,1.0,154.0,0.0,2.0,3.0,249.0,410.0,2.0,1017.0,1744252630.411714,0.0,2025-04-09 22:37:10.411,RIGHT,7
132.0,17522.56065876015,3179.178020856145,-65433.726064410934,-63738.94974457619,-38084.600935530776,-35734.672633966526,-30930.88041912084,-22839.481871066317,0.0,0.0,0.0,193.0,1.0,154.0,0.0,2.0,3.0,252.0,410.0,2.0,1020.0,1744252630.4117227,0.0,2025-04-09 22:37:10.411,RIGHT,7
133.0,17605.329168478154,3222.49570161053,-65396.197485470475,-63759.982736108635,-38008.605004382734,-35643.4104613555,-31318.14674355349,-22765.251727730243,0.0,0.0,0.0,193.0,1.0,155.0,0.0,2.0,3.0,252.0,411.0,2.0,1020.0,1744252630.4117312,0.0,2025-04-09 22:37:10.411,RIGHT,7
134.0,17546.23115613832,3238.4101436627084,-65358.311278618734,-63690.334700385894,-37969.42239635258,-35611.58157725115,-31241.793184494163,-22729.086605201555,0.0,0.0,0.0,193.0,1.0,154.0,0.0,2.0,3.0,250.0,410.0,2.0,1018.0,1744252630.4117398,0.0,2025-04-09 22:37:10.411,RIGHT,7
135.0,17456.891233550457,3216.2148614185885,-65404.4899826634,-63755.04300058401,-37999.95487927853,-35637.59900779712,-31172.279259238156,-22767.50925392023,0.0,0.0,0.0,193.0,1.0,154.0,0.0,2.0,3.0,250.0,410.0,2.0,1018.0,1744252630.4117484,0.0,2025-04-09 22:37:10.411,RIGHT,7
136.0,17488.563655443628,3178.172192355656,-65423.75718638387,-63731.28309622802,-38069.1335283677,-35715.45013373496,-31000.841379265952,-22842.745225756793,0.0,0.0,0.0,193.0,1.0,155.0,0.0,2.0,3.0,252.0,411.0,2.0,1020.0,1744252630.4117568,0.0,2025-04-09 22:37:10.411,RIGHT,7
137.0,17599.741232364326,3211.498643338519,-65416.11288978015,-63764.81071291098,-38037.550513452356,-35675.48521464887,-31189.08777106855,-22815.90078066597,0.0,0.0,0.0,193.0,1.0,155.0,0.0,2.0,3.0,251.0,411.0,2.0,1019.0,1744252630.4117656,0.0,2025-04-09 22:37:10.411,RIGHT,7
138.0,17548.37692360603,3232.039896492946,-65361.105246675645,-63696.45907836665,-37967.72366377398,-35607.155931848996,-31337.905685651982,-22730.807689524616,0.0,0.0,0.0,193.0,1.0,154.0,0.0,2.0,3.0,248.0,410.0,2.0,1016.0,1744252630.4117742,0.0,2025-04-09 22:37:10.411,RIGHT,7
139.0,17468.335326711574,3219.165291686689,-65405.87579081963,-63751.176148793245,-37995.84215829875,-35635.56499905169,-31129.83329651753,-22754.634649113974,0.0,0.0,0.0,193.0,1.0,154.0,0.0,2.0,3.0,251.0,410.0,2.0,1019.0,1744252630.4117827,0.0,2025-04-09 22:37:10.411,RIGHT,7
140.0,17466.45778017733,3181.144974368212,-65418.48217469242,-63736.133424774824,-38051.69916769257,-35694.886528836076,-31076.524385991623,-22810.961045141346,0.0,0.0,0.0,193.0,1.0,155.0,0.0,2.0,3.0,252.0,411.0,2.0,1020.0,1744252630.4117997,0.0,2025-04-09 22:37:10.411,RIGHT,7
141.0,17595.47204917336,3204.368436857276,-65432.45201497698,-63765.52596873355,-38065.221973088024,-35700.94385158346,-31052.13863279088,-22830.205897117365,0.0,0.0,0.0,193.0,1.0,155.0,0.0,2.0,3.0,251.0,411.0,2.0,1019.0,1744252630.4118085,0.0,2025-04-09 22:37:10.411,RIGHT,7
142.0,17566.615947081562,3241.6287948642725,-65354.1762058945,-63697.37549988932,-37963.47683232747,-35595.71183868788,-31435.582808921674,-22734.428672126374,0.0,0.0,0.0,193.0,1.0,154.0,0.0,2.0,3.0,249.0,410.0,2.0,1017.0,1744252630.4118168,0.0,2025-04-09 22:37:10.411,RIGHT,7
143.0,17489.122449055012,3233.4704081380855,-65395.07989824771,-63729.785529349516,-37991.34945766324,-35626.98192918085,-31111.97425269774,-22751.997143268247,0.0,0.0,0.0,193.0,1.0,154.0,0.0,2.0,3.0,250.0,410.0,2.0,1018.0,1744252630.4118254,0.0,2025-04-09 22:37:10.411,RIGHT,7
144.0,17448.419922401896,3184.4083290586864,-65423.734834639414,-63749.61152668137,-38049.44164150258,-35684.58237464218,-31154.17434622936,-22807.295359050677,0.0,0.0,0.0,193.0,1.0,155.0,0.0,2.0,3.0,251.0,411.0,2.0,1019.0,1744252630.411834,0.0,2025-04-09 22:37:10.411,RIGHT,7
145.0,17599.607121897596,3218.1818149306555,-65422.81841311675,-63740.17909052123,-38068.73119696751,-35699.356877727136,-30956.763739200087,-22824.461498792352,0.0,0.0,0.0,193.0,1.0,154.0,0.0,2.0,3.0,249.0,410.0,2.0,1017.0,1744252630.4118426,0.0,2025-04-09 22:37:10.411,RIGHT,7
146.0,17579.95993852138,3242.6122716203063,-65357.59602279616,-63710.25010469557,-37965.533192817355,-35594.840120654124,-31466.092940103168,-22733.713416303806,0.0,0.0,0.0,193.0,1.0,154.0,0.0,2.0,3.0,249.0,410.0,2.0,1017.0,1744252630.4118512,0.0,2025-04-09 22:37:10.411,RIGHT,7
147.0,17504.209876562345,3240.131227985767,-65390.09545923418,-63723.28117171302,-37991.72943731897,-35627.27250185877,-31109.35909859647,-22761.87661431749,0.0,0.0,0.0,193.0,1.0,155.0,0.0,2.0,3.0,252.0,411.0,2.0,1020.0,1744252630.4118595,0.0,2025-04-09 22:37:10.411,RIGHT,7
148.0,17442.809634543613,3200.1216054107676,-65414.21299150145,-63757.63580294083,-38029.079202303794,-35662.70001682043,-31210.07605911208,-22797.0806118346,0.0,0.0,0.0,193.0,1.0,154.0,0.0,2.0,3.0,250.0,410.0,2.0,1018.0,1744252630.4118683,0.0,2025-04-09 22:37:10.411,RIGHT,7
149.0,17577.300080931196,3208.235288648044,-65421.790232871805,-63735.70874163017,-38077.29191509389,-35710.622156932615,-30893.10597099137,-22831.457594806863,0.0,0.0,0.0,193.0,1.0,154.0,0.0,2.0,3.0,249.0,410.0,2.0,1017.0,1744252630.411877,0.0,2025-04-09 22:37:10.411,RIGHT,7
150.0,17584.497342645805,3232.643393593239,-65365.59794731116,-63736.356942219376,-37977.7148935455,-35602.730286446844,-31454.760605664327,-22747.191518210355,0.0,0.0,0.0,193.0,1.0,155.0,0.0,2.0,3.0,252.0,411.0,2.0,1020.0,1744252630.4118855,0.0,2025-04-09 22:37:10.411,RIGHT,7
151.0,17521.398368048474,3243.707507098616,-65365.374429866606,-63706.919694771736,-37973.35630337671,-35614.17437960796,-31124.424174359345,-22740.575401851584,0.0,0.0,0.0,193.0,1.0,154.0,0.0,2.0,3.0,250.0,410.0,2.0,1018.0,1744252630.411894,0.0,2025-04-09 22:37:10.411,RIGHT,7
152.0,17430.963209982303,3188.5657535273735,-65411.84370658919,-63774.66783221577,-38017.59040565377,-35664.24228718785,-31199.436628751355,-22786.687050662884,0.0,0.0,0.0,193.0,1.0,154.0,0.0,2.0,3.0,250.0,410.0,2.0,1018.0,1744252630.4119024,0.0,2025-04-09 22:37:10.411,RIGHT,7
153.0,17538.586859534607,3188.7669192274716,-65422.39372997209,-63739.93322133223,-38079.281220350415,-35732.772735687824,-30889.6414506008,-22846.52267056974,0.0,0.0,0.0,193.0,1.0,155.0,0.0,2.0,3.0,252.0,411.0,2.0,1020.0,1744252630.411911,0.0,2025-04-09 22:37:10.411,RIGHT,7
154.0,17592.275749716253,3226.3402016568425,-65373.689278803984,-63752.85252962739,-37986.32031516079,-35628.613606526094,-31388.711200798894,-22759.239108471767,0.0,0.0,0.0,193.0,1.0,155.0,0.0,2.0,3.0,251.0,411.0,2.0,1019.0,1744252630.4119196,0.0,2025-04-09 22:37:10.411,RIGHT,7
155.0,17524.304094827665,3232.8892627822474,-65361.44052284247,-63705.243313937586,-37974.47389059948,-35626.24432161383,-31176.12375928447,-22745.49278563175,0.0,0.0,0.0,193.0,1.0,154.0,0.0,2.0,3.0,250.0,410.0,2.0,1018.0,1744252630.4119337,0.0,2025-04-09 22:37:10.411,RIGHT,7
156.0,17441.55793685412,3205.3742653577647,-65399.974930283424,-63768.38699202383,-38003.84408281375,-35657.11208070661,-31188.774846646174,-22785.144780295468,0.0,0.0,0.0,193.0,1.0,154.0,0.0,2.0,3.0,250.0,410.0,2.0,1018.0,1744252630.411942,0.0,2025-04-09 22:37:10.411,RIGHT,7
157.0,17504.969835873824,3179.625055745251,-65417.453994447475,-63735.574631163436,-38081.382284329215,-35731.1857618315,-30939.239971547126,-22846.43326359192,0.0,0.0,0.0,193.0,1.0,155.0,0.0,2.0,3.0,251.0,411.0,2.0,1019.0,1744252630.4119506,0.0,2025-04-09 22:37:10.411,RIGHT,7
158.0,17596.880209074046,3220.7969690319264,-65386.72034582143,-63757.166416307264,-38017.16572250912,-35646.80792651271,-31279.165301223435,-22777.56753892512,0.0,0.0,0.0,193.0,1.0,154.0,0.0,2.0,3.0,249.0,410.0,2.0,1017.0,1744252630.4119592,0.0,2025-04-09 22:37:10.411,RIGHT,7
159.0,17541.22436538033,3238.9465855296357,-65339.62522025409,-63683.629177049304,-37963.11920441618,-35597.9023096445,-31270.314010419133,-22721.129384175467,0.0,0.0,0.0,193.0,1.0,154.0,0.0,2.0,3.0,250.0,410.0,2.0,1018.0,1744252630.4119678,0.0,2025-04-09 22:37:10.411,RIGHT,7
160.0,17461.763913841714,3223.099198710823,-65383.25582543085,-63747.890442358315,-37990.81301579631,-35629.28415885975,-31152.341503184023,-22756.13221599248,0.0,0.0,0.0,193.0,1.0,154.0,0.0,2.0,3.0,252.0,410.0,2.0,1020.0,1744252630.411976,0.0,2025-04-09 22:37:10.411,RIGHT,7
161.0,17491.64819617846,3191.5161837954743,-65398.70088084947,-63723.32587520193,-38058.96348464054,-35696.60761315913,-31010.497332870644,-22811.788059686194,0.0,0.0,0.0,193.0,1.0,154.0,0.0,2.0,3.0,252.0,410.0,2.0,1020.0,1744252630.4119847,0.0,2025-04-09 22:37:10.411,RIGHT,7
162.0,17608.279598746252,3222.0486667214236,-65398.164438982545,-63755.154759306286,-38042.17732455461,-35670.076092490686,-31136.78468904313,-22799.76282116924,0.0,0.0,0.0,193.0,1.0,154.0,0.0,2.0,3.0,250.0,410.0,2.0,1018.0,1744252630.4119935,0.0,2025-04-09 22:37:10.411,RIGHT,7
163.0,17553.070789941645,3239.907710541214,-65340.36282782112,-63692.54752308697,-37968.43891959655,-35600.89744340151,-31365.3536278431,-22730.159488935413,0.0,0.0,0.0,193.0,1.0,154.0,0.0,2.0,3.0,249.0,410.0,2.0,1017.0,1744252630.412002,0.0,2025-04-09 22:37:10.412,RIGHT,7
164.0,17475.979623315292,3231.324640670376,-65382.04883123027,-63741.49784344409,-37988.93546926206,-35629.88765596005,-31125.4970580932,-22757.40626542643,0.0,0.0,0.0,193.0,1.0,154.0,0.0,2.0,3.0,252.0,410.0,2.0,1020.0,1744252630.412011,0.0,2025-04-09 22:37:10.412,RIGHT,7
165.0,17458.679373106883,3184.2518668474995,-65406.16636349754,-63743.397741722794,-38050.24630430297,-35698.61927016011,-31095.54572052309,-22820.95227491287,0.0,0.0,0.0,193.0,1.0,154.0,0.0,2.0,3.0,251.0,410.0,2.0,1019.0,1744252630.4120195,0.0,2025-04-09 22:37:10.412,RIGHT,7
166.0,17592.409860182986,3210.7610357714934,-65414.57061941274,-63760.27330878655,-38066.33956031079,-35703.02256381781,-31011.45845788222,-22824.528554025717,0.0,0.0,0.0,193.0,1.0,154.0,0.0,2.0,3.0,249.0,410.0,2.0,1017.0,1744252630.4120283,0.0,2025-04-09 22:37:10.412,RIGHT,7
167.0,17561.85502551258,3240.757076830516,-65341.63687725507,-63706.27149418253,-37961.28636137085,-35599.869263156565,-31428.094974529147,-22722.939875476346,0.0,0.0,0.0,193.0,1.0,154.0,0.0,2.0,3.0,252.0,410.0,2.0,1020.0,1744252630.412037,0.0,2025-04-09 22:37:10.412,RIGHT,7
168.0,17489.144800799466,3236.845521550837,-65374.739810793384,-63728.46677642665,-37985.64976282713,-35624.32207159067,-31088.884900675406,-22744.106977475523,0.0,0.0,0.0,193.0,1.0,155.0,0.0,2.0,3.0,252.0,411.0,2.0,1020.0,1744252630.4120455,0.0,2025-04-09 22:37:10.412,RIGHT,7
169.0,17439.07689321958,3185.77178547046,-65400.44431691698,-63747.242241769105,-38039.13748730868,-35671.126624480086,-31157.527107897655,-22792.297338521166,0.0,0.0,0.0,193.0,1.0,154.0,0.0,2.0,3.0,250.0,410.0,2.0,1018.0,1744252630.412054,0.0,2025-04-09 22:37:10.412,RIGHT,7
170.0,17591.784011338237,3217.5783178303623,-65401.07016576173,-63731.305447972474,-38066.45131903307,-35697.43462770398,-30915.390660213314,-22820.438184790397,0.0,0.0,0.0,193.0,1.0,154.0,0.0,2.0,3.0,250.0,410.0,2.0,1018.0,1744252630.4120677,0.0,2025-04-09 22:37:10.412,RIGHT,7
171.0,17580.228159454844,3242.388754175753,-65337.1218248751,-63709.24427619509,-37960.54875380382,-35588.559280462185,-31444.679968914985,-22727.432576111863,0.0,0.0,0.0,193.0,1.0,154.0,0.0,2.0,3.0,252.0,410.0,2.0,1020.0,1744252630.4120762,0.0,2025-04-09 22:37:10.412,RIGHT,7
172.0,17509.46253650934,3243.1487134872336,-65362.75927576534,-63710.49597388459,-37981.13471044716,-35614.12967611905,-31089.77897045362,-22742.810576297114,0.0,0.0,0.0,193.0,1.0,153.0,0.0,2.0,3.0,251.0,409.0,2.0,1019.0,1744252630.4120848,0.0,2025-04-09 22:37:10.412,RIGHT,7
173.0,17429.73386403726,3195.6736082641614,-65403.14887799608,-63762.486131487625,-38032.18609478308,-35664.37639765458,-31201.828265408072,-22793.839608888582,0.0,0.0,0.0,193.0,1.0,154.0,0.0,2.0,3.0,250.0,410.0,2.0,1018.0,1744252630.4120934,0.0,2025-04-09 22:37:10.412,RIGHT,7
174.0,17563.576109835638,3205.597782802318,-65406.16636349754,-63733.04888403999,-38077.671894749634,-35715.718354668425,-30888.34504942239,-22839.481871066317,0.0,0.0,0.0,193.0,1.0,155.0,0.0,2.0,3.0,252.0,411.0,2.0,1020.0,1744252630.4121015,0.0,2025-04-09 22:37:10.412,RIGHT,7
175.0,17587.827752569647,3230.6987918256277,-65352.45512157144,-63738.860337598366,-37976.06086445581,-35610.933376661946,-31430.687776885963,-22759.21675672731,0.0,0.0,0.0,193.0,1.0,154.0,0.0,2.0,3.0,251.0,410.0,2.0,1019.0,1744252630.4121103,0.0,2025-04-09 22:37:10.412,RIGHT,7
176.0,17517.79973719117,3236.845521550837,-65357.327801862695,-63706.1373837158,-37977.491376100945,-35614.353193563606,-31131.30851165158,-22740.64245708495,0.0,0.0,0.0,193.0,1.0,154.0,0.0,2.0,3.0,249.0,410.0,2.0,1017.0,1744252630.4121192,0.0,2025-04-09 22:37:10.412,RIGHT,7
177.0,17433.846585017036,3195.561849541885,-65397.20331397097,-63766.755314678594,-38010.99664103945,-35643.566923566694,-31200.487160740755,-22770.035001043678,0.0,0.0,0.0,193.0,1.0,154.0,0.0,2.0,3.0,249.0,410.0,2.0,1017.0,1744252630.4121275,0.0,2025-04-09 22:37:10.412,RIGHT,7
178.0,17541.380827591518,3198.780500743449,-65393.38116566911,-63717.58147687692,-38058.47174626252,-35696.78642711478,-30889.21676745615,-22811.56454224164,0.0,0.0,0.0,193.0,1.0,155.0,0.0,2.0,3.0,250.0,411.0,2.0,1018.0,1744252630.4121363,0.0,2025-04-09 22:37:10.412,RIGHT,7
179.0,17604.993892311322,3238.6783645961723,-65351.516348304314,-63735.440520696706,-37974.80916676631,-35601.12096084606,-31330.66372044846,-22732.88640175896,0.0,0.0,0.0,193.0,1.0,155.0,0.0,2.0,3.0,251.0,411.0,2.0,1019.0,1744252630.4121451,0.0,2025-04-09 22:37:10.412,RIGHT,7
180.0,17528.75209197427,3236.934928528658,-65343.51442378932,-63691.58639807539,-37965.667303284084,-35600.04807711221,-31173.307439483102,-22723.67748304337,0.0,0.0,0.0,193.0,1.0,154.0,0.0,2.0,3.0,249.0,410.0,2.0,1017.0,1744252630.412154,0.0,2025-04-09 22:37:10.412,RIGHT,7
181.0,17437.758140296715,3202.7591112564937,-65389.87194178963,-63763.38020126584,-37997.27266994389,-35630.781725738256,-31169.529994670153,-22764.73763760777,0.0,0.0,0.0,193.0,1.0,154.0,0.0,2.0,3.0,251.0,410.0,2.0,1019.0,1744252630.4121623,0.0,2025-04-09 22:37:10.412,RIGHT,7
182.0,17497.191428803377,3185.145936625712,-65398.65617736056,-63725.315180458456,-38064.37260679872,-35694.79712185825,-30950.929933897252,-22815.051414376667,0.0,0.0,0.0,193.0,1.0,155.0,0.0,2.0,3.0,252.0,411.0,2.0,1020.0,1744252630.4121711,0.0,2025-04-09 22:37:10.412,RIGHT,7
183.0,17595.829677084646,3223.1215504552783,-65383.211121941946,-63756.2499947846,-38021.77018186691,-35633.97802519536,-31229.209152365824,-22773.723038878805,0.0,0.0,0.0,193.0,1.0,154.0,0.0,2.0,3.0,249.0,410.0,2.0,1017.0,1744252630.4121797,0.0,2025-04-09 22:37:10.412,RIGHT,7
184.0,17534.384731577007,3232.0845999818566,-65340.005199909836,-63693.285130653996,-37965.957875962005,-35591.26384154127,-31285.155568737457,-22723.25279989872,0.0,0.0,0.0,193.0,1.0,154.0,0.0,2.0,3.0,250.0,410.0,2.0,1018.0,1744252630.4121928,0.0,2025-04-09 22:37:10.412,RIGHT,7
185.0,17453.11378873751,3216.0807509518568,-65382.69703181947,-63754.595965694905,-37986.5661843498,-35619.09176338813,-31123.127773180935,-22747.07975948808,0.0,0.0,0.0,193.0,1.0,155.0,0.0,2.0,3.0,252.0,411.0,2.0,1020.0,1744252630.4122012,0.0,2025-04-09 22:37:10.412,RIGHT,7
186.0,17480.60643441754,3197.752320498505,-65385.51335162084,-63723.03530252401,-38039.651577431156,-35674.747607081845,-31014.252425939136,-22795.739507167284,0.0,0.0,0.0,193.0,1.0,155.0,0.0,2.0,3.0,251.0,411.0,2.0,1019.0,1744252630.4122095,0.0,2025-04-09 22:37:10.412,RIGHT,7
187.0,17603.004587054802,3224.9767452450687,-65387.390898155085,-63752.80782613848,-38031.895522105166,-35659.77193829679,-31072.076388845016,-22796.633576945493,0.0,0.0,0.0,193.0,1.0,154.0,0.0,2.0,3.0,250.0,410.0,2.0,1018.0,1744252630.412218,0.0,2025-04-09 22:37:10.412,RIGHT,7
188.0,17559.77631327824,3247.0155652780018,-65321.92263864549,-63688.524209085015,-37947.718852486476,-35578.25512626828,-31359.341008584623,-22713.97682594977,0.0,0.0,0.0,193.0,1.0,154.0,0.0,2.0,3.0,249.0,410.0,2.0,1017.0,1744252630.412227,0.0,2025-04-09 22:37:10.412,RIGHT,7
189.0,17474.01266980322,3228.7318383135607,-65374.538645093286,-63741.83311961092,-37988.48843437296,-35622.600987267615,-31096.73036297922,-22760.781378839183,0.0,0.0,0.0,193.0,1.0,154.0,0.0,2.0,3.0,250.0,410.0,2.0,1018.0,1744252630.4122353,0.0,2025-04-09 22:37:10.412,RIGHT,7
190.0,17444.39660839994,3179.647407489706,-65402.79125008479,-63751.77964589353,-38051.743871181476,-35688.27041247731,-31104.6428805164,-22826.249638348778,0.0,0.0,0.0,193.0,1.0,154.0,0.0,2.0,3.0,251.0,410.0,2.0,1019.0,1744252630.4122436,0.0,2025-04-09 22:37:10.412,RIGHT,7
191.0,17592.00752878279,3212.459768350097,-65401.76306983985,-63752.71841916066,-38061.600990486266,-35689.61151714462,-30967.917259683283,-22823.075690636124,0.0,0.0,0.0,193.0,1.0,154.0,0.0,2.0,3.0,250.0,410.0,2.0,1018.0,1744252630.4122522,0.0,2025-04-09 22:37:10.412,RIGHT,7
192.0,17572.360345406574,3251.0835827688675,-65326.59415323665,-63699.8341917794,-37953.77617523386,-35573.4942046993,-31422.261169226313,-22714.22269513878,0.0,0.0,0.0,193.0,1.0,154.0,0.0,2.0,3.0,250.0,410.0,2.0,1018.0,1744252630.4122608,0.0,2025-04-09 22:37:10.412,RIGHT,7
193.0,17503.673434695414,3252.871722325292,-65364.97209846641,-63720.822479822935,-37983.34753314823,-35605.01016438129,-31078.089008103492,-22745.2692681872,0.0,0.0,0.0,193.0,1.0,155.0,0.0,2.0,3.0,252.0,411.0,2.0,1020.0,1744252630.412269,0.0,2025-04-09 22:37:10.412,RIGHT,7
194.0,17445.40243690043,3200.8592129777926,-65391.68243309051,-63746.88461385782,-38029.3250714928,-35649.937170736455,-31164.389093445432,-22787.692879163373,0.0,0.0,0.0,193.0,1.0,155.0,0.0,2.0,3.0,251.0,411.0,2.0,1019.0,1744252630.4122777,0.0,2025-04-09 22:37:10.412,RIGHT,7
195.0,17568.113513960066,3199.5628117993847,-65409.496773421386,-63745.07412255694,-38077.113101138246,-35702.866101606625,-30879.516110362543,-22830.652932006473,0.0,0.0,0.0,193.0,1.0,154.0,0.0,2.0,3.0,251.0,410.0,2.0,1019.0,1744252630.4122863,0.0,2025-04-09 22:37:10.412,RIGHT,7
196.0,17570.549854105695,3230.6317365922614,-65341.323952832696,-63725.87397406984,-37964.147384661126,-35586.07823682764,-31437.50505894483,-22723.945703976835,0.0,0.0,0.0,193.0,1.0,154.0,0.0,9.0,3.0,249.0,410.0,9.0,1017.0,1744252630.4123156,0.0,2025-04-09 22:37:10.412,RIGHT,7
197.0,17501.84059165008,3234.8562162943144,-65366.64847930056,-63716.26272395405,-37982.92285000358,-35611.11219061758,-31087.700258219276,-22735.54625934914,0.0,0.0,0.0,193.0,1.0,154.0,0.0,20.0,3.0,252.0,410.0,20.0,1020.0,1744252630.4123242,0.0,2025-04-09 22:37:10.412,RIGHT,7
198.0,17420.0108551992,3186.755262226494,-65406.054604775265,-63768.09641934591,-38026.776972624895,-35652.21704867089,-31195.972108360784,-22785.524759951208,0.0,0.0,0.0,193.0,1.0,155.0,0.0,30.0,3.0,252.0,411.0,30.0,1020.0,1744252630.4123328,0.0,2025-04-09 22:37:10.412,RIGHT,7
199.0,17542.90074621448,3187.8281459603486,-65408.82622108772,-63730.836061338916,-38075.928458682116,-35706.285918508285,-30872.430607370214,-22827.27781859372,0.0,0.0,0.0,193.0,1.0,154.0,0.0,38.0,3.0,249.0,410.0,38.0,1017.0,1744252630.412346,0.0,2025-04-09 22:37:10.412,RIGHT,7
200.0,17576.98715650882,3217.1089311968008,-65357.10428441814,-63741.83311961092,-37975.01033246641,-35599.98102187884,-31399.2612241818,-22733.17697443688,0.0,0.0,0.0,193.0,1.0,154.0,0.0,39.0,3.0,249.0,410.0,39.0,1017.0,1744252630.4123547,0.0,2025-04-09 22:37:10.412,RIGHT,7
201.0,17512.122394099522,3221.6910388101387,-65355.852586728644,-63705.22096219313,-37972.238716153945,-35609.54756850572,-31121.384337113424,-22726.82907901157,0.0,0.0,0.0,193.0,1.0,154.0,0.0,39.0,3.0,250.0,410.0,39.0,1018.0,1744252630.4123633,0.0,2025-04-09 22:37:10.412,RIGHT,7
202.0,17414.981712696757,3172.6066079862844,-65407.30630246476,-63782.133314863844,-38014.975251552496,-35655.43569987246,-31172.368666215978,-22775.31001273513,0.0,0.0,0.0,193.0,1.0,154.0,0.0,38.0,3.0,252.0,410.0,38.0,1020.0,1744252630.4123719,0.0,2025-04-09 22:37:10.412,RIGHT,7
203.0,17495.60445494705,3158.2120845570666,-65425.366511984656,-63752.76312264957,-38090.99353444499,-35731.811610676246,-30891.049610501483,-22838.029007676723,0.0,0.0,0.0,193.0,1.0,154.0,0.0,39.0,3.0,249.0,410.0,39.0,1017.0,1744252630.4123805,0.0,2025-04-09 22:37:10.412,RIGHT,7
204.0,17576.0483832417,3203.7872915014377,-65385.155723709555,-63771.06920135846,-38010.080219516785,-35635.09561241813,-31318.32555750913,-22763.485939918275,0.0,0.0,0.0,193.0,1.0,154.0,0.0,38.0,3.0,249.0,410.0,38.0,1017.0,1744252630.4123888,0.0,2025-04-09 22:37:10.412,RIGHT,7
205.0,17524.0358738942,3228.0165824909905,-65337.03241789728,-63691.89932249777,-37954.5584862898,-35589.587460707124,-31206.857407910516,-22710.02056718118,0.0,0.0,0.0,193.0,1.0,154.0,0.0,39.0,3.0,250.0,410.0,39.0,1018.0,1744252630.4123976,0.0,2025-04-09 22:37:10.412,RIGHT,7
206.0,17439.45687287532,3205.7765967579603,-65380.99829924087,-63757.68050642974,-37981.80526278082,-35618.93530117694,-31139.891581522417,-22746.54331762115,0.0,0.0,0.0,193.0,1.0,154.0,0.0,39.0,3.0,250.0,410.0,39.0,1018.0,1744252630.412406,0.0,2025-04-09 22:37:10.412,RIGHT,7
207.0,17486.127315298,3178.306302822388,-65396.9350930375,-63727.21507873715,-38054.9848741275,-35690.751456111844,-30945.811384416986,-22810.55871374115,0.0,0.0,0.0,193.0,1.0,155.0,0.0,39.0,3.0,252.0,411.0,39.0,1020.0,1744252630.4124143,0.0,2025-04-09 22:37:10.412,RIGHT,7
208.0,17581.39045016652,3203.429663590153,-65394.94578778098,-63768.34228853492,-38028.00631856994,-35647.29966489073,-31166.981895802248,-22780.2273965153,0.0,0.0,0.0,193.0,1.0,154.0,0.0,39.0,3.0,250.0,410.0,39.0,1018.0,1744252630.412423,0.0,2025-04-09 22:37:10.412,RIGHT,7
209.0,17528.99796116328,3225.267317922988,-65338.529984775785,-63698.56014234545,-37958.335931102745,-35585.74296066081,-31297.62784214352,-22712.032224182156,0.0,0.0,0.0,193.0,1.0,154.0,0.0,40.0,3.0,250.0,410.0,40.0,1018.0,1744252630.4124315,0.0,2025-04-09 22:37:10.412,RIGHT,7
210.0,17445.178919455877,3211.6551055497057,-65387.72617432191,-63759.28983203052,-37992.69056233056,-35621.95278667841,-31114.656462032377,-22750.320762434098,0.0,0.0,0.0,193.0,1.0,154.0,0.0,40.0,3.0,249.0,410.0,40.0,1017.0,1744252630.4124398,0.0,2025-04-09 22:37:10.412,RIGHT,7
211.0,17443.88251827747,3164.872904404748,-65411.866058333646,-63752.51725346056,-38062.87503992022,-35692.383133457086,-31048.85292635595,-22815.543152754683,0.0,0.0,0.0,193.0,1.0,154.0,0.0,40.0,3.0,250.0,410.0,40.0,1018.0,1744252630.4124484,0.0,2025-04-09 22:37:10.412,RIGHT,7
212.0,17568.605252338082,3185.5706197703626,-65417.945732825494,-63781.06043112999,-38062.27154281992,-35686.705790365435,-31049.791699623074,-22818.42652778942,0.0,0.0,0.0,193.0,1.0,155.0,0.0,40.0,3.0,251.0,411.0,40.0,1019.0,1744252630.4124568,0.0,2025-04-09 22:37:10.412,RIGHT,7
213.0,17539.212708379353,3223.099198710823,-65333.23262133988,-63705.578590104415,-37956.70425375751,-35581.51848095876,-31395.03674447975,-22721.799936509127,0.0,0.0,0.0,193.0,1.0,155.0,0.0,40.0,3.0,251.0,411.0,40.0,1019.0,1744252630.412465,0.0,2025-04-09 22:37:10.412,RIGHT,7
214.0,17462.345059197552,3218.293573652932,-65371.811732269736,-63742.05663705548,-37982.52051860339,-35614.17437960796,-31089.86837743144,-22750.41016941192,0.0,0.0,0.0,193.0,1.0,154.0,0.0,41.0,3.0,251.0,410.0,41.0,1019.0,1744252630.4124784,0.0,2025-04-09 22:37:10.412,RIGHT,7
215.0,17430.136195437455,3173.9924161425133,-65392.777668568815,-63754.730076161635,-38037.684623919085,-35668.71263607891,-31113.807095743075,-22802.93676888189,0.0,0.0,0.0,193.0,1.0,155.0,0.0,41.0,3.0,251.0,411.0,41.0,1019.0,1744252630.412487,0.0,2025-04-09 22:37:10.412,RIGHT,7
216.0,17565.252490669787,3189.39276807222,-65410.56965715524,-63766.37533502285,-38075.28025809291,-35697.7252003819,-30928.30996850848,-22828.08248139411,0.0,0.0,0.0,193.0,1.0,154.0,0.0,41.0,3.0,250.0,410.0,41.0,1018.0,1744252630.4124959,0.0,2025-04-09 22:37:10.412,RIGHT,7
217.0,17553.80839750867,3225.9378702566473,-65332.78558645077,-63716.10626174287,-37962.20278289352,-35580.53500420273,-31439.628474668083,-22725.823250511083,0.0,0.0,0.0,193.0,1.0,154.0,0.0,41.0,3.0,251.0,410.0,41.0,1019.0,1744252630.4125044,0.0,2025-04-09 22:37:10.412,RIGHT,7
218.0,17485.03207981969,3233.6939255826387,-65361.08289493119,-63725.9410293032,-37978.07252145679,-35607.513559760286,-31072.188147567293,-22736.283866916165,0.0,0.0,0.0,193.0,1.0,154.0,0.0,41.0,3.0,252.0,410.0,41.0,1020.0,1744252630.412513,0.0,2025-04-09 22:37:10.412,RIGHT,7
219.0,17427.63280005846,3188.342236082821,-65388.016746999834,-63757.36758200736,-38017.88097833168,-35648.70782479141,-31154.420215418366,-22770.862015588526,0.0,0.0,0.0,193.0,1.0,154.0,0.0,42.0,3.0,250.0,410.0,42.0,1018.0,1744252630.4125216,0.0,2025-04-09 22:37:10.412,RIGHT,7
220.0,17562.302060401686,3194.265448363477,-65401.7854215843,-63742.078988799934,-38070.049949890374,-35701.68145915049,-30861.746473520576,-22823.455670291863,0.0,0.0,0.0,193.0,1.0,154.0,0.0,42.0,3.0,251.0,410.0,42.0,1019.0,1744252630.4125302,0.0,2025-04-09 22:37:10.412,RIGHT,7
221.0,17572.740325062314,3230.6317365922614,-65336.20540335243,-63730.79135785,-37963.029797438365,-35585.85471938309,-31434.398166465544,-22732.75229129223,0.0,0.0,0.0,193.0,1.0,154.0,0.0,42.0,3.0,250.0,410.0,42.0,1018.0,1744252630.4125388,0.0,2025-04-09 22:37:10.412,RIGHT,7
222.0,17502.153516072456,3231.950489515125,-65353.95268844994,-63713.692273341694,-37978.87718425717,-35607.491208015825,-31092.148255365883,-22743.83875654206,0.0,0.0,0.0,193.0,1.0,154.0,0.0,42.0,3.0,250.0,410.0,42.0,1018.0,1744252630.4125473,0.0,2025-04-09 22:37:10.412,RIGHT,7
223.0,17423.229506400767,3192.522012295963,-65386.60858709915,-63766.37533502285,-38012.024821284394,-35640.05769968721,-31189.490102468742,-22778.99805057026,0.0,0.0,0.0,193.0,1.0,154.0,0.0,42.0,3.0,251.0,410.0,42.0,1019.0,1744252630.412556,0.0,2025-04-09 22:37:10.412,RIGHT,7
224.0,17538.56450779015,3194.936000697136,-65393.962311024945,-63729.27143922704,-38073.78269121441,-35701.41323821703,-30866.663857300744,-22825.556734270664,0.0,0.0,0.0,193.0,1.0,155.0,0.0,42.0,3.0,252.0,411.0,42.0,1020.0,1744252630.4125645,0.0,2025-04-09 22:37:10.412,RIGHT,7
225.0,17583.692679845415,3227.726009813072,-65348.677676758496,-63748.11395980287,-37981.537041847354,-35603.177321335956,-31379.54698557222,-22747.705608332828,0.0,0.0,0.0,193.0,1.0,155.0,0.0,42.0,3.0,251.0,411.0,42.0,1019.0,1744252630.412573,0.0,2025-04-09 22:37:10.412,RIGHT,7
226.0,17513.396443533475,3232.553986615418,-65341.45806329943,-63704.37159590383,-37969.89178298614,-35605.79247543722,-31142.506735623687,-22741.245954185244,0.0,0.0,0.0,193.0,1.0,154.0,0.0,42.0,3.0,251.0,410.0,42.0,1019.0,1744252630.8821125,0.0,2025-04-09 22:37:10.882,RIGHT,7
227.0,17432.393721627443,3209.77755901546,-65381.75825855235,-63768.655212957296,-37998.85964380022,-35638.82835374217,-31174.469730194778,-22784.295414006167,0.0,0.0,0.0,193.0,1.0,154.0,0.0,43.0,3.0,249.0,410.0,43.0,1017.0,1744252630.8821476,0.0,2025-04-09 22:37:10.882,RIGHT,7
228.0,17513.061167366646,3197.6182100317733,-65389.916645278536,-63727.77387234854,-38065.937228910596,-35704.8777586076,-30912.082602033926,-22839.459519321863,0.0,0.0,0.0,193.0,1.0,154.0,0.0,43.0,3.0,250.0,410.0,43.0,1018.0,1744252630.882168,0.0,2025-04-09 22:37:10.882,RIGHT,7
229.0,17588.498304903307,3222.0263149769685,-65370.49297934688,-63764.98952686662,-38010.43784742807,-35634.067432173186,-31278.00301051176,-22777.45578020284,0.0,0.0,0.0,193.0,1.0,155.0,0.0,42.0,3.0,251.0,411.0,42.0,1019.0,1744252630.8822184,0.0,2025-04-09 22:37:10.882,RIGHT,7
230.0,17517.732681957805,3222.9874399885466,-65346.777778479795,-63715.011026264554,-37983.74986454843,-35614.3084900747,-31245.95060896285,-22749.896079289447,0.0,0.0,0.0,193.0,1.0,154.0,0.0,43.0,3.0,251.0,410.0,43.0,1019.0,1744252630.8822389,0.0,2025-04-09 22:37:10.882,RIGHT,7
231.0,17429.331532637065,3196.791195486927,-65393.64938660257,-63779.67462297376,-38009.56612939431,-35645.82444975668,-31160.589296888033,-22780.74148663777,0.0,0.0,0.0,193.0,1.0,154.0,0.0,43.0,3.0,249.0,410.0,43.0,1017.0,1744252630.882256,0.0,2025-04-09 22:37:10.882,RIGHT,7
232.0,17467.061277277622,3167.5998172282957,-65400.936055295,-63748.11395980287,-38064.37260679872,-35706.95647084194,-30988.592623304445,-22832.79869947418,0.0,0.0,0.0,193.0,1.0,155.0,0.0,43.0,3.0,252.0,411.0,43.0,1020.0,1744252630.8822732,0.0,2025-04-09 22:37:10.882,RIGHT,7
233.0,17582.038650755723,3209.7328555265494,-65388.59789235567,-63773.41613452628,-38032.40961222763,-35660.24132493035,-31146.26182869218,-22803.964949126836,0.0,0.0,0.0,193.0,1.0,155.0,0.0,43.0,3.0,251.0,411.0,43.0,1019.0,1744252630.8822825,0.0,2025-04-09 22:37:10.882,RIGHT,7
234.0,17529.288533841198,3226.2731464234766,-65331.89151667256,-63707.27732268302,-37961.688692771044,-35594.16956832047,-31333.077708849636,-22730.226544168778,0.0,0.0,0.0,193.0,1.0,154.0,0.0,43.0,3.0,249.0,410.0,43.0,1017.0,1744252630.8822913,0.0,2025-04-09 22:37:10.882,RIGHT,7
235.0,17445.603602600528,3208.212936903589,-65381.3335754077,-63765.32480303345,-37994.411646653614,-35628.90417920401,-31107.34744159549,-22760.200233483345,0.0,0.0,0.0,193.0,1.0,155.0,0.0,43.0,3.0,251.0,411.0,43.0,1019.0,1744252630.8823006,0.0,2025-04-09 22:37:10.882,RIGHT,7
236.0,17433.712474550306,3163.3529857817875,-65404.378223941116,-63762.44142799872,-38056.6836067061,-35694.595956158155,-31059.693522416776,-22819.566466756638,0.0,0.0,0.0,193.0,1.0,155.0,0.0,43.0,3.0,252.0,411.0,43.0,1020.0,1744252630.8823094,0.0,2025-04-09 22:37:10.882,RIGHT,7
237.0,17567.733534304327,3190.5774105283513,-65413.29656997879,-63786.00016665461,-38066.831298688805,-35696.94288932597,-31007.077515968984,-22827.501336038273,0.0,0.0,0.0,193.0,1.0,155.0,0.0,43.0,3.0,251.0,411.0,43.0,1019.0,1744252630.8823185,0.0,2025-04-09 22:37:10.882,RIGHT,7
238.0,17537.670438011937,3229.5141493694964,-65337.479452786385,-63725.06931126944,-37963.163907905095,-35592.49318748632,-31400.959956760402,-22728.863087757003,0.0,0.0,0.0,193.0,1.0,154.0,0.0,43.0,3.0,249.0,410.0,43.0,1017.0,1744252630.8823273,0.0,2025-04-09 22:37:10.882,RIGHT,7
239.0,17465.943690054857,3224.5073586115077,-65374.873921260114,-63754.05952382798,-37985.80622503832,-35621.43869655594,-31081.799397683073,-22756.10986424802,0.0,0.0,0.0,193.0,1.0,155.0,0.0,43.0,3.0,250.0,411.0,43.0,1018.0,1744252630.882336,0.0,2025-04-09 22:37:10.882,RIGHT,7
240.0,17421.19549765533,3169.790288184916,-65400.824296572726,-63774.35490779339,-38038.82456288631,-35672.98181926987,-31140.651540833896,-22808.770574184728,0.0,0.0,0.0,193.0,1.0,155.0,0.0,43.0,3.0,251.0,411.0,43.0,1019.0,1744252630.8823447,0.0,2025-04-09 22:37:10.882,RIGHT,7
241.0,17566.124208703543,3200.68039902215,-65405.38405244161,-63765.704782689194,-38066.831298688805,-35697.99342131537,-30921.492686449612,-22832.128147140524,0.0,0.0,0.0,193.0,1.0,155.0,0.0,43.0,3.0,252.0,411.0,43.0,1020.0,1744252630.8823538,0.0,2025-04-09 22:37:10.882,RIGHT,7
242.0,17555.529481831727,3233.6045186048173,-65332.62912423958,-63729.785529349516,-37956.70425375751,-35584.40185599349,-31443.852954370137,-22725.622084810984,0.0,0.0,0.0,193.0,1.0,155.0,0.0,43.0,3.0,250.0,411.0,43.0,1018.0,1744252630.8823624,0.0,2025-04-09 22:37:10.882,RIGHT,7
243.0,17485.12148679751,3229.8047220474155,-65360.32293561971,-63735.52992767453,-37979.54773659083,-35613.12384761856,-31077.127883091915,-22738.183765194866,0.0,0.0,0.0,193.0,1.0,154.0,0.0,43.0,3.0,249.0,410.0,43.0,1017.0,1744252630.8823712,0.0,2025-04-09 22:37:10.882,RIGHT,7
244.0,17412.59007604004,3178.261599333477,-65400.533723894805,-63783.22855034215,-38034.108344806235,-35666.432758144474,-31174.805006361607,-22798.801696157658,0.0,0.0,0.0,193.0,1.0,155.0,0.0,44.0,3.0,251.0,411.0,44.0,1019.0,1744252630.8823853,0.0,2025-04-09 22:37:10.882,RIGHT,7
245.0,17550.3438771181,3195.718311753072,-65407.239247231395,-63753.90306161679,-38086.143205898195,-35711.20330228845,-30876.699790561175,-22844.198089146386,0.0,0.0,0.0,193.0,1.0,155.0,0.0,43.0,3.0,250.0,411.0,43.0,1018.0,1744252630.8823943,0.0,2025-04-09 22:37:10.882,RIGHT,7
246.0,17573.634394840527,3229.9164807696916,-65343.51442378932,-63748.0469045695,-37976.37378887818,-35592.694353186416,-31441.550724691242,-22748.197346710844,0.0,0.0,0.0,193.0,1.0,155.0,0.0,43.0,3.0,252.0,411.0,43.0,1020.0,1744252630.882403,0.0,2025-04-09 22:37:10.882,RIGHT,7
247.0,17511.340083043586,3237.8960535402366,-65343.35796157813,-63714.85456405337,-37970.31646613079,-35600.651574212505,-31111.750735253187,-22743.525832119685,0.0,0.0,0.0,193.0,1.0,154.0,0.0,43.0,3.0,250.0,410.0,43.0,1018.0,1744252630.882412,0.0,2025-04-09 22:37:10.882,RIGHT,7
248.0,17432.05844546061,3202.334428111843,-65378.293738161774,-63766.71061118968,-38004.134655491674,-35627.04898441422,-31182.561061687597,-22766.525777164195,0.0,0.0,0.0,193.0,1.0,154.0,0.0,44.0,3.0,249.0,410.0,44.0,1017.0,1744252630.8824205,0.0,2025-04-09 22:37:10.882,RIGHT,7
249.0,17527.679208240417,3190.7562244839937,-65399.840819816694,-63739.53088993203,-38082.16459538515,-35704.63188941859,-30870.977743980617,-22840.688865266904,0.0,0.0,0.0,193.0,1.0,155.0,0.0,44.0,3.0,250.0,411.0,44.0,1018.0,1744252630.8824296,0.0,2025-04-09 22:37:10.882,RIGHT,7
250.0,17585.25730195729,3231.659916837206,-65357.17133965151,-63758.73103841914,-37993.24935594194,-35604.40666728099,-31359.095139395613,-22762.211890484323,0.0,0.0,0.0,193.0,1.0,155.0,0.0,43.0,3.0,253.0,411.0,43.0,1021.0,1744252630.8824384,0.0,2025-04-09 22:37:10.882,RIGHT,7
251.0,17520.37018780353,3238.1195709847893,-65340.54164177676,-63707.16556396074,-37973.713931287995,-35597.14235033302,-31170.424064448365,-22742.140023963457,0.0,0.0,0.0,193.0,1.0,155.0,0.0,44.0,3.0,251.0,411.0,44.0,1019.0,1744252630.8824472,0.0,2025-04-09 22:37:10.882,RIGHT,7
252.0,17430.583230326563,3199.719274010572,-65390.87777029011,-63782.02155614157,-38008.64970787164,-35635.76616475179,-31167.183061502346,-22781.814370371627,0.0,0.0,0.0,193.0,1.0,154.0,0.0,44.0,3.0,250.0,410.0,44.0,1018.0,1744252630.8824556,0.0,2025-04-09 22:37:10.882,RIGHT,7
253.0,17489.32361475511,3178.172192355656,-65407.44041293149,-63751.28790751552,-38078.18598487211,-35709.50456970985,-30926.11949755186,-22835.123280897533,0.0,0.0,0.0,193.0,1.0,155.0,0.0,44.0,3.0,252.0,411.0,44.0,1020.0,1744252630.8824646,0.0,2025-04-09 22:37:10.882,RIGHT,7
254.0,17585.033784512732,3224.4403033781414,-65378.76312479534,-63775.494846760615,-38015.19876899705,-35635.47559207387,-31238.55218154814,-22781.926129093903,0.0,0.0,0.0,193.0,1.0,155.0,0.0,43.0,3.0,251.0,411.0,43.0,1019.0,1744252630.8824732,0.0,2025-04-09 22:37:10.882,RIGHT,7
255.0,17518.783213947205,3224.909690011703,-65341.74863597735,-63713.7369768306,-37969.802376008316,-35601.076257357156,-31252.834946255083,-22746.49861413224,0.0,0.0,0.0,193.0,1.0,154.0,0.0,44.0,3.0,250.0,410.0,44.0,1018.0,1744252630.882482,0.0,2025-04-09 22:37:10.882,RIGHT,7
0.0,17427.63280005846,3197.6182100317733,-65393.51527613584,-63785.709593976695,-38003.68762060256,-35637.44254558594,-31129.00628197268,-22782.864902361027,0.0,0.0,0.0,193.0,1.0,155.0,0.0,44.0,3.0,250.0,411.0,44.0,1018.0,1744252630.8824909,0.0,2025-04-09 22:37:10.882,RIGHT,7
1.0,17457.65119286194,3174.7970789429046,-65397.49388664888,-63754.305393016984,-38057.98000788451,-35688.27041247731,-31008.485675869666,-22822.874524936025,0.0,0.0,0.0,193.0,1.0,155.0,0.0,44.0,3.0,252.0,411.0,44.0,1020.0,1744252630.8824997,0.0,2025-04-09 22:37:10.882,RIGHT,7
2.0,17589.9511682929,3218.919422497681,-65379.27721491781,-63769.66104145778,-38026.10642029124,-35646.226781156874,-31111.63897653091,-22795.89596937847,0.0,0.0,0.0,193.0,1.0,155.0,0.0,44.0,3.0,251.0,411.0,44.0,1019.0,1744252630.8825192,0.0,2025-04-09 22:37:10.882,RIGHT,7
3.0,17535.681132755417,3234.7668093164934,-65321.45325201193,-63710.60773260686,-37949.41758506508,-35580.17737629144,-31342.420738031953,-22725.55502957762,0.0,0.0,0.0,193.0,1.0,155.0,0.0,44.0,3.0,250.0,411.0,44.0,1018.0,1744252630.882528,0.0,2025-04-09 22:37:10.882,RIGHT,7
4.0,17447.995239257245,3216.8183585188817,-65381.22181668542,-63773.43848627073,-37993.20465245302,-35631.31816760518,-31085.778008196117,-22774.25948074573,0.0,0.0,0.0,193.0,1.0,154.0,0.0,44.0,3.0,250.0,410.0,44.0,1018.0,1744252630.882537,0.0,2025-04-09 22:37:10.882,RIGHT,7
5.0,17429.800919270627,3170.729061452039,-65403.59591288518,-63772.00797462559,-38055.05192936086,-35689.96914505591,-31083.028743628114,-22822.89687668048,0.0,0.0,0.0,193.0,1.0,155.0,0.0,44.0,3.0,251.0,411.0,44.0,1019.0,1744252630.8825457,0.0,2025-04-09 22:37:10.882,RIGHT,7
6.0,17568.33703140462,3198.8922594657256,-65408.289779220795,-63781.19454159672,-38069.289990578895,-35697.50168293735,-30983.027038935074,-22830.74233898429,0.0,0.0,0.0,193.0,1.0,155.0,0.0,44.0,3.0,251.0,411.0,44.0,1019.0,1744252630.882554,0.0,2025-04-09 22:37:10.882,RIGHT,7
7.0,17544.018333437245,3232.397524404231,-65328.382292793074,-63720.8895350563,-37955.966646190485,-35585.63120193854,-31422.261169226313,-22722.984578965257,0.0,0.0,0.0,193.0,1.0,154.0,0.0,44.0,3.0,249.0,410.0,44.0,1017.0,1744252630.8825629,0.0,2025-04-09 22:37:10.882,RIGHT,7
8.0,17464.17790224289,3220.7969690319264,-65375.47741836041,-63752.58430869393,-37991.50591987442,-35628.34538559263,-31077.44080751429,-22757.070989259602,0.0,0.0,0.0,193.0,1.0,154.0,0.0,44.0,3.0,249.0,410.0,44.0,1017.0,1744252630.8825717,0.0,2025-04-09 22:37:10.882,RIGHT,7
9.0,17412.38891033994,3172.8971806642035,-65401.36073843965,-63770.77862868055,-38038.64574893066,-35678.1227204946,-31153.21322121778,-22796.79003915668,0.0,0.0,0.0,193.0,1.0,154.0,0.0,44.0,3.0,250.0,410.0,44.0,1018.0,1744252630.8825805,0.0,2025-04-09 22:37:10.882,RIGHT,7
10.0,17554.680115542425,3192.946695440614,-65405.22759023042,-63753.9477651057,-38064.171441098624,-35714.89134012358,-30892.25660470207,-22822.136917369,0.0,0.0,0.0,193.0,1.0,155.0,0.0,44.0,3.0,252.0,411.0,44.0,1020.0,1744252630.882589,0.0,2025-04-09 22:37:10.882,RIGHT,7
11.0,17563.017316224257,3237.650184351228,-65325.90124915854,-63714.5863431199,-37939.113430871184,-35589.18512930693,-31433.571151920696,-22710.802878237115,0.0,0.0,0.0,193.0,1.0,154.0,0.0,44.0,3.0,250.0,410.0,44.0,1018.0,1744252630.8825977,0.0,2025-04-09 22:37:10.882,RIGHT,7
12.0,17492.765783401228,3236.6890593396497,-65350.51051980383,-63708.41726165024,-37956.92777120206,-35619.67290874397,-31065.70614167525,-22733.69106455935,0.0,0.0,0.0,193.0,1.0,154.0,0.0,44.0,3.0,249.0,410.0,44.0,1017.0,1744252630.8826065,0.0,2025-04-09 22:37:10.882,RIGHT,7
13.0,17412.992407440237,3183.3801488137424,-65393.694090091485,-63757.591099451914,-38004.402876425134,-35665.96337151091,-31170.759340615197,-22780.696783148862,0.0,0.0,0.0,193.0,1.0,155.0,0.0,44.0,3.0,252.0,411.0,44.0,1020.0,1744252630.882615,0.0,2025-04-09 22:37:10.882,RIGHT,7
14.0,17536.46344381135,3190.8903349507254,-65412.84953508968,-63728.33266595992,-38072.01690340244,-35721.57451171571,-30855.890316473284,-22815.453745776864,0.0,0.0,0.0,193.0,1.0,155.0,0.0,44.0,3.0,252.0,411.0,44.0,1020.0,1744252630.8826241,0.0,2025-04-09 22:37:10.882,RIGHT,7
15.0,17568.314679660165,3233.8280360493704,-65356.74665650686,-63726.700988614684,-37969.22123065248,-35610.03930688373,-31422.73055585987,-22728.617218567993,0.0,0.0,0.0,193.0,1.0,155.0,0.0,44.0,3.0,252.0,411.0,44.0,1020.0,1744252630.8826327,0.0,2025-04-09 22:37:10.882,RIGHT,7
16.0,17509.529591742707,3242.0534780089233,-65347.761255235826,-63676.431915334695,-37954.67024501208,-35607.62531848256,-31128.20161917229,-22717.329587618064,0.0,0.0,0.0,193.0,1.0,154.0,0.0,44.0,3.0,250.0,410.0,44.0,1018.0,1744252630.8826416,0.0,2025-04-09 22:37:10.882,RIGHT,7
17.0,17427.92337273638,3202.3120763673874,-65386.049793487764,-63730.85841308337,-37982.69933255903,-35634.53681880675,-31178.493044196734,-22740.195422195844,0.0,0.0,0.0,193.0,1.0,154.0,0.0,44.0,3.0,250.0,410.0,44.0,1018.0,1744252630.8826551,0.0,2025-04-09 22:37:10.882,RIGHT,7
18.0,17524.79583320568,3195.9641809420805,-65394.8340290587,-63685.90905498375,-38046.491211234475,-35698.507511437834,-30872.363552136845,-22798.309957779642,0.0,0.0,0.0,193.0,1.0,155.0,0.0,44.0,3.0,252.0,411.0,44.0,1020.0,1744252630.882664,0.0,2025-04-09 22:37:10.882,RIGHT,7
19.0,17583.75973507878,3226.720181312583,-65366.156740922546,-63713.80403206397,-37977.3125621453,-35615.962519164386,-31315.10690630757,-22742.475300130285,0.0,0.0,0.0,193.0,1.0,155.0,0.0,44.0,3.0,251.0,411.0,44.0,1019.0,1744252630.8826723,0.0,2025-04-09 22:37:10.882,RIGHT,7
20.0,17515.631617979005,3234.8338645498593,-65342.441540055464,-63654.50485402404,-37950.46811705448,-35599.668097456466,-31175.94494532883,-22713.44038408284,0.0,0.0,0.0,193.0,1.0,154.0,0.0,44.0,3.0,250.0,410.0,44.0,1018.0,1744252630.8826811,0.0,2025-04-09 22:37:10.882,RIGHT,7
21.0,17424.011817456703,3202.133262411745,-65394.00701451386,-63724.17524149123,-37988.264916928405,-35632.748679250326,-31145.25600019169,-22751.348942679044,0.0,0.0,0.0,193.0,1.0,154.0,0.0,44.0,3.0,250.0,410.0,44.0,1018.0,1744252630.8826897,0.0,2025-04-09 22:37:10.882,RIGHT,7
22.0,17484.294472252666,3189.5492302834073,-65395.638691859094,-63676.990708946076,-38048.61462695773,-35691.57847065669,-30946.347826283913,-22801.148629325467,0.0,0.0,0.0,193.0,1.0,155.0,0.0,44.0,3.0,252.0,411.0,44.0,1020.0,1744252630.8826983,0.0,2025-04-09 22:37:10.882,RIGHT,7
23.0,17576.38365940853,3212.8620997502926,-65391.63772960159,-63718.5426018885,-38015.466989930515,-35649.4677841029,-31202.163541574904,-22769.69972487685,0.0,0.0,0.0,193.0,1.0,155.0,0.0,44.0,3.0,251.0,411.0,44.0,1019.0,1744252630.882707,0.0,2025-04-09 22:37:10.882,RIGHT,7
24.0,17521.398368048474,3227.837768535348,-65339.24524059836,-63647.97814464309,-37950.49046879893,-35596.71766718837,-31283.47918790331,-22709.081793914058,0.0,0.0,0.0,193.0,1.0,154.0,0.0,44.0,3.0,249.0,410.0,44.0,1017.0,1744252630.882718,0.0,2025-04-09 22:37:10.882,RIGHT,7
25.0,17440.26153567571,3213.2420794060326,-65384.2840056758,-63706.293845926986,-37975.27855339987,-35622.64569075652,-31113.047136431593,-22732.64053256995,0.0,0.0,0.0,193.0,1.0,154.0,0.0,44.0,3.0,249.0,410.0,44.0,1017.0,1744252630.8827295,0.0,2025-04-09 22:37:10.882,RIGHT,7
26.0,17446.721189823293,3172.8748289197483,-65405.94284605299,-63693.57570333192,-38043.205504799545,-35691.86904333461,-31015.168847461802,-22794.666623433426,0.0,0.0,0.0,193.0,1.0,154.0,0.0,44.0,3.0,251.0,410.0,44.0,1019.0,1744252630.8827384,0.0,2025-04-09 22:37:10.882,RIGHT,7
27.0,17582.128057733546,3210.3587043712982,-65396.86803780414,-63709.84777329538,-38026.44169645807,-35665.53868836626,-31062.04045558458,-22778.88629184798,0.0,0.0,0.0,193.0,1.0,154.0,0.0,44.0,3.0,251.0,410.0,44.0,1019.0,1744252630.8827472,0.0,2025-04-09 22:37:10.882,RIGHT,7
28.0,17540.062074668655,3237.3819634177644,-65330.013970138316,-63643.48544400757,-37940.38748030514,-35580.22207978035,-31365.465386565375,-22703.672671755874,0.0,0.0,0.0,193.0,1.0,154.0,0.0,44.0,3.0,251.0,410.0,44.0,1019.0,1744252630.8827558,0.0,2025-04-09 22:37:10.882,RIGHT,7
29.0,17458.478207406784,3222.6968673106276,-65377.89140676158,-63688.74772652957,-37969.69061728604,-35617.46008604289,-31080.90532790486,-22741.469471629796,0.0,0.0,0.0,193.0,1.0,154.0,0.0,44.0,3.0,249.0,410.0,44.0,1017.0,1744252630.8827643,0.0,2025-04-09 22:37:10.882,RIGHT,7
30.0,17429.68916054835,3179.5132970229743,-65399.214970971945,-63694.62623532132,-38023.826542356794,-35672.71359833641,-31096.216272856745,-22786.642347173973,0.0,0.0,0.0,193.0,1.0,154.0,0.0,44.0,3.0,250.0,410.0,44.0,1018.0,1744252630.8827732,0.0,2025-04-09 22:37:10.882,RIGHT,7
31.0,17572.583862851126,3207.9894194590356,-65405.428755930516,-63701.91290401375,-38047.877019390704,-35688.71744736641,-30947.93480014024,-22812.503315508762,0.0,0.0,0.0,193.0,1.0,154.0,0.0,44.0,3.0,250.0,410.0,44.0,1018.0,1744252630.882782,0.0,2025-04-09 22:37:10.882,RIGHT,7
32.0,17548.42162709494,3232.68809708215,-65334.79724345175,-63662.05974364993,-37944.8578291962,-35586.81584439467,-31428.407898951522,-22718.290712629645,0.0,0.0,0.0,193.0,1.0,155.0,0.0,44.0,3.0,252.0,411.0,44.0,1020.0,1744252630.8827958,0.0,2025-04-09 22:37:10.882,RIGHT,7
33.0,17477.097210538057,3232.0175447484908,-65362.93808972098,-63675.33667985639,-37959.721739258974,-35612.453295284904,-31064.834423641496,-22728.237238912254,0.0,0.0,0.0,193.0,1.0,155.0,0.0,44.0,3.0,251.0,411.0,44.0,1019.0,1744252630.8828044,0.0,2025-04-09 22:37:10.882,RIGHT,7
34.0,17417.641570286938,3183.5813145138404,-65390.07310748972,-63702.11406971385,-38002.14535023515,-35655.77097603929,-31136.02472973165,-22770.102056277046,0.0,0.0,0.0,193.0,1.0,154.0,0.0,44.0,3.0,249.0,410.0,44.0,1017.0,1744252630.8828132,0.0,2025-04-09 22:37:10.882,RIGHT,7
35.0,17545.202975893375,3191.717349495572,-65412.84953508968,-63694.91680799924,-38063.36677829824,-35704.29661325176,-30861.18767990919,-22817.308940566654,0.0,0.0,0.0,193.0,1.0,154.0,0.0,44.0,3.0,251.0,410.0,44.0,1019.0,1744252630.882822,0.0,2025-04-09 22:37:10.882,RIGHT,7
36.0,17551.394409107495,3227.033105734957,-65345.03434241228,-63677.68361302419,-37952.747994988924,-35586.01118159428,-31438.622646167594,-22716.904904473413,0.0,0.0,0.0,193.0,1.0,154.0,0.0,44.0,3.0,251.0,410.0,44.0,1019.0,1744252630.8828306,0.0,2025-04-09 22:37:10.882,RIGHT,7
37.0,17486.686108909384,3235.4373616501525,-65357.55131930725,-63660.96450817162,-37958.51474505839,-35603.177321335956,-31077.954897636762,-22716.323759117575,0.0,0.0,0.0,193.0,1.0,155.0,0.0,44.0,3.0,250.0,411.0,44.0,1018.0,1744252630.8828392,0.0,2025-04-09 22:37:10.882,RIGHT,7
38.0,17407.292712604132,3185.168288370167,-65396.979796526415,-63716.41918616524,-38002.1229984907,-35647.92551373548,-31170.625230148464,-22763.061256773624,0.0,0.0,0.0,193.0,1.0,155.0,0.0,44.0,3.0,252.0,411.0,44.0,1020.0,1744252630.882848,0.0,2025-04-09 22:37:10.882,RIGHT,7
39.0,17525.17581286142,3187.939904682625,-65407.35100595368,-63685.26085439454,-38063.21031608705,-35707.29174700877,-30857.90197347426,-22816.973664399822,0.0,0.0,0.0,193.0,1.0,154.0,0.0,44.0,3.0,249.0,410.0,44.0,1017.0,1744252630.8828568,0.0,2025-04-09 22:37:10.882,RIGHT,7
40.0,17560.782141778727,3224.9320417561585,-65357.93129896299,-63696.10145045537,-37965.108509672704,-35601.09860910161,-31388.912366498993,-22731.29942790263,0.0,0.0,0.0,193.0,1.0,154.0,0.0,44.0,3.0,249.0,410.0,44.0,1017.0,1744252630.8828654,0.0,2025-04-09 22:37:10.882,RIGHT,7
41.0,17488.85422812155,3228.2848034244544,-65358.15481640754,-63658.9752029151,-37964.81793699478,-35606.68654521544,-31126.5475900826,-22721.911695231403,0.0,0.0,0.0,193.0,1.0,154.0,0.0,44.0,3.0,252.0,410.0,44.0,1020.0,1744252630.882874,0.0,2025-04-09 22:37:10.882,RIGHT,7
42.0,17414.221753385278,3202.4685385785747,-65387.65911908855,-63714.92161928673,-37986.05209422733,-35628.59125478163,-31178.761265130197,-22753.964096780313,0.0,0.0,0.0,193.0,1.0,154.0,0.0,44.0,3.0,252.0,410.0,44.0,1020.0,1744252630.8828828,0.0,2025-04-09 22:37:10.882,RIGHT,7
43.0,17501.17003931642,3194.6677797636726,-65394.76697382534,-63673.34737459986,-38048.99460661347,-35696.60761315913,-30887.629793599823,-22810.156382340956,0.0,0.0,0.0,193.0,1.0,154.0,0.0,44.0,3.0,250.0,410.0,44.0,1018.0,1744252630.8828912,0.0,2025-04-09 22:37:10.882,RIGHT,7
44.0,17573.410877395974,3231.4811028815634,-65365.64265080007,-63704.84098253739,-37978.13957669015,-35618.44356279893,-31276.326629677613,-22746.27509668769,0.0,0.0,0.0,193.0,1.0,154.0,0.0,44.0,3.0,250.0,410.0,44.0,1018.0,1744252630.8829,0.0,2025-04-09 22:37:10.882,RIGHT,7
45.0,17505.863905652037,3227.5918993463397,-65343.35796157813,-63653.47667377909,-37955.58666653474,-35603.60200448061,-31199.36957351799,-22721.799936509127,0.0,0.0,0.0,193.0,1.0,155.0,0.0,44.0,3.0,252.0,411.0,44.0,1020.0,1744252630.8829086,0.0,2025-04-09 22:37:10.882,RIGHT,7
46.0,17413.59590454053,3192.7008262516056,-65399.72906109442,-63730.813709594455,-37992.869376286195,-35644.17042066699,-31144.853668791497,-22759.328515449586,0.0,0.0,0.0,193.0,1.0,154.0,0.0,44.0,3.0,250.0,410.0,44.0,1018.0,1744252630.8829172,0.0,2025-04-09 22:37:10.882,RIGHT,7
47.0,17463.619108631505,3178.395709800209,-65397.27036920433,-63686.19962766166,-38040.85857163174,-35698.1275317821,-30963.93864917024,-22805.864847405537,0.0,0.0,0.0,193.0,1.0,154.0,0.0,44.0,3.0,249.0,410.0,44.0,1017.0,1744252630.8829303,0.0,2025-04-09 22:37:10.882,RIGHT,7
48.0,17570.460447127873,3211.9233264831696,-65387.97204351093,-63718.81082282196,-38006.03455377037,-35654.31811264969,-31155.381340429944,-22781.635556415982,0.0,0.0,0.0,193.0,1.0,155.0,0.0,44.0,3.0,252.0,411.0,44.0,1020.0,1744252630.8829389,0.0,2025-04-09 22:37:10.882,RIGHT,7
49.0,17519.677283725418,3232.7998558044264,-65330.19278409395,-63648.64869697675,-37935.44774478051,-35590.12390257405,-31304.71334513585,-22709.417070080886,0.0,0.0,0.0,193.0,1.0,155.0,0.0,44.0,3.0,251.0,411.0,44.0,1019.0,1744252630.8829477,0.0,2025-04-09 22:37:10.882,RIGHT,7
50.0,17447.637611345963,3226.11668421229,-65365.17326416651,-63694.35801438785,-37951.67511125506,-35607.82648418265,-31105.939281694806,-22722.179916164867,0.0,0.0,0.0,193.0,1.0,154.0,0.0,44.0,3.0,250.0,410.0,44.0,1018.0,1744252630.882956,0.0,2025-04-09 22:37:10.882,RIGHT,7
51.0,17442.9660967548,3182.9554656690916,-65386.51918012133,-63685.55142707246,-38017.836274842775,-35673.89824079254,-31035.196010493757,-22781.724963393805,0.0,0.0,0.0,193.0,1.0,155.0,0.0,44.0,3.0,252.0,411.0,44.0,1020.0,1744252630.8829648,0.0,2025-04-09 22:37:10.882,RIGHT,7
52.0,17571.399220394997,3212.5715270723736,-65393.62703485812,-63712.41822390774,-38022.06075454483,-35672.04304600276,-31017.985167263174,-22793.392573999474,0.0,0.0,0.0,193.0,1.0,155.0,0.0,44.0,3.0,252.0,411.0,44.0,1020.0,1744252630.8829734,0.0,2025-04-09 22:37:10.882,RIGHT,7
53.0,17531.881336198014,3239.125399485278,-65321.49795550084,-63652.180272600686,-37922.28256729634,-35571.504899442785,-31377.088293682136,-22691.96035766129,0.0,0.0,0.0,193.0,1.0,155.0,0.0,44.0,3.0,251.0,411.0,44.0,1019.0,1744252630.882982,0.0,2025-04-09 22:37:10.882,RIGHT,7
54.0,17455.75129458324,3234.0515534939236,-65362.96044146543,-63691.22877016411,-37951.04926241031,-35605.7030684594,-31067.069598087026,-22718.49187832974,0.0,0.0,0.0,193.0,1.0,154.0,0.0,44.0,3.0,248.0,410.0,44.0,1016.0,1744252630.8829906,0.0,2025-04-09 22:37:10.882,RIGHT,7
55.0,17410.086680661047,3176.272294076955,-65395.8845610481,-63707.56789536094,-38014.550568407845,-35671.79717681374,-31109.403802085377,-22782.28375700519,0.0,0.0,0.0,193.0,1.0,154.0,0.0,44.0,3.0,252.0,410.0,44.0,1020.0,1744252630.8829992,0.0,2025-04-09 22:37:10.882,RIGHT,7
56.0,17561.296231901197,3206.782425258449,-65391.61537785714,-63698.873066767825,-38033.638958172676,-35686.05758977623,-30920.486857949123,-22798.89110313548,0.0,0.0,0.0,193.0,1.0,154.0,0.0,44.0,3.0,250.0,410.0,44.0,1018.0,1744252630.8830078,0.0,2025-04-09 22:37:10.883,RIGHT,7
57.0,17547.1922811499,3238.54425412944,-65318.324007788186,-63663.49025529507,-37925.188294075524,-35576.265821011766,-31422.663500626506,-22701.750421732715,0.0,0.0,0.0,193.0,1.0,155.0,0.0,44.0,3.0,252.0,411.0,44.0,1020.0,1744252630.8830163,0.0,2025-04-09 22:37:10.883,RIGHT,7
58.0,17466.79305634416,3233.202187204622,-65357.193691395965,-63679.76232525854,-37958.02300668037,-35613.39206855203,-31065.77319690862,-22734.898058759936,0.0,0.0,0.0,193.0,1.0,155.0,0.0,44.0,3.0,251.0,411.0,44.0,1019.0,1744252630.8830254,0.0,2025-04-09 22:37:10.883,RIGHT,7
59.0,17405.661035258894,3191.0467971619128,-65382.33940390818,-63710.94300877369,-37996.512710632414,-35651.278275403776,-31168.635924891943,-22773.0748382896,0.0,0.0,0.0,193.0,1.0,154.0,0.0,44.0,3.0,249.0,410.0,44.0,1017.0,1744252630.883034,0.0,2025-04-09 22:37:10.883,RIGHT,7
60.0,17538.162176389957,3206.4471490916194,-65392.30828193526,-63689.97707247461,-38045.08305133379,-35699.33452598268,-30857.946676963173,-22811.05045211917,0.0,0.0,0.0,193.0,1.0,154.0,0.0,44.0,3.0,250.0,410.0,44.0,1018.0,1744252630.8830423,0.0,2025-04-09 22:37:10.883,RIGHT,7
61.0,17549.986249206813,3240.4441524081412,-65327.57762999269,-63680.38817410328,-37937.41469829258,-35585.78766414972,-31422.439983181954,-22718.87185798548,0.0,0.0,0.0,193.0,1.0,155.0,0.0,44.0,3.0,253.0,411.0,44.0,1021.0,1744252630.883051,0.0,2025-04-09 22:37:10.883,RIGHT,7
62.0,17492.028175834203,3244.646280365739,-65329.87985967158,-63653.78959820147,-37941.974454161464,-35602.260899813286,-31094.942223422793,-22731.21002092481,0.0,0.0,0.0,193.0,1.0,154.0,0.0,44.0,3.0,251.0,410.0,44.0,1019.0,1744252630.8830645,0.0,2025-04-09 22:37:10.883,RIGHT,7
63.0,17411.137212650447,3194.846593719315,-65370.44827585796,-63714.3404739309,-37983.436940126056,-35639.54360956474,-31172.011038304692,-22771.912547577926,0.0,0.0,0.0,193.0,1.0,154.0,0.0,44.0,3.0,250.0,410.0,44.0,1018.0,1744252630.883073,0.0,2025-04-09 22:37:10.883,RIGHT,7
64.0,17523.857059938557,3196.433567575642,-65377.86905501712,-63677.68361302419,-38042.13262106569,-35692.74076136837,-30850.995284437573,-22813.66560622044,0.0,0.0,0.0,193.0,1.0,155.0,0.0,44.0,3.0,252.0,411.0,44.0,1020.0,1744252630.883082,0.0,2025-04-09 22:37:10.883,RIGHT,7
65.0,17571.86860702856,3228.7318383135607,-65335.33368531868,-63691.16171493074,-37954.71494850099,-35591.08502758563,-31355.652970749496,-22730.584172080064,0.0,0.0,0.0,193.0,1.0,154.0,0.0,44.0,3.0,252.0,410.0,44.0,1020.0,1744252630.8830905,0.0,2025-04-09 22:37:10.883,RIGHT,7
66.0,17506.579161474605,3237.2478529510327,-65325.56597299171,-63640.69147595066,-37939.113430871184,-35585.13946356052,-31136.807040787586,-22711.316968359588,0.0,0.0,0.0,193.0,1.0,154.0,0.0,44.0,3.0,249.0,410.0,44.0,1017.0,1744252630.8830993,0.0,2025-04-09 22:37:10.883,RIGHT,7
67.0,17415.048767930122,3205.1283961687564,-65373.08578170369,-63713.334645430405,-37970.025893452876,-35615.82840869766,-31145.904200780893,-22747.75031182174,0.0,0.0,0.0,193.0,1.0,154.0,0.0,44.0,3.0,249.0,410.0,44.0,1017.0,1744252630.883108,0.0,2025-04-09 22:37:10.883,RIGHT,7
68.0,17488.921283354914,3191.650294262206,-65383.74756380887,-63675.60490078985,-38039.87509487571,-35685.31998220921,-30890.312002934457,-22812.011577130746,0.0,0.0,0.0,193.0,1.0,155.0,0.0,44.0,3.0,252.0,411.0,44.0,1020.0,1744252630.8831165,0.0,2025-04-09 22:37:10.883,RIGHT,7
69.0,17569.56637734966,3222.853329521815,-65367.16256942303,-63713.24523845259,-37988.555489606326,-35621.684565744945,-31244.408338595433,-22771.823140600103,0.0,0.0,0.0,193.0,1.0,155.0,0.0,44.0,3.0,251.0,411.0,44.0,1019.0,1744252630.8831255,0.0,2025-04-09 22:37:10.883,RIGHT,7
70.0,17517.41975753543,3244.7580390880157,-65320.02274036679,-63640.82558641739,-37935.42539303606,-35576.98107683433,-31235.31117860212,-22720.83881149755,0.0,0.0,0.0,193.0,1.0,154.0,0.0,44.0,3.0,249.0,410.0,44.0,1017.0,1744252630.8831344,0.0,2025-04-09 22:37:10.883,RIGHT,7
71.0,17425.509384335208,3214.337314884343,-65377.466723616926,-63719.88370655581,-37979.033646468364,-35622.176304122964,-31129.87800000644,-22770.92907082189,0.0,0.0,0.0,193.0,1.0,155.0,0.0,44.0,3.0,252.0,411.0,44.0,1020.0,1744252630.8831427,0.0,2025-04-09 22:37:10.883,RIGHT,7
72.0,17459.46168416282,3184.1848116141337,-65388.48613363339,-63693.50864809855,-38042.28908327688,-35689.00802004433,-30983.94346045774,-22824.863830192546,0.0,0.0,0.0,193.0,1.0,155.0,0.0,44.0,3.0,252.0,411.0,44.0,1020.0,1744252630.8831513,0.0,2025-04-09 22:37:10.883,RIGHT,7
73.0,17574.416705896463,3215.723123040572,-65383.25582543085,-63722.34239844589,-38018.35036496525,-35651.613551570605,-31115.125848665935,-22792.27498677671,0.0,0.0,0.0,193.0,1.0,155.0,0.0,44.0,3.0,252.0,411.0,44.0,1020.0,1744252630.88316,0.0,2025-04-09 22:37:10.883,RIGHT,7
74.0,17513.351740044563,3226.0496289789235,-65335.0207608963,-63667.11123789683,-37953.239733366936,-35590.21330955187,-31325.455763990376,-22724.795070266136,0.0,0.0,0.0,193.0,1.0,155.0,0.0,44.0,3.0,251.0,411.0,44.0,1019.0,1744252630.8831687,0.0,2025-04-09 22:37:10.883,RIGHT,7
75.0,17432.013741971703,3217.623021319273,-65382.160589952546,-63721.00129377858,-37984.2639546709,-35622.19865586742,-31102.810037471063,-22759.01559102721,0.0,0.0,0.0,193.0,1.0,154.0,0.0,44.0,3.0,250.0,410.0,44.0,1018.0,1744252630.8831773,0.0,2025-04-09 22:37:10.883,RIGHT,7
76.0,17425.710550035306,3181.435547046131,-65398.25384596037,-63709.60190410637,-38040.07626057581,-35677.96625828341,-31083.654592472863,-22811.586893986096,0.0,0.0,0.0,193.0,1.0,155.0,0.0,44.0,3.0,252.0,411.0,44.0,1020.0,1744252630.8831859,0.0,2025-04-09 22:37:10.883,RIGHT,7
77.0,17563.397295879997,3204.2790298794544,-65404.244113474386,-63722.61061937936,-38050.73804268098,-35680.6708193625,-31012.441934638256,-22822.785117958203,0.0,0.0,0.0,193.0,1.0,155.0,0.0,44.0,3.0,252.0,411.0,44.0,1020.0,1744252630.8831997,0.0,2025-04-09 22:37:10.883,RIGHT,7
78.0,17533.513013543252,3235.7949895614374,-65326.46004276992,-63660.94215642717,-37944.47784954045,-35573.18128027693,-31422.462334926407,-22727.276113900676,0.0,0.0,0.0,193.0,1.0,154.0,0.0,44.0,3.0,251.0,410.0,44.0,1019.0,1744252630.8832085,0.0,2025-04-09 22:37:10.883,RIGHT,7
79.0,17450.78920731416,3224.4403033781414,-65370.26946190232,-63693.55335158746,-37970.87525974218,-35607.021821382266,-31074.71389469074,-22750.566631623107,0.0,0.0,0.0,193.0,1.0,154.0,0.0,44.0,3.0,250.0,410.0,44.0,1018.0,1744252630.883217,0.0,2025-04-09 22:37:10.883,RIGHT,7
80.0,17409.63964577194,3178.596875500307,-65390.609549356646,-63708.37255816133,-38014.975251552496,-35655.99449348384,-31135.622398331452,-22802.266216548232,0.0,0.0,0.0,193.0,1.0,154.0,0.0,45.0,3.0,249.0,410.0,45.0,1017.0,1744252630.8832257,0.0,2025-04-09 22:37:10.883,RIGHT,7
81.0,17553.47312134184,3205.977762458058,-65394.02936625831,-63698.00134873407,-38041.19384779857,-35683.15186299704,-30899.45386641668,-22826.383748815508,0.0,0.0,0.0,193.0,1.0,155.0,0.0,44.0,3.0,252.0,411.0,44.0,1020.0,1744252630.883234,0.0,2025-04-09 22:37:10.883,RIGHT,7
82.0,17542.498414814283,3237.06903899539,-65323.777833435284,-63669.65933676474,-37930.709174955984,-35569.58264941962,-31425.70333787243,-22723.990407465746,0.0,0.0,0.0,193.0,1.0,155.0,0.0,44.0,3.0,251.0,411.0,44.0,1019.0,1744252630.8832428,0.0,2025-04-09 22:37:10.883,RIGHT,7
83.0,17468.31297496712,3233.5374633714514,-65351.60575528214,-63673.50383681105,-37955.07257641227,-35597.432923010936,-31063.180394551804,-22740.038959984657,0.0,0.0,0.0,193.0,1.0,154.0,0.0,44.0,3.0,249.0,410.0,44.0,1017.0,1744252630.8832514,0.0,2025-04-09 22:37:10.883,RIGHT,7
84.0,17387.422011783365,3174.037119631424,-65395.19165696999,-63731.01487529455,-38005.81103632582,-35647.94786547993,-31169.3064772256,-22784.89891110646,0.0,0.0,0.0,193.0,1.0,154.0,0.0,45.0,3.0,249.0,410.0,45.0,1017.0,1744252630.88326,0.0,2025-04-09 22:37:10.883,RIGHT,7
85.0,17520.37018780353,3187.984608171536,-65402.81360182925,-63695.76617428854,-38058.29293230688,-35700.51916843881,-30864.49573808858,-22831.94933318488,0.0,0.0,0.0,193.0,1.0,154.0,0.0,44.0,3.0,250.0,410.0,44.0,1018.0,1744252630.8832684,0.0,2025-04-09 22:37:10.883,RIGHT,7
86.0,17535.45761531086,3214.8290532623596,-65348.454159313944,-63701.264703424546,-37955.29609385683,-35590.593289207616,-31422.082355270668,-22740.083663473568,0.0,0.0,0.0,193.0,1.0,155.0,0.0,44.0,3.0,252.0,411.0,44.0,1020.0,1744252630.8832774,0.0,2025-04-09 22:37:10.883,RIGHT,7
87.0,17470.45874243483,3220.68521030965,-65354.01974368331,-63674.777886245,-37960.146422403624,-35605.7030684594,-31108.643842773898,-22743.995218753247,0.0,0.0,0.0,193.0,1.0,155.0,0.0,44.0,3.0,250.0,411.0,44.0,1018.0,1744252630.8832858,0.0,2025-04-09 22:37:10.883,RIGHT,7
88.0,17389.00898563969,3181.0555673903905,-65394.8340290587,-63737.809805608966,-37998.01027751092,-35642.181115410465,-31183.969221588282,-22782.84255061657,0.0,0.0,0.0,193.0,1.0,154.0,0.0,44.0,3.0,250.0,410.0,44.0,1018.0,1744252630.8832943,0.0,2025-04-09 22:37:10.883,RIGHT,7
89.0,17496.31971076962,3184.9894744145245,-65394.744622080885,-63688.63596780729,-38052.0344438594,-35693.99245905787,-30869.837805013398,-22818.47123127833,0.0,0.0,0.0,193.0,1.0,154.0,0.0,45.0,3.0,251.0,410.0,45.0,1019.0,1744252630.8833027,0.0,2025-04-09 22:37:10.883,RIGHT,7
90.0,17552.847272497092,3216.1254544407675,-65358.870072230115,-63711.121822729336,-37972.730454531964,-35604.965460892374,-31333.547095483198,-22757.518024148707,0.0,0.0,0.0,193.0,1.0,154.0,0.0,44.0,3.0,250.0,410.0,44.0,1018.0,1744252631.234512,0.0,2025-04-09 22:37:11.234,RIGHT,7
91.0,17490.821181633615,3229.4470941361305,-65334.193746351455,-63650.39213304426,-37946.04247165233,-35590.77210316325,-31168.345352214023,-22734.16045119291,0.0,0.0,0.0,193.0,1.0,155.0,0.0,44.0,3.0,252.0,411.0,44.0,1020.0,1744252631.2345488,0.0,2025-04-09 22:37:11.234,RIGHT,7
92.0,17411.40543358391,3211.744512527527,-65372.45993285894,-63711.23358145161,-37974.02685571037,-35612.56505400718,-31156.92361079736,-22755.998105525745,0.0,0.0,0.0,193.0,1.0,154.0,0.0,44.0,3.0,249.0,410.0,44.0,1017.0,1744252631.2345939,0.0,2025-04-09 22:37:11.234,RIGHT,7
93.0,17473.118600025013,3191.426776817653,-65386.5862353547,-63677.68361302419,-38047.2288188015,-35681.453130418435,-30928.578189441945,-22804.791963671683,0.0,0.0,0.0,193.0,1.0,154.0,0.0,45.0,3.0,248.0,410.0,45.0,1016.0,1744252631.234614,0.0,2025-04-09 22:37:11.234,RIGHT,7
94.0,17568.940528504914,3216.1925096741334,-65365.240319399876,-63709.24427619509,-37991.818844296795,-35620.432868055446,-31218.726184216284,-22763.105960262536,0.0,0.0,0.0,193.0,1.0,154.0,0.0,44.0,3.0,250.0,410.0,44.0,1018.0,1744252631.23463,0.0,2025-04-09 22:37:11.234,RIGHT,7
95.0,17506.221533563323,3225.5355388564517,-65320.93916188946,-63646.569984742404,-37939.15813436009,-35579.104492557584,-31259.652228313953,-22717.9107329739,0.0,0.0,0.0,193.0,1.0,155.0,0.0,44.0,3.0,251.0,411.0,44.0,1019.0,1744252631.2346394,0.0,2025-04-09 22:37:11.234,RIGHT,7
96.0,17420.234372643754,3205.284858379943,-65370.00124096886,-63712.59703786338,-37973.155137676615,-35611.67098422897,-31119.931473723827,-22751.25953570122,0.0,0.0,0.0,193.0,1.0,154.0,0.0,45.0,3.0,249.0,410.0,45.0,1017.0,1744252631.2346485,0.0,2025-04-09 22:37:11.234,RIGHT,7
97.0,17449.425750902385,3180.787346456927,-65372.52698809231,-63683.003328204555,-38022.32897547829,-35665.650447088534,-31000.304937399025,-22796.566521712128,0.0,0.0,0.0,193.0,1.0,154.0,0.0,45.0,3.0,250.0,410.0,45.0,1018.0,1744252631.2346575,0.0,2025-04-09 22:37:11.234,RIGHT,7
98.0,17571.66744132846,3212.5491753279184,-65370.895310747066,-63711.948837274176,-38007.17449273759,-35643.52222007778,-31062.57689745151,-22780.0262308152,0.0,0.0,0.0,193.0,1.0,155.0,0.0,44.0,3.0,252.0,411.0,44.0,1020.0,1744252631.2346663,0.0,2025-04-09 22:37:11.234,RIGHT,7
99.0,17519.386711047497,3226.139035956745,-65317.474641498884,-63656.74002846957,-37936.49827676991,-35572.93541108792,-31327.802697158182,-22710.132325903454,0.0,0.0,0.0,193.0,1.0,155.0,0.0,44.0,3.0,251.0,411.0,44.0,1019.0,1744252631.2346752,0.0,2025-04-09 22:37:11.234,RIGHT,7
100.0,17440.529756609172,3214.3149631398874,-65365.240319399876,-63708.305502927964,-37969.377692863665,-35611.1568941065,-31077.172586580826,-22754.142910735955,0.0,0.0,0.0,193.0,1.0,155.0,0.0,44.0,3.0,251.0,411.0,44.0,1019.0,1744252631.2346835,0.0,2025-04-09 22:37:11.234,RIGHT,7
101.0,17414.333512107554,3166.6610439611727,-65390.34132842319,-63712.95466577467,-38029.45918195954,-35670.076092490686,-31083.609888983952,-22807.31771079513,0.0,0.0,0.0,193.0,1.0,154.0,0.0,44.0,3.0,249.0,410.0,44.0,1017.0,1744252631.2346923,0.0,2025-04-09 22:37:11.234,RIGHT,7
102.0,17557.250566154788,3198.2440588765216,-65392.17417146852,-63717.335607687906,-38040.92562686511,-35672.71359833641,-30962.463434036188,-22810.04462361868,0.0,0.0,0.0,193.0,1.0,154.0,0.0,44.0,3.0,252.0,410.0,44.0,1020.0,1744252631.2347012,0.0,2025-04-09 22:37:11.234,RIGHT,7
103.0,17527.299228584674,3223.8591580223037,-65323.24139156836,-63673.906168211244,-37939.76163146039,-35574.18710877742,-31412.828733066173,-22719.96709346379,0.0,0.0,0.0,193.0,1.0,154.0,0.0,44.0,3.0,250.0,410.0,44.0,1018.0,1744252631.2347095,0.0,2025-04-09 22:37:11.234,RIGHT,7
104.0,17450.319820680597,3220.595803331829,-65360.99348795337,-63698.1354592008,-37966.47196608448,-35608.94407140542,-31066.10847307545,-22742.944686763847,0.0,0.0,0.0,193.0,1.0,155.0,0.0,44.0,3.0,250.0,411.0,44.0,1018.0,1744252631.2347186,0.0,2025-04-09 22:37:11.234,RIGHT,7
105.0,17407.44917481532,3186.2858755929324,-65372.437581114486,-63708.46196513915,-37998.94905077804,-35641.24234214334,-31132.06847096306,-22771.867844089014,0.0,0.0,0.0,193.0,1.0,155.0,0.0,45.0,3.0,251.0,411.0,45.0,1019.0,1744252631.2347276,0.0,2025-04-09 22:37:11.234,RIGHT,7
106.0,17546.499377071785,3203.4743670790635,-65383.25582543085,-63697.196685933675,-38043.630187944196,-35683.48713916387,-30856.940848462684,-22814.358510298553,0.0,0.0,0.0,193.0,1.0,155.0,0.0,44.0,3.0,252.0,411.0,44.0,1020.0,1744252631.2347417,0.0,2025-04-09 22:37:11.234,RIGHT,7
107.0,17539.056246168166,3227.457788879608,-65323.219039823896,-63684.27737763851,-37942.10856462819,-35574.18710877742,-31417.50024765733,-22723.901000487924,0.0,0.0,0.0,193.0,1.0,154.0,0.0,44.0,3.0,252.0,410.0,44.0,1020.0,1744252631.2347505,0.0,2025-04-09 22:37:11.234,RIGHT,7
108.0,17465.139027254467,3223.59093708884,-65350.689333759474,-63682.15396191525,-37963.4097770941,-35600.495112001314,-31062.19691779577,-22735.3674453935,0.0,0.0,0.0,193.0,1.0,155.0,0.0,44.0,3.0,252.0,411.0,44.0,1020.0,1744252631.234759,0.0,2025-04-09 22:37:11.234,RIGHT,7
109.0,17395.78156420965,3188.2081256160886,-65378.53960735079,-63725.56104964746,-37994.18812920906,-35631.6087402831,-31165.573735901566,-22767.64336438696,0.0,0.0,0.0,193.0,1.0,155.0,0.0,45.0,3.0,252.0,411.0,45.0,1020.0,1744252631.234768,0.0,2025-04-09 22:37:11.234,RIGHT,7
110.0,17519.766690703236,3199.406349588198,-65386.51918012133,-63692.8827992538,-38051.743871181476,-35687.28693572127,-30840.132336632294,-22815.453745776864,0.0,0.0,0.0,193.0,1.0,155.0,0.0,45.0,3.0,252.0,411.0,45.0,1020.0,1744252631.2347767,0.0,2025-04-09 22:37:11.234,RIGHT,7
111.0,17543.683057270417,3216.0807509518568,-65344.117920889614,-63714.16165997525,-37962.26983812688,-35590.77210316325,-31392.712163056396,-22744.486957131263,0.0,0.0,0.0,193.0,1.0,154.0,0.0,44.0,3.0,249.0,410.0,44.0,1017.0,1744252631.2347853,0.0,2025-04-09 22:37:11.234,RIGHT,7
112.0,17478.08068729409,3220.618155076284,-65340.49693828785,-63675.40373508975,-37954.08909965624,-35593.7001816869,-31113.114191664958,-22733.758119792717,0.0,0.0,0.0,193.0,1.0,154.0,0.0,44.0,3.0,249.0,410.0,44.0,1017.0,1744252631.234794,0.0,2025-04-09 22:37:11.234,RIGHT,7
113.0,17396.809744454593,3188.3198843383652,-65373.71163054844,-63733.22769799563,-37980.8664895137,-35618.77883896576,-31163.517375411677,-22761.40722768393,0.0,0.0,0.0,193.0,1.0,155.0,0.0,44.0,3.0,252.0,411.0,44.0,1020.0,1744252631.2348027,0.0,2025-04-09 22:37:11.234,RIGHT,7
114.0,17484.249768763755,3181.904933679692,-65384.038136486786,-63696.772002789025,-38048.50286823545,-35689.52211016681,-30865.16629042224,-22822.136917369,0.0,0.0,0.0,193.0,1.0,155.0,0.0,45.0,3.0,251.0,411.0,45.0,1019.0,1744252631.2348113,0.0,2025-04-09 22:37:11.234,RIGHT,7
115.0,17553.406066108473,3215.8795852517587,-65352.52217680481,-63726.54452640349,-37975.70323654452,-35604.697239958914,-31292.375182196523,-22759.574384638596,0.0,0.0,0.0,193.0,1.0,154.0,0.0,44.0,3.0,248.0,410.0,44.0,1016.0,1744252631.2348201,0.0,2025-04-09 22:37:11.234,RIGHT,7
116.0,17494.17394330191,3231.7940273039376,-65325.1189381026,-63664.6748977512,-37947.450631553016,-35580.870280369556,-31177.68838139634,-22723.49866908773,0.0,0.0,0.0,193.0,1.0,155.0,0.0,44.0,3.0,252.0,411.0,44.0,1020.0,1744252631.234829,0.0,2025-04-09 22:37:11.234,RIGHT,7
117.0,17408.991445182735,3206.0224659469686,-65373.24224391488,-63735.52992767453,-37981.09000695825,-35615.962519164386,-31143.1996397018,-22763.105960262536,0.0,0.0,0.0,193.0,1.0,155.0,0.0,44.0,3.0,252.0,411.0,44.0,1020.0,1744252631.2348375,0.0,2025-04-09 22:37:11.234,RIGHT,7
118.0,17458.992297529257,3182.3519685687984,-65384.14989520907,-63702.04701448048,-38045.932417623095,-35685.789368842765,-30951.108747852893,-22821.95810341336,0.0,0.0,0.0,193.0,1.0,154.0,0.0,45.0,3.0,249.0,410.0,45.0,1017.0,1744252631.234846,0.0,2025-04-09 22:37:11.234,RIGHT,7
119.0,17567.24179592631,3219.902899253714,-65366.134389178085,-63729.003218293576,-38002.81590256881,-35634.29094961774,-31185.22091927778,-22788.072858819112,0.0,0.0,0.0,193.0,1.0,154.0,0.0,44.0,3.0,249.0,410.0,44.0,1017.0,1744252631.2348547,0.0,2025-04-09 22:37:11.234,RIGHT,7
120.0,17512.681187710903,3237.560777373407,-65311.99846410733,-63660.003383160045,-37934.017233135375,-35576.31052450067,-31282.20513846936,-22720.816459753092,0.0,0.0,0.0,193.0,1.0,154.0,0.0,44.0,3.0,252.0,410.0,44.0,1020.0,1744252631.2348635,0.0,2025-04-09 22:37:11.234,RIGHT,7
121.0,17426.381102368963,3219.1876434311444,-65362.423999598504,-63726.343360703395,-37966.7625387624,-35608.87701617205,-31099.85960720296,-22749.69491358935,0.0,0.0,0.0,193.0,1.0,155.0,0.0,44.0,3.0,251.0,411.0,44.0,1019.0,1744252631.2348773,0.0,2025-04-09 22:37:11.234,RIGHT,7
