Sample Index,EXG Channel 0,EXG Channel 1,EXG Channel 2,EXG Channel 3,EXG Channel 4,EXG Channel 5,EXG Channel 6,EXG Channel 7,Accel Channel 0,Accel Channel 1,Accel Channel 2,Not Used,Digital Channel 0 (D11),Digital Channel 1 (D12),Digital Channel 2 (D13),Digital Channel 3 (D17),Not Used,Digital Channel 4 (D18),Analog Channel 0,Analog Channel 1,Analog Channel 2,Timestamp,Marker Channel,Timestamp (Formatted),Stimulus_Direction,Stimulus_Number
76.0,7892.602132869021,-7969.156857628448,-20782.517884077773,-23521.835925797932,14283.055279619131,14860.043210988428,30198.0784771536,51490.79728016821,0.0,0.0,0.0,193.0,0.0,193.0,0.0,1.0,0.0,179.0,193.0,1.0,179.0,1744418886.117663,0.0,2025-04-11 20:48:06.117,RIGHT,45
77.0,7900.760519595208,-7973.62720651951,-20724.179831049423,-23521.433594397735,14409.700263702902,14853.22592892956,30233.6848060709,51545.89433025054,0.0,0.0,0.0,193.0,0.0,193.0,0.0,1.0,0.0,179.0,193.0,1.0,179.0,1744418886.1177132,0.0,2025-04-11 20:48:06.117,RIGHT,45
78.0,7881.985054252751,-8008.898259269984,-20716.71434840135,-23563.253708273616,14519.670846423012,14663.481970248458,30590.77627548889,51497.14517559352,0.0,0.0,0.0,193.0,0.0,193.0,0.0,1.0,0.0,179.0,193.0,1.0,179.0,1744418886.1177497,0.0,2025-04-11 20:48:06.117,RIGHT,45
79.0,7880.062804229594,-8003.511488856255,-20767.63162227054,-23549.55208892251,14394.165801306464,14600.740623562411,30511.762858839378,51381.6760637374,0.0,0.0,0.0,193.0,0.0,193.0,0.0,1.0,0.0,179.0,193.0,1.0,179.0,1744418886.1177855,0.0,2025-04-11 20:48:06.117,RIGHT,45
80.0,7883.572028109077,-7974.811848975641,-20798.74525055233,-23524.8534112994,14283.524666252693,14843.771141024965,30268.151196020986,51481.722471919355,0.0,0.0,0.0,193.0,0.0,193.0,0.0,1.0,0.0,178.0,193.0,1.0,178.0,1744418886.117822,0.0,2025-04-11 20:48:06.117,RIGHT,45
81.0,7901.7439963512425,-7954.941148154873,-20743.983476636826,-23526.641550855824,14365.868492826045,14867.866321547786,30203.331137100595,51541.44633310394,0.0,0.0,0.0,193.0,0.0,193.0,0.0,1.0,0.0,178.0,193.0,1.0,178.0,1744418886.1178713,0.0,2025-04-11 20:48:06.117,RIGHT,45
82.0,7897.0501300156275,-7983.014939190739,-20706.410194207456,-23555.542356436534,14519.49203246737,14706.799651002842,30555.169946571583,51503.537774507735,0.0,0.0,0.0,193.0,0.0,192.0,0.0,1.0,0.0,178.0,192.0,1.0,178.0,1744418886.1179073,0.0,2025-04-11 20:48:06.117,RIGHT,45
83.0,7900.313484706103,-7982.411442090445,-20752.901822674492,-23551.340228478937,14422.865441187078,14594.951521748486,30539.166097541583,51358.36319427052,0.0,0.0,0.0,193.0,0.0,192.0,0.0,1.0,0.0,178.0,192.0,1.0,178.0,1744418886.117943,0.0,2025-04-11 20:48:06.117,RIGHT,45
84.0,7897.787737582653,-7961.177284857904,-20794.02903247226,-23529.100242745906,14302.389538572972,14824.928620449142,30313.547589009715,51436.32607893063,0.0,0.0,0.0,193.0,0.0,193.0,0.0,1.0,0.0,178.0,193.0,1.0,178.0,1744418886.1179783,0.0,2025-04-11 20:48:06.117,RIGHT,45
85.0,7911.891688333952,-7958.539779012178,-20760.881395445038,-23524.22756245465,14328.675190052414,14897.057699806417,30183.080456624088,51522.5144055503,0.0,0.0,0.0,193.0,0.0,193.0,0.0,1.0,0.0,179.0,193.0,1.0,179.0,1744418886.1180136,0.0,2025-04-11 20:48:06.118,RIGHT,45
86.0,7886.768327566187,-8003.243267922791,-20716.781403634715,-23554.782397125055,14497.63202639008,14754.006535292452,30512.27694896185,51523.00614392831,0.0,0.0,0.0,193.0,0.0,193.0,0.0,1.0,0.0,179.0,193.0,1.0,179.0,1744418886.1180499,0.0,2025-04-11 20:48:06.118,RIGHT,45
87.0,7878.632292584454,-8000.091671954593,-20757.43922679892,-23567.52289146458,14427.983990667342,14590.771745535345,30564.915307154097,51382.41367130443,0.0,0.0,0.0,193.0,0.0,193.0,0.0,1.0,0.0,179.0,193.0,1.0,179.0,1744418886.1180859,0.0,2025-04-11 20:48:06.118,RIGHT,45
88.0,7883.75084206472,-7969.447430306367,-20801.20394244241,-23534.017626526074,14312.626637533504,14792.026852610928,30341.24140038984,51420.72456130083,0.0,0.0,0.0,193.0,0.0,193.0,0.0,1.0,0.0,178.0,193.0,1.0,178.0,1744418886.118121,0.0,2025-04-11 20:48:06.118,RIGHT,45
89.0,7904.202688241326,-7943.608813716032,-20771.498474061307,-23517.09735597341,14320.941486470878,14933.66985722421,30155.520755710695,51525.86716721859,0.0,0.0,0.0,193.0,0.0,193.0,0.0,1.0,0.0,178.0,193.0,1.0,178.0,1744418886.118157,0.0,2025-04-11 20:48:06.118,RIGHT,45
90.0,7890.746938079231,-7979.237494377791,-20718.94952284688,-23554.536527936045,14500.604808402635,14828.057864672885,30447.188669107996,51551.705783808924,0.0,0.0,0.0,193.0,0.0,193.0,0.0,1.0,0.0,179.0,193.0,1.0,179.0,1744418886.1181924,0.0,2025-04-11 20:48:06.118,RIGHT,45
91.0,7885.471926387779,-7998.728215542819,-20762.311907090178,-23591.461609776212,14462.942118995443,14613.212896968473,30603.91910122861,51428.92765151592,0.0,0.0,0.0,193.0,0.0,193.0,0.0,1.0,0.0,179.0,193.0,1.0,179.0,1744418886.1182275,0.0,2025-04-11 20:48:06.118,RIGHT,45
92.0,7888.757632822709,-7991.463898594845,-20803.59557909913,-23558.09045530444,14330.776254031212,14741.601317119756,30399.467694695915,51421.976258990326,0.0,0.0,0.0,193.0,0.0,193.0,0.0,1.0,0.0,179.0,193.0,1.0,179.0,1744418886.118282,0.0,2025-04-11 20:48:06.118,RIGHT,45
93.0,7911.645819144943,-7962.563093014132,-20788.709317291894,-23530.776623580055,14291.615997745515,14911.407519746725,30157.44300573385,51521.66503926099,0.0,0.0,0.0,193.0,0.0,193.0,0.0,1.0,0.0,178.0,193.0,1.0,178.0,1744418886.1183183,0.0,2025-04-11 20:48:06.118,RIGHT,45
94.0,7899.575877139077,-7983.730195013309,-20732.226459053334,-23555.072969802975,14473.045107489243,14843.502920091501,30365.694208823945,51553.62803383208,0.0,0.0,0.0,193.0,0.0,193.0,0.0,1.0,0.0,178.0,193.0,1.0,178.0,1744418886.1183546,0.0,2025-04-11 20:48:06.118,RIGHT,45
95.0,7872.440859370335,-8008.227706936325,-20762.982459423838,-23599.24001684666,14484.735069839367,14623.047664528807,30610.11053444273,51447.61370988056,0.0,0.0,0.0,193.0,0.0,193.0,0.0,1.0,0.0,178.0,193.0,1.0,178.0,1744418886.1183908,0.0,2025-04-11 20:48:06.118,RIGHT,45
96.0,7876.642987327932,-7984.870133980529,-20802.567398854186,-23560.90677510581,14350.959879274355,14689.544104283346,30428.413203765536,51385.341749828076,0.0,0.0,0.0,193.0,0.0,192.0,0.0,1.0,0.0,178.0,192.0,1.0,178.0,1744418886.1184409,0.0,2025-04-11 20:48:06.118,RIGHT,45
97.0,7891.462193901801,-7955.678755721898,-20797.560608096195,-23529.16729797927,14294.186448357876,14913.486231981067,30179.571232744605,51497.99454188282,0.0,0.0,0.0,193.0,0.0,193.0,0.0,1.0,0.0,179.0,193.0,1.0,179.0,1744418886.118477,0.0,2025-04-11 20:48:06.118,RIGHT,45
98.0,7897.8100893271085,-7971.034404162694,-20732.78525266472,-23544.053559786506,14433.929554692455,14874.817714073386,30290.257071287284,51539.23351040286,0.0,0.0,0.0,193.0,0.0,193.0,0.0,1.0,0.0,179.0,193.0,1.0,179.0,1744418886.1185136,0.0,2025-04-11 20:48:06.118,RIGHT,45
99.0,7890.232847956759,-8002.103328955571,-20737.90380214498,-23582.833836416467,14491.06061352022,14663.034935359352,30597.504150569937,51456.68851812941,0.0,0.0,0.0,193.0,0.0,193.0,0.0,1.0,0.0,179.0,193.0,1.0,179.0,1744418886.1185498,0.0,2025-04-11 20:48:06.118,RIGHT,45
100.0,7900.067615517094,-7983.551381057666,-20780.05919218769,-23555.72117039218,14370.785876606213,14652.037877087341,30463.32662860473,51352.21646454531,0.0,0.0,0.0,193.0,0.0,193.0,0.0,1.0,0.0,179.0,193.0,1.0,179.0,1744418886.1185863,0.0,2025-04-11 20:48:06.118,RIGHT,45
101.0,7903.353321952024,-7954.225892332303,-20801.807439542707,-23531.536582891535,14286.20687558733,14886.306510723414,30218.619730308026,51467.32794849014,0.0,0.0,0.0,193.0,0.0,193.0,0.0,1.0,0.0,178.0,193.0,1.0,178.0,1744418886.5925567,0.0,2025-04-11 20:48:06.592,RIGHT,45
102.0,7908.13659526546,-7955.298776066158,-20742.48590975832,-23530.866030557878,14393.048214083698,14879.355118197815,30218.373861119017,51518.82636771517,0.0,0.0,0.0,193.0,0.0,193.0,0.0,1.0,0.0,178.0,193.0,1.0,178.0,1744418886.5927339,0.0,2025-04-11 20:48:06.592,RIGHT,45
103.0,7891.2386764572475,-8011.200488948881,-20733.52286023174,-23577.89410089184,14516.675712666001,14695.28850260836,30580.896804439642,51482.370672508565,0.0,0.0,0.0,193.0,0.0,192.0,0.0,1.0,0.0,178.0,192.0,1.0,178.0,1744418886.5927744,0.0,2025-04-11 20:48:06.592,RIGHT,45
104.0,7897.0501300156275,-7995.509564341255,-20777.868721231072,-23560.370333238883,14399.75373742029,14603.534591619326,30504.74441108041,51358.16202857042,0.0,0.0,0.0,193.0,0.0,193.0,0.0,1.0,0.0,179.0,193.0,1.0,179.0,1744418886.5928113,0.0,2025-04-11 20:48:06.592,RIGHT,45
105.0,7889.674054345376,-7971.459087307345,-20804.44494538843,-23530.70956834669,14284.977529642289,14836.775045010454,30251.23092546832,51449.2453872258,0.0,0.0,0.0,193.0,0.0,192.0,0.0,1.0,0.0,178.0,192.0,1.0,178.0,1744418886.5928483,0.0,2025-04-11 20:48:06.592,RIGHT,45
106.0,7896.80426082662,-7958.830351690096,-20754.645258742006,-23531.357768935894,14354.223233964829,14878.528103652967,30164.327343026085,51518.60285027062,0.0,0.0,0.0,193.0,0.0,192.0,0.0,1.0,0.0,178.0,192.0,1.0,178.0,1744418886.5928838,0.0,2025-04-11 20:48:06.592,RIGHT,45
107.0,7885.8966095324295,-7996.314227141646,-20724.358645005064,-23567.791112398045,14519.402625489549,14719.24957266445,30530.404213715105,51507.85166118761,0.0,0.0,0.0,193.0,0.0,193.0,0.0,1.0,0.0,178.0,193.0,1.0,178.0,1744418886.5929685,0.0,2025-04-11 20:48:06.592,RIGHT,45
108.0,7879.727528062765,-8003.53384060071,-20777.667555530974,-23582.409153271816,14409.342635791618,14566.251881867873,30533.13112653865,51373.47297352231,0.0,0.0,0.0,193.0,0.0,193.0,0.0,1.0,0.0,179.0,193.0,1.0,179.0,1744418886.5930052,0.0,2025-04-11 20:48:06.593,RIGHT,45
109.0,7881.9627025082955,-7972.0625844076385,-20807.373023912078,-23543.405359197302,14294.722890224803,14785.813067652354,30293.72159167786,51435.096732985585,0.0,0.0,0.0,193.0,0.0,193.0,0.0,1.0,0.0,179.0,193.0,1.0,179.0,1744418886.5930414,0.0,2025-04-11 20:48:06.593,RIGHT,45
110.0,7904.694426619342,-7949.308508552135,-20758.355648321587,-23527.6026758674,14329.323390641617,14895.828353861376,30145.55187768363,51525.9118707075,0.0,0.0,0.0,193.0,0.0,193.0,0.0,1.0,0.0,178.0,193.0,1.0,178.0,1744418886.5930777,0.0,2025-04-11 20:48:06.593,RIGHT,45
111.0,7890.255199701214,-7984.646616535976,-20722.01171183726,-23570.495673477137,14494.882761822077,14755.437046937592,30478.302297389782,51535.88074873457,0.0,0.0,0.0,193.0,0.0,193.0,0.0,1.0,0.0,178.0,193.0,1.0,178.0,1744418886.5931349,0.0,2025-04-11 20:48:06.593,RIGHT,45
112.0,7898.32417944958,-7980.377433345013,-20756.00871515378,-23579.726943937178,14430.375627324061,14551.253861338362,30551.6607226921,51384.51473528323,0.0,0.0,0.0,193.0,0.0,193.0,0.0,1.0,0.0,178.0,193.0,1.0,178.0,1744418886.5931716,0.0,2025-04-11 20:48:06.593,RIGHT,45
113.0,7892.780946824664,-7983.886657224496,-20799.907541264005,-23553.79892036902,14296.131050125487,14726.513889612424,30324.030557159254,51401.971447702825,0.0,0.0,0.0,193.0,0.0,192.0,0.0,0.0,0.0,178.0,192.0,0.0,178.0,1744418886.5932083,0.0,2025-04-11 20:48:06.593,RIGHT,45
114.0,7906.281400475669,-7976.264712365236,-20778.82984624265,-23535.962228293687,14278.607282472525,14872.828408816864,30101.34012715103,51504.47654777486,0.0,0.0,0.0,193.0,0.0,192.0,0.0,1.0,0.0,178.0,192.0,1.0,178.0,1744418886.5932453,0.0,2025-04-11 20:48:06.593,RIGHT,45
115.0,7890.99280726824,-7996.783613775207,-20714.792098378195,-23552.346056979426,14470.944043510442,14791.244541554994,30348.885696993555,51529.756370753814,0.0,0.0,0.0,193.0,0.0,193.0,0.0,0.0,0.0,178.0,193.0,0.0,178.0,1744418886.5932808,0.0,2025-04-11 20:48:06.593,RIGHT,45
116.0,7872.709080303798,-8005.098462712582,-20759.62969775554,-23590.90281616483,14445.977144953866,14584.468553598948,30527.47613519146,51412.11913968553,0.0,0.0,0.0,193.0,0.0,193.0,0.0,1.0,0.0,179.0,193.0,1.0,179.0,1744418886.5933163,0.0,2025-04-11 20:48:06.593,RIGHT,45
117.0,7875.32423440507,-7977.739927499286,-20797.560608096195,-23553.41894071328,14311.039663677177,14700.451755577536,30323.96350192589,51386.97342717331,0.0,0.0,0.0,193.0,0.0,193.0,0.0,0.0,0.0,179.0,193.0,0.0,179.0,1744418886.593352,0.0,2025-04-11 20:48:06.593,RIGHT,45
118.0,7897.0501300156275,-7953.063601620627,-20780.238006143332,-23526.79801306701,14274.449858003838,14892.81086835991,30084.509263576183,51497.01106512679,0.0,0.0,0.0,193.0,0.0,193.0,0.0,0.0,0.0,179.0,193.0,0.0,179.0,1744418886.5933867,0.0,2025-04-11 20:48:06.593,RIGHT,45
119.0,7899.933505050362,-7971.928473940907,-20716.24496176779,-23547.76394936609,14445.664220531491,14823.65457101519,30258.98698079431,51530.7621992543,0.0,0.0,0.0,193.0,0.0,193.0,0.0,1.0,0.0,179.0,193.0,1.0,179.0,1744418886.593422,0.0,2025-04-11 20:48:06.593,RIGHT,45
120.0,7889.249371200725,-7989.29577938268,-20744.162290592467,-23588.265310319104,14470.497008621338,14607.490850387914,30518.021347286864,51429.53114861622,0.0,0.0,0.0,193.0,0.0,193.0,0.0,1.0,0.0,178.0,193.0,1.0,178.0,1744418886.5934577,0.0,2025-04-11 20:48:06.593,RIGHT,45
121.0,7896.737205593254,-7968.151029127959,-20789.290462647732,-23556.52583319257,14342.17564370342,14657.290537034338,30353.33369414016,51355.65863319143,0.0,0.0,0.0,193.0,0.0,192.0,0.0,0.0,0.0,178.0,192.0,0.0,178.0,1744418886.5934925,0.0,2025-04-11 20:48:06.593,RIGHT,45
122.0,7912.942220323351,-7950.783723686186,-20792.82203827167,-23528.295579945516,14276.68503244937,14890.575693914378,30104.312909163586,51467.08207930113,0.0,0.0,0.0,193.0,0.0,192.0,0.0,0.0,0.0,178.0,192.0,0.0,178.0,1744418886.5936148,0.0,2025-04-11 20:48:06.593,RIGHT,45
123.0,7901.118147506493,-7970.900293695962,-20736.517993988753,-23539.739673106633,14413.008321882287,14862.904234278707,30191.887043939478,51515.786530469246,0.0,0.0,0.0,193.0,0.0,192.0,0.0,0.0,0.0,178.0,192.0,0.0,178.0,1744418886.5936515,0.0,2025-04-11 20:48:06.593,RIGHT,45
124.0,7868.104620946005,-8009.658218581465,-20745.3469330486,-23590.65694697582,14489.026604774786,14653.602499199213,30524.972739812463,51454.87802682853,0.0,0.0,0.0,193.0,0.0,193.0,0.0,0.0,0.0,179.0,193.0,0.0,179.0,1744418886.5936875,0.0,2025-04-11 20:48:06.593,RIGHT,45
125.0,7874.206647182304,-8001.164555688448,-20782.182607910945,-23561.778493139565,14373.713955129857,14622.019484283863,30397.50074118385,51343.387525485465,0.0,0.0,0.0,193.0,0.0,193.0,0.0,0.0,0.0,179.0,193.0,0.0,179.0,1744418886.5937235,0.0,2025-04-11 20:48:06.593,RIGHT,45
126.0,7870.1609814358935,-7987.954674715362,-20805.651939589017,-23535.649303871312,14278.070840605598,14876.829371074364,30161.220450546796,51467.21618976787,0.0,0.0,0.0,193.0,0.0,193.0,0.0,0.0,0.0,179.0,193.0,0.0,179.0,1744418886.5937755,0.0,2025-04-11 20:48:06.593,RIGHT,45
127.0,7885.047243243128,-7974.677738508909,-20740.38484577952,-23531.313065446982,14369.98121380582,14879.310414708903,30125.994101285232,51519.899251449024,0.0,0.0,0.0,193.0,0.0,193.0,0.0,0.0,0.0,179.0,193.0,0.0,179.0,1744418886.5938115,0.0,2025-04-11 20:48:06.593,RIGHT,45
128.0,7869.468077357778,-7996.984779475306,-20718.5918949356,-23574.85426364592,14501.901209581043,14704.273903879393,30480.98450672442,51479.82257364066,0.0,0.0,0.0,193.0,0.0,193.0,0.0,0.0,0.0,178.0,193.0,0.0,178.0,1744418886.5938485,0.0,2025-04-11 20:48:06.593,RIGHT,45
129.0,7878.118202461983,-7981.897351967973,-20765.083523402634,-23571.74737116663,14394.121097817553,14600.472402628948,30425.88745664209,51346.89674936495,0.0,0.0,0.0,193.0,0.0,193.0,0.0,0.0,0.0,178.0,193.0,0.0,178.0,1744418886.5938842,0.0,2025-04-11 20:48:06.593,RIGHT,45
130.0,7893.205629969315,-7967.748697727764,-20788.709317291894,-23537.929181805754,14292.800640201645,14853.471798118568,30192.02115440621,51440.70702084387,0.0,0.0,0.0,193.0,0.0,193.0,0.0,0.0,0.0,178.0,193.0,0.0,178.0,1744418886.5939195,0.0,2025-04-11 20:48:06.593,RIGHT,45
131.0,7904.336798708057,-7975.2365321202915,-20745.078712115137,-23534.46466141518,14344.142597215487,14917.800118660942,30099.551987594605,51523.98962068434,0.0,0.0,0.0,193.0,0.0,193.0,0.0,0.0,0.0,179.0,193.0,0.0,179.0,1744418886.5939548,0.0,2025-04-11 20:48:06.593,RIGHT,45
132.0,7879.682824573854,-8010.664047081954,-20711.260522754255,-23575.211891557206,14504.11403228212,14762.567253418834,30449.49089878689,51512.54552752322,0.0,0.0,0.0,193.0,0.0,193.0,0.0,0.0,0.0,179.0,193.0,0.0,179.0,1744418886.59399,0.0,2025-04-11 20:48:06.593,RIGHT,45
133.0,7872.016176225684,-8015.469672139844,-20762.133093134536,-23586.38776378486,14408.627379969048,14597.32080666075,30461.158509392564,51366.85685716353,0.0,0.0,0.0,193.0,0.0,193.0,0.0,0.0,0.0,179.0,193.0,0.0,179.0,1744418886.5940254,0.0,2025-04-11 20:48:06.594,RIGHT,45
134.0,7869.2222081687705,-7988.871096238029,-20786.38473586854,-23540.030245784554,14299.349701327052,14806.287265573415,30225.74993678927,51414.80134902017,0.0,0.0,0.0,193.0,0.0,193.0,0.0,0.0,0.0,179.0,193.0,0.0,179.0,1744418886.594061,0.0,2025-04-11 20:48:06.594,RIGHT,45
135.0,7875.36893789398,-7970.252093106758,-20753.86294768607,-23528.250876456605,14321.008541704243,14919.14122332826,30058.849460941492,51509.48333853285,0.0,0.0,0.0,193.0,0.0,193.0,0.0,0.0,0.0,179.0,193.0,0.0,179.0,1744418886.594096,0.0,2025-04-11 20:48:06.594,RIGHT,45
136.0,7866.785868023142,-7999.778747532219,-20705.80669710716,-23560.727961150165,14498.615503146113,14794.932579390119,30361.96146749991,51518.73696073735,0.0,0.0,0.0,193.0,0.0,193.0,0.0,0.0,0.0,178.0,193.0,0.0,178.0,1744418886.5941308,0.0,2025-04-11 20:48:06.594,RIGHT,45
137.0,7867.41171686789,-8006.752491802275,-20741.100101602093,-23583.079705605473,14449.084037433153,14591.196428679996,30474.100169432186,51387.912200440434,0.0,0.0,0.0,193.0,0.0,193.0,0.0,0.0,0.0,178.0,193.0,0.0,178.0,1744418886.5942278,0.0,2025-04-11 20:48:06.594,RIGHT,45
138.0,7868.12697269046,-7988.669930537932,-20782.942567222424,-23548.50155693311,14319.913306225933,14758.722753372522,30270.02874255523,51408.76637801724,0.0,0.0,0.0,193.0,0.0,193.0,0.0,0.0,0.0,179.0,193.0,0.0,179.0,1744418886.594264,0.0,2025-04-11 20:48:06.594,RIGHT,45
139.0,7887.70710083331,-7962.272520336213,-20771.565529294676,-23528.8543735569,14280.328366795584,14918.694188439154,30052.65802772737,51518.49109154834,0.0,0.0,0.0,193.0,0.0,193.0,0.0,0.0,0.0,179.0,193.0,0.0,179.0,1744418886.594299,0.0,2025-04-11 20:48:06.594,RIGHT,45
140.0,7893.183278224859,-7978.701052510864,-20710.3888047205,-23544.8582225869,14454.984897969354,14831.477681574546,30288.37952475304,51547.63776631806,0.0,0.0,0.0,193.0,0.0,193.0,0.0,0.0,0.0,178.0,193.0,0.0,178.0,1744418886.5943344,0.0,2025-04-11 20:48:06.594,RIGHT,45
141.0,7874.6089785825,-8013.279201183224,-20746.241002826813,-23583.929071894774,14443.518453063782,14616.56565863677,30499.782323811334,51438.04716325369,0.0,0.0,0.0,193.0,0.0,193.0,0.0,0.0,0.0,178.0,193.0,0.0,178.0,1744418886.5943856,0.0,2025-04-11 20:48:06.594,RIGHT,45
142.0,7871.256216914203,-7998.5941050760875,-20786.004756212802,-23553.530699435556,14313.028968933699,14711.314703382815,30306.19386508392,51399.535107557196,0.0,0.0,0.0,193.0,0.0,192.0,0.0,0.0,0.0,178.0,192.0,0.0,178.0,1744418886.5944211,0.0,2025-04-11 20:48:06.594,RIGHT,45
143.0,7891.9986357687285,-7959.277386579202,-20779.276881131755,-23523.311140931983,14260.189445041353,14905.66312142171,30052.56862074955,51507.53873676524,0.0,0.0,0.0,193.0,0.0,193.0,0.0,0.0,0.0,179.0,193.0,0.0,179.0,1744418886.594457,0.0,2025-04-11 20:48:06.594,RIGHT,45
144.0,7898.815917827597,-7960.305566824147,-20702.31982497213,-23522.03709149803,14438.802234983712,14861.317260422382,30193.809293962637,51541.0663534482,0.0,0.0,0.0,193.0,0.0,193.0,0.0,0.0,0.0,179.0,193.0,0.0,179.0,1744418886.594492,0.0,2025-04-11 20:48:06.594,RIGHT,45
145.0,7873.692557059831,-7993.922590484928,-20725.409176994464,-23573.58021421197,14479.951796525931,14660.084505091252,30486.639498071614,51458.47665768584,0.0,0.0,0.0,193.0,0.0,193.0,0.0,0.0,0.0,179.0,193.0,0.0,179.0,1744418886.5945275,0.0,2025-04-11 20:48:06.594,RIGHT,45
146.0,7885.315464176591,-7981.562075801144,-20774.359497351586,-23549.93206857825,14347.830635050612,14685.677252492578,30340.414385844993,51385.31939808362,0.0,0.0,0.0,193.0,0.0,193.0,0.0,0.0,0.0,179.0,193.0,0.0,179.0,1744418886.5945628,0.0,2025-04-11 20:48:06.594,RIGHT,45
147.0,7892.80329856912,-7964.597101759566,-20784.484837589844,-23520.763042064078,14265.352698010529,14903.763223143009,30084.151635664897,51497.748672693815,0.0,0.0,0.0,193.0,0.0,193.0,0.0,0.0,0.0,179.0,193.0,0.0,179.0,1744418886.594597,0.0,2025-04-11 20:48:06.594,RIGHT,45
148.0,7891.104565990516,-7971.213218118337,-20725.923267116937,-23530.88838230233,14398.390281008516,14879.645690875734,30137.617008401994,51555.59498734415,0.0,0.0,0.0,193.0,0.0,193.0,0.0,0.0,0.0,179.0,193.0,0.0,179.0,1744418886.5946321,0.0,2025-04-11 20:48:06.594,RIGHT,45
149.0,7877.671167572877,-7993.9002387404735,-20725.56563920565,-23576.173016568784,14494.72629961089,14671.439191274547,30479.285774145817,51497.27928606025,0.0,0.0,0.0,193.0,0.0,193.0,0.0,0.0,0.0,178.0,193.0,0.0,178.0,1744418886.594672,0.0,2025-04-11 20:48:06.594,RIGHT,45
150.0,7880.331025163058,-7986.591218303588,-20777.846369486615,-23567.589946697946,14364.996774792287,14607.535553876825,30378.524110141294,51380.11144162553,0.0,0.0,0.0,193.0,0.0,192.0,0.0,0.0,0.0,178.0,192.0,0.0,178.0,1744418886.5947075,0.0,2025-04-11 20:48:06.594,RIGHT,45
151.0,7890.769289823686,-7969.492133795278,-20796.89005576254,-23530.620161368868,14259.518892707694,14843.435864858135,30123.267188461687,51484.96347486538,0.0,0.0,0.0,193.0,0.0,193.0,0.0,0.0,0.0,179.0,193.0,0.0,179.0,1744418886.5947425,0.0,2025-04-11 20:48:06.594,RIGHT,45
152.0,7907.331932465069,-7956.997508644761,-20739.267258556756,-23518.773736807554,14360.951109045876,14877.432868174657,30077.62492628395,51548.084801207166,0.0,0.0,0.0,193.0,0.0,193.0,0.0,0.0,0.0,179.0,193.0,0.0,179.0,1744418886.594778,0.0,2025-04-11 20:48:06.594,RIGHT,45
153.0,7876.330062905558,-7999.085843454104,-20728.337255518112,-23572.686144433756,14501.454174691937,14715.33801738477,30455.50351804537,51531.18688239895,0.0,0.0,0.0,193.0,0.0,193.0,0.0,0.0,0.0,179.0,193.0,0.0,179.0,1744418886.5948732,0.0,2025-04-11 20:48:06.594,RIGHT,45
154.0,7871.815010525586,-8001.566887088644,-20777.712259019885,-23570.652135688324,14380.531237188727,14588.357757134172,30418.153753060553,51394.058930165644,0.0,0.0,0.0,193.0,0.0,193.0,0.0,0.0,0.0,179.0,193.0,0.0,179.0,1744418886.5949092,0.0,2025-04-11 20:48:06.594,RIGHT,45
155.0,7878.140554206438,-7978.611645533043,-20796.666538317986,-23523.64641709881,14269.912453879411,14822.872259959253,30176.48669200977,51473.541733448714,0.0,0.0,0.0,193.0,0.0,193.0,0.0,0.0,0.0,179.0,193.0,0.0,179.0,1744418886.594944,0.0,2025-04-11 20:48:06.594,RIGHT,45
156.0,7894.926714292374,-7960.216159846325,-20752.320677318654,-23515.733899561634,14320.829727748602,14903.986740587563,30062.67160924335,51561.31703392471,0.0,0.0,0.0,193.0,0.0,193.0,0.0,0.0,0.0,178.0,193.0,0.0,178.0,1744418886.5949943,0.0,2025-04-11 20:48:06.594,RIGHT,45
157.0,7867.791696523631,-7992.469727095334,-20726.52676421723,-23562.80667338451,14482.991633771853,14761.293203984882,30419.763078661334,51562.81460080321,0.0,0.0,0.0,193.0,0.0,192.0,0.0,0.0,0.0,178.0,192.0,0.0,178.0,1744418886.5950298,0.0,2025-04-11 20:48:06.595,RIGHT,45
158.0,7868.775173279664,-7994.503735840766,-20772.906633961993,-23575.927147379774,14393.048214083698,14575.17022790554,30451.033169154307,51410.75568327376,0.0,0.0,0.0,193.0,0.0,192.0,0.0,0.0,0.0,178.0,192.0,0.0,178.0,1744418886.595065,0.0,2025-04-11 20:48:06.595,RIGHT,45
159.0,7885.114298476494,-7967.748697727764,-20800.01929998628,-23534.665827115277,14283.390555785962,14770.233901767006,30215.110506428544,51443.903320300975,0.0,0.0,0.0,193.0,0.0,193.0,0.0,0.0,0.0,179.0,193.0,0.0,179.0,1744418886.5951006,0.0,2025-04-11 20:48:06.595,RIGHT,45
160.0,7903.666246374399,-7957.310433067136,-20773.62188978456,-23524.69694908821,14290.319596567108,14896.18598177266,30034.620169951937,51540.64167030355,0.0,0.0,0.0,193.0,0.0,193.0,0.0,0.0,0.0,179.0,193.0,0.0,179.0,1744418886.5951357,0.0,2025-04-11 20:48:06.595,RIGHT,45
161.0,7881.89564727493,-7988.736985771297,-20724.403348493975,-23553.351885479915,14456.661278803502,14789.054070598373,30331.33957759614,51560.378260657584,0.0,0.0,0.0,193.0,0.0,193.0,0.0,0.0,0.0,179.0,193.0,0.0,179.0,1744418886.5951707,0.0,2025-04-11 20:48:06.595,RIGHT,45
162.0,7880.733356563253,-7991.776823017219,-20754.712313975375,-23569.33338276546,14411.130775348041,14578.545341318291,30462.946648948986,51418.668200810935,0.0,0.0,0.0,193.0,0.0,192.0,0.0,0.0,0.0,178.0,192.0,0.0,178.0,1744418886.5952055,0.0,2025-04-11 20:48:06.595,RIGHT,45
163.0,7879.347548407024,-7972.2413983632805,-20789.11164869209,-23530.731920091144,14291.727756467792,14720.702436054044,30259.143443005498,51410.621572807024,0.0,0.0,0.0,193.0,0.0,193.0,0.0,0.0,0.0,179.0,193.0,0.0,179.0,1744418886.5952406,0.0,2025-04-11 20:48:06.595,RIGHT,45
164.0,7885.337815921047,-7951.946014397862,-20780.662689287983,-23515.04099548352,14259.496540963239,14889.927493325175,30039.42579500983,51518.37933282606,0.0,0.0,0.0,193.0,0.0,193.0,0.0,0.0,0.0,179.0,193.0,0.0,179.0,1744418886.5952756,0.0,2025-04-11 20:48:06.595,RIGHT,45
165.0,7884.264932187192,-7974.364814086535,-20717.675473412928,-23536.073987015963,14435.963563437888,14816.144384878206,30260.708065117367,51547.101324451134,0.0,0.0,0.0,193.0,0.0,193.0,0.0,0.0,0.0,179.0,193.0,0.0,179.0,1744418886.5953112,0.0,2025-04-11 20:48:06.595,RIGHT,45
166.0,7884.041414742639,-7997.051834708672,-20741.05539811318,-23575.144836323838,14448.592299055135,14602.975798007941,30497.010707498874,51442.18223597792,0.0,0.0,0.0,193.0,0.0,193.0,0.0,0.0,0.0,178.0,193.0,0.0,178.0,1744418886.5953465,0.0,2025-04-11 20:48:06.595,RIGHT,45
167.0,7895.261990459203,-7972.0625844076385,-20780.43917184343,-23541.61721964088,14321.053245193154,14676.28951982135,30316.185094855442,51391.08614815309,0.0,0.0,0.0,193.0,0.0,192.0,0.0,0.0,0.0,178.0,192.0,0.0,178.0,1744418886.5953815,0.0,2025-04-11 20:48:06.595,RIGHT,45
168.0,7895.75372883722,-7955.298776066158,-20788.172875424967,-23525.345149677414,14251.62872691497,14884.496019422535,30071.612307025473,51504.29773381922,0.0,0.0,0.0,193.0,0.0,192.0,0.0,0.0,0.0,178.0,192.0,0.0,178.0,1744418886.5954747,0.0,2025-04-11 20:48:06.595,RIGHT,45
169.0,7892.9374090358515,-7972.688433252387,-20724.738624660808,-23538.778548095055,14400.714862431869,14826.381483838735,30190.702401483348,51538.1159231801,0.0,0.0,0.0,193.0,0.0,192.0,0.0,0.0,0.0,178.0,192.0,0.0,178.0,1744418886.5955107,0.0,2025-04-11 20:48:06.595,RIGHT,45
170.0,7880.219266440781,-7992.849706751073,-20726.593819450598,-23574.85426364592,14466.33958415265,14614.486946402425,30495.490788875915,51451.56996864915,0.0,0.0,0.0,193.0,0.0,193.0,0.0,0.0,0.0,179.0,193.0,0.0,179.0,1744418886.5955465,0.0,2025-04-11 20:48:06.595,RIGHT,45
171.0,7875.883028016452,-7976.085898409593,-20767.318697848164,-23549.95442032271,14336.543004100682,14623.8523273292,30361.894412266545,51360.26309254922,0.0,0.0,0.0,193.0,0.0,193.0,0.0,0.0,0.0,179.0,193.0,0.0,179.0,1744418886.5955818,0.0,2025-04-11 20:48:06.595,RIGHT,45
172.0,7880.152211207415,-7950.783723686186,-20783.143732922523,-23518.773736807554,14245.124369278476,14864.826484301864,30116.941644780833,51482.504782975295,0.0,0.0,0.0,193.0,0.0,193.0,0.0,0.0,0.0,179.0,193.0,0.0,179.0,1744418886.5956316,0.0,2025-04-11 20:48:06.595,RIGHT,45
173.0,7887.617693855488,-7955.701107466353,-20720.469441469842,-23514.303387916494,14367.723687615835,14850.36490563928,30139.561610169603,51533.28794637775,0.0,0.0,0.0,193.0,0.0,193.0,0.0,0.0,0.0,179.0,193.0,0.0,179.0,1744418886.595667,0.0,2025-04-11 20:48:06.595,RIGHT,45
174.0,7868.216379668282,-8001.4104248774565,-20715.95438908987,-23560.683257661254,14475.503799379327,14663.549025481823,30501.972794767953,51491.020797612764,0.0,0.0,0.0,193.0,0.0,193.0,0.0,0.0,0.0,178.0,193.0,0.0,178.0,1744418886.5957022,0.0,2025-04-11 20:48:06.595,RIGHT,45
175.0,7883.482621131257,-7982.947883957373,-20760.76963672276,-23543.51711791958,14354.64791710948,14588.64832981209,30406.508494199337,51361.134810582975,0.0,0.0,0.0,193.0,0.0,193.0,0.0,0.0,0.0,179.0,193.0,0.0,179.0,1744418886.595737,0.0,2025-04-11 20:48:06.595,RIGHT,45
176.0,7894.837307314552,-7946.2910230506695,-20785.82594225716,-23509.140134947316,14249.147683280431,14839.725475278554,30159.49936622374,51458.76723036376,0.0,0.0,0.0,193.0,0.0,193.0,0.0,0.0,0.0,179.0,193.0,0.0,179.0,1744418886.5957725,0.0,2025-04-11 20:48:06.595,RIGHT,45
177.0,7911.534060422667,-7930.935374609873,-20728.20314505138,-23505.295634901006,14326.529422584705,14882.41730718819,30093.785237525135,51524.526062551275,0.0,0.0,0.0,193.0,0.0,193.0,0.0,0.0,0.0,178.0,193.0,0.0,178.0,1744418886.595807,0.0,2025-04-11 20:48:06.595,RIGHT,45
178.0,7894.9937695257395,-7977.605817032554,-20710.411156464954,-23552.726036635166,14476.979014513376,14724.569287844812,30465.025361183332,51509.0586553882,0.0,0.0,0.0,193.0,0.0,192.0,0.0,0.0,0.0,178.0,192.0,0.0,178.0,1744418886.595842,0.0,2025-04-11 20:48:06.595,RIGHT,45
179.0,7889.5622956231,-7975.147125142471,-20759.227366355346,-23553.48599594665,14379.234836010319,14586.279044899828,30449.11091913115,51370.25432232074,0.0,0.0,0.0,193.0,0.0,193.0,0.0,0.0,0.0,178.0,193.0,0.0,178.0,1744418886.5958772,0.0,2025-04-11 20:48:06.595,RIGHT,45
180.0,7879.727528062765,-7949.084991107583,-20788.374041125066,-23517.544390862513,14275.053355104132,14819.653608757688,30220.854904753556,51450.43002968193,0.0,0.0,0.0,193.0,0.0,192.0,0.0,0.0,0.0,178.0,192.0,0.0,178.0,1744418886.5959125,0.0,2025-04-11 20:48:06.595,RIGHT,45
181.0,7895.820784070585,-7943.1841305713815,-20751.69482847391,-23510.481239614637,14311.620809033015,14911.943961613651,30082.743475764215,51542.899196493534,0.0,0.0,0.0,193.0,0.0,193.0,0.0,0.0,0.0,179.0,193.0,0.0,179.0,1744418886.5959473,0.0,2025-04-11 20:48:06.595,RIGHT,45
182.0,7881.381557152457,-7980.3997850894675,-20721.00588333677,-23554.29065874704,14479.974148270387,14775.195989036083,30425.59688396417,51555.59498734415,0.0,0.0,0.0,193.0,0.0,193.0,0.0,0.0,0.0,179.0,193.0,0.0,179.0,1744418886.5959828,0.0,2025-04-11 20:48:06.595,RIGHT,45
183.0,7890.568124123589,-7977.739927499286,-20760.3002500892,-23564.14777805183,14399.351406020094,14581.004033208375,30473.60843105417,51400.138604657484,0.0,0.0,0.0,193.0,0.0,193.0,0.0,0.0,0.0,178.0,193.0,0.0,178.0,1744418886.5960765,0.0,2025-04-11 20:48:06.596,RIGHT,45
184.0,7897.139536993449,-7953.600043487555,-20783.881340489548,-23515.577437350446,14285.20104708684,14772.849055868275,30243.31840793114,51415.740122287294,0.0,0.0,0.0,193.0,0.0,192.0,0.0,0.0,0.0,178.0,192.0,0.0,178.0,1744418886.5961125,0.0,2025-04-11 20:48:06.596,RIGHT,45
185.0,7911.243487744748,-7938.3114502801245,-20759.96497392237,-23504.13334418933,14278.987262128267,14915.47553723759,30059.922344675346,51520.23452761585,0.0,0.0,0.0,193.0,0.0,193.0,0.0,0.0,0.0,179.0,193.0,0.0,179.0,1744418886.596148,0.0,2025-04-11 20:48:06.596,RIGHT,45
186.0,7905.096758019538,-7947.073334106605,-20707.259560496757,-23532.72122534767,14458.516473593292,14802.420413782647,30338.15685965501,51541.379277870576,0.0,0.0,0.0,193.0,0.0,193.0,0.0,0.0,0.0,179.0,193.0,0.0,179.0,1744418886.5961828,0.0,2025-04-11 20:48:06.596,RIGHT,45
187.0,7900.179374239371,-7956.326956311102,-20744.184642336924,-23562.89608036233,14432.14141513603,14580.087611685707,30497.03305924333,51406.91118322744,0.0,0.0,0.0,193.0,0.0,193.0,0.0,0.0,0.0,179.0,193.0,0.0,179.0,1744418886.5962343,0.0,2025-04-11 20:48:06.596,RIGHT,45
188.0,7897.318350949091,-7954.471761521311,-20788.284634147243,-23534.039978270528,14303.909457195934,14715.963866229518,30305.277443561252,51399.46805232383,0.0,0.0,0.0,193.0,0.0,193.0,0.0,0.0,0.0,179.0,193.0,0.0,179.0,1744418886.5962713,0.0,2025-04-11 20:48:06.596,RIGHT,45
189.0,7914.149214523937,-7931.762389154719,-20776.92994796395,-23505.78737327902,14255.942613594845,14895.873057350285,30068.639525012917,51508.499861776814,0.0,0.0,0.0,193.0,0.0,193.0,0.0,0.0,0.0,178.0,193.0,0.0,178.0,1744418886.5963068,0.0,2025-04-11 20:48:06.596,RIGHT,45
190.0,7908.851851088029,-7951.43192427539,-20702.09630752758,-23515.13040246134,14433.52722329226,14833.623449042256,30267.458291942872,51544.91085349451,0.0,0.0,0.0,193.0,0.0,193.0,0.0,0.0,0.0,178.0,193.0,0.0,178.0,1744418886.596342,0.0,2025-04-11 20:48:06.596,RIGHT,45
191.0,7894.211458469804,-7976.599988532065,-20731.35474101958,-23563.76779839609,14445.485406575848,14613.928152791043,30521.21764674397,51448.8430558256,0.0,0.0,0.0,193.0,0.0,193.0,0.0,0.0,0.0,178.0,193.0,0.0,178.0,1744418886.5963771,0.0,2025-04-11 20:48:06.596,RIGHT,45
192.0,7889.22701945627,-7964.5300465262,-20781.601462555107,-23541.08077777395,14312.73839625578,14665.203054571517,30353.19958367343,51384.64884574996,0.0,0.0,0.0,193.0,0.0,192.0,0.0,0.0,0.0,178.0,192.0,0.0,178.0,1744418886.5964127,0.0,2025-04-11 20:48:06.596,RIGHT,45
193.0,7896.916019548896,-7932.231775788281,-20782.473180588866,-23506.703794801688,14239.178805253365,14883.490190922046,30099.9543189948,51496.407568026494,0.0,0.0,0.0,193.0,0.0,192.0,0.0,0.0,0.0,178.0,192.0,0.0,178.0,1744418886.596448,0.0,2025-04-11 20:48:06.596,RIGHT,45
194.0,7896.670150359888,-7938.244395046759,-20720.737662403306,-23514.884533272332,14388.577865192638,14855.774027797464,30195.105695141043,51541.33457438166,0.0,0.0,0.0,193.0,0.0,193.0,0.0,0.0,0.0,179.0,193.0,0.0,179.0,1744418886.5964832,0.0,2025-04-11 20:48:06.596,RIGHT,45
195.0,7877.93938850634,-7978.9916251887835,-20736.71915968885,-23575.43540900176,14458.449418359927,14649.512129963892,30520.010652543388,51472.11122180358,0.0,0.0,0.0,193.0,0.0,193.0,0.0,0.0,0.0,179.0,193.0,0.0,179.0,1744418886.5965188,0.0,2025-04-11 20:48:06.596,RIGHT,45
196.0,7886.902438032918,-7962.607796503044,-20779.902729976504,-23553.865975602388,14327.825823763113,14616.23038246994,30386.548386400747,51366.76745018571,0.0,0.0,0.0,193.0,0.0,193.0,0.0,0.0,0.0,179.0,193.0,0.0,179.0,1744418886.5965545,0.0,2025-04-11 20:48:06.596,RIGHT,45
197.0,7900.626409128477,-7943.497054993756,-20791.860913260094,-23516.158582706285,14238.977639553266,14850.297850405914,30133.124307766477,51475.19576253841,0.0,0.0,0.0,193.0,0.0,193.0,0.0,0.0,0.0,179.0,193.0,0.0,179.0,1744418886.5965893,0.0,2025-04-11 20:48:06.596,RIGHT,45
198.0,7919.625391915488,-7944.167607327415,-20731.73472067532,-23515.42097513926,14342.354457659061,14851.303678906403,30133.05725253311,51534.025553944775,0.0,0.0,0.0,193.0,0.0,193.0,0.0,0.0,0.0,178.0,193.0,0.0,178.0,1744418886.5966864,0.0,2025-04-11 20:48:06.596,RIGHT,45
199.0,7904.359150452513,-7975.2365321202915,-20708.444202952887,-23554.402417469315,14482.38813667156,14682.168028613094,30501.57046336776,51499.04507387222,0.0,0.0,0.0,193.0,0.0,192.0,0.0,0.0,0.0,178.0,192.0,0.0,178.0,1744418886.5967228,0.0,2025-04-11 20:48:06.596,RIGHT,45
200.0,7894.613789869999,-7973.873075708518,-20766.82695947015,-23557.464606459693,14365.98025154832,14586.681376300023,30443.031244639307,51375.41757528992,0.0,0.0,0.0,193.0,0.0,192.0,0.0,0.0,0.0,178.0,192.0,0.0,178.0,1744418886.596772,0.0,2025-04-11 20:48:06.596,RIGHT,45
201.0,7905.610848142011,-7945.084028850082,-20793.425535371964,-23518.12553621835,14249.304145491618,14817.440786056613,30190.36712531652,51466.32211998965,0.0,0.0,0.0,193.0,0.0,193.0,0.0,0.0,0.0,179.0,193.0,0.0,179.0,1744418886.5968049,0.0,2025-04-11 20:48:06.596,RIGHT,45
202.0,7921.368827983002,-7926.465025718811,-20732.941714875906,-23503.55219883349,14315.822936990613,14878.37164144178,30087.370286866462,51534.85256848962,0.0,0.0,0.0,193.0,0.0,193.0,0.0,0.0,0.0,179.0,193.0,0.0,179.0,1744418886.5968628,0.0,2025-04-11 20:48:06.596,RIGHT,45
203.0,7893.049167758128,-7966.72051748282,-20703.705633128364,-23552.882498846353,14470.318194665695,14726.513889612424,30456.26347735685,51533.69027777795,0.0,0.0,0.0,193.0,0.0,193.0,0.0,0.0,0.0,179.0,193.0,0.0,179.0,1744418886.5969245,0.0,2025-04-11 20:48:06.596,RIGHT,45
204.0,7889.919923534385,-7955.455238277345,-20755.40521805349,-23563.074894317975,14372.305795229173,14555.254823595862,30459.12450064713,51384.492383538774,0.0,0.0,0.0,193.0,0.0,193.0,0.0,0.0,0.0,179.0,193.0,0.0,179.0,1744418886.5969577,0.0,2025-04-11 20:48:06.596,RIGHT,45
205.0,7895.261990459203,-7940.47956949229,-20786.094163190624,-23526.194515966716,14258.82598862958,14767.506988943458,30221.056070453655,51434.828512052125,0.0,0.0,0.0,193.0,0.0,193.0,0.0,0.0,0.0,179.0,193.0,0.0,179.0,1744418886.5969892,0.0,2025-04-11 20:48:06.596,RIGHT,45
206.0,7914.886822090963,-7929.013124586717,-20743.737607447816,-23505.049765711996,14289.49258202226,14884.786592100454,30063.677437743838,51528.45996957541,0.0,0.0,0.0,193.0,0.0,193.0,0.0,0.0,0.0,178.0,193.0,0.0,178.0,1744418886.5970218,0.0,2025-04-11 20:48:06.597,RIGHT,45
207.0,7895.664321859399,-7970.587369273588,-20698.989415048294,-23544.142966764328,14469.893511521044,14767.238768009993,30395.6231946496,51544.10619069412,0.0,0.0,0.0,193.0,0.0,193.0,0.0,0.0,0.0,178.0,193.0,0.0,178.0,1744418886.5970545,0.0,2025-04-11 20:48:06.597,RIGHT,45
208.0,7898.614752127499,-7974.521276297722,-20738.753168434283,-23562.47139721768,14410.750795692302,14566.207178378962,30490.774570795846,51403.73723551479,0.0,0.0,0.0,193.0,0.0,193.0,0.0,0.0,0.0,178.0,193.0,0.0,178.0,1744418886.5970864,0.0,2025-04-11 20:48:06.597,RIGHT,45
209.0,7891.283379946159,-7961.512561024733,-20778.002831697802,-23529.18964972373,14280.30601505113,14739.746122329965,30277.203652525386,51424.03261948021,0.0,0.0,0.0,193.0,0.0,192.0,0.0,0.0,0.0,178.0,192.0,0.0,178.0,1744418886.597118,0.0,2025-04-11 20:48:06.597,RIGHT,45
210.0,7907.242525487248,-7941.060714848128,-20754.91347967547,-23511.420012881757,14261.955232853323,14889.18988575815,30059.98939990871,51519.31810609318,0.0,0.0,0.0,193.0,0.0,192.0,0.0,0.0,0.0,178.0,192.0,0.0,178.0,1744418886.59715,0.0,2025-04-11 20:48:06.597,RIGHT,45
211.0,7899.240600972248,-7965.468819793323,-20696.463667924843,-23530.866030557878,14444.166653652985,14797.145402091195,30317.079164633655,51540.753429025826,0.0,0.0,0.0,193.0,0.0,192.0,0.0,0.0,0.0,178.0,192.0,0.0,178.0,1744418886.5971825,0.0,2025-04-11 20:48:06.597,RIGHT,45
212.0,7895.910191048407,-7981.517372312233,-20732.561735220163,-23569.020458343086,14420.630266741548,14577.763030262357,30508.767725082365,51422.22212817933,0.0,0.0,0.0,193.0,0.0,192.0,0.0,0.0,0.0,178.0,192.0,0.0,178.0,1744418886.5972145,0.0,2025-04-11 20:48:06.597,RIGHT,45
213.0,7905.27557197518,-7949.643784718965,-20764.34591583561,-23523.89228628782,14304.73647174078,14695.757889241922,30313.27936807625,51393.18721213189,0.0,0.0,0.0,193.0,0.0,193.0,0.0,0.0,0.0,179.0,193.0,0.0,179.0,1744418886.5973296,0.0,2025-04-11 20:48:06.597,RIGHT,45
214.0,7911.7799296116755,-7916.451444202834,-20760.233194855835,-23496.667861541257,14260.72588690828,14896.387147472758,30075.65797277188,51510.08683563314,0.0,0.0,0.0,193.0,0.0,193.0,0.0,0.0,0.0,179.0,193.0,0.0,179.0,1744418886.5973628,0.0,2025-04-11 20:48:06.597,RIGHT,45
215.0,7899.799394583631,-7939.943127625362,-20702.43158369441,-23519.712510074678,14419.780900452246,14834.249297887005,30245.061843998654,51554.47740012138,0.0,0.0,0.0,193.0,0.0,193.0,0.0,0.0,0.0,179.0,193.0,0.0,179.0,1744418886.5973947,0.0,2025-04-11 20:48:06.597,RIGHT,45
216.0,7889.919923534385,-7969.380375073001,-20715.19442977839,-23560.437388472248,14452.772075268278,14620.119586005163,30514.959158296486,51461.82941935414,0.0,0.0,0.0,193.0,0.0,193.0,0.0,0.0,0.0,179.0,193.0,0.0,179.0,1744418886.597426,0.0,2025-04-11 20:48:06.597,RIGHT,45
217.0,7915.42326395789,-7940.47956949229,-20749.929040661937,-23525.054576999497,14320.807376004146,14654.496568977425,30344.772976013777,51378.770336958216,0.0,0.0,0.0,193.0,0.0,193.0,0.0,0.0,0.0,179.0,193.0,0.0,179.0,1744418886.597474,0.0,2025-04-11 20:48:06.597,RIGHT,45
218.0,7942.670040448909,-7905.2085167418145,-20749.9960958953,-23486.542521303003,14252.142817037442,14886.485324679057,30091.304193890595,51488.2044778114,0.0,0.0,0.0,193.0,0.0,193.0,0.0,0.0,0.0,178.0,193.0,0.0,178.0,1744418886.5975063,0.0,2025-04-11 20:48:06.597,RIGHT,45
219.0,7909.61181039951,-7936.791531657163,-20707.95246457487,-23511.12944020384,14385.985062835822,14866.949900025118,30189.54011077167,51555.08089722168,0.0,0.0,0.0,193.0,0.0,193.0,0.0,0.0,0.0,178.0,193.0,0.0,178.0,1744418886.5975387,0.0,2025-04-11 20:48:06.597,RIGHT,45
220.0,7888.46706014479,-7971.324976840613,-20716.0884995566,-23563.52192920708,14462.562139339703,14646.47229271797,30522.357585711194,51494.12769009206,0.0,0.0,0.0,193.0,0.0,192.0,0.0,0.0,0.0,178.0,192.0,0.0,178.0,1744418886.597572,0.0,2025-04-11 20:48:06.597,RIGHT,45
221.0,7902.369845195991,-7955.4775900218,-20751.359552307076,-23534.688178859735,14345.371943160528,14603.288722430316,30398.30540398424,51374.81407818962,0.0,0.0,0.0,193.0,0.0,192.0,0.0,0.0,0.0,178.0,192.0,0.0,178.0,1744418887.072168,0.0,2025-04-11 20:48:07.072,RIGHT,45
222.0,7913.679827890376,-7921.726455894287,-20764.927061191447,-23496.801972007986,14256.769628139691,14851.236623673038,30142.24381950424,51473.42997472644,0.0,0.0,0.0,193.0,0.0,192.0,0.0,0.0,0.0,178.0,192.0,0.0,178.0,1744418887.0723329,0.0,2025-04-11 20:48:07.072,RIGHT,45
223.0,7924.743941395753,-7912.159909267415,-20707.997168063783,-23496.489047585615,14359.766466589746,14874.661251862199,30121.948435538823,51534.47258883388,0.0,0.0,0.0,193.0,0.0,192.0,0.0,0.0,0.0,178.0,192.0,0.0,178.0,1744418887.0723853,0.0,2025-04-11 20:48:07.072,RIGHT,45
224.0,7905.119109763994,-7968.218084361325,-20693.42383067892,-23543.293600475026,14493.407546688028,14695.914351453108,30496.74248656541,51505.41532104198,0.0,0.0,0.0,193.0,0.0,193.0,0.0,0.0,0.0,179.0,193.0,0.0,179.0,1744418887.0724282,0.0,2025-04-11 20:48:07.072,RIGHT,45
225.0,7895.2843422036585,-7978.946921699873,-20745.570450493153,-23544.36648420888,14380.285367999717,14582.479248342426,30454.989427922897,51373.00358688874,0.0,0.0,0.0,193.0,0.0,193.0,0.0,0.0,0.0,179.0,193.0,0.0,179.0,1744418887.0724726,0.0,2025-04-11 20:48:07.072,RIGHT,45
226.0,7889.964627023295,-7947.922700395907,-20781.82497999966,-23516.69502457321,14269.644232945948,14812.366940065258,30216.183390162398,51463.28228274373,0.0,0.0,0.0,193.0,0.0,193.0,0.0,0.0,0.0,178.0,193.0,0.0,178.0,1744418887.072516,0.0,2025-04-11 20:48:07.072,RIGHT,45
227.0,7911.377598211479,-7925.61565942951,-20734.64044745451,-23504.55802733398,14319.779195759202,14874.840065817842,30099.395525383417,51544.75439128332,0.0,0.0,0.0,193.0,0.0,192.0,0.0,0.0,0.0,178.0,192.0,0.0,178.0,1744418887.0725605,0.0,2025-04-11 20:48:07.072,RIGHT,45
228.0,7902.772176596186,-7952.840084176074,-20687.165342231434,-23538.66678937278,14493.765174599312,14740.327267685803,30434.69404395748,51530.35986785411,0.0,0.0,0.0,193.0,0.0,192.0,0.0,0.0,0.0,178.0,192.0,0.0,178.0,1744418887.0730405,0.0,2025-04-11 20:48:07.073,RIGHT,45
229.0,7900.782871339664,-7956.684584222387,-20735.758034677274,-23552.23429825715,14404.80523166719,14570.49871331438,30458.677465758024,51380.89375268147,0.0,0.0,0.0,193.0,0.0,192.0,0.0,0.0,0.0,178.0,192.0,0.0,178.0,1744418887.07309,0.0,2025-04-11 20:48:07.073,RIGHT,45
230.0,7909.678865632876,-7934.511653722722,-20762.78129372374,-23504.69213780071,14290.118430867009,14781.92386411713,30233.84126828209,51430.000535249776,0.0,0.0,0.0,193.0,0.0,193.0,0.0,0.0,0.0,179.0,193.0,0.0,179.0,1744418887.07313,0.0,2025-04-11 20:48:07.073,RIGHT,45
231.0,7931.315354265614,-7912.763406367709,-20732.897011386995,-23494.566797562456,14297.181582114887,14898.085880051362,30061.978705165235,51525.26367011829,0.0,0.0,0.0,193.0,0.0,193.0,0.0,0.0,0.0,179.0,193.0,0.0,179.0,1744418887.0731685,0.0,2025-04-11 20:48:07.073,RIGHT,45
232.0,7915.847947102541,-7943.899386393951,-20683.05262125166,-23527.245047956116,14473.000404000331,14778.951082104575,30362.408502389015,51536.327783623674,0.0,0.0,0.0,193.0,0.0,193.0,0.0,0.0,0.0,179.0,193.0,0.0,179.0,1744418887.0734284,0.0,2025-04-11 20:48:07.073,RIGHT,45
233.0,7898.234772471759,-7960.4396772908785,-20728.784290407217,-23558.42573147127,14416.897525417511,14573.40444009357,30496.675431332045,51413.4825960973,0.0,0.0,0.0,193.0,0.0,193.0,0.0,0.0,0.0,179.0,193.0,0.0,179.0,1744418887.0734687,0.0,2025-04-11 20:48:07.073,RIGHT,45
234.0,7908.360112710013,-7936.366848512513,-20761.283726845235,-23517.991425751617,14287.793849443657,14716.05327320734,30287.641917186014,51416.47772985432,0.0,0.0,0.0,193.0,0.0,193.0,0.0,0.0,0.0,178.0,193.0,0.0,178.0,1744418887.0735047,0.0,2025-04-11 20:48:07.073,RIGHT,45
235.0,7911.645819144943,-7925.392141984957,-20747.15742434948,-23500.780582521034,14267.073782333588,14880.85268507632,30076.015600683168,51524.727228251366,0.0,0.0,0.0,193.0,0.0,192.0,0.0,0.0,0.0,178.0,192.0,0.0,178.0,1744418887.0735369,0.0,2025-04-11 20:48:07.073,RIGHT,45
236.0,7910.215307499803,-7942.178302070893,-20682.784400318196,-23516.4491553842,14440.90329896251,14798.374748036236,30295.688545189925,51540.306394136715,0.0,0.0,0.0,193.0,0.0,193.0,0.0,0.0,0.0,179.0,193.0,0.0,179.0,1744418887.0735683,0.0,2025-04-11 20:48:07.073,RIGHT,45
237.0,7920.810034371619,-7940.658383447932,-20703.504467428265,-23541.773681852064,14444.323115864172,14583.55213207628,30498.396515655106,51409.74985477327,0.0,0.0,0.0,193.0,0.0,193.0,0.0,0.0,0.0,179.0,193.0,0.0,179.0,1744418887.0736024,0.0,2025-04-11 20:48:07.073,RIGHT,45
238.0,7917.1219965364935,-7929.8624908760185,-20747.872680172048,-23511.956454748688,14319.935657970389,14682.704470480023,30327.539781038737,51378.14448811347,0.0,0.0,0.0,193.0,0.0,193.0,0.0,0.0,0.0,179.0,193.0,0.0,179.0,1744418887.0736368,0.0,2025-04-11 20:48:07.073,RIGHT,45
239.0,7921.882918105473,-7910.751749366731,-20745.369284793054,-23491.03522193852,14262.49167472025,14884.428964189168,30084.53161532064,51497.94983839391,0.0,0.0,0.0,193.0,0.0,193.0,0.0,0.0,0.0,178.0,193.0,0.0,178.0,1744418887.0736725,0.0,2025-04-11 20:48:07.073,RIGHT,45
240.0,7919.42422621539,-7925.5709559406,-20683.410249162942,-23508.715451802665,14423.223069098363,14835.165719409672,30230.35439614706,51547.950690740436,0.0,0.0,0.0,193.0,0.0,192.0,0.0,0.0,0.0,178.0,192.0,0.0,178.0,1744418887.0737116,0.0,2025-04-11 20:48:07.073,RIGHT,45
241.0,7894.434975914357,-7971.235569862792,-20708.04187155269,-23564.795978641032,14471.122857466085,14627.965048308975,30540.820126631275,51483.95764636489,0.0,0.0,0.0,193.0,0.0,192.0,0.0,0.0,0.0,178.0,192.0,0.0,178.0,1744418887.07375,0.0,2025-04-11 20:48:07.073,RIGHT,45
242.0,7898.681807360865,-7950.046116119161,-20754.421741297454,-23536.297504460515,14340.096931469076,14650.115627064184,30385.40844743353,51397.434043578396,0.0,0.0,0.0,193.0,0.0,192.0,0.0,0.0,0.0,178.0,192.0,0.0,178.0,1744418887.0737853,0.0,2025-04-11 20:48:07.073,RIGHT,45
243.0,7910.8411563445525,-7913.456310445823,-20766.156407136492,-23499.5959400649,14262.53637820916,14888.161705513205,30123.87068556198,51504.90123091951,0.0,0.0,0.0,193.0,0.0,193.0,0.0,0.0,0.0,179.0,193.0,0.0,179.0,1744418887.0738254,0.0,2025-04-11 20:48:07.073,RIGHT,45
244.0,7916.786720369664,-7918.127825036982,-20709.606493664563,-23507.195533179707,14379.637167410514,14862.166626711683,30162.069816836098,51552.08576346467,0.0,0.0,0.0,193.0,0.0,193.0,0.0,0.0,0.0,179.0,193.0,0.0,179.0,1744418887.0741005,0.0,2025-04-11 20:48:07.074,RIGHT,45
245.0,7900.9840370397615,-7960.506732524244,-20709.58414192011,-23553.687161646743,14482.052860504731,14671.52859825237,30517.14962925311,51507.09170187613,0.0,0.0,0.0,193.0,0.0,193.0,0.0,0.0,0.0,179.0,193.0,0.0,179.0,1744418887.074146,0.0,2025-04-11 20:48:07.074,RIGHT,45
246.0,7902.436900429357,-7948.123866096004,-20751.404255795987,-23533.615295125877,14367.209597493364,14608.831955055233,30424.479296741403,51393.81306097664,0.0,0.0,0.0,193.0,0.0,193.0,0.0,0.0,0.0,178.0,193.0,0.0,178.0,1744418887.074186,0.0,2025-04-11 20:48:07.074,RIGHT,45
247.0,7909.1424237659485,-7917.144348280949,-20759.428532055445,-23489.31413761546,14261.77641889768,14851.571899839868,30165.333171526574,51488.69621618941,0.0,0.0,0.0,193.0,0.0,192.0,0.0,0.0,0.0,178.0,192.0,0.0,178.0,1744418887.0745077,0.0,2025-04-11 20:48:07.074,RIGHT,45
248.0,7917.703141892332,-7914.551545924133,-20697.916531314437,-23477.065381653952,14346.131902472009,14886.75354561252,30107.03982198713,51550.25292041933,0.0,0.0,0.0,193.0,0.0,192.0,0.0,0.0,0.0,178.0,192.0,0.0,178.0,1744418887.0745463,0.0,2025-04-11 20:48:07.074,RIGHT,45
249.0,7901.341664951046,-7952.728325453798,-20673.79899904716,-23519.690158330224,14493.072270521197,14724.971619245009,30477.922317734043,51531.522158565786,0.0,0.0,0.0,193.0,0.0,192.0,0.0,0.0,0.0,178.0,192.0,0.0,178.0,1744418887.0745783,0.0,2025-04-11 20:48:07.074,RIGHT,45
250.0,7907.913077820907,-7938.087932835571,-20724.850383383084,-23521.768870564567,14391.03655708272,14598.058414227775,30450.295561587285,51387.1298893845,0.0,0.0,0.0,193.0,0.0,192.0,0.0,0.0,0.0,178.0,192.0,0.0,178.0,1744418887.07461,0.0,2025-04-11 20:48:07.074,RIGHT,45
251.0,7904.113281263505,-7912.629295900977,-20759.562642522174,-23491.54931206099,14271.901759135933,14828.750768750999,30218.731489030302,51461.82941935414,0.0,0.0,0.0,193.0,0.0,192.0,0.0,0.0,0.0,178.0,192.0,0.0,178.0,1744418887.0746417,0.0,2025-04-11 20:48:07.074,RIGHT,45
252.0,7917.390217469957,-7903.666246374399,-20714.412118722455,-23483.390925334803,14314.526535812205,14907.987702845063,30095.126342192456,51545.916681995,0.0,0.0,0.0,193.0,0.0,192.0,0.0,0.0,0.0,178.0,192.0,0.0,178.0,1744418887.0746737,0.0,2025-04-11 20:48:07.074,RIGHT,45
253.0,7894.032644514161,-7961.5572645136435,-20672.70376356885,-23524.13815547683,14484.690366350456,14754.610032392746,30437.130384103108,51546.38606862856,0.0,0.0,0.0,193.0,0.0,193.0,0.0,0.0,0.0,179.0,193.0,0.0,179.0,1744418887.0747075,0.0,2025-04-11 20:48:07.074,RIGHT,45
254.0,7890.791641568142,-7964.977081415306,-20711.126412287525,-23535.8057660825,14415.824641683655,14570.051678425274,30499.26823368886,51405.257154137755,0.0,0.0,0.0,193.0,0.0,193.0,0.0,0.0,0.0,179.0,193.0,0.0,179.0,1744418887.0747387,0.0,2025-04-11 20:48:07.074,RIGHT,45
255.0,7908.851851088029,-7926.017990829706,-20736.808566666674,-23490.834056238422,14298.030948404188,14774.860712869253,30278.298888003697,51437.42131440894,0.0,0.0,0.0,193.0,0.0,193.0,0.0,0.0,0.0,178.0,193.0,0.0,178.0,1744418887.0747707,0.0,2025-04-11 20:48:07.074,RIGHT,45
0.0,7933.729342666787,-7914.28332499067,-20708.868886097538,-23477.244195609594,14295.080518136087,14917.733063427577,30087.19147291082,51526.761236996805,0.0,0.0,0.0,193.0,0.0,193.0,0.0,0.0,0.0,179.0,193.0,0.0,179.0,1744418887.0748024,0.0,2025-04-11 20:48:07.074,RIGHT,45
1.0,7915.356208724525,-7943.005316615739,-20663.248975664257,-23510.88357101483,14473.179217955974,14808.947123163596,30374.210223461418,51543.36858312709,0.0,0.0,0.0,193.0,0.0,193.0,0.0,0.0,0.0,179.0,193.0,0.0,179.0,1744418887.0748336,0.0,2025-04-11 20:48:07.074,RIGHT,45
2.0,7894.457327658812,-7941.66421194842,-20708.421851208434,-23542.064254529985,14441.998534440821,14602.37230090765,30531.09711779322,51417.70707579936,0.0,0.0,0.0,193.0,0.0,192.0,0.0,0.0,0.0,178.0,192.0,0.0,178.0,1744418887.0748656,0.0,2025-04-11 20:48:07.074,RIGHT,45
3.0,7897.60892362701,-7908.874202832485,-20746.263354571267,-23500.713527287666,14315.30884686814,14740.841357808276,30327.718594994378,51409.54868907317,0.0,0.0,0.0,193.0,0.0,192.0,0.0,0.0,0.0,178.0,192.0,0.0,178.0,1744418887.07496,0.0,2025-04-11 20:48:07.074,RIGHT,45
4.0,7921.704104149831,-7888.087080489049,-20730.05833984117,-23477.35595433187,14274.941596381856,14917.934229127673,30095.059286959087,51515.25008860232,0.0,0.0,0.0,193.0,0.0,193.0,0.0,0.0,0.0,179.0,193.0,0.0,179.0,1744418887.074993,0.0,2025-04-11 20:48:07.074,RIGHT,45
5.0,7913.277496490181,-7928.074351319594,-20671.586176346085,-23498.925387731244,14448.391133355039,14843.882899747241,30301.9023301485,51545.11201919461,0.0,0.0,0.0,193.0,0.0,193.0,0.0,0.0,0.0,179.0,193.0,0.0,179.0,1744418887.0750248,0.0,2025-04-11 20:48:07.075,RIGHT,45
6.0,7898.011255027206,-7949.152046340949,-20702.118659272037,-23545.349960964915,14458.963508482399,14627.272144230861,30547.726815667967,51444.79739007919,0.0,0.0,0.0,193.0,0.0,193.0,0.0,0.0,0.0,179.0,193.0,0.0,179.0,1744418887.075057,0.0,2025-04-11 20:48:07.075,RIGHT,45
7.0,7906.124938264483,-7928.320220508603,-20737.47911900033,-23507.575512835447,14332.854966265557,14694.95322644153,30375.819549062202,51392.44960456486,0.0,0.0,0.0,193.0,0.0,193.0,0.0,0.0,0.0,178.0,193.0,0.0,178.0,1744418887.0752163,0.0,2025-04-11 20:48:07.075,RIGHT,45
8.0,7914.573897668589,-7924.5204239512,-20749.43730228392,-23490.141152160308,14263.9668898543,14908.300627267436,30136.63353164596,51510.86914668908,0.0,0.0,0.0,193.0,0.0,192.0,0.0,0.0,0.0,178.0,192.0,0.0,178.0,1744418887.07525,0.0,2025-04-11 20:48:07.075,RIGHT,45
9.0,7909.567106910599,-7933.349363011046,-20696.463667924843,-23511.50941985958,14394.255208284285,14861.853702289309,30242.580800364114,51556.332594911175,0.0,0.0,0.0,193.0,0.0,193.0,0.0,0.0,0.0,179.0,193.0,0.0,179.0,1744418887.075282,0.0,2025-04-11 20:48:07.075,RIGHT,45
10.0,7905.94612430884,-7931.5612234546215,-20697.983586547805,-23544.8582225869,14464.506741107314,14657.961089367998,30540.551905697812,51469.31725374666,0.0,0.0,0.0,193.0,0.0,192.0,0.0,0.0,0.0,178.0,192.0,0.0,178.0,1744418887.0753136,0.0,2025-04-11 20:48:07.075,RIGHT,45
11.0,7903.599191141033,-7926.532080952178,-20749.884337173025,-23532.27419045856,14341.616850092036,14657.67051669008,30415.248026281362,51384.67119749441,0.0,0.0,0.0,193.0,0.0,192.0,0.0,0.0,0.0,179.0,192.0,0.0,179.0,1744418887.0753455,0.0,2025-04-11 20:48:07.075,RIGHT,45
12.0,7905.90142081993,-7912.159909267415,-20767.318697848164,-23507.262588413072,14249.326497236074,14886.95471131262,30167.88127039448,51503.00133264081,0.0,0.0,0.0,193.0,0.0,192.0,0.0,0.0,0.0,178.0,192.0,0.0,178.0,1744418887.0753777,0.0,2025-04-11 20:48:07.075,RIGHT,45
13.0,7913.031627301172,-7919.491281448756,-20704.86792384004,-23512.627007082345,14359.967632289843,14875.75648734051,30177.470168765805,51559.59594960165,0.0,0.0,0.0,193.0,0.0,193.0,0.0,0.0,0.0,179.0,193.0,0.0,179.0,1744418887.0754097,0.0,2025-04-11 20:48:07.075,RIGHT,45
14.0,7905.566144653099,-7951.297813808658,-20686.695955597872,-23549.105054033407,14477.113124980107,14685.38667981466,30519.8541903322,51510.51151877779,0.0,0.0,0.0,193.0,0.0,192.0,0.0,0.0,0.0,179.0,192.0,0.0,179.0,1744418887.0754423,0.0,2025-04-11 20:48:07.075,RIGHT,45
15.0,7908.740092365753,-7936.612717701521,-20730.617133452553,-23531.22365846916,14368.774219605235,14612.765862079366,30441.421919038527,51384.02299690521,0.0,0.0,0.0,193.0,0.0,193.0,0.0,0.0,0.0,179.0,193.0,0.0,179.0,1744418887.0754745,0.0,2025-04-11 20:48:07.075,RIGHT,45
16.0,7910.3717697109905,-7911.064673789106,-20756.031066898235,-23493.65037603979,14268.414887000907,14861.764295311486,30199.285471354186,51478.61557944007,0.0,0.0,0.0,193.0,0.0,193.0,0.0,0.0,0.0,179.0,193.0,0.0,179.0,1744418887.0755076,0.0,2025-04-11 20:48:07.075,RIGHT,45
17.0,7921.61469717201,-7904.783833597164,-20706.90193258547,-23495.32675687394,14338.599364590571,14910.736967413064,30126.932874552356,51553.113943709606,0.0,0.0,0.0,193.0,0.0,193.0,0.0,0.0,0.0,179.0,193.0,0.0,179.0,1744418887.0755413,0.0,2025-04-11 20:48:07.075,RIGHT,45
18.0,7902.459252173812,-7949.912005652429,-20687.165342231434,-23546.556955165503,14476.979014513376,14746.071666010817,30492.22743418544,51543.63680406056,0.0,0.0,0.0,193.0,0.0,193.0,0.0,0.0,0.0,179.0,193.0,0.0,179.0,1744418887.0756648,0.0,2025-04-11 20:48:07.075,RIGHT,45
19.0,7914.976229068784,-7946.425133517401,-20739.71429344586,-23547.85335634391,14364.192111991897,14595.756184548878,30474.726018276935,51399.669218023926,0.0,0.0,0.0,193.0,0.0,193.0,0.0,0.0,0.0,179.0,193.0,0.0,179.0,1744418887.075698,0.0,2025-04-11 20:48:07.075,RIGHT,45
20.0,7910.684694133365,-7926.308563507625,-20775.54413980772,-23516.203286195196,14250.57819492557,14823.65457101519,30231.673149069924,51462.723489132346,0.0,0.0,0.0,193.0,0.0,192.0,0.0,0.0,0.0,178.0,192.0,0.0,178.0,1744418887.07573,0.0,2025-04-11 20:48:07.075,RIGHT,45
21.0,7913.992752312751,-7905.521441164189,-20741.033046368724,-23508.246065169107,14277.802619672135,14901.863324864307,30053.70855971677,51535.38901035655,0.0,0.0,0.0,193.0,0.0,192.0,0.0,0.0,0.0,178.0,192.0,0.0,178.0,1744418887.075762,0.0,2025-04-11 20:48:07.075,RIGHT,45
22.0,7896.290170704147,-7937.819711902108,-20692.887388811992,-23544.522946420067,14465.110238207608,14775.039526824896,30384.35791544413,51541.58044357067,0.0,0.0,0.0,193.0,0.0,193.0,0.0,0.0,0.0,179.0,193.0,0.0,179.0,1744418887.0759332,0.0,2025-04-11 20:48:07.075,RIGHT,45
23.0,7898.123013749482,-7952.571863242611,-20739.468424256855,-23567.545243209035,14394.389318751017,14582.948634975986,30476.558861322268,51408.967543717336,0.0,0.0,0.0,193.0,0.0,193.0,0.0,0.0,0.0,179.0,193.0,0.0,179.0,1744418887.075966,0.0,2025-04-11 20:48:07.075,RIGHT,45
24.0,7910.707045877821,-7919.826557615585,-20769.82209322716,-23524.8534112994,14276.640328960459,14758.58864290579,30267.36888496505,51438.248328953785,0.0,0.0,0.0,193.0,0.0,193.0,0.0,0.0,0.0,179.0,193.0,0.0,179.0,1744418887.0759976,0.0,2025-04-11 20:48:07.075,RIGHT,45
25.0,7929.23664203127,-7892.825650313574,-20736.942677133404,-23502.32285288845,14272.304090536129,14910.401691246236,30069.220670368755,51536.48424583486,0.0,0.0,0.0,193.0,0.0,193.0,0.0,0.0,0.0,178.0,193.0,0.0,178.0,1744418887.0760293,0.0,2025-04-11 20:48:07.076,RIGHT,45
26.0,7909.924734821884,-7918.0607698036165,-20680.14689447247,-23532.676521858757,14450.58160431166,14817.306675589882,30339.72148176688,51555.25971117732,0.0,0.0,0.0,193.0,0.0,193.0,0.0,0.0,0.0,179.0,193.0,0.0,179.0,1744418887.0760608,0.0,2025-04-11 20:48:07.076,RIGHT,45
27.0,7895.530211392666,-7945.5310637391885,-20720.111813558557,-23571.6132606999,14429.682723245947,14600.964141006965,30521.70938512199,51433.50975912926,0.0,0.0,0.0,193.0,0.0,193.0,0.0,0.0,0.0,179.0,193.0,0.0,179.0,1744418887.0760922,0.0,2025-04-11 20:48:07.076,RIGHT,45
28.0,7905.700255119831,-7937.0821043350825,-20758.355648321587,-23530.37429217986,14305.138803140975,14721.171822687606,30327.718594994378,51414.39901761997,0.0,0.0,0.0,193.0,0.0,193.0,0.0,0.0,0.0,179.0,193.0,0.0,179.0,1744418887.0761237,0.0,2025-04-11 20:48:07.076,RIGHT,45
29.0,7924.743941395753,-7913.299848234636,-20746.330409804632,-23500.490009843114,14262.357564253518,14913.419176747702,30096.37803988195,51521.642687516534,0.0,0.0,0.0,193.0,0.0,193.0,0.0,0.0,0.0,178.0,193.0,0.0,178.0,1744418887.0761552,0.0,2025-04-11 20:48:07.076,RIGHT,45
30.0,7921.391179727457,-7927.8061303861305,-20688.37233643202,-23522.41707115377,14427.536955778236,14853.270632418471,30282.903347361487,51555.43852513296,0.0,0.0,0.0,193.0,0.0,193.0,0.0,0.0,0.0,178.0,193.0,0.0,178.0,1744418887.076187,0.0,2025-04-11 20:48:07.076,RIGHT,45
31.0,7904.761481852709,-7940.881900892485,-20711.95342683237,-23562.47139721768,14449.061685688697,14640.482025203948,30546.206897045005,51456.152076262486,0.0,0.0,0.0,193.0,0.0,192.0,0.0,0.0,0.0,178.0,192.0,0.0,178.0,1744418887.0762181,0.0,2025-04-11 20:48:07.076,RIGHT,45
32.0,7903.554487652122,-7921.190014027359,-20750.68899997342,-23524.361672921383,14322.729626027301,14693.120383396195,30381.25102296484,51385.051177150155,0.0,0.0,0.0,193.0,0.0,193.0,0.0,0.0,0.0,178.0,193.0,0.0,178.0,1744418887.0762496,0.0,2025-04-11 20:48:07.076,RIGHT,45
33.0,7916.384388969468,-7899.687635861354,-20764.144750135514,-23501.764059277066,14235.110787762498,14909.708787168121,30130.799726343124,51505.370617553075,0.0,0.0,0.0,193.0,0.0,193.0,0.0,0.0,0.0,179.0,193.0,0.0,179.0,1744418887.0763402,0.0,2025-04-11 20:48:07.076,RIGHT,45
34.0,7914.0151040572055,-7908.47187143229,-20705.71729012934,-23515.309216416983,14372.350498718084,14878.751621097521,30214.12702967251,51558.9701007569,0.0,0.0,0.0,193.0,0.0,193.0,0.0,0.0,0.0,179.0,193.0,0.0,179.0,1744418887.076372,0.0,2025-04-11 20:48:07.076,RIGHT,45
35.0,7890.478717145767,-7948.369735285013,-20713.38393847751,-23565.354772252416,14454.470807846881,14669.583996484756,30546.13984181164,51501.01202738429,0.0,0.0,0.0,193.0,0.0,193.0,0.0,0.0,0.0,178.0,193.0,0.0,178.0,1744418887.076404,0.0,2025-04-11 20:48:07.076,RIGHT,45
36.0,7909.120072021494,-7918.70897039282,-20747.313886560667,-23536.096338760417,14336.654762822958,14628.903821576097,30401.83697960818,51377.60804624654,0.0,0.0,0.0,193.0,0.0,193.0,0.0,0.0,0.0,178.0,193.0,0.0,178.0,1744418887.076435,0.0,2025-04-11 20:48:07.076,RIGHT,45
37.0,7920.206537271326,-7903.37567369648,-20761.864872201073,-23501.60759706588,14249.639421658449,14876.494094907535,30147.988217829254,51480.8507538856,0.0,0.0,0.0,193.0,0.0,192.0,0.0,0.0,0.0,178.0,192.0,0.0,178.0,1744418887.076543,0.0,2025-04-11 20:48:07.076,RIGHT,45
38.0,7924.207499528826,-7901.475775417778,-20701.04577553818,-23501.339376132415,14351.742190330291,14890.151010769727,30147.228258517775,51545.76021978381,0.0,0.0,0.0,193.0,0.0,193.0,0.0,0.0,0.0,179.0,193.0,0.0,179.0,1744418887.0765755,0.0,2025-04-11 20:48:07.076,RIGHT,45
39.0,7906.616676642499,-7939.652554947443,-20690.24988296627,-23553.530699435556,14474.00623250082,14710.91237198262,30515.249730974407,51517.95464968141,0.0,0.0,0.0,193.0,0.0,193.0,0.0,0.0,0.0,179.0,193.0,0.0,179.0,1744418887.076607,0.0,2025-04-11 20:48:07.076,RIGHT,45
40.0,7921.078255305083,-7934.623412444999,-20735.176889321436,-23544.165318508785,14359.61000437856,14607.356739921182,30442.159526605552,51376.13283111249,0.0,0.0,0.0,193.0,0.0,192.0,0.0,0.0,0.0,178.0,192.0,0.0,178.0,1744418887.0766385,0.0,2025-04-11 20:48:07.076,RIGHT,45
41.0,7925.056865818127,-7905.364978953002,-20758.802683210695,-23502.680480799732,14257.797808384636,14849.157911438693,30195.01628816322,51462.5446751767,0.0,0.0,0.0,193.0,0.0,192.0,0.0,0.0,0.0,178.0,192.0,0.0,178.0,1744418887.0766697,0.0,2025-04-11 20:48:07.076,RIGHT,45
42.0,7925.772121640697,-7895.2843422036585,-20706.85722909656,-23491.102277171885,14329.971591230822,14915.050854092939,30104.692888819325,51542.58627207116,0.0,0.0,0.0,193.0,0.0,193.0,0.0,0.0,0.0,179.0,193.0,0.0,179.0,1744418887.0767012,0.0,2025-04-11 20:48:07.076,RIGHT,45
43.0,7898.346531194035,-7946.514540495222,-20685.220740463825,-23547.65219064381,14484.422145416993,14763.953061575063,30474.301335132284,51543.949728482934,0.0,0.0,0.0,193.0,0.0,193.0,0.0,0.0,0.0,179.0,193.0,0.0,179.0,1744418887.0767324,0.0,2025-04-11 20:48:07.076,RIGHT,45
44.0,7899.620580627988,-7949.643784718965,-20737.166194577956,-23565.04184783004,14375.971481319844,14583.015690209353,30477.341172378205,51390.66146500844,0.0,0.0,0.0,193.0,0.0,193.0,0.0,1.0,0.0,178.0,193.0,1.0,178.0,1744418887.0767639,0.0,2025-04-11 20:48:07.076,RIGHT,45
45.0,7913.501013934734,-7910.0811970330715,-20766.91636644797,-23519.220771696662,14256.00966882821,14788.674090942633,30227.403965878962,51423.004439235265,0.0,0.0,0.0,193.0,0.0,192.0,0.0,2.0,0.0,178.0,192.0,2.0,178.0,1744418887.076796,0.0,2025-04-11 20:48:07.076,RIGHT,45
46.0,7925.347438496046,-7895.574914881578,-20731.66766544195,-23505.340338389917,14287.100945365542,14912.256886036026,30072.32756284804,51518.44638805943,0.0,0.0,0.0,193.0,0.0,193.0,0.0,3.0,0.0,179.0,193.0,3.0,179.0,1744418887.0768285,0.0,2025-04-11 20:48:07.076,RIGHT,45
47.0,7908.538926665656,-7930.130711809482,-20681.979737517802,-23541.170184751772,14471.8157615442,14791.6915764441,30390.750514358344,51529.48814982035,0.0,0.0,0.0,193.0,0.0,193.0,0.0,4.0,0.0,179.0,193.0,4.0,179.0,1744418887.0768604,0.0,2025-04-11 20:48:07.076,RIGHT,45
48.0,7908.583630154566,-7934.802226400641,-20719.15068854698,-23561.264403017092,14422.261944086784,14590.12354494614,30490.88632951812,51380.64788349246,0.0,0.0,0.0,193.0,0.0,193.0,0.0,5.0,0.0,179.0,193.0,5.0,179.0,1744418887.0769484,0.0,2025-04-11 20:48:07.076,RIGHT,45
49.0,7921.882918105473,-7908.605981899022,-20748.275011572245,-23514.83982978342,14300.042605405166,14757.672221383122,30271.772178622745,51380.49142128127,0.0,0.0,0.0,193.0,0.0,193.0,0.0,6.0,0.0,179.0,193.0,6.0,179.0,1744418887.0769815,0.0,2025-04-11 20:48:07.076,RIGHT,45
50.0,7933.103493822038,-7883.057937986606,-20722.212877537357,-23491.526960316536,14278.607282472525,14921.309342540426,30063.588030766015,51480.828402141145,0.0,0.0,0.0,193.0,0.0,193.0,0.0,7.0,0.0,179.0,193.0,7.0,179.0,1744418887.0770133,0.0,2025-04-11 20:48:07.077,RIGHT,45
51.0,7913.165737767904,-7925.168624540404,-20674.670717080917,-23523.758175821087,14449.732238022358,14838.183204911138,30328.120926394575,51520.34628633813,0.0,0.0,0.0,193.0,0.0,193.0,0.0,8.0,0.0,179.0,193.0,8.0,179.0,1744418887.0770457,0.0,2025-04-11 20:48:07.077,RIGHT,45
52.0,7905.722606864287,-7953.734153954287,-20708.690072141897,-23561.46556871719,14427.402845311504,14616.94563829251,30526.09032703523,51407.358218116555,0.0,0.0,0.0,193.0,0.0,193.0,0.0,9.0,0.0,179.0,193.0,9.0,179.0,1744418887.0771265,0.0,2025-04-11 20:48:07.077,RIGHT,45
53.0,7904.046226030139,-7931.762389154719,-20746.464520271365,-23526.46273690018,14302.233076361785,14710.018302204408,30328.277388605762,51366.96861588581,0.0,0.0,0.0,193.0,0.0,193.0,0.0,10.0,0.0,179.0,193.0,10.0,179.0,1744418887.077159,0.0,2025-04-11 20:48:07.077,RIGHT,45
54.0,7917.054941303128,-7889.651702600921,-20737.747339933794,-23495.282053385028,14256.926090350878,14901.125717297284,30079.72599026275,51471.68653865893,0.0,0.0,0.0,193.0,0.0,193.0,0.0,10.0,0.0,179.0,193.0,10.0,179.0,1744418887.0771916,0.0,2025-04-11 20:48:07.077,RIGHT,45
55.0,7911.355246467024,-7907.778967354175,-20676.90589152645,-23516.69502457321,14417.143394606519,14848.777931782954,30239.83153579611,51515.4065508135,0.0,0.0,0.0,193.0,0.0,193.0,0.0,11.0,0.0,179.0,193.0,11.0,179.0,1744418887.0772235,0.0,2025-04-11 20:48:07.077,RIGHT,45
56.0,7901.90045856243,-7939.227871802792,-20692.507409156253,-23560.124464049873,14455.05195320272,14640.012638570386,30518.691899620524,51428.01122999325,0.0,0.0,0.0,193.0,0.0,193.0,0.0,11.0,0.0,179.0,193.0,11.0,179.0,1744418887.0772555,0.0,2025-04-11 20:48:07.077,RIGHT,45
57.0,7910.505880177722,-7916.093816291549,-20729.588953207607,-23526.172164222262,14331.558565087149,14679.597578000734,30362.944944255945,51347.7684673987,0.0,0.0,0.0,193.0,0.0,193.0,0.0,12.0,0.0,179.0,193.0,12.0,179.0,1744418887.077288,0.0,2025-04-11 20:48:07.077,RIGHT,45
58.0,7918.440749459357,-7896.021949770684,-20737.166194577956,-23497.56193131947,14255.674392661382,14908.90412436773,30113.63358660145,51458.78958210821,0.0,0.0,0.0,193.0,0.0,193.0,0.0,12.0,0.0,179.0,193.0,12.0,179.0,1744418887.07732,0.0,2025-04-11 20:48:07.077,RIGHT,45
59.0,7916.585554669566,-7912.718702878798,-20679.52104562772,-23510.12361170335,14379.391298221506,14880.428001931668,30182.49931126825,51512.25495484531,0.0,0.0,0.0,193.0,0.0,193.0,0.0,12.0,0.0,178.0,193.0,12.0,178.0,1744418887.077352,0.0,2025-04-11 20:48:07.077,RIGHT,45
60.0,7900.469946917289,-7949.241453318769,-20681.108019484047,-23561.219699528185,14469.133552209563,14675.95424365452,30528.7054811365,51462.52232343225,0.0,0.0,0.0,193.0,0.0,192.0,0.0,13.0,0.0,179.0,192.0,13.0,179.0,1744418887.0773845,0.0,2025-04-11 20:48:07.077,RIGHT,45
61.0,7911.690522633854,-7937.350325268546,-20721.63173218152,-23540.6560946293,14355.921966543434,14625.841632585722,30415.44919198146,51348.1707987989,0.0,0.0,0.0,193.0,0.0,192.0,0.0,13.0,0.0,178.0,192.0,13.0,178.0,1744418887.0774162,0.0,2025-04-11 20:48:07.077,RIGHT,45
62.0,7907.913077820907,-7910.930563322373,-20741.234212068823,-23503.619254066856,14258.87069211849,14865.720554080077,30157.44300573385,51450.31827095965,0.0,0.0,0.0,193.0,0.0,192.0,0.0,13.0,0.0,178.0,192.0,13.0,178.0,1744418887.0774484,0.0,2025-04-11 20:48:07.077,RIGHT,45
63.0,7921.972325083295,-7883.415565897891,-20679.364583416533,-23492.286919628015,14355.564338632148,14888.27346423548,30108.403278398906,51509.23746934384,0.0,0.0,0.0,193.0,0.0,193.0,0.0,14.0,0.0,179.0,193.0,14.0,179.0,1744418887.0774803,0.0,2025-04-11 20:48:07.077,RIGHT,45
64.0,7907.957781309818,-7914.909173835418,-20663.114865197524,-23536.878649816354,14494.949817055443,14718.757834286433,30468.22166064044,51479.71081491838,0.0,0.0,0.0,193.0,0.0,193.0,0.0,14.0,0.0,179.0,193.0,14.0,179.0,1744418887.077574,0.0,2025-04-11 20:48:07.077,RIGHT,45
65.0,7915.199746513337,-7917.5913831700545,-20711.282874498713,-23531.491879402623,14380.419478466449,14602.908742774576,30417.997290849366,51342.135827795966,0.0,0.0,0.0,193.0,0.0,193.0,0.0,14.0,0.0,179.0,193.0,14.0,179.0,1744418887.077607,0.0,2025-04-11 20:48:07.077,RIGHT,45
66.0,7913.657476145921,-7900.246429472737,-20740.54130799071,-23492.756306261577,14261.999936342232,14830.717722263065,30167.098959338542,51422.78092179071,0.0,0.0,0.0,193.0,0.0,193.0,0.0,14.0,0.0,180.0,193.0,14.0,180.0,1744418887.0776389,0.0,2025-04-11 20:48:07.077,RIGHT,45
67.0,7924.788644884664,-7887.572990366578,-20697.24597898078,-23486.944852703196,14311.73256775529,14910.4687464796,30059.631771997425,51512.18789961194,0.0,0.0,0.0,193.0,0.0,193.0,0.0,14.0,0.0,179.0,193.0,14.0,179.0,1744418887.0777216,0.0,2025-04-11 20:48:07.077,RIGHT,45
68.0,7914.037455801661,-7926.845005374552,-20661.304373896644,-23525.36750142187,14475.43674414596,14763.416619708136,30412.655223924547,51509.75155946631,0.0,0.0,0.0,193.0,0.0,193.0,0.0,14.0,0.0,179.0,193.0,14.0,179.0,1744418887.0777552,0.0,2025-04-11 20:48:07.077,RIGHT,45
69.0,7910.997618555739,-7928.5213862087,-20706.209028507357,-23541.32664696296,14387.437926225415,14586.547265833291,30449.714416231447,51361.15716232743,0.0,0.0,0.0,193.0,0.0,193.0,0.0,15.0,0.0,179.0,193.0,15.0,179.0,1744418887.077788,0.0,2025-04-11 20:48:07.077,RIGHT,45
70.0,7919.781854126675,-7901.498127162234,-20734.238116054312,-23497.56193131947,14275.276872548686,14788.316463031348,30216.116334929033,51395.35533134405,0.0,0.0,0.0,193.0,0.0,193.0,0.0,15.0,0.0,179.0,193.0,15.0,179.0,1744418887.0778208,0.0,2025-04-11 20:48:07.077,RIGHT,45
71.0,7922.307601250125,-7888.355301422514,-20711.52874368772,-23490.230559138126,14277.467343505305,14916.481365738078,30047.02538812463,51499.357998294596,0.0,0.0,0.0,193.0,0.0,193.0,0.0,15.0,0.0,179.0,193.0,15.0,179.0,1744418887.077858,0.0,2025-04-11 20:48:07.077,RIGHT,45
72.0,7902.950990551829,-7915.266801746703,-20670.580347845596,-23528.22852471215,14439.42808382846,14801.302826559882,30346.58346731466,51525.19661488493,0.0,0.0,0.0,193.0,0.0,193.0,0.0,15.0,0.0,179.0,193.0,15.0,179.0,1744418887.077891,0.0,2025-04-11 20:48:07.077,RIGHT,45
73.0,7915.669133146898,-7918.507804692723,-20702.3868802055,-23550.893193589833,14400.066661842664,14590.525876346335,30460.487957058904,51385.341749828076,0.0,0.0,0.0,193.0,0.0,193.0,0.0,15.0,0.0,179.0,193.0,15.0,179.0,1744418887.077924,0.0,2025-04-11 20:48:07.077,RIGHT,45
74.0,7911.489356933756,-7900.08996726155,-20742.24004056931,-23520.427765897246,14282.943520896855,14748.30684045635,30259.65753312797,51391.46612780883,0.0,0.0,0.0,193.0,0.0,193.0,0.0,15.0,0.0,179.0,193.0,15.0,179.0,1744418887.0779564,0.0,2025-04-11 20:48:07.077,RIGHT,45
75.0,7922.844043117052,-7883.057937986606,-20731.377092764033,-23506.815553523968,14245.906680334412,14913.173307558693,30039.872829898934,51506.59996349811,0.0,0.0,0.0,193.0,0.0,193.0,0.0,15.0,0.0,178.0,193.0,15.0,178.0,1744418887.0779889,0.0,2025-04-11 20:48:07.077,RIGHT,45
76.0,7919.915964593407,-7904.180336496871,-20661.639650063473,-23515.957417006186,14436.790577982734,14829.622486784756,30253.689617358403,51528.012934686296,0.0,0.0,0.0,193.0,0.0,193.0,0.0,15.0,0.0,179.0,193.0,15.0,179.0,1744418887.0780213,0.0,2025-04-11 20:48:07.078,RIGHT,45
77.0,7898.055958516116,-7942.33476428208,-20697.514199914243,-23559.6103739274,14442.579679796658,14621.237173227928,30498.530626121836,51436.25902369726,0.0,0.0,0.0,193.0,0.0,193.0,0.0,15.0,0.0,179.0,193.0,15.0,179.0,1744418887.078054,0.0,2025-04-11 20:48:07.078,RIGHT,45
78.0,7907.398987698435,-7924.073389062094,-20735.2439445548,-23521.254780442094,14308.893896209467,14699.133002654673,30310.32893780815,51385.72172948381,0.0,0.0,0.0,193.0,0.0,193.0,0.0,15.0,0.0,179.0,193.0,15.0,179.0,1744418887.0780864,0.0,2025-04-11 20:48:07.078,RIGHT,45
79.0,7916.965534325306,-7899.240600972248,-20731.555906719674,-23492.733954517123,14249.035924558155,14909.149993556739,30060.302324331085,51497.92748664945,0.0,0.0,0.0,193.0,0.0,193.0,0.0,16.0,0.0,179.0,193.0,16.0,179.0,1744418887.0781348,0.0,2025-04-11 20:48:07.078,RIGHT,45
80.0,7902.9733422962845,-7920.564165182611,-20676.794132804174,-23513.36461464937,14401.586580465626,14864.535911623945,30195.284509096684,51550.029402974775,0.0,0.0,0.0,193.0,0.0,193.0,0.0,16.0,0.0,179.0,193.0,16.0,179.0,1744418887.0781674,0.0,2025-04-11 20:48:07.078,RIGHT,45
81.0,7900.022912028184,-7928.320220508603,-20684.23726370779,-23555.922336092277,14460.751648038824,14653.222519543473,30489.56757659526,51470.16662003596,0.0,0.0,0.0,193.0,0.0,193.0,0.0,16.0,0.0,179.0,193.0,16.0,179.0,1744418887.0781996,0.0,2025-04-11 20:48:07.078,RIGHT,45
82.0,7914.7750633686865,-7903.733301607765,-20726.48206072832,-23533.347074192414,14340.767483802734,14660.799760913822,30338.849763733124,51377.920970668914,0.0,0.0,0.0,193.0,0.0,193.0,0.0,16.0,0.0,179.0,193.0,16.0,179.0,1744418887.078232,0.0,2025-04-11 20:48:07.078,RIGHT,45
83.0,7918.440749459357,-7883.773193809176,-20736.652104455487,-23500.311195887472,14249.281793747163,14889.547513669433,30072.215804125764,51478.168544550965,0.0,0.0,0.0,193.0,0.0,193.0,0.0,16.0,0.0,179.0,193.0,16.0,179.0,1744418887.0782764,0.0,2025-04-11 20:48:07.078,RIGHT,45
84.0,7921.704104149831,-7894.971417781284,-20670.26742342322,-23493.382155106327,14378.564283676658,14893.459068949112,30099.28376666114,51534.33847836715,0.0,0.0,0.0,193.0,0.0,193.0,0.0,16.0,0.0,179.0,193.0,16.0,179.0,1744418887.0783088,0.0,2025-04-11 20:48:07.078,RIGHT,45
85.0,7907.778967354175,-7936.500958979244,-20667.316993155124,-23537.23627772764,14478.141305225052,14696.428441575581,30449.06621564224,51485.41050975448,0.0,0.0,0.0,193.0,0.0,193.0,0.0,16.0,0.0,179.0,193.0,16.0,179.0,1744418887.5538604,0.0,2025-04-11 20:48:07.553,RIGHT,45
86.0,7911.645819144943,-7925.5709559406,-20715.73087164532,-23526.37332992236,14347.450655394872,14621.438338928026,30361.33561865516,51364.33111004008,0.0,0.0,0.0,193.0,0.0,193.0,0.0,16.0,0.0,180.0,193.0,16.0,180.0,1744418887.5539503,0.0,2025-04-11 20:48:07.553,RIGHT,45
87.0,7922.307601250125,-7892.713891591298,-20736.38388352202,-23487.816570736955,14251.896947848434,14866.100533735816,30117.16516222539,51469.87604735805,0.0,0.0,0.0,193.0,0.0,193.0,0.0,16.0,0.0,180.0,193.0,16.0,180.0,1744418887.5540004,0.0,2025-04-11 20:48:07.554,RIGHT,45
88.0,7931.941203110362,-7880.979225752262,-20681.890330539984,-23485.0449544245,14347.383600161505,14907.026577833483,30064.57150752205,51542.87684474908,0.0,0.0,0.0,193.0,0.0,193.0,0.0,16.0,0.0,179.0,193.0,16.0,179.0,1744418887.5540512,0.0,2025-04-11 20:48:07.554,RIGHT,45
89.0,7913.925697079385,-7909.567106910599,-20652.43073134789,-23526.306274688992,14492.781697843278,14738.87440429621,30424.25577929685,51519.966306682385,0.0,0.0,0.0,193.0,0.0,193.0,0.0,16.0,0.0,179.0,193.0,16.0,179.0,1744418887.554097,0.0,2025-04-11 20:48:07.554,RIGHT,45
90.0,7910.684694133365,-7905.923772564384,-20702.185714505402,-23529.502574146103,14384.532199446227,14606.37326316515,30403.24513950886,51377.295121824165,0.0,0.0,0.0,193.0,0.0,193.0,0.0,16.0,0.0,178.0,193.0,16.0,178.0,1744418887.5541413,0.0,2025-04-11 20:48:07.554,RIGHT,45
91.0,7909.701217377332,-7888.0647287445945,-20737.92615388944,-23497.025489452542,14262.759895653713,14837.959687466586,30173.31274429712,51457.18025650743,0.0,0.0,0.0,193.0,0.0,193.0,0.0,16.0,0.0,178.0,193.0,16.0,178.0,1744418887.5541868,0.0,2025-04-11 20:48:07.554,RIGHT,45
92.0,7934.064618833616,-7864.975376722262,-20690.741621344285,-23483.5920910349,14297.53921002617,14919.655313450732,30027.869943126436,51535.210196400905,0.0,0.0,0.0,193.0,0.0,193.0,0.0,16.0,0.0,178.0,193.0,16.0,178.0,1744418887.554229,0.0,2025-04-11 20:48:07.554,RIGHT,45
93.0,7921.257069260725,-7903.733301607765,-20644.451158577343,-23519.444289141215,14473.62625284508,14787.891779886697,30360.620362832593,51534.941975467445,0.0,0.0,0.0,193.0,0.0,193.0,0.0,16.0,0.0,179.0,193.0,16.0,179.0,1744418887.554273,0.0,2025-04-11 20:48:07.554,RIGHT,45
94.0,7903.532135907667,-7923.559298939622,-20695.211970235345,-23542.220716741173,14399.08318508663,14604.763937564367,30437.21979108093,51404.54189831518,0.0,0.0,0.0,193.0,0.0,193.0,0.0,16.0,0.0,179.0,193.0,16.0,179.0,1744418887.5545475,0.0,2025-04-11 20:48:07.554,RIGHT,45
95.0,7916.831423858574,-7896.80426082662,-20723.889258371506,-23491.41520159426,14273.622843458992,14784.136686818205,30209.366108103528,51432.727448073325,0.0,0.0,0.0,193.0,0.0,193.0,0.0,16.0,0.0,179.0,193.0,16.0,179.0,1744418887.5545905,0.0,2025-04-11 20:48:07.554,RIGHT,45
96.0,7938.244395046759,-7869.736298291243,-20691.948615544872,-23462.44734078018,14281.714174951814,14922.80690941893,30016.783477876605,51527.23062363036,0.0,0.0,0.0,193.0,0.0,193.0,0.0,16.0,0.0,179.0,193.0,16.0,179.0,1744418887.5546253,0.0,2025-04-11 20:48:07.554,RIGHT,45
97.0,7922.531118694677,-7895.776080581675,-20645.61344928902,-23501.384079621326,14455.119008436086,14808.567143507857,30295.465027745373,51538.74177202485,0.0,0.0,0.0,193.0,0.0,193.0,0.0,16.0,0.0,179.0,193.0,16.0,179.0,1744418887.5546637,0.0,2025-04-11 20:48:07.554,RIGHT,45
98.0,7916.496147691745,-7906.191993497849,-20679.81161830564,-23537.437443427738,14421.524336519758,14590.525876346335,30447.6357039971,51403.156090158955,0.0,0.0,0.0,193.0,0.0,192.0,0.0,16.0,0.0,179.0,192.0,16.0,179.0,1744418887.5547533,0.0,2025-04-11 20:48:07.554,RIGHT,45
99.0,7906.236696986759,-7894.3455689365355,-20721.43056648142,-23510.25772217008,14296.689843736869,14725.10572971174,30251.499146401784,51394.30479935465,0.0,0.0,0.0,193.0,0.0,192.0,0.0,16.0,0.0,179.0,192.0,16.0,179.0,1744418887.5547915,0.0,2025-04-11 20:48:07.554,RIGHT,45
100.0,7926.889708863463,-7871.36797563648,-20704.554999417665,-23486.22959688063,14259.876520618978,14905.484307466068,30015.352966231465,51500.8555651731,0.0,0.0,0.0,193.0,0.0,193.0,0.0,16.0,0.0,179.0,193.0,16.0,179.0,1744418887.5548444,0.0,2025-04-11 20:48:07.554,RIGHT,45
101.0,7937.976174113295,-7878.811106540097,-20636.873917206995,-23495.863198740866,14442.557328052204,14844.88872824773,30210.774268004214,51532.25976613281,0.0,0.0,0.0,193.0,0.0,193.0,0.0,16.0,0.0,179.0,193.0,16.0,179.0,1744418887.5548787,0.0,2025-04-11 20:48:07.554,RIGHT,45
102.0,7918.641915159455,-7909.4329964438675,-20668.300469911155,-23539.404396939804,14460.461075360905,14637.241022257927,30465.78532049481,51440.32704118813,0.0,0.0,0.0,193.0,0.0,193.0,0.0,17.0,0.0,179.0,193.0,17.0,179.0,1744418887.554911,0.0,2025-04-11 20:48:07.554,RIGHT,45
103.0,7919.580688426578,-7895.060824759105,-20721.05058682568,-23514.906885016786,14312.581934044592,14691.891037451154,30299.443638258417,51395.668255766424,0.0,0.0,0.0,193.0,0.0,193.0,0.0,17.0,0.0,179.0,193.0,17.0,179.0,1744418887.554943,0.0,2025-04-11 20:48:07.554,RIGHT,45
104.0,7937.171511312904,-7869.333966891047,-20711.77461287673,-23476.484236298114,14246.398418712428,14900.790441130453,30029.300454771575,51502.7554634518,0.0,0.0,0.0,193.0,0.0,193.0,0.0,17.0,0.0,178.0,193.0,17.0,178.0,1744418887.5549755,0.0,2025-04-11 20:48:07.554,RIGHT,45
105.0,7929.795435642653,-7889.1823159673595,-20650.731998769286,-23488.531826559523,14404.51465898927,14878.684565864154,30125.681176862858,51546.542530839746,0.0,0.0,0.0,193.0,0.0,193.0,0.0,17.0,0.0,178.0,193.0,17.0,178.0,1744418887.555009,0.0,2025-04-11 20:48:07.555,RIGHT,45
106.0,7907.063711531605,-7924.18514778437,-20666.51233035473,-23545.573478409467,14469.088848720652,14673.830827931266,30450.295561587285,51484.27057078727,0.0,0.0,0.0,193.0,0.0,193.0,0.0,17.0,0.0,179.0,193.0,17.0,179.0,1744418887.5550456,0.0,2025-04-11 20:48:07.555,RIGHT,45
107.0,7908.449519687834,-7901.98986554025,-20706.61135990755,-23517.857315284888,14338.331143657106,14649.80270264181,30311.75944945329,51380.49142128127,0.0,0.0,0.0,193.0,0.0,193.0,0.0,17.0,0.0,179.0,193.0,17.0,179.0,1744418887.5550797,0.0,2025-04-11 20:48:07.555,RIGHT,45
108.0,7915.400912213435,-7879.191086195838,-20722.27993277072,-23486.967204447654,14245.0126105562,14895.403670716725,30061.062283642565,51496.541678493224,0.0,0.0,0.0,193.0,0.0,193.0,0.0,17.0,0.0,179.0,193.0,17.0,179.0,1744418887.5551147,0.0,2025-04-11 20:48:07.555,RIGHT,45
109.0,7919.066598304105,-7886.455403143812,-20675.274214181212,-23498.277187142037,14346.780103061212,14898.622321918288,30071.14292039191,51567.374356672095,0.0,0.0,0.0,193.0,0.0,193.0,0.0,17.0,0.0,179.0,193.0,17.0,179.0,1744418887.5551908,0.0,2025-04-11 20:48:07.555,RIGHT,45
110.0,7898.011255027206,-7912.338723223058,-20662.265498908222,-23542.354827207902,14469.49118012085,14705.81617424681,30420.433630994994,51523.92256545098,0.0,0.0,0.0,193.0,0.0,193.0,0.0,17.0,0.0,179.0,193.0,17.0,179.0,1744418887.5552244,0.0,2025-04-11 20:48:07.555,RIGHT,45
111.0,7908.069540032094,-7895.776080581675,-20705.29260698469,-23527.222696211662,14356.145483987986,14618.778481337844,30345.756452769812,51395.91412495544,0.0,0.0,0.0,193.0,0.0,193.0,0.0,17.0,0.0,179.0,193.0,17.0,179.0,1744418887.5552568,0.0,2025-04-11 20:48:07.555,RIGHT,45
112.0,7923.559298939622,-7866.383536622947,-20724.96214210536,-23485.78256199152,14253.170997282386,14858.813865043387,30099.44022887233,51491.445480757415,0.0,0.0,0.0,193.0,0.0,193.0,0.0,17.0,0.0,179.0,193.0,17.0,179.0,1744418887.5552912,0.0,2025-04-11 20:48:07.555,RIGHT,45
113.0,7938.177339813393,-7881.3145019190915,-20676.727077570806,-23485.112009657863,14318.192221902875,14908.5688482009,30017.342271487985,51571.777650329794,0.0,0.0,0.0,193.0,0.0,193.0,0.0,17.0,0.0,179.0,193.0,17.0,179.0,1744418887.555354,0.0,2025-04-11 20:48:07.555,RIGHT,45
114.0,7903.75565335222,-7929.8624908760185,-20658.08572269508,-23536.18574573824,14462.092752706141,14750.653773624155,30373.360857172116,51563.86513279261,0.0,0.0,0.0,193.0,0.0,193.0,0.0,17.0,0.0,179.0,193.0,17.0,179.0,1744418887.5553887,0.0,2025-04-11 20:48:07.555,RIGHT,45
115.0,7901.475775417778,-7916.607906414021,-20698.47532492582,-23534.93404804874,14371.121152773041,14592.537533347313,30360.30743841022,51412.946154230376,0.0,0.0,0.0,193.0,0.0,193.0,0.0,17.0,0.0,179.0,193.0,17.0,179.0,1744418887.555422,0.0,2025-04-11 20:48:07.555,RIGHT,45
116.0,7911.355246467024,-7891.193972968337,-20727.689054928906,-23496.198474907695,14264.97271835479,14814.892687188709,30124.183609984353,51473.206457281885,0.0,0.0,0.0,193.0,0.0,193.0,0.0,17.0,0.0,179.0,193.0,17.0,179.0,1744418887.5554564,0.0,2025-04-11 20:48:07.555,RIGHT,45
117.0,7931.024781587695,-7872.351452392513,-20686.450086408866,-23479.144093888295,14293.82882044659,14909.038234834461,29969.1742621868,51561.02646124679,0.0,0.0,0.0,193.0,0.0,193.0,0.0,17.0,0.0,179.0,193.0,17.0,179.0,1744418887.5554917,0.0,2025-04-11 20:48:07.555,RIGHT,45
118.0,7916.250278502736,-7902.794528340642,-20639.064388163613,-23505.452097112193,14475.503799379327,14790.439878754602,30300.538873736725,51575.93507479848,0.0,0.0,0.0,193.0,0.0,193.0,0.0,17.0,0.0,179.0,193.0,17.0,179.0,1744418887.5555243,0.0,2025-04-11 20:48:07.555,RIGHT,45
119.0,7910.975266811284,-7908.091891776549,-20685.265443952732,-23529.16729797927,14408.627379969048,14602.03702474082,30395.220863249408,51441.06464875516,0.0,0.0,0.0,193.0,0.0,193.0,0.0,17.0,0.0,179.0,193.0,17.0,179.0,1744418887.5555592,0.0,2025-04-11 20:48:07.555,RIGHT,45
120.0,7907.153118509426,-7874.430164626857,-20722.65991242646,-23495.013832451565,14282.764706941212,14767.261119754448,30174.586793731072,51458.20843675238,0.0,0.0,0.0,193.0,0.0,193.0,0.0,17.0,0.0,178.0,193.0,17.0,178.0,1744418887.5556102,0.0,2025-04-11 20:48:07.555,RIGHT,45
121.0,7927.292040263658,-7841.774265977653,-20695.413135935443,-23475.97014617564,14271.611186458014,14908.479441223079,29958.69129403726,51548.39772562954,0.0,0.0,0.0,193.0,0.0,192.0,0.0,17.0,0.0,178.0,192.0,17.0,178.0,1744418887.555646,0.0,2025-04-11 20:48:07.555,RIGHT,45
122.0,7914.886822090963,-7888.84703980053,-20646.1722429004,-23515.488030372624,14452.14622642353,14815.83146045583,30224.27472165522,51577.723214354904,0.0,0.0,0.0,193.0,0.0,193.0,0.0,17.0,0.0,179.0,193.0,17.0,179.0,1744418887.5556839,0.0,2025-04-11 20:48:07.555,RIGHT,45
123.0,7905.253220230726,-7928.968421097806,-20686.33832768659,-23556.414074470293,14430.643848257525,14611.290646945316,30423.696985685467,51473.47467821535,0.0,0.0,0.0,193.0,0.0,193.0,0.0,17.0,0.0,179.0,193.0,17.0,179.0,1744418887.5557196,0.0,2025-04-11 20:48:07.555,RIGHT,45
124.0,7898.301827705125,-7917.971362825795,-20727.82316539564,-23518.907847274288,14294.789945458167,14721.417691876613,30231.65079732547,51448.887759314515,0.0,0.0,0.0,193.0,0.0,193.0,0.0,17.0,0.0,179.0,193.0,17.0,179.0,1744418887.5557983,0.0,2025-04-11 20:48:07.555,RIGHT,45
125.0,7915.110339535516,-7885.18135370986,-20717.228438523824,-23484.240291624104,14251.807540870614,14915.453185493136,29991.190730475275,51558.634824590066,0.0,0.0,0.0,193.0,0.0,193.0,0.0,17.0,0.0,179.0,193.0,17.0,179.0,1744418887.5558357,0.0,2025-04-11 20:48:07.555,RIGHT,45
126.0,7908.829499343575,-7909.634162143966,-20662.109036697035,-23506.18970467922,14422.440758042427,14864.7594290685,30170.45172100684,51597.41510122003,0.0,0.0,0.0,193.0,0.0,193.0,0.0,17.0,0.0,179.0,193.0,17.0,179.0,1744418887.5558703,0.0,2025-04-11 20:48:07.555,RIGHT,45
127.0,7876.12889720546,-7939.518444480711,-20688.171170731923,-23552.077836045963,14450.33573512265,14649.534481708346,30445.489936529393,51508.25399258781,0.0,0.0,0.0,193.0,0.0,193.0,0.0,17.0,0.0,179.0,193.0,17.0,179.0,1744418887.5559049,0.0,2025-04-11 20:48:07.555,RIGHT,45
128.0,7879.593417596033,-7916.116168036005,-20728.940752618404,-23523.065271742973,14317.924000969411,14693.075679907284,30282.746885150304,51431.87808178402,0.0,0.0,0.0,193.0,0.0,193.0,0.0,17.0,0.0,178.0,193.0,17.0,178.0,1744418887.55596,0.0,2025-04-11 20:48:07.555,RIGHT,45
129.0,7899.128842249971,-7889.986978767751,-20737.00973236677,-23496.198474907695,14237.547127908127,14916.056682593427,30023.958387846757,51537.95946096891,0.0,0.0,0.0,193.0,0.0,193.0,0.0,17.0,0.0,178.0,193.0,17.0,178.0,1744418887.5559955,0.0,2025-04-11 20:48:07.555,RIGHT,45
130.0,7897.3407026935465,-7897.675978860377,-20679.990432261282,-23507.933140746733,14375.256225497274,14884.786592100454,30101.67540331786,51591.424833706005,0.0,0.0,0.0,193.0,0.0,193.0,0.0,17.0,0.0,179.0,193.0,17.0,179.0,1744418887.556031,0.0,2025-04-11 20:48:07.556,RIGHT,45
131.0,7882.297978675125,-7923.179319283881,-20689.71344109934,-23561.063237316997,14452.392095612538,14674.948415154031,30427.049747353765,51526.135388152055,0.0,0.0,0.0,193.0,0.0,193.0,0.0,17.0,0.0,179.0,193.0,17.0,179.0,1744418887.5560648,0.0,2025-04-11 20:48:07.556,RIGHT,45
132.0,7886.969493266284,-7909.678865632876,-20730.974761363836,-23540.90196381831,14329.79277727518,14640.236156014938,30304.249263316306,51413.84022400859,0.0,0.0,0.0,193.0,0.0,193.0,0.0,17.0,0.0,179.0,193.0,17.0,179.0,1744418887.5561,0.0,2025-04-11 20:48:07.556,RIGHT,45
133.0,7908.784795854664,-7878.118202461983,-20739.177851578934,-23496.354937118882,14237.457720930306,14877.65638561921,30046.08661485751,51513.08196939015,0.0,0.0,0.0,193.0,0.0,193.0,0.0,17.0,0.0,179.0,193.0,17.0,179.0,1744418887.5561364,0.0,2025-04-11 20:48:07.556,RIGHT,45
134.0,7926.1073978075265,-7871.032699469651,-20677.017650248727,-23491.951643461187,14341.639201836491,14895.336615483358,30022.259655268153,51567.39670841655,0.0,0.0,0.0,193.0,0.0,193.0,0.0,17.0,0.0,179.0,193.0,17.0,179.0,1744418887.5561683,0.0,2025-04-11 20:48:07.556,RIGHT,45
135.0,7897.720682349287,-7922.508766950223,-20667.160530943936,-23549.93206857825,14471.301671421728,14725.284543667382,30394.930290571487,51537.937109224455,0.0,0.0,0.0,193.0,0.0,193.0,0.0,17.0,0.0,179.0,193.0,17.0,179.0,1744418887.5561984,0.0,2025-04-11 20:48:07.556,RIGHT,45
136.0,7889.539943878644,-7922.218194272304,-20720.089461814103,-23545.305257476004,14350.60225136307,14615.895106303109,30341.777842256768,51403.580773303605,0.0,0.0,0.0,193.0,0.0,193.0,0.0,17.0,0.0,178.0,193.0,17.0,178.0,1744418887.5562322,0.0,2025-04-11 20:48:07.556,RIGHT,45
137.0,7891.328083435069,-7898.234772471759,-20753.1476918635,-23505.31798664546,14239.558784909104,14854.432923130147,30090.454827601294,51483.91294287598,0.0,0.0,0.0,193.0,0.0,193.0,0.0,17.0,0.0,178.0,193.0,17.0,178.0,1744418887.5562627,0.0,2025-04-11 20:48:07.556,RIGHT,45
138.0,7915.400912213435,-7888.869391544985,-20703.884447084005,-23495.12559117384,14297.583913515082,14915.00615060403,29964.83802376247,51542.63097556007,0.0,0.0,0.0,193.0,0.0,193.0,0.0,17.0,0.0,179.0,193.0,17.0,179.0,1744418887.5563087,0.0,2025-04-11 20:48:07.556,RIGHT,45
139.0,7891.976284024273,-7926.8673571190075,-20678.51521712723,-23546.825176098966,14456.95185148142,14771.329137245315,30327.562132783194,51546.900158751036,0.0,0.0,0.0,193.0,0.0,193.0,0.0,17.0,0.0,179.0,193.0,17.0,179.0,1744418887.556373,0.0,2025-04-11 20:48:07.556,RIGHT,45
140.0,7898.972380038784,-7914.864470346507,-20713.562752433154,-23546.691065632232,14366.337879459606,14596.247922926894,30333.23947587484,51394.617723777024,0.0,0.0,0.0,193.0,0.0,193.0,0.0,17.0,0.0,179.0,193.0,17.0,179.0,1744418887.5564036,0.0,2025-04-11 20:48:07.556,RIGHT,45
141.0,7901.028740528673,-7877.470001872779,-20737.47911900033,-23496.51139933007,14257.127256050975,14813.93156217713,30099.261414916687,51444.8420935681,0.0,0.0,0.0,193.0,0.0,193.0,0.0,17.0,0.0,179.0,193.0,17.0,179.0,1744418887.5564337,0.0,2025-04-11 20:48:07.556,RIGHT,45
142.0,7921.882918105473,-7861.466152842779,-20701.850438338573,-23476.79716072049,14275.25452080423,14931.211165334127,29935.62429375938,51542.78743777126,0.0,0.0,0.0,193.0,0.0,193.0,0.0,17.0,0.0,179.0,193.0,17.0,179.0,1744418887.5564847,0.0,2025-04-11 20:48:07.556,RIGHT,45
143.0,7912.294019734147,-7904.13563300796,-20651.357847614032,-23513.275207671548,14456.258947403307,14818.737187235021,30259.143443005498,51561.11586822461,0.0,0.0,0.0,193.0,0.0,193.0,0.0,17.0,0.0,179.0,193.0,17.0,179.0,1744418887.5565279,0.0,2025-04-11 20:48:07.556,RIGHT,45
144.0,7902.928638807373,-7916.965534325306,-20696.933054558405,-23549.730902878156,14398.457336241883,14617.79500458181,30381.42983692048,51431.408695150465,0.0,0.0,0.0,193.0,0.0,193.0,0.0,17.0,0.0,179.0,193.0,17.0,179.0,1744418887.5565584,0.0,2025-04-11 20:48:07.556,RIGHT,45
145.0,7900.13467075046,-7897.295999204636,-20735.534517232718,-23515.242161183618,14274.472209748294,14770.144494789183,30173.11157859702,51446.294956957696,0.0,0.0,0.0,193.0,0.0,192.0,0.0,17.0,0.0,178.0,192.0,17.0,178.0,1744418887.556589,0.0,2025-04-11 20:48:07.556,RIGHT,45
146.0,7905.879069075474,-7875.435993127346,-20716.736700145808,-23493.583320806425,14252.38868622645,14924.460938508624,29955.58440155797,51550.1188099526,0.0,0.0,0.0,193.0,0.0,193.0,0.0,17.0,0.0,179.0,193.0,17.0,179.0,1744418887.5566192,0.0,2025-04-11 20:48:07.556,RIGHT,45
147.0,7898.413586427401,-7900.402891683923,-20663.114865197524,-23519.153716463294,14426.598182511114,14842.810016013387,30194.0775148961,51581.29949346775,0.0,0.0,0.0,193.0,0.0,193.0,0.0,17.0,0.0,180.0,193.0,17.0,180.0,1744418887.5566492,0.0,2025-04-11 20:48:07.556,RIGHT,45
148.0,7901.967513795796,-7905.007351041717,-20689.154647487958,-23550.826138356464,14424.877098188055,14615.671588858557,30391.376363203093,51452.396983194,0.0,0.0,0.0,193.0,0.0,193.0,0.0,17.0,0.0,180.0,193.0,17.0,180.0,1744418887.556679,0.0,2025-04-11 20:48:07.556,RIGHT,45
149.0,7893.60796136951,-7898.681807360865,-20742.86588941406,-23526.395681666814,14288.374994799495,14709.235991148471,30218.70913728585,51419.67402931143,0.0,0.0,0.0,193.0,0.0,193.0,0.0,17.0,0.0,180.0,193.0,17.0,180.0,1744418887.556709,0.0,2025-04-11 20:48:07.556,RIGHT,45
150.0,7894.569086381089,-7889.718757834287,-20746.28570631572,-23504.245102911605,14222.81732831208,14911.228705791082,29982.786474560082,51540.90989123701,0.0,0.0,0.0,193.0,0.0,193.0,0.0,17.0,0.0,178.0,193.0,17.0,178.0,1744418887.5567389,0.0,2025-04-11 20:48:07.556,RIGHT,45
151.0,7912.361074967513,-7892.602132869021,-20674.156626958447,-23510.36948089236,14387.773202392245,14861.98781275604,30118.506266892706,51575.555095142736,0.0,0.0,0.0,193.0,0.0,193.0,0.0,17.0,0.0,179.0,193.0,17.0,179.0,1744418887.556769,0.0,2025-04-11 20:48:07.556,RIGHT,45
152.0,7905.454385930823,-7911.265839489203,-20686.584196875596,-23551.8096151125,14435.225955870863,14651.836711387243,30403.423953464506,51481.387195752526,0.0,0.0,0.0,193.0,0.0,193.0,0.0,17.0,0.0,179.0,193.0,17.0,179.0,1744418887.5568128,0.0,2025-04-11 20:48:07.556,RIGHT,45
153.0,7907.287228976158,-7889.383481667457,-20726.1914880504,-23521.590056608922,14305.07174790761,14668.622871473179,30245.486527143305,51390.19207837488,0.0,0.0,0.0,193.0,0.0,193.0,0.0,17.0,0.0,179.0,193.0,17.0,179.0,1744418887.556842,0.0,2025-04-11 20:48:07.556,RIGHT,45
154.0,7918.37369422599,-7867.74699303472,-20731.131223575023,-23488.911806215267,14227.801767325613,14895.157801527715,29988.70968684074,51493.92652439196,0.0,0.0,0.0,193.0,0.0,193.0,0.0,17.0,0.0,179.0,193.0,17.0,179.0,1744418887.556884,0.0,2025-04-11 20:48:07.556,RIGHT,45
155.0,7923.782816384175,-7885.404871154413,-20671.385010645987,-23496.153771418783,14354.245585709285,14886.775897356976,30037.905876386867,51542.42980985997,0.0,0.0,0.0,193.0,0.0,193.0,0.0,17.0,0.0,179.0,193.0,17.0,179.0,1744418887.5569131,0.0,2025-04-11 20:48:07.556,RIGHT,45
156.0,7893.585609625055,-7917.971362825795,-20672.32378391311,-23549.105054033407,14449.911051977999,14708.230162647984,30397.12076152811,51503.962457652386,0.0,0.0,0.0,193.0,0.0,193.0,0.0,17.0,0.0,179.0,193.0,17.0,179.0,1744418887.5569427,0.0,2025-04-11 20:48:07.556,RIGHT,45
157.0,7898.167717238393,-7884.264932187192,-20716.0884995566,-23531.64834161381,14328.384617374495,14654.049534088319,30293.609832955583,51388.42629056291,0.0,0.0,0.0,193.0,0.0,193.0,0.0,17.0,0.0,179.0,193.0,17.0,179.0,1744418887.556972,0.0,2025-04-11 20:48:07.556,RIGHT,45
158.0,7911.243487744748,-7859.74506851972,-20732.78525266472,-23492.108105672374,14228.159395236898,14886.351214212325,30035.357777518962,51476.53686720573,0.0,0.0,0.0,193.0,0.0,193.0,0.0,17.0,0.0,179.0,193.0,17.0,179.0,1744418887.5570116,0.0,2025-04-11 20:48:07.557,RIGHT,45
159.0,7924.542775695655,-7866.741164534232,-20675.408324647942,-23484.55321604648,14322.282591138195,14911.80985114692,29998.343288700973,51542.72038253789,0.0,0.0,0.0,193.0,0.0,193.0,0.0,17.0,0.0,179.0,193.0,17.0,179.0,1744418887.5570412,0.0,2025-04-11 20:48:07.557,RIGHT,45
160.0,7899.307656205614,-7910.997618555739,-20666.355868143542,-23539.784376595544,14453.62144155758,14741.087226997284,30382.234499720875,51530.024591687274,0.0,0.0,0.0,193.0,0.0,193.0,0.0,17.0,0.0,179.0,193.0,17.0,179.0,1744418887.5570703,0.0,2025-04-11 20:48:07.557,RIGHT,45
161.0,7901.207554484315,-7903.219211485292,-20715.172078033935,-23541.14783300732,14339.940469257888,14603.467536385959,30346.270542892285,51389.43211906339,0.0,0.0,0.0,193.0,0.0,193.0,0.0,17.0,0.0,179.0,193.0,17.0,179.0,1744418887.5570993,0.0,2025-04-11 20:48:07.557,RIGHT,45
162.0,7907.3766359539795,-7877.358243150502,-20737.81439516716,-23496.98078596363,14233.210889483797,14834.919850220664,30103.19532194082,51456.71086987387,0.0,0.0,0.0,193.0,0.0,193.0,0.0,17.0,0.0,179.0,193.0,17.0,179.0,1744418887.5571284,0.0,2025-04-11 20:48:07.557,RIGHT,45
163.0,7926.532080952178,-7867.434068612346,-20697.983586547805,-23492.242216139104,14276.305052793628,14910.71461566861,29977.690276824273,51533.93614696695,0.0,0.0,0.0,193.0,0.0,193.0,0.0,17.0,0.0,179.0,193.0,17.0,179.0,1744418887.5571578,0.0,2025-04-11 20:48:07.557,RIGHT,45
164.0,7914.9538773243285,-7899.41941492789,-20656.632859305486,-23531.84950731391,14446.37947635406,14774.6371954247,30331.071356662676,51541.62514705958,0.0,0.0,0.0,193.0,0.0,193.0,0.0,17.0,0.0,179.0,193.0,17.0,179.0,1744418887.5571868,0.0,2025-04-11 20:48:07.557,RIGHT,45
165.0,7893.764423580697,-7904.292095219147,-20705.20320000687,-23545.975809809664,14371.791705106702,14595.934998504521,30383.10621775463,51399.378645346005,0.0,0.0,0.0,193.0,0.0,193.0,0.0,17.0,0.0,179.0,193.0,17.0,179.0,1744418887.5572157,0.0,2025-04-11 20:48:07.557,RIGHT,45
166.0,7896.267818959692,-7868.439897112835,-20739.513127745766,-23503.395736622304,14263.273985776184,14793.5914747228,30157.64417143395,51436.12491323053,0.0,0.0,0.0,193.0,0.0,193.0,0.0,17.0,0.0,179.0,193.0,17.0,179.0,1744418887.557245,0.0,2025-04-11 20:48:07.557,RIGHT,45
167.0,7924.319258251102,-7845.775228235153,-20709.941769831392,-23489.828227737933,14264.704497421324,14915.877868637786,29968.74957904215,51528.90700446451,0.0,0.0,0.0,193.0,0.0,193.0,0.0,17.0,0.0,178.0,193.0,17.0,178.0,1744418887.557274,0.0,2025-04-11 20:48:07.557,RIGHT,45
168.0,7898.078310260572,-7896.13370849296,-20663.986583231283,-23529.256704957093,14443.339639108139,14810.668207486655,30268.933507076923,51553.91860651,0.0,0.0,0.0,193.0,0.0,193.0,0.0,17.0,0.0,179.0,193.0,17.0,179.0,1744418887.5573032,0.0,2025-04-11 20:48:07.557,RIGHT,45
169.0,7880.5098391187,-7910.975266811284,-20706.991339563294,-23560.8620716169,14395.819830396156,14599.779498550834,30413.884569869588,51429.35233466057,0.0,0.0,0.0,193.0,0.0,193.0,0.0,17.0,0.0,179.0,193.0,17.0,179.0,1744418887.557344,0.0,2025-04-11 20:48:07.557,RIGHT,45
170.0,7891.797470068631,-7888.84703980053,-20733.96989512085,-23515.711547817176,14274.293395792653,14736.48276763949,30198.74902948726,51419.5399188447,0.0,0.0,0.0,193.0,0.0,193.0,0.0,17.0,0.0,179.0,193.0,17.0,179.0,1744418887.5573738,0.0,2025-04-11 20:48:07.557,RIGHT,45
171.0,7912.919868578896,-7876.374766394469,-20720.223572280833,-23489.828227737933,14249.460607702806,14909.932304612674,29971.565898843517,51528.81759748669,0.0,0.0,0.0,193.0,0.0,193.0,0.0,17.0,0.0,179.0,193.0,17.0,179.0,1744418887.557403,0.0,2025-04-11 20:48:07.557,RIGHT,45
172.0,7918.619563414999,-7886.1871822103485,-20654.330629626587,-23503.17221917775,14423.781862709746,14835.590402554322,30180.331192056085,51557.96427225641,0.0,0.0,0.0,193.0,0.0,193.0,0.0,17.0,0.0,179.0,193.0,17.0,179.0,1744418887.5574324,0.0,2025-04-11 20:48:07.557,RIGHT,45
173.0,7901.520478906689,-7908.807147599119,-20683.67847009641,-23548.27803948856,14428.587487767636,14623.740568606921,30424.613407208137,51457.828457096635,0.0,0.0,0.0,193.0,0.0,193.0,0.0,17.0,0.0,179.0,193.0,17.0,179.0,1744418887.5574725,0.0,2025-04-11 20:48:07.557,RIGHT,45
174.0,7898.301827705125,-7884.443746142834,-20725.990322350302,-23518.058480984986,14279.25548306173,14686.23604610396,30241.999655008276,51403.3349041146,0.0,0.0,0.0,193.0,0.0,193.0,0.0,17.0,0.0,178.0,193.0,17.0,178.0,1744418887.557502,0.0,2025-04-11 20:48:07.557,RIGHT,45
175.0,7914.797415113141,-7839.159111876383,-20715.462650711856,-23480.6416607668,14217.452909642805,14898.398804473736,29981.579480359494,51511.98673391184,0.0,0.0,0.0,193.0,0.0,193.0,0.0,17.0,0.0,179.0,193.0,17.0,179.0,1744418887.5575318,0.0,2025-04-11 20:48:07.557,RIGHT,45
176.0,7925.61565942951,-7870.496257602723,-20654.107112182035,-23494.969128962653,14369.690641127901,14860.087914477339,30093.51701659167,51555.147952455045,0.0,0.0,0.0,193.0,0.0,193.0,0.0,17.0,0.0,179.0,193.0,17.0,179.0,1744418887.5575612,0.0,2025-04-11 20:48:07.557,RIGHT,45
177.0,7901.0957957620385,-7918.306638992624,-20670.535644356685,-23542.93597256374,14432.499043047315,14655.457693989003,30400.92055808551,51480.35901550759,0.0,0.0,0.0,193.0,0.0,193.0,0.0,17.0,0.0,179.0,193.0,17.0,179.0,1744418887.557593,0.0,2025-04-11 20:48:07.557,RIGHT,45
178.0,7895.2843422036585,-7889.651702600921,-20708.198333763878,-23511.37530939285,14309.430338076394,14649.065095074786,30250.873297557035,51374.34469155606,0.0,0.0,0.0,193.0,0.0,193.0,0.0,17.0,0.0,179.0,193.0,17.0,179.0,1744418887.5576231,0.0,2025-04-11 20:48:07.557,RIGHT,45
179.0,7897.60892362701,-7861.644966798422,-20720.603551936576,-23478.585300276914,14216.983523009245,14885.479496178568,29998.835027078992,51486.841021399625,0.0,0.0,0.0,193.0,0.0,193.0,0.0,17.0,0.0,179.0,193.0,17.0,179.0,1744418887.5576525,0.0,2025-04-11 20:48:07.557,RIGHT,45
180.0,7915.289153491159,-7863.947196477318,-20650.910812724927,-23474.517282786048,14330.440977864382,14882.149086254727,30019.26452151114,51546.67664130648,0.0,0.0,0.0,193.0,0.0,193.0,0.0,17.0,0.0,179.0,193.0,17.0,179.0,1744418887.5576816,0.0,2025-04-11 20:48:07.557,RIGHT,45
181.0,7903.979170796772,-7906.4378626868565,-20647.80392024564,-23525.45690839969,14449.665182788991,14694.506191552424,30377.20535721843,51502.24137332933,0.0,0.0,0.0,193.0,0.0,193.0,0.0,17.0,0.0,178.0,193.0,17.0,178.0,1744418887.5577104,0.0,2025-04-11 20:48:07.557,RIGHT,45
182.0,7919.670095404398,-7876.017138483184,-20693.356775445554,-23510.168315192263,14333.704332554858,14605.881524787132,30286.814902641167,51370.54489499866,0.0,0.0,0.0,193.0,0.0,192.0,0.0,17.0,0.0,178.0,192.0,17.0,178.0,1744418887.5577395,0.0,2025-04-11 20:48:07.557,RIGHT,45
183.0,7916.630258158477,-7850.804370737597,-20716.848458868084,-23480.373439833336,14220.828023055557,14840.50778633449,30043.60557122297,51466.43387871193,0.0,0.0,0.0,193.0,0.0,192.0,0.0,17.0,0.0,178.0,192.0,17.0,178.0,1744418887.5577683,0.0,2025-04-11 20:48:07.557,RIGHT,45
184.0,7917.636086658966,-7848.9715276922625,-20669.887443767482,-23479.12174214384,14295.415794302917,14883.959577555606,29976.282116923587,51536.126617923575,0.0,0.0,0.0,193.0,0.0,193.0,0.0,17.0,0.0,179.0,193.0,17.0,179.0,1744418887.5578103,0.0,2025-04-11 20:48:07.557,RIGHT,45
185.0,7908.002484798728,-7893.429147413868,-20637.499766051744,-23513.856353027386,14458.404714871016,14735.521642627913,30340.90612422301,51516.2112136139,0.0,0.0,0.0,193.0,0.0,193.0,0.0,17.0,0.0,180.0,193.0,17.0,180.0,1744418887.55784,0.0,2025-04-11 20:48:07.557,RIGHT,45
186.0,7915.937354080362,-7895.843135815041,-20687.14299048698,-23523.08762348743,14356.50311189927,14599.93596076202,30330.557266540203,51371.17074384341,0.0,0.0,0.0,193.0,0.0,193.0,0.0,17.0,0.0,179.0,193.0,17.0,179.0,1744418887.557869,0.0,2025-04-11 20:48:07.557,RIGHT,45
187.0,7914.171566268393,-7869.311615146592,-20719.642426924995,-23491.884588227822,14235.513119162693,14815.473832544547,30090.276013645653,51429.21822419384,0.0,0.0,0.0,193.0,0.0,193.0,0.0,17.0,0.0,179.0,193.0,17.0,179.0,1744418887.5578983,0.0,2025-04-11 20:48:07.557,RIGHT,45
188.0,7919.200708770837,-7846.937518946829,-20683.67847009641,-23483.54738754599,14267.140837566953,14913.441528492158,29950.39879684434,51521.73209449436,0.0,0.0,0.0,193.0,0.0,193.0,0.0,17.0,0.0,179.0,193.0,17.0,179.0,1744418887.557938,0.0,2025-04-11 20:48:07.557,RIGHT,45
189.0,7901.207554484315,-7875.0336617271505,-20640.629010275487,-23519.712510074678,14453.822607257678,14789.098774087284,30295.93441437893,51536.97598421288,0.0,0.0,0.0,193.0,0.0,193.0,0.0,17.0,0.0,179.0,193.0,17.0,179.0,1744418887.5579672,0.0,2025-04-11 20:48:07.557,RIGHT,45
190.0,7894.837307314552,-7893.049167758128,-20691.367470189034,-23542.623048141366,14380.263016255263,14581.607530308669,30365.358932657116,51392.78488073169,0.0,0.0,0.0,193.0,0.0,193.0,0.0,17.0,0.0,178.0,193.0,17.0,178.0,1744418887.5579963,0.0,2025-04-11 20:48:07.557,RIGHT,45
191.0,7907.443691187345,-7859.655661541899,-20725.073900827636,-23501.60759706588,14257.797808384636,14753.783017847898,30123.28954020614,51403.781939003704,0.0,0.0,0.0,193.0,0.0,193.0,0.0,17.0,0.0,178.0,193.0,17.0,178.0,1744418887.558025,0.0,2025-04-11 20:48:07.558,RIGHT,45
192.0,7925.705066407331,-7837.281565342137,-20701.068127282637,-23485.82726548043,14249.550014680626,14903.830278376376,29928.807011700515,51500.81086168419,0.0,0.0,0.0,193.0,0.0,193.0,0.0,17.0,0.0,179.0,193.0,17.0,179.0,1744418887.558054,0.0,2025-04-11 20:48:07.558,RIGHT,45
193.0,7918.776025626186,-7875.391289638435,-20642.32774285409,-23507.195533179707,14426.553479022203,14809.327102819338,30199.754857987748,51514.62423975757,0.0,0.0,0.0,193.0,0.0,193.0,0.0,17.0,0.0,179.0,193.0,17.0,179.0,1744418887.5580833,0.0,2025-04-11 20:48:07.558,RIGHT,45
194.0,7907.354284209524,-7898.972380038784,-20682.98556601829,-23538.80089983951,14390.857743127079,14608.921362033054,30381.67570610949,51399.132776157,0.0,0.0,0.0,193.0,0.0,193.0,0.0,17.0,0.0,179.0,193.0,17.0,179.0,1744418887.5581124,0.0,2025-04-11 20:48:07.558,RIGHT,45
195.0,7910.32706622208,-7875.435993127346,-20728.761938662763,-23510.213018681174,14262.961061353812,14734.672276338611,30197.229110864297,51394.84124122158,0.0,0.0,0.0,193.0,0.0,193.0,0.0,17.0,0.0,179.0,193.0,17.0,179.0,1744418887.5581417,0.0,2025-04-11 20:48:07.558,RIGHT,45
196.0,7933.416418244412,-7831.581870506034,-20709.15945877546,-23481.8933584563,14221.587982367038,14909.306455767924,29949.01298868811,51499.00037038331,0.0,0.0,0.0,193.0,0.0,193.0,0.0,17.0,0.0,179.0,193.0,17.0,179.0,1744418887.558171,0.0,2025-04-11 20:48:07.558,RIGHT,45
197.0,7923.089912306061,-7860.393269108924,-20632.56003052712,-23492.26456788356,14405.56519097867,14847.637992815733,30135.314778723096,51529.689315520445,0.0,0.0,0.0,193.0,0.0,193.0,0.0,17.0,0.0,179.0,193.0,17.0,179.0,1744418887.5582,0.0,2025-04-11 20:48:07.558,RIGHT,45
198.0,7904.113281263505,-7898.123013749482,-20665.66296406543,-23540.298466718017,14425.771167966268,14633.597687911713,30400.58528191868,51437.93540453141,0.0,0.0,0.0,193.0,0.0,193.0,0.0,17.0,0.0,179.0,193.0,17.0,179.0,1744418887.5582292,0.0,2025-04-11 20:48:07.558,RIGHT,45
199.0,7919.04424655965,-7865.444763355824,-20702.05160403867,-23504.334509889428,14300.713157738825,14679.508171022913,30223.42535536592,51366.387470529975,0.0,0.0,0.0,193.0,0.0,193.0,0.0,17.0,0.0,178.0,193.0,17.0,178.0,1744418887.5582705,0.0,2025-04-11 20:48:07.558,RIGHT,45
200.0,7926.2191565298035,-7839.919071187863,-20707.080746541113,-23473.712619985658,14231.556860394105,14905.506659210523,29977.712628568726,51483.8011841537,0.0,0.0,0.0,193.0,0.0,193.0,0.0,17.0,0.0,179.0,193.0,17.0,179.0,1744418887.5582995,0.0,2025-04-11 20:48:07.558,RIGHT,45
201.0,7938.512615980222,-7856.0793824290495,-20645.61344928902,-23486.564873047457,14375.680908641925,14873.65542336171,30067.343123834507,51530.65044053202,0.0,0.0,0.0,193.0,0.0,193.0,0.0,17.0,0.0,179.0,193.0,17.0,179.0,1744418887.5583289,0.0,2025-04-11 20:48:07.558,RIGHT,45
202.0,7922.598173928043,-7887.75180432222,-20653.593022059566,-23535.470489915668,14452.392095612538,14674.6131389872,30394.63971789357,51471.887704359026,0.0,0.0,0.0,193.0,0.0,193.0,0.0,17.0,0.0,180.0,193.0,17.0,180.0,1744418887.558358,0.0,2025-04-11 20:48:07.558,RIGHT,45
203.0,7914.596249413044,-7876.710042561298,-20705.359662218056,-23523.534658376535,14320.717969026324,14654.675382933066,30274.499091446294,51383.26303759373,0.0,0.0,0.0,193.0,0.0,193.0,0.0,17.0,0.0,180.0,193.0,17.0,180.0,1744418887.5583985,0.0,2025-04-11 20:48:07.558,RIGHT,45
204.0,7925.61565942951,-7850.245577126215,-20719.687130413906,-23483.61444277936,14224.76193007969,14893.481420693568,30012.201370263265,51496.698140704415,0.0,0.0,0.0,193.0,0.0,193.0,0.0,17.0,0.0,179.0,193.0,17.0,179.0,1744418887.558428,0.0,2025-04-11 20:48:07.558,RIGHT,45
205.0,7939.876072391996,-7843.227129367248,-20659.315068640124,-23482.07217241194,14334.754864544257,14903.785574887464,29999.12559975691,51559.03715599026,0.0,0.0,0.0,193.0,0.0,193.0,0.0,17.0,0.0,178.0,193.0,17.0,178.0,1744418887.5584571,0.0,2025-04-11 20:48:07.558,RIGHT,45
206.0,7920.742979138253,-7879.302844918114,-20644.80878648863,-23533.056501514497,14455.856616003111,14720.121290698205,30358.184022686964,51527.00710618581,0.0,0.0,0.0,193.0,0.0,193.0,0.0,17.0,0.0,179.0,193.0,17.0,179.0,1744418888.0333078,0.0,2025-04-11 20:48:08.033,RIGHT,45
207.0,7918.440749459357,-7876.240655927737,-20685.265443952732,-23521.925332775754,14344.366114660039,14621.594801139212,30290.99467885431,51396.40586333345,0.0,0.0,0.0,193.0,0.0,193.0,0.0,17.0,0.0,179.0,193.0,17.0,179.0,1744418888.0334344,0.0,2025-04-11 20:48:08.033,RIGHT,45
208.0,7919.401874470935,-7850.893777715419,-20715.395595478487,-23491.437553338714,14226.281848702652,14855.326992908358,30043.51616424515,51484.15881206498,0.0,0.0,0.0,193.0,0.0,193.0,0.0,17.0,0.0,179.0,193.0,17.0,179.0,1744418888.033477,0.0,2025-04-11 20:48:08.033,RIGHT,45
209.0,7930.1530635539375,-7849.038582925628,-20679.923377027917,-23495.617329551857,14284.664605219914,14898.778784129476,29957.03726494757,51566.480286893886,0.0,0.0,0.0,193.0,0.0,193.0,0.0,17.0,0.0,179.0,193.0,17.0,179.0,1744418888.0335145,0.0,2025-04-11 20:48:08.033,RIGHT,45
210.0,7913.210441256815,-7886.410699654902,-20651.536661569677,-23538.353864950404,14454.359049124605,14735.34282867227,30322.778859469756,51560.42296414649,0.0,0.0,0.0,193.0,0.0,193.0,0.0,17.0,0.0,179.0,193.0,17.0,179.0,1744418888.033551,0.0,2025-04-11 20:48:08.033,RIGHT,45
211.0,7916.272630247192,-7897.273647460181,-20703.95150231737,-23551.317876734483,14349.015277506744,14573.06916392674,30335.519353809283,51423.160901446456,0.0,0.0,0.0,193.0,0.0,193.0,0.0,17.0,0.0,179.0,193.0,17.0,179.0,1744418888.0335877,0.0,2025-04-11 20:48:08.033,RIGHT,45
212.0,7919.915964593407,-7874.765440793686,-20734.305171287677,-23508.98367273613,14231.15452899391,14783.73435541801,30093.852292758504,51476.31334976117,0.0,0.0,0.0,193.0,0.0,193.0,0.0,17.0,0.0,179.0,193.0,17.0,179.0,1744418888.0336237,0.0,2025-04-11 20:48:08.033,RIGHT,45
213.0,7934.824578145097,-7857.7781150076535,-20699.65996738195,-23498.254835397584,14252.791017626647,14894.04021430495,29929.790488456547,51569.81069681772,0.0,0.0,0.0,193.0,0.0,193.0,0.0,17.0,0.0,178.0,193.0,17.0,178.0,1744418888.0336604,0.0,2025-04-11 20:48:08.033,RIGHT,45
214.0,7918.418397714901,-7886.477754888268,-20650.262612135724,-23534.442309670725,14434.376589581561,14777.185294292605,30248.347550433584,51579.91368531152,0.0,0.0,0.0,193.0,0.0,192.0,0.0,17.0,0.0,179.0,192.0,17.0,179.0,1744418888.0337486,0.0,2025-04-11 20:48:08.033,RIGHT,45
215.0,7917.792548870153,-7875.391289638435,-20689.57933063261,-23554.938859336242,14376.12794353103,14571.728059259423,30335.407595087006,51440.17057897694,0.0,0.0,0.0,193.0,0.0,193.0,0.0,17.0,0.0,179.0,193.0,17.0,179.0,1744418888.0337853,0.0,2025-04-11 20:48:08.033,RIGHT,45
216.0,7919.692447148854,-7850.98318469324,-20729.879525885528,-23514.66101582778,14252.38868622645,14739.723770585511,30112.471295889773,51454.72156461735,0.0,0.0,0.0,193.0,0.0,193.0,0.0,17.0,0.0,179.0,193.0,17.0,179.0,1744418888.0338275,0.0,2025-04-11 20:48:08.033,RIGHT,45
217.0,7925.548604196144,-7832.811216451075,-20711.595798921087,-23501.093506943405,14230.9086598049,14900.231647519071,29901.49317997613,51562.45697289193,0.0,0.0,0.0,193.0,0.0,193.0,0.0,17.0,0.0,179.0,193.0,17.0,179.0,1744418888.0338643,0.0,2025-04-11 20:48:08.033,RIGHT,45
218.0,7917.680790147876,-7862.047298198617,-20657.57163257261,-23532.408300925294,14406.928647390443,14799.112355603262,30143.808441616115,51578.86315332212,0.0,0.0,0.0,193.0,0.0,193.0,0.0,17.0,0.0,180.0,193.0,17.0,180.0,1744418888.0339184,0.0,2025-04-11 20:48:08.033,RIGHT,45
219.0,7909.656513888421,-7892.9374090358515,-20693.267368467736,-23571.166225810794,14395.171629806951,14576.846608739688,30340.548496311727,51458.99074780831,0.0,0.0,0.0,193.0,0.0,193.0,0.0,17.0,0.0,180.0,193.0,17.0,180.0,1744418888.033955,0.0,2025-04-11 20:48:08.033,RIGHT,45
220.0,7914.640952901955,-7879.571065851577,-20732.561735220163,-23533.972923037163,14266.179712555375,14687.688909493556,30157.82298538959,51428.815892793646,0.0,0.0,0.0,193.0,0.0,193.0,0.0,17.0,0.0,179.0,193.0,17.0,179.0,1744418888.0339916,0.0,2025-04-11 20:48:08.033,RIGHT,45
221.0,7934.288136278169,-7846.624594524455,-20724.62686593853,-23506.703794801688,14208.467508371772,14889.011071802506,29927.19768609973,51540.37344937008,0.0,0.0,0.0,193.0,0.0,193.0,0.0,17.0,0.0,179.0,193.0,17.0,179.0,1744418888.0340278,0.0,2025-04-11 20:48:08.034,RIGHT,45
222.0,7924.006333828728,-7866.964681978784,-20661.483187852285,-23528.586152623433,14370.405896950471,14833.556393808889,30105.855179531,51584.83106909169,0.0,0.0,0.0,193.0,0.0,193.0,0.0,17.0,0.0,179.0,193.0,17.0,179.0,1744418888.034064,0.0,2025-04-11 20:48:08.034,RIGHT,45
223.0,7908.740092365753,-7896.960723037806,-20683.834932307593,-23573.691972934244,14405.296970045207,14609.770728322355,30387.375400945595,51498.26276281629,0.0,0.0,0.0,193.0,0.0,193.0,0.0,17.0,0.0,179.0,193.0,17.0,179.0,1744418888.0341003,0.0,2025-04-11 20:48:08.034,RIGHT,45
224.0,7913.903345334929,-7879.213437940292,-20724.38099674952,-23538.66678937278,14278.249654561241,14646.651106673611,30228.834477524102,51418.64584906648,0.0,0.0,0.0,193.0,0.0,193.0,0.0,17.0,0.0,179.0,193.0,17.0,179.0,1744418888.034138,0.0,2025-04-11 20:48:08.034,RIGHT,45
225.0,7937.797360157652,-7838.712076987276,-20725.58799095011,-23503.08281219993,14206.344092648518,14884.09368802234,29978.31612566902,51526.94005095244,0.0,0.0,0.0,193.0,0.0,193.0,0.0,17.0,0.0,179.0,193.0,17.0,179.0,1744418888.034176,0.0,2025-04-11 20:48:08.034,RIGHT,45
226.0,7939.585499714077,-7846.401077079902,-20663.204272175346,-23508.491934358113,14345.237832693796,14870.973214027073,30055.027312639635,51582.327673712694,0.0,0.0,0.0,193.0,0.0,193.0,0.0,17.0,0.0,179.0,193.0,17.0,179.0,1744418888.0342183,0.0,2025-04-11 20:48:08.034,RIGHT,45
227.0,7902.548659151633,-7890.65753110141,-20672.212025190835,-23563.70074316272,14432.253173858307,14665.784199927355,30398.35010747315,51529.44344633144,0.0,0.0,0.0,193.0,0.0,193.0,0.0,17.0,0.0,178.0,193.0,17.0,178.0,1744418888.0342553,0.0,2025-04-11 20:48:08.034,RIGHT,45
228.0,7906.191993497849,-7870.764478536186,-20708.131278530513,-23538.46562367268,14307.977474686799,14615.783347580833,30278.70121940389,51414.55547983116,0.0,0.0,0.0,193.0,0.0,193.0,0.0,17.0,0.0,178.0,193.0,17.0,178.0,1744418888.0342908,0.0,2025-04-11 20:48:08.034,RIGHT,45
229.0,7916.116168036005,-7846.445780568813,-20725.833860139115,-23503.619254066856,14209.160412449886,14862.591309856334,30031.826201895026,51524.19078638444,0.0,0.0,0.0,193.0,0.0,192.0,0.0,17.0,0.0,178.0,192.0,17.0,178.0,1744418888.0343573,0.0,2025-04-11 20:48:08.034,RIGHT,45
230.0,7927.403798985934,-7853.441876583323,-20676.123580470514,-23505.474448856647,14304.848230463056,14878.32693795287,29995.41521017733,51588.16147901553,0.0,0.0,0.0,193.0,0.0,192.0,0.0,17.0,0.0,178.0,192.0,17.0,178.0,1744418888.0343928,0.0,2025-04-11 20:48:08.034,RIGHT,45
231.0,7913.165737767904,-7890.32225493458,-20652.587193559077,-23543.204193497204,14447.407656599005,14702.262246878416,30354.361874385104,51556.399650144536,0.0,0.0,0.0,193.0,0.0,193.0,0.0,17.0,0.0,179.0,193.0,17.0,179.0,1744418888.0344288,0.0,2025-04-11 20:48:08.034,RIGHT,45
232.0,7911.198784255837,-7875.41364138289,-20696.2848539692,-23536.096338760417,14339.381675646506,14588.782440278823,30314.061679132188,51423.719695057836,0.0,0.0,0.0,193.0,0.0,193.0,0.0,17.0,0.0,179.0,193.0,17.0,179.0,1744418888.0344627,0.0,2025-04-11 20:48:08.034,RIGHT,45
233.0,7905.99082779775,-7866.942330234329,-20727.264371784255,-23500.758230776577,14225.410130668895,14831.477681574546,30085.42568509885,51515.09362639113,0.0,0.0,0.0,193.0,0.0,193.0,0.0,17.0,0.0,180.0,193.0,17.0,180.0,1744418888.0345638,0.0,2025-04-11 20:48:08.034,RIGHT,45
234.0,7935.673944434398,-7852.324289360558,-20677.978775260304,-23492.8457132394,14272.43820100286,14894.196676516138,29962.714608039216,51593.77176687381,0.0,0.0,0.0,193.0,0.0,193.0,0.0,17.0,0.0,179.0,193.0,17.0,179.0,1744418888.0345995,0.0,2025-04-11 20:48:08.034,RIGHT,45
235.0,7922.486415205767,-7887.170658966382,-20638.393835829957,-23536.521021905068,14449.084037433153,14744.462340410037,30309.367812796572,51584.004054546844,0.0,0.0,0.0,193.0,0.0,193.0,0.0,17.0,0.0,179.0,193.0,17.0,179.0,1744418888.0346353,0.0,2025-04-11 20:48:08.034,RIGHT,45
236.0,7917.5913831700545,-7882.476792630768,-20686.33832768659,-23550.446158700724,14362.18045499092,14566.721268501435,30341.688435278946,51430.96166026135,0.0,0.0,0.0,193.0,0.0,193.0,0.0,17.0,0.0,179.0,193.0,17.0,179.0,1744418888.0346744,0.0,2025-04-11 20:48:08.034,RIGHT,45
237.0,7922.106435550027,-7852.033716682639,-20717.96604609085,-23508.581341335936,14251.494616448239,14781.40977399466,30119.892075048934,51482.61654169757,0.0,0.0,0.0,193.0,0.0,193.0,0.0,17.0,0.0,179.0,193.0,17.0,179.0,1744418888.0347111,0.0,2025-04-11 20:48:08.034,RIGHT,45
238.0,7942.267709048714,-7829.994896649707,-20679.074010738615,-23485.112009657863,14261.239977030753,14909.57467670139,29943.514459552105,51580.49483066736,0.0,0.0,0.0,193.0,0.0,193.0,0.0,17.0,0.0,179.0,193.0,17.0,179.0,1744418888.0347493,0.0,2025-04-11 20:48:08.034,RIGHT,45
239.0,7919.156005281927,-7868.305786646103,-20632.872954949493,-23521.23242869764,14431.269697102272,14795.044338112395,30252.057940013165,51598.9797233319,0.0,0.0,0.0,193.0,0.0,193.0,0.0,17.0,0.0,179.0,193.0,17.0,179.0,1744418888.0347853,0.0,2025-04-11 20:48:08.034,RIGHT,45
240.0,7912.2493162452365,-7866.472943600767,-20672.167321701923,-23546.020513298576,14380.46418195536,14580.35583261917,30377.674743851992,51462.99171006581,0.0,0.0,0.0,193.0,0.0,193.0,0.0,17.0,0.0,179.0,193.0,17.0,179.0,1744418888.034845,0.0,2025-04-11 20:48:08.034,RIGHT,45
241.0,7924.475720462289,-7838.667373498366,-20702.31982497213,-23505.027413967542,14261.39643924194,14731.43127339259,30169.669409950904,51459.19191350841,0.0,0.0,0.0,193.0,0.0,193.0,0.0,17.0,0.0,179.0,193.0,17.0,179.0,1744418888.034886,0.0,2025-04-11 20:48:08.034,RIGHT,45
242.0,7929.8624908760185,-7834.711114729776,-20695.167266746434,-23497.204303408183,14229.43344467085,14898.979949829574,29964.435692362273,51579.31018821123,0.0,0.0,0.0,193.0,0.0,193.0,0.0,17.0,0.0,179.0,193.0,17.0,179.0,1744418888.0349288,0.0,2025-04-11 20:48:08.034,RIGHT,45
243.0,7926.576784441088,-7868.372841879469,-20640.85252772004,-23514.951588505697,14401.810097910178,14812.232829598526,30188.534282271183,51614.60359270616,0.0,0.0,0.0,193.0,0.0,193.0,0.0,17.0,0.0,179.0,193.0,17.0,179.0,1744418888.0349703,0.0,2025-04-11 20:48:08.034,RIGHT,45
244.0,7924.676886162387,-7894.904362547918,-20672.77081880222,-23551.116711034385,14402.681815943935,14589.900027501588,30402.082848797185,51496.988713382336,0.0,0.0,0.0,193.0,0.0,193.0,0.0,17.0,0.0,179.0,193.0,17.0,179.0,1744418888.035035,0.0,2025-04-11 20:48:08.035,RIGHT,45
245.0,7922.195842527848,-7858.783943508142,-20709.830011109116,-23511.30825415948,14277.377936527484,14675.306043065315,30220.854904753556,51448.887759314515,0.0,0.0,0.0,193.0,0.0,193.0,0.0,17.0,0.0,179.0,193.0,17.0,179.0,1744418888.0350723,0.0,2025-04-11 20:48:08.035,RIGHT,45
246.0,7927.001467585739,-7842.556577033589,-20718.86011586906,-23501.674652299243,14214.569534608072,14886.842952590341,29993.202387476253,51574.61632187561,0.0,0.0,0.0,193.0,0.0,193.0,0.0,17.0,0.0,179.0,193.0,17.0,179.0,1744418888.0351093,0.0,2025-04-11 20:48:08.035,RIGHT,45
247.0,7932.276479277191,-7861.466152842779,-20657.14694942796,-23517.767908307065,14371.724649873335,14830.114225162772,30119.646205859925,51616.034104351296,0.0,0.0,0.0,193.0,0.0,193.0,0.0,17.0,0.0,179.0,193.0,17.0,179.0,1744418888.0351424,0.0,2025-04-11 20:48:08.035,RIGHT,45
248.0,7910.125900521983,-7889.718757834287,-20671.69793506836,-23558.291621004537,14426.262906344284,14628.233269242439,30425.663939197537,51543.92737673848,0.0,0.0,0.0,193.0,0.0,193.0,0.0,17.0,0.0,179.0,193.0,17.0,179.0,1744418888.0352228,0.0,2025-04-11 20:48:08.035,RIGHT,45
249.0,7913.970400568295,-7858.113391174483,-20702.185714505402,-23523.26643744307,14301.495468794761,14639.90087984811,30272.621544912046,51449.73712560382,0.0,0.0,0.0,193.0,0.0,193.0,0.0,17.0,0.0,179.0,193.0,17.0,179.0,1744418888.0352714,0.0,2025-04-11 20:48:08.035,RIGHT,45
250.0,7926.979115841284,-7838.801483965098,-20709.807659364662,-23489.93998646021,14223.085549245543,14875.46591466259,30017.364623232443,51557.83016178968,0.0,0.0,0.0,193.0,0.0,193.0,0.0,17.0,0.0,179.0,193.0,17.0,179.0,1744418888.0353098,0.0,2025-04-11 20:48:08.035,RIGHT,45
251.0,7934.0869705780715,-7842.64598401141,-20659.069199451114,-23497.807800508475,14337.772350045723,14865.251167446515,30052.702731216283,51614.916517128535,0.0,0.0,0.0,193.0,0.0,193.0,0.0,17.0,0.0,179.0,193.0,17.0,179.0,1744418888.0353515,0.0,2025-04-11 20:48:08.035,RIGHT,45
252.0,7910.930563322373,-7875.279530916158,-20663.2266239198,-23554.201251769216,14432.47669130286,14673.584958742256,30405.10033429865,51575.488039909374,0.0,0.0,0.0,193.0,0.0,193.0,0.0,17.0,0.0,179.0,193.0,17.0,179.0,1744418888.0353873,0.0,2025-04-11 20:48:08.035,RIGHT,45
253.0,7917.501976192234,-7871.815010525586,-20707.14780177448,-23540.209059740195,14309.430338076394,14604.428661397536,30310.887731419534,51456.04031754021,0.0,0.0,0.0,193.0,0.0,192.0,0.0,17.0,0.0,178.0,192.0,17.0,178.0,1744418888.035421,0.0,2025-04-11 20:48:08.035,RIGHT,45
254.0,7925.973287340795,-7849.17269339236,-20725.275066527734,-23500.42295460975,14205.33826414803,14849.001449227508,30058.00009465219,51554.47740012138,0.0,0.0,0.0,193.0,0.0,193.0,0.0,17.0,0.0,178.0,193.0,17.0,178.0,1744418888.0354607,0.0,2025-04-11 20:48:08.035,RIGHT,45
