Sample Index,EXG Channel 0,EXG Channel 1,EXG Channel 2,EXG Channel 3,EXG Channel 4,EXG Channel 5,EXG Channel 6,EXG Channel 7,Accel Channel 0,Accel Channel 1,Accel Channel 2,Not Used,Digital Channel 0 (D11),Digital Channel 1 (D12),Digital Channel 2 (D13),Digital Channel 3 (D17),Not Used,Digital Channel 4 (D18),Analog Channel 0,Analog Channel 1,Analog Channel 2,Timestamp,Marker Channel,Timestamp (Formatted),Stimulus_Direction,Stimulus_Number
144.0,8207.67232271103,-11295.319950022693,-24380.657003004195,-24159.486491618933,16715.7967943903,4282.951865548118,24219.41151850361,39673.83231804756,0.0,0.0,0.0,193.0,0.0,193.0,0.0,1.0,0.0,179.0,193.0,1.0,179.0,1744418661.7054696,0.0,2025-04-11 20:44:21.705,RIGHT,17
145.0,8217.037703637803,-11284.99344408434,-24346.659999687672,-24146.2989623903,16782.94143473404,4344.732087222586,24073.34286848818,39743.56976074812,0.0,0.0,0.0,193.0,0.0,192.0,0.0,1.0,0.0,178.0,192.0,1.0,178.0,1744418661.7055013,0.0,2025-04-11 20:44:21.705,RIGHT,17
146.0,8177.028081062804,-11329.6745812505,-24356.67358120365,-24198.5126374379,16917.81186077736,4179.753861397965,24438.905649054726,39737.7806589342,0.0,0.0,0.0,193.0,0.0,193.0,0.0,1.0,0.0,178.0,193.0,1.0,178.0,1744418661.7055328,0.0,2025-04-11 20:44:21.705,RIGHT,17
147.0,8163.28175822279,-11337.207119131937,-24394.96211945559,-24221.624341204686,16835.400978970647,3980.1527834120734,24505.491495787086,39620.27753833265,0.0,0.0,0.0,193.0,0.0,193.0,0.0,1.0,0.0,179.0,193.0,1.0,179.0,1744418661.705564,0.0,2025-04-11 20:44:21.705,RIGHT,17
148.0,8166.388650702078,-11328.087607394173,-24406.92030273918,-24187.895558821627,16720.155384559082,4162.855942589753,24271.401676106656,39692.18310024537,0.0,0.0,0.0,193.0,0.0,192.0,0.0,1.0,0.0,178.0,192.0,1.0,178.0,1744418661.7055953,0.0,2025-04-11 20:44:21.705,RIGHT,17
149.0,8200.318598785234,-11294.470583733391,-24358.59583122681,-24150.814014770272,16751.000791907405,4284.337673704347,24041.871612295105,39769.65424652747,0.0,0.0,0.0,193.0,0.0,193.0,0.0,1.0,0.0,179.0,193.0,1.0,179.0,1744418661.7056265,0.0,2025-04-11 20:44:21.705,RIGHT,17
150.0,8185.007653833349,-11339.554052299745,-24338.68042691713,-24189.683698378052,16908.938218228606,4180.379710242714,24353.276116046443,39781.83594725561,0.0,0.0,0.0,193.0,0.0,193.0,0.0,1.0,0.0,179.0,193.0,1.0,179.0,1744418661.7056577,0.0,2025-04-11 20:44:21.705,RIGHT,17
151.0,8167.059203035737,-11358.284814153292,-24375.739619224027,-24228.218105819,16841.055970317837,3959.5891785131907,24504.03863239749,39661.248285919224,0.0,0.0,0.0,193.0,0.0,192.0,0.0,1.0,0.0,178.0,192.0,1.0,178.0,1744418661.705694,0.0,2025-04-11 20:44:21.705,RIGHT,17
152.0,8172.490676938377,-11335.329572597691,-24392.659889776696,-24192.857646090706,16755.761713476386,4112.966848965508,24301.107144487756,39687.8692135655,0.0,0.0,0.0,193.0,0.0,193.0,0.0,1.0,0.0,179.0,193.0,1.0,179.0,1744418661.7057252,0.0,2025-04-11 20:44:21.705,RIGHT,17
153.0,8194.775366160318,-11316.040017132762,-24376.0525436464,-24173.322221436767,16745.59166974922,4257.694394313621,24044.978504774394,39776.78445300871,0.0,0.0,0.0,193.0,0.0,193.0,0.0,1.0,0.0,179.0,193.0,1.0,179.0,1744418661.7057688,0.0,2025-04-11 20:44:21.705,RIGHT,17
154.0,8181.230209020402,-11362.308128155248,-24365.614278985773,-24200.948977583528,16932.854584795783,4168.466230448035,24268.652411538653,39791.40249388248,0.0,0.0,0.0,193.0,0.0,192.0,0.0,1.0,0.0,178.0,192.0,1.0,178.0,1744418661.7058003,0.0,2025-04-11 20:44:21.705,RIGHT,17
155.0,8153.067011006715,-11406.788099621308,-24416.59860808833,-24248.55819327333,16908.96056997306,3954.1130011216405,24523.641112284793,39693.92653631289,0.0,0.0,0.0,193.0,0.0,193.0,0.0,1.0,0.0,179.0,193.0,1.0,179.0,1744418661.7058315,0.0,2025-04-11 20:44:21.705,RIGHT,17
156.0,8159.146685498558,-11378.133163229604,-24439.889125810758,-24208.54857069833,16784.148428934626,4048.035031322841,24357.76881668196,39675.26282969271,0.0,0.0,0.0,193.0,0.0,193.0,0.0,1.0,0.0,179.0,193.0,1.0,179.0,1744418661.7058628,0.0,2025-04-11 20:44:21.705,RIGHT,17
157.0,8188.293360268279,-11341.498654067356,-24421.292474423943,-24172.763427825383,16756.007582665396,4255.727440801554,24058.70247586995,39762.412281323945,0.0,0.0,0.0,193.0,0.0,192.0,0.0,1.0,0.0,178.0,192.0,1.0,178.0,1744418661.7059069,0.0,2025-04-11 20:44:21.705,RIGHT,17
158.0,8178.458592707943,-11371.695860826476,-24386.468456562576,-24188.07437277727,16913.29680839739,4230.939356200619,24188.4096489441,39796.58809859611,0.0,0.0,0.0,193.0,0.0,193.0,0.0,1.0,0.0,179.0,193.0,1.0,179.0,1744418661.705938,0.0,2025-04-11 20:44:21.705,RIGHT,17
159.0,8158.878464565095,-11398.987340806407,-24406.942654483635,-24228.218105819,16947.182052991637,3997.4753853649363,24504.172742864223,39716.14417030146,0.0,0.0,0.0,193.0,0.0,193.0,0.0,1.0,0.0,179.0,193.0,1.0,179.0,1744418661.7059693,0.0,2025-04-11 20:44:21.705,RIGHT,17
160.0,8160.823066332707,-11377.6861283405,-24430.277875694977,-24198.93732058255,16809.629417613676,3991.351007384182,24364.943726652113,39648.17251541287,0.0,0.0,0.0,193.0,0.0,192.0,0.0,1.0,0.0,178.0,192.0,1.0,178.0,1744418661.7060008,0.0,2025-04-11 20:44:21.706,RIGHT,17
161.0,8161.940653555472,-11363.760991544843,-24433.183602474168,-24178.59723312822,16719.238963036416,4206.352437299781,24091.179560563512,39765.31800810314,0.0,0.0,0.0,193.0,0.0,193.0,0.0,1.0,0.0,179.0,193.0,1.0,179.0,1744418661.706032,0.0,2025-04-11 20:44:21.706,RIGHT,17
162.0,8154.18459822948,-11381.664738853544,-24396.660852034194,-24191.27067223438,16838.262002260926,4192.583762715311,24124.595418524197,39820.01272678527,0.0,0.0,0.0,193.0,0.0,193.0,0.0,1.0,0.0,178.0,193.0,1.0,178.0,1744418661.706063,0.0,2025-04-11 20:44:21.706,RIGHT,17
163.0,8120.209946657414,-11427.128187075637,-24410.83185801886,-24235.482422766974,16931.982866762028,4047.5209412003687,24500.819981195928,39781.701836788874,0.0,0.0,0.0,193.0,0.0,192.0,0.0,1.0,0.0,178.0,192.0,1.0,178.0,1744418661.706094,0.0,2025-04-11 20:44:21.706,RIGHT,17
164.0,8136.616127087609,-11398.137974517105,-24420.040776734448,-24202.93828284005,16814.65856011612,3986.903010237576,24412.865866764292,39683.488271652255,0.0,0.0,0.0,193.0,0.0,193.0,0.0,1.0,0.0,179.0,193.0,1.0,179.0,1744418661.7061253,0.0,2025-04-11 20:44:21.706,RIGHT,17
165.0,8145.780342314285,-11374.623939350122,-24430.54609662844,-24168.27072718987,16716.087367068216,4241.958766217085,24138.989941953416,39792.05069447168,0.0,0.0,0.0,193.0,0.0,193.0,0.0,1.0,0.0,179.0,193.0,1.0,179.0,1744418661.7061565,0.0,2025-04-11 20:44:21.706,RIGHT,17
166.0,8159.124333754103,-11369.706555569954,-24385.507331550998,-24168.963631267983,16835.468034204012,4248.351365131302,24043.86091755163,39842.92326485196,0.0,0.0,0.0,193.0,0.0,192.0,0.0,1.0,0.0,178.0,192.0,1.0,178.0,1744418661.7061877,0.0,2025-04-11 20:44:21.706,RIGHT,17
167.0,8114.979638454872,-11419.081559071727,-24400.840628247337,-24229.13452734167,16969.556149191398,4068.3974705216256,24425.22638144808,39819.342174451616,0.0,0.0,0.0,193.0,0.0,193.0,0.0,1.0,0.0,178.0,193.0,1.0,178.0,1744418661.7062187,0.0,2025-04-11 20:44:21.706,RIGHT,17
168.0,8117.885365234061,-11414.700617158487,-24426.03104424847,-24221.2667132934,16845.86159537573,3924.1393118070737,24409.289587651445,39694.686495624366,0.0,0.0,0.0,193.0,0.0,193.0,0.0,1.0,0.0,179.0,193.0,1.0,179.0,1744418661.7062616,0.0,2025-04-11 20:44:21.706,RIGHT,17
169.0,8126.043751960248,-11399.769651862342,-24443.331294456875,-24189.437829189043,16722.904649127086,4142.493503390969,24140.129880920635,39770.14598490548,0.0,0.0,0.0,193.0,0.0,192.0,0.0,1.0,0.0,178.0,192.0,1.0,178.0,1744418661.7062929,0.0,2025-04-11 20:44:21.706,RIGHT,17
170.0,8136.482016620877,-11398.361491961658,-24412.999977231026,-24187.582634399252,16773.196074151525,4219.383504317225,23967.17208232547,39833.848456603104,0.0,0.0,0.0,193.0,0.0,193.0,0.0,1.0,0.0,179.0,193.0,1.0,179.0,1744418661.706324,0.0,2025-04-11 20:44:21.706,RIGHT,17
171.0,8108.1847081404585,-11449.479931530945,-24410.54128534094,-24240.84684143625,16933.92746852964,4080.0427293828407,24324.57647616583,39854.479116735354,0.0,0.0,0.0,193.0,0.0,193.0,0.0,1.0,0.0,178.0,193.0,1.0,178.0,1744418661.706355,0.0,2025-04-11 20:44:21.706,RIGHT,17
172.0,8108.832908729662,-11452.765637965875,-24430.836669306358,-24248.446434551053,16840.38541798418,3838.040392165231,24385.887311206738,39738.89824615696,0.0,0.0,0.0,193.0,0.0,192.0,0.0,1.0,0.0,178.0,192.0,1.0,178.0,1744418661.7063997,0.0,2025-04-11 20:44:21.706,RIGHT,17
173.0,8106.038940672749,-11437.968783136463,-24451.802605605437,-24202.60300667322,16681.10688699566,4050.5607784462904,24147.01421821287,39783.959362978865,0.0,0.0,0.0,193.0,0.0,193.0,0.0,1.0,0.0,179.0,193.0,1.0,179.0,1744418661.7064312,0.0,2025-04-11 20:44:21.706,RIGHT,17
174.0,8117.237164644857,-11423.238983540414,-24433.630637363272,-24186.465047176487,16674.24490144788,4205.033684376917,23909.526933375233,39852.534514967745,0.0,0.0,0.0,193.0,0.0,192.0,0.0,1.0,0.0,178.0,192.0,1.0,178.0,1744418661.7064624,0.0,2025-04-11 20:44:21.706,RIGHT,17
175.0,8096.382987068056,-11460.678155503054,-24414.25167492052,-24222.56311447181,16901.96447395855,4126.1320264496835,24197.618567659687,39866.370244785576,0.0,0.0,0.0,193.0,0.0,192.0,0.0,1.0,0.0,178.0,192.0,1.0,178.0,1744418661.7064931,0.0,2025-04-11 20:44:21.706,RIGHT,17
176.0,8087.196420096925,-11467.69660326202,-24441.967838045104,-24249.56402177382,16880.01506090344,3928.9672886094204,24358.72994169354,39748.576551506114,0.0,0.0,0.0,193.0,0.0,193.0,0.0,1.0,0.0,179.0,193.0,1.0,179.0,1744418661.7065241,0.0,2025-04-11 20:44:21.706,RIGHT,17
177.0,8092.404376555011,-11448.07177163026,-24461.056227809935,-24206.380451486166,16779.87924574366,4082.859049184209,24159.039456729824,39777.07502568663,0.0,0.0,0.0,193.0,0.0,192.0,0.0,1.0,0.0,178.0,192.0,1.0,178.0,1744418661.7065556,0.0,2025-04-11 20:44:21.706,RIGHT,17
178.0,8110.017551185793,-11435.845367413207,-24441.40904443372,-24173.34457318122,16733.141748087615,4273.720595088076,23891.980813977818,39880.04951239223,0.0,0.0,0.0,193.0,0.0,192.0,0.0,1.0,0.0,178.0,192.0,1.0,178.0,1744418661.7065868,0.0,2025-04-11 20:44:21.706,RIGHT,17
179.0,8089.118670120081,-11466.579016039255,-24414.139916198244,-24204.771125885385,16917.67775031063,4190.370940014236,24091.559540219252,39903.85412023713,0.0,0.0,0.0,193.0,0.0,193.0,0.0,1.0,0.0,179.0,193.0,1.0,179.0,1744418661.706618,0.0,2025-04-11 20:44:21.706,RIGHT,17
180.0,8086.794088696729,-11464.969690438473,-24445.275896224488,-24249.251097351444,16888.01698541844,3937.907986391543,24340.021531584447,39805.30527893368,0.0,0.0,0.0,193.0,0.0,192.0,0.0,1.0,0.0,178.0,192.0,1.0,178.0,1744418661.7066488,0.0,2025-04-11 20:44:21.706,RIGHT,17
181.0,8109.145833152036,-11430.436245255023,-24451.31086722742,-24217.824544647283,16739.869623168663,3995.3743213861376,24156.73722705093,39771.0400546837,0.0,0.0,0.0,193.0,0.0,193.0,0.0,1.0,0.0,179.0,193.0,1.0,179.0,1744418661.70668,0.0,2025-04-11 20:44:21.706,RIGHT,17
182.0,8093.7454812223295,-11454.374963566657,-24434.055320507923,-24182.01705002988,16709.113622798162,4216.12014962675,23878.793284749187,39890.286611352756,0.0,0.0,0.0,193.0,0.0,192.0,0.0,0.0,0.0,178.0,192.0,0.0,178.0,1744418661.7067113,0.0,2025-04-11 20:44:21.706,RIGHT,17
183.0,8072.623082712064,-11495.077490219772,-24399.097192179823,-24172.472855147465,16852.29889777886,4190.907381881164,23966.881509647552,39921.51199835682,0.0,0.0,0.0,193.0,0.0,192.0,0.0,1.0,0.0,178.0,192.0,1.0,178.0,1744418661.7067544,0.0,2025-04-11 20:44:21.706,RIGHT,17
184.0,8040.525977674244,-11540.339772741769,-24428.243866949542,-24228.866306408207,16891.794430231384,4008.6959610815006,24310.76309809245,39867.17490758597,0.0,0.0,0.0,193.0,0.0,193.0,0.0,1.0,0.0,178.0,193.0,1.0,178.0,1744418661.706786,0.0,2025-04-11 20:44:21.706,RIGHT,17
185.0,8040.660088140976,-11531.309667981825,-24451.46732943861,-24211.566056199797,16796.93362676306,3985.7407195259,24181.92764305206,39806.62403185655,0.0,0.0,0.0,193.0,0.0,193.0,0.0,0.0,0.0,179.0,193.0,0.0,179.0,1744418661.706817,0.0,2025-04-11 20:44:21.706,RIGHT,17
186.0,8059.815533139174,-11503.571153112789,-24438.50331765453,-24180.6088901292,16712.26521876636,4206.285382066415,23867.14802588797,39908.14565517255,0.0,0.0,0.0,193.0,0.0,192.0,0.0,0.0,0.0,178.0,192.0,0.0,178.0,1744418661.706848,0.0,2025-04-11 20:44:21.706,RIGHT,17
187.0,8058.4520767274,-11520.290257965358,-24408.417869617686,-24201.284253750357,16825.722673621498,4181.027910831918,23855.279249582203,39966.39430122308,0.0,0.0,0.0,193.0,0.0,193.0,0.0,1.0,0.0,179.0,193.0,1.0,179.0,1744418661.7068918,0.0,2025-04-11 20:44:21.706,RIGHT,17
188.0,8030.490044413811,-11565.686650954087,-24417.3138639109,-24246.926515928095,16893.806087232362,3950.2014458419617,24221.44552724904,39933.91721652952,0.0,0.0,0.0,193.0,0.0,193.0,0.0,0.0,0.0,179.0,193.0,0.0,179.0,1744418661.7069235,0.0,2025-04-11 20:44:21.706,RIGHT,17
189.0,8032.188776992414,-11564.613767220231,-24435.2176112196,-24224.194791817044,16752.766579719377,3882.967398520398,24158.860642774183,39845.87369512006,0.0,0.0,0.0,193.0,0.0,192.0,0.0,0.0,0.0,178.0,192.0,0.0,178.0,1744418661.7069545,0.0,2025-04-11 20:44:21.706,RIGHT,17
190.0,8049.533730689733,-11536.718790140008,-24438.88329731027,-24180.899462807116,16663.180787942503,4144.594567369767,23865.315182842634,39939.5275043878,0.0,0.0,0.0,193.0,0.0,193.0,0.0,0.0,0.0,179.0,193.0,0.0,179.0,1744418661.7069855,0.0,2025-04-11 20:44:21.706,RIGHT,17
191.0,8060.754306406297,-11529.454473192034,-24392.2575583765,-24172.182282469545,16783.03084171186,4226.6478212652,23739.787785981633,39996.055066115274,0.0,0.0,0.0,193.0,0.0,193.0,0.0,0.0,0.0,179.0,193.0,0.0,179.0,1744418661.7070165,0.0,2025-04-11 20:44:21.707,RIGHT,17
192.0,8010.082901726116,-11591.547619288876,-24401.891160236737,-24235.102443111235,16918.661227066663,4083.0825666287624,24134.810165740273,40005.353391808676,0.0,0.0,0.0,193.0,0.0,192.0,0.0,0.0,0.0,178.0,192.0,0.0,178.0,1744418661.7070472,0.0,2025-04-11 20:44:21.707,RIGHT,17
193.0,8002.595067333587,-11586.183200619604,-24433.630637363272,-24241.65150423664,16784.61781556819,3898.4795091723813,24133.267895372857,39891.58301253116,0.0,0.0,0.0,193.0,0.0,193.0,0.0,0.0,0.0,179.0,193.0,0.0,179.0,1744418661.707078,0.0,2025-04-11 20:44:21.707,RIGHT,17
194.0,8004.606724334565,-11564.569063731322,-24448.561602659418,-24204.972291585484,16684.59375913069,4121.706381047533,23866.05279040966,39965.857859356154,0.0,0.0,0.0,193.0,0.0,192.0,0.0,0.0,0.0,178.0,192.0,0.0,178.0,1744418661.7071087,0.0,2025-04-11 20:44:21.707,RIGHT,17
195.0,8029.64067812451,-11545.257156521935,-24404.77453527147,-24171.31056443579,16761.483760056944,4222.2221758630485,23667.50224441317,40030.14147640961,0.0,0.0,0.0,193.0,0.0,193.0,0.0,0.0,0.0,178.0,193.0,0.0,178.0,1744418661.7071395,0.0,2025-04-11 20:44:21.707,RIGHT,17
196.0,8019.91766928645,-11574.359127802745,-24380.433485559643,-24200.010204316404,16959.810788608884,4102.595639538245,23987.3110040797,40025.58172054073,0.0,0.0,0.0,193.0,0.0,193.0,0.0,0.0,0.0,179.0,193.0,0.0,179.0,1744418661.7071705,0.0,2025-04-11 20:44:21.707,RIGHT,17
197.0,7997.409462619957,-11606.925619474128,-24434.681169352672,-24232.867268665705,16863.854749662252,3913.835157613177,24089.324365773722,39918.65097506654,0.0,0.0,0.0,193.0,0.0,192.0,0.0,0.0,0.0,178.0,192.0,0.0,178.0,1744418661.7072015,0.0,2025-04-11 20:44:21.707,RIGHT,17
198.0,7992.335616628602,-11597.403776336167,-24466.420646479208,-24211.78957364435,16717.383768246626,4100.606334281723,23860.889537440486,39980.27473452983,0.0,0.0,0.0,193.0,0.0,193.0,0.0,0.0,0.0,179.0,193.0,0.0,179.0,1744418661.7072444,0.0,2025-04-11 20:44:21.707,RIGHT,17
199.0,8014.575602361632,-11576.996633648472,-24427.774480315984,-24186.26388147639,16717.27200952435,4223.07154215235,23602.033984903574,40066.91009603859,0.0,0.0,0.0,193.0,0.0,193.0,0.0,0.0,0.0,179.0,193.0,0.0,179.0,1744418661.7072756,0.0,2025-04-11 20:44:21.707,RIGHT,17
200.0,7996.180116674915,-11616.067482956349,-24393.643366532728,-24209.80026838783,16897.784697745406,4113.168014665605,23861.24716535177,40086.736093370455,0.0,0.0,0.0,193.0,0.0,193.0,0.0,0.0,0.0,178.0,193.0,0.0,178.0,1744418661.7073064,0.0,2025-04-11 20:44:21.707,RIGHT,17
201.0,7980.15391590046,-11636.385218666222,-24434.055320507923,-24247.46295779502,16818.011321784415,3869.28813091375,24051.90754555554,39990.109502090156,0.0,0.0,0.0,193.0,0.0,192.0,0.0,0.0,0.0,178.0,192.0,0.0,178.0,1744418661.7073376,0.0,2025-04-11 20:44:21.707,RIGHT,17
202.0,7994.660198051954,-11604.422224095133,-24447.533422414475,-24201.775992128372,16677.95529102746,3970.0274431738194,23850.67479022441,40006.58273775372,0.0,0.0,0.0,193.0,0.0,193.0,0.0,0.0,0.0,179.0,193.0,0.0,179.0,1744418661.7073824,0.0,2025-04-11 20:44:21.707,RIGHT,17
203.0,7993.67672129592,-11594.855677468262,-24423.68411108066,-24191.628300145665,16703.101003539683,4142.001765012952,23570.450969988226,40112.55235821633,0.0,0.0,0.0,193.0,0.0,192.0,0.0,0.0,0.0,178.0,192.0,0.0,178.0,1744418661.7074134,0.0,2025-04-11 20:44:21.707,RIGHT,17
204.0,7971.704956496354,-11632.831291297829,-24394.73860201104,-24215.03057659037,16890.34156684179,4115.9172792336085,23742.090015660528,40142.14606787516,0.0,0.0,0.0,193.0,0.0,193.0,0.0,0.0,0.0,179.0,193.0,0.0,179.0,1744418661.7074442,0.0,2025-04-11 20:44:21.707,RIGHT,17
205.0,7950.359040541535,-11660.703916633596,-24423.438241891654,-24243.573754259796,16914.906133998174,3945.6640417175345,24013.641359048055,40061.12099422467,0.0,0.0,0.0,193.0,0.0,193.0,0.0,0.0,0.0,178.0,193.0,0.0,178.0,1744418661.707475,0.0,2025-04-11 20:44:21.707,RIGHT,17
206.0,7954.449409776857,-11646.689372860119,-24436.402253675733,-24205.531085196864,16791.99389123844,4014.2391937064167,23849.177223345905,40036.467020090466,0.0,0.0,0.0,193.0,0.0,192.0,0.0,0.0,0.0,178.0,192.0,0.0,178.0,1744418661.7075062,0.0,2025-04-11 20:44:21.707,RIGHT,17
207.0,7954.71763071032,-11637.994544267005,-24435.172907730688,-24192.410611201598,16703.21276226196,4220.054056650884,23544.27707723106,40135.19467534956,0.0,0.0,0.0,193.0,0.0,193.0,0.0,0.0,0.0,179.0,193.0,0.0,179.0,1744418661.7075372,0.0,2025-04-11 20:44:21.707,RIGHT,17
208.0,7947.743886440264,-11669.756373137996,-24394.96211945559,-24208.97325384298,16843.224089530002,4171.059032804851,23612.80752573103,40180.8816410162,0.0,0.0,0.0,193.0,0.0,193.0,0.0,0.0,0.0,179.0,193.0,0.0,179.0,1744418661.707568,0.0,2025-04-11 20:44:21.707,RIGHT,17
209.0,7911.735226122764,-11719.041969661948,-24417.35856739981,-24264.80791149234,16921.946933501593,3979.7281002674226,23963.394637512523,40145.99056792147,0.0,0.0,0.0,193.0,0.0,192.0,0.0,0.0,0.0,178.0,192.0,0.0,178.0,1744418661.707599,0.0,2025-04-11 20:44:21.707,RIGHT,17
210.0,7913.143386023448,-11704.669797977185,-24431.79779431794,-24224.306550539324,16799.99581575344,3960.5279517803137,23827.697196924353,40070.95576178501,0.0,0.0,0.0,193.0,0.0,193.0,0.0,0.0,0.0,178.0,193.0,0.0,178.0,1744418661.7076304,0.0,2025-04-11 20:44:21.707,RIGHT,17
211.0,7917.61373491451,-11682.116887821781,-24428.266218694,-24181.055925018303,16699.5917796602,4211.761559457965,23522.394719409316,40185.2849346739,0.0,0.0,0.0,193.0,0.0,193.0,0.0,0.0,0.0,179.0,193.0,0.0,179.0,1744418661.707661,0.0,2025-04-11 20:44:21.707,RIGHT,17
212.0,7914.663304646409,-11699.84182117484,-24387.854264718804,-24190.3095472228,16787.70235630302,4208.185280345116,23473.422047307737,40240.247874289504,0.0,0.0,0.0,193.0,0.0,192.0,0.0,0.0,0.0,178.0,192.0,0.0,178.0,1744418661.707696,0.0,2025-04-11 20:44:21.707,RIGHT,17
213.0,7872.485562859245,-11764.885397539783,-24397.68903227914,-24249.85459445174,16904.87020073774,4003.152728456584,23855.368656560026,40230.86014161827,0.0,0.0,0.0,193.0,0.0,193.0,0.0,0.0,0.0,179.0,193.0,0.0,179.0,1744418661.7077405,0.0,2025-04-11 20:44:21.707,RIGHT,17
214.0,7856.258196384692,-11761.979670760593,-24423.997035503035,-24235.482422766974,16805.449641400533,3877.2230001953844,23792.873179062986,40139.28504458488,0.0,0.0,0.0,193.0,0.0,193.0,0.0,0.0,0.0,178.0,193.0,0.0,178.0,1744418661.707772,0.0,2025-04-11 20:44:21.707,RIGHT,17
215.0,7844.054143912094,-11745.03704846347,-24434.50235539703,-24190.197788500525,16709.851230365184,4112.229241398482,23507.37434713535,40257.97280764256,0.0,0.0,0.0,193.0,0.0,192.0,0.0,0.0,0.0,178.0,192.0,0.0,178.0,1744418661.7078035,0.0,2025-04-11 20:44:21.707,RIGHT,17
216.0,7847.429257324846,-11753.061324722925,-24391.050564175912,-24183.559320397297,16758.73449548894,4146.785038326388,23374.560281581915,40340.51779991601,0.0,0.0,0.0,193.0,0.0,193.0,0.0,0.0,0.0,178.0,193.0,0.0,178.0,1744418661.7078345,0.0,2025-04-11 20:44:21.707,RIGHT,17
217.0,7808.06783533905,-11822.57524997893,-24391.07291592037,-24239.483385024476,16924.40562539168,4028.6560688800896,23752.125948920962,40345.256369740535,0.0,0.0,0.0,193.0,0.0,193.0,0.0,0.0,0.0,179.0,193.0,0.0,179.0,1744418661.7078795,0.0,2025-04-11 20:44:21.707,RIGHT,17
218.0,7779.859933836453,-11850.269061359057,-24421.73950931305,-24240.243344335955,16837.814967371818,3892.5115934028145,23772.957774753308,40245.567589469865,0.0,0.0,0.0,193.0,0.0,192.0,0.0,0.0,0.0,178.0,192.0,0.0,178.0,1744418661.7079113,0.0,2025-04-11 20:44:21.707,RIGHT,17
219.0,7763.386698172892,-11845.083456645425,-24436.35755018682,-24201.21719851699,16724.22340204995,4133.15047420865,23516.002120495097,40333.856980068325,0.0,0.0,0.0,193.0,0.0,192.0,0.0,0.0,0.0,179.0,192.0,0.0,179.0,1744418661.7079587,0.0,2025-04-11 20:44:21.707,RIGHT,17
220.0,7785.313759483548,-11826.687970958707,-24384.814427472884,-24159.59825034121,16747.491568027923,4239.388315604725,23294.22811200954,40411.886919961806,0.0,0.0,0.0,193.0,0.0,193.0,0.0,0.0,0.0,179.0,193.0,0.0,179.0,1744418661.70799,0.0,2025-04-11 20:44:21.707,RIGHT,17
221.0,7763.565512128534,-11870.095058690913,-24358.752293437996,-24190.26484373389,16951.764160604973,4136.726753321499,23623.53636306958,40444.27459767754,0.0,0.0,0.0,193.0,0.0,192.0,0.0,0.0,0.0,178.0,192.0,0.0,178.0,1744418661.708021,0.0,2025-04-11 20:44:21.708,RIGHT,17
222.0,7737.749247282654,-11898.146497982323,-24402.91934048168,-24224.463012750508,16838.753740638942,3913.455177957437,23722.956922406785,40326.659718353716,0.0,0.0,0.0,193.0,0.0,192.0,0.0,0.0,0.0,178.0,192.0,0.0,178.0,1744418661.708052,0.0,2025-04-11 20:44:21.708,RIGHT,17
223.0,7734.396485614358,-11882.67909081925,-24422.231247691067,-24195.22693100297,16658.330459395704,4035.7639236168775,23484.016774179552,40372.793718909474,0.0,0.0,0.0,193.0,0.0,193.0,0.0,0.0,0.0,179.0,193.0,0.0,179.0,1744418661.7080836,0.0,2025-04-11 20:44:21.708,RIGHT,17
224.0,7738.732724038688,-11877.582893083441,-24404.059279448902,-24178.083143005748,16674.24490144788,4172.10956479425,23221.45083206306,40466.268714221565,0.0,0.0,0.0,193.0,0.0,192.0,0.0,0.0,0.0,178.0,192.0,0.0,178.0,1744418661.7081144,0.0,2025-04-11 20:44:21.708,RIGHT,17
225.0,7705.965066667208,-11931.294135009544,-24382.02045941597,-24209.152067798623,16941.236488966526,4145.756858081443,23459.74277970109,40489.67099066627,0.0,0.0,0.0,193.0,0.0,193.0,0.0,0.0,0.0,178.0,193.0,0.0,178.0,1744418661.7081451,0.0,2025-04-11 20:44:21.708,RIGHT,17
226.0,7682.585141966956,-11960.999603390646,-24399.141895668734,-24241.249172836444,16935.78266331943,3943.138294594085,23650.000828504664,40386.11535860483,0.0,0.0,0.0,193.0,0.0,193.0,0.0,0.0,0.0,179.0,193.0,0.0,179.0,1744418661.7081764,0.0,2025-04-11 20:44:21.708,RIGHT,17
227.0,7691.168211837794,-11937.97730660168,-24413.156439442213,-24206.291044508343,16794.027899983874,4052.0136418358857,23448.00811386205,40391.14450110728,0.0,0.0,0.0,193.0,0.0,192.0,0.0,0.0,0.0,177.0,192.0,0.0,177.0,1744418661.7082076,0.0,2025-04-11 20:44:21.708,RIGHT,17
228.0,7707.149709123339,-11915.35734121291,-24401.60058755882,-24199.02672756037,16697.87069533714,4192.494355737491,23158.731837121468,40494.05193257951,0.0,0.0,0.0,193.0,0.0,193.0,0.0,0.0,0.0,179.0,193.0,0.0,179.0,1744418661.7082388,0.0,2025-04-11 20:44:21.708,RIGHT,17
229.0,7693.783365939065,-11942.917042126304,-24362.596793484307,-24214.471782978988,16835.736255137475,4113.48093908798,23309.404946494695,40522.99744164913,0.0,0.0,0.0,193.0,0.0,193.0,0.0,0.0,0.0,178.0,193.0,0.0,178.0,1744418662.1842647,0.0,2025-04-11 20:44:22.184,RIGHT,17
230.0,7680.305264032515,-11966.699298226751,-24388.927148452658,-24240.46686178051,16823.800423598343,3924.1616635515293,23595.641385989355,40454.48934489362,0.0,0.0,0.0,193.0,0.0,192.0,0.0,0.0,0.0,178.0,192.0,0.0,178.0,1744418662.1844337,0.0,2025-04-11 20:44:22.184,RIGHT,17
231.0,7676.639577941844,-11943.40878050432,-24407.88142775076,-24199.74198338294,16717.02614033534,4005.03027499083,23441.727273670112,40423.77804801203,0.0,0.0,0.0,193.0,0.0,193.0,0.0,0.0,0.0,179.0,193.0,0.0,179.0,1744418662.184471,0.0,2025-04-11 20:44:22.184,RIGHT,17
232.0,7671.968063350686,-11934.333972255467,-24403.34402362633,-24177.367887183176,16733.40996902108,4254.006356478495,23149.791139339344,40541.43763082477,0.0,0.0,0.0,193.0,0.0,192.0,0.0,0.0,0.0,178.0,192.0,0.0,178.0,1744418662.1846335,0.0,2025-04-11 20:44:22.184,RIGHT,17
233.0,7674.426755240769,-11947.476797995187,-24373.549148267408,-24190.64482338963,16856.724543181008,4208.0735216228395,23196.729802695492,40601.675582131815,0.0,0.0,0.0,193.0,0.0,192.0,0.0,0.0,0.0,178.0,192.0,0.0,178.0,1744418662.1846704,0.0,2025-04-11 20:44:22.184,RIGHT,17
234.0,7650.353926462403,-11988.335786859489,-24402.673471292674,-24237.427024534587,16894.320177354835,4012.249888449894,23556.235260514648,40577.625105097904,0.0,0.0,0.0,193.0,0.0,193.0,0.0,0.0,0.0,178.0,193.0,0.0,178.0,1744418662.184706,0.0,2025-04-11 20:44:22.184,RIGHT,17
235.0,7650.666850884778,-11984.312472857533,-24425.02521574798,-24217.22104754699,16796.441888385045,3959.2986058352717,23450.600916218867,40513.27443281108,0.0,0.0,0.0,193.0,0.0,193.0,0.0,0.0,0.0,179.0,193.0,0.0,179.0,1744418662.1847413,0.0,2025-04-11 20:44:22.184,RIGHT,17
236.0,7668.704708660211,-11951.522463741598,-24426.478079137574,-24181.994698285427,16687.3877271876,4204.11726285425,23157.368380709697,40623.624995186925,0.0,0.0,0.0,193.0,0.0,192.0,0.0,0.0,0.0,178.0,192.0,0.0,178.0,1744418662.1847763,0.0,2025-04-11 20:44:22.184,RIGHT,17
237.0,7677.444240742236,-11951.477760252686,-24385.239110617535,-24183.380506441656,16764.098914158218,4196.025931361429,23094.89525495711,40684.68996103883,0.0,0.0,0.0,193.0,0.0,193.0,0.0,0.0,0.0,179.0,193.0,0.0,179.0,1744418662.1848118,0.0,2025-04-11 20:44:22.184,RIGHT,17
238.0,7644.386010692837,-11999.779880020606,-24392.324613609864,-24236.912934412114,16867.274566563912,4000.425815633037,23484.620271279844,40692.62483032046,0.0,0.0,0.0,193.0,0.0,193.0,0.0,0.0,0.0,179.0,193.0,0.0,179.0,1744418662.1848469,0.0,2025-04-11 20:44:22.184,RIGHT,17
239.0,7656.724173632166,-11975.774106475605,-24417.559733099908,-24213.823582389785,16786.60712082471,3891.729282346879,23450.31034354095,40609.856320602456,0.0,0.0,0.0,193.0,0.0,192.0,0.0,0.0,0.0,178.0,192.0,0.0,178.0,1744418662.184882,0.0,2025-04-11 20:44:22.184,RIGHT,17
240.0,7677.913627375798,-11932.367018743398,-24408.797849273426,-24162.369866653666,16758.287460599837,4183.955989355563,23168.54425293735,40713.09902824152,0.0,0.0,0.0,193.0,0.0,192.0,0.0,0.0,0.0,178.0,192.0,0.0,178.0,1744418662.1849167,0.0,2025-04-11 20:44:22.184,RIGHT,17
241.0,7682.607493711412,-11935.116283311401,-24378.06420064738,-24155.194956683514,16800.979292509473,4256.84502802432,23015.32304469622,40792.805348969145,0.0,0.0,0.0,193.0,0.0,193.0,0.0,0.0,0.0,179.0,193.0,0.0,179.0,1744418662.1849518,0.0,2025-04-11 20:44:22.184,RIGHT,17
242.0,7655.22660675366,-11982.99371993467,-24376.946613424614,-24210.64963467713,16928.96538126056,4081.160316605606,23395.123886480797,40810.39617185547,0.0,0.0,0.0,193.0,0.0,193.0,0.0,0.0,0.0,178.0,193.0,0.0,178.0,1744418662.1849868,0.0,2025-04-11 20:44:22.184,RIGHT,17
243.0,7647.671717127767,-11984.692452513273,-24415.816297032394,-24228.64278896365,16816.84903107274,3892.8021660807335,23461.687381468702,40713.76958057518,0.0,0.0,0.0,193.0,0.0,192.0,0.0,0.0,0.0,178.0,192.0,0.0,178.0,1744418662.1850212,0.0,2025-04-11 20:44:22.185,RIGHT,17
244.0,7645.548301404513,-11965.447600537253,-24437.3186751984,-24194.623433902674,16699.949407571487,4097.879421458176,23228.245762377475,40787.73150297779,0.0,0.0,0.0,193.0,0.0,193.0,0.0,0.0,0.0,179.0,193.0,0.0,179.0,1744418662.1850753,0.0,2025-04-11 20:44:22.185,RIGHT,17
245.0,7671.990415095141,-11942.872338637393,-24394.06804967738,-24175.244471459922,16723.41873924956,4217.8188822053535,23020.575704643215,40876.17735578744,0.0,0.0,0.0,193.0,0.0,192.0,0.0,0.0,0.0,178.0,192.0,0.0,178.0,1744418662.1851103,0.0,2025-04-11 20:44:22.185,RIGHT,17
246.0,7654.220778253171,-11969.783838961583,-24373.16916861167,-24215.209390546013,16902.05388093637,4103.646171527645,23336.294095074427,40900.272536310265,0.0,0.0,0.0,193.0,0.0,192.0,0.0,0.0,0.0,178.0,192.0,0.0,178.0,1744418662.1851451,0.0,2025-04-11 20:44:22.185,RIGHT,17
247.0,7660.099287044917,-11966.341670315465,-24394.000994444013,-24226.429966262578,16830.23772600147,3880.0840234856637,23468.571718760937,40789.45258730085,0.0,0.0,0.0,193.0,0.0,193.0,0.0,0.0,0.0,179.0,193.0,0.0,179.0,1744418662.18518,0.0,2025-04-11 20:44:22.185,RIGHT,17
248.0,7657.886464343842,-11956.484551010675,-24430.814317561904,-24195.22693100297,16686.761878342855,4066.609330965201,23267.003687262975,40834.37959365602,0.0,0.0,0.0,193.0,0.0,192.0,0.0,0.0,0.0,178.0,192.0,0.0,178.0,1744418662.18523,0.0,2025-04-11 20:44:22.185,RIGHT,17
249.0,7677.511295975602,-11936.74796065664,-24411.03302371896,-24177.92668079456,16678.44702940548,4230.31350735587,23008.058727748245,40946.22772291037,0.0,0.0,0.0,193.0,0.0,192.0,0.0,0.0,0.0,178.0,192.0,0.0,178.0,1744418662.1852648,0.0,2025-04-11 20:44:22.185,RIGHT,17
250.0,7668.8835226158535,-11971.974309918203,-24371.35867731079,-24210.448468977032,16855.875176891706,4137.397305655159,23236.94059097059,40988.897203075554,0.0,0.0,0.0,193.0,0.0,192.0,0.0,0.0,0.0,178.0,192.0,0.0,178.0,1744418662.1852992,0.0,2025-04-11 20:44:22.185,RIGHT,17
251.0,7654.8019236090095,-11997.298836386066,-24390.670584520172,-24235.862402422717,16875.634118990198,3925.838044385677,23466.49300652659,40898.640858965024,0.0,0.0,0.0,193.0,0.0,193.0,0.0,0.0,0.0,179.0,193.0,0.0,179.0,1744418662.1853342,0.0,2025-04-11 20:44:22.185,RIGHT,17
252.0,7649.504560173102,-11981.250283867155,-24412.84351501984,-24201.440715961544,16797.313606418804,4039.966051574475,23298.60905392278,40917.393972563026,0.0,0.0,0.0,193.0,0.0,192.0,0.0,0.0,0.0,178.0,192.0,0.0,178.0,1744418662.1853685,0.0,2025-04-11 20:44:22.185,RIGHT,17
253.0,7673.599740695923,-11948.661440451318,-24396.01265144499,-24170.572956868764,16741.45659702499,4245.445638352113,23018.586399386695,41040.73089846741,0.0,0.0,0.0,193.0,0.0,193.0,0.0,0.0,0.0,178.0,193.0,0.0,178.0,1744418662.1854036,0.0,2025-04-11 20:44:22.185,RIGHT,17
254.0,7674.672624429778,-11967.74983021615,-24354.39370326921,-24184.721611108973,16891.235636620004,4195.109509838761,23131.999150752923,41080.58405883123,0.0,0.0,0.0,193.0,0.0,193.0,0.0,0.0,0.0,179.0,193.0,0.0,179.0,1744418662.1854384,0.0,2025-04-11 20:44:22.185,RIGHT,17
255.0,7661.172170778772,-11997.298836386066,-24379.673526248163,-24231.906143654127,16893.24729362098,3966.7640884833445,23395.43681090317,41012.97003185392,0.0,0.0,0.0,193.0,0.0,192.0,0.0,0.0,0.0,178.0,192.0,0.0,178.0,1744418662.1854727,0.0,2025-04-11 20:44:22.185,RIGHT,17
0.0,7663.697917902222,-11977.450487309754,-24412.39648013073,-24205.21816077449,16724.73749217242,3971.4132513300483,23216.578151771802,40982.14697625005,0.0,0.0,0.0,193.0,0.0,192.0,0.0,0.0,0.0,178.0,192.0,0.0,178.0,1744418662.1855073,0.0,2025-04-11 20:44:22.185,RIGHT,17
1.0,7665.553112692012,-11958.339745800466,-24409.35664288481,-24186.867378576684,16661.593814086176,4225.731399742532,22908.30289224421,41116.480960426445,0.0,0.0,0.0,193.0,0.0,192.0,0.0,0.0,0.0,178.0,192.0,0.0,178.0,1744418662.1855416,0.0,2025-04-11 20:44:22.185,RIGHT,17
2.0,7661.529798690057,-11973.091897140968,-24361.188633583624,-24197.238588003947,16874.985918400995,4179.619750931233,22898.132848517045,41158.56929523579,0.0,0.0,0.0,193.0,0.0,193.0,0.0,0.0,0.0,179.0,193.0,0.0,179.0,1744418662.185577,0.0,2025-04-11 20:44:22.185,RIGHT,17
3.0,7650.063353784484,-11992.783784006095,-24361.769778939462,-24219.545628970343,16957.530910674443,3955.744678466878,23241.70151253957,41136.44106822504,0.0,0.0,0.0,193.0,0.0,192.0,0.0,0.0,0.0,178.0,192.0,0.0,178.0,1744418662.1856241,0.0,2025-04-11 20:44:22.185,RIGHT,17
4.0,7657.350022476915,-11975.148257630857,-24391.58700604284,-24184.967480297983,16805.784917567362,3930.9565938659425,23139.397578167627,41080.137023942116,0.0,0.0,0.0,193.0,0.0,192.0,0.0,0.0,0.0,178.0,192.0,0.0,178.0,1744418662.1856585,0.0,2025-04-11 20:44:22.185,RIGHT,17
5.0,7662.490923701635,-11951.723629441694,-24408.820201017883,-24172.6069656142,16665.415962388037,4184.201858544571,22847.28262988122,41208.61485107122,0.0,0.0,0.0,193.0,0.0,193.0,0.0,0.0,0.0,179.0,193.0,0.0,179.0,1744418662.1856923,0.0,2025-04-11 20:44:22.185,RIGHT,17
6.0,7676.058432586006,-11942.447655492742,-24359.82517717185,-24169.365962668177,16789.89282725964,4191.913210381653,22732.64053256995,41262.057872063866,0.0,0.0,0.0,193.0,0.0,192.0,0.0,0.0,0.0,178.0,192.0,0.0,178.0,1744418662.185727,0.0,2025-04-11 20:44:22.185,RIGHT,17
7.0,7654.176074764261,-11991.666196783328,-24363.647325473707,-24208.436811976055,16920.136442200714,4056.483990726947,23102.42779283855,41249.76441261345,0.0,0.0,0.0,193.0,0.0,193.0,0.0,0.0,0.0,178.0,193.0,0.0,178.0,1744418662.185775,0.0,2025-04-11 20:44:22.185,RIGHT,17
8.0,7655.539531176035,-11993.65550203985,-24385.082648406347,-24208.682681165064,16839.111368550228,3926.0615618302304,23083.495865284905,41155.99884462343,0.0,0.0,0.0,193.0,0.0,193.0,0.0,0.0,0.0,179.0,193.0,0.0,179.0,1744418662.1858096,0.0,2025-04-11 20:44:22.185,RIGHT,17
9.0,7657.819409110476,-11973.94126343027,-24394.760953755493,-24167.533119622844,16757.974536177462,4171.34960548277,22808.077670106613,41258.52629643992,0.0,0.0,0.0,193.0,0.0,192.0,0.0,0.0,0.0,178.0,192.0,0.0,178.0,1744418662.1858447,0.0,2025-04-11 20:44:22.185,RIGHT,17
10.0,7672.683319173256,-11956.037516121569,-24352.359694523777,-24151.752788037396,16811.082281003273,4251.949995988607,22624.279275450623,41341.741841047035,0.0,0.0,0.0,193.0,0.0,192.0,0.0,0.0,0.0,178.0,192.0,0.0,178.0,1744418662.1858792,0.0,2025-04-11 20:44:22.185,RIGHT,17
11.0,7658.668775399778,-11986.815868236527,-24332.377234980733,-24193.59525365773,16964.348192733312,4101.81332848231,22926.20663955291,41352.5600853634,0.0,0.0,0.0,193.0,0.0,193.0,0.0,0.0,0.0,179.0,193.0,0.0,179.0,1744418662.1859138,0.0,2025-04-11 20:44:22.185,RIGHT,17
12.0,7648.342269461426,-11993.856667739949,-24370.643421488217,-24214.02474808988,16848.43204598809,3905.6991226314453,22936.22022106889,41241.74013635399,0.0,0.0,0.0,193.0,0.0,192.0,0.0,0.0,0.0,178.0,192.0,0.0,178.0,1744418662.1859484,0.0,2025-04-11 20:44:22.185,RIGHT,17
13.0,7653.192598008228,-11975.08120239749,-24388.524817052465,-24182.26291921889,16697.624826148134,4075.348863047226,22640.81956634755,41307.45426505259,0.0,0.0,0.0,193.0,0.0,193.0,0.0,0.0,0.0,179.0,193.0,0.0,179.0,1744418662.185982,0.0,2025-04-11 20:44:22.185,RIGHT,17
14.0,7674.113830818395,-11957.289213811066,-24354.192537569113,-24163.06277073178,16690.516971411344,4195.02010286094,22363.456769401644,41397.867071374305,0.0,0.0,0.0,193.0,0.0,193.0,0.0,0.0,0.0,179.0,193.0,0.0,179.0,1744418662.1860228,0.0,2025-04-11 20:44:22.186,RIGHT,17
15.0,7651.359754962892,-11995.600103807463,-24330.47733670203,-24193.818771102284,16924.763253302965,4113.592697810256,22616.09853697998,41422.543397252964,0.0,0.0,0.0,193.0,0.0,193.0,0.0,0.0,0.0,179.0,193.0,0.0,179.0,1744418662.1860578,0.0,2025-04-11 20:44:22.186,RIGHT,17
16.0,7639.490978657124,-12011.939229004292,-24368.81057844288,-24217.869248136194,16906.188953660603,3911.197651767451,22741.000084996234,41325.89445422822,0.0,0.0,0.0,193.0,0.0,193.0,0.0,0.0,0.0,179.0,193.0,0.0,179.0,1744418662.1860929,0.0,2025-04-11 20:44:22.186,RIGHT,17
17.0,7629.164472718772,-11998.170554419823,-24406.853247505816,-24194.042288546836,16752.386600063634,4087.351749819726,22509.793640350537,41369.88268731626,0.0,0.0,0.0,193.0,0.0,192.0,0.0,0.0,0.0,179.0,192.0,0.0,179.0,1744418662.1861267,0.0,2025-04-11 20:44:22.186,RIGHT,17
18.0,7660.389859722836,-11965.157027859334,-24372.20804360009,-24148.467081602466,16738.752035945898,4243.635147051233,22180.261871845945,41459.28966513749,0.0,0.0,0.0,193.0,0.0,193.0,0.0,0.0,0.0,179.0,193.0,0.0,179.0,1744418662.1861746,0.0,2025-04-11 20:44:22.186,RIGHT,17
19.0,7648.901063072809,-12004.317284145032,-24330.85731635777,-24172.003468513903,16911.62042756324,4170.679053149111,22359.142882721768,41497.421741178245,0.0,0.0,0.0,193.0,0.0,193.0,0.0,0.0,0.0,179.0,193.0,0.0,179.0,1744418662.1862097,0.0,2025-04-11 20:44:22.186,RIGHT,17
20.0,7624.492958127614,-12035.341505448998,-24355.28777304742,-24215.74583241294,16916.11312819876,3946.848684173666,22588.784705255595,41424.13037110929,0.0,0.0,0.0,193.0,0.0,192.0,0.0,0.0,0.0,179.0,192.0,0.0,179.0,1744418662.1862435,0.0,2025-04-11 20:44:22.186,RIGHT,17
21.0,7621.095492970407,-12018.957676763259,-24375.091418634824,-24186.3085849653,16794.854914528718,4027.6949438685115,22386.4343627017,41416.08374310538,0.0,0.0,0.0,193.0,0.0,193.0,0.0,0.0,0.0,179.0,193.0,0.0,179.0,1744418662.186278,0.0,2025-04-11 20:44:22.186,RIGHT,17
22.0,7648.185807250239,-11982.077298412001,-24352.4491015016,-24151.037532214825,16727.956143373984,4223.943260186107,22061.864681466184,41535.26324454108,0.0,0.0,0.0,193.0,0.0,192.0,0.0,0.0,0.0,178.0,192.0,0.0,178.0,1744418662.1863263,0.0,2025-04-11 20:44:22.186,RIGHT,17
23.0,7647.604661894401,-12002.819717266526,-24310.09254575879,-24160.78289279734,16895.236598877502,4163.213570501038,22144.946115606563,41590.09207368995,0.0,0.0,0.0,193.0,0.0,192.0,0.0,0.0,0.0,178.0,192.0,0.0,178.0,1744418662.1863613,0.0,2025-04-11 20:44:22.186,RIGHT,17
24.0,7612.646533566301,-12054.452246958286,-24355.44423525861,-24220.88673363766,16906.68069203862,3928.0285153422974,22457.06587518047,41547.93668364724,0.0,0.0,0.0,193.0,0.0,193.0,0.0,0.0,0.0,178.0,193.0,0.0,178.0,1744418662.186396,0.0,2025-04-11 20:44:22.186,RIGHT,17
25.0,7599.7942805044995,-12050.116008533956,-24397.845494490328,-24218.070413836293,16718.568410702756,3926.7768176528,22314.975835678084,41510.296345984505,0.0,0.0,0.0,193.0,0.0,192.0,0.0,0.0,0.0,178.0,192.0,0.0,178.0,1744418662.1864305,0.0,2025-04-11 20:44:22.186,RIGHT,17
26.0,7618.100359213396,-12014.24145868319,-24377.192482613624,-24174.126884237157,16681.39745967358,4182.145498054683,21991.054355031774,41627.91122530833,0.0,0.0,0.0,193.0,0.0,192.0,0.0,0.0,0.0,179.0,192.0,0.0,179.0,1744418662.1864655,0.0,2025-04-11 20:44:22.186,RIGHT,17
27.0,7628.404513407292,-12020.61170585295,-24325.761118621962,-24161.520500364364,16845.03458083088,4198.238754062504,21968.322630920724,41692.53011852862,0.0,0.0,0.0,193.0,0.0,193.0,0.0,0.0,0.0,179.0,193.0,0.0,179.0,1744418662.1864998,0.0,2025-04-11 20:44:22.186,RIGHT,17
28.0,7593.736957757111,-12073.808857656582,-24347.66582818816,-24217.489268480454,16949.171358248157,3989.1828881720176,22325.011768938515,41682.762406201655,0.0,0.0,0.0,193.0,0.0,193.0,0.0,0.0,0.0,178.0,193.0,0.0,178.0,1744418662.186535,0.0,2025-04-11 20:44:22.186,RIGHT,17
29.0,7598.430824092726,-12057.112104548467,-24373.14681686721,-24191.784762356852,16823.24162998696,3927.6261839421018,22230.77681431494,41604.039562230064,0.0,0.0,0.0,193.0,0.0,193.0,0.0,0.0,0.0,179.0,193.0,0.0,179.0,1744418662.1865692,0.0,2025-04-11 20:44:22.186,RIGHT,17
30.0,7611.663056810267,-12019.337656418998,-24384.2556338615,-24151.886898504126,16688.661776621553,4194.170736571638,21944.138043420084,41728.42702012385,0.0,0.0,0.0,193.0,0.0,193.0,0.0,0.0,0.0,179.0,193.0,0.0,179.0,1744418662.186604,0.0,2025-04-11 20:44:22.186,RIGHT,17
31.0,7619.821443536454,-12021.304609931065,-24333.53952569241,-24144.15319492259,16794.027899983874,4231.051114922895,21820.197620415405,41792.82239589959,0.0,0.0,0.0,193.0,0.0,192.0,0.0,0.0,0.0,178.0,192.0,0.0,178.0,1744418662.1866384,0.0,2025-04-11 20:44:22.186,RIGHT,17
32.0,7581.957588429164,-12090.215038086777,-24329.560915179365,-24192.79059085734,16974.875864371763,4102.550936049335,22202.859485490262,41808.13334085147,0.0,0.0,0.0,193.0,0.0,193.0,0.0,0.0,0.0,179.0,193.0,0.0,179.0,1744418662.1866732,0.0,2025-04-11 20:44:22.186,RIGHT,17
33.0,7579.856524450365,-12085.923503151358,-24363.043828373415,-24194.60108215822,16840.363066239723,3948.458009774448,22195.01402318645,41713.63016529443,0.0,0.0,0.0,193.0,0.0,192.0,0.0,0.0,0.0,178.0,192.0,0.0,178.0,1744418662.18672,0.0,2025-04-11 20:44:22.186,RIGHT,17
34.0,7588.886629210309,-12061.381287739432,-24373.21387210058,-24158.033628229336,16715.148593801092,4181.430242232113,21924.379101321592,41812.84955893154,0.0,0.0,0.0,193.0,0.0,192.0,0.0,0.0,0.0,178.0,192.0,0.0,178.0,1744418662.1867545,0.0,2025-04-11 20:44:22.186,RIGHT,17
35.0,7612.691237055211,-12043.231671241721,-24323.972979065536,-24143.080311188736,16766.535254303846,4246.250301152504,21722.43109016789,41890.11953951354,0.0,0.0,0.0,193.0,0.0,192.0,0.0,0.0,0.0,178.0,192.0,0.0,178.0,1744418662.186789,0.0,2025-04-11 20:44:22.186,RIGHT,17
36.0,7575.83321044841,-12096.54058176763,-24326.76694712245,-24199.3620037272,16966.248091012014,4093.4984795449354,22043.379788801645,41893.3381907151,0.0,0.0,0.0,193.0,0.0,193.0,0.0,0.0,0.0,179.0,193.0,0.0,179.0,1744418662.1868236,0.0,2025-04-11 20:44:22.186,RIGHT,17
37.0,7576.21319010415,-12088.091622363523,-24350.48214798953,-24208.861495120706,16861.127836838703,3902.9275063189875,22103.438926153056,41779.590163182045,0.0,0.0,0.0,193.0,0.0,192.0,0.0,0.0,0.0,178.0,192.0,0.0,178.0,1744418662.1868715,0.0,2025-04-11 20:44:22.186,RIGHT,17
38.0,7574.40269880327,-12067.550369209095,-24359.847528916303,-24165.96849751097,16747.938602917027,4116.029037955885,21875.652298409022,41856.077832708106,0.0,0.0,0.0,193.0,0.0,192.0,0.0,0.0,0.0,179.0,192.0,0.0,179.0,1744418662.1869063,0.0,2025-04-11 20:44:22.186,RIGHT,17
39.0,7574.290940080994,-12068.355032009487,-24343.75427290848,-24150.523442092355,16767.16110314859,4275.642845111232,21644.222336318773,41970.988150952835,0.0,0.0,0.0,193.0,0.0,193.0,0.0,0.0,0.0,179.0,193.0,0.0,179.0,1744418662.1869411,0.0,2025-04-11 20:44:22.186,RIGHT,17
40.0,7552.341527025882,-12116.500689566219,-24330.25381925748,-24193.841122846738,16942.823462822853,4129.305974162337,21901.066231854707,41990.54592735123,0.0,0.0,0.0,193.0,0.0,192.0,0.0,0.0,0.0,178.0,192.0,0.0,178.0,1744418662.186976,0.0,2025-04-11 20:44:22.186,RIGHT,17
41.0,7555.582529971902,-12129.308239139109,-24346.928220621136,-24215.41055624611,16888.598130774277,3855.7653255182895,22067.385562346648,41894.56753666014,0.0,0.0,0.0,193.0,0.0,193.0,0.0,0.0,0.0,179.0,193.0,0.0,179.0,1744418662.1870108,0.0,2025-04-11 20:44:22.187,RIGHT,17
42.0,7554.196721815672,-12115.181936643356,-24368.29648832041,-24171.243509202424,16752.274841341357,4044.5705109322685,21866.018696548785,41923.244824796304,0.0,0.0,0.0,193.0,0.0,193.0,0.0,0.0,0.0,179.0,193.0,0.0,179.0,1744418662.1870456,0.0,2025-04-11 20:44:22.187,RIGHT,17
43.0,7578.1354401273065,-12082.05665136059,-24351.353866023288,-24143.527346077844,16682.515046896344,4290.394996451735,21585.593710612502,42030.4214394595,0.0,0.0,0.0,193.0,0.0,192.0,0.0,0.0,0.0,178.0,192.0,0.0,178.0,1744418662.1870806,0.0,2025-04-11 20:44:22.187,RIGHT,17
44.0,7568.166562100239,-12117.64062853344,-24314.76406034995,-24170.997640013415,16883.233712105004,4220.031704906429,21779.517445506746,42083.551536029765,0.0,0.0,0.0,193.0,0.0,193.0,0.0,0.0,0.0,179.0,193.0,0.0,179.0,1744418662.1871147,0.0,2025-04-11 20:44:22.187,RIGHT,17
45.0,7549.547558968969,-12159.036059264668,-24346.168261309656,-24218.74096616995,16898.499953567978,3939.293794547772,22035.48962300892,42002.45940714591,0.0,0.0,0.0,193.0,0.0,193.0,0.0,0.0,0.0,178.0,193.0,0.0,178.0,1744418662.1871493,0.0,2025-04-11 20:44:22.187,RIGHT,17
46.0,7550.106352580351,-12148.35192541503,-24378.421828558665,-24183.514616908386,16722.97170436045,3999.576449343735,21869.572623917178,41984.82388077067,0.0,0.0,0.0,193.0,0.0,192.0,0.0,0.0,0.0,178.0,192.0,0.0,178.0,1744418662.187184,0.0,2025-04-11 20:44:22.187,RIGHT,17
47.0,7562.2880533084935,-12117.64062853344,-24361.322744050354,-24151.037532214825,16733.4993759989,4243.344574373314,21576.429495385826,42103.86927173964,0.0,0.0,0.0,193.0,0.0,193.0,0.0,0.0,0.0,179.0,193.0,0.0,179.0,1744418662.1872184,0.0,2025-04-11 20:44:22.187,RIGHT,17
48.0,7559.091753851385,-12131.54341358464,-24318.183877251613,-24162.5039771204,16928.16071846017,4219.428207806135,21655.0629323796,42155.03241479783,0.0,0.0,0.0,193.0,0.0,192.0,0.0,0.0,0.0,178.0,192.0,0.0,178.0,1744418662.1872528,0.0,2025-04-11 20:44:22.187,RIGHT,17
49.0,7530.280355248494,-12175.59870190605,-24336.601714682783,-24219.769146414896,16967.61154742379,3974.229571131417,21988.77447709733,42111.75943753236,0.0,0.0,0.0,193.0,0.0,193.0,0.0,0.0,0.0,179.0,193.0,0.0,179.0,1744418662.1872995,0.0,2025-04-11 20:44:22.187,RIGHT,17
50.0,7526.480558691092,-12168.088515769066,-24364.384933040732,-24199.87609384967,16818.81598458481,3948.5250650078137,21871.584280918156,42069.76050970084,0.0,0.0,0.0,193.0,0.0,192.0,0.0,0.0,0.0,179.0,192.0,0.0,179.0,1744418662.1873345,0.0,2025-04-11 20:44:22.187,RIGHT,17
51.0,7539.489273964081,-12136.237279920255,-24365.52487200795,-24156.4019508841,16712.175811788537,4241.712897028076,21592.500399649194,42192.963325138495,0.0,0.0,0.0,193.0,0.0,193.0,0.0,0.0,0.0,178.0,193.0,0.0,178.0,1744418662.1873693,0.0,2025-04-11 20:44:22.187,RIGHT,17
52.0,7527.620497658312,-12147.681373081372,-24338.881592617225,-24164.605041099196,16840.452473217545,4271.440717153635,21573.389658139906,42246.65221532014,0.0,0.0,0.0,193.0,0.0,193.0,0.0,0.0,0.0,179.0,193.0,0.0,179.0,1744418662.1874049,0.0,2025-04-11 20:44:22.187,RIGHT,17
53.0,7504.7099595916225,-12186.305187500142,-24343.53075546393,-24216.75166091343,16947.27145996946,4050.5607784462904,21931.174031636005,42208.00604915692,0.0,0.0,0.0,193.0,0.0,192.0,0.0,0.0,0.0,178.0,192.0,0.0,178.0,1744418662.1874523,0.0,2025-04-11 20:44:22.187,RIGHT,17
54.0,7514.187099240673,-12169.608434392028,-24363.334401051332,-24190.93539606755,16836.362103982225,3935.2704805458166,21858.687324367445,42107.06557119675,0.0,0.0,0.0,193.0,0.0,193.0,0.0,0.0,0.0,179.0,193.0,0.0,179.0,1744418662.1874878,0.0,2025-04-11 20:44:22.187,RIGHT,17
55.0,7531.196776771161,-12143.188672445855,-24372.431561044643,-24161.58755559773,16713.583971689222,4159.503180921457,21580.27399543214,42214.0633719043,0.0,0.0,0.0,193.0,0.0,193.0,0.0,0.0,0.0,179.0,193.0,0.0,179.0,1744418662.187523,0.0,2025-04-11 20:44:22.187,RIGHT,17
56.0,7539.10929430834,-12145.915585269402,-24335.95351409358,-24154.658514816587,16783.209655667502,4213.4155885476575,21484.474418696693,42300.206995035056,0.0,0.0,0.0,193.0,0.0,192.0,0.0,0.0,0.0,178.0,192.0,0.0,178.0,1744418662.1875577,0.0,2025-04-11 20:44:22.187,RIGHT,17
57.0,7493.131755963774,-12202.979588863802,-24344.313066519866,-24222.004320860426,16954.669887384163,4078.4781072709693,21878.692135654943,42317.462541754554,0.0,0.0,0.0,193.0,0.0,193.0,0.0,0.0,0.0,179.0,193.0,0.0,179.0,1744418662.1875925,0.0,2025-04-11 20:44:22.187,RIGHT,17
58.0,7499.412596155715,-12194.08359457059,-24360.07104636086,-24224.50771623942,16862.62540371721,3899.3512272061384,21871.606632662613,42202.194595598536,0.0,0.0,0.0,193.0,0.0,193.0,0.0,0.0,0.0,179.0,193.0,0.0,179.0,1744418662.1876273,0.0,2025-04-11 20:44:22.187,RIGHT,17
59.0,7511.035503272475,-12171.843608837558,-24366.910680164183,-24173.009297014392,16767.474027570966,4127.763703794921,21608.03486204563,42279.017541291425,0.0,0.0,0.0,193.0,0.0,192.0,0.0,0.0,0.0,178.0,192.0,0.0,178.0,1744418662.1876621,0.0,2025-04-11 20:44:22.187,RIGHT,17
60.0,7522.233727244584,-12157.985527275268,-24336.489955960507,-24148.422378113555,16787.27767315837,4269.22789445256,21433.84771750542,42369.13977493522,0.0,0.0,0.0,193.0,0.0,193.0,0.0,0.0,0.0,179.0,193.0,0.0,179.0,1744418662.187697,0.0,2025-04-11 20:44:22.187,RIGHT,17
61.0,7499.323189177894,-12194.932960859891,-24321.894266831194,-24183.69343086403,16952.390009449722,4164.711137379544,21778.15398909497,42390.91037403469,0.0,0.0,0.0,193.0,0.0,192.0,0.0,0.0,0.0,178.0,192.0,0.0,178.0,1744418662.1877315,0.0,2025-04-11 20:44:22.187,RIGHT,17
62.0,7499.0102647555195,-12199.336254517586,-24345.274191531444,-24198.155009526614,16894.43193607711,3936.8351026576884,21874.80293211972,42268.55692488634,0.0,0.0,0.0,193.0,0.0,193.0,0.0,0.0,0.0,179.0,193.0,0.0,179.0,1744418662.1877651,0.0,2025-04-11 20:44:22.187,RIGHT,17
63.0,7489.644883828746,-12195.424699237908,-24367.38006679774,-24169.723590579462,16725.20687880598,4098.058235413818,21655.24174633524,42322.737553446,0.0,0.0,0.0,193.0,0.0,193.0,0.0,0.0,0.0,179.0,193.0,0.0,179.0,1744418662.1877997,0.0,2025-04-11 20:44:22.187,RIGHT,17
64.0,7485.085127959863,-12195.357644004542,-24342.748444407993,-24161.67696257555,16757.415742566078,4241.6011383058,21422.068348177476,42426.06966806289,0.0,0.0,0.0,193.0,0.0,192.0,0.0,0.0,0.0,178.0,192.0,0.0,178.0,1744418662.187846,0.0,2025-04-11 20:44:22.187,RIGHT,17
65.0,7468.500133574025,-12230.740455477293,-24320.91079007516,-24188.432000688554,16955.720419373563,4144.1475324806615,21669.09982789753,42447.95202588463,0.0,0.0,0.0,193.0,0.0,193.0,0.0,0.0,0.0,179.0,193.0,0.0,179.0,1744418662.1878812,0.0,2025-04-11 20:44:22.187,RIGHT,17
66.0,7465.102668416819,-12241.826920727126,-24346.39177875421,-24207.095707308737,16899.39402334619,3929.391971754071,21864.677591881467,42348.352652591784,0.0,0.0,0.0,193.0,0.0,193.0,0.0,0.0,0.0,179.0,193.0,0.0,179.0,1744418662.1879148,0.0,2025-04-11 20:44:22.187,RIGHT,17
67.0,7452.8762641997655,-12230.114606632544,-24383.83095071685,-24183.82754133076,16744.004695892894,4021.8164350767656,21689.35050837404,42379.600391340304,0.0,0.0,0.0,193.0,0.0,192.0,0.0,0.0,0.0,178.0,192.0,0.0,178.0,1744418662.1879497,0.0,2025-04-11 20:44:22.187,RIGHT,17
68.0,7476.4126511112045,-12195.715271915828,-24366.620107486262,-24150.97047698146,16653.681296549,4225.418475320158,21414.468755062673,42492.07436943941,0.0,0.0,0.0,193.0,0.0,193.0,0.0,0.0,0.0,179.0,193.0,0.0,179.0,1744418662.1880062,0.0,2025-04-11 20:44:22.188,RIGHT,17
69.0,7463.04630792693,-12226.538327519695,-24328.465679701054,-24175.64680286012,16900.57866580232,4180.871448620731,21577.50237911968,42534.90031181578,0.0,0.0,0.0,193.0,0.0,193.0,0.0,0.0,0.0,179.0,193.0,0.0,179.0,1744418662.1880417,0.0,2025-04-11 20:44:22.188,RIGHT,17
70.0,7449.90348218721,-12240.307002104164,-24347.91169737717,-24214.09180332325,16977.915701617683,3976.5094490658585,21851.93709754194,42451.97533988659,0.0,0.0,0.0,193.0,0.0,192.0,0.0,0.0,0.0,178.0,192.0,0.0,178.0,1744418662.1880767,0.0,2025-04-11 20:44:22.188,RIGHT,17
71.0,7448.450618797615,-12224.951353663368,-24373.16916861167,-24175.624451115662,16861.23959556098,4054.002947092408,21703.00742423623,42428.10367680832,0.0,0.0,0.0,193.0,0.0,193.0,0.0,0.0,0.0,179.0,193.0,0.0,179.0,1744418662.1881113,0.0,2025-04-11 20:44:22.188,RIGHT,17
72.0,7457.838351468844,-12212.143804090478,-24355.354828280786,-24144.130843178136,16766.244681625925,4265.137525217238,21408.52319103756,42551.41825096825,0.0,0.0,0.0,193.0,0.0,193.0,0.0,0.0,0.0,179.0,193.0,0.0,179.0,1744418662.188146,0.0,2025-04-11 20:44:22.188,RIGHT,17
73.0,7460.699374759123,-12229.913440932447,-24302.91763578864,-24148.645895558107,16907.91003798366,4230.134693400228,21477.25480523763,42614.24900463212,0.0,0.0,0.0,193.0,0.0,192.0,0.0,0.0,0.0,178.0,192.0,0.0,178.0,1744418662.1881804,0.0,2025-04-11 20:44:22.188,RIGHT,17
74.0,7442.572110005869,-12259.820075013648,-24323.280074987422,-24191.31537572329,16954.468721684065,4031.673554381556,21845.41038816099,42589.5056235201,0.0,0.0,0.0,193.0,0.0,192.0,0.0,0.0,0.0,178.0,192.0,0.0,178.0,1744418662.188215,0.0,2025-04-11 20:44:22.188,RIGHT,17
75.0,7448.8082467089,-12248.465388830351,-24352.20323231259,-24172.897538292116,16790.27280691538,3983.3490828691824,21762.93245112091,42544.399803209286,0.0,0.0,0.0,193.0,0.0,192.0,0.0,0.0,0.0,178.0,192.0,0.0,178.0,1744418662.188249,0.0,2025-04-11 20:44:22.188,RIGHT,17
76.0,7443.577938506358,-12238.384752081009,-24381.305203593398,-24162.21340444248,16662.82316003122,4222.557452029879,21492.87867461189,42672.11767102691,0.0,0.0,0.0,193.0,0.0,193.0,0.0,0.0,0.0,178.0,193.0,0.0,178.0,1744418662.188284,0.0,2025-04-11 20:44:22.188,RIGHT,17
77.0,7439.688734971134,-12249.135941164011,-24347.598772954796,-24168.762465567885,16827.6225719002,4234.158007402183,21456.758255572113,42737.25065436967,0.0,0.0,0.0,193.0,0.0,192.0,0.0,0.0,0.0,178.0,192.0,0.0,178.0,1744418662.1883187,0.0,2025-04-11 20:44:22.188,RIGHT,17
78.0,7410.162080545674,-12284.09406949211,-24351.3985695122,-24209.59910268773,16986.185847066146,4067.9504356325197,21841.6552950925,42724.21958735223,0.0,0.0,0.0,193.0,0.0,193.0,0.0,0.0,0.0,179.0,193.0,0.0,179.0,1744418662.1883535,0.0,2025-04-11 20:44:22.188,RIGHT,17
79.0,7403.635371164724,-12275.265130432264,-24377.34894482481,-24201.55247468382,16873.801275944865,3962.6066640146573,21800.30456785018,42638.45594387722,0.0,0.0,0.0,193.0,0.0,192.0,0.0,0.0,0.0,178.0,192.0,0.0,178.0,1744418662.1884005,0.0,2025-04-11 20:44:22.188,RIGHT,17
80.0,7414.94535385911,-12249.426513841929,-24378.06420064738,-24161.900480020104,16760.857911212195,4210.934544913119,21537.939791433786,42748.85120974198,0.0,0.0,0.0,193.0,0.0,192.0,0.0,0.0,0.0,178.0,192.0,0.0,178.0,1744418662.1884356,0.0,2025-04-11 20:44:22.188,RIGHT,17
81.0,7424.9365836306315,-12243.257432372266,-24335.037092570914,-24148.44472985801,16823.062816031317,4271.8206968093755,21411.6524352613,42819.86270187649,0.0,0.0,0.0,193.0,0.0,193.0,0.0,0.0,0.0,179.0,193.0,0.0,179.0,1744418662.1884704,0.0,2025-04-11 20:44:22.188,RIGHT,17
82.0,7392.347740214795,-12292.163049240477,-24326.05169129988,-24192.008279801405,16959.386105464233,4104.517889561402,21791.40857355697,42830.68094619286,0.0,0.0,0.0,193.0,0.0,192.0,0.0,0.0,0.0,178.0,192.0,0.0,178.0,1744418662.1885052,0.0,2025-04-11 20:44:22.188,RIGHT,17
83.0,7384.36816744425,-12297.90744756549,-24358.282906804434,-24203.966463084995,16826.504984677435,3893.2044974809287,21832.133451954538,42724.55486351906,0.0,0.0,0.0,193.0,0.0,192.0,0.0,0.0,0.0,178.0,192.0,0.0,178.0,1744418662.188553,0.0,2025-04-11 20:44:22.188,RIGHT,17
84.0,7386.826859334334,-12277.589711855617,-24376.2537093465,-24171.5564336248,16730.37013177516,4120.7229042915,21592.27688220464,42806.272841247664,0.0,0.0,0.0,193.0,0.0,193.0,0.0,0.0,0.0,179.0,193.0,0.0,179.0,1744418662.188587,0.0,2025-04-11 20:44:22.188,RIGHT,17
85.0,7402.316618241861,-12259.57420582464,-24339.999179839993,-24158.190090440523,16791.6139115827,4258.811981536386,21378.057763344976,42889.51073759922,0.0,0.0,0.0,193.0,0.0,192.0,0.0,0.0,0.0,178.0,192.0,0.0,178.0,1744418662.1886218,0.0,2025-04-11 20:44:22.188,RIGHT,17
86.0,7380.188391231107,-12299.852049333102,-24325.42584245513,-24202.714765395496,16953.194672250112,4146.427410415103,21702.71685155831,42908.91205178643,0.0,0.0,0.0,193.0,0.0,192.0,0.0,0.0,0.0,178.0,192.0,0.0,178.0,1744418662.1886568,0.0,2025-04-11 20:44:22.188,RIGHT,17
87.0,7377.014443518454,-12308.368063970574,-24351.242107301012,-24226.251152306933,16885.37947957271,3923.200538539951,21844.628077105055,42808.083332548544,0.0,0.0,0.0,193.0,0.0,193.0,0.0,0.0,0.0,178.0,193.0,0.0,178.0,1744418662.1886916,0.0,2025-04-11 20:44:22.188,RIGHT,17
88.0,7383.563504643858,-12281.300101435198,-24369.01174414298,-24202.22302701748,16742.5518325033,4033.4616939379807,21623.94930409781,42847.869437678986,0.0,0.0,0.0,193.0,0.0,193.0,0.0,0.0,0.0,179.0,193.0,0.0,179.0,1744418662.1887252,0.0,2025-04-11 20:44:22.188,RIGHT,17
89.0,7404.104757798285,-12251.706391776372,-24331.01377856896,-24162.593384098218,16738.662628968075,4216.209556604571,21358.745856135592,42930.95087181936,0.0,0.0,0.0,193.0,0.0,192.0,0.0,0.0,0.0,178.0,192.0,0.0,178.0,1744418662.188759,0.0,2025-04-11 20:44:22.188,RIGHT,17
90.0,7390.626655891736,-12281.367156668563,-24296.94972001907,-24171.645840602618,16928.183070204625,4219.204690361582,21612.929894081342,42966.82542167013,0.0,0.0,0.0,193.0,0.0,193.0,0.0,0.0,0.0,179.0,193.0,0.0,179.0,1744418662.1887941,0.0,2025-04-11 20:44:22.188,RIGHT,17
91.0,7371.337100426806,-12313.710130895393,-24332.377234980733,-24212.616588189198,16896.264779122448,4033.327583471249,21848.51728064028,42887.364970131515,0.0,0.0,0.0,193.0,0.0,192.0,0.0,0.0,0.0,178.0,192.0,0.0,178.0,1744418662.1888287,0.0,2025-04-11 20:44:22.188,RIGHT,17
92.0,7361.345870655284,-12302.042520289722,-24352.762025923974,-24181.704125607506,16790.585731337756,4124.410942126625,21667.915185441398,42896.663295824925,0.0,0.0,0.0,193.0,0.0,193.0,0.0,0.0,0.0,179.0,193.0,0.0,179.0,1744418662.1888635,0.0,2025-04-11 20:44:22.188,RIGHT,17
93.0,7366.084440479808,-12277.47795313334,-24330.454984957574,-24163.845081787716,16751.93956517453,4297.569906421889,21398.978996155143,43030.952576512405,0.0,0.0,0.0,193.0,0.0,193.0,0.0,0.0,0.0,178.0,193.0,0.0,178.0,1744418662.188898,0.0,2025-04-11 20:44:22.188,RIGHT,17
94.0,7359.6024345877695,-12297.795688843215,-24295.183932207103,-24181.4582564185,16931.289962683913,4219.249393850493,21543.684189758802,43081.914553870505,0.0,0.0,0.0,193.0,0.0,192.0,0.0,0.0,0.0,178.0,192.0,0.0,178.0,1744418662.664877,0.0,2025-04-11 20:44:22.664,RIGHT,17
95.0,7338.770608755423,-12326.696494423926,-24326.275208744435,-24231.1685360871,16950.4007041932,3970.9885681853975,21857.010943533296,43013.406457114994,0.0,0.0,0.0,193.0,0.0,193.0,0.0,0.0,0.0,179.0,193.0,0.0,179.0,1744418662.664937,0.0,2025-04-11 20:44:22.664,RIGHT,17
96.0,7343.30801287985,-12319.722750153871,-24343.307238019377,-24188.476704177465,16813.675083360085,4015.289725695816,21728.421357681913,42983.25395384478,0.0,0.0,0.0,193.0,0.0,192.0,0.0,0.0,0.0,179.0,192.0,0.0,179.0,1744418662.664974,0.0,2025-04-11 20:44:22.664,RIGHT,17
97.0,7354.103905451764,-12305.596447658116,-24337.406377483177,-24153.138596193625,16728.224364307447,4296.318208732392,21455.148929971332,43111.73178097389,0.0,0.0,0.0,193.0,0.0,192.0,0.0,0.0,0.0,178.0,192.0,0.0,178.0,1744418662.6650105,0.0,2025-04-11 20:44:22.665,RIGHT,17
98.0,7346.1019809367635,-12322.092035066133,-24310.226656225524,-24166.728456822453,16831.735292879974,4272.2900834429365,21498.77953514809,43159.944493763986,0.0,0.0,0.0,193.0,0.0,193.0,0.0,0.0,0.0,179.0,193.0,0.0,179.0,1744418662.665089,0.0,2025-04-11 20:44:22.665,RIGHT,17
99.0,7324.957230682044,-12349.696439468436,-24328.175107023133,-24217.198695802534,16897.225904134026,4038.267318995872,21849.90308879651,43110.61419375112,0.0,0.0,0.0,193.0,0.0,193.0,0.0,0.0,0.0,179.0,193.0,0.0,179.0,1744418662.6651247,0.0,2025-04-11 20:44:22.665,RIGHT,17
100.0,7307.992256640466,-12352.289241825252,-24363.91554640717,-24230.833259920273,16803.12505997718,3952.0566406317525,21773.59423322609,43053.885466323554,0.0,0.0,0.0,193.0,0.0,192.0,0.0,0.0,0.0,178.0,192.0,0.0,178.0,1744418662.66516,0.0,2025-04-11 20:44:22.665,RIGHT,17
101.0,7320.35277132425,-12325.310686267698,-24359.311087049377,-24190.756582111906,16741.098969113704,4203.267896564948,21501.9758346052,43190.45462494548,0.0,0.0,0.0,193.0,0.0,193.0,0.0,0.0,0.0,179.0,193.0,0.0,179.0,1744418662.665195,0.0,2025-04-11 20:44:22.665,RIGHT,17
102.0,7338.122408166219,-12325.601258945617,-24322.095432531292,-24176.563224382786,16827.957848067028,4217.952992672085,21438.25101116312,43259.65562577911,0.0,0.0,0.0,193.0,0.0,193.0,0.0,0.0,0.0,179.0,193.0,0.0,179.0,1744418662.6652296,0.0,2025-04-11 20:44:22.665,RIGHT,17
103.0,7317.6929137340685,-12364.023907664288,-24327.77277562294,-24210.828448632772,16945.997410535503,4051.2089790354944,21820.912876237977,43245.79754421682,0.0,0.0,0.0,193.0,0.0,192.0,0.0,0.0,0.0,178.0,192.0,0.0,178.0,1744418662.6652644,0.0,2025-04-11 20:44:22.665,RIGHT,17
104.0,7310.897983419655,-12354.502064526328,-24346.503537476485,-24195.98689031445,16834.395150470158,3962.8301814592105,21803.83614347412,43151.22731342642,0.0,0.0,0.0,193.0,0.0,192.0,0.0,0.0,0.0,178.0,192.0,0.0,178.0,1744418662.6652997,0.0,2025-04-11 20:44:22.665,RIGHT,17
105.0,7303.521907749404,-12334.072570094177,-24358.908755649183,-24170.103570235202,16716.087367068216,4246.585577319333,21566.617079569947,43268.12693692767,0.0,0.0,0.0,193.0,0.0,193.0,0.0,0.0,0.0,179.0,193.0,0.0,179.0,1744418662.6653345,0.0,2025-04-11 20:44:22.665,RIGHT,17
106.0,7332.422713330116,-12316.794671630225,-24305.443382912086,-24147.416549613066,16806.3660629232,4332.170406838704,21407.18208637024,43337.439696483576,0.0,0.0,0.0,193.0,0.0,192.0,0.0,0.0,0.0,178.0,192.0,0.0,178.0,1744418662.6653693,0.0,2025-04-11 20:44:22.665,RIGHT,17
107.0,7308.372236296205,-12360.760552973814,-24296.167408963134,-24192.991756557436,16968.147989290715,4187.331102768315,21771.470817502835,43338.400821495154,0.0,0.0,0.0,193.0,0.0,193.0,0.0,0.0,0.0,179.0,193.0,0.0,179.0,1744418662.665404,0.0,2025-04-11 20:44:22.665,RIGHT,17
108.0,7300.839698414768,-12369.991823433857,-24330.499688446485,-24212.79540214484,16886.474715051023,3977.649388033079,21830.18885018693,43230.84422717622,0.0,0.0,0.0,193.0,0.0,193.0,0.0,1.0,0.0,178.0,193.0,1.0,178.0,1744418662.6654394,0.0,2025-04-11 20:44:22.665,RIGHT,17
109.0,7301.286733303873,-12351.931613913968,-24347.799938654895,-24182.26291921889,16743.848233681707,4156.06101227534,21589.013527514166,43298.03357100887,0.0,0.0,0.0,193.0,0.0,192.0,0.0,2.0,0.0,178.0,192.0,2.0,178.0,1744418662.665571,0.0,2025-04-11 20:44:22.665,RIGHT,17
110.0,7316.128291622197,-12335.324267783675,-24317.580380151318,-24162.25810793139,16748.922079673062,4284.069452770884,21374.973222610144,43385.674761018134,0.0,0.0,0.0,193.0,0.0,193.0,0.0,3.0,0.0,179.0,193.0,3.0,179.0,1744418662.6656084,0.0,2025-04-11 20:44:22.665,RIGHT,17
111.0,7282.958302850521,-12386.35330037514,-24313.646473127184,-24207.162762542102,16915.308465398368,4184.313617266848,21690.781020019178,43412.2956886644,0.0,0.0,0.0,193.0,0.0,193.0,0.0,5.0,0.0,179.0,193.0,5.0,179.0,1744418662.665644,0.0,2025-04-11 20:44:22.665,RIGHT,17
112.0,7282.935951106067,-12385.369823619107,-24330.410281468667,-24229.425100019587,16826.415577699612,3921.1441780500627,21839.263658435782,43312.405742693634,0.0,0.0,0.0,193.0,0.0,192.0,0.0,6.0,0.0,178.0,192.0,6.0,178.0,1744418662.6656787,0.0,2025-04-11 20:44:22.665,RIGHT,17
113.0,7280.432555727071,-12365.029736164777,-24358.126444593247,-24200.144314783134,16686.5383608983,4061.669595440578,21638.589696716037,43349.733155933995,0.0,0.0,0.0,193.0,0.0,193.0,0.0,7.0,0.0,179.0,193.0,7.0,179.0,1744418662.6657293,0.0,2025-04-11 20:44:22.665,RIGHT,17
114.0,7301.6667129596135,-12330.518642725783,-24321.849563342283,-24161.721666064463,16740.74134120242,4297.502851188523,21380.114123834865,43447.2538169925,0.0,0.0,0.0,193.0,0.0,192.0,0.0,8.0,0.0,178.0,192.0,8.0,178.0,1744418662.6657653,0.0,2025-04-11 20:44:22.665,RIGHT,17
115.0,7280.700776660536,-12364.850922209136,-24293.23933043949,-24195.11517228069,16957.463855441078,4245.356231374291,21613.51103943718,43491.599677991835,0.0,0.0,0.0,193.0,0.0,192.0,0.0,9.0,0.0,178.0,192.0,9.0,178.0,1744418662.6658008,0.0,2025-04-11 20:44:22.665,RIGHT,17
116.0,7266.887398587156,-12398.557352847738,-24334.031264070425,-24238.656370479628,16940.185956977126,3998.481213865425,21858.5085104118,43410.5969560858,0.0,0.0,0.0,193.0,0.0,193.0,0.0,9.0,0.0,179.0,193.0,9.0,179.0,1744418662.6658363,0.0,2025-04-11 20:44:22.665,RIGHT,17
117.0,7261.612386895703,-12388.387309120573,-24356.15949108118,-24206.849838119728,16816.469051417,4062.9436448745305,21696.637177066466,43409.45701711858,0.0,0.0,0.0,193.0,0.0,193.0,0.0,10.0,0.0,179.0,193.0,10.0,179.0,1744418662.6658716,0.0,2025-04-11 20:44:22.665,RIGHT,17
118.0,7278.040919070354,-12345.06962836619,-24333.4948222035,-24169.433017901545,16749.480873284447,4266.858609540297,21411.943007939222,43515.73956200356,0.0,0.0,0.0,193.0,0.0,192.0,0.0,11.0,0.0,178.0,192.0,11.0,178.0,1744418662.6659064,0.0,2025-04-11 20:44:22.665,RIGHT,17
119.0,7269.368442221695,-12359.486503539862,-24292.36761240573,-24172.763427825383,16906.948912972082,4243.769257517964,21541.247849613173,43553.178733966204,0.0,0.0,0.0,193.0,0.0,193.0,0.0,11.0,0.0,179.0,193.0,11.0,179.0,1744418662.665942,0.0,2025-04-11 20:44:22.665,RIGHT,17
120.0,7244.043915753832,-12402.513611616328,-24321.737804620007,-24226.85464940723,16929.63593359422,4030.578318903246,21867.60567040511,43486.905811656216,0.0,0.0,0.0,193.0,0.0,193.0,0.0,12.0,0.0,179.0,193.0,12.0,179.0,1744418662.6659775,0.0,2025-04-11 20:44:22.665,RIGHT,17
121.0,7242.412238408594,-12399.004387736844,-24350.035113100424,-24209.330881754267,16783.18730392305,4038.7143538849778,21747.889727102487,43441.44236343412,0.0,0.0,0.0,193.0,0.0,192.0,0.0,12.0,0.0,178.0,192.0,12.0,178.0,1744418662.6660128,0.0,2025-04-11 20:44:22.666,RIGHT,17
122.0,7251.285880957352,-12371.288224612264,-24346.950572365593,-24173.322221436767,16684.906683553065,4263.170571705171,21469.319935955995,43561.3818241813,0.0,0.0,0.0,193.0,0.0,192.0,0.0,12.0,0.0,178.0,192.0,12.0,178.0,1744418662.6660483,0.0,2025-04-11 20:44:22.666,RIGHT,17
123.0,7263.9816718079655,-12368.360146088618,-24300.391888665188,-24170.237680701935,16806.701339090032,4224.904385197686,21480.942843072753,43613.640202717805,0.0,0.0,0.0,193.0,0.0,193.0,0.0,13.0,0.0,179.0,193.0,13.0,179.0,1744418662.6660836,0.0,2025-04-11 20:44:22.666,RIGHT,17
124.0,7241.048781996821,-12397.640931325072,-24318.630912140718,-24216.4163847466,16892.509686053956,4025.2139002339723,21865.95164131542,43585.5887634264,0.0,0.0,0.0,193.0,0.0,193.0,0.0,13.0,0.0,179.0,193.0,13.0,179.0,1744418662.6661189,0.0,2025-04-11 20:44:22.666,RIGHT,17
125.0,7231.214014436486,-12387.359128875629,-24356.003028869993,-24205.68754740805,16787.612949325197,3971.815582730244,21811.368681355558,43517.460646326625,0.0,0.0,0.0,193.0,0.0,192.0,0.0,13.0,0.0,178.0,192.0,13.0,178.0,1744418662.666316,0.0,2025-04-11 20:44:22.666,RIGHT,17
126.0,7237.271337183874,-12378.083154926677,-24367.02243888646,-24175.244471459922,16691.34398595619,4227.631298021233,21527.613285495438,43621.619775488354,0.0,0.0,0.0,193.0,0.0,193.0,0.0,13.0,0.0,179.0,193.0,13.0,179.0,1744418662.6663496,0.0,2025-04-11 20:44:22.666,RIGHT,17
127.0,7246.390848921639,-12382.844076495658,-24319.05559528537,-24173.88101504815,16807.640112357156,4284.069452770884,21460.602755618427,43699.02386653708,0.0,0.0,0.0,193.0,0.0,192.0,0.0,14.0,0.0,178.0,192.0,14.0,178.0,1744418662.666386,0.0,2025-04-11 20:44:22.666,RIGHT,17
128.0,7210.6280577931475,-12426.31821946123,-24320.508458674965,-24225.401786017632,16970.69608815862,4119.6723723021,21854.485196409845,43693.92766880127,0.0,0.0,0.0,193.0,0.0,193.0,0.0,14.0,0.0,179.0,193.0,14.0,179.0,1744418662.666434,0.0,2025-04-11 20:44:22.666,RIGHT,17
129.0,7206.47063332446,-12420.260896713842,-24348.001104354993,-24224.284198794867,16851.829511145297,3958.359832568149,21846.79619631722,43582.191298269194,0.0,0.0,0.0,193.0,0.0,193.0,0.0,14.0,0.0,179.0,193.0,14.0,179.0,1744418662.6664665,0.0,2025-04-11 20:44:22.666,RIGHT,17
130.0,7208.5716973032595,-12399.138498203576,-24358.417017271164,-24181.949994796516,16723.709311927476,4193.880163893719,21594.713222350267,43669.519563856076,0.0,0.0,0.0,193.0,0.0,193.0,0.0,14.0,0.0,179.0,193.0,14.0,179.0,1744418662.6664977,0.0,2025-04-11 20:44:22.666,RIGHT,17
131.0,7223.502662599405,-12382.061765439721,-24318.407394696165,-24168.4048376566,16763.09308565773,4278.36975793478,21437.066368706986,43738.31823328951,0.0,0.0,0.0,193.0,0.0,192.0,0.0,14.0,0.0,178.0,192.0,14.0,178.0,1744418662.6665292,0.0,2025-04-11 20:44:22.666,RIGHT,17
132.0,7190.578543016737,-12429.782739851802,-24321.737804620007,-24221.803155160327,16939.336590687824,4134.648041087155,21811.301626122193,43745.98488163768,0.0,0.0,0.0,193.0,0.0,193.0,0.0,14.0,0.0,179.0,193.0,14.0,179.0,1744418662.666561,0.0,2025-04-11 20:44:22.666,RIGHT,17
133.0,7178.910932411067,-12430.341533463185,-24361.546261494907,-24245.205431605034,16854.690534435576,3918.5066722043366,21899.166333576006,43629.97932791464,0.0,0.0,0.0,193.0,0.0,193.0,0.0,15.0,0.0,179.0,193.0,15.0,179.0,1744418662.6665928,0.0,2025-04-11 20:44:22.666,RIGHT,17
134.0,7195.428871563539,-12395.472812112906,-24363.647325473707,-24188.208483244,16729.96780037496,4101.723921504488,21658.438045792347,43673.02878773556,0.0,0.0,0.0,193.0,0.0,192.0,0.0,15.0,0.0,178.0,192.0,15.0,178.0,1744418662.6666243,0.0,2025-04-11 20:44:22.666,RIGHT,17
135.0,7223.7708835328685,-12372.0705356682,-24323.99533080999,-24154.85968051668,16719.149556058594,4261.337728659836,21431.61254305989,43754.52324801961,0.0,0.0,0.0,193.0,0.0,193.0,0.0,15.0,0.0,179.0,193.0,15.0,179.0,1744418662.666656,0.0,2025-04-11 20:44:22.666,RIGHT,17
136.0,7196.56881053076,-12415.589382122682,-24303.811705566848,-24195.338689725246,16904.713738526552,4148.0814395047955,21734.72454961831,43770.75061449416,0.0,0.0,0.0,193.0,0.0,193.0,0.0,15.0,0.0,179.0,193.0,15.0,179.0,1744418662.6666875,0.0,2025-04-11 20:44:22.666,RIGHT,17
137.0,7185.370586558651,-12434.722475376426,-24325.4928976885,-24217.60102720273,16868.52626425341,3937.5056549913475,21917.51711577381,43658.00841546159,0.0,0.0,0.0,193.0,0.0,193.0,0.0,15.0,0.0,178.0,193.0,15.0,178.0,1744418662.6667187,0.0,2025-04-11 20:44:22.666,RIGHT,17
138.0,7177.32395855474,-12425.088873516188,-24354.952496880593,-24177.457294161,16762.82486472426,4121.684029303077,21731.77411935021,43689.90435479931,0.0,0.0,0.0,193.0,0.0,192.0,0.0,15.0,0.0,178.0,192.0,15.0,178.0,1744418662.6667504,0.0,2025-04-11 20:44:22.666,RIGHT,17
139.0,7195.741795985913,-12393.796431278757,-24325.783470366416,-24151.43986361502,16749.32441107326,4291.646694141233,21470.325764456484,43803.04888523208,0.0,0.0,0.0,193.0,0.0,193.0,0.0,15.0,0.0,179.0,193.0,15.0,179.0,1744418662.666782,0.0,2025-04-11 20:44:22.666,RIGHT,17
140.0,7170.864304407157,-12434.186033509497,-24311.34424344829,-24183.089933763735,16905.943084471593,4230.3805625892355,21688.277624640185,43845.137220041426,0.0,0.0,0.0,193.0,0.0,192.0,0.0,15.0,0.0,178.0,192.0,15.0,178.0,1744418662.6668265,0.0,2025-04-11 20:44:22.666,RIGHT,17
141.0,7148.490208207394,-12462.237472800907,-24356.226546314545,-24237.874059423695,16882.96549117154,3984.0419869472967,21955.984467981394,43765.27443710261,0.0,0.0,0.0,193.0,0.0,192.0,0.0,16.0,0.0,178.0,192.0,16.0,178.0,1744418662.666858,0.0,2025-04-11 20:44:22.666,RIGHT,17
142.0,7145.807998872758,-12445.831292370713,-24388.077782163356,-24214.963521357004,16743.13297785914,4046.9397958445306,21790.11217237856,43744.62142522591,0.0,0.0,0.0,193.0,0.0,193.0,0.0,15.0,0.0,179.0,193.0,15.0,179.0,1744418662.6668897,0.0,2025-04-11 20:44:22.666,RIGHT,17
143.0,7169.7690689288465,-12406.268704684819,-24359.735770194027,-24167.466064389475,16716.489698468413,4293.121909275283,21504.032195095086,43863.62211270596,0.0,0.0,0.0,193.0,0.0,192.0,0.0,16.0,0.0,178.0,192.0,16.0,178.0,1744418662.6669211,0.0,2025-04-11 20:44:22.666,RIGHT,17
144.0,7166.349252027185,-12425.111225260644,-24325.71641513305,-24179.133674995148,16862.71481069503,4255.861551268286,21610.001815557698,43902.245927124735,0.0,0.0,0.0,193.0,0.0,193.0,0.0,16.0,0.0,179.0,193.0,16.0,179.0,1744418662.6669655,0.0,2025-04-11 20:44:22.666,RIGHT,17
145.0,7137.470798190928,-12469.61354847116,-24357.34413353731,-24228.732195941473,16888.508723796454,4026.9796880459417,21958.331401149204,43842.92439734035,0.0,0.0,0.0,193.0,0.0,192.0,0.0,16.0,0.0,178.0,192.0,16.0,178.0,1744418662.6669972,0.0,2025-04-11 20:44:22.666,RIGHT,17
146.0,7138.186054013498,-12454.771990152836,-24371.71630522207,-24211.499000966433,16800.80047855383,3979.54928631178,21840.8059288032,43779.534850065094,0.0,0.0,0.0,193.0,0.0,192.0,0.0,16.0,0.0,178.0,192.0,16.0,178.0,1744418662.6670291,0.0,2025-04-11 20:44:22.667,RIGHT,17
147.0,7150.144237297087,-12418.450405412961,-24354.550165480396,-24164.31446842128,16758.399219322113,4227.474835810046,21552.31196311855,43882.039950137136,0.0,0.0,0.0,193.0,0.0,193.0,0.0,16.0,0.0,179.0,193.0,16.0,179.0,1744418662.6670604,0.0,2025-04-11 20:44:22.667,RIGHT,17
148.0,7148.892539607589,-12423.747768848869,-24313.400603938175,-24161.140520708625,16853.818816401817,4266.925664773663,21560.045666700087,43931.75022980574,0.0,0.0,0.0,193.0,0.0,193.0,0.0,16.0,0.0,178.0,193.0,16.0,178.0,1744418662.667092,0.0,2025-04-11 20:44:22.667,RIGHT,17
149.0,7132.307545221752,-12463.55622572377,-24327.057519800368,-24211.633111433162,16936.386160419723,4082.4120142951033,21949.43540685599,43907.140959160446,0.0,0.0,0.0,193.0,0.0,193.0,0.0,16.0,0.0,179.0,193.0,16.0,179.0,1744418662.6671236,0.0,2025-04-11 20:44:22.667,RIGHT,17
150.0,7129.64768763157,-12460.18111231102,-24361.72507545055,-24202.960634584506,16788.17174293658,3981.873867735132,21891.164409061006,43811.006106258166,0.0,0.0,0.0,193.0,0.0,192.0,0.0,16.0,0.0,178.0,192.0,16.0,178.0,1744418662.667155,0.0,2025-04-11 20:44:22.667,RIGHT,17
151.0,7131.346420210174,-12427.972248550923,-24367.335363308834,-24166.21436669998,16679.564616628246,4242.31639412837,21626.922086110364,43914.22646215278,0.0,0.0,0.0,193.0,0.0,193.0,0.0,16.0,0.0,179.0,193.0,16.0,179.0,1744418662.6671865,0.0,2025-04-11 20:44:22.667,RIGHT,17
152.0,7128.530100408805,-12436.778835866313,-24338.211040283568,-24185.392163442633,16801.605141354223,4269.898446786219,21526.20512559475,43982.153413552456,0.0,0.0,0.0,193.0,0.0,192.0,0.0,16.0,0.0,178.0,192.0,16.0,178.0,1744418662.667218,0.0,2025-04-11 20:44:22.667,RIGHT,17
153.0,7107.921792021012,-12476.676699719037,-24342.033188585425,-24231.392053531654,16944.902175057196,4098.371159836192,21909.04580462525,43978.84535537307,0.0,0.0,0.0,193.0,0.0,193.0,0.0,16.0,0.0,179.0,193.0,16.0,179.0,1744418662.6672497,0.0,2025-04-11 20:44:22.667,RIGHT,17
154.0,7116.616620614126,-12473.547455495294,-24363.937898151627,-24218.897428381137,16814.83737407176,3977.291760121794,21938.170127650515,43872.62986572145,0.0,0.0,0.0,193.0,0.0,193.0,0.0,16.0,0.0,179.0,193.0,16.0,179.0,1744418662.6672812,0.0,2025-04-11 20:44:22.667,RIGHT,17
155.0,7124.9314695515,-12447.664135416047,-24368.4529505316,-24178.68664010604,16736.896841156107,4208.2523355784815,21689.596377563048,43955.89011381747,0.0,0.0,0.0,193.0,0.0,193.0,0.0,16.0,0.0,179.0,193.0,16.0,179.0,1744418662.6673255,0.0,2025-04-11 20:44:22.667,RIGHT,17
156.0,7132.374600455118,-12431.369713708129,-24337.965171094558,-24161.475796875453,16778.784010265354,4314.0878455743605,21515.744509189666,44027.48275130782,0.0,0.0,0.0,193.0,0.0,193.0,0.0,16.0,0.0,179.0,193.0,16.0,179.0,1744418662.6673577,0.0,2025-04-11 20:44:22.667,RIGHT,17
157.0,7115.879013047102,-12467.020746114344,-24321.179011008622,-24189.50488442241,16943.024628522948,4181.0726143208285,21866.93511807145,44030.23201587582,0.0,0.0,0.0,193.0,0.0,193.0,0.0,16.0,0.0,179.0,193.0,16.0,179.0,1744418662.6673892,0.0,2025-04-11 20:44:22.667,RIGHT,17
158.0,7108.83821354368,-12479.917702665056,-24350.3480375228,-24215.522314968388,16842.5758889408,3967.032309416808,21980.34786943768,43919.143845932944,0.0,0.0,0.0,193.0,0.0,193.0,0.0,16.0,0.0,179.0,193.0,16.0,179.0,1744418662.6674206,0.0,2025-04-11 20:44:22.667,RIGHT,17
159.0,7115.096701991165,-12450.569862195238,-24360.786302183427,-24181.03357327385,16753.21361460848,4166.231056002504,21757.54568070718,43956.2253899843,0.0,0.0,0.0,193.0,0.0,193.0,0.0,16.0,0.0,179.0,193.0,16.0,179.0,1744418662.6674652,0.0,2025-04-11 20:44:22.667,RIGHT,17
160.0,7130.273536476319,-12420.909097303045,-24341.34028450731,-24159.82176778576,16756.231100109948,4305.70594140362,21526.07101512802,44044.17950441593,0.0,0.0,0.0,193.0,0.0,193.0,0.0,16.0,0.0,179.0,193.0,16.0,179.0,1744418662.667497,0.0,2025-04-11 20:44:22.667,RIGHT,17
161.0,7113.442672901473,-12458.012993098855,-24312.037147526404,-24190.175436756068,16915.219058420545,4178.569218941834,21812.46391683387,44079.38350193304,0.0,0.0,0.0,193.0,0.0,193.0,0.0,16.0,0.0,178.0,193.0,16.0,178.0,1744418662.6675284,0.0,2025-04-11 20:44:22.667,RIGHT,17
162.0,7093.303751147241,-12492.837010960224,-24350.3480375228,-24221.84785864924,16844.364028497224,3974.6319025316125,22031.22043981796,43988.09897757757,0.0,0.0,0.0,193.0,0.0,193.0,0.0,17.0,0.0,178.0,193.0,17.0,178.0,1744418662.66756,0.0,2025-04-11 20:44:22.667,RIGHT,17
163.0,7082.329044619685,-12491.47355454845,-24378.578290769852,-24197.775029870874,16742.194204592015,4114.0397326993625,21842.75053057081,43996.2350125593,0.0,0.0,0.0,193.0,0.0,193.0,0.0,16.0,0.0,179.0,193.0,16.0,179.0,1744418662.6675916,0.0,2025-04-11 20:44:22.667,RIGHT,17
164.0,7099.852812272646,-12462.70685943447,-24357.16531958167,-24176.92085229407,16720.11068107017,4304.923630347685,21569.343992393493,44089.531193915755,0.0,0.0,0.0,193.0,0.0,193.0,0.0,16.0,0.0,179.0,193.0,16.0,179.0,1744418662.6676233,0.0,2025-04-11 20:44:22.667,RIGHT,17
165.0,7101.708007062436,-12471.759315938869,-24311.657167870664,-24184.855721575706,16882.85373244926,4247.233777908537,21759.155006307963,44128.44558101244,0.0,0.0,0.0,193.0,0.0,193.0,0.0,17.0,0.0,179.0,193.0,17.0,179.0,1744418662.6676545,0.0,2025-04-11 20:44:22.667,RIGHT,17
166.0,7074.30476836023,-12508.773804756858,-24348.49284273301,-24236.577658245285,16901.070404180336,4012.1828332165283,22063.138730900137,44066.19597270441,0.0,0.0,0.0,193.0,0.0,192.0,0.0,17.0,0.0,179.0,192.0,17.0,179.0,1744418662.667686,0.0,2025-04-11 20:44:22.667,RIGHT,17
167.0,7074.461230571417,-12488.679586491537,-24368.967040654068,-24203.40766947361,16772.07848692876,4039.541368429824,21915.125479117094,44030.880216465026,0.0,0.0,0.0,193.0,0.0,193.0,0.0,17.0,0.0,179.0,193.0,17.0,179.0,1744418662.6677175,0.0,2025-04-11 20:44:22.667,RIGHT,17
168.0,7104.926658264,-12442.299716746775,-24346.39177875421,-24143.1473664221,16674.82604680372,4283.242438226037,21618.406071472895,44120.95774661991,0.0,0.0,0.0,193.0,0.0,193.0,0.0,17.0,0.0,179.0,193.0,17.0,179.0,1744418662.667749,0.0,2025-04-11 20:44:22.667,RIGHT,17
169.0,7100.009274483833,-12469.94882463799,-24306.20334222357,-24158.100683462704,16822.28050497538,4274.569961377378,21699.542903845657,44161.36970059511,0.0,0.0,0.0,193.0,0.0,193.0,0.0,17.0,0.0,179.0,193.0,17.0,179.0,1744418662.6677804,0.0,2025-04-11 20:44:22.667,RIGHT,17
170.0,7071.130820647576,-12512.99828445891,-24332.511345447463,-24217.086937080257,16898.991691945994,4052.706545914,22072.168835660083,44119.169607063486,0.0,0.0,0.0,193.0,0.0,193.0,0.0,17.0,0.0,179.0,193.0,17.0,179.0,1744418662.6678252,0.0,2025-04-11 20:44:22.667,RIGHT,17
171.0,7064.894683944546,-12498.357891840684,-24365.16724409667,-24196.925663581573,16770.916196217084,4017.2790309523384,21989.847360831187,44059.646911579,0.0,0.0,0.0,193.0,0.0,193.0,0.0,17.0,0.0,179.0,193.0,17.0,179.0,1744418662.6678572,0.0,2025-04-11 20:44:22.667,RIGHT,17
172.0,7071.667262514504,-12470.239397315909,-24363.647325473707,-24158.860642774183,16719.395425247603,4295.267676742992,21718.54188663267,44170.824488499704,0.0,0.0,0.0,193.0,0.0,192.0,0.0,17.0,0.0,179.0,192.0,17.0,179.0,1744418662.6678889,0.0,2025-04-11 20:44:22.667,RIGHT,17
173.0,7069.722660746892,-12491.272388848352,-24325.11291803276,-24176.898500549618,16843.71582790802,4300.430929712168,21699.63231082348,44224.20045425898,0.0,0.0,0.0,193.0,0.0,193.0,0.0,17.0,0.0,179.0,193.0,17.0,179.0,1744418662.6679204,0.0,2025-04-11 20:44:22.667,RIGHT,17
174.0,7048.2649860697975,-12539.038066749343,-24342.30140951889,-24225.759413928918,16940.856509310783,4098.684084258567,22093.559455103812,44193.17623295501,0.0,0.0,0.0,193.0,0.0,192.0,0.0,17.0,0.0,178.0,192.0,17.0,178.0,1744418662.6679647,0.0,2025-04-11 20:44:22.667,RIGHT,17
175.0,7059.530265275272,-12517.08865369423,-24350.705665434085,-24197.909140337604,16843.693476163564,3999.487042365914,22056.07557965226,44080.47873741135,0.0,0.0,0.0,193.0,0.0,192.0,0.0,17.0,0.0,178.0,192.0,17.0,178.0,1744418662.6679966,0.0,2025-04-11 20:44:22.667,RIGHT,17
176.0,7068.202742123931,-12477.570769497248,-24347.06233108787,-24160.58172709724,16735.443977766514,4246.183245919138,21800.863361461565,44173.17142166751,0.0,0.0,0.0,193.0,0.0,193.0,0.0,17.0,0.0,179.0,193.0,17.0,179.0,1744418662.668028,0.0,2025-04-11 20:44:22.668,RIGHT,17
177.0,7071.577855536682,-12472.18399908352,-24312.48418241551,-24159.285325918834,16796.196019196035,4302.621400668789,21695.16196193242,44243.42295449054,0.0,0.0,0.0,193.0,0.0,193.0,0.0,17.0,0.0,178.0,193.0,17.0,178.0,1744418662.668059,0.0,2025-04-11 20:44:22.668,RIGHT,17
178.0,7032.842282395635,-12531.52788061236,-24328.443327956596,-24214.248265534436,16926.417282392656,4141.644137101667,22086.116324200193,44247.80389640378,0.0,0.0,0.0,193.0,0.0,193.0,0.0,17.0,0.0,179.0,193.0,17.0,179.0,1744418662.6680906,0.0,2025-04-11 20:44:22.668,RIGHT,17
179.0,7044.375782534574,-12522.944810741523,-24349.34220902231,-24209.93437885456,16825.70032187704,3973.6931292644895,22112.42432742409,44118.87903438557,0.0,0.0,0.0,193.0,0.0,193.0,0.0,17.0,0.0,178.0,193.0,17.0,178.0,1744418662.6681223,0.0,2025-04-11 20:44:22.668,RIGHT,17
180.0,7046.700363957926,-12499.94486569701,-24365.9495551526,-24167.667230089573,16723.865774138663,4195.511841238957,21869.885548339553,44181.106290949145,0.0,0.0,0.0,193.0,0.0,192.0,0.0,17.0,0.0,178.0,192.0,17.0,178.0,1744418662.6681538,0.0,2025-04-11 20:44:22.668,RIGHT,17
181.0,7059.217340852898,-12476.22966482993,-24329.33739773481,-24168.49424463442,16733.812300421276,4256.599158835311,21684.164903660407,44245.7922394028,0.0,0.0,0.0,193.0,0.0,193.0,0.0,17.0,0.0,179.0,193.0,17.0,179.0,1744418662.6681852,0.0,2025-04-11 20:44:22.668,RIGHT,17
182.0,7040.374820277074,-12514.115871681675,-24315.166391750146,-24206.536913697353,16891.97324418703,4116.587831567268,22036.160175342582,44254.08473659572,0.0,0.0,0.0,193.0,0.0,193.0,0.0,17.0,0.0,179.0,193.0,17.0,179.0,1744418662.6682165,0.0,2025-04-11 20:44:22.668,RIGHT,17
183.0,7030.383590505552,-12531.952563757011,-24344.67069443115,-24214.22591378998,16852.254194289948,3955.0964778776743,22168.996592640473,44117.73909541835,0.0,0.0,0.0,193.0,0.0,192.0,0.0,17.0,0.0,178.0,192.0,17.0,178.0,1744418662.668248,0.0,2025-04-11 20:44:22.668,RIGHT,17
184.0,7020.638229923038,-12521.044912462821,-24361.188633583624,-24175.73620983794,16758.645088511123,4160.799582099865,21943.936877719985,44134.59231073765,0.0,0.0,0.0,193.0,0.0,193.0,0.0,17.0,0.0,179.0,193.0,17.0,179.0,1744418662.6682796,0.0,2025-04-11 20:44:22.668,RIGHT,17
185.0,7056.0657448847,-12476.497885763394,-24316.552199906375,-24138.699369275495,16746.150463360605,4330.739895193565,21703.7226800588,44229.31900373924,0.0,0.0,0.0,193.0,0.0,192.0,0.0,17.0,0.0,178.0,192.0,17.0,178.0,1744418662.668324,0.0,2025-04-11 20:44:22.668,RIGHT,17
186.0,7045.627480224071,-12515.14405192662,-24281.594071578274,-24162.347514909212,16940.141253488215,4254.766315789976,21973.73175307891,44247.53567547032,0.0,0.0,0.0,193.0,0.0,193.0,0.0,17.0,0.0,179.0,193.0,17.0,179.0,1744418662.668356,0.0,2025-04-11 20:44:22.668,RIGHT,17
187.0,7025.354448003108,-12546.123569741676,-24326.47637444453,-24205.754602641417,16896.041261677892,4025.526824656347,22200.19962790008,44140.73904046286,0.0,0.0,0.0,193.0,0.0,193.0,0.0,17.0,0.0,179.0,193.0,17.0,179.0,1744418662.6683912,0.0,2025-04-11 20:44:22.668,RIGHT,17
188.0,7036.619727208582,-12512.171269914064,-24346.10120607629,-24165.297945177314,16765.93175720355,4118.130101934684,22019.485773978922,44138.07918287268,0.0,0.0,0.0,193.0,0.0,193.0,0.0,17.0,0.0,179.0,193.0,17.0,179.0,1744418662.6684227,0.0,2025-04-11 20:44:22.668,RIGHT,17
189.0,7042.989974378344,-12490.355967325684,-24336.892287360704,-24149.20468916949,16717.897858369095,4302.241421013048,21747.085064302097,44227.866140349644,0.0,0.0,0.0,193.0,0.0,192.0,0.0,17.0,0.0,178.0,192.0,17.0,178.0,1744418662.6684675,0.0,2025-04-11 20:44:22.668,RIGHT,17
190.0,7031.031791094755,-12518.027426961355,-24313.15473474917,-24173.568090625777,16867.38632528619,4237.555472559389,21903.122592344596,44242.75240215688,0.0,0.0,0.0,193.0,0.0,193.0,0.0,17.0,0.0,179.0,193.0,17.0,179.0,1744418662.6684992,0.0,2025-04-11 20:44:22.668,RIGHT,17
191.0,7011.608125163094,-12548.358744187206,-24343.173127552647,-24219.053890592324,16878.450438791566,4015.22267046245,22212.984825728516,44161.59321803966,0.0,0.0,0.0,193.0,0.0,192.0,0.0,17.0,0.0,178.0,192.0,17.0,178.0,1744418662.6685307,0.0,2025-04-11 20:44:22.668,RIGHT,17
192.0,7030.5400527167385,-12514.495851337417,-24340.87089787375,-24171.91406153608,16768.345745604725,4033.5063974268915,22071.967669959984,44105.26682201229,0.0,0.0,0.0,193.0,0.0,192.0,0.0,17.0,0.0,178.0,192.0,17.0,178.0,1744418662.6685624,0.0,2025-04-11 20:44:22.668,RIGHT,17
193.0,7046.700363957926,-12481.169400354553,-24333.2936565034,-24144.957857722984,16693.310939468258,4228.748885243998,21784.07720137563,44193.08682597719,0.0,0.0,0.0,193.0,0.0,193.0,0.0,17.0,0.0,179.0,193.0,17.0,179.0,1744418662.6685936,0.0,2025-04-11 20:44:22.668,RIGHT,17
194.0,7032.507006228806,-12501.978874442444,-24311.992444037493,-24161.721666064463,16818.860688073717,4266.679795584654,21844.650428849513,44218.47840767842,0.0,0.0,0.0,193.0,0.0,193.0,0.0,17.0,0.0,179.0,193.0,17.0,179.0,1744418662.668625,0.0,2025-04-11 20:44:22.668,RIGHT,17
195.0,6996.945380800412,-12552.15854074461,-24338.47926121703,-24209.21912303199,16890.162752886146,4098.460566814014,22222.283151421925,44168.18698265398,0.0,0.0,0.0,193.0,0.0,192.0,0.0,17.0,0.0,178.0,192.0,17.0,178.0,1744418662.6686563,0.0,2025-04-11 20:44:22.668,RIGHT,17
196.0,6995.4925174108175,-12545.453017408016,-24367.24595633101,-24201.239550261445,16760.96966993447,4030.064228780774,22133.122042789706,44079.29409495522,0.0,0.0,0.0,193.0,0.0,193.0,0.0,17.0,0.0,179.0,193.0,17.0,179.0,1744418662.668688,0.0,2025-04-11 20:44:22.668,RIGHT,17
197.0,7003.785014603736,-12524.464729364483,-24376.96896516907,-24169.142445223624,16653.278965148802,4265.22693219506,21857.122702255572,44174.378415868094,0.0,0.0,0.0,193.0,0.0,192.0,0.0,17.0,0.0,178.0,192.0,17.0,178.0,1744418662.6687195,0.0,2025-04-11 20:44:22.668,RIGHT,17
198.0,7018.403055477507,-12512.014807702877,-24324.308255232365,-24159.01710498537,16804.98025476697,4293.971275564584,21809.580541799136,44222.211149002454,0.0,0.0,0.0,193.0,0.0,192.0,0.0,17.0,0.0,178.0,192.0,17.0,178.0,1744418662.668751,0.0,2025-04-11 20:44:22.668,RIGHT,17
199.0,6987.892924296013,-12546.414142419595,-24331.393758224698,-24208.861495120706,16941.72822734454,4144.0357737583845,22217.25400891948,44200.30643943625,0.0,0.0,0.0,193.0,0.0,193.0,0.0,17.0,0.0,179.0,193.0,17.0,179.0,1744418662.6687825,0.0,2025-04-11 20:44:22.668,RIGHT,17
200.0,6995.447813921906,-12527.057531721299,-24355.06425560287,-24185.660384376097,16786.47301035798,3997.1401091981065,22197.606825543266,44081.43986242293,0.0,0.0,0.0,193.0,0.0,192.0,0.0,17.0,0.0,178.0,192.0,17.0,178.0,1744418662.6688273,0.0,2025-04-11 20:44:22.668,RIGHT,17
201.0,6986.171839972954,-12519.927325240056,-24375.381991312745,-24173.03164875885,16690.7404888559,4200.362169785759,21949.748331278366,44160.58738953917,0.0,0.0,0.0,193.0,0.0,193.0,0.0,17.0,0.0,179.0,193.0,17.0,179.0,1744418662.668859,0.0,2025-04-11 20:44:22.668,RIGHT,17
202.0,7002.332151214141,-12525.403502631605,-24330.991426824505,-24162.593384098218,16826.460281188523,4270.613702608789,21815.59316105761,44210.8341110747,0.0,0.0,0.0,193.0,0.0,193.0,0.0,17.0,0.0,179.0,193.0,17.0,179.0,1744418662.6688912,0.0,2025-04-11 20:44:22.668,RIGHT,17
203.0,6975.174781700944,-12585.44028823856,-24324.86704884375,-24202.78182062886,16985.358832521302,4144.616919114223,22202.904188979173,44210.45413141896,0.0,0.0,0.0,193.0,0.0,192.0,0.0,17.0,0.0,178.0,192.0,17.0,178.0,1744418662.668923,0.0,2025-04-11 20:44:22.668,RIGHT,17
204.0,6979.1757439584435,-12568.475314196983,-24342.1449473077,-24193.036460046347,16881.713793482042,4022.7999118327994,22262.382180974746,44086.021970036265,0.0,0.0,0.0,193.0,0.0,193.0,0.0,17.0,0.0,179.0,193.0,17.0,179.0,1744418662.6689672,0.0,2025-04-11 20:44:22.668,RIGHT,17
205.0,6976.247665434798,-12542.435531906549,-24364.831967929837,-24159.888823019126,16754.26414659788,4256.308586157392,22037.769500943363,44145.522313776295,0.0,0.0,0.0,193.0,0.0,193.0,0.0,17.0,0.0,179.0,193.0,17.0,179.0,1744418662.6689987,0.0,2025-04-11 20:44:22.668,RIGHT,17
206.0,6985.993026017311,-12525.470557864972,-24340.759139151472,-24145.762520523374,16728.872564896654,4361.831171730897,21830.635885076033,44208.91186105154,0.0,0.0,0.0,193.0,0.0,193.0,0.0,17.0,0.0,178.0,193.0,17.0,178.0,1744418662.6690307,0.0,2025-04-11 20:44:22.669,RIGHT,17
207.0,6974.057194478178,-12555.466598923995,-24324.755290121473,-24183.112285508192,16883.97131967203,4214.019085647951,22161.3299442923,44219.81951234573,0.0,0.0,0.0,193.0,0.0,193.0,0.0,17.0,0.0,179.0,193.0,17.0,179.0,1744418662.669062,0.0,2025-04-11 20:44:22.669,RIGHT,17
208.0,6957.449848347885,-12574.040898566354,-24369.659944732186,-24219.65738769262,16835.490385948466,3975.5930275431906,22319.088556657858,44101.22115626588,0.0,0.0,0.0,193.0,0.0,192.0,0.0,17.0,0.0,178.0,192.0,17.0,178.0,1744418662.6690936,0.0,2025-04-11 20:44:22.669,RIGHT,17
209.0,6962.2107699168655,-12546.168273230585,-24378.220662858566,-24177.54670113882,16744.56348950428,4149.333137194292,22109.5186006449,44102.22698476636,0.0,0.0,0.0,193.0,0.0,192.0,0.0,17.0,0.0,178.0,192.0,17.0,178.0,1744418662.6691253,0.0,2025-04-11 20:44:22.669,RIGHT,17
210.0,6975.018319489756,-12531.974915501467,-24356.517118992462,-24153.49622410491,16715.707387412476,4325.576642224389,21860.542519157236,44176.41242461353,0.0,0.0,0.0,193.0,0.0,193.0,0.0,17.0,0.0,179.0,193.0,17.0,179.0,1744418662.6691568,0.0,2025-04-11 20:44:22.669,RIGHT,17
211.0,6963.685985050915,-12566.687174640558,-24327.32574073383,-24180.139503495637,16894.051956421372,4237.6001760483,22102.388394163656,44192.41627364353,0.0,0.0,0.0,193.0,0.0,193.0,0.0,17.0,0.0,179.0,193.0,17.0,179.0,1744418662.6691883,0.0,2025-04-11 20:44:22.669,RIGHT,17
212.0,6960.243816404798,-12572.319814243296,-24357.38883702622,-24207.3639282422,16886.877046451216,4006.393731402604,22337.975780722594,44089.91117357149,0.0,0.0,0.0,193.0,0.0,192.0,0.0,17.0,0.0,179.0,192.0,17.0,179.0,1744418662.6692195,0.0,2025-04-11 20:44:22.669,RIGHT,17
213.0,6960.266168149254,-12550.705677355014,-24381.34990708231,-24173.16575922558,16775.18537940805,4101.47805231548,22167.655487973152,44072.65562685199,0.0,0.0,0.0,193.0,0.0,193.0,0.0,17.0,0.0,179.0,193.0,17.0,179.0,1744418662.6692512,0.0,2025-04-11 20:44:22.669,RIGHT,17
214.0,6976.5382381127165,-12520.128490940153,-24356.09243584781,-24139.30286637579,16718.970742102952,4298.642790155744,21902.988481877863,44178.13350893659,0.0,0.0,0.0,193.0,0.0,192.0,0.0,17.0,0.0,178.0,192.0,17.0,178.0,1744418663.1448483,0.0,2025-04-11 20:44:23.144,RIGHT,17
215.0,6959.640319304504,-12549.565738387793,-24313.355900449267,-24161.2522794309,16879.299805080867,4235.186187647127,22063.429303578057,44215.84090183269,0.0,0.0,0.0,193.0,0.0,192.0,0.0,17.0,0.0,178.0,192.0,17.0,178.0,1744418663.1450841,0.0,2025-04-11 20:44:23.145,RIGHT,17
216.0,6927.27499333322,-12601.958227391033,-24344.849508386793,-24224.686530195064,16989.471553501076,4002.8845075231206,22396.984386084605,44138.79443869525,0.0,0.0,0.0,193.0,0.0,193.0,0.0,17.0,0.0,179.0,193.0,17.0,179.0,1744418663.1451247,0.0,2025-04-11 20:44:23.145,RIGHT,17
217.0,6931.343010824086,-12579.58413119127,-24375.06906689037,-24193.79641935783,16831.28825799087,4031.2041677479947,22258.336515228333,44069.459327394885,0.0,0.0,0.0,193.0,0.0,192.0,0.0,17.0,0.0,178.0,192.0,17.0,178.0,1744418663.1451638,0.0,2025-04-11 20:44:23.145,RIGHT,17
218.0,6941.3789440845185,-12543.039029006843,-24376.67839249115,-24161.609907342186,16730.034855608326,4300.788557623453,21975.654003102067,44158.57573253819,0.0,0.0,0.0,193.0,0.0,192.0,0.0,17.0,0.0,179.0,192.0,17.0,179.0,1744418663.145202,0.0,2025-04-11 20:44:23.145,RIGHT,17
219.0,6935.723952737326,-12572.230407265473,-24338.948647850593,-24180.698297107017,16852.567118712323,4282.9742172925735,22023.084404836227,44192.41627364353,0.0,0.0,0.0,193.0,0.0,193.0,0.0,17.0,0.0,179.0,193.0,17.0,179.0,1744418663.145372,0.0,2025-04-11 20:44:23.145,RIGHT,17
220.0,6906.17494656741,-12624.511137546437,-24364.11671210727,-24227.815774418807,16913.073290952838,4039.161388774084,22406.70739492266,44141.02961314078,0.0,0.0,0.0,193.0,0.0,192.0,0.0,17.0,0.0,178.0,192.0,17.0,178.0,1744418663.145409,0.0,2025-04-11 20:44:23.145,RIGHT,17
221.0,6928.392580555986,-12583.29452077085,-24375.426694801652,-24195.673965892074,16786.07067895778,3974.9895304428974,22332.3207893754,44051.287359152724,0.0,0.0,0.0,193.0,0.0,192.0,0.0,17.0,0.0,178.0,192.0,17.0,178.0,1744418663.1454453,0.0,2025-04-11 20:44:23.145,RIGHT,17
222.0,6935.455731803862,-12559.981651303966,-24373.59385175632,-24161.341686408723,16692.327462712226,4245.177417418649,22074.22519614997,44139.35323230663,0.0,0.0,0.0,193.0,0.0,193.0,0.0,17.0,0.0,179.0,193.0,17.0,179.0,1744418663.1454823,0.0,2025-04-11 20:44:23.145,RIGHT,17
223.0,6947.860949976558,-12549.074000009776,-24327.52690643393,-24150.501090347898,16756.633431510145,4276.2239904670705,22010.701538407986,44172.32205537821,0.0,0.0,0.0,193.0,0.0,192.0,0.0,17.0,0.0,178.0,192.0,17.0,178.0,1744418663.1455197,0.0,2025-04-11 20:44:23.145,RIGHT,17
224.0,6903.380978510497,-12598.8736866562,-24345.095377575803,-24205.68754740805,16898.790526245895,4124.00861072643,22423.068871863947,44150.70791848993,0.0,0.0,0.0,193.0,0.0,192.0,0.0,17.0,0.0,179.0,192.0,17.0,179.0,1744418663.145556,0.0,2025-04-11 20:44:23.145,RIGHT,17
225.0,6901.235211042787,-12595.63268371018,-24370.509311021488,-24201.79834387283,16830.573002168298,3981.270370634839,22410.462487991153,44019.45847504836,0.0,0.0,0.0,193.0,0.0,193.0,0.0,17.0,0.0,179.0,193.0,17.0,179.0,1744418663.1455915,0.0,2025-04-11 20:44:23.145,RIGHT,17
226.0,6919.094254862578,-12560.473389681983,-24366.10601736379,-24154.613811327676,16724.02223634985,4220.411684562169,22149.99760985346,44083.18329849045,0.0,0.0,0.0,193.0,0.0,193.0,0.0,17.0,0.0,179.0,193.0,17.0,179.0,1744418663.145627,0.0,2025-04-11 20:44:23.145,RIGHT,17
227.0,6928.32552532262,-12549.856311065712,-24326.990464567003,-24149.450558358498,16754.42060880907,4305.750644892531,22012.959064597973,44147.84689519965,0.0,0.0,0.0,193.0,0.0,192.0,0.0,17.0,0.0,178.0,192.0,17.0,178.0,1744418663.1456616,0.0,2025-04-11 20:44:23.145,RIGHT,17
228.0,6895.401405739953,-12601.48884075747,-24326.565781422352,-24211.387242244156,16942.376427933745,4150.9648145395295,22392.894016849285,44137.38627879456,0.0,0.0,0.0,193.0,0.0,193.0,0.0,17.0,0.0,179.0,193.0,17.0,179.0,1744418663.1456976,0.0,2025-04-11 20:44:23.145,RIGHT,17
229.0,6883.912609089924,-12612.620009496213,-24367.62593598675,-24234.588352988765,16871.364935799236,3946.9157394070317,22467.325325885457,44002.627611473516,0.0,0.0,0.0,193.0,0.0,192.0,0.0,17.0,0.0,179.0,192.0,17.0,179.0,1744418663.145734,0.0,2025-04-11 20:44:23.145,RIGHT,17
230.0,6888.919399847913,-12588.25660803993,-24386.222587373566,-24203.02768981787,16757.438094310535,4123.1368926926725,22239.046959763404,44048.94042598491,0.0,0.0,0.0,193.0,0.0,193.0,0.0,17.0,0.0,179.0,193.0,17.0,179.0,1744418663.1457903,0.0,2025-04-11 20:44:23.145,RIGHT,17
231.0,6911.092330347577,-12561.032183293366,-24349.58807821132,-24176.07148600477,16750.240832595926,4244.618623807267,22016.490640221913,44109.804226136715,0.0,0.0,0.0,193.0,0.0,193.0,0.0,17.0,0.0,179.0,193.0,17.0,179.0,1744418663.1458268,0.0,2025-04-11 20:44:23.145,RIGHT,17
232.0,6882.303283489142,-12609.982503650488,-24336.445252471596,-24200.233721760957,16877.735182968998,4170.0979077932725,22340.456824357134,44122.43296175396,0.0,0.0,0.0,193.0,0.0,193.0,0.0,17.0,0.0,179.0,193.0,17.0,179.0,1744418663.1458623,0.0,2025-04-11 20:44:23.145,RIGHT,17
233.0,6867.372318192997,-12630.07672191581,-24371.448084288608,-24226.65348370713,16821.073510774793,3952.883655176599,22529.17260279329,44000.0348091167,0.0,0.0,0.0,193.0,0.0,193.0,0.0,17.0,0.0,178.0,193.0,17.0,178.0,1744418663.1458983,0.0,2025-04-11 20:44:23.145,RIGHT,17
234.0,6868.780478093681,-12598.20313432254,-24390.558825797896,-24180.653593618106,16743.781178448342,4108.943534963552,22335.85236499934,44005.846262675084,0.0,0.0,0.0,193.0,0.0,192.0,0.0,17.0,0.0,179.0,192.0,17.0,179.0,1744418663.1459484,0.0,2025-04-11 20:44:23.145,RIGHT,17
235.0,6889.478193459296,-12563.557930416815,-24360.42867427214,-24155.5525845948,16742.26125982538,4282.437775425646,22076.773295017876,44088.190089248434,0.0,0.0,0.0,193.0,0.0,193.0,0.0,17.0,0.0,179.0,193.0,17.0,179.0,1744418663.1459844,0.0,2025-04-11 20:44:23.145,RIGHT,17
236.0,6872.088536273067,-12606.629741982191,-24335.506479204476,-24187.247358232424,16907.4406513501,4220.188167117616,22303.710556472608,44110.40772323701,0.0,0.0,0.0,193.0,0.0,192.0,0.0,17.0,0.0,178.0,192.0,17.0,178.0,1744418663.1460197,0.0,2025-04-11 20:44:23.146,RIGHT,17
237.0,6855.1459139759445,-12630.45670157155,-24372.275098833456,-24228.4192715191,16857.082171092294,4004.6279435906345,22571.327992836,44015.03282964621,0.0,0.0,0.0,193.0,0.0,192.0,0.0,17.0,0.0,178.0,192.0,17.0,178.0,1744418663.1460557,0.0,2025-04-11 20:44:23.146,RIGHT,17
238.0,6861.069126256601,-12601.734709946479,-24400.080668935858,-24198.780858371363,16708.130146042127,4079.61804623819,22404.04753733248,43979.694721662374,0.0,0.0,0.0,193.0,0.0,193.0,0.0,17.0,0.0,179.0,193.0,17.0,179.0,1744418663.1460912,0.0,2025-04-11 20:44:23.146,RIGHT,17
239.0,6871.060356028123,-12579.047689324343,-24384.993241428525,-24166.63904984463,16706.409061719067,4321.843900900352,22135.312513746325,44076.92481004296,0.0,0.0,0.0,193.0,0.0,193.0,0.0,17.0,0.0,179.0,193.0,17.0,179.0,1744418663.1461272,0.0,2025-04-11 20:44:23.146,RIGHT,17
240.0,6873.02730954019,-12589.485953984971,-24346.592944454307,-24166.192014955523,16874.29301432288,4281.499002158524,22250.245183735515,44101.9587638329,0.0,0.0,0.0,193.0,0.0,192.0,0.0,17.0,0.0,178.0,192.0,17.0,178.0,1744418663.1461625,0.0,2025-04-11 20:44:23.146,RIGHT,17
241.0,6854.475361642285,-12628.73561724849,-24364.608450485284,-24210.73904165495,16922.125747457238,4069.895037400131,22571.79737946956,44015.45751279086,0.0,0.0,0.0,193.0,0.0,193.0,0.0,17.0,0.0,179.0,193.0,17.0,179.0,1744418663.1461983,0.0,2025-04-11 20:44:23.146,RIGHT,17
242.0,6841.69016381385,-12627.439216070083,-24395.83383748935,-24204.212332274,16784.014318467896,4076.131174103162,22461.737389771628,43944.64718635645,0.0,0.0,0.0,193.0,0.0,193.0,0.0,17.0,0.0,179.0,193.0,17.0,179.0,1744418663.146233,0.0,2025-04-11 20:44:23.146,RIGHT,17
243.0,6857.470495399296,-12586.244951038952,-24393.285738621445,-24178.820750572773,16686.605416131668,4283.46595567059,22179.05487764536,44027.21453037435,0.0,0.0,0.0,193.0,0.0,193.0,0.0,17.0,0.0,179.0,193.0,17.0,179.0,1744418663.146269,0.0,2025-04-11 20:44:23.146,RIGHT,17
244.0,6871.440335683863,-12590.737651674468,-24343.75427290848,-24167.577823111755,16832.89758359165,4267.149182218216,22193.11412490775,44057.43408887793,0.0,0.0,0.0,193.0,0.0,192.0,0.0,17.0,0.0,178.0,192.0,17.0,178.0,1744418663.146305,0.0,2025-04-11 20:44:23.146,RIGHT,17
245.0,6845.601719093528,-12639.710323776046,-24360.987467883526,-24209.75556489892,16912.2909798969,4091.576229521779,22592.56215006854,44009.33313481011,0.0,0.0,0.0,193.0,0.0,193.0,0.0,17.0,0.0,179.0,193.0,17.0,179.0,1744418663.1463554,0.0,2025-04-11 20:44:23.146,RIGHT,17
246.0,6829.195538663333,-12647.734600035501,-24406.093288194334,-24212.951864356026,16765.819998481275,4011.7134465829668,22543.142443077857,43904.45874982581,0.0,0.0,0.0,193.0,0.0,192.0,0.0,17.0,0.0,178.0,192.0,17.0,178.0,1744418663.1463914,0.0,2025-04-11 20:44:23.146,RIGHT,17
247.0,6841.623108580484,-12610.161317606131,-24411.703576052616,-24179.290137206335,16680.726907339922,4233.442751579613,22265.846701365317,43983.047483330665,0.0,0.0,0.0,193.0,0.0,193.0,0.0,17.0,0.0,179.0,193.0,17.0,179.0,1744418663.1464272,0.0,2025-04-11 20:44:23.146,RIGHT,17
248.0,6861.40440242343,-12592.391680764162,-24355.48893874752,-24167.466064389475,16802.163934965603,4268.423231652168,22172.908147920152,44027.34864084109,0.0,0.0,0.0,193.0,0.0,193.0,0.0,17.0,0.0,179.0,193.0,17.0,179.0,1744418663.146463,0.0,2025-04-11 20:44:23.146,RIGHT,17
249.0,6822.959401960302,-12642.750161021968,-24372.655078489195,-24238.254039079435,16938.889555798716,4066.385813520648,22582.86149297494,44028.086248408115,0.0,0.0,0.0,193.0,0.0,193.0,0.0,17.0,0.0,179.0,193.0,17.0,179.0,1744418663.1465116,0.0,2025-04-11 20:44:23.146,RIGHT,17
250.0,6834.559957332606,-12622.790053223378,-24397.107886923302,-24223.300722038835,16815.642036872156,3933.482340989392,22591.71278377924,43902.82707248057,0.0,0.0,0.0,193.0,0.0,192.0,0.0,17.0,0.0,178.0,192.0,17.0,178.0,1744418663.146548,0.0,2025-04-11 20:44:23.146,RIGHT,17
251.0,6836.616317822495,-12611.860050184734,-24415.190448187645,-24182.59819538572,16664.924224010017,4217.952992672085,22343.273144158502,43960.18164875289,0.0,0.0,0.0,193.0,0.0,193.0,0.0,17.0,0.0,179.0,193.0,17.0,179.0,1744418663.1465836,0.0,2025-04-11 20:44:23.146,RIGHT,17
252.0,6860.577387878584,-12590.178858063085,-24365.837796430325,-24164.269764932367,16718.389596747114,4336.886624918774,22181.379459068714,44018.69851573688,0.0,0.0,0.0,193.0,0.0,193.0,0.0,17.0,0.0,179.0,193.0,17.0,179.0,1744418663.1466196,0.0,2025-04-11 20:44:23.146,RIGHT,17
253.0,6813.72813150026,-12652.719039049034,-24364.519043507462,-24232.062605865314,16944.432788423634,4192.8743353932305,22540.3708267654,44010.1377976105,0.0,0.0,0.0,193.0,0.0,192.0,0.0,17.0,0.0,178.0,192.0,17.0,178.0,1744418663.146655,0.0,2025-04-11 20:44:23.146,RIGHT,17
254.0,6800.093567382523,-12670.399268913183,-24403.58989281534,-24241.003303647438,16870.895549165674,4000.135242955118,22640.596048902997,43877.92722915736,0.0,0.0,0.0,193.0,0.0,193.0,0.0,17.0,0.0,179.0,193.0,17.0,179.0,1744418663.146691,0.0,2025-04-11 20:44:23.146,RIGHT,17
255.0,6805.502689540707,-12651.020306470431,-24425.092270981346,-24198.08795429325,16729.40900676358,4196.87529765073,22420.09608985139,43916.50634008722,0.0,0.0,0.0,193.0,0.0,192.0,0.0,17.0,0.0,179.0,192.0,17.0,179.0,1744418663.1467273,0.0,2025-04-11 20:44:23.146,RIGHT,17
0.0,6833.755294532215,-12616.084529886786,-24382.892177449725,-24165.230889943945,16726.525631728844,4350.498837292056,22180.4853892905,43979.73942515128,0.0,0.0,0.0,193.0,0.0,192.0,0.0,17.0,0.0,178.0,192.0,17.0,178.0,1744418663.1467628,0.0,2025-04-11 20:44:23.146,RIGHT,17
1.0,6826.893308984436,-12631.21666088303,-24348.0458078439,-24183.760486097395,16914.235581664514,4264.578731605856,22473.762628288583,43990.132986323,0.0,0.0,0.0,193.0,0.0,193.0,0.0,17.0,0.0,179.0,193.0,17.0,179.0,1744418663.146798,0.0,2025-04-11 20:44:23.146,RIGHT,17
2.0,6810.084797154045,-12646.684068046103,-24393.35279385481,-24224.306550539324,16831.802348113342,4018.195452475006,22660.62321193495,43865.14203132892,0.0,0.0,0.0,193.0,0.0,193.0,0.0,17.0,0.0,179.0,193.0,17.0,179.0,1744418663.1468344,0.0,2025-04-11 20:44:23.146,RIGHT,17
3.0,6810.263611109688,-12627.26040211444,-24419.906666267714,-24195.18222751406,16702.25163725038,4116.498424589447,22460.619802548863,43850.993377088715,0.0,0.0,0.0,193.0,0.0,192.0,0.0,17.0,0.0,178.0,192.0,17.0,178.0,1744418663.14687,0.0,2025-04-11 20:44:23.146,RIGHT,17
4.0,6823.9205269718805,-12598.046672111353,-24393.598663043816,-24163.330991665243,16689.24292197739,4282.169554492182,22193.985842941507,43935.90765427442,0.0,0.0,0.0,193.0,0.0,193.0,0.0,17.0,0.0,179.0,193.0,17.0,179.0,1744418663.1469193,0.0,2025-04-11 20:44:23.146,RIGHT,17
5.0,6805.0780063960565,-12632.423655083616,-24361.188633583624,-24189.97427105597,16895.281302366413,4234.493283569012,22412.362386269855,43968.76471862373,0.0,0.0,0.0,193.0,0.0,193.0,0.0,17.0,0.0,179.0,193.0,17.0,179.0,1744418663.1469557,0.0,2025-04-11 20:44:23.146,RIGHT,17
6.0,6794.416224290875,-12665.861864788756,-24392.995165943525,-24236.421196034098,16903.573799559334,4025.1021415116957,22686.372421547465,43866.930170885345,0.0,0.0,0.0,193.0,0.0,192.0,0.0,17.0,0.0,179.0,192.0,17.0,179.0,1744418663.1469915,0.0,2025-04-11 20:44:23.146,RIGHT,17
7.0,6815.180994889855,-12637.8327772418,-24401.35471836981,-24190.60011990072,16779.298100387823,4083.7307672179663,22528.770271393096,43826.942900054804,0.0,0.0,0.0,193.0,0.0,192.0,0.0,17.0,0.0,179.0,192.0,17.0,179.0,1744418663.1470273,0.0,2025-04-11 20:44:23.147,RIGHT,17
8.0,6822.869994982481,-12613.379968807694,-24397.532570067953,-24162.436921887034,16692.483924923414,4297.4134442107015,22254.179090759648,43921.803703523125,0.0,0.0,0.0,193.0,0.0,193.0,0.0,17.0,0.0,179.0,193.0,17.0,179.0,1744418663.147076,0.0,2025-04-11 20:44:23.147,RIGHT,17
9.0,6809.68246575385,-12634.100035917763,-24365.9495551526,-24182.374677941167,16837.323228993802,4262.991757749529,22352.727932063095,43945.94358753486,0.0,0.0,0.0,193.0,0.0,193.0,0.0,17.0,0.0,178.0,193.0,17.0,178.0,1744418663.147112,0.0,2025-04-11 20:44:23.147,RIGHT,17
10.0,6791.443442278319,-12661.659736831158,-24380.187616370633,-24231.302646553835,16890.00629067496,4041.6647841530785,22702.622139766474,43867.82424066356,0.0,0.0,0.0,193.0,0.0,192.0,0.0,17.0,0.0,178.0,192.0,17.0,178.0,1744418663.147148,0.0,2025-04-11 20:44:23.147,RIGHT,17
11.0,6784.000311374702,-12658.262271673952,-24408.35081438432,-24213.44360273404,16746.284573827335,3995.642542319601,22604.252112418668,43785.48041409021,0.0,0.0,0.0,193.0,0.0,193.0,0.0,17.0,0.0,179.0,193.0,17.0,179.0,1744418663.1471837,0.0,2025-04-11 20:44:23.147,RIGHT,17
12.0,6799.53477377114,-12618.83379445479,-24403.992224215537,-24170.863529546685,16681.86684630714,4259.9072170146965,22312.13716413226,43880.02829313616,0.0,0.0,0.0,193.0,0.0,193.0,0.0,17.0,0.0,179.0,193.0,17.0,179.0,1744418663.1472192,0.0,2025-04-11 20:44:23.147,RIGHT,17
13.0,6803.625143006461,-12612.128271118198,-24370.241090088024,-24170.528253379853,16799.258208186413,4297.614609910799,22293.09347785634,43900.97187769078,0.0,0.0,0.0,193.0,0.0,192.0,0.0,17.0,0.0,178.0,192.0,17.0,178.0,1744418663.1472547,0.0,2025-04-11 20:44:23.147,RIGHT,17
14.0,6767.795296644605,-12675.093135248797,-24386.647270518217,-24229.89448665315,16925.344398658803,4115.559651322324,22697.816514708582,43862.34806327201,0.0,0.0,0.0,193.0,0.0,193.0,0.0,17.0,0.0,179.0,193.0,17.0,179.0,1744418663.147295,0.0,2025-04-11 20:44:23.147,RIGHT,17
15.0,6766.498895466197,-12676.166018982653,-24414.83282027636,-24219.545628970343,16812.691606604054,4007.4889668809137,22650.788444374615,43752.84686718546,0.0,0.0,0.0,193.0,0.0,192.0,0.0,17.0,0.0,178.0,192.0,17.0,178.0,1744418663.1473308,0.0,2025-04-11 20:44:23.147,RIGHT,17
16.0,6782.145116584911,-12640.917317976633,-24418.40909938921,-24177.278480205357,16698.474192437436,4265.472801384068,22380.980537054606,43837.224702504245,0.0,0.0,0.0,193.0,0.0,192.0,0.0,17.0,0.0,178.0,192.0,17.0,178.0,1744418663.1473663,0.0,2025-04-11 20:44:23.147,RIGHT,17
17.0,6801.367616816476,-12637.698666775068,-24378.891215192227,-24180.295965706824,16761.617870523678,4315.875985130785,22281.515274228488,43887.627886250964,0.0,0.0,0.0,193.0,0.0,193.0,0.0,17.0,0.0,179.0,193.0,17.0,179.0,1744418663.1474018,0.0,2025-04-11 20:44:23.147,RIGHT,17
18.0,6781.608674717984,-12676.434239916116,-24386.043773417925,-24223.94892262804,16909.45230835108,4157.290358220382,22668.088694583024,43870.86407790948,0.0,0.0,0.0,193.0,0.0,193.0,0.0,17.0,0.0,179.0,193.0,17.0,179.0,1744418663.147437,0.0,2025-04-11 20:44:23.147,RIGHT,17
19.0,6784.514401497174,-12668.007632256466,-24406.562674827896,-24215.03057659037,16813.496269404444,4000.4705191219473,22674.660107452884,43728.34935526244,0.0,0.0,0.0,193.0,0.0,192.0,0.0,17.0,0.0,178.0,192.0,17.0,178.0,1744418663.147486,0.0,2025-04-11 20:44:23.147,RIGHT,17
20.0,6784.670863708361,-12648.494559346982,-24420.39840464573,-24187.046192532325,16718.50135546939,4226.558414287379,22425.25934282057,43786.24037340169,0.0,0.0,0.0,193.0,0.0,193.0,0.0,17.0,0.0,179.0,193.0,17.0,179.0,1744418663.1475224,0.0,2025-04-11 20:44:23.147,RIGHT,17
21.0,6801.948762172314,-12627.148643392164,-24386.3566978403,-24177.457294161,16746.39633254961,4320.212223555115,22241.528003397943,43848.48998170972,0.0,0.0,0.0,193.0,0.0,192.0,0.0,17.0,0.0,178.0,192.0,17.0,178.0,1744418663.1475575,0.0,2025-04-11 20:44:23.147,RIGHT,17
22.0,6789.655302721894,-12654.529530349915,-24371.96217441108,-24216.55049521333,16882.138476626693,4170.030852559907,22582.83914123048,43837.4482199488,0.0,0.0,0.0,193.0,0.0,192.0,0.0,17.0,0.0,178.0,192.0,17.0,178.0,1744418663.147594,0.0,2025-04-11 20:44:23.147,RIGHT,17
23.0,6771.662148435373,-12679.161152739664,-24412.575294086375,-24242.567925759307,16800.04051924235,3963.970120426431,22704.857314212004,43703.5165671726,0.0,0.0,0.0,193.0,0.0,193.0,0.0,17.0,0.0,179.0,193.0,17.0,179.0,1744418663.1476429,0.0,2025-04-11 20:44:23.147,RIGHT,17
24.0,6766.744764655205,-12666.152437466675,-24438.72683509908,-24202.334785739757,16696.39548020309,4171.193143271583,22507.670224627283,43739.70404144574,0.0,0.0,0.0,193.0,0.0,193.0,0.0,17.0,0.0,179.0,193.0,17.0,179.0,1744418663.1476789,0.0,2025-04-11 20:44:23.147,RIGHT,17
25.0,6788.180087587844,-12637.273983630417,-24413.625826075775,-24177.88197730565,16673.239072947392,4292.18313600816,22282.588157962342,43822.83017907503,0.0,0.0,0.0,193.0,0.0,192.0,0.0,17.0,0.0,178.0,192.0,17.0,178.0,1744418663.1477127,0.0,2025-04-11 20:44:23.147,RIGHT,17
26.0,6773.651453691895,-12674.042603259399,-24384.590910028328,-24201.843047361737,16861.3290025388,4190.192126058594,22556.397027539853,43837.80584786008,0.0,0.0,0.0,193.0,0.0,193.0,0.0,17.0,0.0,179.0,193.0,17.0,179.0,1744418663.1477456,0.0,2025-04-11 20:44:23.147,RIGHT,17
27.0,6759.391040729409,-12688.079498777332,-24409.468401607086,-24230.766204686905,16828.337827722768,3997.900068509587,22764.31295446312,43730.22690179669,0.0,0.0,0.0,193.0,0.0,193.0,0.0,17.0,0.0,179.0,193.0,17.0,179.0,1744418663.1477785,0.0,2025-04-11 20:44:23.147,RIGHT,17
28.0,6755.7700581276495,-12658.30697516286,-24424.846401792336,-24194.69048913604,16695.97079705844,4148.483770904991,22584.001431942157,43730.249253541144,0.0,0.0,0.0,193.0,0.0,192.0,0.0,17.0,0.0,178.0,192.0,17.0,178.0,1744418663.1478112,0.0,2025-04-11 20:44:23.147,RIGHT,17
29.0,6766.968282099758,-12638.749198764468,-24413.961102242603,-24176.69733484952,16694.719099368944,4328.504720748034,22323.22362938209,43837.80584786008,0.0,0.0,0.0,193.0,0.0,193.0,0.0,17.0,0.0,179.0,193.0,17.0,179.0,1744418663.1478443,0.0,2025-04-11 20:44:23.147,RIGHT,17
30.0,6761.693270408306,-12668.387611912205,-24376.276061090954,-24201.843047361737,16858.982069370995,4255.749792546009,22505.4126984373,43869.07593835306,0.0,0.0,0.0,193.0,0.0,192.0,0.0,18.0,0.0,178.0,192.0,18.0,178.0,1744418663.1478765,0.0,2025-04-11 20:44:23.147,RIGHT,17
31.0,6744.661241133362,-12704.150403040696,-24403.2099131596,-24250.83807120777,16871.09671486577,4054.3829267481483,22805.171943327423,43786.821518757526,0.0,0.0,0.0,193.0,0.0,193.0,0.0,17.0,0.0,179.0,193.0,17.0,179.0,1744418663.147911,0.0,2025-04-11 20:44:23.147,RIGHT,17
32.0,6749.690383635805,-12690.918170323155,-24421.895971524238,-24217.444564991543,16757.68396349954,4092.7608719779105,22658.991534589713,43736.12776233289,0.0,0.0,0.0,193.0,0.0,193.0,0.0,17.0,0.0,179.0,193.0,17.0,179.0,1744418663.1479445,0.0,2025-04-11 20:44:23.147,RIGHT,17
33.0,6761.492104708208,-12654.909510005655,-24416.710366810607,-24184.386334942144,16686.270139964836,4305.013037325506,22377.985403297593,43840.935092083826,0.0,0.0,0.0,193.0,0.0,193.0,0.0,17.0,0.0,179.0,193.0,17.0,179.0,1744418663.147977,0.0,2025-04-11 20:44:23.147,RIGHT,17
34.0,6758.4075639733755,-12667.895873534188,-24374.711438979084,-24191.89652107913,16824.627438143187,4277.721557345576,22448.326343098444,43871.57933373205,0.0,0.0,0.0,193.0,0.0,192.0,0.0,17.0,0.0,179.0,192.0,17.0,179.0,1744418663.148024,0.0,2025-04-11 20:44:23.148,RIGHT,17
35.0,6735.407618928864,-12718.075539836353,-24394.73860201104,-24248.60289676224,16880.663261492642,4081.540296261346,22821.868696435537,43815.76702782715,0.0,0.0,0.0,193.0,0.0,193.0,0.0,18.0,0.0,179.0,193.0,18.0,179.0,1744418663.1480565,0.0,2025-04-11 20:44:23.148,RIGHT,17
36.0,6745.622366144939,-12695.41087095867,-24414.810468531905,-24222.183134816067,16745.21169009348,4020.5423856428133,22720.25766614171,43726.18123605028,0.0,0.0,0.0,193.0,0.0,193.0,0.0,17.0,0.0,179.0,193.0,17.0,179.0,1744418663.1480885,0.0,2025-04-11 20:44:23.148,RIGHT,17
37.0,6756.686479650317,-12664.990146754999,-24409.98249172956,-24180.631241873652,16620.488956032867,4241.712897028076,22449.712151254673,43822.114923252455,0.0,0.0,0.0,193.0,0.0,192.0,0.0,17.0,0.0,178.0,192.0,17.0,178.0,1744418663.14812,0.0,2025-04-11 20:44:23.148,RIGHT,17
38.0,6759.5251511961405,-12670.22045495754,-24370.77753195495,-24179.69246860653,16750.352591318202,4264.17640020566,22425.57226724294,43874.9544471448,0.0,0.0,0.0,193.0,0.0,193.0,0.0,18.0,0.0,179.0,193.0,18.0,179.0,1744418663.1481645,0.0,2025-04-11 20:44:23.148,RIGHT,17
39.0,6729.0597235035575,-12712.308789766883,-24380.321726837366,-24238.3210943128,16916.11312819876,4079.0145491378967,22825.020292403733,43851.50746721119,0.0,0.0,0.0,193.0,0.0,192.0,0.0,17.0,0.0,179.0,192.0,17.0,179.0,1744418663.1481967,0.0,2025-04-11 20:44:23.148,RIGHT,17
40.0,6726.779845569115,-12700.819993116856,-24399.521875324474,-24230.877963409184,16785.981271979963,3961.846704703177,22793.146704810468,43738.4746955007,0.0,0.0,0.0,193.0,0.0,192.0,0.0,17.0,0.0,178.0,192.0,17.0,178.0,1744418663.148228,0.0,2025-04-11 20:44:23.148,RIGHT,17
41.0,6728.925613036825,-12675.003728270976,-24416.755070299518,-24189.706050122506,16631.173089882504,4241.087048183328,22544.23767855617,43830.96621405676,0.0,0.0,0.0,193.0,0.0,192.0,0.0,18.0,0.0,179.0,192.0,18.0,179.0,1744418663.14826,0.0,2025-04-11 20:44:23.148,RIGHT,17
42.0,6746.158808011867,-12666.152437466675,-24377.97479366956,-24177.569052883275,16715.21564903446,4314.3784182522795,22416.76567992755,43882.46463328179,0.0,0.0,0.0,193.0,0.0,193.0,0.0,17.0,0.0,179.0,193.0,17.0,179.0,1744418663.148291,0.0,2025-04-11 20:44:23.148,RIGHT,17
43.0,6719.828453043516,-12705.044472818909,-24385.149703639712,-24230.162707586613,16908.066500194847,4172.668358405633,22809.441126518384,43884.766862960685,0.0,0.0,0.0,193.0,0.0,193.0,0.0,17.0,0.0,178.0,193.0,17.0,178.0,1744418663.1483228,0.0,2025-04-11 20:44:23.148,RIGHT,17
44.0,6719.917860021336,-12677.708289350068,-24414.07286096488,-24225.42413776209,16796.307777918315,3985.2713328923387,22852.62469680604,43761.005253911644,0.0,0.0,0.0,193.0,0.0,193.0,0.0,17.0,0.0,179.0,193.0,17.0,179.0,1744418663.1483545,0.0,2025-04-11 20:44:23.148,RIGHT,17
45.0,6719.336714665498,-12653.79192278289,-24434.144727485746,-24192.008279801405,16665.4830176214,4169.203838015061,22615.875019535426,43825.62414713194,0.0,0.0,0.0,193.0,0.0,193.0,0.0,17.0,0.0,179.0,193.0,17.0,179.0,1744418663.1483865,0.0,2025-04-11 20:44:23.148,RIGHT,17
46.0,6728.277412447622,-12645.097094189776,-24412.68705280865,-24192.54472166833,16683.72204109693,4256.88973151323,22421.95128464118,43895.674514254875,0.0,0.0,0.0,193.0,0.0,192.0,0.0,17.0,0.0,178.0,192.0,17.0,178.0,1744418663.1484187,0.0,2025-04-11 20:44:23.148,RIGHT,17
47.0,6706.506813348153,-12670.8910072912,-24386.937843196138,-24214.583541701264,16879.612729503242,4205.570126243845,22765.83287308608,43915.43345635336,0.0,0.0,0.0,193.0,0.0,192.0,0.0,18.0,0.0,178.0,192.0,18.0,178.0,1744418663.1484506,0.0,2025-04-11 20:44:23.148,RIGHT,17
48.0,6704.89748774737,-12667.515893878448,-24409.3119393959,-24223.50188773893,16817.653693873133,4009.3665134151597,22906.112421287587,43802.31127766505,0.0,0.0,0.0,193.0,0.0,193.0,0.0,17.0,0.0,179.0,193.0,17.0,179.0,1744418663.1484828,0.0,2025-04-11 20:44:23.148,RIGHT,17
49.0,6715.156938452356,-12635.754065007457,-24416.196276688133,-24180.139503495637,16716.109718812673,4156.597454142267,22679.711601699782,43815.63291736042,0.0,0.0,0.0,193.0,0.0,192.0,0.0,17.0,0.0,178.0,192.0,17.0,178.0,1744418663.1485145,0.0,2025-04-11 20:44:23.148,RIGHT,17
50.0,6722.242441444689,-12614.408149052639,-24404.103982937813,-24172.674020847564,16672.926148525017,4304.454243714124,22439.20683136068,43898.40142707842,0.0,0.0,0.0,193.0,0.0,192.0,0.0,18.0,0.0,179.0,192.0,18.0,179.0,1744418663.1485603,0.0,2025-04-11 20:44:23.148,RIGHT,17
51.0,6704.13752843589,-12647.26521340194,-24385.06029666189,-24227.301684296333,16873.19777884457,4164.979358313008,22700.364613576487,43927.12341870349,0.0,0.0,0.0,193.0,0.0,193.0,0.0,18.0,0.0,179.0,193.0,18.0,179.0,1744418663.1485918,0.0,2025-04-11 20:44:23.148,RIGHT,17
52.0,6697.454356843753,-12669.102867734775,-24409.06607020689,-24239.3716263022,16878.606901002753,3990.479289350425,22927.279523286765,43813.64361210389,0.0,0.0,0.0,193.0,0.0,192.0,0.0,18.0,0.0,178.0,192.0,18.0,178.0,1744418663.1486237,0.0,2025-04-11 20:44:23.148,RIGHT,17
53.0,6699.868345244926,-12656.02709722842,-24434.41294841921,-24197.104477537214,16740.763692946875,4143.700497591555,22752.64534385745,43787.20149841327,0.0,0.0,0.0,193.0,0.0,193.0,0.0,17.0,0.0,179.0,193.0,17.0,179.0,1744418663.148669,0.0,2025-04-11 20:44:23.148,RIGHT,17
54.0,6718.017961742636,-12628.623858526214,-24419.951369756625,-24173.34457318122,16686.270139964836,4339.546482508956,22478.903529513304,43879.022464635666,0.0,0.0,0.0,193.0,0.0,192.0,0.0,17.0,0.0,178.0,192.0,17.0,178.0,1744418663.1487007,0.0,2025-04-11 20:44:23.148,RIGHT,17
55.0,6709.971333738725,-12653.143722193685,-24379.092380892325,-24191.047154789827,16850.711923922532,4276.961598034096,22632.48236566572,43905.84455798204,0.0,0.0,0.0,193.0,0.0,192.0,0.0,17.0,0.0,178.0,192.0,17.0,178.0,1744418663.1487324,0.0,2025-04-11 20:44:23.148,RIGHT,17
56.0,6693.207525397244,-12680.636367873713,-24410.02719521847,-24235.571829744797,16866.559310741344,4049.9125778570865,22949.854785186624,43828.976908800236,0.0,0.0,0.0,193.0,0.0,193.0,0.0,17.0,0.0,179.0,193.0,17.0,179.0,1744418663.1487644,0.0,2025-04-11 20:44:23.148,RIGHT,17
57.0,6688.223086383711,-12670.801600313378,-24441.78902408946,-24214.851762634727,16736.718027200466,4082.1214416171842,22826.406100559965,43778.931352964806,0.0,0.0,0.0,193.0,0.0,192.0,0.0,18.0,0.0,178.0,192.0,18.0,178.0,1744418663.148796,0.0,2025-04-11 20:44:23.148,RIGHT,17
58.0,6702.639961557385,-12638.50332957546,-24434.904686797225,-24191.3600792122,16674.82604680372,4300.90031634573,22556.888765917873,43888.27608684017,0.0,0.0,0.0,193.0,0.0,192.0,0.0,18.0,0.0,178.0,192.0,18.0,178.0,1744418663.148829,0.0,2025-04-11 20:44:23.148,RIGHT,17
59.0,6707.959676737747,-12642.07960868831,-24384.00976467249,-24199.384355471655,16824.202754998536,4246.652632552699,22612.365795655944,43923.59184307955,0.0,0.0,0.0,193.0,0.0,193.0,0.0,17.0,0.0,179.0,193.0,17.0,179.0,1744418663.1488607,0.0,2025-04-11 20:44:23.148,RIGHT,17
60.0,6690.100632917957,-12676.769516082944,-24400.0583171914,-24233.64957972164,16880.350337070267,4066.542275731835,22992.479561862896,43866.863115651984,0.0,0.0,0.0,193.0,0.0,192.0,0.0,17.0,0.0,179.0,192.0,17.0,179.0,1744418663.148898,0.0,2025-04-11 20:44:23.148,RIGHT,17
61.0,6688.290141617077,-12658.016402484942,-24424.824050047882,-24209.487343965455,16756.141693132126,4038.8484643517095,22907.162953276988,43770.61650402743,0.0,0.0,0.0,193.0,0.0,193.0,0.0,18.0,0.0,179.0,193.0,18.0,179.0,1744418663.1489313,0.0,2025-04-11 20:44:23.148,RIGHT,17
62.0,6689.340673606476,-12635.64230628518,-24428.51208788301,-24183.44756167502,16660.25270941886,4272.848877054319,22630.9400952983,43862.526877227654,0.0,0.0,0.0,193.0,0.0,193.0,0.0,17.0,0.0,179.0,193.0,17.0,179.0,1744418663.1489656,0.0,2025-04-11 20:44:23.148,RIGHT,17
63.0,6704.472804602719,-12637.810425497346,-24386.468456562576,-24179.379544184154,16772.27965262886,4290.149127262727,22568.668135245818,43895.7639212327,0.0,0.0,0.0,193.0,0.0,192.0,0.0,18.0,0.0,178.0,192.0,18.0,178.0,1744418663.1490016,0.0,2025-04-11 20:44:23.149,RIGHT,17
64.0,6665.469010528209,-12696.059071547876,-24404.17103817118,-24231.682626209575,16900.064575679848,4120.454683358036,22969.68078251848,43869.67943545335,0.0,0.0,0.0,193.0,0.0,193.0,0.0,18.0,0.0,178.0,193.0,18.0,178.0,1744418663.14904,0.0,2025-04-11 20:44:23.149,RIGHT,17
65.0,6658.338804046965,-12694.98618781402,-24427.88623903826,-24232.442585521054,16765.819998481275,3952.2801580763053,22963.10936964862,43760.55821902254,0.0,0.0,0.0,193.0,0.0,192.0,0.0,17.0,0.0,178.0,192.0,17.0,178.0,1744418663.1491182,0.0,2025-04-11 20:44:23.149,RIGHT,17
66.0,6673.917969932315,-12659.804542041367,-24434.859983308314,-24189.88486407815,16633.452967816946,4202.396178531191,22709.50647705871,43834.073106536045,0.0,0.0,0.0,193.0,0.0,193.0,0.0,17.0,0.0,178.0,193.0,17.0,178.0,1744418663.1491528,0.0,2025-04-11 20:44:23.149,RIGHT,17
