Sample Index,EXG Channel 0,EXG Channel 1,EXG Channel 2,EXG Channel 3,EXG Channel 4,EXG Channel 5,EXG Channel 6,EXG Channel 7,Accel Channel 0,Accel Channel 1,Accel Channel 2,Not Used,Digital Channel 0 (D11),Digital Channel 1 (D12),Digital Channel 2 (D13),Digital Channel 3 (D17),Not Used,Digital Channel 4 (D18),Analog Channel 0,Analog Channel 1,Analog Channel 2,Timestamp,Marker Channel,Timestamp (Formatted),Stimulus_Direction,Stimulus_Number
29.0,20480.210540319746,25752.942353837774,-32000.81372270748,-22094.498228370932,-36151.48796456909,-28513.047517901367,-14053.771084996592,-37105.10279001031,0.0,0.0,0.0,193.0,0.0,194.0,0.0,1.0,0.0,179.0,194.0,1.0,179.0,1744420519.726116,0.0,2025-04-11 21:15:19.726,RIGHT,28
30.0,20487.430153778812,25740.67124613181,-32009.44149606723,-22115.46416467001,-36160.49571758458,-28525.340977351785,-13825.895050274738,-37148.62163646479,0.0,0.0,0.0,193.0,0.0,193.0,0.0,1.0,0.0,179.0,193.0,1.0,179.0,1744420519.7261558,0.0,2025-04-11 21:15:19.726,RIGHT,28
31.0,20471.09102858198,25743.15228976635,-31998.95852791769,-22102.008414507916,-36144.42481332121,-28504.196227097065,-14129.968181844733,-37143.39132826225,0.0,0.0,0.0,193.0,0.0,193.0,0.0,1.0,0.0,179.0,193.0,1.0,179.0,1744420519.726195,0.0,2025-04-11 21:15:19.726,RIGHT,28
32.0,20459.62458367641,25754.61873467192,-31991.738914458623,-22090.206693435513,-36138.99333941857,-28490.0252211124,-14412.918914904467,-37130.71788915609,0.0,0.0,0.0,193.0,0.0,194.0,0.0,1.0,0.0,179.0,194.0,1.0,179.0,1744420519.72631,0.0,2025-04-11 21:15:19.726,RIGHT,28
33.0,20479.405877519355,25757.166833539824,-31999.159693617785,-22092.71008881451,-36146.61528427783,-28505.224407342008,-14154.152769345375,-37117.23978724954,0.0,0.0,0.0,193.0,0.0,193.0,0.0,1.0,0.0,179.0,193.0,1.0,179.0,1744420519.7263503,0.0,2025-04-11 21:15:19.726,RIGHT,28
34.0,20491.833447436507,25739.79952809805,-32015.051783925508,-22117.878153071186,-36160.7862902625,-28525.564494796337,-13821.804681039415,-37148.73339518707,0.0,0.0,0.0,193.0,0.0,193.0,0.0,1.0,0.0,179.0,193.0,1.0,179.0,1744420519.72639,0.0,2025-04-11 21:15:19.726,RIGHT,28
35.0,20472.47683673821,25730.94823729375,-32007.94392918872,-22107.84221981075,-36150.03510117949,-28505.000889897456,-14090.78557381458,-37140.59736020534,0.0,0.0,0.0,193.0,0.0,194.0,0.0,1.0,0.0,180.0,194.0,1.0,180.0,1744420519.7264438,0.0,2025-04-11 21:15:19.726,RIGHT,28
36.0,20452.472025450712,25742.168813010314,-32000.99253666312,-22094.855856282218,-36140.781478975,-28489.086447845275,-14396.915065874466,-37122.380688474266,0.0,0.0,0.0,193.0,0.0,194.0,0.0,1.0,0.0,179.0,194.0,1.0,179.0,1744420519.7264836,0.0,2025-04-11 21:15:19.726,RIGHT,28
37.0,20468.38646750289,25747.600286912955,-31997.32685057245,-22087.010393978406,-36140.848534208366,-28493.936776392078,-14248.8124071136,-37111.85301683581,0.0,0.0,0.0,193.0,0.0,193.0,0.0,1.0,0.0,179.0,193.0,1.0,179.0,1744420519.7265234,0.0,2025-04-11 21:15:19.726,RIGHT,28
38.0,20492.48164802571,25743.08523453298,-32016.348185103918,-22109.183324478072,-36161.07686294042,-28520.580055782804,-13819.703617060617,-37134.20476129112,0.0,0.0,0.0,193.0,0.0,193.0,0.0,1.0,0.0,179.0,193.0,1.0,179.0,1744420519.726563,0.0,2025-04-11 21:15:19.726,RIGHT,28
39.0,20475.76254317314,25729.38361518188,-32017.108144415397,-22112.960769291018,-36162.4850228411,-28513.49455279047,-14024.244430571132,-37157.808203435925,0.0,0.0,0.0,193.0,0.0,194.0,0.0,1.0,0.0,180.0,194.0,1.0,180.0,1744420519.7266028,0.0,2025-04-11 21:15:19.726,RIGHT,28
40.0,20461.725647655207,25743.7781386111,-32004.09942914241,-22096.621644094186,-36153.857249481356,-28498.83180842779,-14368.997737049787,-37142.67607243968,0.0,0.0,0.0,193.0,0.0,193.0,0.0,1.0,0.0,179.0,193.0,1.0,179.0,1744420519.726655,0.0,2025-04-11 21:15:19.726,RIGHT,28
41.0,20471.269842537626,25748.986095069184,-31997.505664528093,-22086.71982130049,-36150.05745292395,-28504.933834664087,-14345.170777460431,-37146.65468295273,0.0,0.0,0.0,193.0,0.0,193.0,0.0,1.0,0.0,179.0,193.0,1.0,179.0,1744420519.7266946,0.0,2025-04-11 21:15:19.726,RIGHT,28
42.0,20498.136639372904,25749.075502047006,-32008.413315822283,-22097.627472594675,-36156.561810560444,-28519.238951115483,-13861.546082680952,-37121.7101361406,0.0,0.0,0.0,193.0,0.0,193.0,0.0,1.0,0.0,179.0,193.0,1.0,179.0,1744420519.7267342,0.0,2025-04-11 21:15:19.726,RIGHT,28
43.0,20491.319357314034,25737.720815863708,-32005.32877508745,-22101.04728949634,-36151.532668058004,-28509.58299751079,-13975.897607314302,-37152.95787488912,0.0,0.0,0.0,193.0,0.0,194.0,0.0,1.0,0.0,180.0,194.0,1.0,180.0,1744420519.726774,0.0,2025-04-11 21:15:19.726,RIGHT,28
44.0,20466.464217479734,25744.694560133765,-32001.886606441334,-22090.3631556467,-36147.44229882268,-28495.300232803853,-14329.189280174885,-37139.569179960396,0.0,0.0,0.0,193.0,0.0,194.0,0.0,1.0,0.0,179.0,194.0,1.0,179.0,1744420519.7268136,0.0,2025-04-11 21:15:19.726,RIGHT,28
45.0,20467.67121168032,25751.62360091491,-31995.717524971667,-22080.70720204201,-36136.44524055067,-28492.081581602288,-14389.404879737483,-37125.33111874236,0.0,0.0,0.0,193.0,0.0,193.0,0.0,1.0,0.0,179.0,193.0,1.0,179.0,1744420519.7268531,0.0,2025-04-11 21:15:19.726,RIGHT,28
46.0,20490.984081147206,25753.344685237967,-32011.140228645832,-22092.106591714215,-36152.717310514134,-28518.97073018202,-13913.357426328354,-37111.24951973552,0.0,0.0,0.0,193.0,0.0,193.0,0.0,1.0,0.0,179.0,193.0,1.0,179.0,1744420519.7268927,0.0,2025-04-11 21:15:19.726,RIGHT,28
47.0,20485.329089800012,25736.71498736322,-32015.632929281346,-22105.070603498294,-36153.410214592244,-28523.016395928433,-13912.709225739149,-37164.40196805024,0.0,0.0,0.0,193.0,0.0,194.0,0.0,1.0,0.0,179.0,194.0,1.0,179.0,1744420519.7270052,0.0,2025-04-11 21:15:19.727,RIGHT,28
48.0,20464.81018839004,25745.901554334352,-32009.19562687822,-22091.883074269663,-36143.37428133182,-28506.811381198335,-14258.9153956074,-37150.87916265478,0.0,0.0,0.0,193.0,0.0,193.0,0.0,1.0,0.0,179.0,193.0,1.0,179.0,1744420519.7270458,0.0,2025-04-11 21:15:19.727,RIGHT,28
49.0,20460.965688343727,25753.076464304504,-32002.825379708458,-22082.85296950972,-36137.138144628785,-28496.753096193446,-14407.308627046184,-37128.90739785521,0.0,0.0,0.0,193.0,0.0,193.0,0.0,1.0,0.0,179.0,193.0,1.0,179.0,1744420519.7270856,0.0,2025-04-11 21:15:19.727,RIGHT,28
50.0,20488.77125844613,25752.80824337104,-32012.771905991067,-22088.150332945628,-36153.700787270165,-28519.306006348852,-13990.739165632625,-37116.23395874906,0.0,0.0,0.0,193.0,0.0,194.0,0.0,1.0,0.0,179.0,194.0,1.0,179.0,1744420519.72714,0.0,2025-04-11 21:15:19.727,RIGHT,28
51.0,20486.737249700698,25732.199934983248,-32026.317063130984,-22117.207600737525,-36167.55886883246,-28535.44396584558,-13877.79580089996,-37173.56618327692,0.0,0.0,0.0,193.0,0.0,193.0,0.0,1.0,0.0,179.0,193.0,1.0,179.0,1744420519.72718,0.0,2025-04-11 21:15:19.727,RIGHT,28
52.0,20471.582766959997,25744.96278106723,-32010.067344911975,-22100.89082728515,-36149.31984535693,-28516.914369692135,-14221.878555044957,-37171.77804372049,0.0,0.0,0.0,193.0,0.0,193.0,0.0,1.0,0.0,179.0,193.0,1.0,179.0,1744420520.2005577,0.0,2025-04-11 21:15:20.200,RIGHT,28
53.0,20458.842272620474,25756.786853884085,-32001.551330274506,-22090.474914368977,-36144.67068251022,-28506.31964282032,-14459.969336982887,-37163.68671222767,0.0,0.0,0.0,193.0,0.0,193.0,0.0,1.0,0.0,180.0,193.0,1.0,180.0,1744420520.2006936,0.0,2025-04-11 21:15:20.200,RIGHT,28
54.0,20482.222197320723,25755.781025383596,-32006.826341965956,-22090.43021088007,-36152.516144814035,-28518.233122614998,-14096.105288994944,-37125.845208864834,0.0,0.0,0.0,193.0,0.0,193.0,0.0,1.0,0.0,179.0,193.0,1.0,179.0,1744420520.20076,0.0,2025-04-11 21:15:20.200,RIGHT,28
55.0,20494.403898048866,25747.06384504603,-32017.57753104896,-22108.244551210948,-36162.14974667427,-28523.17285813962,-13844.424646428186,-37151.59441847735,0.0,0.0,0.0,193.0,0.0,193.0,0.0,1.0,0.0,179.0,193.0,1.0,179.0,1744420520.2008588,0.0,2025-04-11 21:15:20.200,RIGHT,28
56.0,20470.308717526044,25742.369978710412,-32014.895321714324,-22098.3650801617,-36157.612342549844,-28507.50428527645,-14139.780597660614,-37145.80531666343,0.0,0.0,0.0,193.0,0.0,194.0,0.0,1.0,0.0,179.0,194.0,1.0,179.0,1744420520.200904,0.0,2025-04-11 21:15:20.200,RIGHT,28
57.0,20458.127016797902,25756.988019584183,-31998.489141284128,-22079.857835752708,-36140.80383071945,-28487.454770500037,-14431.828490713657,-37128.505066455014,0.0,0.0,0.0,193.0,0.0,193.0,0.0,1.0,0.0,179.0,193.0,1.0,179.0,1744420520.2009473,0.0,2025-04-11 21:15:20.200,RIGHT,28
58.0,20478.62356646342,25763.358266753945,-32001.774847719058,-22077.89088224064,-36150.19156339068,-28500.865817173224,-14175.677499255837,-37106.44389467763,0.0,0.0,0.0,193.0,0.0,193.0,0.0,1.0,0.0,179.0,193.0,1.0,179.0,1744420520.200992,0.0,2025-04-11 21:15:20.200,RIGHT,28
59.0,20493.442773037288,25755.87043236142,-32016.61640603738,-22099.683833084564,-36164.72019728663,-28522.055270916855,-13813.422776868676,-37134.13770605776,0.0,0.0,0.0,193.0,0.0,193.0,0.0,1.0,0.0,179.0,193.0,1.0,179.0,1744420520.201036,0.0,2025-04-11 21:15:20.201,RIGHT,28
60.0,20478.444752507778,25751.981228826193,-32008.502722800105,-22092.17364694758,-36153.18669714769,-28507.54898876536,-14092.819582560014,-37159.66339822571,0.0,0.0,0.0,193.0,0.0,194.0,0.0,1.0,0.0,179.0,194.0,1.0,179.0,1744420520.2010803,0.0,2025-04-11 21:15:20.201,RIGHT,28
61.0,20464.34080175648,25765.2805167771,-31996.253966838598,-22080.260167152905,-36140.35679583035,-28492.662726958126,-14419.937362663433,-37144.06188059591,0.0,0.0,0.0,193.0,0.0,193.0,0.0,0.0,0.0,179.0,193.0,0.0,179.0,1744420520.2011254,0.0,2025-04-11 21:15:20.201,RIGHT,28
62.0,20475.784894917597,25769.415589501335,-31995.494007527115,-22080.32722238627,-36141.4296795642,-28505.26911083092,-14272.125276580487,-37131.187275789656,0.0,0.0,0.0,193.0,0.0,194.0,0.0,1.0,0.0,179.0,194.0,1.0,179.0,1744420520.2013884,0.0,2025-04-11 21:15:20.201,RIGHT,28
63.0,20499.611854506955,25760.117263807926,-32006.133437887842,-22095.437001638056,-36153.87960122581,-28518.724860993014,-13829.359570665309,-37126.04637456493,0.0,0.0,0.0,193.0,0.0,193.0,0.0,0.0,0.0,179.0,193.0,0.0,179.0,1744420520.2014344,0.0,2025-04-11 21:15:20.201,RIGHT,28
64.0,20481.261072309146,25736.022083285105,-32008.99446117812,-22098.722708072986,-36153.6337320368,-28513.427497557106,-14018.567087479483,-37154.05311036744,0.0,0.0,0.0,193.0,0.0,193.0,0.0,0.0,0.0,179.0,193.0,0.0,179.0,1744420520.2014768,0.0,2025-04-11 21:15:20.201,RIGHT,28
65.0,20462.329144755502,25750.28249624759,-32000.18787386273,-22084.574053832777,-36143.1284121428,-28497.64716597166,-14376.37381272004,-37142.58666546186,0.0,0.0,0.0,193.0,0.0,193.0,0.0,1.0,0.0,179.0,193.0,1.0,179.0,1744420520.2015395,0.0,2025-04-11 21:15:20.201,RIGHT,28
66.0,20472.90151988286,25758.75380739615,-31992.32005981446,-22076.572129317778,-36132.15370561525,-28493.132113591688,-14350.624603107526,-37119.67612739517,0.0,0.0,0.0,193.0,0.0,193.0,0.0,0.0,0.0,179.0,193.0,0.0,179.0,1744420520.201583,0.0,2025-04-11 21:15:20.201,RIGHT,28
67.0,20495.074450382526,25754.305810249545,-32010.648490267813,-22093.09006847025,-36150.99622619108,-28518.478991804004,-13860.249681502544,-37111.11540926879,0.0,0.0,0.0,193.0,0.0,193.0,0.0,0.0,0.0,179.0,193.0,0.0,179.0,1744420520.2016265,0.0,2025-04-11 21:15:20.201,RIGHT,28
68.0,20483.42919152131,25735.306827462537,-32016.214074637184,-22105.674100598586,-36152.91847621423,-28522.30114010586,-13951.37774364683,-37165.89953492874,0.0,0.0,0.0,193.0,0.0,194.0,0.0,0.0,0.0,179.0,194.0,0.0,179.0,1744420520.2016692,0.0,2025-04-11 21:15:20.201,RIGHT,28
69.0,20463.53613895609,25745.275705489603,-32005.887568698832,-22091.16781844709,-36141.78730747549,-28501.424610784605,-14299.707329238336,-37138.853924137824,0.0,0.0,0.0,193.0,0.0,194.0,0.0,0.0,0.0,179.0,194.0,0.0,179.0,1744420520.2017157,0.0,2025-04-11 21:15:20.201,RIGHT,28
70.0,20466.933604113296,25752.20474627075,-31993.035315637033,-22078.159103174105,-36131.03611839248,-28490.516959490415,-14392.109440816575,-37121.68778439615,0.0,0.0,0.0,193.0,0.0,193.0,0.0,0.0,0.0,179.0,193.0,0.0,179.0,1744420520.2017963,0.0,2025-04-11 21:15:20.201,RIGHT,28
71.0,20491.47581952522,25752.875298604406,-32008.94975768921,-22089.111457957206,-36146.704691255654,-28519.104840648753,-13915.078510651412,-37108.29908946742,0.0,0.0,0.0,193.0,0.0,193.0,0.0,0.0,0.0,179.0,193.0,0.0,179.0,1744420520.201842,0.0,2025-04-11 21:15:20.201,RIGHT,28
72.0,20485.507903755653,25734.770385595606,-32018.24808338262,-22108.825696566786,-36150.39272909078,-28529.990140198486,-13908.484746037097,-37171.64393325376,0.0,0.0,0.0,193.0,0.0,194.0,0.0,0.0,0.0,179.0,194.0,0.0,179.0,1744420520.2018857,0.0,2025-04-11 21:15:20.201,RIGHT,28
73.0,20464.407856989845,25738.033740286082,-32011.319042601473,-22093.492399870443,-36138.07691789591,-28510.342956822275,-14253.170997282386,-37155.39421503475,0.0,0.0,0.0,193.0,0.0,193.0,0.0,0.0,0.0,179.0,193.0,0.0,179.0,1744420520.2019303,0.0,2025-04-11 21:15:20.201,RIGHT,28
74.0,20464.67607792331,25747.510879935133,-32002.04306865252,-22080.93071948656,-36130.85730443684,-28496.7754479379,-14434.555403537202,-37148.82280216489,0.0,0.0,0.0,193.0,0.0,193.0,0.0,0.0,0.0,179.0,193.0,0.0,179.0,1744420520.2019756,0.0,2025-04-11 21:15:20.201,RIGHT,28
75.0,20489.53121775761,25748.226135757704,-32014.67180426977,-22085.490475355444,-36148.26931336753,-28517.16023888114,-14022.143366592332,-37129.51089495551,0.0,0.0,0.0,193.0,0.0,193.0,0.0,0.0,0.0,179.0,193.0,0.0,179.0,1744420520.2020223,0.0,2025-04-11 21:15:20.202,RIGHT,28
76.0,20494.381546304412,25734.90449606234,-32019.76800200558,-22101.404917407624,-36154.01371169254,-28522.703471506058,-13871.805533385937,-37174.102625143845,0.0,0.0,0.0,193.0,0.0,193.0,0.0,0.0,0.0,179.0,193.0,0.0,179.0,1744420520.2020695,0.0,2025-04-11 21:15:20.202,RIGHT,28
77.0,20469.66051693684,25739.017217042117,-32011.743725746124,-22086.496303855933,-36142.301397597956,-28502.54219800737,-14194.654130298393,-37157.09294761335,0.0,0.0,0.0,193.0,0.0,193.0,0.0,0.0,0.0,179.0,193.0,0.0,179.0,1744420520.2025597,0.0,2025-04-11 21:15:20.202,RIGHT,28
78.0,20461.81505463303,25761.19014754178,-31994.57758600445,-22066.80441699081,-36128.64448173577,-28482.045648341853,-14427.13462437804,-37131.097868811834,0.0,0.0,0.0,193.0,0.0,193.0,0.0,0.0,0.0,179.0,193.0,0.0,179.0,1744420520.2026083,0.0,2025-04-11 21:15:20.202,RIGHT,28
79.0,20485.06086886655,25762.44184523128,-31998.779713962045,-22066.26797512388,-36139.06039465194,-28493.53444499188,-14090.897332536857,-37093.59164161583,0.0,0.0,0.0,193.0,0.0,194.0,0.0,0.0,0.0,179.0,194.0,0.0,179.0,1744420520.2026532,0.0,2025-04-11 21:15:20.202,RIGHT,28
80.0,20493.442773037288,25739.732472864685,-32019.119801416375,-22098.00745225042,-36163.24498215258,-28522.412898828137,-13823.59282059584,-37145.31357828541,0.0,0.0,0.0,193.0,0.0,193.0,0.0,0.0,0.0,179.0,193.0,0.0,179.0,1744420520.2027397,0.0,2025-04-11 21:15:20.202,RIGHT,28
81.0,20471.783932660095,25741.006522298638,-32011.207283879197,-22089.692603313044,-36154.751319259565,-28509.471238788516,-14138.685362182303,-37162.03268313798,0.0,0.0,0.0,193.0,0.0,193.0,0.0,0.0,0.0,178.0,193.0,0.0,178.0,1744420520.2027843,0.0,2025-04-11 21:15:20.202,RIGHT,28
82.0,20458.417589475823,25753.85877536044,-31998.936176173233,-22072.6605740381,-36142.6813772537,-28487.63358445568,-14447.742932765834,-37141.223209050084,0.0,0.0,0.0,193.0,0.0,193.0,0.0,0.0,0.0,179.0,193.0,0.0,179.0,1744420520.2028267,0.0,2025-04-11 21:15:20.202,RIGHT,28
83.0,20474.935528628295,25753.545850938066,-32003.697097742213,-22070.09012342574,-36148.448127323165,-28493.757962436433,-14209.830964783547,-37097.03381026194,0.0,0.0,0.0,193.0,0.0,194.0,0.0,0.0,0.0,179.0,194.0,0.0,179.0,1744420520.202871,0.0,2025-04-11 21:15:20.202,RIGHT,28
84.0,20490.917025913837,25745.94625782326,-32019.90211247231,-22093.626510337177,-36166.79890952098,-28516.35557608075,-13819.010712982503,-37122.00070881852,0.0,0.0,0.0,193.0,0.0,193.0,0.0,0.0,0.0,179.0,193.0,0.0,179.0,1744420520.2029126,0.0,2025-04-11 21:15:20.202,RIGHT,28
85.0,20471.940394871282,25724.108603490426,-32018.85158048291,-22096.08520222726,-36162.6861885412,-28510.253549844452,-14065.952785724734,-37142.854886395326,0.0,0.0,0.0,193.0,0.0,193.0,0.0,0.0,0.0,179.0,193.0,0.0,179.0,1744420520.2029693,0.0,2025-04-11 21:15:20.202,RIGHT,28
86.0,20461.323316255013,25747.108548534936,-32001.484275041137,-22079.74607703043,-36145.27417961052,-28495.322584548307,-14403.240609555318,-37140.30678752742,0.0,0.0,0.0,193.0,0.0,193.0,0.0,0.0,0.0,179.0,193.0,0.0,179.0,1744420520.2030115,0.0,2025-04-11 21:15:20.203,RIGHT,28
87.0,20472.90151988286,25754.66343816083,-32000.18787386273,-22077.533254329355,-36148.06814766743,-28502.139866607176,-14296.801602459145,-37133.22128453509,0.0,0.0,0.0,193.0,0.0,193.0,0.0,0.0,0.0,179.0,193.0,0.0,179.0,1744420520.2030532,0.0,2025-04-11 21:15:20.203,RIGHT,28
88.0,20487.363098545444,25744.58280141149,-32019.8574089834,-22097.895693528142,-36166.59774382088,-28521.36236683874,-13848.090332518857,-37122.9618338301,0.0,0.0,0.0,193.0,0.0,193.0,0.0,0.0,0.0,179.0,193.0,0.0,179.0,1744420520.2030952,0.0,2025-04-11 21:15:20.203,RIGHT,28
89.0,20475.516673984133,25735.66445537382,-32007.47454255516,-22091.27957716937,-36147.7328715006,-28502.095163118265,-14004.239619283631,-37135.568217702894,0.0,0.0,0.0,193.0,0.0,194.0,0.0,0.0,0.0,180.0,194.0,0.0,180.0,1744420520.2031367,0.0,2025-04-11 21:15:20.203,RIGHT,28
90.0,20454.327220240502,25748.494356691168,-31994.219958093163,-22072.146483915625,-36133.427755049204,-28482.738552419967,-14336.654762822958,-37116.50217968252,0.0,0.0,0.0,193.0,0.0,194.0,0.0,0.0,0.0,179.0,194.0,0.0,179.0,1744420520.2031786,0.0,2025-04-11 21:15:20.203,RIGHT,28
91.0,20464.497263967667,25756.697446906262,-31990.867196424868,-22068.301983869314,-36134.07595563841,-28488.63941295617,-14351.69748684138,-37119.005575061514,0.0,0.0,0.0,193.0,0.0,193.0,0.0,0.0,0.0,179.0,193.0,0.0,179.0,1744420520.2032201,0.0,2025-04-11 21:15:20.203,RIGHT,28
92.0,20489.15123810187,25759.357304496447,-32008.01098442209,-22083.769391032387,-36151.68913026919,-28514.187456868585,-13875.717088665617,-37110.5119121685,0.0,0.0,0.0,193.0,0.0,193.0,0.0,0.0,0.0,179.0,193.0,0.0,179.0,1744420520.2033625,0.0,2025-04-11 21:15:20.203,RIGHT,28
93.0,20480.635223464396,25753.38938872688,-32005.32877508745,-22086.496303855933,-36149.498659312565,-28504.44209628607,-13949.388438390308,-37152.82376442239,0.0,0.0,0.0,193.0,0.0,193.0,0.0,0.0,0.0,179.0,193.0,0.0,179.0,1744420520.2034051,0.0,2025-04-11 21:15:20.203,RIGHT,28
94.0,20458.90932785384,25750.371903225412,-31997.975051161655,-22072.70527752701,-36141.2285138641,-28487.76769492241,-14308.603323531548,-37142.65372069523,0.0,0.0,0.0,193.0,0.0,194.0,0.0,0.0,0.0,179.0,194.0,0.0,179.0,1744420520.2034466,0.0,2025-04-11 21:15:20.203,RIGHT,28
95.0,20459.982211587692,25748.404949713346,-31996.61159474988,-22070.47010308148,-36139.82035396342,-28490.472256001503,-14406.235743312329,-37144.106584084824,0.0,0.0,0.0,193.0,0.0,193.0,0.0,0.0,0.0,179.0,193.0,0.0,179.0,1744420520.203504,0.0,2025-04-11 21:15:20.203,RIGHT,28
96.0,20490.604101491466,25755.535156194586,-32003.22771110865,-22071.74415251543,-36146.39176683328,-28500.083506117287,-13945.923917999735,-37102.91231905369,0.0,0.0,0.0,193.0,0.0,193.0,0.0,0.0,0.0,179.0,193.0,0.0,179.0,1744420520.2035458,0.0,2025-04-11 21:15:20.203,RIGHT,28
97.0,20480.188188575292,25730.94823729375,-32013.509513558092,-22091.70426031402,-36151.84559248038,-28509.337128321786,-13893.866705163326,-37136.842267136846,0.0,0.0,0.0,193.0,0.0,194.0,0.0,0.0,0.0,179.0,194.0,0.0,179.0,1744420520.2035875,0.0,2025-04-11 21:15:20.203,RIGHT,28
98.0,20445.542984669566,25724.533286635076,-32015.56587404798,-22088.79853353483,-36150.973874446616,-28505.11264861973,-14241.704552376814,-37146.36411027481,0.0,0.0,0.0,193.0,0.0,193.0,0.0,0.0,0.0,179.0,193.0,0.0,179.0,1744420520.2036295,0.0,2025-04-11 21:15:20.203,RIGHT,28
99.0,20434.70238860874,25729.38361518188,-32007.09456289942,-22081.198940420025,-36139.48507779659,-28500.418782284116,-14454.694325291435,-37148.12989808678,0.0,0.0,0.0,193.0,0.0,193.0,0.0,0.0,0.0,179.0,193.0,0.0,179.0,1744420520.203671,0.0,2025-04-11 21:15:20.203,RIGHT,28
100.0,20462.19503428877,25736.58087689649,-32011.922539701765,-22080.08135319726,-36149.14103140128,-28511.527599278405,-14033.11807311989,-37107.896758067225,0.0,0.0,0.0,193.0,0.0,193.0,0.0,0.0,0.0,179.0,193.0,0.0,179.0,1744420520.2037263,0.0,2025-04-11 21:15:20.203,RIGHT,28
101.0,20471.71687742673,25731.842307071962,-32016.86227522639,-22092.21835043649,-36157.545287316476,-28515.617968513725,-13858.327431479387,-37146.475868997084,0.0,0.0,0.0,193.0,0.0,194.0,0.0,0.0,0.0,179.0,194.0,0.0,179.0,1744420520.203768,0.0,2025-04-11 21:15:20.203,RIGHT,28
102.0,20454.595441173966,25737.251429230146,-32010.916711201276,-22077.66736479609,-36153.074938425416,-28492.774485680402,-14172.056516654076,-37123.49827569703,0.0,0.0,0.0,193.0,0.0,193.0,0.0,0.0,0.0,179.0,193.0,0.0,179.0,1744420520.2038095,0.0,2025-04-11 21:15:20.203,RIGHT,28
103.0,20452.24850800616,25760.296077763567,-31992.47652202565,-22057.68490525304,-36132.42192654871,-28470.378037736184,-14433.326057592161,-37108.656717378704,0.0,0.0,0.0,193.0,0.0,193.0,0.0,0.0,0.0,179.0,193.0,0.0,179.0,1744420520.2038517,0.0,2025-04-11 21:15:20.203,RIGHT,28
104.0,20476.991889118184,25767.023952844615,-31993.862330181877,-22052.923983684064,-36139.39567081877,-28478.134093062177,-14116.26656249363,-37076.649019318706,0.0,0.0,0.0,193.0,0.0,194.0,0.0,0.0,0.0,179.0,194.0,0.0,179.0,1744420520.203893,0.0,2025-04-11 21:15:20.203,RIGHT,28
105.0,20487.787781690095,25751.891821848374,-32008.61448152238,-22079.209635163505,-36154.192525648185,-28500.10585786174,-13814.40625362471,-37114.736391870545,0.0,0.0,0.0,193.0,0.0,193.0,0.0,0.0,0.0,179.0,193.0,0.0,179.0,1744420520.2039344,0.0,2025-04-11 21:15:20.203,RIGHT,28
106.0,20468.00648784715,25739.777176353597,-32009.732068745147,-22079.65667005261,-36155.10894717085,-28495.143770592666,-14111.282123480098,-37133.288339768456,0.0,0.0,0.0,193.0,0.0,193.0,0.0,0.0,0.0,179.0,193.0,0.0,179.0,1744420520.203976,0.0,2025-04-11 21:15:20.203,RIGHT,28
107.0,20448.29224923757,25748.09202529097,-32002.24423435262,-22069.732495514454,-36145.8329732219,-28485.01843035441,-14427.648714500514,-37123.11829604129,0.0,0.0,0.0,193.0,0.0,193.0,0.0,0.0,0.0,179.0,193.0,0.0,179.0,1744420520.2041008,0.0,2025-04-11 21:15:20.204,RIGHT,28
108.0,20473.259147794146,25757.72562715121,-31994.868158682366,-22057.997829675416,-36139.90976094124,-28489.801703667847,-14220.112767232988,-37108.6120138898,0.0,0.0,0.0,193.0,0.0,193.0,0.0,0.0,0.0,179.0,193.0,0.0,179.0,1744420520.2041433,0.0,2025-04-11 21:15:20.204,RIGHT,28
109.0,20487.363098545444,25742.95112406625,-32011.60961527939,-22082.674155554076,-36158.86404023934,-28513.338090579284,-13829.605439854318,-37122.17952277417,0.0,0.0,0.0,193.0,0.0,193.0,0.0,0.0,0.0,178.0,193.0,0.0,178.0,1744420520.204185,0.0,2025-04-11 21:15:20.204,RIGHT,28
110.0,20469.325240770013,25731.23880997167,-32004.85938845389,-22080.438981108546,-36150.10215641286,-28502.296328818364,-14072.345384638953,-37139.79269740495,0.0,0.0,0.0,193.0,0.0,194.0,0.0,0.0,0.0,179.0,194.0,0.0,179.0,1744420520.2043726,0.0,2025-04-11 21:15:20.204,RIGHT,28
111.0,20447.24171724817,25739.19603099776,-31999.47261804016,-22074.292251383336,-36141.96612143113,-28495.59080548177,-14387.974368092344,-37126.135781542755,0.0,0.0,0.0,193.0,0.0,193.0,0.0,0.0,0.0,179.0,193.0,0.0,179.0,1744420520.204415,0.0,2025-04-11 21:15:20.204,RIGHT,28
112.0,20465.838368634984,25749.746054380663,-31994.19760634871,-22069.687792025543,-36137.49577254007,-28501.91634916262,-14298.768555971214,-37123.699441397126,0.0,0.0,0.0,193.0,0.0,193.0,0.0,0.0,0.0,178.0,193.0,0.0,178.0,1744420520.2044573,0.0,2025-04-11 21:15:20.204,RIGHT,28
113.0,20491.073488125025,25744.76161536713,-32007.72041174417,-22085.825751522276,-36153.74549075907,-28522.144677894674,-13850.750190109038,-37130.58377868936,0.0,0.0,0.0,193.0,0.0,193.0,0.0,0.0,0.0,179.0,193.0,0.0,179.0,1744420520.2044985,0.0,2025-04-11 21:15:20.204,RIGHT,28
114.0,20478.690621696787,25726.65670235833,-32008.212150122185,-22091.011356235907,-36153.65608378126,-28516.042651658376,-14017.225982812166,-37170.36988381981,0.0,0.0,0.0,193.0,0.0,193.0,0.0,0.0,0.0,180.0,193.0,0.0,180.0,1744420520.2045405,0.0,2025-04-11 21:15:20.204,RIGHT,28
115.0,20452.04734230606,25734.748033851152,-32007.273376855064,-22083.434114865555,-36148.023444178514,-28509.493590532973,-14351.36221067455,-37158.54581100295,0.0,0.0,0.0,193.0,0.0,193.0,0.0,0.0,0.0,179.0,193.0,0.0,179.0,1744420520.2045991,0.0,2025-04-11 21:15:20.204,RIGHT,28
116.0,20467.023011091114,25749.366074724923,-31993.52705401505,-22069.59838504772,-36135.14883937226,-28498.429477027596,-14364.572091647637,-37144.12893582928,0.0,0.0,0.0,193.0,0.0,193.0,0.0,0.0,0.0,179.0,193.0,0.0,179.0,1744420520.204641,0.0,2025-04-11 21:15:20.204,RIGHT,28
117.0,20494.67211898233,25753.277630004603,-32005.976975676655,-22074.113437427695,-36150.63859827979,-28505.671442231112,-13876.231178788088,-37095.67035385017,0.0,0.0,0.0,193.0,0.0,194.0,0.0,0.0,0.0,179.0,194.0,0.0,179.0,1744420520.2046828,0.0,2025-04-11 21:15:20.204,RIGHT,28
118.0,20490.469991024733,25738.346664708457,-32010.33556584544,-22081.780085775863,-36154.4830983261,-28501.96105265153,-13952.562386102962,-37146.78879341946,0.0,0.0,0.0,193.0,0.0,193.0,0.0,0.0,0.0,179.0,193.0,0.0,179.0,1744420520.2047253,0.0,2025-04-11 21:15:20.204,RIGHT,28
119.0,20463.96082210074,25745.61098165643,-32004.121780886864,-22069.151350158616,-36141.80965921994,-28483.945546620555,-14296.108698381031,-37116.45747619361,0.0,0.0,0.0,193.0,0.0,193.0,0.0,0.0,0.0,179.0,193.0,0.0,179.0,1744420520.2047668,0.0,2025-04-11 21:15:20.204,RIGHT,28
120.0,20462.463255222232,25757.680923662298,-31993.594109248414,-22057.237870363937,-36133.65127249376,-28477.86587212871,-14398.36792926406,-37099.11252249629,0.0,0.0,0.0,193.0,0.0,193.0,0.0,0.0,0.0,179.0,193.0,0.0,179.0,1744420520.2048085,0.0,2025-04-11 21:15:20.204,RIGHT,28
121.0,20498.00252890617,25762.57595569801,-31998.846769195414,-22059.920079698575,-36143.24017086508,-28500.91052066213,-13944.471054610141,-37093.47988289355,0.0,0.0,0.0,193.0,0.0,193.0,0.0,0.0,0.0,179.0,193.0,0.0,179.0,1744420520.2049153,0.0,2025-04-11 21:15:20.204,RIGHT,28
122.0,20494.5380085156,25744.873374089406,-32007.38513557734,-22081.400106120123,-36151.21974363563,-28510.074735888807,-13879.516885223018,-37147.10171784183,0.0,0.0,0.0,193.0,0.0,193.0,0.0,0.0,0.0,179.0,193.0,0.0,179.0,1744420520.204959,0.0,2025-04-11 21:15:20.204,RIGHT,28
123.0,20471.582766959997,25749.366074724923,-31998.623251750858,-22068.056114680305,-36139.663891752236,-28489.846407156758,-14222.10207248951,-37132.03664207896,0.0,0.0,0.0,193.0,0.0,193.0,0.0,0.0,0.0,179.0,193.0,0.0,179.0,1744420520.2050009,0.0,2025-04-11 21:15:20.205,RIGHT,28
124.0,20464.184339545292,25749.14255728037,-31993.437647037226,-22063.183434389048,-36136.646406250766,-28488.84057865627,-14433.750740736812,-37137.78104040397,0.0,0.0,0.0,193.0,0.0,194.0,0.0,0.0,0.0,179.0,194.0,0.0,179.0,1744420520.2050433,0.0,2025-04-11 21:15:20.205,RIGHT,28
125.0,20483.317432799035,25746.974438068206,-32005.217016365175,-22072.593518804733,-36152.024406436016,-28512.86870394572,-14059.984869955168,-37123.99001407505,0.0,0.0,0.0,193.0,0.0,193.0,0.0,0.0,0.0,179.0,193.0,0.0,179.0,1744420520.2051032,0.0,2025-04-11 21:15:20.205,RIGHT,28
126.0,20490.492342769187,25735.306827462537,-32013.24129262463,-22090.3631556467,-36160.36160711785,-28519.060137159842,-13864.764733882515,-37156.891781913255,0.0,0.0,0.0,193.0,0.0,193.0,0.0,0.0,0.0,179.0,193.0,0.0,179.0,1744420520.2051456,0.0,2025-04-11 21:15:20.205,RIGHT,28
127.0,20472.253319293657,25743.3758072109,-32009.977937934156,-22079.477856096968,-36158.372301861324,-28500.73170670649,-14182.651243525892,-37153.20374407813,0.0,0.0,0.0,193.0,0.0,193.0,0.0,0.0,0.0,179.0,193.0,0.0,179.0,1744420520.2051873,0.0,2025-04-11 21:15:20.205,RIGHT,28
128.0,20466.441865735276,25757.32329575101,-31995.8516354384,-22063.719876255975,-36149.18573489019,-28484.951375121043,-14462.495084106336,-37143.65954919571,0.0,0.0,0.0,193.0,0.0,194.0,0.0,0.0,0.0,179.0,194.0,0.0,179.0,1744420520.20523,0.0,2025-04-11 21:15:20.205,RIGHT,28
129.0,20483.116267098936,25756.809205628542,-32001.484275041137,-22062.714047755486,-36156.092423926886,-28498.11655260522,-14162.020583393643,-37110.690726124136,0.0,0.0,0.0,193.0,0.0,193.0,0.0,0.0,0.0,178.0,193.0,0.0,178.0,1744420520.2052724,0.0,2025-04-11 21:15:20.205,RIGHT,28
130.0,20491.989909647695,25737.542001908067,-32020.013871194587,-22089.290271912847,-36171.62688632332,-28514.36627082423,-13825.582125852363,-37123.766496630495,0.0,0.0,0.0,193.0,0.0,193.0,0.0,0.0,0.0,178.0,193.0,0.0,178.0,1744420520.2053285,0.0,2025-04-11 21:15:20.205,RIGHT,28
131.0,20478.3329937855,25735.61975188491,-32004.68057449825,-22071.163007159594,-36150.415080835235,-28488.21472981152,-14110.566867657528,-37128.46036296611,0.0,0.0,0.0,193.0,0.0,193.0,0.0,0.0,0.0,179.0,193.0,0.0,179.0,1744420520.2053704,0.0,2025-04-11 21:15:20.205,RIGHT,28
132.0,20465.10076106796,25756.183356783793,-31993.661164481782,-22056.477911052458,-36139.35096732986,-28475.518938960904,-14425.637057499536,-37119.94434832864,0.0,0.0,0.0,193.0,0.0,193.0,0.0,0.0,0.0,179.0,193.0,0.0,179.0,1744420520.2054136,0.0,2025-04-11 21:15:20.205,RIGHT,28
133.0,20477.751848429663,25760.743112652675,-31999.204397106696,-22057.193166875026,-36146.369415088826,-28488.661764700624,-14237.658886630403,-37109.371973201276,0.0,0.0,0.0,193.0,0.0,193.0,0.0,0.0,0.0,180.0,193.0,0.0,180.0,1744420520.2054553,0.0,2025-04-11 21:15:20.205,RIGHT,28
134.0,20501.24353185219,25751.53419393709,-32011.140228645832,-22075.543949072835,-36154.885429726295,-28506.341994564773,-13838.680248103172,-37127.58864493235,0.0,0.0,0.0,193.0,0.0,193.0,0.0,0.0,0.0,179.0,193.0,0.0,179.0,1744420520.2054973,0.0,2025-04-11 21:15:20.205,RIGHT,28
135.0,20482.82569442102,25735.217420484714,-32012.637795524337,-22079.142579930136,-36151.532668058004,-28497.557758993837,-14050.239509372654,-37145.93942713016,0.0,0.0,0.0,193.0,0.0,193.0,0.0,0.0,0.0,179.0,193.0,0.0,179.0,1744420520.2055387,0.0,2025-04-11 21:15:20.205,RIGHT,28
136.0,20464.13963605638,25750.23779275868,-31999.76319071808,-22065.351553601213,-36131.63961549278,-28477.48589247297,-14382.118211045054,-37122.80537161892,0.0,0.0,0.0,193.0,0.0,193.0,0.0,0.0,0.0,179.0,193.0,0.0,179.0,1744420520.205652,0.0,2025-04-11 21:15:20.205,RIGHT,28
137.0,20470.308717526044,25755.982191083694,-31998.310327328483,-22065.418608834578,-36129.024461391506,-28489.06409610082,-14318.952181214356,-37125.30876699791,0.0,0.0,0.0,193.0,0.0,193.0,0.0,0.0,0.0,179.0,193.0,0.0,179.0,1744420520.2056944,0.0,2025-04-11 21:15:20.205,RIGHT,28
138.0,20482.57982523201,25740.89476357636,-32023.05370844051,-22094.60998709321,-36156.494755327076,-28529.587808798293,-13874.107763064834,-37149.292188798456,0.0,0.0,0.0,193.0,0.0,193.0,0.0,0.0,0.0,179.0,193.0,0.0,179.0,1744420520.205736,0.0,2025-04-11 21:15:20.205,RIGHT,28
139.0,20467.447694235765,25718.922998776794,-32025.66886254178,-22106.322301187793,-36153.81254599244,-28525.139811651687,-14008.285285030042,-37170.21342160862,0.0,0.0,0.0,193.0,0.0,193.0,0.0,0.0,0.0,179.0,193.0,0.0,179.0,1744420520.205778,0.0,2025-04-11 21:15:20.205,RIGHT,28
140.0,20447.889917837372,25734.27864721759,-32011.989594935134,-22089.580844590768,-36133.58421726039,-28498.74240144997,-14336.878280267512,-37119.229092506066,0.0,0.0,0.0,193.0,0.0,194.0,0.0,0.0,0.0,180.0,194.0,0.0,180.0,1744420520.2058334,0.0,2025-04-11 21:15:20.205,RIGHT,28
141.0,20455.981249330194,25745.968609567717,-32001.32781282995,-22077.5109025849,-36128.95740615814,-28488.125322833697,-14359.945280545388,-37096.94440328412,0.0,0.0,0.0,193.0,0.0,194.0,0.0,0.0,0.0,179.0,194.0,0.0,179.0,1744420520.2058754,0.0,2025-04-11 21:15:20.205,RIGHT,28
142.0,20484.591482232987,25747.443824701768,-32013.24129262463,-22087.74800154543,-36144.603627276854,-28504.64326198617,-13889.396356272264,-37086.841414790324,0.0,0.0,0.0,193.0,0.0,194.0,0.0,0.0,0.0,179.0,194.0,0.0,179.0,1744420520.205917,0.0,2025-04-11 21:15:20.205,RIGHT,28
143.0,20480.81403742004,25724.890914546362,-32020.036222939045,-22101.382565663167,-36153.700787270165,-28508.55481726585,-13939.106635940867,-37137.11048807031,0.0,0.0,0.0,193.0,0.0,193.0,0.0,0.0,0.0,179.0,193.0,0.0,179.0,1744420520.2059588,0.0,2025-04-11 21:15:20.205,RIGHT,28
144.0,20454.975420829705,25732.021121027607,-32016.839923481934,-22091.257225424913,-36152.69495876968,-28497.960090394034,-14286.698613965347,-37131.85782812331,0.0,0.0,0.0,193.0,0.0,193.0,0.0,0.0,0.0,179.0,193.0,0.0,179.0,1744420520.2060008,0.0,2025-04-11 21:15:20.206,RIGHT,28
145.0,20458.641106920375,25749.880164847396,-32001.081943640944,-22073.93462347205,-36140.04387140797,-28483.87849138719,-14433.661333758992,-37123.87825535277,0.0,0.0,0.0,193.0,0.0,193.0,0.0,0.0,0.0,179.0,193.0,0.0,179.0,1744420520.2060556,0.0,2025-04-11 21:15:20.206,RIGHT,28
146.0,20482.892749654384,25744.024007800104,-32015.0070804366,-22083.970556732485,-36159.512240828546,-28507.21371259853,-13994.740127890127,-37106.354487699806,0.0,0.0,0.0,193.0,0.0,194.0,0.0,0.0,0.0,179.0,194.0,0.0,179.0,1744420520.2060976,0.0,2025-04-11 21:15:20.206,RIGHT,28
147.0,20480.255243808657,25731.752900094143,-32019.946815961222,-22100.71201332951,-36164.49667984208,-28512.86870394572,-13916.218449618633,-37158.45640402513,0.0,0.0,0.0,193.0,0.0,193.0,0.0,0.0,0.0,179.0,193.0,0.0,179.0,1744420520.2061393,0.0,2025-04-11 21:15:20.206,RIGHT,28
148.0,20461.52448195511,25740.358321709435,-32010.29086235653,-22082.271824153882,-36153.767842503534,-28494.45086651455,-14250.108808292009,-37139.278607282475,0.0,0.0,0.0,193.0,0.0,193.0,0.0,0.0,0.0,179.0,193.0,0.0,179.0,1744420520.2061808,0.0,2025-04-11 21:15:20.206,RIGHT,28
149.0,20456.115359796928,25745.99096131217,-32003.451228553204,-22073.93462347205,-36150.30332211296,-28487.678287944593,-14463.746781795835,-37128.72858389957,0.0,0.0,0.0,193.0,0.0,194.0,0.0,0.0,0.0,180.0,194.0,0.0,180.0,1744420520.2062223,0.0,2025-04-11 21:15:20.206,RIGHT,28
150.0,20483.1833223323,25749.544888680564,-32005.217016365175,-22072.95114671602,-36162.8873542413,-28502.810418940833,-14097.580504128993,-37105.57217664387,0.0,0.0,0.0,193.0,0.0,194.0,0.0,0.0,0.0,179.0,194.0,0.0,179.0,1744420520.2062643,0.0,2025-04-11 21:15:20.206,RIGHT,28
151.0,20495.901464927374,25741.319446721012,-32007.31808034397,-22088.08327771226,-36166.8883164988,-28510.052384144354,-13891.519771995518,-37141.89376138375,0.0,0.0,0.0,193.0,0.0,193.0,0.0,0.0,0.0,179.0,193.0,0.0,179.0,1744420520.2063339,0.0,2025-04-11 21:15:20.206,RIGHT,28
152.0,20468.09589482497,25735.575048396,-32000.232577351642,-22077.309736884803,-36150.549191301965,-28496.976613638,-14196.755194277192,-37136.79756364794,0.0,0.0,0.0,193.0,0.0,194.0,0.0,0.0,0.0,179.0,194.0,0.0,179.0,1744420520.2063792,0.0,2025-04-11 21:15:20.206,RIGHT,28
153.0,20451.600307416953,25745.700388634254,-31988.766132446068,-22065.79858849032,-36136.31113008394,-28483.20793905353,-14452.235633401351,-37122.1124675408,0.0,0.0,0.0,193.0,0.0,193.0,0.0,0.0,0.0,179.0,193.0,0.0,179.0,1744420520.206438,0.0,2025-04-11 21:15:20.206,RIGHT,28
154.0,20474.80141816156,25749.34372298047,-31990.017830135566,-22064.457483823,-36141.25086560856,-28494.942604892567,-14166.80385670708,-37098.62078411827,0.0,0.0,0.0,193.0,0.0,193.0,0.0,0.0,0.0,179.0,193.0,0.0,179.0,1744420520.206484,0.0,2025-04-11 21:15:20.206,RIGHT,28
155.0,20483.563301988044,25734.591571639965,-32008.18979837773,-22094.47587662648,-36158.39465360578,-28521.764698238934,-13835.930983535169,-37137.468115981595,0.0,0.0,0.0,193.0,0.0,194.0,0.0,0.0,0.0,180.0,194.0,0.0,180.0,1744420520.206544,0.0,2025-04-11 21:15:20.206,RIGHT,28
156.0,20471.426304748813,25736.267952474114,-31997.66212673928,-22082.38358287616,-36143.977778432105,-28501.424610784605,-14120.915725340335,-37140.93263637217,0.0,0.0,0.0,193.0,0.0,194.0,0.0,0.0,0.0,179.0,194.0,0.0,179.0,1744420520.2065868,0.0,2025-04-11 21:15:20.206,RIGHT,28
157.0,20448.67222889331,25743.71108337773,-31996.410429049785,-22074.873396739174,-36140.80383071945,-28490.762828679424,-14438.310496605694,-37125.711098398104,0.0,0.0,0.0,193.0,0.0,193.0,0.0,0.0,0.0,179.0,193.0,0.0,179.0,1744420520.2066307,0.0,2025-04-11 21:15:20.206,RIGHT,28
158.0,20460.18337728779,25740.89476357636,-32000.009059907086,-22074.38165836116,-36145.36358658833,-28501.73753520698,-14276.975605127289,-37115.11637152629,0.0,0.0,0.0,193.0,0.0,193.0,0.0,0.0,0.0,179.0,193.0,0.0,179.0,1744420520.2066731,0.0,2025-04-11 21:15:20.206,RIGHT,28
159.0,20480.635223464396,25736.245600729657,-32012.0566501685,-22092.330109158767,-36152.29262736948,-28522.479954061506,-13856.673402389695,-37132.77424964598,0.0,0.0,0.0,193.0,0.0,193.0,0.0,0.0,0.0,179.0,193.0,0.0,179.0,1744420520.2067168,0.0,2025-04-11 21:15:20.206,RIGHT,28
160.0,20463.24556627817,25723.460402901223,-32009.106219900397,-22091.145466702637,-36146.145897644274,-28515.461506302538,-14052.519387307095,-37156.265933068506,0.0,0.0,0.0,193.0,0.0,193.0,0.0,0.0,0.0,179.0,193.0,0.0,179.0,1744420520.2067807,0.0,2025-04-11 21:15:20.206,RIGHT,28
161.0,20447.733455626185,25736.93850480777,-31999.114990128877,-22076.080390939762,-36136.26642659502,-28497.535407249383,-14382.520542445249,-37128.84034262185,0.0,0.0,0.0,193.0,0.0,193.0,0.0,0.0,0.0,178.0,193.0,0.0,178.0,1744420520.206826,0.0,2025-04-11 21:15:20.206,RIGHT,28
162.0,20462.217386033226,25744.895725833863,-31991.80596969199,-22067.899652469117,-36135.953502172655,-28496.64133747117,-14324.160137672441,-37117.35154597182,0.0,0.0,0.0,193.0,0.0,194.0,0.0,0.0,0.0,179.0,194.0,0.0,179.0,1744420520.206872,0.0,2025-04-11 21:15:20.206,RIGHT,28
163.0,20488.57009274603,25745.56627816752,-32001.37251631886,-22081.444809609035,-36151.77853724701,-28512.01933765642,-13864.474161204596,-37100.118350996774,0.0,0.0,0.0,193.0,0.0,193.0,0.0,0.0,0.0,179.0,193.0,0.0,179.0,1744420520.2069187,0.0,2025-04-11 21:15:20.206,RIGHT,28
164.0,20472.432133249302,25725.025025013096,-32006.602824521404,-22091.816019036298,-36155.310112870946,-28510.320605077817,-13999.657511670293,-37135.501162469525,0.0,0.0,0.0,193.0,0.0,193.0,0.0,0.0,0.0,179.0,193.0,0.0,179.0,1744420520.2069664,0.0,2025-04-11 21:15:20.206,RIGHT,28
165.0,20443.933659068785,25730.680016360286,-32003.04889715301,-22083.501170098923,-36154.90778147075,-28502.430439285094,-14353.440922908894,-37126.94044434315,0.0,0.0,0.0,193.0,0.0,193.0,0.0,0.0,0.0,179.0,193.0,0.0,179.0,1744420520.2070105,0.0,2025-04-11 21:15:20.207,RIGHT,28
166.0,20450.125092282902,25742.928772321797,-31990.017830135566,-22072.615870549187,-36144.53657204349,-28499.345898550262,-14415.444662027916,-37127.92392109918,0.0,0.0,0.0,193.0,0.0,193.0,0.0,0.0,0.0,178.0,193.0,0.0,178.0,1744420520.2070765,0.0,2025-04-11 21:15:20.207,RIGHT,28
167.0,20478.62356646342,25747.734397379685,-32002.37834481935,-22082.920024743085,-36159.86986873983,-28520.73651799399,-13916.41961531873,-37100.16305448569,0.0,0.0,0.0,193.0,0.0,193.0,0.0,0.0,0.0,179.0,193.0,0.0,179.0,1744420520.207122,0.0,2025-04-11 21:15:20.207,RIGHT,28
168.0,20467.358287257946,25731.931714049784,-32005.351126831905,-22094.60998709321,-36159.579296061915,-28519.574227282315,-13927.439025335196,-37145.224171307585,0.0,0.0,0.0,193.0,0.0,193.0,0.0,0.0,0.0,179.0,193.0,0.0,179.0,1744420520.2071712,0.0,2025-04-11 21:15:20.207,RIGHT,28
169.0,20442.592554401464,25726.05320525804,-32000.76901921857,-22082.450638109523,-36152.29262736948,-28508.197189354563,-14283.010576130222,-37135.434107236164,0.0,0.0,0.0,193.0,0.0,193.0,0.0,0.0,0.0,179.0,193.0,0.0,179.0,1744420520.2072177,0.0,2025-04-11 21:15:20.207,RIGHT,28
170.0,20445.81120560303,25738.123147263905,-31990.509568513582,-22070.872434481673,-36141.80965921994,-28501.379907295694,-14436.343543093628,-37134.16005780221,0.0,0.0,0.0,193.0,0.0,194.0,0.0,0.0,0.0,179.0,194.0,0.0,179.0,1744420520.207281,0.0,2025-04-11 21:15:20.207,RIGHT,28
171.0,20468.341764013978,25740.112452520425,-32001.707792485693,-22075.923928728575,-36153.834897736895,-28520.244779615972,-14006.027758840057,-37109.573138901374,0.0,0.0,0.0,193.0,0.0,194.0,0.0,0.0,0.0,179.0,194.0,0.0,179.0,1744420520.2073245,0.0,2025-04-11 21:15:20.207,RIGHT,28
172.0,20475.20374956176,25726.679054102788,-32002.870083197366,-22087.636242823155,-36153.92430471472,-28519.127192393207,-13900.080490121902,-37150.83445916587,0.0,0.0,0.0,193.0,0.0,193.0,0.0,0.0,0.0,179.0,193.0,0.0,179.0,1744420520.681662,0.0,2025-04-11 21:15:20.681,RIGHT,28
173.0,20454.349571984956,25731.954065794238,-31993.012963892575,-22070.380696103657,-36141.54143828648,-28494.272052558907,-14230.931011549355,-37127.96862458809,0.0,0.0,0.0,193.0,0.0,193.0,0.0,0.0,0.0,179.0,193.0,0.0,179.0,1744420520.6818411,0.0,2025-04-11 21:15:20.681,RIGHT,28
174.0,20436.93756305427,25737.743167608165,-31988.319097556963,-22065.55271930131,-36138.322787084915,-28489.44407575656,-14454.403752613516,-37126.560464687405,0.0,0.0,0.0,193.0,0.0,193.0,0.0,0.0,0.0,179.0,193.0,0.0,179.0,1744420520.6819155,0.0,2025-04-11 21:15:20.681,RIGHT,28
175.0,20462.172682544315,25743.018179299615,-31993.303536570496,-22065.17273964557,-36149.00692093455,-28503.190398596576,-14100.977969286201,-37109.34962145682,0.0,0.0,0.0,193.0,0.0,193.0,0.0,0.0,0.0,179.0,193.0,0.0,179.0,1744420520.6820424,0.0,2025-04-11 21:15:20.682,RIGHT,28
176.0,20468.922909369816,25732.6246181279,-32006.602824521404,-22087.88211201216,-36159.40048210627,-28510.521770777916,-13862.306041992431,-37136.81991539239,0.0,0.0,0.0,193.0,0.0,193.0,0.0,0.0,0.0,179.0,193.0,0.0,179.0,1744420520.682119,0.0,2025-04-11 21:15:20.682,RIGHT,28
177.0,20453.81313011803,25735.351530951444,-32005.32877508745,-22079.45550435251,-36151.62207503582,-28492.662726958126,-14167.85438869648,-37125.53228444246,0.0,0.0,0.0,193.0,0.0,194.0,0.0,0.0,0.0,179.0,194.0,0.0,179.0,1744420520.6821635,0.0,2025-04-11 21:15:20.682,RIGHT,28
178.0,20448.404007959845,25757.613868428933,-31998.824417450956,-22071.721800770974,-36141.16145863074,-28490.584014723783,-14455.43193285846,-37129.354432744316,0.0,0.0,0.0,193.0,0.0,193.0,0.0,0.0,0.0,179.0,193.0,0.0,179.0,1744420520.682207,0.0,2025-04-11 21:15:20.682,RIGHT,28
179.0,20456.316525497023,25742.817013599517,-31995.114027871376,-22068.860777480695,-36136.55699927294,-28500.843465428767,-14191.457830841284,-37107.71794411158,0.0,0.0,0.0,193.0,0.0,194.0,0.0,0.0,0.0,179.0,194.0,0.0,179.0,1744420520.6822495,0.0,2025-04-11 21:15:20.682,RIGHT,28
180.0,20460.093970309972,25716.821934797998,-32004.993498920623,-22090.586673091257,-36150.45978432414,-28511.9299306786,-13829.73955032105,-37119.51966518399,0.0,0.0,0.0,193.0,0.0,193.0,0.0,0.0,0.0,179.0,193.0,0.0,179.0,1744420520.682292,0.0,2025-04-11 21:15:20.682,RIGHT,28
181.0,20436.490528165166,25701.868617757395,-32006.938100688232,-22094.677042326577,-36153.16434540324,-28506.386698053684,-14107.616437389426,-37138.92097937119,0.0,0.0,0.0,193.0,0.0,193.0,0.0,0.0,0.0,179.0,193.0,0.0,179.0,1744420520.6823652,0.0,2025-04-11 21:15:20.682,RIGHT,28
182.0,20420.687844835265,25717.22426619819,-31996.768056961067,-22082.048306709326,-36136.60170276186,-28489.041744356364,-14422.641923742525,-37113.81997034788,0.0,0.0,0.0,193.0,0.0,194.0,0.0,0.0,0.0,180.0,194.0,0.0,180.0,1744420520.6824074,0.0,2025-04-11 21:15:20.682,RIGHT,28
183.0,20434.18829848627,25720.08528948847,-31995.38224880484,-22079.254338652416,-36133.852438193855,-28495.724915948504,-14263.9668898543,-37103.58287138735,0.0,0.0,0.0,193.0,0.0,193.0,0.0,0.0,0.0,179.0,193.0,0.0,179.0,1744420520.68245,0.0,2025-04-11 21:15:20.682,RIGHT,28
184.0,20456.33887724148,25710.04935622804,-32012.079001912953,-22103.438926153056,-36150.23626687959,-28523.083451161798,-13830.410102654709,-37123.09594429683,0.0,0.0,0.0,193.0,0.0,193.0,0.0,0.0,0.0,179.0,193.0,0.0,179.0,1744420520.6825151,0.0,2025-04-11 21:15:20.682,RIGHT,28
185.0,20445.945316069763,25702.89679800234,-32011.587263534937,-22103.058946497316,-36145.452993566156,-28512.756945223446,-14039.108340633911,-37154.61190397882,0.0,0.0,0.0,193.0,0.0,194.0,0.0,0.0,0.0,179.0,194.0,0.0,179.0,1744420520.6825576,0.0,2025-04-11 21:15:20.682,RIGHT,28
186.0,20426.387539671367,25712.016309740105,-32003.272414597563,-22087.90446375662,-36138.38984231828,-28492.48391300248,-14394.255208284285,-37135.74703165854,0.0,0.0,0.0,193.0,0.0,193.0,0.0,0.0,0.0,179.0,193.0,0.0,179.0,1744420520.6825995,0.0,2025-04-11 21:15:20.682,RIGHT,28
187.0,20436.222307231703,25720.08528948847,-31997.885644183832,-22079.142579930136,-36137.47342079561,-28490.986346123977,-14358.224196222329,-37113.37293545878,0.0,0.0,0.0,193.0,0.0,193.0,0.0,0.0,0.0,179.0,193.0,0.0,179.0,1744420520.6826415,0.0,2025-04-11 21:15:20.682,RIGHT,28
188.0,20461.52448195511,25726.254370958137,-32011.60961527939,-22093.961786504005,-36152.717310514134,-28511.97463416751,-13868.564530439919,-37097.95023178461,0.0,0.0,0.0,193.0,0.0,193.0,0.0,0.0,0.0,179.0,193.0,0.0,179.0,1744420520.6826844,0.0,2025-04-11 21:15:20.682,RIGHT,28
189.0,20453.164929528826,25711.345757406445,-32010.782600734547,-22102.410745908113,-36151.01857793553,-28511.46054404504,-13973.90830205778,-37144.48656374056,0.0,0.0,0.0,193.0,0.0,194.0,0.0,0.0,0.0,180.0,194.0,0.0,180.0,1744420520.682727,0.0,2025-04-11 21:15:20.682,RIGHT,28
190.0,20437.51870841011,25719.347681921445,-31998.46678953967,-22087.74800154543,-36139.39567081877,-28496.976613638,-14327.848175507568,-37127.476886210075,0.0,0.0,0.0,193.0,0.0,193.0,0.0,0.0,0.0,179.0,193.0,0.0,179.0,1744420520.682786,0.0,2025-04-11 21:15:20.682,RIGHT,28
191.0,20445.252411991645,25731.149402993848,-31982.597050976405,-22077.242681651438,-36127.63865323528,-28494.0261833699,-14409.521449747259,-37121.799543118424,0.0,0.0,0.0,193.0,0.0,193.0,0.0,0.0,0.0,179.0,193.0,0.0,179.0,1744420520.6828284,0.0,2025-04-11 21:15:20.682,RIGHT,28
192.0,20473.840293149984,25734.3233507065,-31995.024620893553,-22084.79757127733,-36142.43550806469,-28520.82592497181,-13922.61104853285,-37107.539130155936,0.0,0.0,0.0,193.0,0.0,193.0,0.0,0.0,0.0,179.0,193.0,0.0,179.0,1744420520.6828709,0.0,2025-04-11 21:15:20.682,RIGHT,28
193.0,20471.91804312683,25717.71600457621,-32000.679612240747,-22097.962748761507,-36149.38690059029,-28525.74330875198,-13926.276734623521,-37165.51955527301,0.0,0.0,0.0,193.0,0.0,193.0,0.0,0.0,0.0,179.0,193.0,0.0,179.0,1744420520.6829123,0.0,2025-04-11 21:15:20.682,RIGHT,28
194.0,20455.020124318617,25727.28255120308,-31985.23455682213,-22074.627527550165,-36136.13231612829,-28502.296328818364,-14269.130142823476,-37142.229037550576,0.0,0.0,0.0,193.0,0.0,194.0,0.0,0.0,0.0,179.0,194.0,0.0,179.0,1744420520.6829543,0.0,2025-04-11 21:15:20.682,RIGHT,28
195.0,20457.18824353078,25739.955990309238,-31969.23070779213,-22056.790835474832,-36124.01767063352,-28492.439209513574,-14437.505833805304,-37138.362185759805,0.0,0.0,0.0,193.0,0.0,193.0,0.0,0.0,0.0,178.0,193.0,0.0,178.0,1744420520.6829958,0.0,2025-04-11 21:15:20.682,RIGHT,28
196.0,20481.417534520333,25740.984170554184,-31983.8487486659,-22063.09402741123,-36146.43647032219,-28513.69571849057,-14019.595267724428,-37118.7597058725,0.0,0.0,0.0,193.0,0.0,194.0,0.0,0.0,0.0,179.0,194.0,0.0,179.0,1744420520.6830523,0.0,2025-04-11 21:15:20.683,RIGHT,28
197.0,20483.272729310123,25730.836478571473,-31991.29187956952,-22078.47202759648,-36151.309150613444,-28517.629625514703,-13881.237969546077,-37149.71687194311,0.0,0.0,0.0,193.0,0.0,194.0,0.0,0.0,0.0,180.0,194.0,0.0,180.0,1744420520.683095,0.0,2025-04-11 21:15:20.683,RIGHT,28
198.0,20458.23877552018,25729.741243093165,-31985.480426011138,-22065.485664067946,-36144.02248192102,-28498.295366560862,-14212.535525862639,-37145.96177887461,0.0,0.0,0.0,193.0,0.0,193.0,0.0,0.0,0.0,179.0,193.0,0.0,179.0,1744420520.6831372,0.0,2025-04-11 21:15:20.683,RIGHT,28
199.0,20440.46913867821,25737.899629819352,-31980.518338742062,-22056.813187219286,-36139.06039465194,-28483.9231948761,-14468.999441742832,-37139.23390379357,0.0,0.0,0.0,193.0,0.0,193.0,0.0,0.0,0.0,179.0,193.0,0.0,179.0,1744420520.6831923,0.0,2025-04-11 21:15:20.683,RIGHT,28
200.0,20463.08910406698,25742.638199643876,-31987.872062667855,-22058.020181419874,-36144.7824412325,-28496.037840370875,-14113.964332814734,-37099.29133645193,0.0,0.0,0.0,193.0,0.0,193.0,0.0,0.0,0.0,179.0,193.0,0.0,179.0,1744420520.6832345,0.0,2025-04-11 21:15:20.683,RIGHT,28
201.0,20481.216368820234,25730.14357449336,-31994.868158682366,-22075.007507205904,-36143.30722609845,-28500.239968328475,-13830.141881721245,-37113.0600110364,0.0,0.0,0.0,193.0,0.0,194.0,0.0,0.0,0.0,179.0,194.0,0.0,179.0,1744420520.683276,0.0,2025-04-11 21:15:20.683,RIGHT,28
202.0,20458.462292964734,25719.437088899267,-31993.594109248414,-22069.196053647527,-36140.066223152426,-28489.332317034285,-14135.533766214105,-37127.29807225443,0.0,0.0,0.0,193.0,0.0,193.0,0.0,0.0,0.0,179.0,193.0,0.0,179.0,1744420520.6833177,0.0,2025-04-11 21:15:20.683,RIGHT,28
203.0,20445.833557347483,25737.206725741235,-31982.932327143233,-22055.4050273186,-36134.59004576088,-28470.668610414104,-14446.37947635406,-37112.38945870274,0.0,0.0,0.0,193.0,0.0,193.0,0.0,0.0,0.0,179.0,193.0,0.0,179.0,1744420520.683365,0.0,2025-04-11 21:15:20.683,RIGHT,28
204.0,20463.89376686737,25744.672208389307,-31982.641754465316,-22050.800567960807,-36131.79607770396,-28478.245851784453,-14201.493764101717,-37083.86863277777,0.0,0.0,0.0,193.0,0.0,194.0,0.0,0.0,0.0,179.0,194.0,0.0,179.0,1744420520.6834247,0.0,2025-04-11 21:15:20.683,RIGHT,28
205.0,20483.608005476955,25742.593496154965,-31993.102370870398,-22068.771370502876,-36138.12162138482,-28496.954261893545,-13824.822166540882,-37112.232996491555,0.0,0.0,0.0,193.0,0.0,193.0,0.0,0.0,0.0,179.0,193.0,0.0,179.0,1744420520.6834667,0.0,2025-04-11 21:15:20.683,RIGHT,28
206.0,20466.441865735276,25734.971551295705,-31990.353106302395,-22064.189262889537,-36134.43358354969,-28486.381886766183,-14081.420192887806,-37130.02498507798,0.0,0.0,0.0,193.0,0.0,193.0,0.0,0.0,0.0,179.0,193.0,0.0,179.0,1744420520.6835084,0.0,2025-04-11 21:15:20.683,RIGHT,28
207.0,20443.71014162423,25742.213516499225,-31983.04408586551,-22052.36519007268,-36128.84564743586,-28470.31098250282,-14401.407766509983,-37106.44389467763,0.0,0.0,0.0,193.0,0.0,193.0,0.0,0.0,0.0,179.0,193.0,0.0,179.0,1744420520.6835532,0.0,2025-04-11 21:15:20.683,RIGHT,28
208.0,20471.023973348616,25755.04341781657,-31970.70592292618,-22040.854041678198,-36121.80484793244,-28470.40038948064,-14284.150515097443,-37089.38951365823,0.0,0.0,0.0,193.0,0.0,194.0,0.0,0.0,0.0,179.0,194.0,0.0,179.0,1744420520.683618,0.0,2025-04-11 21:15:20.683,RIGHT,28
209.0,20499.745964973685,25753.14351953787,-31982.820568420957,-22059.249527364915,-36137.54047602898,-28493.869721158713,-13840.803663826426,-37100.565385885886,0.0,0.0,0.0,193.0,0.0,193.0,0.0,0.0,0.0,179.0,193.0,0.0,179.0,1744420520.683663,0.0,2025-04-11 21:15:20.683,RIGHT,28
210.0,20480.97049963123,25734.770385595606,-31986.083923111433,-22065.7091815125,-36140.02151966352,-28493.31092754733,-14030.413512040795,-37134.09300256884,0.0,0.0,0.0,193.0,0.0,193.0,0.0,0.0,0.0,179.0,193.0,0.0,179.0,1744420520.6837058,0.0,2025-04-11 21:15:20.683,RIGHT,28
211.0,20454.394275473867,25741.610019398933,-31981.9488503872,-22058.243698864426,-36133.33834807138,-28485.39841001015,-14373.55749291867,-37121.598377418326,0.0,0.0,0.0,193.0,0.0,194.0,0.0,0.0,0.0,179.0,194.0,0.0,179.0,1744420520.6837742,0.0,2025-04-11 21:15:20.683,RIGHT,28
212.0,20454.126054540404,25742.168813010314,-31984.586356232925,-22059.674210509565,-36139.44037430768,-28498.49653226096,-14364.661498625459,-37130.65083392273,0.0,0.0,0.0,193.0,0.0,194.0,0.0,0.0,0.0,179.0,194.0,0.0,179.0,1744420520.683817,0.0,2025-04-11 21:15:20.683,RIGHT,28
213.0,20483.965633388238,25747.019141557117,-32000.9031296853,-22074.60517580571,-36157.32176987192,-28516.93672143659,-13893.307911551943,-37119.87729309527,0.0,0.0,0.0,193.0,0.0,193.0,0.0,0.0,0.0,179.0,193.0,0.0,179.0,1744420520.6838593,0.0,2025-04-11 21:15:20.683,RIGHT,28
214.0,20474.421438505822,25734.591571639965,-31998.846769195414,-22081.109533442206,-36145.14006914378,-28501.31285206233,-13973.953005546691,-37139.904456127224,0.0,0.0,0.0,193.0,0.0,193.0,0.0,0.0,0.0,179.0,193.0,0.0,179.0,1744420520.6839163,0.0,2025-04-11 21:15:20.683,RIGHT,28
215.0,20446.03472304758,25740.09010077597,-31994.510530771084,-22070.961841459495,-36138.90393244075,-28488.572357722805,-14317.767538758224,-37124.14647628623,0.0,0.0,0.0,193.0,0.0,194.0,0.0,0.0,0.0,180.0,194.0,0.0,180.0,1744420520.6839583,0.0,2025-04-11 21:15:20.683,RIGHT,28
216.0,20452.13674928388,25746.01331305663,-31988.497911512604,-22062.289364610835,-36135.77468821701,-28485.867796643714,-14397.004472852288,-37115.56340641539,0.0,0.0,0.0,193.0,0.0,194.0,0.0,0.0,0.0,180.0,194.0,0.0,180.0,1744420520.6840005,0.0,2025-04-11 21:15:20.684,RIGHT,28
217.0,20479.91996764183,25747.33206597949,-32001.19370236322,-22072.593518804733,-36151.39855759127,-28507.727802721,-13935.776226017026,-37098.732542840546,0.0,0.0,0.0,193.0,0.0,193.0,0.0,0.0,0.0,179.0,193.0,0.0,179.0,1744420520.6840425,0.0,2025-04-11 21:15:20.684,RIGHT,28
218.0,20481.10461009796,25734.368054195413,-32001.57368201896,-22085.490475355444,-36152.33733085839,-28504.151523608154,-13925.449720078674,-37140.15032531623,0.0,0.0,0.0,193.0,0.0,194.0,0.0,0.0,0.0,179.0,194.0,0.0,179.0,1744420520.684085,0.0,2025-04-11 21:15:20.684,RIGHT,28
219.0,20462.262089522137,25741.922943821308,-31992.655335981293,-22071.364172859692,-36139.46272605214,-28490.360497279227,-14284.217570330808,-37129.30972925541,0.0,0.0,0.0,193.0,0.0,193.0,0.0,0.0,0.0,179.0,193.0,0.0,179.0,1744420520.68415,0.0,2025-04-11 21:15:20.684,RIGHT,28
220.0,20454.841310362972,25747.510879935133,-31989.459036524182,-22065.575071045765,-36134.52299052751,-28487.63358445568,-14454.269642146784,-37130.047336822434,0.0,0.0,0.0,193.0,0.0,193.0,0.0,0.0,0.0,179.0,193.0,0.0,179.0,1744420520.6841924,0.0,2025-04-11 21:15:20.684,RIGHT,28
221.0,20481.596348475978,25752.517670693123,-31997.438609294728,-22065.105684412203,-36150.45978432414,-28495.41199152613,-14027.172509094777,-37082.01343798798,0.0,0.0,0.0,193.0,0.0,193.0,0.0,0.0,0.0,179.0,193.0,0.0,179.0,1744420520.6842344,0.0,2025-04-11 21:15:20.684,RIGHT,28
222.0,20477.19305481828,25729.94240879326,-32010.33556584544,-22087.07744921177,-36164.16140367525,-28507.772506209913,-13882.1767428132,-37126.068726309386,0.0,0.0,0.0,193.0,0.0,194.0,0.0,0.0,0.0,180.0,194.0,0.0,180.0,1744420520.6842759,0.0,2025-04-11 21:15:20.684,RIGHT,28
223.0,20465.32427851251,25726.70140584724,-32003.540635531026,-22074.94045197254,-36152.96317970314,-28490.82988391279,-14211.9543805068,-37118.13385702775,0.0,0.0,0.0,193.0,0.0,193.0,0.0,0.0,0.0,179.0,193.0,0.0,179.0,1744420520.684318,0.0,2025-04-11 21:15:20.684,RIGHT,28
224.0,20454.5283859406,25736.93850480777,-31993.884681926334,-22064.94922220102,-36139.35096732986,-28481.15157856364,-14449.933403722454,-37114.24465349253,0.0,0.0,0.0,193.0,0.0,193.0,0.0,0.0,0.0,179.0,193.0,0.0,179.0,1744420520.68436,0.0,2025-04-11 21:15:20.684,RIGHT,28
225.0,20468.408819247346,25736.08913851847,-32002.57951051945,-22069.017239691882,-36147.44229882268,-28497.89303516067,-14117.741777627682,-37090.976487514556,0.0,0.0,0.0,193.0,0.0,194.0,0.0,0.0,0.0,179.0,194.0,0.0,179.0,1744420520.6844018,0.0,2025-04-11 21:15:20.684,RIGHT,28
226.0,20474.063810594536,25718.766536565607,-32020.595016550425,-22096.867513283196,-36168.00590372156,-28517.96490168153,-13847.442131929653,-37133.17658104617,0.0,0.0,0.0,193.0,0.0,193.0,0.0,0.0,0.0,179.0,193.0,0.0,179.0,1744420520.684458,0.0,2025-04-11 21:15:20.684,RIGHT,28
227.0,20464.631374434397,25734.65862687333,-32001.283109341042,-22079.65667005261,-36147.263484867035,-28491.276918801897,-14159.271318825642,-37135.45645898062,0.0,0.0,0.0,193.0,0.0,193.0,0.0,0.0,0.0,179.0,193.0,0.0,179.0,1744420520.6845005,0.0,2025-04-11 21:15:20.684,RIGHT,28
228.0,20443.732493368687,25743.75578686664,-31996.65629823879,-22071.02889669286,-36135.99820566156,-28481.240985541463,-14441.149168151518,-37120.43608670665,0.0,0.0,0.0,193.0,0.0,193.0,0.0,0.0,0.0,179.0,193.0,0.0,179.0,1744420520.684542,0.0,2025-04-11 21:15:20.684,RIGHT,28
229.0,20456.89767085286,25729.115394248416,-32002.355993074896,-22072.6605740381,-36145.76591798853,-28494.182645581084,-14221.09624398902,-37102.77820858696,0.0,0.0,0.0,193.0,0.0,194.0,0.0,0.0,0.0,180.0,194.0,0.0,180.0,1744420520.684597,0.0,2025-04-11 21:15:20.684,RIGHT,28
230.0,20472.253319293657,25715.480830130677,-32019.030394438556,-22096.286367927358,-36163.893182741784,-28517.65197725916,-13836.914460291204,-37122.49244719654,0.0,0.0,0.0,193.0,0.0,193.0,0.0,0.0,0.0,179.0,193.0,0.0,179.0,1744420520.6846387,0.0,2025-04-11 21:15:20.684,RIGHT,28
231.0,20455.511862696632,25703.567350335998,-32016.14701940382,-22095.861684782707,-36158.528764072515,-28507.481933531995,-14092.685472093282,-37141.4690782391,0.0,0.0,0.0,193.0,0.0,194.0,0.0,0.0,0.0,180.0,194.0,0.0,180.0,1744420520.68468,0.0,2025-04-11 21:15:20.684,RIGHT,28
232.0,20436.95991479873,25720.28645518857,-32005.351126831905,-22081.154236931114,-36146.01178717754,-28489.622889712202,-14418.395092296016,-37118.9608715726,0.0,0.0,0.0,193.0,0.0,194.0,0.0,0.0,0.0,179.0,194.0,0.0,179.0,1744420520.6847222,0.0,2025-04-11 21:15:20.684,RIGHT,28
233.0,20457.434112719788,25730.456498915733,-31992.32005981446,-22065.55271930131,-36136.55699927294,-28485.286651287875,-14314.9288672124,-37101.81708357538,0.0,0.0,0.0,193.0,0.0,193.0,0.0,0.0,0.0,179.0,193.0,0.0,179.0,1744420520.684764,0.0,2025-04-11 21:15:20.684,RIGHT,28
234.0,20482.713935698743,25726.880219802886,-32009.19562687822,-22084.37288813268,-36150.21391513514,-28514.433326057595,-13839.574317881385,-37106.64506037773,0.0,0.0,0.0,193.0,0.0,193.0,0.0,0.0,0.0,179.0,193.0,0.0,179.0,1744420520.6848195,0.0,2025-04-11 21:15:20.684,RIGHT,28
235.0,20469.079371581003,25712.75391730713,-32010.939062945734,-22092.84419928124,-36150.79506049098,-28514.187456868585,-14011.660398442793,-37153.047281866944,0.0,0.0,0.0,193.0,0.0,194.0,0.0,0.0,0.0,180.0,194.0,0.0,180.0,1744420520.6848617,0.0,2025-04-11 21:15:20.684,RIGHT,28
236.0,20449.454539949245,25728.623655870397,-31994.66699298227,-22071.811207748797,-36138.92628418521,-28488.617061211713,-14374.116286530054,-37127.58864493235,0.0,0.0,0.0,193.0,0.0,193.0,0.0,0.0,0.0,179.0,193.0,0.0,179.0,1744420520.684904,0.0,2025-04-11 21:15:20.684,RIGHT,28
237.0,20456.182415030293,25737.85492633044,-31983.26760331006,-22060.501225054413,-36131.03611839248,-28482.40327625314,-14362.873359069034,-37101.37004868627,0.0,0.0,0.0,193.0,0.0,193.0,0.0,0.0,0.0,179.0,193.0,0.0,179.0,1744420520.6849468,0.0,2025-04-11 21:15:20.684,RIGHT,28
238.0,20478.310642041048,25729.85300181544,-32002.601862263902,-22080.99777471993,-36152.82906923641,-28514.478029546506,-13878.175780555699,-37098.62078411827,0.0,0.0,0.0,193.0,0.0,194.0,0.0,0.0,0.0,180.0,194.0,0.0,180.0,1744420520.6849887,0.0,2025-04-11 21:15:20.684,RIGHT,28
239.0,20461.368019743924,25710.451687628232,-32008.413315822283,-22092.978309747974,-36154.99718844857,-28515.50620979145,-13967.694517099204,-37153.09198535585,0.0,0.0,0.0,193.0,0.0,193.0,0.0,0.0,0.0,179.0,193.0,0.0,179.0,1744420520.6850307,0.0,2025-04-11 21:15:20.685,RIGHT,28
240.0,20439.70917936673,25721.962836022718,-31998.131513372842,-22076.773295017876,-36140.08857489689,-28498.764753194424,-14314.325370112107,-37129.51089495551,0.0,0.0,0.0,193.0,0.0,193.0,0.0,0.0,0.0,179.0,193.0,0.0,179.0,1744420520.685072,0.0,2025-04-11 21:15:20.685,RIGHT,28
241.0,20446.90644108134,25735.61975188491,-31985.793350433512,-22064.390428589635,-36131.63961549278,-28489.108799589732,-14423.245420842817,-37113.14941801422,0.0,0.0,0.0,193.0,0.0,193.0,0.0,0.0,0.0,179.0,193.0,0.0,179.0,1744420520.6851277,0.0,2025-04-11 21:15:20.685,RIGHT,28
242.0,20468.4311709918,25731.5740861385,-31996.388077305328,-22067.11734141318,-36145.87767671081,-28499.50236076145,-13943.197005176187,-37070.636400060226,0.0,0.0,0.0,193.0,0.0,194.0,0.0,0.0,0.0,179.0,194.0,0.0,179.0,1744420520.68517,0.0,2025-04-11 21:15:20.685,RIGHT,28
243.0,20465.72660991271,25711.45751612872,-32006.33460358794,-22088.70912655701,-36155.55598205996,-28504.665613730624,-13901.421594789219,-37127.052203065425,0.0,0.0,0.0,193.0,0.0,193.0,0.0,0.0,0.0,179.0,193.0,0.0,179.0,1744420520.685212,0.0,2025-04-11 21:15:20.685,RIGHT,28
244.0,20449.70040913825,25726.969626780705,-31992.677687725747,-22068.59255654723,-36139.86505745233,-28484.996078609955,-14261.619956686493,-37120.99488031803,0.0,0.0,0.0,193.0,0.0,193.0,0.0,0.0,0.0,179.0,193.0,0.0,179.0,1744420520.6852665,0.0,2025-04-11 21:15:20.685,RIGHT,28
245.0,20443.15134801285,25737.877278074895,-31984.6981149552,-22059.78596923184,-36133.40540330474,-28483.900843131643,-14437.975220438866,-37121.307804740405,0.0,0.0,0.0,193.0,0.0,193.0,0.0,0.0,0.0,180.0,193.0,0.0,180.0,1744420520.6853082,0.0,2025-04-11 21:15:20.685,RIGHT,28
246.0,20473.99675536117,25738.79369959756,-31994.398772048808,-22065.7091815125,-36149.521011057026,-28503.63743348568,-14045.992677926146,-37102.26411846449,0.0,0.0,0.0,193.0,0.0,194.0,0.0,0.0,0.0,179.0,194.0,0.0,179.0,1744420520.6853497,0.0,2025-04-11 21:15:20.685,RIGHT,28
247.0,20480.52346474212,25727.170792480803,-32000.9031296853,-22080.304870641812,-36151.756185502556,-28504.82207594181,-13872.185513041677,-37131.74606940104,0.0,0.0,0.0,193.0,0.0,193.0,0.0,0.0,0.0,179.0,193.0,0.0,179.0,1744420520.6853912,0.0,2025-04-11 21:15:20.685,RIGHT,28
248.0,20454.595441173966,25724.734452335175,-32001.37251631886,-22075.32043162828,-36147.554057544956,-28494.383811281183,-14195.414089609872,-37134.22711303557,0.0,0.0,0.0,193.0,0.0,194.0,0.0,0.0,0.0,180.0,194.0,0.0,180.0,1744420520.6854331,0.0,2025-04-11 21:15:20.685,RIGHT,28
249.0,20438.457481677233,25737.273780974603,-31990.777789447046,-22064.233966378448,-36131.50550502605,-28477.575299450793,-14454.560214824704,-37118.513836683494,0.0,0.0,0.0,193.0,0.0,194.0,0.0,0.0,0.0,179.0,194.0,0.0,179.0,1744420520.6854897,0.0,2025-04-11 21:15:20.685,RIGHT,28
250.0,20462.083275566492,25739.173679253305,-31988.65437372379,-22056.008524418896,-36131.63961549278,-28480.793950652358,-14127.308324254553,-37077.65484781919,0.0,0.0,0.0,193.0,0.0,193.0,0.0,0.0,0.0,179.0,193.0,0.0,179.0,1744420520.6855316,0.0,2025-04-11 21:15:20.685,RIGHT,28
251.0,20478.28829029659,25723.505106390134,-32003.80885646449,-22077.5109025849,-36150.45978432414,-28496.730744448992,-13827.660838086706,-37112.34475521383,0.0,0.0,0.0,193.0,0.0,194.0,0.0,1.0,0.0,180.0,194.0,1.0,180.0,1744420520.685573,0.0,2025-04-11 21:15:20.685,RIGHT,28
252.0,20456.987077830683,25718.43126039878,-32003.47358029766,-22070.760675759397,-36146.97291218912,-28483.20793905353,-14123.486175952696,-37113.66350813669,0.0,0.0,0.0,193.0,0.0,194.0,0.0,2.0,0.0,179.0,194.0,2.0,179.0,1744420520.685616,0.0,2025-04-11 21:15:20.685,RIGHT,28
253.0,20436.356417698433,25725.874391302397,-31998.802065706503,-22065.08333266775,-36138.881580696296,-28478.78229365138,-14429.213336612385,-37112.2106447471,0.0,0.0,0.0,193.0,0.0,193.0,0.0,3.0,0.0,179.0,193.0,3.0,179.0,1744420520.6856585,0.0,2025-04-11 21:15:20.685,RIGHT,28
254.0,20452.4273219618,25723.974493023696,-31998.91382442878,-22063.45165532251,-36143.77661273201,-28495.34493629276,-14241.257517487707,-37110.333098212854,0.0,0.0,0.0,193.0,0.0,193.0,0.0,4.0,0.0,179.0,193.0,4.0,179.0,1744420520.6857004,0.0,2025-04-11 21:15:20.685,RIGHT,28
255.0,20471.359249515444,25709.825838783487,-32020.30444387251,-22096.353423160723,-36167.78238627701,-28529.431346587106,-13851.912480820714,-37135.47881072507,0.0,0.0,0.0,193.0,0.0,194.0,0.0,5.0,0.0,180.0,194.0,5.0,180.0,1744420520.6857426,0.0,2025-04-11 21:15:20.685,RIGHT,28
0.0,20459.55752844304,25704.70728930322,-32024.886551485844,-22104.869437798196,-36170.73281654511,-28531.241837887985,-14090.472649392206,-37165.78777620647,0.0,0.0,0.0,193.0,0.0,194.0,0.0,6.0,0.0,179.0,194.0,6.0,179.0,1744420520.6857991,0.0,2025-04-11 21:15:20.685,RIGHT,28
1.0,20443.218403246214,25720.554676122032,-31999.785542462534,-22072.861739738197,-36145.25182786606,-28495.121418848208,-14417.679836473446,-37129.19797053313,0.0,0.0,0.0,193.0,0.0,193.0,0.0,7.0,0.0,179.0,193.0,7.0,179.0,1744420520.6858416,0.0,2025-04-11 21:15:20.685,RIGHT,28
2.0,20454.41662721832,25720.15234472184,-31983.04408586551,-22056.679076752553,-36134.45593529414,-28490.27109030141,-14322.371998116017,-37109.23786273454,0.0,0.0,0.0,193.0,0.0,193.0,0.0,8.0,0.0,179.0,193.0,8.0,179.0,1744420520.685886,0.0,2025-04-11 21:15:20.685,RIGHT,28
3.0,20474.15321757236,25715.302016175036,-31994.644641237814,-22070.760675759397,-36152.69495876968,-28504.44209628607,-13855.93579482267,-37096.67618235066,0.0,0.0,0.0,193.0,0.0,193.0,0.0,9.0,0.0,180.0,193.0,9.0,180.0,1744420520.685943,0.0,2025-04-11 21:15:20.685,RIGHT,28
4.0,20456.070656308017,25709.13293470537,-31997.1033331279,-22073.956975216508,-36157.25471463856,-28493.98147988099,-14019.0588258575,-37120.68195589566,0.0,0.0,0.0,193.0,0.0,194.0,0.0,10.0,0.0,180.0,194.0,10.0,180.0,1744420520.6860228,0.0,2025-04-11 21:15:20.686,RIGHT,28
5.0,20436.19995548725,25724.980321524185,-31993.638812737325,-22067.586728046743,-36144.3801098323,-28481.084523330275,-14371.188208006408,-37110.35544995731,0.0,0.0,0.0,193.0,0.0,193.0,0.0,10.0,0.0,179.0,193.0,10.0,179.0,1744420520.6860824,0.0,2025-04-11 21:15:20.686,RIGHT,28
6.0,20449.231022504693,25733.965722795216,-31980.85361490889,-22055.22621336296,-36128.398612546756,-28472.25558427043,-14369.958862061367,-37087.37785665725,0.0,0.0,0.0,193.0,0.0,193.0,0.0,11.0,0.0,179.0,193.0,11.0,179.0,1744420520.686133,0.0,2025-04-11 21:15:20.686,RIGHT,28
7.0,20474.779066417108,25732.825783827997,-31996.67864998325,-22066.22327163497,-36144.3801098323,-28498.518884005414,-13882.377908513297,-37077.967772241565,0.0,0.0,0.0,193.0,0.0,193.0,0.0,11.0,0.0,179.0,193.0,11.0,179.0,1744420520.686182,0.0,2025-04-11 21:15:20.686,RIGHT,28
8.0,20465.681906423797,25712.95508300723,-32002.37834481935,-22080.03664970835,-36145.54240054398,-28504.64326198617,-13946.527415100029,-37137.78104040397,0.0,0.0,0.0,193.0,0.0,193.0,0.0,12.0,0.0,179.0,193.0,12.0,179.0,1744420520.68626,0.0,2025-04-11 21:15:20.686,RIGHT,28
9.0,20442.637257890376,25722.85690580093,-31998.75736221759,-22068.726667013965,-36140.51325804154,-28489.086447845275,-14304.043567662666,-37118.89381633924,0.0,0.0,0.0,193.0,0.0,194.0,0.0,12.0,0.0,179.0,194.0,12.0,179.0,1744420520.6863096,0.0,2025-04-11 21:15:20.686,RIGHT,28
10.0,20441.027932289595,25733.339873950466,-31997.572719761458,-22064.27866986736,-36142.61432202033,-28488.17002632261,-14420.876135930555,-37108.34379295633,0.0,0.0,0.0,193.0,0.0,193.0,0.0,12.0,0.0,180.0,193.0,12.0,180.0,1744420520.6863582,0.0,2025-04-11 21:15:20.686,RIGHT,28
11.0,20468.587633202987,25737.13967050787,-32007.94392918872,-22072.437056593546,-36155.935961715695,-28513.092221390274,-13966.71104034317,-37097.79376957342,0.0,0.0,0.0,193.0,0.0,194.0,0.0,13.0,0.0,179.0,194.0,13.0,179.0,1744420520.6864066,0.0,2025-04-11 21:15:20.686,RIGHT,28
12.0,20472.320374527022,25731.529382649587,-32004.881740198343,-22080.528388086368,-36151.42090933573,-28507.21371259853,-13898.694681965671,-37144.30774978492,0.0,0.0,0.0,193.0,0.0,193.0,0.0,13.0,0.0,179.0,193.0,13.0,179.0,1744420520.6864552,0.0,2025-04-11 21:15:20.686,RIGHT,28
13.0,20457.076484808505,25734.770385595606,-31998.176216861753,-22065.84329197923,-36141.36262433084,-28485.53252047688,-14231.310991205097,-37110.84718833533,0.0,0.0,0.0,193.0,0.0,193.0,0.0,13.0,0.0,179.0,193.0,13.0,179.0,1744420520.686504,0.0,2025-04-11 21:15:20.686,RIGHT,28
14.0,20450.639182405375,25741.162984509825,-31987.022696378554,-22054.108626140194,-36131.03611839248,-28472.00971508142,-14434.488348303837,-37101.37004868627,0.0,0.0,0.0,193.0,0.0,193.0,0.0,14.0,0.0,179.0,193.0,14.0,179.0,1744420520.6865697,0.0,2025-04-11 21:15:20.686,RIGHT,28
15.0,20474.175569316812,25742.369978710412,-31993.19177784822,-22053.75099822891,-36136.53464752849,-28485.890148388167,-14050.373619839385,-37073.564478583874,0.0,0.0,0.0,193.0,0.0,194.0,0.0,14.0,0.0,180.0,194.0,14.0,180.0,1744420520.6866355,0.0,2025-04-11 21:15:20.686,RIGHT,28
16.0,20473.214444305235,25721.046414500048,-32009.66501351178,-22081.914196242597,-36151.68913026919,-28500.217616584017,-13865.681155405184,-37118.58089191686,0.0,0.0,0.0,193.0,0.0,194.0,0.0,14.0,0.0,180.0,194.0,14.0,180.0,1744420520.686684,0.0,2025-04-11 21:15:20.686,RIGHT,28
17.0,20450.14744402736,25719.638254599366,-32005.194664620718,-22076.37096361768,-36140.557961530445,-28487.365363522218,-14190.921388974357,-37115.29518548193,0.0,0.0,0.0,193.0,0.0,194.0,0.0,14.0,0.0,179.0,194.0,14.0,179.0,1744420520.686728,0.0,2025-04-11 21:15:20.686,RIGHT,28
18.0,20432.198993229747,25734.345702450955,-32000.56785351847,-22072.392353104635,-36131.125525370306,-28484.817264654313,-14453.24146190184,-37121.12899078477,0.0,0.0,0.0,193.0,0.0,194.0,0.0,14.0,0.0,180.0,194.0,14.0,180.0,1744420520.6867907,0.0,2025-04-11 21:15:20.686,RIGHT,28
19.0,20457.97055458672,25741.006522298638,-32000.94783317421,-22067.966707702482,-36132.75720271554,-28495.88137815969,-14159.964222903756,-37096.40796141719,0.0,0.0,0.0,193.0,0.0,193.0,0.0,14.0,0.0,179.0,193.0,14.0,179.0,1744420520.6868353,0.0,2025-04-11 21:15:20.686,RIGHT,28
20.0,20470.554586715054,25728.04251051456,-32017.309310115495,-22091.547798102834,-36147.66581626723,-28511.97463416751,-13830.790082310448,-37114.42346744817,0.0,0.0,0.0,193.0,0.0,193.0,0.0,15.0,0.0,179.0,193.0,15.0,179.0,1744420520.6868784,0.0,2025-04-11 21:15:20.686,RIGHT,28
21.0,20445.43122594729,25721.068766244505,-32016.795219993022,-22086.5633590893,-36148.78340349,-28502.96688115202,-14118.389978216885,-37133.17658104617,0.0,0.0,0.0,193.0,0.0,194.0,0.0,15.0,0.0,180.0,194.0,15.0,180.0,1744420520.6869211,0.0,2025-04-11 21:15:20.686,RIGHT,28
22.0,20436.445824676255,25733.205763483737,-32002.221882608163,-22068.41374259159,-36137.60753126234,-28487.275956544396,-14443.451397830415,-37128.12508679928,0.0,0.0,0.0,193.0,0.0,194.0,0.0,15.0,0.0,180.0,194.0,15.0,180.0,1744420520.686964,0.0,2025-04-11 21:15:20.686,RIGHT,28
23.0,20452.76259812863,25735.776214096095,-32002.66891749727,-22063.83163497825,-36142.8825429538,-28491.791008924367,-14247.20308151282,-37092.29524043742,0.0,0.0,0.0,193.0,0.0,194.0,0.0,15.0,0.0,180.0,194.0,15.0,180.0,1744420520.6870275,0.0,2025-04-11 21:15:20.687,RIGHT,28
24.0,20468.140598313883,25732.736376850175,-32015.498818814616,-22080.774257275374,-36158.037025694495,-28508.845389943766,-13837.607364369318,-37098.62078411827,0.0,0.0,0.0,193.0,0.0,194.0,0.0,15.0,0.0,180.0,194.0,15.0,180.0,1744420520.6870704,0.0,2025-04-11 21:15:20.687,RIGHT,28
25.0,20449.56629867152,25720.95700752223,-32011.631967023848,-22080.93071948656,-36151.175040146714,-28501.893997418167,-14060.610718799917,-37130.404964733716,0.0,0.0,0.0,193.0,0.0,194.0,0.0,15.0,0.0,180.0,194.0,15.0,180.0,1744420520.6871133,0.0,2025-04-11 21:15:20.687,RIGHT,28
26.0,20436.401121187344,25736.826746085495,-31995.0022691491,-22060.434169821045,-36131.460801537134,-28479.76577040741,-14403.151202577497,-37113.57410115887,0.0,0.0,0.0,193.0,0.0,193.0,0.0,15.0,0.0,179.0,193.0,15.0,179.0,1744420520.687156,0.0,2025-04-11 21:15:20.687,RIGHT,28
27.0,20444.961839313728,25743.040531044073,-31991.984783647633,-22054.60036451821,-36129.71736546962,-28482.604441953237,-14320.405044603951,-37103.001726031514,0.0,0.0,0.0,193.0,0.0,193.0,0.0,15.0,0.0,179.0,193.0,15.0,179.0,1744420520.6871984,0.0,2025-04-11 21:15:20.687,RIGHT,28
28.0,20468.922909369816,25741.4759089322,-32005.217016365175,-22068.883129225153,-36146.10119415536,-28498.004793882945,-13848.827940085881,-37089.54597586942,0.0,0.0,0.0,193.0,0.0,194.0,0.0,15.0,0.0,179.0,194.0,15.0,179.0,1744420520.6872413,0.0,2025-04-11 21:15:20.687,RIGHT,28
29.0,20459.222252276213,25720.554676122032,-32002.646565752813,-22071.185358904047,-36141.452031308654,-28487.34301177776,-13985.62061615236,-37115.161075015196,0.0,0.0,0.0,193.0,0.0,194.0,0.0,15.0,0.0,180.0,194.0,15.0,180.0,1744420520.6872983,0.0,2025-04-11 21:15:20.687,RIGHT,28
30.0,20436.490528165166,25728.824821570495,-31993.594109248414,-22059.383637831645,-36131.05847013694,-28473.57433719329,-14340.163986702442,-37107.06974352238,0.0,0.0,0.0,193.0,0.0,194.0,0.0,16.0,0.0,179.0,194.0,16.0,179.0,1744420520.6873417,0.0,2025-04-11 21:15:20.687,RIGHT,28
31.0,20444.693618380265,25738.503126919644,-31981.166539331265,-22049.88414643814,-36122.20717933264,-28473.35081974874,-14385.113344802065,-37102.57704288686,0.0,0.0,0.0,193.0,0.0,194.0,0.0,16.0,0.0,180.0,194.0,16.0,180.0,1744420520.6873844,0.0,2025-04-11 21:15:20.687,RIGHT,28
32.0,20469.43699949229,25739.79952809805,-31995.67282148276,-22064.50218731191,-36138.38984231828,-28501.648128229157,-13901.04161513348,-37100.118350996774,0.0,0.0,0.0,193.0,0.0,194.0,0.0,16.0,0.0,179.0,194.0,16.0,179.0,1744420520.6874278,0.0,2025-04-11 21:15:20.687,RIGHT,28
33.0,20457.210595275235,25722.655740100832,-32001.774847719058,-22078.986117718952,-36137.80869696244,-28504.26328233043,-13938.279621396021,-37144.374805018284,0.0,0.0,0.0,193.0,0.0,193.0,0.0,16.0,0.0,179.0,193.0,16.0,179.0,1744420520.6874835,0.0,2025-04-11 21:15:20.687,RIGHT,28
34.0,20434.165946741814,25726.969626780705,-32000.411391307283,-22068.905480969606,-36141.49673479757,-28487.499473988948,-14292.48771577927,-37112.27769998046,0.0,0.0,0.0,193.0,0.0,193.0,0.0,16.0,0.0,179.0,193.0,16.0,179.0,1744420520.6875277,0.0,2025-04-11 21:15:20.687,RIGHT,28
35.0,20433.405987430335,25735.820917585006,-31990.08488536893,-22056.41085581909,-36135.48411553909,-28478.223500039996,-14448.502892077315,-37108.522606911974,0.0,0.0,0.0,193.0,0.0,193.0,0.0,16.0,0.0,179.0,193.0,16.0,179.0,1744420520.6875734,0.0,2025-04-11 21:15:20.687,RIGHT,28
36.0,20463.84906337846,25740.89476357636,-31993.7505714596,-22057.059056408296,-36135.10413588335,-28491.67925020209,-13981.172619005754,-37073.87740300625,0.0,0.0,0.0,193.0,0.0,194.0,0.0,16.0,0.0,180.0,194.0,16.0,180.0,1744420521.1618848,0.0,2025-04-11 21:15:21.161,RIGHT,28
37.0,20467.112418068937,25724.019196512607,-31999.249100595607,-22073.286422882848,-36135.41706030572,-28496.730744448992,-13882.735536424583,-37121.0619355514,0.0,0.0,0.0,193.0,0.0,194.0,0.0,16.0,0.0,180.0,194.0,16.0,180.0,1744420521.162024,0.0,2025-04-11 21:15:21.162,RIGHT,28
38.0,20439.083330521982,25719.437088899267,-32000.43374305174,-22065.26214662339,-36131.84078119288,-28486.314831532818,-14217.587020109537,-37115.27283373747,0.0,0.0,0.0,193.0,0.0,194.0,0.0,16.0,0.0,180.0,194.0,16.0,180.0,1744420521.1621213,0.0,2025-04-11 21:15:21.162,RIGHT,28
39.0,20426.745167582652,25728.95893203723,-31995.538711016026,-22060.054190165305,-36128.93505441368,-28486.851273399745,-14448.122912421575,-37130.56142694491,0.0,0.0,0.0,193.0,0.0,194.0,0.0,16.0,0.0,179.0,194.0,16.0,179.0,1744420521.1621714,0.0,2025-04-11 21:15:21.162,RIGHT,28
40.0,20453.321391740013,25732.24463847216,-32002.04306865252,-22061.238832621435,-36139.19450511867,-28496.64133747117,-14057.34736410944,-37085.85793803429,0.0,0.0,0.0,193.0,0.0,194.0,0.0,16.0,0.0,179.0,194.0,16.0,179.0,1744420521.16222,0.0,2025-04-11 21:15:21.162,RIGHT,28
41.0,20465.32427851251,25719.057109243528,-32007.04985941051,-22076.192149662038,-36146.034138922,-28497.110724104732,-13854.706448877627,-37109.01434528999,0.0,0.0,0.0,193.0,0.0,193.0,0.0,16.0,0.0,179.0,193.0,16.0,179.0,1744420521.1622689,0.0,2025-04-11 21:15:21.162,RIGHT,28
42.0,20432.75778684113,25711.256350428626,-32010.447324567718,-22074.046382194327,-36146.212952877635,-28491.902767646643,-14182.561836548071,-37129.93557810016,0.0,0.0,0.0,193.0,0.0,193.0,0.0,16.0,0.0,179.0,193.0,16.0,179.0,1744420521.1623228,0.0,2025-04-11 21:15:21.162,RIGHT,28
43.0,20425.64993210434,25726.366129680413,-32001.596033763413,-22063.89869021162,-36132.82425794891,-28475.720104661003,-14462.405677128516,-37126.82868562087,0.0,0.0,0.0,193.0,0.0,194.0,0.0,16.0,0.0,180.0,194.0,16.0,180.0,1744420521.1623716,0.0,2025-04-11 21:15:21.162,RIGHT,28
44.0,20457.2776505086,25735.217420484714,-32002.445400052715,-22058.489568053436,-36135.57352251691,-28477.620002939704,-14167.005022407178,-37084.24861243351,0.0,0.0,0.0,193.0,0.0,194.0,0.0,16.0,0.0,180.0,194.0,16.0,180.0,1744420521.1624384,0.0,2025-04-11 21:15:21.162,RIGHT,28
45.0,20472.745057671673,25731.775251838597,-32014.00125193611,-22075.02985895036,-36147.03996742248,-28485.666630943615,-13826.364436908298,-37096.87734805076,0.0,0.0,0.0,193.0,0.0,194.0,0.0,16.0,0.0,180.0,194.0,16.0,180.0,1744420521.1624863,0.0,2025-04-11 21:15:21.162,RIGHT,28
46.0,20449.4768916937,25724.913266290816,-32012.23546412414,-22068.011411191394,-36143.79896447647,-28473.753151148936,-14116.244210749175,-37114.98226105956,0.0,0.0,0.0,193.0,0.0,194.0,0.0,16.0,0.0,180.0,194.0,16.0,180.0,1744420521.1625345,0.0,2025-04-11 21:15:21.162,RIGHT,28
47.0,20425.64993210434,25731.19410648276,-32011.922539701765,-22066.066809423784,-36144.64833076577,-28474.06607557131,-14437.7069995054,-37120.81606636239,0.0,0.0,0.0,193.0,0.0,194.0,0.0,16.0,0.0,179.0,194.0,16.0,179.0,1744420521.1625996,0.0,2025-04-11 21:15:21.162,RIGHT,28
48.0,20443.419568946312,25738.23490598618,-32006.491065799128,-22057.975477930962,-36138.6804149962,-28475.49658721645,-14258.20013978483,-37093.703400338105,0.0,0.0,0.0,193.0,0.0,193.0,0.0,16.0,0.0,179.0,193.0,16.0,179.0,1744420521.1626484,0.0,2025-04-11 21:15:21.162,RIGHT,28
49.0,20459.75869414314,25733.608094883934,-32024.327757874464,-22079.187283419047,-36157.72410127212,-28498.161256094132,-13836.69094284665,-37103.1581882427,0.0,0.0,0.0,193.0,0.0,193.0,0.0,16.0,0.0,179.0,193.0,16.0,179.0,1744420521.1626968,0.0,2025-04-11 21:15:21.162,RIGHT,28
50.0,20442.413740445823,25720.08528948847,-32021.354975861905,-22075.923928728575,-36156.96414196064,-28487.991212366967,-14074.535855595572,-37139.30095902693,0.0,0.0,0.0,193.0,0.0,194.0,0.0,16.0,0.0,180.0,194.0,16.0,180.0,1744420521.1627452,0.0,2025-04-11 21:15:21.162,RIGHT,28
51.0,20421.268990191104,25725.025025013096,-32013.889493213836,-22064.591594289734,-36144.7824412325,-28475.9212703611,-14414.99762713881,-37121.68778439615,0.0,0.0,0.0,193.0,0.0,194.0,0.0,16.0,0.0,180.0,194.0,16.0,180.0,1744420521.1627932,0.0,2025-04-11 21:15:21.162,RIGHT,28
52.0,20427.169850727303,25734.256295473137,-32005.395830320816,-22053.281611595346,-36136.04290915047,-28476.1224360612,-14333.704332554858,-37097.257327706495,0.0,0.0,0.0,193.0,0.0,194.0,0.0,16.0,0.0,180.0,194.0,16.0,180.0,1744420521.1628408,0.0,2025-04-11 21:15:21.162,RIGHT,28
53.0,20460.85392962145,25736.223248985203,-32017.912807215787,-22067.027934435362,-36153.65608378126,-28500.083506117287,-13858.126265779289,-37101.258289964,0.0,0.0,0.0,193.0,0.0,194.0,0.0,16.0,0.0,179.0,194.0,16.0,179.0,1744420521.1629035,0.0,2025-04-11 21:15:21.162,RIGHT,28
54.0,20455.377752229902,25719.90647553283,-32012.86131296889,-22066.491492568435,-36151.957351202655,-28485.30900303233,-13987.609921408883,-37132.77424964598,0.0,0.0,0.0,193.0,0.0,194.0,0.0,16.0,0.0,180.0,194.0,16.0,180.0,1744420521.1629524,0.0,2025-04-11 21:15:21.162,RIGHT,28
55.0,20430.47790890669,25732.110528005425,-32002.355993074896,-22050.040608649328,-36145.184772632696,-28463.73956963296,-14350.669306596435,-37106.06391502189,0.0,0.0,0.0,193.0,0.0,193.0,0.0,17.0,0.0,179.0,193.0,17.0,179.0,1744420521.1630006,0.0,2025-04-11 21:15:21.163,RIGHT,28
56.0,20440.871470078408,25742.168813010314,-31993.52705401505,-22040.630524233642,-36138.76982197402,-28463.069017299298,-14394.389318751017,-37094.97744977206,0.0,0.0,0.0,193.0,0.0,193.0,0.0,17.0,0.0,179.0,193.0,17.0,179.0,1744420521.1630485,0.0,2025-04-11 21:15:21.163,RIGHT,28
57.0,20469.638165192388,25745.94625782326,-32007.161618132788,-22053.37101857317,-36157.277066383016,-28485.465465243517,-13928.668371280239,-37088.56249911338,0.0,0.0,0.0,193.0,0.0,194.0,0.0,17.0,0.0,180.0,194.0,17.0,180.0,1744420521.163096,0.0,2025-04-11 21:15:21.163,RIGHT,28
58.0,20465.234871534693,25736.044435029562,-32007.876873955356,-22064.993925689927,-36153.991359948086,-28477.30707851733,-13959.156150717277,-37121.7101361406,0.0,0.0,0.0,193.0,0.0,194.0,0.0,17.0,0.0,180.0,194.0,17.0,180.0,1744420521.1631444,0.0,2025-04-11 21:15:21.163,RIGHT,28
59.0,20443.441920690766,25742.23586824368,-32000.053763395998,-22048.252469092902,-36139.75329873005,-28456.452900940527,-14300.959026927832,-37089.300106680406,0.0,0.0,0.0,193.0,0.0,193.0,0.0,17.0,0.0,179.0,193.0,17.0,179.0,1744420521.1632063,0.0,2025-04-11 21:15:21.163,RIGHT,28
60.0,20437.04932177655,25741.453557187746,-31997.52801627255,-22045.45850103599,-36135.595874261366,-28462.48787194346,-14436.656467516003,-37099.89483355222,0.0,0.0,0.0,193.0,0.0,193.0,0.0,17.0,0.0,179.0,193.0,17.0,179.0,1744420521.1632545,0.0,2025-04-11 21:15:21.163,RIGHT,28
61.0,20462.083275566492,25745.275705489603,-32010.693193756724,-22055.494434296423,-36151.08563316889,-28485.44311349906,-13990.873276099359,-37087.86959503527,0.0,0.0,0.0,193.0,0.0,193.0,0.0,17.0,0.0,179.0,193.0,17.0,179.0,1744420521.1632996,0.0,2025-04-11 21:15:21.163,RIGHT,28
62.0,20466.75479015765,25728.400138425844,-32014.403583336305,-22070.93948971504,-36157.92526697222,-28483.25264254244,-13906.51779252503,-37118.62559540577,0.0,0.0,0.0,193.0,0.0,194.0,0.0,17.0,0.0,180.0,194.0,17.0,180.0,1744420521.1633604,0.0,2025-04-11 21:15:21.163,RIGHT,28
63.0,20445.073598036004,25728.37778668139,-32009.463847811683,-22057.617850019677,-36154.55015355947,-28473.864909871212,-14241.81631109909,-37112.59062440284,0.0,0.0,0.0,193.0,0.0,194.0,0.0,17.0,0.0,180.0,194.0,17.0,180.0,1744420521.1634092,0.0,2025-04-11 21:15:21.163,RIGHT,28
64.0,20436.602286887442,25741.4759089322,-31996.18691160523,-22044.273858579858,-36139.082746396394,-28466.332371989774,-14468.038316731254,-37122.715964641095,0.0,0.0,0.0,193.0,0.0,193.0,0.0,17.0,0.0,179.0,193.0,17.0,179.0,1744420521.163458,0.0,2025-04-11 21:15:21.163,RIGHT,28
65.0,20461.85975812194,25744.158118266838,-31998.66795523977,-22041.234021333938,-36139.97681617461,-28472.076770314787,-14074.513503851118,-37066.993065714014,0.0,0.0,0.0,193.0,0.0,193.0,0.0,17.0,0.0,179.0,193.0,17.0,179.0,1744420521.163506,0.0,2025-04-11 21:15:21.163,RIGHT,28
66.0,20475.449618750765,25730.00946402663,-32005.082905898442,-22060.903556454607,-36144.93890344368,-28475.988325594466,-13845.855158073326,-37093.65869684919,0.0,0.0,0.0,193.0,0.0,193.0,0.0,17.0,0.0,179.0,193.0,17.0,179.0,1744420521.1635542,0.0,2025-04-11 21:15:21.163,RIGHT,28
67.0,20452.874356850905,25726.7237575917,-32005.32877508745,-22054.89093719613,-36148.76105174554,-28463.516052188406,-14165.730972973226,-37096.96675502858,0.0,0.0,0.0,193.0,0.0,193.0,0.0,17.0,0.0,179.0,193.0,17.0,179.0,1744420521.1636164,0.0,2025-04-11 21:15:21.163,RIGHT,28
68.0,20434.70238860874,25735.75386235164,-31999.316155828972,-22050.040608649328,-36138.38984231828,-28461.50439518743,-14441.350333851617,-37099.38074342975,0.0,0.0,0.0,193.0,0.0,193.0,0.0,17.0,0.0,179.0,193.0,17.0,179.0,1744420521.1636653,0.0,2025-04-11 21:15:21.163,RIGHT,28
69.0,20453.38844697338,25740.559487409533,-31997.46096103918,-22046.93371617004,-36132.19840910416,-28473.753151148936,-14173.218807365753,-37079.89002226472,0.0,0.0,0.0,193.0,0.0,193.0,0.0,17.0,0.0,179.0,193.0,17.0,179.0,1744420521.1637132,0.0,2025-04-11 21:15:21.163,RIGHT,28
70.0,20471.04632509307,25729.00363552614,-32010.04499316752,-22067.922004213575,-36146.54822904447,-28482.984421608977,-13824.464538629598,-37092.8540340488,0.0,0.0,0.0,193.0,0.0,193.0,0.0,17.0,0.0,179.0,193.0,17.0,179.0,1744420521.1637735,0.0,2025-04-11 21:15:21.163,RIGHT,28
71.0,20450.549775427553,25722.18635346727,-32006.625176265858,-22061.37294308817,-36135.86409519483,-28464.521880688895,-14094.920646538812,-37093.703400338105,0.0,0.0,0.0,193.0,0.0,193.0,0.0,17.0,0.0,180.0,193.0,17.0,180.0,1744420521.163816,0.0,2025-04-11 21:15:21.163,RIGHT,28
72.0,20425.202897215237,25730.680016360286,-32005.73110648765,-22057.729608741953,-36129.04681313596,-28461.86202309871,-14406.503964245792,-37095.46918815008,0.0,0.0,0.0,193.0,0.0,193.0,0.0,17.0,0.0,179.0,193.0,17.0,179.0,1744420521.1638577,0.0,2025-04-11 21:15:21.163,RIGHT,28
73.0,20435.28353396458,25720.621731355397,-32014.67180426977,-22065.32920185676,-36135.81939170592,-28478.379962251183,-14245.392590211939,-37082.28165892144,0.0,0.0,0.0,193.0,0.0,193.0,0.0,17.0,0.0,179.0,193.0,17.0,179.0,1744420521.1638987,0.0,2025-04-11 21:15:21.163,RIGHT,28
74.0,20461.837406377486,25721.247580200146,-32025.735917775146,-22081.89184449814,-36149.073976167914,-28497.177779338097,-13824.755111307517,-37094.79863581641,0.0,0.0,0.0,193.0,0.0,193.0,0.0,17.0,0.0,180.0,193.0,17.0,180.0,1744420521.1639547,0.0,2025-04-11 21:15:21.163,RIGHT,28
75.0,20454.707199896242,25717.760708065118,-32017.219903137673,-22076.259204895403,-36143.7319092431,-28481.531558219383,-14035.420302798784,-37116.09984828232,0.0,0.0,0.0,193.0,0.0,194.0,0.0,17.0,0.0,180.0,194.0,17.0,180.0,1744420521.1639965,0.0,2025-04-11 21:15:21.163,RIGHT,28
76.0,20438.85981307743,25729.674187859797,-32005.418182065274,-22062.490530310934,-36133.67362423821,-28464.365418477708,-14382.632301167525,-37094.262193949486,0.0,0.0,0.0,193.0,0.0,193.0,0.0,17.0,0.0,179.0,193.0,17.0,179.0,1744420521.1640377,0.0,2025-04-11 21:15:21.164,RIGHT,28
77.0,20445.721798625207,25733.921019306305,-31995.717524971667,-22051.873451694664,-36127.01280439053,-28465.706523145025,-14344.634335593502,-37091.08824623683,0.0,0.0,0.0,193.0,0.0,193.0,0.0,17.0,0.0,179.0,193.0,17.0,179.0,1744420521.1640923,0.0,2025-04-11 21:15:21.164,RIGHT,28
78.0,20471.582766959997,25732.065824516514,-32010.536731545537,-22064.010448933896,-36146.32471159991,-28487.678287944593,-13863.98242282658,-37087.51196712398,0.0,0.0,0.0,193.0,0.0,193.0,0.0,17.0,0.0,179.0,193.0,17.0,179.0,1744420521.164134,0.0,2025-04-11 21:15:21.164,RIGHT,28
79.0,20454.43897896278,25713.536228363067,-32012.995423435623,-22072.03472519335,-36149.67747326821,-28480.861005885723,-13986.157058019287,-37120.50314194002,0.0,0.0,0.0,193.0,0.0,194.0,0.0,17.0,0.0,180.0,194.0,17.0,180.0,1744420521.1641755,0.0,2025-04-11 21:15:21.164,RIGHT,28
80.0,20428.913286794817,25723.23688545667,-32006.200493121207,-22059.026009920362,-36141.25086560856,-28465.035970811365,-14334.285477910696,-37099.29133645193,0.0,0.0,0.0,193.0,0.0,194.0,0.0,17.0,0.0,180.0,194.0,17.0,180.0,1744420521.164217,0.0,2025-04-11 21:15:21.164,RIGHT,28
81.0,20440.91617356732,25738.883106575384,-31995.47165578266,-22046.665495236575,-36130.2314555921,-28460.900898087133,-14389.986025093322,-37082.25930717699,0.0,0.0,0.0,193.0,0.0,193.0,0.0,17.0,0.0,179.0,193.0,17.0,179.0,1744420521.1642585,0.0,2025-04-11 21:15:21.164,RIGHT,28
82.0,20463.67024942282,25739.687769375774,-32011.140228645832,-22058.578975031254,-36146.92820870021,-28487.879453644688,-13907.031882647501,-37071.23989716052,0.0,0.0,0.0,193.0,0.0,194.0,0.0,17.0,0.0,180.0,194.0,17.0,180.0,1744420521.164317,0.0,2025-04-11 21:15:21.164,RIGHT,28
83.0,20457.90349935335,25718.833591798975,-32012.883664713347,-22072.727629271463,-36147.71051975615,-28485.286651287875,-13938.793711518492,-37129.57795018887,0.0,0.0,0.0,193.0,0.0,193.0,0.0,17.0,0.0,179.0,193.0,17.0,179.0,1744420521.1643589,0.0,2025-04-11 21:15:21.164,RIGHT,28
84.0,20441.43026368979,25722.298112189546,-32004.747629731613,-22058.51191979789,-36140.692071997175,-28467.44995921254,-14289.649044233447,-37105.34865919932,0.0,0.0,0.0,193.0,0.0,193.0,0.0,17.0,0.0,179.0,193.0,17.0,179.0,1744420521.1644,0.0,2025-04-11 21:15:21.164,RIGHT,28
85.0,20441.631429389887,25735.038606529073,-31995.896338927312,-22049.615925504677,-36135.70763298364,-28464.879508600177,-14445.083075175653,-37106.9579848001,0.0,0.0,0.0,193.0,0.0,194.0,0.0,17.0,0.0,179.0,194.0,17.0,179.0,1744420521.1644413,0.0,2025-04-11 21:15:21.164,RIGHT,28
86.0,20461.211557532737,25740.2242112427,-32009.419144322772,-22057.349629086213,-36154.05841518145,-28487.253604799942,-14023.059788115,-37091.20000495911,0.0,0.0,0.0,193.0,0.0,193.0,0.0,17.0,0.0,179.0,193.0,17.0,179.0,1744420521.1644828,0.0,2025-04-11 21:15:21.164,RIGHT,28
87.0,20469.168778558826,25733.541039650565,-32006.647528010315,-22066.111512912692,-36148.55988604545,-28480.458674485526,-13898.47116452112,-37114.64698489273,0.0,0.0,0.0,193.0,0.0,193.0,0.0,17.0,0.0,179.0,193.0,17.0,179.0,1744420521.1645238,0.0,2025-04-11 21:15:21.164,RIGHT,28
88.0,20446.794682359065,25726.23201921368,-32002.355993074896,-22057.617850019677,-36137.96515917363,-28466.310020245317,-14210.501517117205,-37096.229147461556,0.0,0.0,0.0,193.0,0.0,193.0,0.0,17.0,0.0,179.0,193.0,17.0,179.0,1744420521.164565,0.0,2025-04-11 21:15:21.164,RIGHT,28
89.0,20439.41860668881,25743.08523453298,-31987.447379523204,-22046.21846034747,-36124.21883633362,-28454.955334062022,-14435.225955870863,-37091.84820554831,0.0,0.0,0.0,193.0,0.0,194.0,0.0,17.0,0.0,179.0,194.0,17.0,179.0,1744420521.1646197,0.0,2025-04-11 21:15:21.164,RIGHT,28
90.0,20458.730513898197,25741.94529556576,-31997.52801627255,-22051.493472038925,-36137.47342079561,-28477.06120932832,-14080.50377136514,-37070.56934482686,0.0,0.0,0.0,193.0,0.0,194.0,0.0,17.0,0.0,180.0,194.0,17.0,180.0,1744420521.1646616,0.0,2025-04-11 21:15:21.164,RIGHT,28
91.0,20474.063810594536,25727.439013414267,-32004.926443687255,-22068.860777480695,-36145.69886275517,-28483.945546620555,-13841.541271393451,-37101.30299345291,0.0,0.0,0.0,193.0,0.0,193.0,0.0,17.0,0.0,179.0,193.0,17.0,179.0,1744420521.1647024,0.0,2025-04-11 21:15:21.164,RIGHT,28
92.0,20458.23877552018,25730.545905893556,-31995.114027871376,-22055.82971046325,-36130.94671141466,-28462.465520199006,-14151.559966988561,-37093.546938126914,0.0,0.0,0.0,193.0,0.0,193.0,0.0,17.0,0.0,180.0,193.0,17.0,180.0,1744420521.1648293,0.0,2025-04-11 21:15:21.164,RIGHT,28
93.0,20436.825804331995,25743.95695256674,-31989.52609175755,-22048.990076659928,-36124.19648458916,-28450.0155985374,-14431.292048846728,-37086.59554560132,0.0,0.0,0.0,193.0,0.0,194.0,0.0,17.0,0.0,180.0,194.0,17.0,180.0,1744420521.1648715,0.0,2025-04-11 21:15:21.164,RIGHT,28
94.0,20454.99777257416,25744.80631885604,-31989.86136792438,-22045.860832436185,-36126.2751968235,-28459.38097946417,-14169.642528252904,-37053.76083299647,0.0,0.0,0.0,193.0,0.0,193.0,0.0,17.0,0.0,179.0,193.0,17.0,179.0,1744420521.1649127,0.0,2025-04-11 21:15:21.164,RIGHT,28
95.0,20465.659554679343,25727.260199458626,-32008.167446633277,-22072.70527752701,-36145.74356624408,-28482.62679369769,-13813.825108268871,-37080.001780987004,0.0,0.0,0.0,193.0,0.0,193.0,0.0,17.0,0.0,179.0,193.0,17.0,179.0,1744420521.164954,0.0,2025-04-11 21:15:21.164,RIGHT,28
96.0,20451.913231839328,25728.95893203723,-31998.846769195414,-22061.21648087698,-36134.36652831633,-28464.499528944438,-14086.762259812625,-37096.45266490611,0.0,0.0,0.0,193.0,0.0,194.0,0.0,17.0,0.0,180.0,194.0,17.0,180.0,1744420521.1649952,0.0,2025-04-11 21:15:21.164,RIGHT,28
97.0,20435.61881013141,25739.106624019936,-31986.888585911824,-22046.061998136283,-36118.83206591989,-28446.148746746632,-14412.114252104075,-37083.712170566585,0.0,0.0,0.0,193.0,0.0,193.0,0.0,17.0,0.0,179.0,193.0,17.0,179.0,1744420521.1650517,0.0,2025-04-11 21:15:21.165,RIGHT,28
98.0,20449.231022504693,25743.15228976635,-31986.441551022715,-22043.402140546103,-36120.91077815423,-28449.52386015938,-14273.175808569886,-37064.93670522412,0.0,0.0,0.0,193.0,0.0,193.0,0.0,17.0,0.0,180.0,193.0,17.0,180.0,1744420521.1650932,0.0,2025-04-11 21:15:21.165,RIGHT,28
99.0,20471.448656493267,25742.638199643876,-32000.09846688491,-22064.792759989832,-36136.33348182839,-28474.535462204873,-13853.410047699219,-37084.87446127826,0.0,0.0,0.0,193.0,0.0,194.0,0.0,17.0,0.0,180.0,194.0,17.0,180.0,1744420521.1651347,0.0,2025-04-11 21:15:21.165,RIGHT,28
100.0,20446.23588874768,25711.815144040007,-32009.083868155943,-22078.09204794074,-36142.05552840895,-28478.223500039996,-14049.457198316717,-37119.564368672894,0.0,0.0,0.0,193.0,0.0,194.0,0.0,17.0,0.0,179.0,194.0,17.0,179.0,1744420521.165176,0.0,2025-04-11 21:15:21.165,RIGHT,28
101.0,20427.214554216214,25719.370033665902,-31996.924519172255,-22064.390428589635,-36128.108039868835,-28462.398464965638,-14388.600216937091,-37099.20192947411,0.0,0.0,0.0,193.0,0.0,193.0,0.0,17.0,0.0,179.0,193.0,17.0,179.0,1744420521.1652172,0.0,2025-04-11 21:15:21.165,RIGHT,28
102.0,20441.117339267414,25730.00946402663,-31983.602879476894,-22051.6052307612,-36117.71447869712,-28460.833842853768,-14345.438998393895,-37075.3526181403,0.0,0.0,0.0,193.0,0.0,194.0,0.0,17.0,0.0,180.0,194.0,17.0,180.0,1744420521.1652584,0.0,2025-04-11 21:15:21.165,RIGHT,28
103.0,20461.077447066004,25728.15426923684,-31998.51149302858,-22065.776236745864,-36137.45106905116,-28479.855177385234,-13861.45667570313,-37061.91921972266,0.0,0.0,0.0,193.0,0.0,194.0,0.0,17.0,0.0,180.0,194.0,17.0,180.0,1744420521.1653357,0.0,2025-04-11 21:15:21.165,RIGHT,28
104.0,20456.316525497023,25713.89385627435,-31996.991574405623,-22071.006544948406,-36135.305301583445,-28471.473273214495,-13971.494313656607,-37101.14653124172,0.0,0.0,0.0,193.0,0.0,193.0,0.0,17.0,0.0,179.0,193.0,17.0,179.0,1744420521.165378,0.0,2025-04-11 21:15:21.165,RIGHT,28
105.0,20432.824842074497,25723.527458134588,-31992.76709470357,-22057.059056408296,-36128.890350924776,-28457.838709096755,-14320.941486470878,-37086.39437990122,0.0,0.0,0.0,193.0,0.0,193.0,0.0,17.0,0.0,179.0,193.0,17.0,179.0,1744420521.1654196,0.0,2025-04-11 21:15:21.165,RIGHT,28
106.0,20434.23300197518,25733.2728187171,-31988.453208023693,-22049.347704571213,-36128.95740615814,-28460.230345753476,-14432.38728432504,-37096.072685250365,0.0,0.0,0.0,193.0,0.0,194.0,0.0,17.0,0.0,180.0,194.0,17.0,180.0,1744420521.1654615,0.0,2025-04-11 21:15:21.165,RIGHT,28
107.0,20462.03857207758,25734.748033851152,-31998.08680988393,-22057.103759897203,-36141.13910688628,-28482.515034975415,-13975.651738125294,-37077.565440841376,0.0,0.0,0.0,193.0,0.0,194.0,0.0,17.0,0.0,179.0,194.0,17.0,179.0,1744420521.1655772,0.0,2025-04-11 21:15:21.165,RIGHT,28
108.0,20463.938470356283,25723.885086045873,-31990.71073421368,-22059.540100042832,-36125.738754956576,-28471.36151449222,-13934.837452749904,-37101.83943531984,0.0,0.0,0.0,193.0,0.0,193.0,0.0,17.0,0.0,179.0,193.0,17.0,179.0,1744420521.1656191,0.0,2025-04-11 21:15:21.165,RIGHT,28
109.0,20436.602286887442,25723.86273430142,-31989.70490571319,-22051.806396461296,-36125.112906111826,-28462.845499854746,-14260.189445041353,-37091.51292938148,0.0,0.0,0.0,193.0,0.0,194.0,0.0,17.0,0.0,180.0,194.0,17.0,180.0,1744420521.1656604,0.0,2025-04-11 21:15:21.165,RIGHT,28
110.0,20433.987132786173,25737.497298419155,-31974.081036338932,-22036.56250674278,-36110.785437915976,-28450.373226448683,-14426.575830766658,-37081.99108624352,0.0,0.0,0.0,193.0,0.0,193.0,0.0,17.0,0.0,179.0,193.0,17.0,179.0,1744420521.1657016,0.0,2025-04-11 21:15:21.165,RIGHT,28
111.0,20466.128941312905,25744.113414777927,-31980.719504442157,-22040.809338189287,-36122.22953107709,-28467.941697590555,-14013.448537999218,-37059.39347259921,0.0,0.0,0.0,193.0,0.0,193.0,0.0,17.0,0.0,179.0,193.0,17.0,179.0,1744420521.165743,0.0,2025-04-11 21:15:21.165,RIGHT,28
112.0,20466.598327946464,25727.595475625454,-31993.32588831495,-22065.12803615666,-36135.77468821701,-28479.609308196224,-13870.687946163172,-37099.47015040757,0.0,0.0,0.0,193.0,0.0,194.0,0.0,17.0,0.0,180.0,194.0,17.0,180.0,1744420521.1657994,0.0,2025-04-11 21:15:21.165,RIGHT,28
113.0,20445.274763736103,25728.444841914756,-31986.262737067074,-22051.158195872093,-36132.39957480426,-28454.8659270842,-14214.077796230054,-37082.05814147689,0.0,0.0,0.0,193.0,0.0,194.0,0.0,17.0,0.0,180.0,194.0,17.0,180.0,1744420521.165841,0.0,2025-04-11 21:15:21.165,RIGHT,28
114.0,20432.24369671866,25736.044435029562,-31974.595126461405,-22040.742282955922,-36117.826237419395,-28446.39461593564,-14464.618499829592,-37074.3020861509,0.0,0.0,0.0,193.0,0.0,193.0,0.0,17.0,0.0,179.0,193.0,17.0,179.0,1744420521.1658823,0.0,2025-04-11 21:15:21.165,RIGHT,28
115.0,20458.19407203127,25737.09496701896,-31976.003286362087,-22040.630524233642,-36119.54732174246,-28461.325581231784,-14096.775841328603,-37043.70254799158,0.0,0.0,0.0,193.0,0.0,193.0,0.0,17.0,0.0,179.0,193.0,17.0,179.0,1744420521.165924,0.0,2025-04-11 21:15:21.165,RIGHT,28
116.0,20473.549720472067,25726.65670235833,-31985.547481244503,-22057.975477930962,-36134.07595563841,-28473.328468004285,-13844.581108639373,-37088.69660958012,0.0,0.0,0.0,193.0,0.0,194.0,0.0,17.0,0.0,180.0,194.0,17.0,180.0,1744420521.165965,0.0,2025-04-11 21:15:21.165,RIGHT,28
117.0,20450.840348105474,25720.57702786649,-31987.290917312017,-22056.70142849701,-36133.87478993831,-28468.9698778355,-14149.391847776396,-37104.6557551212,0.0,0.0,0.0,193.0,0.0,194.0,0.0,17.0,0.0,179.0,194.0,17.0,179.0,1744420521.1660063,0.0,2025-04-11 21:15:21.166,RIGHT,28
118.0,20433.875374063897,25736.066786774016,-31977.90318464079,-22044.98911440243,-36126.4763625236,-28452.25077298293,-14436.365894838083,-37079.68885656463,0.0,0.0,0.0,193.0,0.0,193.0,0.0,17.0,0.0,179.0,193.0,17.0,179.0,1744420521.1660604,0.0,2025-04-11 21:15:21.166,RIGHT,28
119.0,20448.739284126674,25737.206725741235,-31975.377437517338,-22037.79185268782,-36125.6269962343,-28460.25269749793,-14213.206078196297,-37055.81719348636,0.0,0.0,0.0,193.0,0.0,194.0,0.0,17.0,0.0,180.0,194.0,17.0,180.0,1744420521.166102,0.0,2025-04-11 21:15:21.166,RIGHT,28
120.0,20461.368019743924,25726.991978525162,-31989.83901617992,-22060.74709424342,-36136.86992369532,-28484.43728499857,-13829.761902065506,-37082.12519671026,0.0,0.0,0.0,193.0,0.0,194.0,0.0,17.0,0.0,180.0,194.0,17.0,180.0,1744420521.1661432,0.0,2025-04-11 21:15:21.166,RIGHT,28
121.0,20451.309734739036,25719.504144132632,-31982.90997539878,-22052.54400402832,-36133.13718237128,-28470.48979645846,-14095.45708840574,-37109.43902843464,0.0,0.0,0.0,193.0,0.0,193.0,0.0,17.0,0.0,179.0,193.0,17.0,179.0,1744420521.1661842,0.0,2025-04-11 21:15:21.166,RIGHT,28
122.0,20429.248562961646,25728.28837970357,-31973.65635319428,-22040.675227722553,-36122.34128979937,-28457.034046296365,-14426.642886000025,-37092.8540340488,0.0,0.0,0.0,193.0,0.0,194.0,0.0,17.0,0.0,180.0,194.0,17.0,180.0,1744420521.1662977,0.0,2025-04-11 21:15:21.166,RIGHT,28
123.0,20455.84713886346,25734.94919955125,-31960.33471349892,-22027.06301534927,-36108.550263470446,-28453.368360205695,-14291.146611111953,-37062.43330984513,0.0,0.0,0.0,193.0,0.0,194.0,0.0,17.0,0.0,180.0,194.0,17.0,180.0,1744420521.1663437,0.0,2025-04-11 21:15:21.166,RIGHT,28
124.0,20479.71880194173,25728.601304125943,-31976.919707884757,-22047.313695825782,-36128.108039868835,-28474.982497093977,-13832.488814889053,-37060.01932144396,0.0,0.0,0.0,193.0,0.0,194.0,0.0,17.0,0.0,179.0,194.0,17.0,179.0,1744420521.1663852,0.0,2025-04-11 21:15:21.166,RIGHT,28
125.0,20460.116322054426,25713.022138240594,-31978.216109063163,-22054.332143584747,-36128.15274335775,-28470.847424369746,-14014.700235688715,-37099.11252249629,0.0,0.0,0.0,193.0,0.0,193.0,0.0,17.0,0.0,179.0,193.0,17.0,179.0,1744420521.1664264,0.0,2025-04-11 21:15:21.166,RIGHT,28
126.0,20432.80249033004,25722.56633312301,-31974.48336773913,-22045.79377720282,-36120.843722920865,-28462.621982410194,-14362.426324179927,-37093.50223463801,0.0,0.0,0.0,193.0,0.0,194.0,0.0,17.0,0.0,180.0,194.0,17.0,180.0,1744420521.1664677,0.0,2025-04-11 21:15:21.166,RIGHT,28
127.0,20434.07653976399,25728.780118081584,-31971.62234444885,-22042.68688472353,-36116.798057174456,-28463.516052188406,-14363.722725358335,-37085.07562697835,0.0,0.0,0.0,193.0,0.0,193.0,0.0,17.0,0.0,179.0,193.0,17.0,179.0,1744420521.1665237,0.0,2025-04-11 21:15:21.166,RIGHT,28
128.0,20463.53613895609,25734.926847806793,-31982.977030632144,-22053.482777295445,-36132.28781608198,-28481.01746809691,-13883.60725445834,-37064.33320812383,0.0,0.0,0.0,193.0,0.0,193.0,0.0,17.0,0.0,179.0,193.0,17.0,179.0,1744420521.1665654,0.0,2025-04-11 21:15:21.166,RIGHT,28
129.0,20448.448711448757,25705.623710825887,-31991.71656271417,-22069.17370190307,-36137.87575219581,-28482.0232965974,-13966.398115920796,-37111.92007206918,0.0,0.0,0.0,193.0,0.0,194.0,0.0,17.0,0.0,180.0,194.0,17.0,180.0,1744420521.166607,0.0,2025-04-11 21:15:21.166,RIGHT,28
130.0,20424.308827437024,25709.13293470537,-31986.62036497836,-22060.501225054413,-36129.85147593635,-28471.87560461469,-14326.104739440054,-37107.94146155613,0.0,0.0,0.0,193.0,0.0,194.0,0.0,17.0,0.0,180.0,194.0,17.0,180.0,1744420521.1666484,0.0,2025-04-11 21:15:21.166,RIGHT,28
131.0,20427.90745829433,25724.153306979337,-31978.32786778544,-22050.420588305067,-36122.69891771065,-28463.78427312187,-14423.37953130955,-37093.837510804835,0.0,0.0,0.0,193.0,0.0,194.0,0.0,17.0,0.0,179.0,194.0,17.0,179.0,1744420521.1666892,0.0,2025-04-11 21:15:21.166,RIGHT,28
132.0,20455.84713886346,25721.56050462252,-31988.117931856865,-22056.07557965226,-36134.76885971652,-28473.797854637847,-13945.119255199344,-37048.888152705214,0.0,0.0,0.0,193.0,0.0,193.0,0.0,17.0,0.0,179.0,193.0,17.0,179.0,1744420521.1667356,0.0,2025-04-11 21:15:21.166,RIGHT,28
133.0,20454.28251675159,25703.52264684709,-31992.76709470357,-22070.98419320395,-36140.5803132749,-28476.25654652793,-13908.976484415112,-37095.022153260965,0.0,0.0,0.0,193.0,0.0,194.0,0.0,17.0,0.0,180.0,194.0,17.0,180.0,1744420521.1667988,0.0,2025-04-11 21:15:21.166,RIGHT,28
134.0,20434.165946741814,25712.239827184658,-31981.591222475916,-22052.141672628128,-36129.158571858236,-28457.235211996463,-14265.531511966172,-37096.05033350591,0.0,0.0,0.0,193.0,0.0,194.0,0.0,17.0,0.0,180.0,194.0,17.0,180.0,1744420521.1668415,0.0,2025-04-11 21:15:21.166,RIGHT,28
135.0,20424.577048370487,25722.074594744994,-31977.56790847396,-22043.469195779468,-36122.63186247729,-28447.15457524712,-14451.162749667497,-37082.14754845471,0.0,0.0,0.0,193.0,0.0,193.0,0.0,17.0,0.0,179.0,193.0,17.0,179.0,1744420521.1668832,0.0,2025-04-11 21:15:21.166,RIGHT,28
136.0,20450.415664960823,25725.494411646654,-31982.395885276306,-22043.782120201842,-36128.599778246855,-28460.05153179783,-14029.810014940504,-37036.013547898954,0.0,0.0,0.0,193.0,0.0,194.0,0.0,17.0,0.0,179.0,194.0,17.0,179.0,1744420521.167045,0.0,2025-04-11 21:15:21.167,RIGHT,28
137.0,20454.170758029315,25710.94342600625,-31988.81083593498,-22064.233966378448,-36139.015691163026,-28474.58016569378,-13862.238986759066,-37087.48961537953,0.0,0.0,0.0,193.0,0.0,194.0,0.0,17.0,0.0,180.0,194.0,17.0,180.0,1744420521.1670873,0.0,2025-04-11 21:15:21.167,RIGHT,28
138.0,20440.46913867821,25715.883161530874,-31978.28316429653,-22050.062960393785,-36129.40444104725,-28458.933944575067,-14196.084641943533,-37085.41090314519,0.0,0.0,0.0,193.0,0.0,194.0,0.0,17.0,0.0,180.0,194.0,17.0,180.0,1744420521.1671288,0.0,2025-04-11 21:15:21.167,RIGHT,28
139.0,20437.00461828764,25731.462327416222,-31964.42508273424,-22038.50710851039,-36117.64742346376,-28448.518031658892,-14450.223976400373,-37085.165033956175,0.0,0.0,0.0,193.0,0.0,193.0,0.0,17.0,0.0,179.0,193.0,17.0,179.0,1744420521.1671703,0.0,2025-04-11 21:15:21.167,RIGHT,28
140.0,20457.657630164344,25731.127051249394,-31968.94013511421,-22041.63635273413,-36123.23535957758,-28465.326543489286,-14123.88850735289,-37062.947399967605,0.0,0.0,0.0,193.0,0.0,194.0,0.0,17.0,0.0,180.0,194.0,17.0,180.0,1744420521.1672115,0.0,2025-04-11 21:15:21.167,RIGHT,28
141.0,20466.911252368838,25721.113469733416,-31985.860405666877,-22069.03959143634,-36140.557961530445,-28485.890148388167,-13846.615117384807,-37103.38170568725,0.0,0.0,0.0,193.0,0.0,194.0,0.0,17.0,0.0,180.0,194.0,17.0,180.0,1744420521.1672719,0.0,2025-04-11 21:15:21.167,RIGHT,28
142.0,20437.742225854665,25711.971606251194,-31988.14028360132,-22065.79858849032,-36142.61432202033,-28478.603479695736,-14143.602745962471,-37112.858845336305,0.0,0.0,0.0,193.0,0.0,193.0,0.0,17.0,0.0,179.0,193.0,17.0,179.0,1744420521.167314,0.0,2025-04-11 21:15:21.167,RIGHT,28
143.0,20417.04451048905,25721.76167032262,-31980.339524786417,-22051.6052307612,-36133.51716202703,-28464.745398133447,-14447.027676943264,-37097.43614166214,0.0,0.0,0.0,193.0,0.0,194.0,0.0,17.0,0.0,180.0,194.0,17.0,180.0,1744420521.1673555,0.0,2025-04-11 21:15:21.167,RIGHT,28
144.0,20449.70040913825,25733.921019306305,-31970.52710897054,-22038.17183234356,-36130.633786992286,-28464.29836324434,-14250.220567014287,-37078.01247573048,0.0,0.0,0.0,193.0,0.0,194.0,0.0,17.0,0.0,180.0,194.0,17.0,180.0,1744420521.1673975,0.0,2025-04-11 21:15:21.167,RIGHT,28
145.0,20469.593461703476,25729.540077393067,-31981.9488503872,-22054.510957540388,-36137.138144628785,-28479.050514584844,-13858.215672757111,-37089.72478982506,0.0,0.0,0.0,193.0,0.0,193.0,0.0,17.0,0.0,179.0,193.0,17.0,179.0,1744420521.16744,0.0,2025-04-11 21:15:21.167,RIGHT,28
146.0,20453.746074884664,25715.838458041962,-31973.388132260818,-22045.92788766955,-36121.58133048789,-28461.8173196098,-14076.391050385362,-37093.03284800445,0.0,0.0,0.0,193.0,0.0,193.0,0.0,17.0,0.0,180.0,193.0,17.0,180.0,1744420521.1674829,0.0,2025-04-11 21:15:21.167,RIGHT,28
147.0,20436.535231654078,25727.03668201407,-31964.22391703414,-22032.427434018548,-36108.259690792525,-28450.44028168205,-14385.314510502161,-37079.19711818661,0.0,0.0,0.0,193.0,0.0,194.0,0.0,17.0,0.0,180.0,194.0,17.0,180.0,1744420521.1675243,0.0,2025-04-11 21:15:21.167,RIGHT,28
148.0,20443.039589290573,25731.61878962741,-31964.536841456516,-22029.56641072827,-36110.11488558232,-28460.699732387035,-14285.625730231492,-37076.69372280761,0.0,0.0,0.0,193.0,0.0,194.0,0.0,17.0,0.0,180.0,194.0,17.0,180.0,1744420521.167585,0.0,2025-04-11 21:15:21.167,RIGHT,28
149.0,20466.106589568448,25729.875353559895,-31978.104350340887,-22044.027989390852,-36128.95740615814,-28476.949450606044,-13838.344971936343,-37067.842432003315,0.0,0.0,0.0,193.0,0.0,193.0,0.0,17.0,0.0,179.0,193.0,17.0,179.0,1744420521.167627,0.0,2025-04-11 21:15:21.167,RIGHT,28
150.0,20449.34278122697,25718.118335976404,-31977.657315451783,-22044.586783002233,-36129.27033058051,-28463.940735333057,-14002.563238449484,-37093.23401370454,0.0,0.0,0.0,193.0,0.0,194.0,0.0,17.0,0.0,180.0,194.0,17.0,180.0,1744420521.1676693,0.0,2025-04-11 21:15:21.167,RIGHT,28
151.0,20417.29037967806,25721.873429044896,-31984.496949255106,-22045.480852780445,-36134.92532192771,-28461.906726587622,-14367.947205060389,-37094.79863581641,0.0,0.0,0.0,193.0,0.0,194.0,0.0,17.0,0.0,180.0,194.0,17.0,180.0,1744420521.1678658,0.0,2025-04-11 21:15:21.167,RIGHT,28
152.0,20425.4711181487,25726.09790874695,-31979.221937563652,-22039.468233521966,-36129.225627091604,-28468.29932550184,-14405.587542723126,-37107.472074922574,0.0,0.0,0.0,193.0,0.0,194.0,0.0,17.0,0.0,180.0,194.0,17.0,180.0,1744420521.167909,0.0,2025-04-11 21:15:21.167,RIGHT,28
153.0,20455.377752229902,25729.964760537718,-31985.81570217797,-22046.84430919222,-36129.784420702985,-28481.084523330275,-13902.695644223171,-37078.37010364176,0.0,0.0,0.0,193.0,0.0,193.0,0.0,17.0,0.0,179.0,193.0,17.0,179.0,1744420521.1679506,0.0,2025-04-11 21:15:21.167,RIGHT,28
154.0,20448.67222889331,25714.5197051191,-31988.073228367954,-22054.17568137356,-36129.71736546962,-28467.40525572363,-13953.389400647808,-37093.88221429375,0.0,0.0,0.0,193.0,0.0,193.0,0.0,17.0,0.0,179.0,193.0,17.0,179.0,1744420521.167992,0.0,2025-04-11 21:15:21.167,RIGHT,28
155.0,20426.164022226814,25727.03668201407,-31980.56304223097,-22037.83655617673,-36121.04488862096,-28449.836784581756,-14303.127146139997,-37076.04552221841,0.0,0.0,0.0,193.0,0.0,194.0,0.0,17.0,0.0,180.0,194.0,17.0,180.0,1744420521.1680331,0.0,2025-04-11 21:15:21.168,RIGHT,28
156.0,20423.906496036827,25726.7237575917,-31974.84099565041,-22031.689826451522,-36114.18290307318,-28444.20414497902,-14410.19200208092,-37060.57811505534,0.0,0.0,0.0,193.0,0.0,194.0,0.0,17.0,0.0,179.0,194.0,17.0,179.0,1744420521.168102,0.0,2025-04-11 21:15:21.168,RIGHT,28
157.0,20445.4759294362,25719.012405754616,-31989.883719668833,-22041.45753877849,-36135.23824635008,-28471.78619763687,-13949.187272690211,-37047.12236489324,0.0,0.0,0.0,193.0,0.0,193.0,0.0,17.0,0.0,179.0,193.0,17.0,179.0,1744420521.6413722,0.0,2025-04-11 21:15:21.641,RIGHT,28
158.0,20445.00654280264,25698.538207833553,-31992.18594934773,-22056.634373263645,-36142.43550806469,-28477.26237502842,-13919.191231631188,-37111.741258113536,0.0,0.0,0.0,193.0,0.0,193.0,0.0,17.0,0.0,179.0,193.0,17.0,179.0,1744420521.6415136,0.0,2025-04-11 21:15:21.641,RIGHT,28
159.0,20422.028949502583,25704.304957903023,-31985.726295200147,-22042.30690506779,-36135.57352251691,-28460.20799400902,-14267.9678521118,-37090.01536250298,0.0,0.0,0.0,193.0,0.0,194.0,0.0,17.0,0.0,180.0,194.0,17.0,180.0,1744420521.6415637,0.0,2025-04-11 21:15:21.641,RIGHT,28
160.0,20416.932751766773,25726.164963980314,-31971.689399682215,-22029.029968861338,-36118.742658942065,-28450.06030202631,-14458.784694526756,-37085.47795837855,0.0,0.0,0.0,193.0,0.0,193.0,0.0,17.0,0.0,179.0,193.0,17.0,179.0,1744420521.6416123,0.0,2025-04-11 21:15:21.641,RIGHT,28
161.0,20445.207708502738,25732.401100683346,-31978.439626507716,-22031.26514330687,-36127.39278404627,-28468.72400864649,-14070.557245082528,-37065.20492615759,0.0,0.0,0.0,193.0,0.0,193.0,0.0,17.0,0.0,179.0,193.0,17.0,179.0,1744420521.64166,0.0,2025-04-11 21:15:21.641,RIGHT,28
162.0,20449.678057393798,25716.17373420879,-31992.52122551456,-22055.4050273186,-36136.10996438384,-28484.325526276294,-13870.196207785155,-37106.64506037773,0.0,0.0,0.0,193.0,0.0,193.0,0.0,17.0,0.0,179.0,193.0,17.0,179.0,1744420521.641708,0.0,2025-04-11 21:15:21.641,RIGHT,28
163.0,20425.2699524486,25714.206780696724,-31994.219958093163,-22048.677152237553,-36137.406365562245,-28473.484930215473,-14179.164371390865,-37098.82194981837,0.0,0.0,0.0,193.0,0.0,193.0,0.0,17.0,0.0,180.0,193.0,17.0,180.0,1744420521.645728,0.0,2025-04-11 21:15:21.645,RIGHT,28
164.0,20419.346740167945,25733.22811522819,-31976.629135206837,-22029.655817706087,-36119.77083918701,-28451.736682860457,-14457.465941603894,-37087.6013741018,0.0,0.0,0.0,193.0,0.0,193.0,0.0,17.0,0.0,179.0,193.0,17.0,179.0,1744420521.6457932,0.0,2025-04-11 21:15:21.645,RIGHT,28
165.0,20439.955048555737,25734.770385595606,-31979.065475352465,-22028.91821013906,-36123.570635744414,-28464.074845799787,-14147.715466942247,-37059.39347259921,0.0,0.0,0.0,193.0,0.0,193.0,0.0,17.0,0.0,179.0,193.0,17.0,179.0,1744420521.6458347,0.0,2025-04-11 21:15:21.645,RIGHT,28
166.0,20453.164929528826,25725.784984324575,-31992.409466792284,-22054.60036451821,-36139.14980162976,-28485.48781698797,-13847.330373207376,-37100.967717286076,0.0,0.0,0.0,193.0,0.0,193.0,0.0,17.0,0.0,179.0,193.0,17.0,179.0,1744420521.646011,0.0,2025-04-11 21:15:21.646,RIGHT,28
167.0,20434.85885081993,25715.078498730483,-31985.435722522227,-22045.234983591436,-36126.09638286786,-28468.45578771303,-14132.851556879468,-37102.644098120225,0.0,0.0,0.0,193.0,0.0,194.0,0.0,17.0,0.0,180.0,194.0,17.0,180.0,1744420521.6460514,0.0,2025-04-11 21:15:21.646,RIGHT,28
168.0,20420.33021692398,25724.488583146165,-31975.489196239618,-22029.946390384008,-36113.6241094618,-28449.881488070667,-14430.085054646142,-37087.266097934975,0.0,0.0,0.0,193.0,0.0,194.0,0.0,17.0,0.0,180.0,194.0,17.0,180.0,1744420521.6460905,0.0,2025-04-11 21:15:21.646,RIGHT,28
169.0,20440.133862511382,25731.082347760483,-31970.772978159548,-22022.59266645821,-36115.05462110694,-28455.49177592895,-14230.774549338168,-37066.300161635896,0.0,0.0,0.0,193.0,0.0,193.0,0.0,17.0,0.0,179.0,193.0,17.0,179.0,1744420521.6461296,0.0,2025-04-11 21:15:21.646,RIGHT,28
170.0,20457.747037142162,25728.400138425844,-31985.860405666877,-22043.625657990655,-36135.305301583445,-28478.558776206828,-13847.196262740645,-37091.311763681384,0.0,0.0,0.0,193.0,0.0,193.0,0.0,17.0,0.0,180.0,193.0,17.0,180.0,1744420521.6461687,0.0,2025-04-11 21:15:21.646,RIGHT,28
171.0,20435.66351362032,25709.647024827842,-31991.180120847243,-22048.69950398201,-36141.40732781975,-28479.385790751672,-14077.463934119218,-37124.794676875434,0.0,0.0,0.0,193.0,0.0,194.0,0.0,17.0,0.0,180.0,194.0,17.0,180.0,1744420521.6465828,0.0,2025-04-11 21:15:21.646,RIGHT,28
172.0,20413.4682313762,25716.061975486515,-31983.692286454712,-22038.395349788112,-36134.94767367216,-28473.01554358191,-14426.195851110919,-37129.04150832194,0.0,0.0,0.0,193.0,0.0,194.0,0.0,17.0,0.0,180.0,194.0,17.0,180.0,1744420521.6466312,0.0,2025-04-11 21:15:21.646,RIGHT,28
173.0,20433.09306300796,25727.215495969715,-31965.85559437938,-22019.955160612484,-36114.18290307318,-28459.604496908727,-14343.494396626282,-37087.86959503527,0.0,0.0,0.0,193.0,0.0,193.0,0.0,17.0,0.0,179.0,193.0,17.0,179.0,1744420521.6466763,0.0,2025-04-11 21:15:21.646,RIGHT,28
174.0,20451.510900439134,25720.912304033318,-31984.921632399757,-22041.301076567303,-36132.511333526534,-28481.889186130666,-13848.827940085881,-37074.63736231773,0.0,0.0,0.0,193.0,0.0,194.0,0.0,17.0,0.0,180.0,194.0,17.0,180.0,1744420521.6467216,0.0,2025-04-11 21:15:21.646,RIGHT,28
175.0,20444.447749191255,25708.954120749728,-31982.977030632144,-22044.78794870233,-36129.44914453616,-28468.835767368768,-13995.634197668338,-37098.464321907086,0.0,0.0,0.0,193.0,0.0,194.0,0.0,17.0,0.0,180.0,194.0,17.0,180.0,1744420521.6467657,0.0,2025-04-11 21:15:21.646,RIGHT,28
176.0,20421.246638446646,25716.79958305354,-31976.204452062186,-22035.199050331004,-36121.134295598786,-28459.15746201962,-14353.262108953251,-37088.808368302394,0.0,0.0,0.0,193.0,0.0,193.0,0.0,17.0,0.0,179.0,193.0,17.0,179.0,1744420521.64681,0.0,2025-04-11 21:15:21.646,RIGHT,28
177.0,20429.114452494916,25726.05320525804,-31967.66608568026,-22026.995960115906,-36114.205254817636,-28457.123453274187,-14389.60604543758,-37081.879327521245,0.0,0.0,0.0,193.0,0.0,193.0,0.0,17.0,0.0,180.0,193.0,17.0,180.0,1744420521.6468763,0.0,2025-04-11 21:15:21.646,RIGHT,28
178.0,20455.24364176317,25731.931714049784,-31981.457112009182,-22038.752977699398,-36126.72223171261,-28474.133130804676,-13906.495440780574,-37055.37015859725,0.0,0.0,0.0,193.0,0.0,194.0,0.0,17.0,0.0,180.0,194.0,17.0,180.0,1744420521.6469212,0.0,2025-04-11 21:15:21.646,RIGHT,28
179.0,20443.419568946312,25707.501257360134,-31988.587318490427,-22052.07461739476,-36133.89714168276,-28474.669572671603,-13954.506987870573,-37100.02894401896,0.0,0.0,0.0,193.0,0.0,194.0,0.0,17.0,0.0,180.0,194.0,17.0,180.0,1744420521.6469646,0.0,2025-04-11 21:15:21.646,RIGHT,28
180.0,20419.88318203487,25713.536228363067,-31986.486254511627,-22040.585820744735,-36131.0808218814,-28462.219651009997,-14307.731605497791,-37093.59164161583,0.0,0.0,0.0,193.0,0.0,193.0,0.0,17.0,0.0,179.0,193.0,17.0,179.0,1744420521.647009,0.0,2025-04-11 21:15:21.647,RIGHT,28
181.0,20415.81516454401,25724.086251745972,-31981.211242820176,-22037.568335243268,-36129.091516624874,-28461.72791263198,-14452.883833990554,-37099.49250215203,0.0,0.0,0.0,193.0,0.0,194.0,0.0,17.0,0.0,180.0,194.0,17.0,180.0,1744420521.647112,0.0,2025-04-11 21:15:21.647,RIGHT,28
182.0,20450.929755083296,25730.836478571473,-31987.2015103342,-22043.290381823826,-36137.20519986215,-28480.190453552063,-14008.329988518954,-37069.27294364845,0.0,0.0,0.0,193.0,0.0,193.0,0.0,17.0,0.0,179.0,193.0,17.0,179.0,1744420521.647157,0.0,2025-04-11 21:15:21.647,RIGHT,28
183.0,20455.62362141891,25712.932731262772,-31983.13349284333,-22052.208727861493,-36129.89617942526,-28475.67540117209,-13911.41282456074,-37106.44389467763,0.0,0.0,0.0,193.0,0.0,193.0,0.0,17.0,0.0,179.0,193.0,17.0,179.0,1744420521.6472003,0.0,2025-04-11 21:15:21.647,RIGHT,28
184.0,20436.33406595398,25714.13972546336,-31974.41631250576,-22036.473099764957,-36125.045850878465,-28459.62684865318,-14244.476168689273,-37098.08434225134,0.0,0.0,0.0,193.0,0.0,193.0,0.0,17.0,0.0,179.0,193.0,17.0,179.0,1744420521.6472445,0.0,2025-04-11 21:15:21.647,RIGHT,28
185.0,20429.04739726155,25724.6226936129,-31966.883774624323,-22027.465346749468,-36116.68629845218,-28452.183717749565,-14454.828435758167,-37090.01536250298,0.0,0.0,0.0,193.0,0.0,194.0,0.0,17.0,0.0,180.0,194.0,17.0,180.0,1744420521.6472888,0.0,2025-04-11 21:15:21.647,RIGHT,28
186.0,20448.29224923757,25721.292283689058,-31981.971202131655,-22038.484756765934,-36133.65127249376,-28474.8707383717,-14081.26373067662,-37070.16701342667,0.0,0.0,0.0,193.0,0.0,193.0,0.0,18.0,0.0,179.0,193.0,18.0,179.0,1744420521.6473472,0.0,2025-04-11 21:15:21.647,RIGHT,28
187.0,20452.20380451725,25706.406021881823,-31995.22578659365,-22059.808320976295,-36143.39663307627,-28484.43728499857,-13874.398335742753,-37108.29908946742,0.0,0.0,0.0,193.0,0.0,193.0,0.0,17.0,0.0,179.0,193.0,17.0,179.0,1744420521.6473916,0.0,2025-04-11 21:15:21.647,RIGHT,28
188.0,20429.628542617385,25703.52264684709,-31991.38128654734,-22047.917192926074,-36131.9301881707,-28465.460653956015,-14188.082717428533,-37090.86472879228,0.0,0.0,0.0,193.0,0.0,193.0,0.0,17.0,0.0,179.0,193.0,17.0,179.0,1744420521.6474352,0.0,2025-04-11 21:15:21.647,RIGHT,28
189.0,20412.261237175615,25711.07753647298,-31989.593146990916,-22045.45850103599,-36128.15274335775,-28463.7172178885,-14452.43679910145,-37090.03771424743,0.0,0.0,0.0,193.0,0.0,194.0,0.0,17.0,0.0,180.0,194.0,17.0,180.0,1744420521.6474788,0.0,2025-04-11 21:15:21.647,RIGHT,28
190.0,20436.267010720614,25713.983263252172,-31988.38615279033,-22044.296210324315,-36131.57256025941,-28475.653049427638,-14176.750382989692,-37071.23989716052,0.0,0.0,0.0,193.0,0.0,194.0,0.0,17.0,0.0,180.0,194.0,17.0,180.0,1744420521.6475224,0.0,2025-04-11 21:15:21.647,RIGHT,28
191.0,20451.80147311705,25707.098925959937,-31997.90799592829,-22062.89286171113,-36140.22268536362,-28494.0261833699,-13851.353687209332,-37112.098886024825,0.0,0.0,0.0,193.0,0.0,193.0,0.0,17.0,0.0,179.0,193.0,17.0,179.0,1744420521.6475663,0.0,2025-04-11 21:15:21.647,RIGHT,28
192.0,20433.540097897065,25700.97454797918,-31993.70586797069,-22055.248565107413,-36135.595874261366,-28482.805607653336,-14134.483234224706,-37134.49533396904,0.0,0.0,0.0,193.0,0.0,193.0,0.0,17.0,0.0,179.0,193.0,17.0,179.0,1744420521.6476228,0.0,2025-04-11 21:15:21.647,RIGHT,28
193.0,20416.888048277862,25712.731565562673,-31984.76517018857,-22041.770463200864,-36126.8786939238,-28466.041799311854,-14442.266755374285,-37108.05322027841,0.0,0.0,0.0,193.0,0.0,193.0,0.0,17.0,0.0,179.0,193.0,17.0,179.0,1744420521.6476667,0.0,2025-04-11 21:15:21.647,RIGHT,28
194.0,20434.165946741814,25716.19608595325,-31978.417274763262,-22034.148518341604,-36122.788324688474,-28463.627810910682,-14265.263291032708,-37065.607257557785,0.0,0.0,0.0,193.0,0.0,193.0,0.0,17.0,0.0,179.0,193.0,17.0,179.0,1744420521.6477103,0.0,2025-04-11 21:15:21.647,RIGHT,28
195.0,20457.612926675432,25715.704347575233,-31989.302574312995,-22051.873451694664,-36137.6298830068,-28480.995116352457,-13845.765751095505,-37072.4021878722,0.0,0.0,0.0,193.0,0.0,194.0,0.0,17.0,0.0,180.0,194.0,17.0,180.0,1744420521.6477544,0.0,2025-04-11 21:15:21.647,RIGHT,28
196.0,20443.732493368687,25705.310786403512,-31986.75447544509,-22051.247602849915,-36139.015691163026,-28472.434398226073,-14073.530027095083,-37099.91718529668,0.0,0.0,0.0,193.0,0.0,194.0,0.0,17.0,0.0,180.0,194.0,17.0,180.0,1744420521.6478539,0.0,2025-04-11 21:15:21.647,RIGHT,28
197.0,20421.313693680015,25715.41377489731,-31981.635925964827,-22039.088253866226,-36132.13135387079,-28458.710427130514,-14419.602086496603,-37083.488653122025,0.0,0.0,0.0,193.0,0.0,193.0,0.0,17.0,0.0,179.0,193.0,17.0,179.0,1744420521.6478982,0.0,2025-04-11 21:15:21.647,RIGHT,28
198.0,20436.736397354176,25728.064862259016,-31974.528071228036,-22029.477003750446,-36125.53758925648,-28458.44220619705,-14358.045382266688,-37072.581001827835,0.0,0.0,0.0,193.0,0.0,193.0,0.0,17.0,0.0,179.0,193.0,17.0,179.0,1744420521.6479423,0.0,2025-04-11 21:15:21.647,RIGHT,28
199.0,20455.556566185543,25722.119298233905,-31994.264661582074,-22050.68880923853,-36149.67747326821,-28482.425627997596,-13888.189362071678,-37079.57709784235,0.0,0.0,0.0,193.0,0.0,194.0,0.0,18.0,0.0,180.0,194.0,18.0,180.0,1744420521.647986,0.0,2025-04-11 21:15:21.647,RIGHT,28
200.0,20437.116377009916,25700.303995645525,-31995.516359271573,-22057.79666397532,-36144.15659238775,-28477.12826456169,-14025.853756171913,-37108.4108481897,0.0,0.0,0.0,193.0,0.0,194.0,0.0,17.0,0.0,180.0,194.0,17.0,180.0,1744420521.64803,0.0,2025-04-11 21:15:21.648,RIGHT,28
201.0,20415.3681296549,25708.484734116166,-31990.509568513582,-22046.196108603017,-36130.633786992286,-28466.891165601155,-14355.229062465318,-37090.507100881,0.0,0.0,0.0,193.0,0.0,194.0,0.0,17.0,0.0,180.0,194.0,17.0,180.0,1744420521.648088,0.0,2025-04-11 21:15:21.648,RIGHT,28
