Sample Index,EXG Channel 0,EXG Channel 1,EXG Channel 2,EXG Channel 3,EXG Channel 4,EXG Channel 5,EXG Channel 6,EXG Channel 7,Accel Channel 0,Accel Channel 1,Accel Channel 2,Not Used,Digital Channel 0 (D11),Digital Channel 1 (D12),Digital Channel 2 (D13),Digital Channel 3 (D17),Not Used,Digital Channel 4 (D18),Analog Channel 0,Analog Channel 1,Analog Channel 2,Timestamp,Marker Channel,Timestamp (Formatted),Stimulus_Direction,Stimulus_Number
135.0,13755.554110473886,1990.8475268897448,-61471.566435285386,-58664.18733169882,-35178.53888017403,-32571.49846214038,-19690.165780802465,-21756.137520806496,0.0,0.0,0.0,193.0,1.0,154.0,0.0,10.0,3.0,249.0,410.0,10.0,1017.0,1744252750.0535257,0.0,2025-04-09 22:39:10.053,RIGHT,22
136.0,13683.626196816707,1975.0448435598428,-61516.42638640719,-58720.491375981735,-35205.24921479812,-32600.30986074327,-19562.358506007018,-21783.585462997613,0.0,0.0,0.0,193.0,1.0,154.0,0.0,9.0,3.0,251.0,410.0,9.0,1019.0,1744252750.0535347,0.0,2025-04-09 22:39:10.053,RIGHT,22
137.0,13682.463906105031,1940.712564076491,-61524.87534581129,-58694.138669268934,-35254.55716306653,-32653.61877126918,-19517.34209267403,-21834.927420011452,0.0,0.0,0.0,193.0,1.0,154.0,0.0,8.0,3.0,249.0,410.0,8.0,1017.0,1744252750.053544,0.0,2025-04-09 22:39:10.053,RIGHT,22
138.0,13792.21097138059,1966.0817940332645,-61530.59739239185,-58721.98894286024,-35259.563953824516,-32650.69069274553,-19556.658811170913,-21842.929344526452,0.0,0.0,0.0,193.0,1.0,155.0,0.0,8.0,3.0,252.0,411.0,8.0,1020.0,1744252750.0535529,0.0,2025-04-09 22:39:10.053,RIGHT,22
139.0,13765.992375134514,1991.4957274789488,-61464.860911948796,-58676.12316323795,-35172.727426615646,-32564.72588357042,-19765.96054625041,-21764.720590677334,0.0,0.0,0.0,193.0,1.0,154.0,0.0,7.0,3.0,249.0,410.0,7.0,1017.0,1744252750.0535617,0.0,2025-04-09 22:39:10.053,RIGHT,22
140.0,13700.099432480269,1984.6337419311694,-61504.08822346786,-58709.67313166537,-35200.22007229568,-32597.046506052797,-19541.929011574866,-21793.397878813492,0.0,0.0,0.0,193.0,1.0,155.0,0.0,7.0,3.0,251.0,411.0,7.0,1019.0,1744252750.0535705,0.0,2025-04-09 22:39:10.053,RIGHT,22
141.0,13659.709830249529,1938.455037886505,-61528.831604579886,-58719.932582370355,-35254.64657004435,-32649.66251250059,-19585.40315454044,-21843.264620693284,0.0,0.0,0.0,193.0,1.0,154.0,0.0,6.0,3.0,251.0,410.0,6.0,1019.0,1744252750.0535793,0.0,2025-04-09 22:39:10.053,RIGHT,22
142.0,13784.141991632223,1961.8796660756668,-61535.112444771825,-58711.86360262199,-35281.22279420171,-32664.995809196927,-19484.90971146938,-21854.127568498563,0.0,0.0,0.0,193.0,1.0,154.0,0.0,6.0,3.0,251.0,410.0,6.0,1019.0,1744252750.053588,0.0,2025-04-09 22:39:10.053,RIGHT,22
143.0,13779.693994485617,1993.9767711134878,-61472.37109808578,-58698.02787280415,-35182.91982208727,-32571.36435167365,-19836.748520940368,-21773.236605314803,0.0,0.0,0.0,193.0,1.0,154.0,0.0,6.0,3.0,252.0,410.0,6.0,1020.0,1744252750.0535967,0.0,2025-04-09 22:39:10.053,RIGHT,22
144.0,13715.790357087893,1997.6201054597027,-61495.16987743019,-58693.602227402,-35198.14136006133,-32594.699572884987,-19535.58111614956,-21782.35611705257,0.0,0.0,0.0,193.0,1.0,153.0,0.0,6.0,3.0,249.0,409.0,6.0,1017.0,1744252750.053661,0.0,2025-04-09 22:39:10.053,RIGHT,22
145.0,13651.350277823243,1946.1887414680411,-61528.473976668596,-58730.974344131275,-35246.84581122945,-32639.112489117684,-19619.020178201223,-21826.858440263088,0.0,0.0,0.0,193.0,1.0,154.0,0.0,5.0,3.0,252.0,410.0,5.0,1020.0,1744252750.05367,0.0,2025-04-09 22:39:10.053,RIGHT,22
146.0,13760.918529143159,1955.5317706503597,-61540.36510471882,-58699.0560530491,-35297.40545718735,-32683.681867561565,-19426.37049274093,-21874.400600719524,0.0,0.0,0.0,193.0,1.0,154.0,0.0,5.0,3.0,251.0,410.0,5.0,1019.0,1744252750.0536788,0.0,2025-04-09 22:39:10.053,RIGHT,22
147.0,13777.145895617712,1988.098262321742,-61489.49253433854,-58718.50207072521,-35203.23755779714,-32584.194252990994,-19862.564785786246,-21797.287082348717,0.0,0.0,0.0,193.0,1.0,154.0,0.0,5.0,3.0,250.0,410.0,5.0,1018.0,1744252750.0536876,0.0,2025-04-09 22:39:10.053,RIGHT,22
148.0,13721.37829320172,1996.1448903256526,-61490.788935516954,-58681.353471440496,-35198.0072495946,-32590.519796671844,-19550.69089540135,-21784.74775370929,0.0,0.0,0.0,193.0,1.0,154.0,0.0,5.0,3.0,251.0,410.0,5.0,1019.0,1744252750.0536988,0.0,2025-04-09 22:39:10.053,RIGHT,22
149.0,13646.052914387335,1952.715450848991,-61530.485633669574,-58747.84991119504,-35237.92746519178,-32635.245637326916,-19645.819919803136,-21838.906030524497,0.0,0.0,0.0,193.0,1.0,155.0,0.0,4.0,3.0,252.0,411.0,4.0,1020.0,1744252750.0537074,0.0,2025-04-09 22:39:10.053,RIGHT,22
150.0,13751.463741238564,1961.969073053488,-61516.6722555962,-58678.403041172394,-35273.399683642354,-32671.097835433226,-19402.990568040677,-21857.4579784224,0.0,0.0,0.0,193.0,1.0,154.0,0.0,4.0,3.0,249.0,410.0,4.0,1017.0,1744252750.053716,0.0,2025-04-09 22:39:10.053,RIGHT,22
151.0,13791.987453936035,1980.5880761847588,-61493.13586868476,-58731.7119516983,-35206.47856074316,-32595.079552540727,-19798.81761059971,-21797.868227704555,0.0,0.0,0.0,193.0,1.0,154.0,0.0,4.0,3.0,252.0,410.0,4.0,1020.0,1744252750.0537248,0.0,2025-04-09 22:39:10.053,RIGHT,22
152.0,13734.096435796791,1985.907791365122,-61480.19420864514,-58678.8500760615,-35194.07334257047,-32591.279755983327,-19578.988203881767,-21787.720535721844,0.0,0.0,0.0,193.0,1.0,154.0,0.0,4.0,3.0,250.0,410.0,4.0,1018.0,1744252750.0537336,0.0,2025-04-09 22:39:10.053,RIGHT,22
153.0,13664.046068673859,1964.9195033215885,-61516.6722555962,-58743.67013498189,-35222.90709291781,-32617.431296996034,-19640.8354807896,-21818.118908181063,0.0,0.0,0.0,193.0,1.0,155.0,0.0,4.0,3.0,252.0,411.0,4.0,1020.0,1744252750.0537424,0.0,2025-04-09 22:39:10.053,RIGHT,22
154.0,13730.296639239388,1957.7669450958904,-61508.13388921427,-58670.69168933531,-35266.98473298368,-32664.32525686327,-19430.70673116526,-21853.389960931538,0.0,0.0,0.0,193.0,1.0,154.0,0.0,4.0,3.0,249.0,410.0,4.0,1017.0,1744252750.0537512,0.0,2025-04-09 22:39:10.053,RIGHT,22
155.0,13793.462669070086,1971.5356196803596,-61505.98812174656,-58734.14829184393,-35225.70106097473,-32621.633424953634,-19737.193851136428,-21827.305475152192,0.0,0.0,0.0,193.0,1.0,155.0,0.0,4.0,3.0,252.0,411.0,4.0,1020.0,1744252750.0537598,0.0,2025-04-09 22:39:10.053,RIGHT,22
156.0,13744.042962079402,1989.551125711337,-61466.64905150522,-58666.71307882227,-35177.04131329552,-32585.244784980394,-19646.40106515897,-21778.578672239622,0.0,0.0,0.0,193.0,1.0,154.0,0.0,4.0,3.0,250.0,410.0,4.0,1018.0,1744252750.0537686,0.0,2025-04-09 22:39:10.053,RIGHT,22
157.0,13668.829341987293,1967.9369888230551,-61516.091110240355,-58738.23866107925,-35208.64667995533,-32619.174733063548,-19610.235942630286,-21815.61551280207,0.0,0.0,0.0,193.0,1.0,154.0,0.0,4.0,3.0,250.0,410.0,4.0,1018.0,1744252750.0537777,0.0,2025-04-09 22:39:10.053,RIGHT,22
158.0,13698.221885946023,1940.8690262876783,-61518.41569166371,-58690.89766632291,-35262.08970094797,-32671.746036022432,-19490.631758049938,-21859.80491159021,0.0,0.0,0.0,193.0,1.0,154.0,0.0,4.0,3.0,250.0,410.0,4.0,1018.0,1744252750.0537865,0.0,2025-04-09 22:39:10.053,RIGHT,22
159.0,13795.027291181957,1964.8300963437673,-61521.410825420724,-58736.89755641193,-35247.62812228538,-32649.930733434052,-19645.015257002742,-21848.874908551563,0.0,0.0,0.0,193.0,1.0,154.0,0.0,4.0,3.0,252.0,410.0,4.0,1020.0,1744252750.0538204,0.0,2025-04-09 22:39:10.053,RIGHT,22
160.0,13757.476360497041,1986.4442332320493,-61459.16121711269,-58674.75970682618,-35170.51460391458,-32578.516909899347,-19728.81194696569,-21777.081105361118,0.0,0.0,0.0,193.0,1.0,154.0,0.0,3.0,3.0,249.0,410.0,3.0,1017.0,1744252750.0538292,0.0,2025-04-09 22:39:10.053,RIGHT,22
161.0,13681.65924330464,1968.6969481345354,-61505.69754906864,-58729.029742363666,-35201.42706649626,-32612.580968449234,-19568.281718287675,-21804.70786150788,0.0,0.0,0.0,193.0,1.0,154.0,0.0,4.0,3.0,252.0,410.0,4.0,1020.0,1744252750.053838,0.0,2025-04-09 22:39:10.053,RIGHT,22
162.0,13671.533903066385,1938.8350175422452,-61515.93464802917,-58707.057977564094,-35250.55620080903,-32662.04537892883,-19550.9144128459,-21852.6076498756,0.0,0.0,0.0,193.0,1.0,153.0,0.0,3.0,3.0,249.0,409.0,3.0,1017.0,1744252750.0538468,0.0,2025-04-09 22:39:10.053,RIGHT,22
163.0,13790.132259146245,1969.2333900014628,-61518.3709881748,-58714.81403289009,-35261.55325908104,-32656.88212595965,-19546.019380810187,-21853.16644348698,0.0,0.0,0.0,193.0,1.0,154.0,0.0,3.0,3.0,251.0,410.0,3.0,1019.0,1744252750.0538554,0.0,2025-04-09 22:39:10.053,RIGHT,22
164.0,13766.282947812433,1989.1487943111415,-61458.69183047913,-58682.0016720297,-35174.02382779406,-32568.458624894458,-19804.517305435813,-21769.50386399077,0.0,0.0,0.0,193.0,1.0,154.0,0.0,3.0,3.0,249.0,410.0,3.0,1017.0,1744252750.053864,0.0,2025-04-09 22:39:10.053,RIGHT,22
165.0,13697.864258034739,1977.101204049731,-61497.94149374265,-58709.00257933171,-35194.52037745957,-32603.729677644933,-19542.24193599724,-21796.549474781692,0.0,0.0,0.0,193.0,1.0,154.0,0.0,3.0,3.0,252.0,410.0,3.0,1020.0,1744252750.0538723,0.0,2025-04-09 22:39:10.053,RIGHT,22
166.0,13665.789504741373,1946.7028315905134,-61507.95507525863,-58711.34951249952,-35225.522247019086,-32632.384614036637,-19586.476038274293,-21821.248152404805,0.0,0.0,0.0,193.0,1.0,154.0,0.0,3.0,3.0,250.0,410.0,3.0,1018.0,1744252750.053881,0.0,2025-04-09 22:39:10.053,RIGHT,22
167.0,13793.73089000355,1975.8271546157785,-61509.18442120367,-58690.160058755886,-35255.51828807811,-32657.396216082125,-19439.870946391937,-21849.03137076275,0.0,0.0,0.0,193.0,1.0,154.0,0.0,3.0,3.0,252.0,410.0,3.0,1020.0,1744252750.0538895,0.0,2025-04-09 22:39:10.053,RIGHT,22
168.0,13784.074936398858,1996.167242070108,-61458.06598163438,-58692.68580587934,-35169.82169983646,-32561.663694580046,-19822.73397716689,-21758.8867853745,0.0,0.0,0.0,193.0,1.0,153.0,0.0,3.0,3.0,250.0,409.0,3.0,1018.0,1744252750.0538983,0.0,2025-04-09 22:39:10.053,RIGHT,22
169.0,13714.493955909486,1988.2100210440185,-61481.557665056906,-58687.16492499888,-35187.32311574496,-32588.865767582152,-19529.993180035734,-21780.232701329318,0.0,0.0,0.0,193.0,1.0,154.0,0.0,3.0,3.0,251.0,410.0,3.0,1019.0,1744252750.0539072,0.0,2025-04-09 22:39:10.053,RIGHT,22
170.0,13652.490216790464,1946.032279256854,-61510.74904331554,-58730.59436447554,-35231.311348833005,-32630.663529713576,-19639.114396466543,-21828.803042030697,0.0,0.0,0.0,193.0,1.0,154.0,0.0,3.0,3.0,250.0,410.0,3.0,1018.0,1744252750.0539157,0.0,2025-04-09 22:39:10.053,RIGHT,22
171.0,13765.72415420105,1960.1362300081528,-61508.692682825655,-58681.77815458515,-35273.3773318979,-32671.99190521144,-19418.234457759198,-21858.687324367445,0.0,0.0,0.0,193.0,1.0,154.0,0.0,3.0,3.0,252.0,410.0,3.0,1020.0,1744252750.0539243,0.0,2025-04-09 22:39:10.053,RIGHT,22
172.0,13786.019538166469,1988.2100210440185,-61468.16897012818,-58714.277591023165,-35187.92661284526,-32579.254517466372,-19846.940916411986,-21786.513541521257,0.0,0.0,0.0,193.0,1.0,154.0,0.0,3.0,3.0,251.0,410.0,3.0,1019.0,1744252750.0539331,0.0,2025-04-09 22:39:10.053,RIGHT,22
173.0,13721.691217624095,1986.3324745097727,-61479.07662142237,-58684.639177875426,-35193.82747338146,-32595.03484905182,-19563.565500207606,-21794.381355569527,0.0,0.0,0.0,193.0,1.0,154.0,0.0,3.0,3.0,249.0,410.0,3.0,1017.0,1744252750.053942,0.0,2025-04-09 22:39:10.053,RIGHT,22
174.0,13645.382362053677,1942.09837223272,-61517.09693874085,-58748.09578038404,-35225.49989527463,-32626.21553256697,-19652.324277439628,-21830.479422864846,0.0,0.0,0.0,193.0,1.0,154.0,0.0,3.0,3.0,251.0,410.0,3.0,1019.0,1744252750.053974,0.0,2025-04-09 22:39:10.053,RIGHT,22
175.0,13732.420054962642,1938.7009070755134,-61512.872459038794,-58683.87921856395,-35278.0264947446,-32671.03078019986,-19416.17809726931,-21864.6105366481,0.0,0.0,0.0,193.0,1.0,154.0,0.0,3.0,3.0,250.0,410.0,3.0,1018.0,1744252750.0539825,0.0,2025-04-09 22:39:10.053,RIGHT,22
176.0,13781.996224164513,1961.9020178201222,-61494.901656496724,-58742.32903031457,-35220.001366138626,-32603.3944014781,-19804.897285091556,-21823.662140805976,0.0,0.0,0.0,193.0,1.0,154.0,0.0,3.0,3.0,249.0,410.0,3.0,1017.0,1744252750.0539913,0.0,2025-04-09 22:39:10.053,RIGHT,22
177.0,13729.424921205631,1975.491878448949,-61472.63931901924,-58682.80633483009,-35194.408618737296,-32590.27392748284,-19615.82387874411,-21804.953730696885,0.0,0.0,0.0,193.0,1.0,154.0,0.0,3.0,3.0,250.0,410.0,3.0,1018.0,1744252750.0539997,0.0,2025-04-09 22:39:10.053,RIGHT,22
178.0,13664.694269263062,1955.5317706503597,-61505.78695604646,-58743.424265792884,-35216.693307959235,-32606.45659046848,-19641.349570912073,-21820.979931471342,0.0,0.0,0.0,193.0,1.0,154.0,0.0,3.0,3.0,251.0,410.0,3.0,1019.0,1744252750.0540085,0.0,2025-04-09 22:39:10.054,RIGHT,22
179.0,13719.076063522823,1944.0206222558766,-61506.56926710239,-58684.415660430874,-35272.23739293068,-32663.073559173772,-19460.03221989062,-21869.103237283616,0.0,0.0,0.0,193.0,1.0,155.0,0.0,3.0,3.0,251.0,411.0,3.0,1019.0,1744252750.0540168,0.0,2025-04-09 22:39:10.054,RIGHT,22
180.0,13794.289683614932,1964.450116688027,-61506.54691535794,-58745.324164071586,-35241.14611639334,-32624.36033777718,-19727.828470209657,-21844.22574570486,0.0,0.0,0.0,193.0,1.0,154.0,0.0,3.0,3.0,253.0,410.0,3.0,1021.0,1744252750.0540257,0.0,2025-04-09 22:39:10.054,RIGHT,22
181.0,13741.24899402249,1976.743576138446,-61466.112609638294,-58685.75676509819,-35189.96062159069,-32582.607279134667,-19687.57297844565,-21791.632091001524,0.0,0.0,0.0,193.0,1.0,155.0,0.0,3.0,3.0,251.0,411.0,3.0,1019.0,1744252750.0540345,0.0,2025-04-09 22:39:10.054,RIGHT,22
182.0,13672.942062967071,1970.7086051355132,-61497.561514086905,-58734.52827149967,-35199.12483681737,-32595.526587429835,-19597.584855268582,-21800.12575389454,0.0,0.0,0.0,193.0,1.0,154.0,0.0,3.0,3.0,249.0,410.0,3.0,1017.0,1744252750.0540433,0.0,2025-04-09 22:39:10.054,RIGHT,22
183.0,13681.011042715436,1928.7990842818124,-61514.8170608064,-58705.82863161906,-35258.26755264611,-32668.505033076413,-19494.47625809625,-21870.42199020648,0.0,0.0,0.0,193.0,1.0,155.0,0.0,3.0,3.0,251.0,411.0,3.0,1019.0,1744252750.054052,0.0,2025-04-09 22:39:10.054,RIGHT,22
184.0,13787.405346322697,1955.5317706503597,-61520.360293431324,-58742.306678570116,-35251.83025024298,-32652.635294513144,-19607.39727108446,-21852.093559753128,0.0,0.0,0.0,193.0,1.0,154.0,0.0,3.0,3.0,249.0,410.0,3.0,1017.0,1744252750.0540607,0.0,2025-04-09 22:39:10.054,RIGHT,22
185.0,13750.368505760254,1974.1731255260856,-61462.58103401435,-58691.14353551192,-35177.24247899562,-32579.433331422013,-19751.67778154347,-21780.5903292406,0.0,0.0,0.0,193.0,1.0,155.0,0.0,3.0,3.0,252.0,411.0,3.0,1020.0,1744252750.0540695,0.0,2025-04-09 22:39:10.054,RIGHT,22
186.0,13680.452249104053,1964.226599243474,-61506.658674080216,-58735.33293430006,-35208.803142166515,-32612.379802749136,-19573.154398578932,-21816.12960292454,0.0,0.0,0.0,193.0,1.0,154.0,0.0,3.0,3.0,249.0,410.0,3.0,1017.0,1744252750.054078,0.0,2025-04-09 22:39:10.054,RIGHT,22
187.0,13661.475618061499,1929.357877893195,-61517.298104440946,-58722.41362600489,-35251.7184915207,-32652.769404979874,-19575.568386980103,-21852.004152775306,0.0,0.0,0.0,193.0,1.0,155.0,0.0,3.0,3.0,251.0,411.0,3.0,1019.0,1744252750.0540893,0.0,2025-04-09 22:39:10.054,RIGHT,22
188.0,13788.321767845366,1970.1721632685858,-61516.64990385174,-58720.51372772619,-35260.748596280646,-32657.105643404204,-19512.692929827324,-21855.66983886598,0.0,0.0,0.0,193.0,1.0,154.0,0.0,3.0,3.0,250.0,410.0,3.0,1018.0,1744252750.0540977,0.0,2025-04-09 22:39:10.054,RIGHT,22
189.0,13753.117770328257,1972.6755586475801,-61477.48964756604,-58715.57399220157,-35191.41348498029,-32589.62572689363,-19816.743709652867,-21801.35509983958,0.0,0.0,0.0,193.0,1.0,154.0,0.0,3.0,3.0,251.0,410.0,3.0,1019.0,1744252750.0541284,0.0,2025-04-09 22:39:10.054,RIGHT,22
190.0,13689.460002119542,1968.7192998789908,-61506.56926710239,-58726.88397489596,-35205.27156654258,-32611.999823093396,-19556.457645470815,-21817.202486658392,0.0,0.0,0.0,193.0,1.0,154.0,0.0,3.0,3.0,252.0,410.0,3.0,1020.0,1744252750.0541368,0.0,2025-04-09 22:39:10.054,RIGHT,22
191.0,13638.878004417182,1923.747590034913,-61533.145491259755,-58747.96166991731,-35251.0702909315,-32652.456480557503,-19621.50122183576,-21849.07607425166,0.0,0.0,0.0,193.0,1.0,154.0,0.0,3.0,3.0,250.0,410.0,3.0,1018.0,1744252750.0541453,0.0,2025-04-09 22:39:10.054,RIGHT,22
192.0,13768.33930830232,1955.7999915838234,-61529.14452900226,-58709.941352598835,-35278.07119823351,-32673.08714068975,-19452.85730992047,-21867.18098726046,0.0,0.0,0.0,193.0,1.0,155.0,0.0,3.0,3.0,252.0,411.0,3.0,1020.0,1744252750.054154,0.0,2025-04-09 22:39:10.054,RIGHT,22
193.0,13766.417058279165,1976.967093582999,-61482.42938309067,-58724.760559172704,-35191.34642974692,-32583.166072746048,-19853.959364170954,-21802.249169617793,0.0,0.0,0.0,193.0,1.0,154.0,0.0,2.0,3.0,250.0,410.0,2.0,1018.0,1744252750.0541627,0.0,2025-04-09 22:39:10.054,RIGHT,22
194.0,13703.876877293216,1972.4967446919377,-61505.49638336854,-58713.83055613405,-35210.971261378676,-32612.357451004682,-19566.67239268689,-21825.718501295865,0.0,0.0,0.0,193.0,1.0,155.0,0.0,2.0,3.0,252.0,411.0,2.0,1020.0,1744252750.0541713,0.0,2025-04-09 22:39:10.054,RIGHT,22
195.0,13634.586469481763,1927.9497179925106,-61539.53809017398,-58767.67590852689,-35250.53384906457,-32649.394291567125,-19673.826655605633,-21855.80394933271,0.0,0.0,0.0,193.0,1.0,154.0,0.0,3.0,3.0,250.0,410.0,3.0,1018.0,1744252750.05418,0.0,2025-04-09 22:39:10.054,RIGHT,22
196.0,13742.903023112181,1944.0206222558766,-61533.637229637774,-58710.16487004339,-35289.24707046116,-32689.739190308952,-19429.678550920315,-21883.073077568184,0.0,0.0,0.0,193.0,1.0,155.0,0.0,2.0,3.0,250.0,411.0,2.0,1018.0,1744252750.0541885,0.0,2025-04-09 22:39:10.054,RIGHT,22
197.0,13763.690145455617,1964.1818957545634,-61503.32826415638,-58755.96359443231,-35213.92169164678,-32608.378840491634,-19844.34811405517,-21816.956617469386,0.0,0.0,0.0,193.0,1.0,154.0,0.0,2.0,3.0,250.0,410.0,2.0,1018.0,1744252750.054197,0.0,2025-04-09 22:39:10.054,RIGHT,22
198.0,13720.595982145785,1980.4763174624823,-61488.53140932696,-58699.14546002692,-35199.10248507291,-32604.02025032285,-19584.53143650668,-21812.70978602288,0.0,0.0,0.0,193.0,1.0,154.0,0.0,2.0,3.0,250.0,410.0,2.0,1018.0,1744252750.0542057,0.0,2025-04-09 22:39:10.054,RIGHT,22
199.0,13645.784693453872,1944.0206222558766,-61531.64792438125,-58767.38533584897,-35237.5698372805,-32636.609093738687,-19665.042420034697,-21849.254888207306,0.0,0.0,0.0,193.0,1.0,154.0,0.0,2.0,3.0,252.0,410.0,2.0,1020.0,1744252750.054214,0.0,2025-04-09 22:39:10.054,RIGHT,22
200.0,13724.060502536358,1944.4006019116166,-61525.92587780069,-58698.13963152643,-35286.00606751515,-32683.637164072654,-19444.81068191656,-21885.107086313616,0.0,0.0,0.0,193.0,1.0,154.0,0.0,2.0,3.0,249.0,410.0,2.0,1017.0,1744252750.0542228,0.0,2025-04-09 22:39:10.054,RIGHT,22
201.0,13788.455878312097,1980.4986692069376,-61500.73546179956,-58744.743018715744,-35224.02468014058,-32608.445895725003,-19794.39196519756,-21821.98575997183,0.0,0.0,0.0,193.0,1.0,155.0,0.0,2.0,3.0,251.0,411.0,2.0,1019.0,1744252750.0542316,0.0,2025-04-09 22:39:10.054,RIGHT,22
202.0,13737.471549209542,1987.7629861549124,-61474.986252187045,-58682.98514878573,-35194.92270885977,-32590.720962371943,-19630.710140551346,-21796.236550359317,0.0,0.0,0.0,193.0,1.0,154.0,0.0,2.0,3.0,249.0,410.0,2.0,1017.0,1744252750.0542405,0.0,2025-04-09 22:39:10.054,RIGHT,22
203.0,13669.388135598676,1969.1439830236416,-61509.36323515931,-58746.57586176108,-35213.139380590845,-32612.290395771313,-19630.710140551346,-21822.231629160837,0.0,0.0,0.0,193.0,1.0,155.0,0.0,2.0,3.0,252.0,411.0,2.0,1020.0,1744252750.0542488,0.0,2025-04-09 22:39:10.054,RIGHT,22
204.0,13705.799127316372,1950.8155525702898,-61509.519697370495,-58689.176581999855,-35266.85062251695,-32666.202803397515,-19467.341240327507,-21865.973993059873,0.0,0.0,0.0,193.0,1.0,154.0,0.0,2.0,3.0,250.0,410.0,2.0,1018.0,1744252750.054285,0.0,2025-04-09 22:39:10.054,RIGHT,22
205.0,13784.723136988061,1970.2168667574963,-61518.28158119698,-58750.50976878522,-35251.517325820605,-32639.42541354006,-19691.931568614433,-21854.99928653232,0.0,0.0,0.0,193.0,1.0,155.0,0.0,2.0,3.0,251.0,411.0,2.0,1019.0,1744252750.0542936,0.0,2025-04-09 22:39:10.054,RIGHT,22
206.0,13739.1926335326,1978.7328813949684,-61471.23115911856,-58689.95889305579,-35194.6544879263,-32589.983354804917,-19711.6011037351,-21807.300663864695,0.0,0.0,0.0,193.0,1.0,154.0,0.0,2.0,3.0,249.0,410.0,2.0,1017.0,1744252750.054302,0.0,2025-04-09 22:39:10.054,RIGHT,22
207.0,13673.031469944892,1966.3500149667282,-61513.02892124998,-58746.88878618345,-35219.509627760606,-32619.174733063548,-19609.945369952366,-21839.286010180236,0.0,0.0,0.0,193.0,1.0,155.0,0.0,2.0,3.0,252.0,411.0,2.0,1020.0,1744252750.0543108,0.0,2025-04-09 22:39:10.054,RIGHT,22
208.0,13680.362842126233,1940.8243227987675,-61514.32532242839,-58710.67896016586,-35266.6718085613,-32665.375788852667,-19547.852223855523,-21876.702830398423,0.0,0.0,0.0,193.0,1.0,155.0,0.0,2.0,3.0,250.0,411.0,2.0,1018.0,1744252750.0543191,0.0,2025-04-09 22:39:10.054,RIGHT,22
209.0,13785.907779444193,1963.645453887636,-61517.61102886332,-58736.3164110561,-35265.04013121607,-32656.770367237375,-19598.478925046795,-21874.534711186257,0.0,0.0,0.0,193.0,1.0,155.0,0.0,2.0,3.0,252.0,411.0,2.0,1020.0,1744252750.0543277,0.0,2025-04-09 22:39:10.054,RIGHT,22
210.0,13752.089590083313,1980.2751517623844,-61464.011545659494,-58697.782003615146,-35188.26188901209,-32582.316706456746,-19786.747668593845,-21805.534876052723,0.0,0.0,0.0,193.0,1.0,154.0,0.0,2.0,3.0,250.0,410.0,2.0,1018.0,1744252750.0543363,0.0,2025-04-09 22:39:10.054,RIGHT,22
211.0,13689.594112586274,1976.520058693893,-61501.18249668867,-58729.789701675145,-35213.51936024659,-32602.63444216662,-19576.52951199168,-21807.83710573162,0.0,0.0,0.0,193.0,1.0,155.0,0.0,2.0,3.0,252.0,411.0,2.0,1020.0,1744252750.054345,0.0,2025-04-09 22:39:10.054,RIGHT,22
212.0,13664.358993096232,1940.8243227987675,-61509.452642137134,-58719.19497480333,-35251.85260198743,-32638.3525298062,-19601.27289310371,-21834.614495589078,0.0,0.0,0.0,193.0,1.0,154.0,0.0,2.0,3.0,249.0,410.0,2.0,1017.0,1744252750.0543532,0.0,2025-04-09 22:39:10.054,RIGHT,22
213.0,13787.785325978439,1968.7192998789908,-61514.772357317495,-58714.79168114563,-35271.589192341475,-32659.385521338645,-19499.3042348986,-21865.124626770572,0.0,0.0,0.0,193.0,1.0,154.0,0.0,2.0,3.0,251.0,410.0,2.0,1019.0,1744252750.054362,0.0,2025-04-09 22:39:10.054,RIGHT,22
214.0,13762.39374427721,1985.483108220471,-61483.32345286888,-58726.928678384866,-35210.412467767295,-32595.236014751914,-19844.057541377253,-21820.376434371046,0.0,0.0,0.0,193.0,1.0,154.0,0.0,2.0,3.0,249.0,410.0,2.0,1017.0,1744252750.0543704,0.0,2025-04-09 22:39:10.054,RIGHT,22
215.0,13711.275304707922,1994.7590821694234,-61497.9638454871,-58724.91702138389,-35216.20156958122,-32617.20777955148,-19564.526625219183,-21840.42594914746,0.0,0.0,0.0,193.0,1.0,154.0,0.0,2.0,3.0,250.0,410.0,2.0,1018.0,1744252750.0543787,0.0,2025-04-09 22:39:10.054,RIGHT,22
216.0,13645.449417287044,1935.9069390186,-61509.18442120367,-58741.65847798091,-35239.24621811464,-32635.51385826038,-19633.92879175291,-21851.043027763728,0.0,0.0,0.0,193.0,1.0,154.0,0.0,2.0,3.0,252.0,410.0,2.0,1020.0,1744252750.0543876,0.0,2025-04-09 22:39:10.054,RIGHT,22
217.0,13756.090552340813,1945.361726923195,-61519.242706208555,-58711.08129156605,-35284.17322446981,-32675.79170176884,-19427.219859030232,-21877.686307154454,0.0,0.0,0.0,193.0,1.0,154.0,0.0,2.0,3.0,250.0,410.0,2.0,1018.0,1744252750.054396,0.0,2025-04-09 22:39:10.054,RIGHT,22
218.0,13764.427753022643,1965.970035310988,-61477.80257198842,-58738.305716312614,-35203.37166826388,-32586.317668714248,-19860.351963085173,-21804.26082661877,0.0,0.0,0.0,193.0,1.0,154.0,0.0,2.0,3.0,251.0,410.0,2.0,1019.0,1744252750.0544045,0.0,2025-04-09 22:39:10.054,RIGHT,22
219.0,13699.51828712443,1964.7630411104014,-61487.145601170734,-58709.96370434329,-35209.786618922546,-32599.996936320895,-19569.041677599154,-21810.586370299625,0.0,0.0,0.0,193.0,1.0,155.0,0.0,2.0,3.0,251.0,411.0,2.0,1019.0,1744252750.054418,0.0,2025-04-09 22:39:10.054,RIGHT,22
220.0,13624.908164132616,1921.646526056114,-61519.399168419746,-58761.64093752396,-35241.86137221591,-32630.59647448021,-19665.891786324,-21848.65139110701,0.0,0.0,0.0,193.0,1.0,154.0,0.0,2.0,3.0,249.0,410.0,2.0,1017.0,1744252750.0544267,0.0,2025-04-09 22:39:10.054,RIGHT,22
221.0,13716.058578021357,1925.9604127359883,-61522.528412643485,-58706.454480463806,-35291.10226525096,-32686.744056551943,-19427.51043170815,-21901.177990576984,0.0,0.0,0.0,193.0,1.0,154.0,0.0,2.0,3.0,251.0,410.0,2.0,1019.0,1744252750.0544353,0.0,2025-04-09 22:39:10.054,RIGHT,22
222.0,13752.53662497242,1951.776677581868,-61494.74519428554,-58754.868358954,-35216.15686609231,-32601.53920668831,-19838.536660496793,-21823.393919872513,0.0,0.0,0.0,193.0,1.0,154.0,0.0,2.0,3.0,250.0,410.0,2.0,1018.0,1744252750.0544448,0.0,2025-04-09 22:39:10.054,RIGHT,22
223.0,13697.707795823551,1950.904959548111,-61483.4128598467,-58701.76061412819,-35203.68459268625,-32599.75106713189,-19594.343852322563,-21811.592198800114,0.0,0.0,0.0,193.0,1.0,154.0,0.0,2.0,3.0,250.0,410.0,2.0,1018.0,1744252750.0544572,0.0,2025-04-09 22:39:10.054,RIGHT,22
224.0,13614.40284423862,1905.0168281813656,-61532.54199415947,-58781.511638344724,-35244.92356120629,-32641.45942228549,-19668.17166425844,-21857.547385400223,0.0,0.0,0.0,193.0,1.0,154.0,0.0,2.0,3.0,252.0,410.0,2.0,1020.0,1744252750.0544665,0.0,2025-04-09 22:39:10.054,RIGHT,22
225.0,13691.851638776261,1913.5104910743823,-61517.342807929854,-58702.0064833172,-35286.833082059995,-32675.881108746664,-19458.0429146341,-21879.832074622165,0.0,0.0,0.0,193.0,1.0,154.0,0.0,2.0,3.0,250.0,410.0,2.0,1018.0,1744252750.0544753,0.0,2025-04-09 22:39:10.054,RIGHT,22
226.0,13761.477322754541,1943.0147937553877,-61501.85304902233,-58753.3707920755,-35235.379366323876,-32617.02896559584,-19771.503778875325,-21840.6047631031,0.0,0.0,0.0,193.0,1.0,154.0,0.0,2.0,3.0,252.0,410.0,2.0,1020.0,1744252750.0544837,0.0,2025-04-09 22:39:10.054,RIGHT,22
227.0,13708.391929673187,1947.1498664796195,-61465.486760793545,-58690.294169222616,-35193.31338325899,-32589.87159608264,-19665.712972368357,-21807.16655339796,0.0,0.0,0.0,193.0,1.0,154.0,0.0,2.0,3.0,249.0,410.0,2.0,1017.0,1744252750.0544922,0.0,2025-04-09 22:39:10.054,RIGHT,22
228.0,13640.84495792925,1936.3316221632508,-61501.56247634441,-58752.18614961936,-35211.7088689457,-32613.4973899719,-19631.82772777411,-21832.08874846563,0.0,0.0,0.0,193.0,1.0,155.0,0.0,2.0,3.0,252.0,411.0,2.0,1020.0,1744252750.0545008,0.0,2025-04-09 22:39:10.054,RIGHT,22
229.0,13668.963452454025,1912.817586996268,-61507.217467691604,-58704.80045137411,-35268.61641032892,-32667.543908064832,-19493.04574645111,-21876.076981553673,0.0,0.0,0.0,193.0,1.0,154.0,0.0,2.0,3.0,249.0,410.0,2.0,1017.0,1744252750.0545092,0.0,2025-04-09 22:39:10.054,RIGHT,22
230.0,13756.045848851902,1933.3811918951503,-61512.872459038794,-58753.907233942424,-35252.83607874347,-32637.92784666155,-19665.75767585727,-21851.870042308576,0.0,0.0,0.0,193.0,1.0,155.0,0.0,2.0,3.0,252.0,411.0,2.0,1020.0,1744252750.0545177,0.0,2025-04-09 22:39:10.054,RIGHT,22
231.0,13707.229638961511,1940.7572675654017,-61463.69862123712,-58698.49725943772,-35187.50192970061,-32582.897851812584,-19727.135566131543,-21796.683585248422,0.0,0.0,0.0,193.0,1.0,154.0,0.0,2.0,3.0,249.0,410.0,2.0,1017.0,1744252750.0545263,0.0,2025-04-09 22:39:10.054,RIGHT,22
232.0,13629.534975234865,1917.0867701872314,-61516.292275940454,-58762.44560032435,-35220.49310451664,-32624.114468588174,-19582.318613805608,-21836.581449101144,0.0,0.0,0.0,193.0,1.0,154.0,0.0,2.0,3.0,250.0,410.0,2.0,1018.0,1744252750.054535,0.0,2025-04-09 22:39:10.054,RIGHT,22
233.0,13633.580640981274,1895.6961507435026,-61513.36419741681,-58729.45442550832,-35257.77581426809,-32666.47102433098,-19553.10488380252,-21882.313118256705,0.0,0.0,0.0,193.0,1.0,154.0,0.0,2.0,3.0,249.0,410.0,2.0,1017.0,1744252750.0545487,0.0,2025-04-09 22:39:10.054,RIGHT,22
234.0,13746.255784780478,1919.9254417330555,-61521.03084576498,-58747.87226293949,-35269.152852195846,-32663.252373129413,-19559.318668761098,-21877.4627897099,0.0,0.0,0.0,193.0,1.0,154.0,0.0,2.0,3.0,251.0,410.0,2.0,1019.0,1744252750.0545578,0.0,2025-04-09 22:39:10.054,RIGHT,22
235.0,13715.790357087893,1935.2140349404856,-61464.995022415525,-58715.57399220157,-35188.97714483466,-32579.031000021816,-19799.264645488816,-21793.59904451359,0.0,0.0,0.0,193.0,1.0,154.0,0.0,2.0,3.0,252.0,410.0,2.0,1020.0,1744252750.0545664,0.0,2025-04-09 22:39:10.054,RIGHT,22
236.0,13653.741914479962,1929.1120087041866,-61503.440022878654,-58743.78189370417,-35213.96639513569,-32609.65288992559,-19568.438180498862,-21822.16457392747,0.0,0.0,0.0,193.0,1.0,153.0,0.0,2.0,3.0,249.0,409.0,2.0,1017.0,1744252750.054575,0.0,2025-04-09 22:39:10.054,RIGHT,22
237.0,13607.02676856837,1885.101423871687,-61533.145491259755,-58760.43394332337,-35267.811747528525,-32664.638181285645,-19620.74126252428,-21877.351030987626,0.0,0.0,0.0,193.0,1.0,154.0,0.0,2.0,3.0,251.0,410.0,2.0,1019.0,1744252750.0545835,0.0,2025-04-09 22:39:10.054,RIGHT,22
238.0,13738.410322476664,1922.227671411952,-61530.99972379205,-58738.462178523805,-35290.34230593948,-32682.854853016717,-19502.746403544716,-21903.659034211523,0.0,0.0,0.0,193.0,1.0,153.0,0.0,2.0,3.0,250.0,409.0,2.0,1018.0,1744252750.53824,0.0,2025-04-09 22:39:10.538,RIGHT,22
239.0,13733.917621841149,1942.0089652548988,-61474.002775431014,-58735.82467267808,-35197.96254610569,-32590.564500160755,-19869.091495167195,-21823.97506522835,0.0,0.0,0.0,193.0,1.0,154.0,0.0,2.0,3.0,251.0,410.0,2.0,1019.0,1744252750.5382764,0.0,2025-04-09 22:39:10.538,RIGHT,22
240.0,13673.366746111722,1937.8291890417563,-61497.27094140899,-58731.66724820939,-35215.083982358454,-32614.860846383675,-19571.545072978148,-21830.725292053856,0.0,0.0,0.0,193.0,1.0,154.0,0.0,2.0,3.0,250.0,410.0,2.0,1018.0,1744252750.5382967,0.0,2025-04-09 22:39:10.538,RIGHT,22
241.0,13615.878059372671,1901.5299560463377,-61523.53424114398,-58765.217216636804,-35255.093604933456,-32647.36028282169,-19669.333954970116,-21858.977897045363,0.0,0.0,0.0,193.0,1.0,154.0,0.0,2.0,3.0,252.0,410.0,2.0,1020.0,1744252750.538314,0.0,2025-04-09 22:39:10.538,RIGHT,22
242.0,13730.564860172852,1915.0080579528878,-61520.583810875876,-58717.45153873582,-35289.44823616126,-32683.145425694638,-19441.636734203905,-21883.7659816463,0.0,0.0,0.0,193.0,1.0,154.0,0.0,2.0,3.0,249.0,410.0,2.0,1017.0,1744252750.5383344,0.0,2025-04-09 22:39:10.538,RIGHT,22
243.0,13746.725171414038,1937.0245262413653,-61477.55670279941,-58748.7663327177,-35195.97324084917,-32593.626689151133,-19855.814558960745,-21819.03532970373,0.0,0.0,0.0,193.0,1.0,154.0,0.0,2.0,3.0,252.0,410.0,2.0,1020.0,1744252750.5383518,0.0,2025-04-09 22:39:10.538,RIGHT,22
244.0,13694.086813221791,1948.490971146938,-61478.04844117742,-58707.14738454192,-35193.849825125915,-32599.393439220603,-19560.838587384056,-21815.61551280207,0.0,0.0,0.0,193.0,1.0,154.0,0.0,2.0,3.0,250.0,410.0,2.0,1018.0,1744252750.5383692,0.0,2025-04-09 22:39:10.538,RIGHT,22
245.0,13621.287181530855,1909.9789154504438,-61516.113461984816,-58768.05588818263,-35233.09948838943,-32636.92201816106,-19662.27080372224,-21856.04981852172,0.0,0.0,0.0,193.0,1.0,154.0,0.0,2.0,3.0,250.0,410.0,2.0,1018.0,1744252750.5383868,0.0,2025-04-09 22:39:10.538,RIGHT,22
246.0,13710.80591807436,1911.297668373307,-61519.8238515644,-58708.555544442606,-35290.4317129173,-32691.683792076565,-19431.198469543277,-21901.222694065895,0.0,0.0,0.0,193.0,1.0,155.0,0.0,2.0,3.0,253.0,411.0,2.0,1021.0,1744252750.5384045,0.0,2025-04-09 22:39:10.538,RIGHT,22
247.0,13757.185787819122,1940.5337501208485,-61497.561514086905,-58763.38437359147,-35229.09852613194,-32617.61011095168,-19838.335494796695,-21850.484234152347,0.0,0.0,0.0,193.0,1.0,154.0,0.0,2.0,3.0,250.0,410.0,2.0,1018.0,1744252750.5384135,0.0,2025-04-09 22:39:10.538,RIGHT,22
248.0,13697.461926634542,1942.7242210774687,-61479.43424933365,-58708.734358398244,-35206.92559563227,-32606.25542476838,-19629.637256817492,-21825.964370484875,0.0,0.0,0.0,193.0,1.0,154.0,0.0,2.0,3.0,250.0,410.0,2.0,1018.0,1744252750.5384555,0.0,2025-04-09 22:39:10.538,RIGHT,22
249.0,13622.337713520255,1915.7680172643684,-61518.92978178618,-58777.77889702069,-35232.27247384459,-32626.908436645084,-19661.309678710662,-21843.421082904468,0.0,0.0,0.0,193.0,1.0,154.0,0.0,2.0,3.0,249.0,410.0,2.0,1017.0,1744252750.5384643,0.0,2025-04-09 22:39:10.538,RIGHT,22
250.0,13682.866237505226,1906.492043315416,-61510.927857271185,-58712.26593402219,-35278.004143000144,-32677.333972136257,-19464.010830403666,-21882.7154496569,0.0,0.0,0.0,193.0,1.0,155.0,0.0,2.0,3.0,251.0,411.0,2.0,1019.0,1744252750.5384731,0.0,2025-04-09 22:39:10.538,RIGHT,22
251.0,13764.494808256008,1936.8680640301782,-61502.03186297797,-58766.78183874868,-35240.09558440394,-32626.528456989345,-19744.815795995688,-21841.968219514874,0.0,0.0,0.0,193.0,1.0,154.0,0.0,2.0,3.0,249.0,410.0,2.0,1017.0,1744252750.5384822,0.0,2025-04-09 22:39:10.538,RIGHT,22
252.0,13715.566839643341,1950.8826078036557,-61462.044592147424,-58703.32523624006,-35188.99949657911,-32592.10677052817,-19681.98504233182,-21806.451297575393,0.0,0.0,0.0,193.0,1.0,154.0,0.0,2.0,3.0,252.0,410.0,2.0,1020.0,1744252750.538491,0.0,2025-04-09 22:39:10.538,RIGHT,22
253.0,13633.066550858803,1915.3433341197176,-61520.31558994241,-58782.8750947565,-35229.59026450995,-32638.59839899521,-19615.756823510746,-21855.558080143703,0.0,0.0,0.0,193.0,1.0,154.0,0.0,2.0,3.0,249.0,410.0,2.0,1017.0,1744252750.5385,0.0,2025-04-09 22:39:10.538,RIGHT,22
254.0,13654.993612169459,1891.9857611639216,-61520.04736900895,-58733.4106842769,-35279.52406162311,-32681.670210560587,-19522.9076770434,-21892.125534072584,0.0,0.0,0.0,193.0,1.0,154.0,0.0,2.0,3.0,250.0,410.0,2.0,1018.0,1744252750.538509,0.0,2025-04-09 22:39:10.538,RIGHT,22
255.0,13755.174130818144,1918.6960957880135,-61527.46814816811,-58773.08503068508,-35274.539622609576,-32664.146442907626,-19657.040495519697,-21892.86314163961,0.0,0.0,0.0,193.0,1.0,155.0,0.0,2.0,3.0,252.0,411.0,2.0,1020.0,1744252750.5385177,0.0,2025-04-09 22:39:10.538,RIGHT,22
0.0,13716.840889077293,1939.3714594091725,-61468.12426663927,-58716.37865500196,-35193.64865942582,-32593.671392640044,-19764.664145072,-21819.08003319264,0.0,0.0,0.0,193.0,1.0,155.0,0.0,2.0,3.0,252.0,411.0,2.0,1020.0,1744252750.5385263,0.0,2025-04-09 22:39:10.538,RIGHT,22
1.0,13646.164673109613,1930.2742994158625,-61509.34088341486,-58760.18807413436,-35217.20739808171,-32622.572198220754,-19589.225302842297,-21837.22964969035,0.0,0.0,0.0,193.0,1.0,154.0,0.0,2.0,3.0,250.0,410.0,2.0,1018.0,1744252750.538535,0.0,2025-04-09 22:39:10.538,RIGHT,22
2.0,13640.330867806777,1905.5979735372036,-61508.267999681,-58732.71778019879,-35252.92548572129,-32655.541021292334,-19579.859921915522,-21866.532786671258,0.0,0.0,0.0,193.0,1.0,154.0,0.0,2.0,3.0,251.0,410.0,2.0,1019.0,1744252750.5385437,0.0,2025-04-09 22:39:10.538,RIGHT,22
3.0,13764.271290811455,1937.6280233416587,-61509.944380515146,-58736.38346628946,-35264.727206793694,-32659.07259691627,-19541.124348774476,-21879.362687988603,0.0,0.0,0.0,193.0,1.0,154.0,0.0,2.0,3.0,251.0,410.0,2.0,1019.0,1744252750.5385523,0.0,2025-04-09 22:39:10.538,RIGHT,22
4.0,13737.650363165185,1949.6756136030692,-61458.78123745695,-58717.496242224726,-35187.971316334166,-32578.40515117707,-19824.142137067574,-21804.70786150788,0.0,0.0,0.0,193.0,1.0,154.0,0.0,2.0,3.0,250.0,410.0,2.0,1018.0,1744252750.5385613,0.0,2025-04-09 22:39:10.538,RIGHT,22
5.0,13665.588339041275,1937.4492093860163,-61505.675197324184,-58750.0180304072,-35222.0130231396,-32621.387555764624,-19566.806503153624,-21836.849670034608,0.0,0.0,0.0,193.0,1.0,155.0,0.0,2.0,3.0,251.0,411.0,2.0,1019.0,1744252750.53857,0.0,2025-04-09 22:39:10.538,RIGHT,22
6.0,13614.089919816248,1891.1810983635305,-61529.9715435471,-58771.11807717301,-35263.2743434041,-32664.258201629902,-19636.946277254377,-21877.529844943267,0.0,0.0,0.0,193.0,1.0,154.0,0.0,2.0,3.0,249.0,410.0,2.0,1017.0,1744252750.5385787,0.0,2025-04-09 22:39:10.538,RIGHT,22
7.0,13737.203328276079,1915.4774445864493,-61530.55268890294,-58742.84312043704,-35293.806826330045,-32685.626469329178,-19477.153656143386,-21900.730955687875,0.0,0.0,0.0,193.0,1.0,154.0,0.0,2.0,3.0,252.0,410.0,2.0,1020.0,1744252750.5385933,0.0,2025-04-09 22:39:10.538,RIGHT,22
8.0,13740.019648077447,1936.0186977408766,-61478.3613655998,-58749.928623429376,-35203.81870315298,-32591.54797691679,-19878.903910983077,-21821.382262871535,0.0,0.0,0.0,193.0,1.0,154.0,0.0,2.0,3.0,251.0,410.0,2.0,1019.0,1744252750.538602,0.0,2025-04-09 22:39:10.538,RIGHT,22
9.0,13686.643682318174,1948.5580263803038,-61484.709261025106,-58723.30769578311,-35198.83426413945,-32604.243767767402,-19566.62768919798,-21817.56011456968,0.0,0.0,0.0,193.0,1.0,154.0,0.0,2.0,3.0,251.0,410.0,2.0,1019.0,1744252750.538611,0.0,2025-04-09 22:39:10.538,RIGHT,22
10.0,13625.198736810535,1910.649467784103,-61510.3690636598,-58764.256091625226,-35231.065479644,-32634.239808826427,-19652.100759995075,-21841.722350325865,0.0,0.0,0.0,193.0,1.0,154.0,0.0,2.0,3.0,250.0,410.0,2.0,1018.0,1744252750.5386198,0.0,2025-04-09 22:39:10.538,RIGHT,22
11.0,13720.595982145785,1907.073188671254,-61527.781072590486,-58729.85675690851,-35294.522082152616,-32694.32129792229,-19425.141146795886,-21895.14301957405,0.0,0.0,0.0,193.0,1.0,155.0,0.0,2.0,3.0,252.0,411.0,2.0,1020.0,1744252750.5386288,0.0,2025-04-09 22:39:10.538,RIGHT,22
12.0,13751.329630771832,1939.2373489424408,-61483.92694996917,-58762.69146951336,-35206.47856074316,-32601.06982005475,-19870.052620178776,-21824.64561756201,0.0,0.0,0.0,193.0,1.0,154.0,0.0,2.0,3.0,249.0,410.0,2.0,1017.0,1744252750.538638,0.0,2025-04-09 22:39:10.538,RIGHT,22
13.0,13689.549409097364,1942.612462355192,-61484.0610604359,-58717.87622188047,-35200.66710718478,-32608.22237828045,-19577.60239572554,-21809.334672610126,0.0,0.0,0.0,193.0,1.0,155.0,0.0,2.0,3.0,252.0,411.0,2.0,1020.0,1744252750.5386467,0.0,2025-04-09 22:39:10.538,RIGHT,22
14.0,13611.631227926164,1909.7330462614354,-61523.98127603308,-58782.80803952313,-35237.99452042515,-32639.4030617956,-19665.668268879446,-21848.405521918005,0.0,0.0,0.0,193.0,1.0,154.0,0.0,2.0,3.0,249.0,410.0,2.0,1017.0,1744252750.5386555,0.0,2025-04-09 22:39:10.538,RIGHT,22
15.0,13691.114031209236,1906.8496712267008,-61526.730540601086,-58722.41362600489,-35296.44433217577,-32700.28921369186,-19453.773731443136,-21914.454926783434,0.0,0.0,0.0,193.0,1.0,154.0,0.0,2.0,3.0,251.0,410.0,2.0,1019.0,1744252750.5386665,0.0,2025-04-09 22:39:10.538,RIGHT,22
16.0,13745.272308024445,1930.453113371505,-61508.80444154793,-58778.650615054445,-35235.82640121298,-32627.89191340112,-19826.824346402213,-21856.161577243995,0.0,0.0,0.0,193.0,1.0,153.0,0.0,2.0,3.0,250.0,409.0,2.0,1018.0,1744252750.5386753,0.0,2025-04-09 22:39:10.538,RIGHT,22
17.0,13693.61742658823,1936.778657052357,-61483.18934240215,-58714.61286718999,-35204.198682808725,-32600.667488654555,-19634.956971997854,-21802.070355662152,0.0,0.0,0.0,193.0,1.0,155.0,0.0,2.0,3.0,253.0,411.0,2.0,1021.0,1744252750.538684,0.0,2025-04-09 22:39:10.538,RIGHT,22
18.0,13622.091844331248,1913.0858079297316,-61524.56242138892,-58783.05390871214,-35230.43963079925,-32623.17569532105,-19645.752864569768,-21825.22676291785,0.0,0.0,0.0,193.0,1.0,154.0,0.0,2.0,3.0,250.0,410.0,2.0,1018.0,1744252750.5386925,0.0,2025-04-09 22:39:10.538,RIGHT,22
19.0,13678.70881303654,1910.4035985950945,-61515.0182265065,-58715.77515790167,-35277.57945985549,-32668.12505342067,-19475.767847987157,-21865.437551192947,0.0,0.0,0.0,193.0,1.0,155.0,0.0,2.0,3.0,252.0,411.0,2.0,1020.0,1744252750.5387013,0.0,2025-04-09 22:39:10.538,RIGHT,22
20.0,13756.62699420774,1927.0779999587537,-61518.773319575,-58776.706013286836,-35256.16648866731,-32639.336006562236,-19718.552496260705,-21858.776731345264,0.0,0.0,0.0,193.0,1.0,154.0,0.0,2.0,3.0,249.0,410.0,2.0,1017.0,1744252750.53871,0.0,2025-04-09 22:39:10.538,RIGHT,22
21.0,13708.749557584473,1940.6678605875804,-61472.86283646379,-58712.28828576664,-35200.80121765151,-32590.050410038282,-19716.049100881708,-21804.64080627451,0.0,0.0,0.0,193.0,1.0,155.0,0.0,2.0,3.0,251.0,411.0,2.0,1019.0,1744252750.5387187,0.0,2025-04-09 22:39:10.538,RIGHT,22
22.0,13639.928536406582,1931.9953837389212,-61513.63241835027,-58770.0228416947,-35224.87404642988,-32617.36424176267,-19624.988093970787,-21833.921591510963,0.0,0.0,0.0,193.0,1.0,154.0,0.0,2.0,3.0,252.0,410.0,2.0,1020.0,1744252750.5387323,0.0,2025-04-09 22:39:10.538,RIGHT,22
23.0,13657.005269170437,1916.259755642385,-61509.16206945921,-58722.033646349155,-35265.19659342725,-32657.64208527113,-19545.192366265343,-21873.12655128557,0.0,0.0,0.0,193.0,1.0,154.0,0.0,2.0,3.0,251.0,410.0,2.0,1019.0,1744252750.538741,0.0,2025-04-09 22:39:10.538,RIGHT,22
24.0,13764.67362221165,1938.7903140533347,-61517.99100851906,-58755.82948396558,-35273.332628408985,-32651.428300312557,-19620.204820657353,-21874.020621063784,0.0,0.0,0.0,193.0,1.0,155.0,0.0,2.0,3.0,252.0,411.0,2.0,1020.0,1744252750.53875,0.0,2025-04-09 22:39:10.538,RIGHT,22
25.0,13714.650418120673,1937.292747174829,-61476.77439174347,-58724.402931261415,-35213.51936024659,-32590.653907138578,-19794.794296597756,-21811.88277147803,0.0,0.0,0.0,193.0,1.0,154.0,0.0,2.0,3.0,249.0,410.0,2.0,1017.0,1744252750.5387585,0.0,2025-04-09 22:39:10.538,RIGHT,22
26.0,13656.379420325688,1936.3986773966167,-61506.18928744666,-58753.147274630945,-35225.74576446364,-32611.798657393298,-19598.389518068972,-21827.350178641103,0.0,0.0,0.0,193.0,1.0,155.0,0.0,2.0,3.0,252.0,411.0,2.0,1020.0,1744252750.5387673,0.0,2025-04-09 22:39:10.538,RIGHT,22
27.0,13641.962545152015,1905.8885462151227,-61508.64797933674,-58734.394161032935,-35261.03916895857,-32647.6061520107,-19604.98328268329,-21859.491987167836,0.0,0.0,0.0,193.0,1.0,153.0,0.0,2.0,3.0,249.0,409.0,2.0,1017.0,1744252750.538776,0.0,2025-04-09 22:39:10.538,RIGHT,22
28.0,13755.732924429527,1925.9157092470778,-61521.679046354184,-58738.55158550163,-35289.29177395008,-32662.581820795756,-19526.86393581199,-21871.785446618254,0.0,0.0,0.0,193.0,1.0,154.0,0.0,2.0,3.0,250.0,410.0,2.0,1018.0,1744252750.5387847,0.0,2025-04-09 22:39:10.538,RIGHT,22
29.0,13732.352999729277,1945.1829129675525,-61469.13009513976,-58729.365018530494,-35201.337659518445,-32578.427502921524,-19849.041980390786,-21796.46006780387,0.0,0.0,0.0,193.0,1.0,154.0,0.0,2.0,3.0,250.0,410.0,2.0,1018.0,1744252750.5387936,0.0,2025-04-09 22:39:10.538,RIGHT,22
30.0,13673.836132745282,1945.9205205345775,-61491.39243261724,-58733.611849977,-35212.13355209035,-32604.981375334428,-19568.482883987774,-21815.906085479986,0.0,0.0,0.0,193.0,1.0,154.0,0.0,2.0,3.0,249.0,410.0,2.0,1017.0,1744252750.5388024,0.0,2025-04-09 22:39:10.538,RIGHT,22
31.0,13613.754643649418,1893.6397902536144,-61524.22714522209,-58765.91012071492,-35266.135366694376,-32654.378730580658,-19649.46325414935,-21870.824321606677,0.0,0.0,0.0,193.0,1.0,154.0,0.0,2.0,3.0,251.0,410.0,2.0,1019.0,1744252750.5388107,0.0,2025-04-09 22:39:10.538,RIGHT,22
32.0,13735.929278842126,1912.2364416404298,-61523.020151021505,-58732.06957960959,-35299.484169421696,-32690.163873453603,-19460.076923379533,-21899.635720209568,0.0,0.0,0.0,193.0,1.0,154.0,0.0,2.0,3.0,252.0,410.0,2.0,1020.0,1744252750.5388196,0.0,2025-04-09 22:39:10.538,RIGHT,22
33.0,13742.925374856637,1937.739782063935,-61472.14758064123,-58747.98402166177,-35210.121895089374,-32596.241843252403,-19866.342230599195,-21817.582466314136,0.0,0.0,0.0,193.0,1.0,154.0,0.0,2.0,3.0,249.0,410.0,2.0,1017.0,1744252750.5388284,0.0,2025-04-09 22:39:10.538,RIGHT,22
34.0,13679.602882814752,1934.6552413291029,-61491.59359831734,-58728.672114452376,-35223.22001734019,-32619.577064463745,-19565.48775023076,-21826.858440263088,0.0,0.0,0.0,193.0,1.0,154.0,0.0,2.0,3.0,252.0,410.0,2.0,1020.0,1744252750.5388367,0.0,2025-04-09 22:39:10.538,RIGHT,22
35.0,13617.196812295535,1906.715560759969,-61517.342807929854,-58771.945091717855,-35249.6174275419,-32642.442899041525,-19665.020068290243,-21847.019713761772,0.0,0.0,0.0,193.0,1.0,154.0,0.0,2.0,3.0,250.0,410.0,2.0,1018.0,1744252750.5388455,0.0,2025-04-09 22:39:10.538,RIGHT,22
36.0,13719.925429812125,1922.4958923454158,-61512.403072405235,-58709.024931076165,-35291.81752107353,-32680.619678571187,-19425.051739818067,-21878.580376932667,0.0,0.0,0.0,193.0,1.0,154.0,0.0,2.0,3.0,250.0,410.0,2.0,1018.0,1744252750.5388541,0.0,2025-04-09 22:39:10.538,RIGHT,22
37.0,13744.177072546134,1935.325793662762,-61495.12517394128,-58767.00535619323,-35230.4172790548,-32610.144628303606,-19850.49484378038,-21830.65823682049,0.0,0.0,0.0,193.0,1.0,154.0,0.0,2.0,3.0,251.0,410.0,2.0,1019.0,1744252750.5388684,0.0,2025-04-09 22:39:10.538,RIGHT,22
38.0,13683.313272394333,1938.6338518421476,-61489.3137203829,-58718.457367236304,-35217.67678471527,-32610.993994592907,-19589.985262153776,-21812.374509856047,0.0,0.0,0.0,193.0,1.0,155.0,0.0,2.0,3.0,252.0,411.0,2.0,1020.0,1744252750.5388772,0.0,2025-04-09 22:39:10.538,RIGHT,22
39.0,13615.3639692502,1916.2374038979299,-61521.09790099835,-58780.550513333146,-35237.41337506931,-32630.440012269024,-19654.425341418428,-21834.726254311354,0.0,0.0,0.0,193.0,1.0,154.0,0.0,2.0,3.0,250.0,410.0,2.0,1018.0,1744252750.5388856,0.0,2025-04-09 22:39:10.538,RIGHT,22
40.0,13695.09264172228,1919.8807382441448,-61509.3185316704,-58707.01327407519,-35283.525023880604,-32675.478777346467,-19433.813623644546,-21872.52305418528,0.0,0.0,0.0,193.0,1.0,154.0,0.0,2.0,3.0,251.0,410.0,2.0,1019.0,1744252750.5388944,0.0,2025-04-09 22:39:10.538,RIGHT,22
41.0,13758.415133764165,1943.0147937553877,-61496.95801698662,-58767.36298410452,-35238.2180378697,-32616.60428245119,-19770.542653863748,-21832.759300799287,0.0,0.0,0.0,193.0,1.0,154.0,0.0,2.0,3.0,250.0,410.0,2.0,1018.0,1744252750.5389028,0.0,2025-04-09 22:39:10.538,RIGHT,22
42.0,13709.733034340506,1959.6668433745915,-61460.97170841357,-58699.86071584949,-35199.10248507291,-32590.586851905213,-19643.763559313247,-21804.618454530057,0.0,0.0,0.0,193.0,1.0,154.0,0.0,2.0,3.0,252.0,410.0,2.0,1020.0,1744252750.5389113,0.0,2025-04-09 22:39:10.538,RIGHT,22
43.0,13634.74293169295,1937.6280233416587,-61505.63049383528,-58768.525274816195,-35231.35605232192,-32618.5488842188,-19637.59447784358,-21838.57075435767,0.0,0.0,0.0,193.0,1.0,153.0,0.0,2.0,3.0,249.0,409.0,2.0,1017.0,1744252750.53892,0.0,2025-04-09 22:39:10.538,RIGHT,22
44.0,13674.3278711233,1909.8671567281672,-61502.14362170025,-58711.08129156605,-35282.40743665784,-32661.97832369546,-19501.38294713294,-21867.292745982737,0.0,0.0,0.0,193.0,1.0,154.0,0.0,2.0,3.0,250.0,410.0,2.0,1018.0,1744252750.5389285,0.0,2025-04-09 22:39:10.538,RIGHT,22
45.0,13767.646404224206,1938.7009070755134,-61498.67910130967,-58756.857664210525,-35253.55133456604,-32630.12708784665,-19691.596292447604,-21850.52893764126,0.0,0.0,0.0,193.0,1.0,154.0,0.0,2.0,3.0,251.0,410.0,2.0,1019.0,1744252750.538937,0.0,2025-04-09 22:39:10.538,RIGHT,22
46.0,13715.700950110073,1949.8320758142563,-61453.75209495451,-58699.61484666048,-35192.9557553477,-32577.578136632223,-19715.222086336864,-21786.334727565616,0.0,0.0,0.0,193.0,1.0,154.0,0.0,2.0,3.0,250.0,410.0,2.0,1018.0,1744252750.538946,0.0,2025-04-09 22:39:10.538,RIGHT,22
47.0,13644.354181808732,1937.1809884525526,-61499.37200538779,-58757.48351305527,-35218.50379926012,-32610.725773659444,-19586.788962696668,-21816.64369304701,0.0,0.0,0.0,193.0,1.0,154.0,0.0,2.0,3.0,251.0,410.0,2.0,1019.0,1744252750.5389545,0.0,2025-04-09 22:39:10.538,RIGHT,22
48.0,13639.727370706483,1903.1169299026647,-61507.75390955853,-58730.37084703099,-35270.71747430771,-32660.95014345052,-19535.42465393837,-21868.052705294216,0.0,0.0,0.0,193.0,1.0,154.0,0.0,2.0,3.0,250.0,410.0,2.0,1018.0,1744252750.5389633,0.0,2025-04-09 22:39:10.538,RIGHT,22
49.0,13755.15177907369,1926.80977902529,-61514.95117127314,-58753.549606031134,-35279.65817208984,-32654.915172447585,-19544.96884882079,-21864.85640583711,0.0,0.0,0.0,193.0,1.0,155.0,0.0,2.0,3.0,251.0,411.0,2.0,1019.0,1744252750.538972,0.0,2025-04-09 22:39:10.538,RIGHT,22
50.0,13726.608601404263,1946.4346106570497,-61457.14956011171,-58719.59730620353,-35196.844958882924,-32582.361409945657,-19753.868252500088,-21797.287082348717,0.0,0.0,0.0,193.0,1.0,154.0,0.0,2.0,3.0,250.0,410.0,2.0,1018.0,1744252750.5389805,0.0,2025-04-09 22:39:10.538,RIGHT,22
51.0,13666.929443708594,1947.8651223021893,-61487.927912226674,-58743.53602451516,-35210.747743934124,-32608.22237828045,-19524.047616010623,-21814.676739534945,0.0,0.0,0.0,193.0,1.0,154.0,0.0,2.0,3.0,252.0,410.0,2.0,1020.0,1744252750.5389888,0.0,2025-04-09 22:39:10.538,RIGHT,22
52.0,13638.207452083523,1913.130511418642,-61497.561514086905,-58737.43399827886,-35248.388081596866,-32641.7052914745,-19553.842491369545,-21841.431777647947,0.0,0.0,0.0,193.0,1.0,154.0,0.0,2.0,3.0,250.0,410.0,2.0,1018.0,1744252750.539002,0.0,2025-04-09 22:39:10.539,RIGHT,22
53.0,13755.15177907369,1926.9215377475666,-61507.575095602886,-58731.24256506474,-35279.68052383429,-32670.002599954918,-19435.333542267508,-21869.19264426144,0.0,0.0,0.0,193.0,1.0,154.0,0.0,2.0,3.0,249.0,410.0,2.0,1017.0,1744252750.5390108,0.0,2025-04-09 22:39:10.539,RIGHT,22
54.0,13734.275249752433,1939.2149971979854,-61462.201054358615,-58735.33293430006,-35198.72250541717,-32591.54797691679,-19796.269511731807,-21806.540704553212,0.0,0.0,0.0,193.0,1.0,154.0,0.0,2.0,3.0,252.0,410.0,2.0,1020.0,1744252750.5390196,0.0,2025-04-09 22:39:10.539,RIGHT,22
55.0,13672.875007733704,1939.326755920262,-61485.13394416976,-58732.91894589889,-35209.20547356671,-32613.475038227447,-19508.66961582537,-21822.097518694107,0.0,0.0,0.0,193.0,1.0,154.0,0.0,2.0,3.0,249.0,410.0,2.0,1017.0,1744252750.5390282,0.0,2025-04-09 22:39:10.539,RIGHT,22
56.0,13619.677855930073,1901.1723281350528,-61505.74225255755,-58761.14919914594,-35241.92842744928,-32642.88993393063,-19601.27289310371,-21848.360818429093,0.0,0.0,0.0,193.0,1.0,155.0,0.0,2.0,3.0,250.0,411.0,2.0,1018.0,1744252750.5390368,0.0,2025-04-09 22:39:10.539,RIGHT,22
57.0,13741.986601589513,1926.7203720474688,-61499.05908096542,-58708.890820609435,-35275.79132029907,-32669.510861576902,-19390.16066672333,-21869.37145821708,0.0,0.0,0.0,193.0,1.0,154.0,0.0,2.0,3.0,250.0,410.0,2.0,1018.0,1744252750.5390456,0.0,2025-04-09 22:39:10.539,RIGHT,22
58.0,13750.1449883157,1945.5628926232926,-61460.41291480219,-58738.90921341291,-35196.82260713847,-32574.135967986105,-19811.24518051686,-21787.049983388184,0.0,0.0,0.0,193.0,1.0,154.0,0.0,2.0,3.0,251.0,410.0,2.0,1019.0,1744252750.5390542,0.0,2025-04-09 22:39:10.539,RIGHT,22
59.0,13684.363804383733,1944.2441397004295,-61470.27003410698,-58711.5059747107,-35201.96350836319,-32596.040677552308,-19513.452889138807,-21795.83421895912,0.0,0.0,0.0,193.0,1.0,155.0,0.0,2.0,3.0,251.0,411.0,2.0,1019.0,1744252750.5390627,0.0,2025-04-09 22:39:10.539,RIGHT,22
60.0,13611.899448859627,1907.3637613491728,-61502.79182228945,-58767.63120503798,-35235.6699390018,-32626.908436645084,-19612.53817230918,-21831.17232694296,0.0,0.0,0.0,193.0,1.0,155.0,0.0,2.0,3.0,252.0,411.0,2.0,1020.0,1744252750.5390713,0.0,2025-04-09 22:39:10.539,RIGHT,22
61.0,13710.358883185254,1919.6572207995919,-61496.93566524216,-58700.218343760775,-35285.33551518148,-32676.082274446762,-19391.36766092392,-21876.702830398423,0.0,0.0,0.0,193.0,1.0,154.0,0.0,2.0,3.0,249.0,410.0,2.0,1017.0,1744252750.53908,0.0,2025-04-09 22:39:10.539,RIGHT,22
62.0,13748.937994115115,1941.7183925769798,-61477.511999310496,-58756.567091532605,-35219.39786903833,-32607.641232924612,-19792.670880874502,-21822.499850094304,0.0,0.0,0.0,193.0,1.0,154.0,0.0,2.0,3.0,251.0,410.0,2.0,1019.0,1744252750.5390887,0.0,2025-04-09 22:39:10.539,RIGHT,22
63.0,13700.546467369375,1946.6134246126921,-61455.09319962183,-58692.48464017924,-35187.36781923388,-32592.17382576154,-19554.602450681024,-21785.59711999859,0.0,0.0,0.0,193.0,1.0,154.0,0.0,2.0,3.0,249.0,410.0,2.0,1017.0,1744252750.5390985,0.0,2025-04-09 22:39:10.539,RIGHT,22
64.0,13631.859556658215,1927.301517403307,-61488.68787153815,-58748.3640013175,-35207.126761332365,-32607.082439313228,-19587.325404563595,-21790.849779945587,0.0,0.0,0.0,193.0,1.0,154.0,0.0,2.0,3.0,252.0,410.0,2.0,1020.0,1744252750.539107,0.0,2025-04-09 22:39:10.539,RIGHT,22
65.0,13697.461926634542,1925.4016191246058,-61480.574188300874,-58670.95991026878,-35253.08194793248,-32647.6061520107,-19382.762239308624,-21814.654387790488,0.0,0.0,0.0,193.0,1.0,154.0,0.0,2.0,3.0,250.0,410.0,2.0,1018.0,1744252750.5391157,0.0,2025-04-09 22:39:10.539,RIGHT,22
66.0,13765.05360186739,1944.8029333118122,-61478.763696999995,-58727.66628595189,-35216.425087025775,-32602.612090422168,-19688.578806946138,-21789.12869562253,0.0,0.0,0.0,193.0,1.0,155.0,0.0,2.0,3.0,252.0,411.0,2.0,1020.0,1744252750.5391243,0.0,2025-04-09 22:39:10.539,RIGHT,22
67.0,13704.390967415688,1948.4015641691167,-61454.713219966085,-58670.915206779864,-35179.231784252144,-32584.842453580197,-19603.597474527058,-21763.7371139213,0.0,0.0,0.0,193.0,1.0,154.0,0.0,2.0,3.0,249.0,410.0,2.0,1017.0,1744252750.5391376,0.0,2025-04-09 22:39:10.539,RIGHT,22
68.0,13623.142376320646,1923.1440929346197,-61505.38462464626,-58738.12690235698,-35211.35124103442,-32617.36424176267,-19557.709343160313,-21798.002338171285,0.0,0.0,0.0,193.0,1.0,154.0,0.0,2.0,3.0,251.0,410.0,2.0,1019.0,1744252750.5391464,0.0,2025-04-09 22:39:10.539,RIGHT,22
69.0,13650.165635367113,1901.418197324061,-61507.843316536346,-58684.23684647523,-35262.33557013697,-32665.7110650195,-19451.76207444216,-21838.36958865757,0.0,0.0,0.0,193.0,1.0,154.0,0.0,2.0,3.0,250.0,410.0,2.0,1018.0,1744252750.5391552,0.0,2025-04-09 22:39:10.539,RIGHT,22
70.0,13753.877729639737,1926.8321307697454,-61513.766528817,-58724.78291091716,-35251.04793918705,-32644.722776975967,-19604.91622744992,-21831.395844387513,0.0,0.0,0.0,193.0,1.0,154.0,0.0,2.0,3.0,251.0,410.0,2.0,1019.0,1744252750.5391638,0.0,2025-04-09 22:39:10.539,RIGHT,22
71.0,13714.784528587405,1946.2334449569519,-61461.97753691406,-58666.55661661108,-35179.85763309689,-32577.511081398858,-19694.99375760481,-21762.910099376455,0.0,0.0,0.0,193.0,1.0,154.0,0.0,2.0,3.0,250.0,410.0,2.0,1018.0,1744252750.5391724,0.0,2025-04-09 22:39:10.539,RIGHT,22
72.0,13648.377495810688,1941.7183925769798,-61498.053252464924,-58705.78392813014,-35197.78373215005,-32600.511026443368,-19533.658866126403,-21777.10345710557,0.0,0.0,0.0,193.0,1.0,154.0,0.0,2.0,3.0,250.0,410.0,2.0,1018.0,1744252750.5391808,0.0,2025-04-09 22:39:10.539,RIGHT,22
73.0,13636.061684615814,1906.5143950598713,-61508.335054914365,-58682.180485985344,-35247.22579088519,-32645.885067687643,-19509.76485130368,-21817.336597125126,0.0,0.0,0.0,193.0,1.0,154.0,0.0,2.0,3.0,249.0,410.0,2.0,1017.0,1744252750.5391896,0.0,2025-04-09 22:39:10.539,RIGHT,22
74.0,13760.493845998508,1942.3665931661837,-61510.34671191534,-58686.22615173175,-35253.88661073287,-32641.146497863116,-19493.425726106852,-21827.03725421873,0.0,0.0,0.0,193.0,1.0,154.0,0.0,2.0,3.0,251.0,410.0,2.0,1019.0,1744252750.539198,0.0,2025-04-09 22:39:10.539,RIGHT,22
75.0,13728.396740960687,1954.8612183167004,-61461.46344679159,-58665.260215432674,-35175.07435978346,-32567.363389416147,-19757.109255446107,-21770.53204423571,0.0,0.0,0.0,193.0,1.0,154.0,0.0,2.0,3.0,250.0,410.0,2.0,1018.0,1744252750.5392065,0.0,2025-04-09 22:39:10.539,RIGHT,22
76.0,13665.36482159672,1946.09933449022,-61494.61108381881,-58685.354433698,-35194.87800537086,-32590.11746527165,-19511.776508304658,-21776.45525651637,0.0,0.0,0.0,193.0,1.0,155.0,0.0,2.0,3.0,252.0,411.0,2.0,1020.0,1744252750.539215,0.0,2025-04-09 22:39:10.539,RIGHT,22
77.0,13619.677855930073,1903.5639647917708,-61519.019188764,-58697.26791349267,-35244.47652631719,-32632.630483225643,-19562.939651362856,-21802.584445784625,0.0,0.0,0.0,193.0,1.0,154.0,0.0,2.0,3.0,250.0,410.0,2.0,1018.0,1744252750.539224,0.0,2025-04-09 22:39:10.539,RIGHT,22
78.0,13738.566784687851,1922.1606161785862,-61525.970581289606,-58679.721794095254,-35278.11590172242,-32664.6605330301,-19421.69897814977,-21841.498832881312,0.0,0.0,0.0,193.0,1.0,155.0,0.0,2.0,3.0,252.0,411.0,2.0,1020.0,1744252750.5392325,0.0,2025-04-09 22:39:10.539,RIGHT,22
79.0,13738.566784687851,1949.3179856917843,-61466.49258929403,-58680.638215617924,-35182.11515928688,-32567.989238260896,-19806.081927547686,-21765.88288138901,0.0,0.0,0.0,193.0,1.0,154.0,0.0,2.0,3.0,250.0,410.0,2.0,1018.0,1744252750.5392413,0.0,2025-04-09 22:39:10.539,RIGHT,22
80.0,13685.995481728969,1962.8184393427898,-61476.72968825456,-58662.265081675665,-35184.417388965776,-32582.62963087912,-19496.37615637495,-21766.620488956036,0.0,0.0,0.0,193.0,1.0,155.0,0.0,2.0,3.0,252.0,411.0,2.0,1020.0,1744252750.53925,0.0,2025-04-09 22:39:10.539,RIGHT,22
81.0,13631.725446191484,1929.3131744042844,-61495.84042976385,-58699.167811771375,-35209.40663926681,-32613.475038227447,-19594.45561104484,-21801.086878906117,0.0,0.0,0.0,193.0,1.0,154.0,0.0,2.0,3.0,250.0,410.0,2.0,1018.0,1744252750.5392585,0.0,2025-04-09 22:39:10.539,RIGHT,22
82.0,13738.566784687851,1941.5395786213373,-61500.04255772145,-58654.33021239403,-35256.010026456126,-32663.31942836278,-19361.706896031727,-21849.813681818687,0.0,0.0,0.0,193.0,1.0,154.0,0.0,2.0,3.0,249.0,410.0,2.0,1017.0,1744252750.5392714,0.0,2025-04-09 22:39:10.539,RIGHT,22
83.0,13757.833988408327,1969.1216312791862,-61465.03972590443,-58694.31748322457,-35176.28135398404,-32572.683104596512,-19792.134439007576,-21770.621451213534,0.0,0.0,0.0,193.0,1.0,155.0,0.0,2.0,3.0,252.0,411.0,2.0,1020.0,1744252750.53928,0.0,2025-04-09 22:39:10.539,RIGHT,22
84.0,13698.959493513048,1966.4617736890048,-61466.939624183135,-58654.30786064958,-35175.96842956167,-32577.421674421035,-19509.451926881306,-21761.479587731315,0.0,0.0,0.0,193.0,1.0,154.0,0.0,2.0,3.0,250.0,410.0,2.0,1018.0,1744252750.5392883,0.0,2025-04-09 22:39:10.539,RIGHT,22
85.0,13624.639943199152,1927.7709040368682,-61503.64118857875,-58717.831518391555,-35208.19964506622,-32608.200026535993,-19600.78115472569,-21800.259864361273,0.0,0.0,0.0,193.0,1.0,154.0,0.0,2.0,3.0,252.0,410.0,2.0,1020.0,1744252750.539297,0.0,2025-04-09 22:39:10.539,RIGHT,22
86.0,13703.42984240411,1922.9205754900665,-61507.284522924965,-58658.71115430727,-35262.8720120039,-32665.822823741775,-19366.601928067437,-21841.789405559233,0.0,0.0,0.0,193.0,1.0,154.0,0.0,2.0,3.0,249.0,410.0,2.0,1017.0,1744252750.5393057,0.0,2025-04-09 22:39:10.539,RIGHT,22
87.0,13751.217872049556,1943.2830146888514,-61491.79476401744,-58717.563297458095,-35206.366802020886,-32596.532415930324,-19751.946002476932,-21792.034422401717,0.0,0.0,0.0,193.0,1.0,155.0,0.0,2.0,3.0,253.0,411.0,2.0,1021.0,1744252750.539314,0.0,2025-04-09 22:39:10.539,RIGHT,22
88.0,13697.439574890088,1950.5249798923708,-61467.587824772345,-58657.03477347312,-35178.114197029376,-32582.786093090308,-19568.326421776586,-21778.891596661997,0.0,0.0,0.0,193.0,1.0,154.0,0.0,2.0,3.0,250.0,410.0,2.0,1018.0,1744252750.5393224,0.0,2025-04-09 22:39:10.539,RIGHT,22
89.0,13623.12002457619,1930.0284302268542,-61506.07752872438,-58723.39710276093,-35201.82939789646,-32605.383706734625,-19589.091192375567,-21799.656367260977,0.0,0.0,0.0,193.0,1.0,155.0,0.0,2.0,3.0,252.0,411.0,2.0,1020.0,1744252750.5393307,0.0,2025-04-09 22:39:10.539,RIGHT,22
90.0,13676.004251957447,1914.5386713193263,-61503.574133345384,-58661.81804678655,-35253.3725206104,-32655.205745125502,-19408.17617275431,-21830.23355367584,0.0,0.0,0.0,193.0,1.0,154.0,0.0,2.0,3.0,249.0,410.0,2.0,1017.0,1744252750.5393395,0.0,2025-04-09 22:39:10.539,RIGHT,22
91.0,13755.017668606957,1934.319965162273,-61504.289389167956,-58725.162890572894,-35224.91874991879,-32623.35450927669,-19675.257167250773,-21819.594123315113,0.0,0.0,0.0,193.0,1.0,155.0,0.0,2.0,3.0,251.0,411.0,2.0,1019.0,1744252750.539348,0.0,2025-04-09 22:39:10.539,RIGHT,22
92.0,13711.901153552672,1957.901055562622,-61453.21565308758,-58656.02894497263,-35163.227935222145,-32572.996029018886,-19644.434111646904,-21768.207462812363,0.0,0.0,0.0,193.0,1.0,154.0,0.0,2.0,3.0,249.0,410.0,2.0,1017.0,1744252750.5393567,0.0,2025-04-09 22:39:10.539,RIGHT,22
93.0,13643.035428885869,1945.2946716898289,-61492.264150651,-58713.83055613405,-35186.6078599224,-32597.426485708536,-19557.39641873794,-21792.436753801914,0.0,0.0,0.0,193.0,1.0,155.0,0.0,2.0,3.0,251.0,411.0,2.0,1019.0,1744252750.5393653,0.0,2025-04-09 22:39:10.539,RIGHT,22
94.0,13645.583527753775,1903.4522060694942,-61507.17276420269,-58685.62265463146,-35247.114032162914,-32664.057035929807,-19469.24113860621,-21854.507548154303,0.0,0.0,0.0,193.0,1.0,154.0,0.0,2.0,3.0,249.0,410.0,2.0,1017.0,1744252750.5393736,0.0,2025-04-09 22:39:10.539,RIGHT,22
95.0,13760.315032042865,1940.4219913985721,-61504.31174091241,-58713.67409392287,-35238.2180378697,-32641.302960074303,-19577.267119558706,-21848.986667273843,0.0,0.0,0.0,193.0,1.0,155.0,0.0,2.0,3.0,252.0,411.0,2.0,1020.0,1744252750.5393822,0.0,2025-04-09 22:39:10.539,RIGHT,22
96.0,13721.758272857462,1957.9457590515328,-61447.15833034019,-58661.3933636419,-35163.63026662234,-32561.171956202026,-19716.049100881708,-21753.857642872055,0.0,0.0,0.0,193.0,1.0,154.0,0.0,2.0,3.0,249.0,410.0,2.0,1017.0,1744252750.5393908,0.0,2025-04-09 22:39:10.539,RIGHT,22
97.0,13659.888644205172,1959.0856980187534,-61481.26709237899,-58695.83740184754,-35181.71282788668,-32584.50717741337,-19522.28182819865,-21769.526215735223,0.0,0.0,0.0,193.0,1.0,155.0,0.0,2.0,3.0,251.0,411.0,2.0,1019.0,1744252750.5394037,0.0,2025-04-09 22:39:10.539,RIGHT,22
98.0,13632.261888058412,1913.488139329927,-61498.79086003195,-58689.19893374431,-35230.35022382143,-32637.279646072348,-19518.57143861907,-21818.968274470364,0.0,0.0,0.0,193.0,1.0,154.0,0.0,2.0,3.0,252.0,410.0,2.0,1020.0,1744252750.5394123,0.0,2025-04-09 22:39:10.539,RIGHT,22
99.0,13748.021572592446,1930.386058138139,-61508.402110147734,-58693.69163437982,-35247.02462518509,-32648.008483410897,-19454.51133901016,-21834.905068267,0.0,0.0,0.0,193.0,1.0,155.0,0.0,2.0,3.0,251.0,411.0,2.0,1019.0,1744252750.5394208,0.0,2025-04-09 22:39:10.539,RIGHT,22
100.0,13727.726188627028,1950.2791107033624,-61451.136940853234,-58671.67516609134,-35157.26001945257,-32560.702569568464,-19756.170482178986,-21761.68075343141,0.0,0.0,0.0,193.0,1.0,154.0,0.0,2.0,3.0,250.0,410.0,2.0,1018.0,1744252750.5394292,0.0,2025-04-09 22:39:10.539,RIGHT,22
101.0,13661.98970818397,1944.869988545178,-61488.39729886023,-58688.394270943914,-35187.65839191179,-32597.06885779725,-19490.408240605386,-21793.084954391117,0.0,0.0,0.0,193.0,1.0,154.0,0.0,2.0,3.0,251.0,410.0,2.0,1019.0,1744252750.5394378,0.0,2025-04-09 22:39:10.539,RIGHT,22
102.0,13617.822661140282,1912.6611247850806,-61503.84235427885,-58702.90055309541,-35223.10825861791,-32628.49541050141,-19572.506197989725,-21816.062547691174,0.0,0.0,0.0,193.0,1.0,155.0,0.0,2.0,3.0,252.0,411.0,2.0,1020.0,1744252751.0142405,0.0,2025-04-09 22:39:11.014,RIGHT,22
103.0,13741.360752744766,1937.6727268305692,-61500.35548214382,-58667.33892766702,-35246.57759029599,-32651.18243112355,-19385.42209689881,-21828.98185598634,0.0,0.0,0.0,193.0,1.0,154.0,0.0,2.0,3.0,249.0,410.0,2.0,1017.0,1744252751.0142827,0.0,2025-04-09 22:39:11.014,RIGHT,22
104.0,13740.645496922196,1948.0886397467423,-61456.97074615607,-58685.77911684265,-35161.059816009976,-32563.36242715865,-19781.182084224474,-21754.6846574169,0.0,0.0,0.0,193.0,1.0,155.0,0.0,2.0,3.0,252.0,411.0,2.0,1020.0,1744252751.014303,0.0,2025-04-09 22:39:11.014,RIGHT,22
105.0,13669.455190832043,1943.037145499843,-61483.591673802344,-58674.983224270734,-35183.32215348746,-32591.50327342788,-19485.177932402843,-21772.40959076996,0.0,0.0,0.0,193.0,1.0,154.0,0.0,2.0,3.0,250.0,410.0,2.0,1018.0,1744252751.0143206,0.0,2025-04-09 22:39:11.014,RIGHT,22
106.0,13610.133661047657,1913.488139329927,-61504.624665334784,-58713.76350090069,-35208.02083111058,-32615.151419061593,-19580.552825993636,-21794.85074220309,0.0,0.0,0.0,193.0,1.0,155.0,0.0,2.0,3.0,253.0,411.0,2.0,1021.0,1744252751.014338,0.0,2025-04-09 22:39:11.014,RIGHT,22
107.0,13711.744691341484,1922.741761534424,-61507.39628164724,-58659.62757582994,-35262.492032348164,-32663.386483596147,-19340.763311477105,-21833.69807406641,0.0,0.0,0.0,193.0,1.0,155.0,0.0,2.0,3.0,252.0,411.0,2.0,1020.0,1744252751.0143552,0.0,2025-04-09 22:39:11.014,RIGHT,22
108.0,13729.581383416818,1937.359802408195,-61486.74326977054,-58714.32229451207,-35200.622403695874,-32593.06789553975,-19784.8701220596,-21791.006242156775,0.0,0.0,0.0,193.0,1.0,155.0,0.0,2.0,3.0,251.0,411.0,2.0,1019.0,1744252751.0143733,0.0,2025-04-09 22:39:11.014,RIGHT,22
109.0,13678.351185125255,1944.6688228450803,-61479.2107318891,-58665.394325899404,-35193.51454895909,-32595.526587429835,-19535.49170917174,-21792.101477635086,0.0,0.0,0.0,193.0,1.0,154.0,0.0,2.0,3.0,250.0,410.0,2.0,1018.0,1744252751.0143907,0.0,2025-04-09 22:39:11.014,RIGHT,22
110.0,13608.859611613705,1916.4832730869382,-61510.65963633772,-58724.49233823924,-35215.2627963141,-32615.889026628618,-19606.324387350607,-21811.65925403348,0.0,0.0,0.0,193.0,1.0,155.0,0.0,2.0,3.0,252.0,411.0,2.0,1020.0,1744252751.0144083,0.0,2025-04-09 22:39:11.014,RIGHT,22
111.0,13683.000347971958,1911.0965026732092,-61505.76460430201,-58657.861788017966,-35261.84383175896,-32661.5089370619,-19368.30066064604,-21837.94490551292,0.0,0.0,0.0,193.0,1.0,154.0,0.0,2.0,3.0,250.0,410.0,2.0,1018.0,1744252751.0144174,0.0,2025-04-09 22:39:11.014,RIGHT,22
112.0,13742.567746945351,1934.744648306924,-61491.68300529516,-58717.76446315819,-35211.194778823236,-32599.996936320895,-19726.688531242435,-21800.393974828003,0.0,0.0,0.0,193.0,1.0,154.0,0.0,2.0,3.0,250.0,410.0,2.0,1018.0,1744252751.0144567,0.0,2025-04-09 22:39:11.014,RIGHT,22
113.0,13689.035318974891,1938.879721031156,-61461.86577819178,-58655.31368915006,-35174.71673187217,-32571.945497029486,-19569.53341597717,-21757.433921984903,0.0,0.0,0.0,193.0,1.0,154.0,0.0,2.0,3.0,249.0,410.0,2.0,1017.0,1744252751.0144658,0.0,2025-04-09 22:39:11.014,RIGHT,22
114.0,13617.867364629194,1923.5017208459046,-61500.48959261055,-58721.966591115786,-35196.86731062738,-32597.31472698626,-19557.798750138136,-21788.346384566594,0.0,0.0,0.0,193.0,1.0,154.0,0.0,2.0,3.0,252.0,410.0,2.0,1020.0,1744252751.0144749,0.0,2025-04-09 22:39:11.014,RIGHT,22
115.0,13662.660260517629,1913.3540288631953,-61495.66161580821,-58663.96381425427,-35248.41043334132,-32648.902553189106,-19409.182001254798,-21836.626152590055,0.0,0.0,0.0,193.0,1.0,154.0,0.0,2.0,3.0,250.0,410.0,2.0,1018.0,1744252751.0144837,0.0,2025-04-09 22:39:11.014,RIGHT,22
116.0,13750.077933082335,1937.1809884525526,-61495.97454023058,-58718.4126637474,-35226.43866854175,-32617.565407462767,-19628.877297506013,-21819.236495403828,0.0,0.0,0.0,193.0,1.0,154.0,0.0,2.0,3.0,251.0,410.0,2.0,1019.0,1744252751.0144925,0.0,2025-04-09 22:39:11.014,RIGHT,22
117.0,13700.14413596918,1941.8748547881669,-61452.4556937761,-58662.42154388685,-35169.84405158091,-32571.096130740185,-19640.36609415604,-21768.74390467929,0.0,0.0,0.0,193.0,1.0,155.0,0.0,2.0,3.0,251.0,411.0,2.0,1019.0,1744252751.014501,0.0,2025-04-09 22:39:11.014,RIGHT,22
118.0,13624.371722265689,1918.8525579992008,-61502.09891821133,-58726.32518128457,-35199.705982173204,-32609.250558525393,-19532.653037625914,-21809.55819005468,0.0,0.0,0.0,193.0,1.0,154.0,0.0,2.0,3.0,249.0,410.0,2.0,1017.0,1744252751.01451,0.0,2025-04-09 22:39:11.014,RIGHT,22
119.0,13637.112216605214,1902.3793223356395,-61496.734499542064,-58681.44287841832,-35239.33562509246,-32640.69946297401,-19482.696888768303,-21837.542574112722,0.0,0.0,0.0,193.0,1.0,154.0,0.0,7.0,3.0,252.0,410.0,7.0,1020.0,1744252751.014519,0.0,2025-04-09 22:39:11.014,RIGHT,22
120.0,13745.272308024445,1924.5075493463935,-61507.88802002526,-58713.495279967225,-35251.62908454288,-32635.916189660573,-19538.57624990657,-21837.520222368268,0.0,0.0,0.0,193.0,1.0,154.0,0.0,17.0,3.0,249.0,410.0,17.0,1017.0,1744252751.014528,0.0,2025-04-09 22:39:11.014,RIGHT,22
121.0,13711.297656452378,1937.4492093860163,-61451.44986527561,-58674.75970682618,-35171.22985973714,-32561.998970746874,-19720.407691050495,-21763.245375543283,0.0,0.0,0.0,193.0,1.0,155.0,0.0,28.0,3.0,251.0,411.0,28.0,1019.0,1744252751.0145369,0.0,2025-04-09 22:39:11.014,RIGHT,22
122.0,13648.17633011059,1931.6601075720916,-61486.765621515,-58708.04145432013,-35191.92757510276,-32593.82785485123,-19504.489839612226,-21788.83812294461,0.0,0.0,0.0,193.0,1.0,154.0,0.0,36.0,3.0,249.0,410.0,36.0,1017.0,1744252751.0145457,0.0,2025-04-09 22:39:11.014,RIGHT,22
123.0,13619.499041974432,1902.4687293134607,-61496.667444308696,-58701.17946877235,-35233.43476455627,-32634.12805010415,-19537.168090005885,-21826.523164096256,0.0,0.0,0.0,193.0,1.0,155.0,0.0,39.0,3.0,252.0,411.0,39.0,1020.0,1744252751.0145545,0.0,2025-04-09 22:39:11.014,RIGHT,22
124.0,13735.169319530645,1918.0255434543544,-61508.58092410337,-58699.0560530491,-35265.59892482745,-32657.552678293312,-19441.681437692816,-21855.60278363261,0.0,0.0,0.0,193.0,1.0,155.0,0.0,39.0,3.0,251.0,411.0,39.0,1019.0,1744252751.0145638,0.0,2025-04-09 22:39:11.014,RIGHT,22
125.0,13721.490051923998,1939.4385146425386,-61455.31671706638,-58689.40009944441,-35180.17055751927,-32568.30216268327,-19791.95562505193,-21783.36194555306,0.0,0.0,0.0,193.0,1.0,154.0,0.0,39.0,3.0,250.0,410.0,39.0,1018.0,1744252751.0145724,0.0,2025-04-09 22:39:11.014,RIGHT,22
126.0,13654.390115069165,1929.6260988266588,-61486.34093837035,-58695.815050103076,-35197.38140074985,-32598.11938978665,-19490.922330727855,-21791.632091001524,0.0,0.0,0.0,193.0,1.0,154.0,0.0,39.0,3.0,249.0,410.0,39.0,1017.0,1744252751.0145817,0.0,2025-04-09 22:39:11.014,RIGHT,22
127.0,13596.387338207644,1883.3132843152625,-61515.55466837343,-58730.19203307534,-35239.134459392364,-32640.23007634045,-19580.39636378245,-21831.775824043256,0.0,0.0,0.0,193.0,1.0,154.0,0.0,38.0,3.0,251.0,410.0,38.0,1019.0,1744252751.014596,0.0,2025-04-09 22:39:11.014,RIGHT,22
128.0,13725.66982813714,1913.4434358410165,-61509.92202877069,-58682.180485985344,-35270.85158477445,-32666.94041096454,-19390.18301846779,-21857.122702255572,0.0,0.0,0.0,193.0,1.0,154.0,0.0,39.0,3.0,250.0,410.0,39.0,1018.0,1744252751.0146048,0.0,2025-04-09 22:39:11.014,RIGHT,22
129.0,13744.400589990688,1952.3131194487953,-61454.31088856589,-58692.9540268128,-35173.353275460395,-32561.77545330232,-19802.997386812855,-21771.336707036106,0.0,0.0,0.0,193.0,1.0,155.0,0.0,39.0,3.0,252.0,411.0,39.0,1020.0,1744252751.0146136,0.0,2025-04-09 22:39:11.014,RIGHT,22
130.0,13683.067403205325,1950.9273112925664,-61467.990156172535,-58667.09305847801,-35182.6068976649,-32581.668505867543,-19496.19734241931,-21777.10345710557,0.0,0.0,0.0,193.0,1.0,154.0,0.0,39.0,3.0,250.0,410.0,39.0,1018.0,1744252751.0146224,0.0,2025-04-09 22:39:11.014,RIGHT,22
131.0,13612.055911070815,1904.2121653809745,-61507.06100548041,-58729.54383248614,-35221.49893301713,-32624.203875565992,-19595.707308734334,-21819.772937270754,0.0,0.0,0.0,193.0,1.0,154.0,0.0,39.0,3.0,249.0,410.0,39.0,1017.0,1744252751.0146313,0.0,2025-04-09 22:39:11.014,RIGHT,22
132.0,13714.270438464933,1916.7961975093124,-61503.998816490035,-58668.7470875677,-35269.331666151484,-32672.304829633813,-19358.64470704135,-21858.88849006754,0.0,0.0,0.0,193.0,1.0,155.0,0.0,39.0,3.0,252.0,411.0,39.0,1020.0,1744252751.01464,0.0,2025-04-09 22:39:11.014,RIGHT,22
133.0,13750.256747037978,1939.2820524313513,-61482.89876972423,-58728.247431307725,-35207.66320319929,-32607.88710211362,-19783.90899704802,-21822.16457392747,0.0,0.0,0.0,193.0,1.0,154.0,0.0,40.0,3.0,249.0,410.0,40.0,1017.0,1744252751.014649,0.0,2025-04-09 22:39:11.014,RIGHT,22
134.0,13704.167449971135,1957.163447995597,-61457.104856622806,-58661.25925317517,-35178.315362729474,-32588.329325715225,-19548.992162822746,-21788.525198522235,0.0,0.0,0.0,193.0,1.0,155.0,0.0,40.0,3.0,251.0,411.0,40.0,1019.0,1744252751.0146575,0.0,2025-04-09 22:39:11.014,RIGHT,22
135.0,13614.358140749711,1915.2539271418964,-61509.74321481505,-58738.864509924,-35221.78950569505,-32624.18152382154,-19598.054241902144,-21820.376434371046,0.0,0.0,0.0,193.0,1.0,154.0,0.0,40.0,3.0,250.0,410.0,40.0,1018.0,1744252751.0146663,0.0,2025-04-09 22:39:11.014,RIGHT,22
136.0,13675.42310660161,1898.8030432227904,-61513.095976483346,-58680.34764294,-35276.99831449966,-32678.47391110348,-19398.386108682884,-21868.276222738772,0.0,0.0,0.0,193.0,1.0,154.0,0.0,40.0,3.0,251.0,410.0,40.0,1019.0,1744252751.0146751,0.0,2025-04-09 22:39:11.014,RIGHT,22
137.0,13756.090552340813,1936.6221948411699,-61486.40799360371,-58722.860660894,-35214.10050560242,-32601.427447966034,-19712.24930432431,-21807.7476987538,0.0,0.0,0.0,193.0,1.0,154.0,0.0,41.0,3.0,250.0,410.0,41.0,1018.0,1744252751.014684,0.0,2025-04-09 22:39:11.014,RIGHT,22
138.0,13701.529944125408,1945.6746513455691,-61452.94743215411,-58659.4934653632,-35174.91789757227,-32575.70059009798,-19602.50223904875,-21779.048058873184,0.0,0.0,0.0,193.0,1.0,154.0,0.0,41.0,3.0,249.0,410.0,41.0,1017.0,1744252751.0146928,0.0,2025-04-09 22:39:11.014,RIGHT,22
139.0,13623.03061759837,1916.5726800647594,-61501.02603447748,-58733.4106842769,-35205.11510433139,-32612.111581815672,-19570.896872388945,-21817.962445969875,0.0,0.0,0.0,193.0,1.0,154.0,0.0,41.0,3.0,252.0,410.0,41.0,1020.0,1744252751.0147016,0.0,2025-04-09 22:39:11.014,RIGHT,22
140.0,13656.04414415886,1901.261735112874,-61498.29912165393,-58679.83355281753,-35254.98184621118,-32662.090082417737,-19452.18675758681,-21857.681495866957,0.0,0.0,0.0,193.0,1.0,154.0,0.0,41.0,3.0,250.0,410.0,41.0,1018.0,1744252751.0147104,0.0,2025-04-09 22:39:11.014,RIGHT,22
141.0,13746.81457839186,1931.9953837389212,-61505.45167987963,-58728.58270747456,-35244.521229806094,-32640.16302110708,-19623.46817534783,-21841.677646836957,0.0,0.0,0.0,193.0,1.0,155.0,0.0,41.0,3.0,252.0,411.0,41.0,1020.0,1744252751.014719,0.0,2025-04-09 22:39:11.014,RIGHT,22
142.0,13705.620313360729,1948.3345089357508,-61450.62285073076,-58671.78692481363,-35175.11906327237,-32578.49455815489,-19689.294062768706,-21780.03153562922,0.0,0.0,0.0,193.0,1.0,154.0,0.0,42.0,3.0,249.0,410.0,42.0,1017.0,1744252751.0147326,0.0,2025-04-09 22:39:11.014,RIGHT,22
143.0,13646.723466720996,1940.779619309857,-61484.68690928065,-58711.9083061109,-35194.63213618185,-32595.571290918746,-19542.353694719517,-21796.370660826047,0.0,0.0,0.0,193.0,1.0,154.0,0.0,42.0,3.0,252.0,410.0,42.0,1020.0,1744252751.0147412,0.0,2025-04-09 22:39:11.014,RIGHT,22
144.0,13645.069437631302,1911.007095695388,-61490.230141905566,-58681.688747607324,-35239.22386637019,-32638.687805973033,-19508.91548501438,-21838.704864824398,0.0,0.0,0.0,193.0,1.0,154.0,0.0,42.0,3.0,250.0,410.0,42.0,1018.0,1744252751.01475,0.0,2025-04-09 22:39:11.014,RIGHT,22
145.0,13759.800941920394,1931.6377558276363,-61497.136830942254,-58700.39715771642,-35245.59411353995,-32642.46525078598,-19509.407223392394,-21851.847690564122,0.0,0.0,0.0,193.0,1.0,155.0,0.0,42.0,3.0,250.0,411.0,42.0,1018.0,1744252751.0147588,0.0,2025-04-09 22:39:11.014,RIGHT,22
146.0,13727.86029909376,1946.7475350794239,-61440.98924887052,-58670.22230270175,-35164.14435674481,-32558.936781756496,-19742.24534538333,-21763.647706943477,0.0,0.0,0.0,193.0,1.0,154.0,0.0,42.0,3.0,250.0,410.0,42.0,1018.0,1744252751.0147676,0.0,2025-04-09 22:39:11.014,RIGHT,22
147.0,13664.783676240884,1943.3500699222172,-61477.13201965476,-58695.5021256807,-35188.21718552318,-32589.133988515616,-19505.160391945887,-21789.06164038916,0.0,0.0,0.0,193.0,1.0,155.0,0.0,42.0,3.0,252.0,411.0,42.0,1020.0,1744252751.0147762,0.0,2025-04-09 22:39:11.014,RIGHT,22
148.0,13628.842071156749,1911.0965026732092,-61493.247627407036,-58701.42533796136,-35230.059651143514,-32631.915227403075,-19561.665601928904,-21832.781652543745,0.0,0.0,0.0,193.0,1.0,154.0,0.0,42.0,3.0,250.0,410.0,42.0,1018.0,1744252751.014785,0.0,2025-04-09 22:39:11.014,RIGHT,22
149.0,13754.548281973397,1936.9798227524548,-61492.30885413991,-58681.64404411842,-35257.37348286789,-32654.915172447585,-19426.437547974296,-21856.89918481102,0.0,0.0,0.0,193.0,1.0,155.0,0.0,42.0,3.0,252.0,411.0,42.0,1020.0,1744252751.0147939,0.0,2025-04-09 22:39:11.014,RIGHT,22
150.0,13740.243165522,1948.4686194024825,-61446.957164640095,-58692.35052971251,-35179.656467396795,-32572.504290640867,-19804.852581602645,-21786.044154887695,0.0,0.0,0.0,193.0,1.0,154.0,0.0,43.0,3.0,248.0,410.0,43.0,1016.0,1744252751.0148027,0.0,2025-04-09 22:39:11.014,RIGHT,22
151.0,13673.970243212014,1946.0769827457648,-61472.30404285241,-58691.03177678964,-35198.387229250344,-32599.16992177605,-19508.691967569826,-21797.801172471187,0.0,0.0,0.0,193.0,1.0,155.0,0.0,43.0,3.0,253.0,411.0,43.0,1021.0,1744252751.0148113,0.0,2025-04-09 22:39:11.014,RIGHT,22
152.0,13619.45433848552,1909.0177904388656,-61487.2126564041,-58718.390312002935,-35225.723412719184,-32623.533323232336,-19604.73741349428,-21825.673797806954,0.0,0.0,0.0,193.0,1.0,154.0,0.0,42.0,3.0,251.0,410.0,42.0,1019.0,1744252751.0148208,0.0,2025-04-09 22:39:11.014,RIGHT,22
153.0,13734.319953241344,1923.2558516568963,-61481.624720290274,-58667.07070673355,-35259.921581735805,-32659.027893427363,-19378.336593906475,-21855.401617932515,0.0,0.0,0.0,193.0,1.0,154.0,0.0,43.0,3.0,250.0,410.0,43.0,1018.0,1744252751.0148292,0.0,2025-04-09 22:39:11.014,RIGHT,22
154.0,13749.988526104515,1944.579415867259,-61445.5043012505,-58702.83349786205,-35176.996609806614,-32575.901755798073,-19795.353090209137,-21787.966404910854,0.0,0.0,0.0,193.0,1.0,154.0,0.0,43.0,3.0,249.0,410.0,43.0,1017.0,1744252751.0148377,0.0,2025-04-09 22:39:11.014,RIGHT,22
155.0,13688.074193963314,1946.3452036792285,-61453.93090891015,-58671.00461375769,-35182.6068976649,-32592.822026350743,-19510.927142015356,-21790.55920726767,0.0,0.0,0.0,193.0,1.0,155.0,0.0,43.0,3.0,251.0,411.0,43.0,1019.0,1744252751.01485,0.0,2025-04-09 22:39:11.014,RIGHT,22
156.0,13626.092806588747,1917.3996946096058,-61479.30013886692,-58722.88301263846,-35206.143284576334,-32610.703421914986,-19610.54886705266,-21810.98870169982,0.0,0.0,0.0,193.0,1.0,154.0,0.0,43.0,3.0,251.0,410.0,43.0,1019.0,1744252751.0148633,0.0,2025-04-09 22:39:11.014,RIGHT,22
157.0,13709.129537240213,1908.5260520608488,-61485.67038603668,-58666.4001543999,-35261.15092768084,-32666.89570747563,-19367.54070133456,-21859.648449379023,0.0,0.0,0.0,193.0,1.0,154.0,0.0,43.0,3.0,252.0,410.0,43.0,1020.0,1744252751.014872,0.0,2025-04-09 22:39:11.014,RIGHT,22
158.0,13753.788322661916,1939.550273364815,-61466.49258929403,-58723.59826846103,-35198.76720890608,-32595.34777347419,-19764.10535146062,-21808.17238189845,0.0,0.0,0.0,193.0,1.0,154.0,0.0,43.0,3.0,249.0,410.0,43.0,1017.0,1744252751.0148804,0.0,2025-04-09 22:39:11.014,RIGHT,22
159.0,13716.013874532448,1970.4403842020495,-61430.327466765346,-58646.864729745954,-35160.72453984315,-32563.228316691915,-19552.210814024307,-21761.25607028676,0.0,0.0,0.0,193.0,1.0,154.0,0.0,43.0,3.0,248.0,410.0,43.0,1016.0,1744252751.0148892,0.0,2025-04-09 22:39:11.014,RIGHT,22
160.0,13630.3172862908,1928.7543807929017,-61485.200999403125,-58730.59436447554,-35204.93629037575,-32607.775343391342,-19590.655814487436,-21814.54262906821,0.0,0.0,0.0,193.0,1.0,155.0,0.0,43.0,3.0,251.0,411.0,43.0,1019.0,1744252751.014898,0.0,2025-04-09 22:39:11.014,RIGHT,22
161.0,13688.498877107964,1916.2821073868404,-61482.29527262393,-58669.887026534925,-35256.23354390068,-32662.827689984762,-19414.099385034966,-21859.067304023185,0.0,0.0,0.0,193.0,1.0,154.0,0.0,43.0,3.0,250.0,410.0,43.0,1018.0,1744252751.0149064,0.0,2025-04-09 22:39:11.014,RIGHT,22
162.0,13774.396631049709,1950.904959548111,-61463.36334507029,-58714.59051544554,-35205.42802875376,-32603.282642755825,-19676.128885284532,-21811.12281216655,0.0,0.0,0.0,193.0,1.0,155.0,0.0,43.0,3.0,251.0,411.0,43.0,1019.0,1744252751.0149155,0.0,2025-04-09 22:39:11.014,RIGHT,22
163.0,13716.617371632741,1953.6318723716586,-61434.7531121675,-58662.01921248665,-35168.79351959151,-32577.91341279905,-19615.39919559946,-21780.813846685156,0.0,0.0,0.0,193.0,1.0,154.0,0.0,43.0,3.0,250.0,410.0,43.0,1018.0,1744252751.014924,0.0,2025-04-09 22:39:11.014,RIGHT,22
164.0,13637.805120683328,1929.9166715045776,-61486.810325003906,-58732.583669732056,-35205.383325264855,-32610.435200981523,-19562.11263681801,-21815.816678502164,0.0,0.0,0.0,193.0,1.0,155.0,0.0,43.0,3.0,252.0,411.0,43.0,1020.0,1744252751.0149329,0.0,2025-04-09 22:39:11.014,RIGHT,22
165.0,13660.872120961205,1911.6999997735024,-61485.44686859213,-58681.979320285245,-35253.86425898841,-32650.13189913415,-19470.537539784615,-21840.872984036563,0.0,0.0,0.0,193.0,1.0,154.0,0.0,43.0,3.0,249.0,410.0,43.0,1017.0,1744252751.0149417,0.0,2025-04-09 22:39:11.014,RIGHT,22
166.0,13769.188674591624,1944.937043778544,-61486.676214537176,-58717.92092536938,-35245.39294783985,-32629.054204112796,-19594.813238956125,-21834.569792100167,0.0,0.0,0.0,193.0,1.0,154.0,0.0,43.0,3.0,249.0,410.0,43.0,1017.0,1744252751.0149505,0.0,2025-04-09 22:39:11.014,RIGHT,22
167.0,13720.506575167963,1949.3626891806948,-61441.77155992646,-58679.20770397279,-35180.5058336861,-32577.332267443213,-19714.015092136277,-21790.51450377876,0.0,0.0,0.0,193.0,1.0,155.0,0.0,43.0,3.0,252.0,411.0,43.0,1020.0,1744252751.014959,0.0,2025-04-09 22:39:11.014,RIGHT,22
168.0,13649.718600478007,1935.5940145962256,-61480.41772608969,-58722.726550427265,-35200.24242404013,-32604.333174745225,-19532.00483703671,-21814.11794592356,0.0,0.0,0.0,193.0,1.0,154.0,0.0,44.0,3.0,249.0,410.0,44.0,1017.0,1744252751.014968,0.0,2025-04-09 22:39:11.014,RIGHT,22
169.0,13630.227879312979,1896.0537786547875,-61491.772412272985,-58706.83446011954,-35249.50566881963,-32645.08040488725,-19527.132156745454,-21841.811757303687,0.0,0.0,0.0,193.0,1.0,155.0,0.0,43.0,3.0,251.0,411.0,43.0,1019.0,1744252751.0149767,0.0,2025-04-09 22:39:11.014,RIGHT,22
170.0,13748.267441781456,1921.0206772113654,-61499.6178745768,-58717.071559080076,-35270.85158477445,-32663.542945807334,-19501.695871555316,-21869.43851345045,0.0,0.0,0.0,193.0,1.0,154.0,0.0,43.0,3.0,249.0,410.0,43.0,1017.0,1744252751.0149853,0.0,2025-04-09 22:39:11.014,RIGHT,22
171.0,13724.239316492,1941.807799554801,-61442.30800179339,-58690.629445389444,-35186.2055285222,-32575.67823835352,-19790.033375028775,-21789.59808225609,0.0,0.0,0.0,193.0,1.0,154.0,0.0,43.0,3.0,252.0,410.0,43.0,1020.0,1744252751.014999,0.0,2025-04-09 22:39:11.014,RIGHT,22
172.0,13669.075211176303,1955.3529566947172,-61465.77733347146,-58697.51378268168,-35196.59908969392,-32593.17965426203,-19526.14867998942,-21796.370660826047,0.0,0.0,0.0,193.0,1.0,154.0,0.0,44.0,3.0,249.0,410.0,44.0,1017.0,1744252751.0150075,0.0,2025-04-09 22:39:11.015,RIGHT,22
173.0,13624.349370521233,1914.8515957417007,-61480.440077834144,-58707.683826408844,-35230.79725871054,-32626.863733156173,-19585.06787837361,-21828.51246935278,0.0,0.0,0.0,193.0,1.0,154.0,0.0,43.0,3.0,252.0,410.0,43.0,1020.0,1744252751.0150163,0.0,2025-04-09 22:39:11.015,RIGHT,22
174.0,13740.980773089024,1926.8544825142008,-61486.98913895955,-58682.35929994098,-35267.0741399615,-32655.809242225798,-19408.04206228758,-21849.925440540963,0.0,0.0,0.0,193.0,1.0,155.0,0.0,43.0,3.0,251.0,411.0,43.0,1019.0,1744252751.015025,0.0,2025-04-09 22:39:11.015,RIGHT,22
175.0,13735.661057908663,1941.4278198990608,-61438.73172268054,-58697.37967221495,-35179.67881914125,-32561.73074981341,-19803.399718213048,-21767.380448267515,0.0,0.0,0.0,193.0,1.0,154.0,0.0,44.0,3.0,250.0,410.0,44.0,1018.0,1744252751.0150335,0.0,2025-04-09 22:39:11.015,RIGHT,22
176.0,13676.56304556883,1946.0769827457648,-61457.14956011171,-58684.5497708976,-35194.45332222621,-32588.105808270673,-19508.624912336458,-21791.02859390123,0.0,0.0,0.0,193.0,1.0,155.0,0.0,44.0,3.0,252.0,411.0,44.0,1020.0,1744252751.015042,0.0,2025-04-09 22:39:11.015,RIGHT,22
177.0,13616.056873328314,1912.9293457185443,-61479.88128422276,-58721.13957657094,-35225.92457841928,-32615.12906731714,-19615.242733388273,-21823.99741697281,0.0,0.0,0.0,193.0,1.0,154.0,0.0,44.0,3.0,249.0,410.0,44.0,1017.0,1744252751.015051,0.0,2025-04-09 22:39:11.015,RIGHT,22
178.0,13714.493955909486,1914.717485274969,-61485.268054636486,-58673.306843436585,-35271.49978536365,-32668.885012732153,-19371.966346736714,-21874.914690841997,0.0,0.0,0.0,193.0,1.0,155.0,0.0,43.0,3.0,251.0,411.0,43.0,1019.0,1744252751.0150597,0.0,2025-04-09 22:39:11.015,RIGHT,22
179.0,13741.852491122781,1942.0089652548988,-61446.8007024289,-58712.42239623337,-35188.19483377872,-32582.45081692348,-19790.68157561798,-21807.41242258697,0.0,0.0,0.0,193.0,1.0,154.0,0.0,44.0,3.0,249.0,410.0,44.0,1017.0,1744252751.0150683,0.0,2025-04-09 22:39:11.015,RIGHT,22
180.0,13689.370595141721,1951.039070014843,-61441.19041457062,-58664.85788403248,-35182.58454592044,-32586.049447780784,-19514.212848450286,-21786.960576410365,0.0,0.0,0.0,193.0,1.0,154.0,0.0,44.0,3.0,248.0,410.0,44.0,1016.0,1744252751.0150769,0.0,2025-04-09 22:39:11.015,RIGHT,22
181.0,13612.972332593481,1912.102331173698,-61482.98817670205,-58732.13663484295,-35219.24140682715,-32619.51000923038,-19592.533361021684,-21818.342425625615,0.0,0.0,0.0,193.0,1.0,154.0,0.0,44.0,3.0,250.0,410.0,44.0,1018.0,1744252751.0150857,0.0,2025-04-09 22:39:11.015,RIGHT,22
182.0,13691.426955631609,1908.23547938293,-61485.22335114758,-58669.01530850116,-35276.953611010744,-32671.388408111146,-19367.31718389001,-21863.202376747417,0.0,0.0,0.0,193.0,1.0,154.0,0.0,44.0,3.0,250.0,410.0,44.0,1018.0,1744252751.015094,0.0,2025-04-09 22:39:11.015,RIGHT,22
183.0,13748.468607481553,1936.778657052357,-61465.7102782381,-58724.760559172704,-35216.49214225914,-32598.70053514249,-19752.6612582995,-21817.448355847402,0.0,0.0,0.0,193.0,1.0,155.0,0.0,44.0,3.0,252.0,411.0,44.0,1020.0,1744252751.0151029,0.0,2025-04-09 22:39:11.015,RIGHT,22
184.0,13695.785545800394,1945.1158577341864,-61433.747283667006,-58657.05712521757,-35179.43294995224,-32571.7890348183,-19575.322517791097,-21774.93533789341,0.0,0.0,0.0,193.0,1.0,154.0,0.0,44.0,3.0,248.0,410.0,44.0,1016.0,1744252751.0151112,0.0,2025-04-09 22:39:11.015,RIGHT,22
185.0,13619.83431814126,1921.0653807002761,-61478.96486270009,-58730.30379179762,-35209.294880544534,-32606.814218379764,-19584.442029528862,-21820.64465530451,0.0,0.0,0.0,193.0,1.0,155.0,0.0,44.0,3.0,252.0,411.0,44.0,1020.0,1744252751.01512,0.0,2025-04-09 22:39:11.015,RIGHT,22
186.0,13669.544597809863,1909.7553980058908,-61473.868664964284,-58664.2990904211,-35256.65822704533,-32646.332102576747,-19413.31707397903,-21846.729141083855,0.0,0.0,0.0,193.0,1.0,154.0,0.0,44.0,3.0,251.0,410.0,44.0,1019.0,1744252751.0151331,0.0,2025-04-09 22:39:11.015,RIGHT,22
187.0,13765.143008845213,1948.490971146938,-61459.92117642417,-58703.0570153066,-35215.73218294766,-32594.565462418257,-19632.87825976351,-21807.524181309247,0.0,0.0,0.0,193.0,1.0,154.0,0.0,44.0,3.0,250.0,410.0,44.0,1018.0,1744252751.0151415,0.0,2025-04-09 22:39:11.015,RIGHT,22
188.0,13714.561011142852,1954.5035904054155,-61419.71038814908,-58647.53528207962,-35168.54765040251,-32560.85903177965,-19624.719873037324,-21775.9411663939,0.0,0.0,0.0,193.0,1.0,154.0,0.0,44.0,3.0,251.0,410.0,44.0,1019.0,1744252751.0151503,0.0,2025-04-09 22:39:11.015,RIGHT,22
189.0,13640.688495718063,1936.5327878633486,-61468.414839317185,-58714.6575706789,-35203.03639209705,-32595.03484905182,-19549.752122134225,-21810.6981290219,0.0,0.0,0.0,193.0,1.0,154.0,0.0,44.0,3.0,250.0,410.0,44.0,1018.0,1744252751.015159,0.0,2025-04-09 22:39:11.015,RIGHT,22
190.0,13639.325039306288,1898.3783600781394,-61480.95416795662,-58683.07455576355,-35258.75929102413,-32645.616846754176,-19476.885435209922,-21836.648504334513,0.0,0.0,0.0,193.0,1.0,154.0,0.0,44.0,3.0,251.0,410.0,44.0,1019.0,1744252751.0151677,0.0,2025-04-09 22:39:11.015,RIGHT,22
191.0,13757.632822708229,1937.0468779858206,-61474.60627253131,-58704.37576822946,-35244.34241585045,-32627.914265145573,-19543.24776449773,-21824.712672795376,0.0,0.0,0.0,193.0,1.0,154.0,0.0,44.0,3.0,250.0,410.0,44.0,1018.0,1744252751.015176,0.0,2025-04-09 22:39:11.015,RIGHT,22
192.0,13718.539621655897,1949.9885380254434,-61420.805623627384,-58664.008517743176,-35165.7983858345,-32558.48974686739,-19707.71190019988,-21767.64866920098,0.0,0.0,0.0,193.0,1.0,154.0,0.0,44.0,3.0,249.0,410.0,44.0,1017.0,1744252751.0151846,0.0,2025-04-09 22:39:11.015,RIGHT,22
193.0,13648.332792321777,1938.879721031156,-61462.893958436725,-58704.53223044065,-35194.766246648585,-32589.759837360365,-19505.361557645985,-21797.97998642683,0.0,0.0,0.0,193.0,1.0,154.0,0.0,44.0,3.0,249.0,410.0,44.0,1017.0,1744252751.0151932,0.0,2025-04-09 22:39:11.015,RIGHT,22
194.0,13628.50679498992,1907.4755200714494,-61472.08052540786,-58694.54100066912,-35238.68742450326,-32632.116393103173,-19521.47716539826,-21839.576582858157,0.0,0.0,0.0,193.0,1.0,155.0,0.0,44.0,3.0,252.0,411.0,44.0,1020.0,1744252751.0152016,0.0,2025-04-09 22:39:11.015,RIGHT,22
195.0,13746.658116180673,1929.7825610378459,-61482.22821739057,-58696.66441639238,-35264.54839283805,-32650.64598925662,-19447.247022062187,-21855.915708054985,0.0,0.0,0.0,193.0,1.0,154.0,0.0,44.0,3.0,249.0,410.0,44.0,1017.0,1744252751.0152104,0.0,2025-04-09 22:39:11.015,RIGHT,22
196.0,13732.554165429374,1953.743631093935,-61421.230306772035,-58681.353471440496,-35168.72646435815,-32560.970790501928,-19772.643717842548,-21778.332803050616,0.0,0.0,0.0,193.0,1.0,155.0,0.0,44.0,3.0,252.0,411.0,44.0,1020.0,1744252751.015219,0.0,2025-04-09 22:39:11.015,RIGHT,22
197.0,13668.806990242838,1945.1382094786418,-61448.87941466325,-58687.88018082144,-35189.44653146822,-32586.004744291873,-19493.425726106852,-21788.07816363313,0.0,0.0,0.0,193.0,1.0,154.0,0.0,44.0,3.0,249.0,410.0,44.0,1017.0,1744252751.0152276,0.0,2025-04-09 22:39:11.015,RIGHT,22
198.0,13620.102539074725,1902.9828194359327,-61466.5596445274,-58707.683826408844,-35226.773944708584,-32617.274834784846,-19576.35069803604,-21813.76031801228,0.0,0.0,0.0,193.0,1.0,155.0,0.0,44.0,3.0,252.0,411.0,44.0,1020.0,1744252751.015236,0.0,2025-04-09 22:39:11.015,RIGHT,22
199.0,13732.241241007,1913.778712007846,-61472.97459518607,-58676.726660338245,-35261.575610825494,-32656.457442815,-19367.87597750139,-21847.198527717417,0.0,0.0,0.0,193.0,1.0,154.0,0.0,44.0,3.0,249.0,410.0,44.0,1017.0,1744252751.0152445,0.0,2025-04-09 22:39:11.015,RIGHT,22
200.0,13740.466682966553,1940.3102326762955,-61425.81241438537,-58696.32914022555,-35173.39797894931,-32562.043674235785,-19777.96343302291,-21772.40959076996,0.0,0.0,0.0,193.0,1.0,155.0,0.0,44.0,3.0,251.0,411.0,44.0,1019.0,1744252751.0152538,0.0,2025-04-09 22:39:11.015,RIGHT,22
201.0,13685.190818928579,1950.1226484921754,-61434.082559833834,-58666.377802655436,-35177.37658946235,-32575.00768601986,-19484.730897513735,-21774.711820448854,0.0,0.0,0.0,193.0,1.0,154.0,0.0,44.0,3.0,250.0,410.0,44.0,1018.0,1744252751.0152733,0.0,2025-04-09 22:39:11.015,RIGHT,22
202.0,13611.11713780369,1904.6144967811701,-61470.381792829256,-58720.71489342629,-35214.748706191625,-32609.272910269847,-19585.0231748847,-21812.64273078951,0.0,0.0,0.0,193.0,1.0,154.0,0.0,44.0,3.0,251.0,410.0,44.0,1019.0,1744252751.0152872,0.0,2025-04-09 22:39:11.015,RIGHT,22
203.0,13712.839926819794,1913.0411044408208,-61467.05138290541,-58660.18636944132,-35262.24616315915,-32655.451614314512,-19347.20061388023,-21850.260716707795,0.0,0.0,0.0,193.0,1.0,155.0,0.0,44.0,3.0,252.0,411.0,44.0,1020.0,1744252751.0152955,0.0,2025-04-09 22:39:11.015,RIGHT,22
204.0,13753.095418583802,1942.903035033111,-61431.95914411058,-58704.420471718375,-35186.719618644674,-32567.29633418278,-19768.642755585046,-21780.7914949407,0.0,0.0,0.0,193.0,1.0,154.0,0.0,44.0,3.0,249.0,410.0,44.0,1017.0,1744252751.0153043,0.0,2025-04-09 22:39:11.015,RIGHT,22
205.0,13694.779717299905,1946.0769827457648,-61427.15351905269,-58659.113485707465,-35179.43294995224,-32573.666581352543,-19518.124403729966,-21777.997526883784,0.0,0.0,0.0,193.0,1.0,155.0,0.0,44.0,3.0,251.0,411.0,44.0,1019.0,1744252751.0153131,0.0,2025-04-09 22:39:11.015,RIGHT,22
206.0,13615.095748316735,1911.007095695388,-61474.49451380903,-58737.23283257876,-35214.34637479143,-32620.4487824975,-19589.761744709223,-21835.217992689373,0.0,0.0,0.0,193.0,1.0,154.0,0.0,44.0,3.0,249.0,410.0,44.0,1017.0,1744252751.015322,0.0,2025-04-09 22:39:11.015,RIGHT,22
207.0,13696.053766733858,1914.3375056192288,-61462.8045514589,-58662.1980264423,-35256.278247389586,-32659.810204483296,-19379.990622996167,-21856.921536555474,0.0,0.0,0.0,193.0,1.0,155.0,0.0,44.0,3.0,251.0,411.0,44.0,1019.0,1744252751.0153303,0.0,2025-04-09 22:39:11.015,RIGHT,22
208.0,13764.181883833633,1945.1382094786418,-61445.21372857258,-58710.29898051012,-35204.042220597534,-32587.569366403746,-19699.262940795772,-21790.87213169004,0.0,0.0,0.0,193.0,1.0,155.0,0.0,44.0,3.0,252.0,411.0,44.0,1020.0,1744252751.015339,0.0,2025-04-09 22:39:11.015,RIGHT,22
209.0,13704.14509822668,1952.3801746821614,-61419.79979512689,-58649.815160014055,-35176.52722317305,-32564.122386470128,-19567.477055487285,-21759.914965619442,0.0,0.0,0.0,193.0,1.0,154.0,0.0,44.0,3.0,249.0,410.0,44.0,1017.0,1744252751.0153477,0.0,2025-04-09 22:39:11.015,RIGHT,22
210.0,13635.324077048788,1935.9963459964213,-61458.40125780121,-58713.629390433955,-35198.70015367272,-32586.7423518589,-19549.528604689673,-21785.77593395423,0.0,0.0,0.0,193.0,1.0,155.0,0.0,44.0,3.0,251.0,411.0,44.0,1019.0,1744252751.0153563,0.0,2025-04-09 22:39:11.015,RIGHT,22
211.0,13671.399792599654,1913.33167711874,-61459.09416187932,-58659.672279318846,-35252.701968276735,-32638.41958503957,-19413.629998401404,-21837.453167134903,0.0,0.0,0.0,193.0,1.0,154.0,0.0,44.0,3.0,250.0,410.0,44.0,1018.0,1744252751.015365,0.0,2025-04-09 22:39:11.015,RIGHT,22
212.0,13766.975851890547,1938.8573692867005,-61457.77540895646,-58705.672169407866,-35228.33856682045,-32604.422581723047,-19604.31273034963,-21822.7010157944,0.0,0.0,0.0,193.0,1.0,155.0,0.0,44.0,3.0,252.0,411.0,44.0,1020.0,1744252751.0153735,0.0,2025-04-09 22:39:11.015,RIGHT,22
213.0,13718.360807700254,1950.7932008258344,-61414.74830088,-58653.525549593636,-35173.24151673812,-32553.661770065046,-19648.613887860047,-21771.35905878056,0.0,0.0,0.0,193.0,1.0,155.0,0.0,44.0,3.0,251.0,411.0,44.0,1019.0,1744252751.015382,0.0,2025-04-09 22:39:11.015,RIGHT,22
214.0,13652.199644112545,1944.5123606338932,-61454.78027519945,-58707.61677117548,-35198.83426413945,-32582.517872156845,-19518.81730780808,-21788.815771200156,0.0,0.0,0.0,193.0,1.0,154.0,0.0,44.0,3.0,249.0,410.0,44.0,1017.0,1744252751.0153906,0.0,2025-04-09 22:39:11.015,RIGHT,22
215.0,13653.585452268775,1915.097464930709,-61459.183568857145,-58678.268930705664,-35249.32685486399,-32631.691709958523,-19480.551121300596,-21831.887582765532,0.0,0.0,0.0,193.0,1.0,155.0,0.0,44.0,3.0,252.0,411.0,44.0,1020.0,1744252751.015404,0.0,2025-04-09 22:39:11.015,RIGHT,22
216.0,13779.381070063242,1951.5978636262255,-61450.46638851958,-58687.03081453214,-35241.92842744928,-32620.180561564037,-19506.635607079937,-21835.26269617828,0.0,0.0,0.0,193.0,1.0,154.0,0.0,44.0,3.0,250.0,410.0,44.0,1018.0,1744252751.0154126,0.0,2025-04-09 22:39:11.015,RIGHT,22
217.0,13748.513310970464,1971.0438813023427,-61390.00491976797,-58646.75297102368,-35155.20365896269,-32539.44606059147,-19714.32801655865,-21761.412532497947,0.0,0.0,0.0,193.0,1.0,155.0,0.0,44.0,3.0,251.0,411.0,44.0,1019.0,1744252751.0154212,0.0,2025-04-09 22:39:11.015,RIGHT,22
218.0,13665.2754146189,1946.4122589125943,-61444.20790007209,-58695.72564312525,-35190.407656479794,-32589.178692004527,-19490.542351072116,-21800.7963062282,0.0,0.0,0.0,193.0,1.0,154.0,0.0,44.0,3.0,250.0,410.0,44.0,1018.0,1744252751.0154297,0.0,2025-04-09 22:39:11.015,RIGHT,22
219.0,13633.737103192461,1908.9283834610444,-61457.64129848973,-58697.11145128149,-35228.651491242825,-32626.01436686687,-19532.63068588146,-21826.567867585167,0.0,0.0,0.0,193.0,1.0,155.0,0.0,44.0,3.0,252.0,411.0,44.0,1020.0,1744252751.0154383,0.0,2025-04-09 22:39:11.015,RIGHT,22
220.0,13753.788322661916,1928.486159859438,-61459.49649327952,-58677.911302794375,-35248.49984031914,-32640.721814718465,-19404.354024452452,-21835.866193278576,0.0,0.0,0.0,193.0,1.0,154.0,0.0,44.0,3.0,250.0,410.0,44.0,1018.0,1744252751.015447,0.0,2025-04-09 22:39:11.015,RIGHT,22
221.0,13722.071197279836,1929.1567121930973,-61425.47713821854,-58695.9044570809,-35174.85084233891,-32570.425578406524,-19771.39202015305,-21786.245320587794,0.0,0.0,0.0,193.0,1.0,155.0,0.0,44.0,3.0,252.0,411.0,44.0,1020.0,1744252751.0154555,0.0,2025-04-09 22:39:11.015,RIGHT,22
222.0,13663.08494366228,1934.4317238845497,-61448.09710360732,-58693.49046867972,-35191.07820881346,-32593.224357750936,-19487.18958940382,-21804.484344063323,0.0,0.0,0.0,193.0,1.0,154.0,0.0,44.0,3.0,249.0,410.0,44.0,1017.0,1744252751.3532467,0.0,2025-04-09 22:39:11.353,RIGHT,22
223.0,13604.45631795601,1887.716577972958,-61473.801609730916,-58726.503995240215,-35231.62427325538,-32626.327291289246,-19585.291395818163,-21834.5027368668,0.0,0.0,0.0,193.0,1.0,155.0,0.0,44.0,3.0,252.0,411.0,44.0,1020.0,1744252751.353284,0.0,2025-04-09 22:39:11.353,RIGHT,22
224.0,13726.161566515157,1912.1470346626086,-61467.34195558333,-58673.48565739223,-35266.85062251695,-32654.736358491944,-19376.771971794602,-21856.362742944093,0.0,0.0,0.0,193.0,1.0,154.0,0.0,44.0,3.0,249.0,410.0,44.0,1017.0,1744252751.353304,0.0,2025-04-09 22:39:11.353,RIGHT,22
225.0,13742.612450434262,1938.9244245200664,-61421.67734166114,-58698.2066867598,-35177.64481039582,-32556.29927591077,-19790.033375028775,-21767.156930822963,0.0,0.0,0.0,193.0,1.0,155.0,0.0,44.0,3.0,252.0,411.0,44.0,1020.0,1744252751.3533237,0.0,2025-04-09 22:39:11.353,RIGHT,22
226.0,13686.710737551539,1949.3850409251502,-61425.432434729635,-58661.66158457537,-35176.59427840642,-32563.004799247363,-19488.19541790431,-21763.558299965658,0.0,0.0,0.0,193.0,1.0,154.0,0.0,44.0,3.0,249.0,410.0,44.0,1017.0,1744252751.353344,0.0,2025-04-09 22:39:11.353,RIGHT,22
227.0,13620.46016698601,1916.103293431198,-61456.814283944885,-58714.14348055643,-35202.946985119226,-32590.229223993927,-19581.044564371656,-21800.17045738345,0.0,0.0,0.0,193.0,1.0,155.0,0.0,44.0,3.0,251.0,411.0,44.0,1019.0,1744252751.3533611,0.0,2025-04-09 22:39:11.353,RIGHT,22
228.0,13711.163545985646,1915.4327410975388,-61459.42943804615,-58657.146532195395,-35253.059596188024,-32641.7052914745,-19339.668075998794,-21837.296704923716,0.0,0.0,0.0,193.0,1.0,155.0,0.0,44.0,3.0,251.0,411.0,44.0,1019.0,1744252751.353371,0.0,2025-04-09 22:39:11.353,RIGHT,22
229.0,13758.705706442084,1944.557064122804,-61431.86973713276,-58708.108509553495,-35180.12585403035,-32560.479052123912,-19737.171499391974,-21775.985869882807,0.0,0.0,0.0,193.0,1.0,154.0,0.0,44.0,3.0,250.0,410.0,44.0,1018.0,1744252751.3533797,0.0,2025-04-09 22:39:11.353,RIGHT,22
230.0,13692.701005065563,1941.2043024545078,-61423.1972602841,-58658.10765720697,-35167.6535806243,-32561.283714924302,-19522.997084021223,-21768.185111067905,0.0,0.0,0.0,193.0,1.0,154.0,0.0,44.0,3.0,250.0,410.0,44.0,1018.0,1744252751.3534179,0.0,2025-04-09 22:39:11.353,RIGHT,22
231.0,13608.658445913607,1900.971162434955,-61472.66167076369,-58733.25422206572,-35204.5116072311,-32592.93378507302,-19572.841474156558,-21796.728288737333,0.0,0.0,0.0,193.0,1.0,155.0,0.0,44.0,3.0,252.0,411.0,44.0,1020.0,1744252751.3534267,0.0,2025-04-09 22:39:11.353,RIGHT,22
232.0,13678.127667680701,1899.9876856789215,-61462.24575784752,-58658.487636862716,-35249.21509614171,-32633.859829170688,-19376.324936905497,-21828.914800752977,0.0,0.0,0.0,193.0,1.0,154.0,0.0,44.0,3.0,249.0,410.0,44.0,1017.0,1744252751.3534355,0.0,2025-04-09 22:39:11.353,RIGHT,22
233.0,13758.549244230897,1934.1187994621755,-61449.28174606345,-58710.54484969912,-35209.83132241146,-32577.153453487572,-19677.380582974027,-21790.805076456676,0.0,0.0,0.0,193.0,1.0,155.0,0.0,44.0,3.0,251.0,411.0,44.0,1019.0,1744252751.3534448,0.0,2025-04-09 22:39:11.353,RIGHT,22
234.0,13703.586304615297,1942.2324826994518,-61414.41302471317,-58650.21749141425,-35167.78769109103,-32543.715243782433,-19588.890026675468,-21741.675942143913,0.0,0.0,0.0,193.0,1.0,154.0,0.0,44.0,3.0,250.0,410.0,44.0,1018.0,1744252751.353454,0.0,2025-04-09 22:39:11.353,RIGHT,22
235.0,13626.69630368904,1920.5065870888934,-61462.44692354762,-58720.7595969152,-35196.12970306035,-32580.617973878143,-19536.184613249854,-21784.54658800919,0.0,0.0,0.0,193.0,1.0,154.0,0.0,44.0,3.0,250.0,410.0,44.0,1018.0,1744252751.3534627,0.0,2025-04-09 22:39:11.353,RIGHT,22
236.0,13659.776885482894,1907.6990375160026,-61452.56745249838,-58660.52164560815,-35235.714642490704,-32615.464343483967,-19420.849611860467,-21813.045062189707,0.0,0.0,0.0,193.0,1.0,154.0,0.0,44.0,3.0,249.0,410.0,44.0,1017.0,1744252751.353472,0.0,2025-04-09 22:39:11.353,RIGHT,22
237.0,13763.980718133536,1941.1819507100524,-61452.142769353726,-58699.301922238104,-35216.60390098142,-32592.10677052817,-19553.797787880634,-21798.404669571482,0.0,0.0,0.0,193.0,1.0,155.0,0.0,44.0,3.0,251.0,411.0,44.0,1019.0,1744252751.3534813,0.0,2025-04-09 22:39:11.353,RIGHT,22
238.0,13711.878801808216,1945.1829129675525,-61408.31099847687,-58657.571215340045,-35155.69539734071,-32542.128269926106,-19662.27080372224,-21751.242488770782,0.0,0.0,0.0,193.0,1.0,155.0,0.0,44.0,3.0,251.0,411.0,44.0,1019.0,1744252751.35349,0.0,2025-04-09 22:39:11.353,RIGHT,22
239.0,13637.31338230531,1927.4803313589493,-61455.83080718885,-58709.89664910992,-35191.07820881346,-32575.00768601986,-19505.138040201433,-21779.271576317737,0.0,0.0,0.0,193.0,1.0,154.0,0.0,44.0,3.0,250.0,410.0,44.0,1018.0,1744252751.3534992,0.0,2025-04-09 22:39:11.353,RIGHT,22
240.0,13632.79832992534,1901.8875839576226,-61459.63060374625,-58684.7509365977,-35234.328834334476,-32615.084363828228,-19490.028260949643,-21821.024634960253,0.0,0.0,0.0,193.0,1.0,154.0,0.0,44.0,3.0,250.0,410.0,44.0,1018.0,1744252751.3535082,0.0,2025-04-09 22:39:11.353,RIGHT,22
241.0,13752.178997061133,1928.933194748544,-61464.279766592954,-58694.47394543576,-35245.21413388421,-32616.269006284358,-19468.90586243938,-21826.970198985364,0.0,0.0,0.0,193.0,1.0,155.0,0.0,44.0,3.0,252.0,411.0,44.0,1020.0,1744252751.3535173,0.0,2025-04-09 22:39:11.353,RIGHT,22
242.0,13712.549354141875,1928.3520493927062,-61416.69290264761,-58677.3972126719,-35168.16767074676,-32537.43440359049,-19733.103481901107,-21746.436863712894,0.0,0.0,0.0,193.0,1.0,154.0,0.0,44.0,3.0,249.0,410.0,44.0,1017.0,1744252751.3535264,0.0,2025-04-09 22:39:11.353,RIGHT,22
243.0,13649.22686209999,1926.9662412364771,-61449.79583618592,-58699.301922238104,-35188.328944245455,-32567.989238260896,-19480.461714322773,-21771.7390384363,0.0,0.0,0.0,193.0,1.0,155.0,0.0,44.0,3.0,252.0,411.0,44.0,1020.0,1744252751.3535352,0.0,2025-04-09 22:39:11.353,RIGHT,22
244.0,13608.077300557768,1893.8186042092568,-61468.59365327283,-58714.16583230089,-35230.23846509915,-32616.090192328717,-19545.39353196544,-21830.881754265043,0.0,0.0,0.0,193.0,1.0,154.0,0.0,44.0,3.0,248.0,410.0,44.0,1016.0,1744252751.353544,0.0,2025-04-09 22:39:11.353,RIGHT,22
245.0,13724.865165336749,1910.9847439509326,-61476.32735685437,-58695.9044570809,-35265.97890448319,-32648.880201444652,-19405.024576786112,-21867.069228538185,0.0,0.0,0.0,193.0,1.0,155.0,0.0,44.0,3.0,252.0,411.0,44.0,1020.0,1744252751.3535583,0.0,2025-04-09 22:39:11.353,RIGHT,22
246.0,13723.211136247057,1939.0808867312537,-61419.620981171254,-58695.18920125833,-35169.12879575835,-32542.709415281945,-19789.027546528287,-21757.16570105144,0.0,0.0,0.0,193.0,1.0,154.0,0.0,44.0,3.0,250.0,410.0,44.0,1018.0,1744252751.3535674,0.0,2025-04-09 22:39:11.353,RIGHT,22
247.0,13664.738972751973,1943.2159594554855,-61438.709370936085,-58680.86173306248,-35181.22108950867,-32566.044636493283,-19485.66967078086,-21769.325050035128,0.0,0.0,0.0,193.0,1.0,155.0,0.0,44.0,3.0,251.0,411.0,44.0,1019.0,1744252751.3535764,0.0,2025-04-09 22:39:11.353,RIGHT,22
248.0,13597.326111474767,1894.1762321205417,-61472.92989169716,-58727.17454757387,-35223.912921418305,-32605.65192766809,-19591.16990460991,-21810.295797621704,0.0,0.0,0.0,193.0,1.0,154.0,0.0,44.0,3.0,249.0,410.0,44.0,1017.0,1744252751.3535852,0.0,2025-04-09 22:39:11.353,RIGHT,22
249.0,13716.57266814383,1911.9458689625108,-61466.98432767205,-58670.98226201323,-35261.48620384767,-32643.962817664484,-19364.45616059973,-21838.16842295747,0.0,0.0,0.0,193.0,1.0,155.0,0.0,44.0,3.0,251.0,411.0,44.0,1019.0,1744252751.353594,0.0,2025-04-09 22:39:11.353,RIGHT,22
250.0,13750.189691804611,1948.938006036044,-61419.84449861581,-58700.12893678295,-35167.78769109103,-32549.81727001873,-19778.05284000073,-21759.624392941525,0.0,0.0,0.0,193.0,1.0,154.0,0.0,44.0,3.0,250.0,410.0,44.0,1018.0,1744252751.3536031,0.0,2025-04-09 22:39:11.353,RIGHT,22
251.0,13687.448345118564,1956.4705439174825,-61423.28666726192,-58657.928843251335,-35169.39701669181,-32563.071854480728,-19487.502513826195,-21754.818767883633,0.0,0.0,0.0,193.0,1.0,155.0,0.0,44.0,3.0,252.0,411.0,44.0,1020.0,1744252751.353612,0.0,2025-04-09 22:39:11.353,RIGHT,22
252.0,13614.581658194264,1922.2723749008626,-61459.83176944635,-58719.08321608105,-35203.2599095416,-32591.5926804057,-19582.78800043917,-21791.341518323603,0.0,0.0,0.0,193.0,1.0,154.0,0.0,44.0,3.0,249.0,410.0,44.0,1017.0,1744252751.3536208,0.0,2025-04-09 22:39:11.353,RIGHT,22
253.0,13701.105260980758,1917.6455637986141,-61457.61894674527,-58648.138779179906,-35255.13830842236,-32639.85009668471,-19361.77395126509,-21830.814699031675,0.0,0.0,0.0,193.0,1.0,155.0,0.0,44.0,3.0,252.0,411.0,44.0,1020.0,1744252751.3536296,0.0,2025-04-09 22:39:11.353,RIGHT,22
254.0,13746.501653969486,1933.8505785287118,-61445.52665299495,-58705.35924498549,-35200.86827288488,-32578.651020366076,-19733.215240623384,-21785.150085109482,0.0,0.0,0.0,193.0,1.0,154.0,0.0,44.0,3.0,250.0,410.0,44.0,1018.0,1744252751.3536384,0.0,2025-04-09 22:39:11.353,RIGHT,22
255.0,13689.191781186079,1939.3491076647174,-61423.71135040657,-58641.500311076685,-35169.665237625275,-32562.44600563598,-19535.62581963847,-21746.526270690712,0.0,0.0,0.0,193.0,1.0,155.0,0.0,44.0,3.0,251.0,411.0,44.0,1019.0,1744252751.3536472,0.0,2025-04-09 22:39:11.353,RIGHT,22
0.0,13622.248306542435,1924.708715046491,-61459.45178979061,-58700.24069550523,-35189.781807635045,-32584.887157069108,-19550.44502621234,-21771.493169247293,0.0,0.0,0.0,193.0,1.0,155.0,0.0,44.0,3.0,251.0,411.0,44.0,1019.0,1744252751.3536563,0.0,2025-04-09 22:39:11.353,RIGHT,22
1.0,13679.80404851485,1919.746627777413,-61447.89593790722,-58624.96002017976,-35230.57374126599,-32627.958968634484,-19383.075163731,-21803.120887651552,0.0,0.0,0.0,193.0,1.0,155.0,0.0,44.0,3.0,251.0,411.0,44.0,1019.0,1744252751.3536649,0.0,2025-04-09 22:39:11.353,RIGHT,22
2.0,13766.19354083461,1950.1673519810859,-61438.32939128034,-58668.0988869785,-35194.140397803836,-32573.06308425225,-19629.771367284226,-21757.568032451636,0.0,0.0,0.0,193.0,1.0,154.0,0.0,44.0,3.0,252.0,410.0,44.0,1020.0,1744252751.3536737,0.0,2025-04-09 22:39:11.353,RIGHT,22
3.0,13708.458984906554,1951.553160137315,-61407.48398393202,-58615.08054913051,-35154.10842348438,-32540.58599955869,-19607.710195506836,-21727.527287903704,0.0,0.0,0.0,193.0,1.0,155.0,0.0,44.0,3.0,252.0,411.0,44.0,1020.0,1744252751.3536828,0.0,2025-04-09 22:39:11.353,RIGHT,22
4.0,13635.324077048788,1933.1576744505971,-61454.69086822163,-58677.46426790527,-35183.52331918756,-32573.44306390799,-19529.859069569,-21761.412532497947,0.0,0.0,0.0,193.0,1.0,154.0,0.0,44.0,3.0,249.0,410.0,44.0,1017.0,1744252751.3536963,0.0,2025-04-09 22:39:11.353,RIGHT,22
5.0,13655.664164503118,1913.6669532855694,-61454.02031588797,-58625.71997949124,-35231.512514533104,-32614.436163239025,-19450.309211052565,-21791.520332279248,0.0,0.0,0.0,193.0,1.0,155.0,0.0,44.0,3.0,252.0,411.0,44.0,1020.0,1744252751.3537052,0.0,2025-04-09 22:39:11.353,RIGHT,22
6.0,13762.460799510574,1939.4385146425386,-61459.51884502397,-58655.067819961056,-35232.27247384459,-32600.30986074327,-19547.651058155425,-21785.150085109482,0.0,0.0,0.0,193.0,1.0,154.0,0.0,44.0,3.0,250.0,410.0,44.0,1018.0,1744252751.353714,0.0,2025-04-09 22:39:11.353,RIGHT,22
7.0,13732.151834029179,1961.4326311865607,-61394.85524831477,-58599.27786580061,-35142.95490300118,-32525.945606940462,-19687.95295810139,-21711.76930806271,0.0,0.0,0.0,193.0,1.0,155.0,0.0,44.0,3.0,251.0,411.0,44.0,1019.0,1744252751.3537228,0.0,2025-04-09 22:39:11.353,RIGHT,22
8.0,13661.520321550408,1950.1673519810859,-61437.99411511351,-58639.17572965333,-35171.140452759326,-32561.239011435395,-19485.13322891393,-21743.59819216707,0.0,0.0,0.0,193.0,1.0,154.0,0.0,45.0,3.0,249.0,410.0,45.0,1017.0,1744252751.3537319,0.0,2025-04-09 22:39:11.353,RIGHT,22
9.0,13628.305629289822,1903.3851508361283,-61463.519807281475,-58640.49448257619,-35227.332738319965,-32618.63829119662,-19500.690043054827,-21795.36483232556,0.0,0.0,0.0,193.0,1.0,154.0,0.0,44.0,3.0,251.0,410.0,44.0,1019.0,1744252751.3537407,0.0,2025-04-09 22:39:11.353,RIGHT,22
10.0,13761.946709388103,1942.0760204882647,-61454.26618507698,-58626.79286322509,-35227.77977320907,-32610.748125403898,-19445.391827272397,-21791.140352623504,0.0,0.0,0.0,193.0,1.0,154.0,0.0,44.0,3.0,250.0,410.0,44.0,1018.0,1744252751.35375,0.0,2025-04-09 22:39:11.353,RIGHT,22
11.0,13738.633839921218,1956.805820084312,-61400.48788791751,-58608.86676417194,-35141.9937779896,-32521.609368516132,-19740.457205826904,-21711.21051445133,0.0,0.0,0.0,193.0,1.0,154.0,0.0,44.0,3.0,250.0,410.0,44.0,1018.0,1744252751.353759,0.0,2025-04-09 22:39:11.353,RIGHT,22
12.0,13672.584435055785,1946.8592938017005,-61436.4518447461,-58625.474110302224,-35163.38439743333,-32553.661770065046,-19467.98944091671,-21738.859622342545,0.0,0.0,0.0,193.0,1.0,154.0,0.0,45.0,3.0,249.0,410.0,45.0,1017.0,1744252751.3537679,0.0,2025-04-09 22:39:11.353,RIGHT,22
13.0,13620.303704774822,1902.5357845468266,-61459.474141535065,-58648.339944880005,-35201.672935685274,-32593.224357750936,-19547.20402326632,-21778.891596661997,0.0,0.0,0.0,193.0,1.0,155.0,0.0,44.0,3.0,252.0,411.0,44.0,1020.0,1744252751.3537774,0.0,2025-04-09 22:39:11.353,RIGHT,22
14.0,13741.226642278034,1926.4521511140051,-61461.150522369215,-58616.24283984218,-35238.35214833643,-32625.902608144595,-19372.68160255928,-21810.966349955364,0.0,0.0,0.0,193.0,1.0,154.0,0.0,44.0,3.0,250.0,410.0,44.0,1018.0,1744252751.3537862,0.0,2025-04-09 22:39:11.353,RIGHT,22
15.0,13740.53373819992,1942.2548344439072,-61420.98443758303,-58642.37202911044,-35159.13756598682,-32547.023301961817,-19787.887607561068,-21752.02479982672,0.0,0.0,0.0,193.0,1.0,155.0,0.0,44.0,3.0,252.0,411.0,44.0,1020.0,1744252751.353795,0.0,2025-04-09 22:39:11.353,RIGHT,22
16.0,13681.815705515828,1943.3277181777619,-61433.56846971136,-58619.37208406593,-35167.22889747965,-32558.668560823033,-19485.53556031413,-21740.73716887679,0.0,0.0,0.0,193.0,1.0,154.0,0.0,45.0,3.0,249.0,410.0,45.0,1017.0,1744252751.3538039,0.0,2025-04-09 22:39:11.353,RIGHT,22
17.0,13621.22012629749,1916.2150521534745,-61454.646164732716,-58656.319517650554,-35193.33573500344,-32575.05238950877,-19579.412887026418,-21756.11516906204,0.0,0.0,0.0,193.0,1.0,155.0,0.0,44.0,3.0,251.0,411.0,44.0,1019.0,1744252751.3538127,0.0,2025-04-09 22:39:11.353,RIGHT,22
18.0,13725.356903714766,1933.4035436396057,-61454.69086822163,-58600.61897046793,-35242.576628038485,-32622.50514298739,-19343.73609348966,-21803.478515562834,0.0,0.0,0.0,193.0,1.0,154.0,0.0,44.0,3.0,249.0,410.0,44.0,1017.0,1744252751.3538215,0.0,2025-04-09 22:39:11.353,RIGHT,22
19.0,13748.915642370659,1946.9039972906112,-61436.474196490555,-58662.399192142395,-35181.93634533123,-32562.11072946915,-19778.67868884548,-21778.6904309619,0.0,0.0,0.0,193.0,1.0,154.0,0.0,44.0,3.0,251.0,410.0,44.0,1019.0,1744252751.353835,0.0,2025-04-09 22:39:11.353,RIGHT,22
20.0,13696.120821967224,1946.0769827457648,-61427.935830108625,-58612.57715375152,-35172.28039172654,-32565.083511481706,-19537.30220047262,-21773.638936715,0.0,0.0,0.0,193.0,1.0,154.0,0.0,44.0,3.0,251.0,410.0,44.0,1019.0,1744252751.3538437,0.0,2025-04-09 22:39:11.353,RIGHT,22
21.0,13617.442681484543,1910.358895106184,-61469.21950211758,-58679.56533188407,-35205.91976713178,-32586.809407092263,-19605.229151872296,-21773.92950939292,0.0,0.0,0.0,193.0,1.0,154.0,0.0,44.0,3.0,249.0,410.0,44.0,1017.0,1744252751.3538525,0.0,2025-04-09 22:39:11.353,RIGHT,22
22.0,13692.678653321107,1910.716523017469,-61463.452752048106,-58611.41486303984,-35249.19274439725,-32630.440012269024,-19368.568881579504,-21802.83031497363,0.0,0.0,0.0,193.0,1.0,155.0,0.0,44.0,3.0,252.0,411.0,44.0,1020.0,1744252751.3538616,0.0,2025-04-09 22:39:11.353,RIGHT,22
23.0,13755.934090129625,1938.455037886505,-61444.54317623892,-58665.30491892158,-35190.74293264663,-32564.39060740359,-19699.017071606766,-21751.600116682068,0.0,0.0,0.0,193.0,1.0,154.0,0.0,44.0,3.0,249.0,410.0,44.0,1017.0,1744252751.3538704,0.0,2025-04-09 22:39:11.353,RIGHT,22
24.0,13697.32781616781,1942.09837223272,-61421.61028642778,-58609.55966825005,-35162.669141610764,-32550.19724967447,-19560.749180406237,-21730.96945654982,0.0,0.0,0.0,193.0,1.0,155.0,0.0,44.0,3.0,251.0,411.0,44.0,1019.0,1744252751.3538792,0.0,2025-04-09 22:39:11.353,RIGHT,22
25.0,13619.83431814126,1915.1645201640752,-61465.7102782381,-58679.2971109506,-35188.619516923376,-32578.092226754696,-19556.479997215272,-21765.03351509971,0.0,0.0,0.0,193.0,1.0,154.0,0.0,45.0,3.0,250.0,410.0,45.0,1018.0,1744252751.353888,0.0,2025-04-09 22:39:11.353,RIGHT,22
26.0,13665.722449508006,1902.7816537358349,-61457.19426360062,-58613.00183689617,-35233.010081411616,-32619.152381319094,-19408.958483810246,-21805.154896396984,0.0,0.0,0.0,193.0,1.0,154.0,0.0,44.0,3.0,250.0,410.0,44.0,1018.0,1744252751.3538966,0.0,2025-04-09 22:39:11.353,RIGHT,22
27.0,13764.763029189471,1939.2149971979854,-61451.02518213096,-58658.487636862716,-35207.50674098811,-32583.903680313073,-19621.79179451368,-21795.320128836647,0.0,0.0,0.0,193.0,1.0,155.0,0.0,44.0,3.0,251.0,411.0,44.0,1019.0,1744252751.3539057,0.0,2025-04-09 22:39:11.353,RIGHT,22
28.0,13722.965267058047,1956.872875317678,-61400.040853028404,-58596.23802855468,-35144.58658034642,-32525.05153716225,-19643.137710468498,-21723.816898324123,0.0,0.0,0.0,193.0,1.0,154.0,0.0,44.0,3.0,250.0,410.0,44.0,1018.0,1744252751.3539143,0.0,2025-04-09 22:39:11.353,RIGHT,22
29.0,13646.768170209905,1937.6950785750246,-61447.78417918494,-58656.07364846154,-35173.17446150476,-32552.901810753563,-19517.878534540956,-21739.91015433194,0.0,0.0,0.0,193.0,1.0,155.0,0.0,45.0,3.0,252.0,411.0,45.0,1020.0,1744252751.3539228,0.0,2025-04-09 22:39:11.353,RIGHT,22
30.0,13649.450379544543,1903.0945781582093,-61453.64033623223,-58628.46924405924,-35217.900302159826,-32607.10479105768,-19459.629888490428,-21792.41440205746,0.0,0.0,0.0,193.0,1.0,155.0,0.0,44.0,3.0,250.0,411.0,44.0,1018.0,1744252751.353932,0.0,2025-04-09 22:39:11.353,RIGHT,22
31.0,13753.609508706273,1924.6640115575806,-61462.40222005871,-58658.93467175182,-35221.677746972775,-32604.802561378787,-19501.070022710566,-21798.44937306039,0.0,0.0,0.0,193.0,1.0,155.0,0.0,44.0,3.0,252.0,411.0,44.0,1020.0,1744252751.3539407,0.0,2025-04-09 22:39:11.353,RIGHT,22
32.0,13712.86227856425,1938.9244245200664,-61410.1438415222,-58623.8871364459,-35145.1453739578,-32532.87464772161,-19702.36983327506,-21735.39510195197,0.0,0.0,0.0,193.0,1.0,155.0,0.0,44.0,3.0,249.0,411.0,44.0,1017.0,1744252751.3539495,0.0,2025-04-09 22:39:11.353,RIGHT,22
33.0,13645.918803920604,1931.2801279163514,-61451.38281004225,-58657.638270573414,-35171.29691497051,-32565.083511481706,-19492.46460109527,-21766.620488956036,0.0,0.0,0.0,193.0,1.0,155.0,0.0,45.0,3.0,252.0,411.0,45.0,1020.0,1744252751.3539584,0.0,2025-04-09 22:39:11.353,RIGHT,22
34.0,13618.023826840381,1894.5338600318266,-61461.19522585812,-58650.75393328118,-35209.987784622645,-32601.58391017722,-19528.227392223765,-21800.908064950476,0.0,0.0,0.0,193.0,1.0,155.0,0.0,44.0,3.0,250.0,411.0,44.0,1018.0,1744252751.3539743,0.0,2025-04-09 22:39:11.353,RIGHT,22
35.0,13745.831101635828,1924.3510871352062,-61456.92604266716,-58634.25834587316,-35225.857523185914,-32611.865712626663,-19421.22959151621,-21805.333710352625,0.0,0.0,0.0,193.0,1.0,155.0,0.0,44.0,3.0,252.0,411.0,44.0,1020.0,1744252751.3539832,0.0,2025-04-09 22:39:11.353,RIGHT,22
36.0,13736.443368964598,1947.5298461353598,-61398.05154777188,-58625.31764809104,-35135.84704826439,-32520.491781293367,-19763.233633426862,-21723.280456457192,0.0,0.0,0.0,193.0,1.0,154.0,0.0,45.0,3.0,249.0,410.0,45.0,1017.0,1744252751.3539915,0.0,2025-04-09 22:39:11.353,RIGHT,22
37.0,13676.138362424179,1950.5473316368261,-61420.98443758303,-58626.92697369182,-35150.88977228281,-32551.717168297433,-19478.80768523308,-21749.92373584792,0.0,0.0,0.0,193.0,1.0,155.0,0.0,44.0,3.0,252.0,411.0,44.0,1020.0,1744252751.3540003,0.0,2025-04-09 22:39:11.354,RIGHT,22
38.0,13613.419367482587,1900.6358862681254,-61452.254528076,-58662.51095086467,-35194.43097048175,-32588.530491415324,-19565.510101975215,-21784.837160687108,0.0,0.0,0.0,193.0,1.0,154.0,0.0,44.0,3.0,250.0,410.0,44.0,1018.0,1744252751.354009,0.0,2025-04-09 22:39:11.354,RIGHT,22
39.0,13728.262630493955,1914.2704503858627,-61457.32837406736,-58621.96488642274,-35237.52513379158,-32619.666471441567,-19369.507654846628,-21812.374509856047,0.0,0.0,0.0,193.0,1.0,155.0,0.0,44.0,3.0,251.0,411.0,44.0,1019.0,1744252751.3540177,0.0,2025-04-09 22:39:11.354,RIGHT,22
40.0,13734.655229408174,1938.0303547418541,-61418.88337360423,-58650.91039549236,-35160.925705543246,-32532.09233666567,-19801.05278504524,-21746.772139879722,0.0,0.0,0.0,193.0,1.0,155.0,0.0,45.0,3.0,250.0,411.0,45.0,1018.0,1744252751.3540266,0.0,2025-04-09 22:39:11.354,RIGHT,22
41.0,13677.926501980604,1945.361726923195,-61422.906687606184,-58618.835642199,-35153.39316766181,-32543.290560637783,-19492.53165632864,-21742.525308433214,0.0,0.0,0.0,193.0,1.0,155.0,0.0,45.0,3.0,251.0,411.0,45.0,1019.0,1744252751.3540354,0.0,2025-04-09 22:39:11.354,RIGHT,22
42.0,13613.531126204864,1911.9905724514215,-61450.242871075025,-58667.8977212784,-35177.48834818463,-32572.034904007305,-19564.526625219183,-21770.10736109106,0.0,0.0,0.0,193.0,1.0,154.0,0.0,44.0,3.0,249.0,410.0,44.0,1017.0,1744252751.354044,0.0,2025-04-09 22:39:11.354,RIGHT,22
43.0,13703.85452554876,1907.9225549605555,-61457.59659500082,-58617.449834042774,-35234.820572712495,-32634.150401848605,-19337.567012019994,-21825.159707684485,0.0,0.0,0.0,193.0,1.0,155.0,0.0,44.0,3.0,252.0,411.0,44.0,1020.0,1744252751.3540528,0.0,2025-04-09 22:39:11.354,RIGHT,22
44.0,13751.150816816189,1942.6571658441028,-61419.95625733808,-58658.6440990739,-35157.52824038604,-32549.01260721834,-19755.276412400774,-21765.771122666734,0.0,0.0,0.0,193.0,1.0,154.0,0.0,44.0,3.0,249.0,410.0,44.0,1017.0,1744252751.3540616,0.0,2025-04-09 22:39:11.354,RIGHT,22
45.0,13686.621330573718,1938.0303547418541,-61419.062187559866,-58616.44400554228,-35156.54476363001,-32555.96399974394,-19519.80078456411,-21755.936355106398,0.0,0.0,0.0,193.0,1.0,155.0,0.0,44.0,3.0,251.0,411.0,44.0,1019.0,1744252751.3540704,0.0,2025-04-09 22:39:11.354,RIGHT,22
46.0,13612.07826281527,1910.649467784103,-61461.776371213964,-58689.53420991114,-35190.11708380188,-32585.91533731405,-19588.44299178636,-21788.07816363313,0.0,0.0,0.0,193.0,1.0,154.0,0.0,45.0,3.0,250.0,410.0,45.0,1018.0,1744252751.3540792,0.0,2025-04-09 22:39:11.354,RIGHT,22
47.0,13680.027565959403,1900.7699967348574,-61451.87454842026,-58619.17091836583,-35233.837095956456,-32630.909398902586,-19380.437657885275,-21813.045062189707,0.0,0.0,0.0,193.0,1.0,155.0,0.0,44.0,3.0,252.0,411.0,44.0,1020.0,1744252751.3540878,0.0,2025-04-09 22:39:11.354,RIGHT,22
48.0,13759.957404131581,1930.6095755826923,-61432.428530744146,-58667.80831430058,-35180.17055751927,-32568.413921405547,-19684.019051077255,-21763.60300345457,0.0,0.0,0.0,193.0,1.0,154.0,0.0,44.0,3.0,250.0,410.0,44.0,1018.0,1744252751.3541014,0.0,2025-04-09 22:39:11.354,RIGHT,22
49.0,13703.318083681832,1940.1537704651084,-61404.15357400818,-58609.9843513947,-35146.06179548047,-32545.995121716875,-19579.144666092954,-21744.782834623198,0.0,0.0,0.0,193.0,1.0,155.0,0.0,44.0,3.0,252.0,411.0,44.0,1020.0,1744252751.7656333,0.0,2025-04-09 22:39:11.765,RIGHT,22
50.0,13632.306591547322,1927.3685726366728,-61445.03491461694,-58674.08915449252,-35169.240554480624,-32569.844433050686,-19546.175843021374,-21778.131637350518,0.0,0.0,0.0,193.0,1.0,154.0,0.0,45.0,3.0,250.0,410.0,45.0,1018.0,1744252751.7656825,0.0,2025-04-09 22:39:11.765,RIGHT,22
