Sample Index,EXG Channel 0,EXG Channel 1,EXG Channel 2,EXG Channel 3,EXG Channel 4,EXG Channel 5,EXG Channel 6,EXG Channel 7,Accel Channel 0,Accel Channel 1,Accel Channel 2,Not Used,Digital Channel 0 (D11),Digital Channel 1 (D12),Digital Channel 2 (D13),Digital Channel 3 (D17),Not Used,Digital Channel 4 (D18),Analog Channel 0,Analog Channel 1,Analog Channel 2,Timestamp,Marker Channel,Timestamp (Formatted),Stimulus_Direction,Stimulus_Number
182.0,-1734.7635906652918,-22558.22987058519,-35439.89782808993,-24636.986808417656,19537.838642339546,4070.766755433888,27626.17500140369,49849.75455400402,0.0,0.0,0.0,193.0,0.0,192.0,0.0,1.0,0.0,178.0,192.0,1.0,178.0,1744418549.4995835,0.0,2025-04-11 20:42:29.499,FORWARD,3
183.0,-1716.8598433565908,-22542.248373299644,-35389.91932748787,-24626.794412946037,19642.333047668108,4094.3031423453267,27469.086941371792,49904.13634826378,0.0,0.0,0.0,193.0,0.0,192.0,0.0,1.0,0.0,178.0,192.0,1.0,178.0,1744418549.499619,0.0,2025-04-11 20:42:29.499,FORWARD,3
184.0,-1748.9569483944117,-22587.37654535491,-35383.996115207214,-24659.763236017614,19818.196573042464,3985.7630712703553,27845.2220970657,49880.309388674425,0.0,0.0,0.0,193.0,0.0,192.0,0.0,1.0,0.0,178.0,192.0,1.0,178.0,1744418549.4996538,0.0,2025-04-11 20:42:29.499,FORWARD,3
185.0,-1754.4107740415066,-22588.60589129995,-35415.42266791137,-24646.17337538879,19713.009263635788,3865.555389589714,27925.2413422157,49756.793648814404,0.0,0.0,0.0,193.0,0.0,192.0,0.0,1.0,0.0,179.0,192.0,1.0,179.0,1744418549.4996889,0.0,2025-04-11 20:42:29.499,FORWARD,3
186.0,-1739.1668843229872,-22559.36980955241,-35428.185513995355,-24609.561217970993,19563.00670659622,4072.4654880124917,27672.867795570826,49824.36297230279,0.0,0.0,0.0,193.0,0.0,193.0,0.0,1.0,0.0,179.0,193.0,1.0,179.0,1744418549.4997373,0.0,2025-04-11 20:42:29.499,FORWARD,3
187.0,-1718.5809276796494,-22544.997637867647,-35397.60832758049,-24599.569988199473,19551.67437215738,4159.793753599376,27448.38922600618,49905.2315837421,0.0,0.0,0.0,193.0,0.0,193.0,0.0,1.0,0.0,178.0,193.0,1.0,178.0,1744418549.4997723,0.0,2025-04-11 20:42:29.499,FORWARD,3
188.0,-1734.5400732207386,-22581.40862958534,-35392.042743211125,-24642.172413131288,19656.593460630593,4023.8280920777433,27774.836453775937,49904.13634826378,0.0,0.0,0.0,193.0,0.0,192.0,0.0,1.0,0.0,178.0,192.0,1.0,178.0,1744418549.4998071,0.0,2025-04-11 20:42:29.499,FORWARD,3
189.0,-1734.6294801985598,-22580.112228406935,-35411.57816786506,-24650.531965557573,19625.949218982365,3831.133703128541,27935.29962722059,49766.494305908,0.0,0.0,0.0,193.0,0.0,192.0,0.0,1.0,0.0,178.0,192.0,1.0,178.0,1744418549.4998417,0.0,2025-04-11 20:42:29.499,FORWARD,3
190.0,-1742.0726111021772,-22560.912079919824,-35425.88328431646,-24624.35807280041,19593.896817433455,3990.9039724950762,27745.01922667256,49812.62830646376,0.0,0.0,0.0,193.0,0.0,192.0,0.0,1.0,0.0,178.0,192.0,1.0,178.0,1744418549.4998767,0.0,2025-04-11 20:42:29.499,FORWARD,3
191.0,-1736.8646546440907,-22554.2736118166,-35413.88039754396,-24612.981034872657,19558.67046817189,4133.686916075578,27480.307517088357,49918.03913331499,0.0,0.0,0.0,193.0,0.0,193.0,0.0,1.0,0.0,179.0,193.0,1.0,179.0,1744418549.499912,0.0,2025-04-11 20:42:29.499,FORWARD,3
192.0,-1731.6790499304593,-22576.066562660526,-35364.9971324202,-24614.322139539974,19700.604045463093,4066.922255387575,27704.786086653006,49920.34136299388,0.0,0.0,0.0,193.0,0.0,193.0,0.0,1.0,0.0,179.0,193.0,1.0,179.0,1744418549.4999468,0.0,2025-04-11 20:42:29.499,FORWARD,3
193.0,-1738.3398697781408,-22591.399859356865,-35385.51603383017,-24642.2171166202,19645.46229189185,3855.139476673541,27949.91766809436,49790.9024108532,0.0,0.0,0.0,193.0,0.0,193.0,0.0,1.0,0.0,178.0,193.0,1.0,178.0,1744418549.4999814,0.0,2025-04-11 20:42:29.499,FORWARD,3
194.0,-1746.8111809267023,-22578.927585950805,-35410.68409808685,-24619.798316931527,19568.01349735421,3960.550303524769,27785.475884136664,49786.07443405085,0.0,0.0,0.0,193.0,0.0,192.0,0.0,1.0,0.0,178.0,192.0,1.0,178.0,1744418549.5000165,0.0,2025-04-11 20:42:29.500,FORWARD,3
195.0,-1735.1212185765767,-22556.75465545114,-35400.89403401542,-24601.022851589067,19520.136060730943,4148.707288349544,27482.05095315587,49889.07127250091,0.0,0.0,0.0,193.0,0.0,192.0,0.0,1.0,0.0,178.0,192.0,1.0,178.0,1744418549.5000513,0.0,2025-04-11 20:42:29.500,FORWARD,3
196.0,-1739.4127535119956,-22577.94410919477,-35364.86302195347,-24623.821630933482,19689.338766257617,4117.727770534489,27624.208047891625,49911.87005184532,0.0,0.0,0.0,193.0,0.0,192.0,0.0,1.0,0.0,178.0,192.0,1.0,178.0,1744418549.500086,0.0,2025-04-11 20:42:29.500,FORWARD,3
197.0,-1758.5681985101937,-22608.297778165077,-35398.81532178108,-24667.9216227438,19726.465013797882,3903.195727252451,27959.52891821014,49815.98106813205,0.0,0.0,0.0,193.0,0.0,192.0,0.0,1.0,0.0,178.0,192.0,1.0,178.0,1744418549.5001364,0.0,2025-04-11 20:42:29.500,FORWARD,3
198.0,-1748.2640443162973,-22581.140408651878,-35425.615063383,-24641.434805564262,19571.16509332241,3926.4191897415153,27830.291131769554,49752.3456516678,0.0,0.0,0.0,193.0,0.0,192.0,0.0,1.0,0.0,178.0,192.0,1.0,178.0,1744418549.5001717,0.0,2025-04-11 20:42:29.500,FORWARD,3
199.0,-1720.4584742138952,-22538.828556397984,-35409.164179463885,-24602.989805101133,19493.269263895665,4126.646116572156,27522.842886786806,49866.16073443422,0.0,0.0,0.0,193.0,0.0,192.0,0.0,1.0,0.0,178.0,192.0,1.0,178.0,1744418549.5002062,0.0,2025-04-11 20:42:29.500,FORWARD,3
200.0,-1728.4603987288951,-22561.873204931406,-35369.15455688889,-24601.29107252253,19661.242623477297,4112.452758843036,27553.710645879586,49901.58824939588,0.0,0.0,0.0,193.0,0.0,192.0,0.0,1.0,0.0,178.0,192.0,1.0,178.0,1744418549.500241,0.0,2025-04-11 20:42:29.500,FORWARD,3
201.0,-1758.3893845545513,-22616.36675791344,-35395.37315313496,-24657.148081916344,19708.51656300027,3901.854622585133,27931.9915690412,49827.536920015446,0.0,0.0,0.0,193.0,0.0,193.0,0.0,1.0,0.0,179.0,193.0,1.0,179.0,1744418549.5002892,0.0,2025-04-11 20:42:29.500,FORWARD,3
202.0,-1751.169771095487,-22588.47178083322,-35417.36726967899,-24638.193802618243,19542.040770297142,3864.974244233876,27875.978097436204,49735.60419507077,0.0,0.0,0.0,193.0,0.0,192.0,0.0,1.0,0.0,179.0,192.0,1.0,179.0,1744418549.5003445,0.0,2025-04-11 20:42:29.500,FORWARD,3
203.0,-1730.7626284077917,-22541.4213587548,-35409.097124230524,-24603.325081267965,19454.0419523766,4094.057273156318,27585.60658521731,49846.02181267999,0.0,0.0,0.0,193.0,0.0,193.0,0.0,1.0,0.0,179.0,193.0,1.0,179.0,1744418549.500376,0.0,2025-04-11 20:42:29.500,FORWARD,3
204.0,-1721.240785269831,-22537.733320919673,-35369.892164455916,-24612.802220917016,19599.507105291737,4088.0446538978404,27502.502799332477,49889.56301087893,0.0,0.0,0.0,193.0,0.0,193.0,0.0,1.0,0.0,179.0,193.0,1.0,179.0,1744418549.5004072,0.0,2025-04-11 20:42:29.500,FORWARD,3
205.0,-1749.4710385168837,-22588.337670366487,-35390.27695539915,-24662.937183730268,19688.288234268217,3906.4814336873815,27906.801153040073,49850.98389994907,0.0,0.0,0.0,193.0,0.0,193.0,0.0,1.0,0.0,179.0,193.0,1.0,179.0,1744418549.5004385,0.0,2025-04-11 20:42:29.500,FORWARD,3
206.0,-1742.6761082024705,-22578.301737106056,-35408.739496319235,-24642.150061386834,19594.58972151157,3846.2434823803287,27923.229685214723,49736.76648578245,0.0,0.0,0.0,193.0,0.0,192.0,0.0,1.0,0.0,178.0,192.0,1.0,178.0,1744418549.5004697,0.0,2025-04-11 20:42:29.500,FORWARD,3
207.0,-1750.8791984175682,-22557.469911273707,-35429.83954308504,-24616.91494189679,19522.95238053231,4114.531471077379,27661.982496021094,49831.78375146195,0.0,0.0,0.0,193.0,0.0,192.0,0.0,1.0,0.0,178.0,192.0,1.0,178.0,1744418549.500501,0.0,2025-04-11 20:42:29.500,FORWARD,3
208.0,-1727.2534045283085,-22528.23382952617,-35375.01071393618,-24588.371764227362,19595.327329078595,4176.06582356284,27485.403714824166,49896.8273278269,0.0,0.0,0.0,193.0,0.0,192.0,0.0,1.0,0.0,178.0,192.0,1.0,178.0,1744418549.500532,0.0,2025-04-11 20:42:29.500,FORWARD,3
209.0,-1763.3291200791741,-22582.61562378593,-35380.66570528337,-24642.552392787027,19748.101502430618,3995.329617897227,27853.0228558806,49881.62814159729,0.0,0.0,0.0,193.0,0.0,192.0,0.0,1.0,0.0,178.0,192.0,1.0,178.0,1744418549.5005684,0.0,2025-04-11 20:42:29.500,FORWARD,3
210.0,-1751.2815298177636,-22589.745830267173,-35395.730781046244,-24642.731206742672,19645.0376087472,3809.921897640455,27937.08776677701,49733.14550318068,0.0,0.0,0.0,193.0,0.0,193.0,0.0,1.0,0.0,179.0,193.0,1.0,179.0,1744418549.5006,0.0,2025-04-11 20:42:29.500,FORWARD,3
211.0,-1743.6819367029593,-22575.731286493694,-35419.40127842442,-24617.63019771936,19501.33824364403,4046.5598161887906,27713.950301879682,49798.21143129009,0.0,0.0,0.0,193.0,0.0,193.0,0.0,1.0,0.0,179.0,193.0,1.0,179.0,1744418549.5006313,0.0,2025-04-11 20:42:29.500,FORWARD,3
212.0,-1715.0046485668004,-22542.717759933206,-35375.547155803106,-24601.49223822263,19508.51315361418,4146.181541226094,27466.717656459532,49873.894438015755,0.0,0.0,0.0,193.0,0.0,193.0,0.0,1.0,0.0,179.0,193.0,1.0,179.0,1744418549.5006762,0.0,2025-04-11 20:42:29.500,FORWARD,3
213.0,-1744.978337881367,-22588.918815722325,-35369.69099875582,-24646.53100330007,19643.74120756879,3990.702806794978,27778.993878244626,49875.48141187208,0.0,0.0,0.0,193.0,0.0,193.0,0.0,1.0,0.0,179.0,193.0,1.0,179.0,1744418549.500708,0.0,2025-04-11 20:42:29.500,FORWARD,3
214.0,-1757.7188322208922,-22608.52129560963,-35412.1593132209,-24684.752486318648,19576.8200846696,3747.851103288067,27970.63773520443,49746.22127368704,0.0,0.0,0.0,193.0,0.0,193.0,0.0,1.0,0.0,179.0,193.0,1.0,179.0,1744418549.500739,0.0,2025-04-11 20:42:29.500,FORWARD,3
215.0,-1743.5478262362274,-22572.266766103123,-35423.40224068192,-24645.703988755227,19470.738705484713,3899.3512272061384,27776.512834610086,49778.98893105852,0.0,0.0,0.0,193.0,0.0,193.0,0.0,1.0,0.0,179.0,193.0,1.0,179.0,1744418549.500771,0.0,2025-04-11 20:42:29.500,FORWARD,3
216.0,-1710.109616531088,-22525.998655080635,-35389.09231294302,-24595.993709086622,19443.491928993695,4096.426558068581,27485.671935757633,49872.218057181606,0.0,0.0,0.0,193.0,0.0,192.0,0.0,1.0,0.0,178.0,192.0,1.0,178.0,1744418549.5008144,0.0,2025-04-11 20:42:29.500,FORWARD,3
217.0,-1743.4137157694956,-22577.74294349467,-35363.56662077506,-24632.561163015507,19661.354382199574,4047.8115138782878,27700.360441250854,49884.28799918747,0.0,0.0,0.0,193.0,0.0,192.0,0.0,1.0,0.0,178.0,192.0,1.0,178.0,1744418549.500846,0.0,2025-04-11 20:42:29.500,FORWARD,3
218.0,-1756.1989135979313,-22598.842990260484,-35382.23032739524,-24655.96343946021,19700.42523150745,3826.9315751709432,27971.889432893924,49764.12502099574,0.0,0.0,0.0,193.0,0.0,192.0,0.0,1.0,0.0,178.0,192.0,1.0,178.0,1744418549.5008776,0.0,2025-04-11 20:42:29.500,FORWARD,3
219.0,-1754.4107740415066,-22581.207463885246,-35404.202092194806,-24636.360959572907,19541.303162730117,3939.651422459057,27827.832439879472,49753.21736970155,0.0,0.0,0.0,193.0,0.0,192.0,0.0,1.0,0.0,177.0,192.0,1.0,177.0,1744418549.50091,0.0,2025-04-11 20:42:29.500,FORWARD,3
220.0,-1731.3437737636298,-22557.55931825153,-35390.29930714361,-24605.783773158048,19471.453961307285,4149.444895916569,27520.585360596822,49860.39398436475,0.0,0.0,0.0,193.0,0.0,192.0,0.0,0.0,0.0,179.0,192.0,0.0,179.0,1744418549.5009427,0.0,2025-04-11 20:42:29.500,FORWARD,3
221.0,-1727.4769219728616,-22566.522367778107,-35349.70853921277,-24609.29299703753,19627.379730627505,4094.8842877011643,27629.46070783862,49898.280191216494,0.0,0.0,0.0,193.0,0.0,192.0,0.0,0.0,0.0,178.0,192.0,0.0,178.0,1744418549.5009751,0.0,2025-04-11 20:42:29.500,FORWARD,3
222.0,-1757.2941490762412,-22613.639845089896,-35386.14188267492,-24666.401704120843,19644.478815135815,3890.6116951241133,27977.477369007753,49806.928611627656,0.0,0.0,0.0,193.0,0.0,192.0,0.0,1.0,0.0,179.0,192.0,1.0,179.0,1744418549.501012,0.0,2025-04-11 20:42:29.501,FORWARD,3
223.0,-1751.2815298177636,-22587.488304077186,-35395.753132790705,-24628.1131658689,19532.13894750344,3915.6009454251466,27877.542719548073,49744.43313413062,0.0,0.0,0.0,193.0,0.0,192.0,0.0,0.0,0.0,179.0,192.0,0.0,179.0,1744418549.5010445,0.0,2025-04-11 20:42:29.501,FORWARD,3
224.0,-1733.4895412313392,-22555.972344395203,-35385.13605417443,-24593.758534641092,19428.717425908737,4141.420619657114,27581.60562295981,49862.80797276592,0.0,0.0,0.0,193.0,0.0,193.0,0.0,0.0,0.0,179.0,193.0,0.0,179.0,1744418549.5010772,0.0,2025-04-11 20:42:29.501,FORWARD,3
225.0,-1725.9346516054454,-22568.064638145523,-35327.580312202015,-24605.113220824387,19607.26316061773,4087.2623428419047,27560.55027968291,49889.07127250091,0.0,0.0,0.0,193.0,0.0,193.0,0.0,0.0,0.0,178.0,193.0,0.0,178.0,1744418549.50111,0.0,2025-04-11 20:42:29.501,FORWARD,3
226.0,-1750.5439222507384,-22607.80603978706,-35337.21391406225,-24651.78366324707,19704.98498737633,3875.43486063896,27944.597952913995,49830.15207411672,0.0,0.0,0.0,193.0,0.0,192.0,0.0,0.0,0.0,178.0,192.0,0.0,178.0,1744418549.5011432,0.0,2025-04-11 20:42:29.501,FORWARD,3
227.0,-1749.2922245612413,-22591.824542501516,-35364.68420799782,-24632.896439182336,19566.851206642536,3839.7614764882896,27909.639824585895,49735.60419507077,0.0,0.0,0.0,193.0,0.0,192.0,0.0,0.0,0.0,178.0,192.0,0.0,178.0,1744418549.5011926,0.0,2025-04-11 20:42:29.501,FORWARD,3
228.0,-1738.2504628003196,-22548.864489658416,-35373.13316740193,-24600.1064300664,19427.55513519706,4090.637456254656,27624.766841503006,49842.04320216694,0.0,0.0,0.0,193.0,0.0,192.0,0.0,0.0,0.0,178.0,192.0,0.0,178.0,1744418549.5012248,0.0,2025-04-11 20:42:29.501,FORWARD,3
229.0,-1727.208701039398,-22545.623486712397,-35332.02830934862,-24591.29984275101,19540.76672086319,4117.191328667561,27517.00908148397,49896.15677549324,0.0,0.0,0.0,193.0,0.0,193.0,0.0,0.0,0.0,179.0,193.0,0.0,179.0,1744418549.5012567,0.0,2025-04-11 20:42:29.501,FORWARD,3
230.0,-1765.5195910357943,-22618.37841491442,-35351.5413822581,-24649.190860890256,19700.8499146521,3940.389030026082,27912.27733043162,49862.02566170999,0.0,0.0,0.0,193.0,0.0,193.0,0.0,0.0,0.0,178.0,193.0,0.0,178.0,1744418549.5012884,0.0,2025-04-11 20:42:29.501,FORWARD,3
231.0,-1762.524457278783,-22614.176286956823,-35379.81633899407,-24638.462023551707,19605.139744894477,3834.33000258565,27947.257810504176,49730.59740431278,0.0,0.0,0.0,193.0,0.0,193.0,0.0,0.0,0.0,179.0,193.0,0.0,179.0,1744418549.5013325,0.0,2025-04-11 20:42:29.501,FORWARD,3
232.0,-1754.8131054417022,-22581.542740052075,-35397.02718222466,-24608.86831389288,19475.00788867568,4074.834772924754,27698.125266805324,49819.33382980035,0.0,0.0,0.0,193.0,0.0,192.0,0.0,0.0,0.0,178.0,192.0,0.0,178.0,1744418549.5013835,0.0,2025-04-11 20:42:29.501,FORWARD,3
233.0,-1737.6916691889369,-22560.107417119434,-35357.30813232758,-24604.48737197964,19514.14579321692,4128.925994506597,27502.301633632378,49884.377406165295,0.0,0.0,0.0,193.0,0.0,192.0,0.0,0.0,0.0,178.0,192.0,0.0,178.0,1744418549.501419,0.0,2025-04-11 20:42:29.501,FORWARD,3
234.0,-1756.2436170868418,-22594.305586136055,-35350.8931816689,-24644.720511999192,19704.940283887423,3979.348120611682,27854.65453322584,49869.4687926136,0.0,0.0,0.0,193.0,0.0,192.0,0.0,0.0,0.0,178.0,192.0,0.0,178.0,1744418549.501454,0.0,2025-04-11 20:42:29.501,FORWARD,3
235.0,-1766.2124951139087,-22604.922664752325,-35381.49271982822,-24657.46100633872,19612.828744987102,3793.694531165902,27972.805854416594,49733.3913723697,0.0,0.0,0.0,193.0,0.0,192.0,0.0,0.0,0.0,178.0,192.0,0.0,178.0,1744418549.5014892,0.0,2025-04-11 20:42:29.501,FORWARD,3
236.0,-1760.043413644244,-22579.106399906446,-35393.89793800091,-24624.514535011596,19466.246004849196,3982.879696235621,27755.03280818854,49791.550611442406,0.0,0.0,0.0,193.0,0.0,192.0,0.0,0.0,0.0,179.0,192.0,0.0,179.0,1744418549.5015244,0.0,2025-04-11 20:42:29.501,FORWARD,3
237.0,-1731.9696226083784,-22549.535041992076,-35355.51999277115,-24598.273587021064,19470.358725828974,4112.564517565313,27494.456171328566,49868.59707457985,0.0,0.0,0.0,193.0,0.0,193.0,0.0,0.0,0.0,179.0,193.0,0.0,179.0,1744418549.5015593,0.0,2025-04-11 20:42:29.501,FORWARD,3
238.0,-1753.20377984092,-22592.89742623537,-35339.44908850778,-24634.036378149558,19651.832539061612,4017.681362352534,27780.536148612042,49871.234580425575,0.0,0.0,0.0,193.0,0.0,192.0,0.0,0.0,0.0,178.0,192.0,0.0,178.0,1744418549.5015955,0.0,2025-04-11 20:42:29.501,FORWARD,3
239.0,-1773.3650533396071,-22613.505734623162,-35390.567528077074,-24669.575651833493,19575.21075906882,3791.36994974255,27999.426782062863,49746.51184636496,0.0,0.0,0.0,193.0,0.0,192.0,0.0,0.0,0.0,178.0,192.0,0.0,178.0,1744418549.5016303,0.0,2025-04-11 20:42:29.501,FORWARD,3
240.0,-1767.888875948057,-22578.61466152843,-35416.00381326721,-24638.439671807253,19425.02938807361,3926.5980036971578,27812.02975654957,49754.200846457585,0.0,0.0,0.0,193.0,0.0,192.0,0.0,0.0,0.0,178.0,192.0,0.0,178.0,1744418549.5016792,0.0,2025-04-11 20:42:29.501,FORWARD,3
241.0,-1743.301957047219,-22552.79839668255,-35387.639449553426,-24614.523305240073,19434.50652772266,4094.1243283896843,27514.885665760718,49845.28420511296,0.0,0.0,0.0,193.0,0.0,192.0,0.0,0.0,0.0,178.0,192.0,0.0,178.0,1744418549.501711,0.0,2025-04-11 20:42:29.501,FORWARD,3
242.0,-1749.046355372233,-22582.90619646385,-35350.11087061297,-24636.74093922865,19653.106588495564,4016.072036751752,27702.77442965203,49858.225865152584,0.0,0.0,0.0,193.0,0.0,192.0,0.0,0.0,0.0,179.0,192.0,0.0,179.0,1744418549.5017598,0.0,2025-04-11 20:42:29.501,FORWARD,3
243.0,-1760.915131678001,-22609.057737476556,-35380.33042911654,-24676.191768192264,19646.915155281444,3786.4749177068375,28002.757191986704,49751.630395845226,0.0,0.0,0.0,193.0,0.0,192.0,0.0,0.0,0.0,178.0,192.0,0.0,178.0,1744418549.5017931,0.0,2025-04-11 20:42:29.501,FORWARD,3
244.0,-1754.8131054417022,-22590.349327367465,-35408.22540619676,-24656.008142949122,19488.865970237966,3859.140438931041,27865.204556608744,49719.98032569651,0.0,0.0,0.0,193.0,0.0,192.0,0.0,0.0,0.0,178.0,192.0,0.0,178.0,1744418549.5018253,0.0,2025-04-11 20:42:29.501,FORWARD,3
245.0,-1740.8656169015906,-22556.687600217774,-35389.04760945411,-24616.669072707784,19434.528879467118,4102.19330813805,27557.108111036792,49826.75460895951,0.0,0.0,0.0,193.0,0.0,192.0,0.0,0.0,0.0,178.0,192.0,0.0,178.0,1744418549.5018573,0.0,2025-04-11 20:42:29.501,FORWARD,3
246.0,-1741.1338378350542,-22568.28815559008,-35340.70078619728,-24613.852752906412,19558.603412938526,4076.2429328254384,27636.322693386403,49858.60584480833,0.0,0.0,0.0,193.0,0.0,193.0,0.0,0.0,0.0,178.0,193.0,0.0,178.0,1744418549.501904,0.0,2025-04-11 20:42:29.501,FORWARD,3
247.0,-1761.1610008670093,-22608.029557231614,-35360.48208004023,-24654.35411385943,19574.651965457437,3845.7293922578565,27991.380154058952,49774.11625076726,0.0,0.0,0.0,193.0,0.0,193.0,0.0,0.0,0.0,179.0,193.0,0.0,179.0,1744418549.501936,0.0,2025-04-11 20:42:29.501,FORWARD,3
248.0,-1773.9014952065345,-22607.04608047558,-35398.83767352554,-24643.222945120688,19504.758060545693,3867.388232635049,27922.469725903244,49719.57799429631,0.0,0.0,0.0,193.0,0.0,193.0,0.0,0.0,0.0,179.0,193.0,0.0,179.0,1744418549.5019677,0.0,2025-04-11 20:42:29.501,FORWARD,3
249.0,-1764.6702247464925,-22570.255109102145,-35403.68800207234,-24618.323101797476,19460.18868210181,4126.735523549977,27627.113774670815,49836.52232128648,0.0,0.0,0.0,193.0,0.0,192.0,0.0,0.0,0.0,178.0,192.0,0.0,178.0,1744418549.5019996,0.0,2025-04-11 20:42:29.501,FORWARD,3
250.0,-1745.1795035814648,-22564.220138099212,-35350.26733282415,-24601.20166554471,19594.053279644642,4130.401209640648,27585.874806150772,49874.587342093866,0.0,0.0,0.0,193.0,0.0,192.0,0.0,0.0,0.0,178.0,192.0,0.0,178.0,1744418549.5020313,0.0,2025-04-11 20:42:29.502,FORWARD,3
251.0,-1770.1464021380427,-22603.46980136273,-35363.96895217526,-24646.419244577795,19696.04428959421,3942.6912597049786,27979.466674264277,49825.34644905883,0.0,0.0,0.0,193.0,0.0,192.0,0.0,0.0,0.0,178.0,192.0,0.0,178.0,1744418549.5020635,0.0,2025-04-11 20:42:29.502,FORWARD,3
252.0,-1765.653701502526,-22583.88967321988,-35388.824092009556,-24631.085947881456,19548.455720955815,3851.719659771879,27954.745644896706,49717.3875233397,0.0,0.0,0.0,193.0,0.0,192.0,0.0,0.0,0.0,179.0,192.0,0.0,179.0,1744418549.5020952,0.0,2025-04-11 20:42:29.502,FORWARD,3
253.0,-1740.396230268029,-22549.691504203263,-35388.42176060936,-24596.61955793137,19431.936077110302,4049.5325982013464,27664.932926289195,49810.549594229415,0.0,0.0,0.0,193.0,0.0,193.0,0.0,0.0,0.0,178.0,193.0,0.0,178.0,1744418549.5021272,0.0,2025-04-11 20:42:29.502,FORWARD,3
254.0,-1723.3642009930852,-22546.204632068235,-35334.509352983165,-24590.91986309527,19528.517964901683,4086.412976552603,27538.332645694336,49863.70204254414,0.0,0.0,0.0,193.0,0.0,193.0,0.0,0.0,0.0,179.0,193.0,0.0,179.0,1744418549.502158,0.0,2025-04-11 20:42:29.502,FORWARD,3
255.0,-1751.303881562219,-22600.117039694436,-35337.23626580671,-24644.653456765827,19696.826600650144,3964.4395070599926,27929.465821917755,49842.847864967334,0.0,0.0,0.0,193.0,0.0,193.0,0.0,0.0,0.0,178.0,193.0,0.0,178.0,1744418549.5021896,0.0,2025-04-11 20:42:29.502,FORWARD,3
0.0,-1731.947270863923,-22579.329917351,-35353.843611937,-24621.429994276765,19590.052317387144,3821.656563479491,27966.748531669204,49700.42254929812,0.0,0.0,0.0,193.0,0.0,192.0,0.0,0.0,0.0,178.0,192.0,0.0,178.0,1744418549.502222,0.0,2025-04-11 20:42:29.502,FORWARD,3
1.0,-1737.0658203441883,-22554.966515894714,-35379.01167619368,-24590.606938672896,19456.455940777774,4080.020377638385,27727.160182852767,49782.587561915825,0.0,0.0,0.0,193.0,0.0,193.0,0.0,0.0,0.0,179.0,193.0,0.0,179.0,1744418549.5022695,0.0,2025-04-11 20:42:29.502,FORWARD,3
2.0,-1722.2466137703198,-22540.192012809755,-35351.094347369,-24580.43689494573,19480.439362578316,4184.8277073893205,27533.236447958523,49864.43965011116,0.0,0.0,0.0,193.0,0.0,193.0,0.0,0.0,0.0,178.0,193.0,0.0,178.0,1744418549.5023017,0.0,2025-04-11 20:42:29.502,FORWARD,3
3.0,-1752.4885240183503,-22592.629205301906,-35350.021463635145,-24641.568916030996,19663.924832811932,4011.7805018163326,27871.910079945337,49849.50868481502,0.0,0.0,0.0,193.0,0.0,193.0,0.0,0.0,0.0,179.0,193.0,0.0,179.0,1744418549.5023327,0.0,2025-04-11 20:42:29.502,FORWARD,3
4.0,-1761.272759589286,-22600.161743183344,-35382.85617623999,-24650.330799857475,19583.21268358382,3795.594429444603,28015.855314237513,49711.97840118151,0.0,0.0,0.0,193.0,0.0,192.0,0.0,0.0,0.0,178.0,192.0,0.0,178.0,1744418549.5023685,0.0,2025-04-11 20:42:29.502,FORWARD,3
5.0,-1753.0696693741882,-22571.886786447383,-35398.614156080985,-24611.863447649892,19429.812661387048,4028.834882835732,27804.69838436823,49762.22512271704,0.0,0.0,0.0,193.0,0.0,192.0,0.0,0.0,0.0,178.0,192.0,0.0,178.0,1744418549.502437,0.0,2025-04-11 20:42:29.502,FORWARD,3
6.0,-1724.593546938127,-22539.74497792065,-35359.63271375093,-24595.077287563956,19427.152803796864,4163.258273989949,27526.64268334421,49847.49702781404,0.0,0.0,0.0,193.0,0.0,192.0,0.0,0.0,0.0,178.0,192.0,0.0,178.0,1744418549.502479,0.0,2025-04-11 20:42:29.502,FORWARD,3
7.0,-1740.6644512014927,-22578.36879233942,-35339.56084723006,-24629.700139725228,19634.956971997854,4053.0865255697404,27794.483637152152,49860.48339134257,0.0,0.0,0.0,193.0,0.0,192.0,0.0,0.0,0.0,178.0,192.0,0.0,178.0,1744418549.50252,0.0,2025-04-11 20:42:29.502,FORWARD,3
8.0,-1761.5186287782942,-22609.169496198832,-35373.177870890846,-24656.298715627043,19605.74324199477,3822.7965024467117,28026.941779487348,49734.8889392482,0.0,0.0,0.0,193.0,0.0,192.0,0.0,0.0,0.0,178.0,192.0,0.0,178.0,1744418549.5025747,0.0,2025-04-11 20:42:29.502,FORWARD,3
9.0,-1762.8597334456126,-22598.10538269346,-35388.1535396759,-24627.375558301876,19486.31787137006,3944.837027172688,27846.205573821735,49731.15619792417,0.0,0.0,0.0,193.0,0.0,192.0,0.0,0.0,0.0,178.0,192.0,0.0,178.0,1744418549.5026207,0.0,2025-04-11 20:42:29.502,FORWARD,3
10.0,-1738.8539599006128,-22559.481568274685,-35363.54426903061,-24590.182255528245,19425.69994040727,4114.598526310745,27544.88170681974,49832.94604217363,0.0,0.0,0.0,193.0,0.0,192.0,0.0,0.0,0.0,178.0,192.0,0.0,178.0,1744418549.502656,0.0,2025-04-11 20:42:29.502,FORWARD,3
11.0,-1747.884064660557,-22583.934376708792,-35333.23530354921,-24612.377537772365,19620.093061935077,4048.772638889866,27710.910464633762,49852.235597638566,0.0,0.0,0.0,193.0,0.0,192.0,0.0,0.0,0.0,178.0,192.0,0.0,178.0,1744418549.5026927,0.0,2025-04-11 20:42:29.502,FORWARD,3
12.0,-1764.3125968352076,-22617.730214325216,-35371.81441447907,-24657.371599360897,19657.84515832009,3835.6711072529683,28026.91942774289,49747.920006265645,0.0,0.0,0.0,193.0,0.0,192.0,0.0,0.0,0.0,178.0,192.0,0.0,178.0,1744418549.5027528,0.0,2025-04-11 20:42:29.502,FORWARD,3
13.0,-1767.2853788477635,-22602.843952517982,-35397.362458391486,-24632.35999731541,19506.456793124296,3910.638858156068,27911.04798448658,49714.72766574952,0.0,0.0,0.0,193.0,0.0,192.0,0.0,0.0,0.0,178.0,192.0,0.0,178.0,1744418549.5027993,0.0,2025-04-11 20:42:29.502,FORWARD,3
14.0,-1750.4768670173726,-22565.293021833066,-35386.47715884175,-24600.017023088578,19384.7738963096,4130.870596274209,27605.18671336016,49824.07239962488,0.0,0.0,0.0,193.0,0.0,192.0,0.0,0.0,0.0,178.0,192.0,0.0,178.0,1744418549.5028396,0.0,2025-04-11 20:42:29.502,FORWARD,3
15.0,-1723.8559393711018,-22549.713855947717,-35308.64838464837,-24580.280432734544,19546.131139532466,4101.634514526667,27635.80860326393,49839.89743469923,0.0,0.0,0.0,193.0,0.0,193.0,0.0,0.0,0.0,179.0,193.0,0.0,179.0,1744418549.502884,0.0,2025-04-11 20:42:29.502,FORWARD,3
16.0,-1759.305806077219,-22604.296815907575,-35335.47047799474,-24636.62918050637,19673.647841649992,3882.363901420105,28003.852427465015,49756.05604124738,0.0,0.0,0.0,193.0,0.0,193.0,0.0,0.0,0.0,179.0,193.0,0.0,179.0,1744418549.502925,0.0,2025-04-11 20:42:29.502,FORWARD,3
17.0,-1767.5759515256825,-22600.832295517004,-35367.209955121274,-24626.16856410129,19573.176750323386,3869.62340708058,27941.781633112627,49685.893915402165,0.0,0.0,0.0,193.0,0.0,193.0,0.0,0.0,0.0,178.0,193.0,0.0,178.0,1744418549.5029898,0.0,2025-04-11 20:42:29.502,FORWARD,3
18.0,-1745.7159454483922,-22553.670114716308,-35369.71335050027,-24596.284281764543,19449.99628663019,4096.337151090759,27657.020408752014,49814.17057683117,0.0,0.0,0.0,193.0,0.0,192.0,0.0,0.0,0.0,178.0,192.0,0.0,178.0,1744418549.5030303,0.0,2025-04-11 20:42:29.503,FORWARD,3
19.0,-1743.0784396026659,-22561.89555667586,-35342.891257153904,-24606.96841561418,19550.82500586808,4090.7939184658435,27612.406326819222,49870.027586224984,0.0,0.0,0.0,193.0,0.0,192.0,0.0,0.0,0.0,177.0,192.0,0.0,177.0,1744418549.5030684,0.0,2025-04-11 20:42:29.503,FORWARD,3
20.0,-1758.8811229325681,-22608.118964209436,-35351.87665842494,-24649.727302757183,19671.904405582478,3923.3793524955936,27998.53271228465,49815.019943120475,0.0,0.0,0.0,193.0,0.0,192.0,0.0,0.0,0.0,179.0,192.0,0.0,179.0,1744418549.503108,0.0,2025-04-11 20:42:29.503,FORWARD,3
21.0,-1748.9345966499563,-22600.56407458354,-35379.05637968259,-24631.175354859275,19565.778322908678,3858.0899069416414,27996.074020394568,49692.487680016486,0.0,0.0,0.0,193.0,0.0,193.0,0.0,0.0,0.0,179.0,193.0,0.0,179.0,1744418549.503184,0.0,2025-04-11 20:42:29.503,FORWARD,3
22.0,-1739.6139192120934,-22568.802245712548,-35391.5063013442,-24607.035470847546,19423.59887642847,4098.57232553629,27727.62956948633,49786.365006728774,0.0,0.0,0.0,193.0,0.0,193.0,0.0,0.0,0.0,179.0,193.0,0.0,179.0,1744418549.5032203,0.0,2025-04-11 20:42:29.503,FORWARD,3
23.0,-1711.5848316651384,-22537.956838364225,-35344.008844376665,-24593.646775918816,19444.922440638835,4136.480884132491,27575.16832055668,49845.59712953534,0.0,0.0,0.0,193.0,0.0,192.0,0.0,0.0,0.0,178.0,192.0,0.0,178.0,1744418549.5032597,0.0,2025-04-11 20:42:29.503,FORWARD,3
24.0,-1746.4759047598727,-22579.03934467308,-35346.08755661101,-24645.458119566218,19635.53811735369,3927.6932391754676,27947.883659348925,49814.79642567592,0.0,0.0,0.0,193.0,0.0,192.0,0.0,0.0,0.0,178.0,192.0,0.0,178.0,1744418549.5032983,0.0,2025-04-11 20:42:29.503,FORWARD,3
25.0,-1755.6401199865486,-22587.890635477383,-35373.513147057674,-24641.39010207535,19618.193163656375,3765.2631122187513,28016.2129421488,49674.718043174515,0.0,0.0,0.0,193.0,0.0,192.0,0.0,0.0,0.0,178.0,192.0,0.0,178.0,1744418549.5033395,0.0,2025-04-11 20:42:29.503,FORWARD,3
26.0,-1759.9093031775121,-22578.32408885051,-35390.54517633262,-24609.650624948816,19499.19247617632,4030.8912433256205,27789.901529538816,49760.74990758299,0.0,0.0,0.0,193.0,0.0,192.0,0.0,0.0,0.0,178.0,192.0,0.0,178.0,1744418549.5033903,0.0,2025-04-11 20:42:29.503,FORWARD,3
27.0,-1729.0638958291884,-22554.2736118166,-35345.64052172191,-24581.465075190674,19511.754156560204,4137.173788210605,27555.431730202643,49831.470827039586,0.0,0.0,0.0,193.0,0.0,192.0,0.0,0.0,0.0,178.0,192.0,0.0,178.0,1744418549.503429,0.0,2025-04-11 20:42:29.503,FORWARD,3
28.0,-1745.0230413702777,-22601.927530995315,-35341.46074550876,-24626.615598990393,19684.734306899823,4004.3373709127154,27882.929489961803,49829.92855667217,0.0,0.0,0.0,193.0,0.0,192.0,0.0,0.0,0.0,178.0,192.0,0.0,178.0,1744418549.5034664,0.0,2025-04-11 20:42:29.503,FORWARD,3
29.0,-1742.6984599469258,-22598.150086182366,-35371.32267610105,-24642.105357897923,19618.439032845385,3802.0093801032763,28041.224544194287,49692.040645127374,0.0,0.0,0.0,193.0,0.0,192.0,0.0,0.0,0.0,178.0,192.0,0.0,178.0,1744418549.5035036,0.0,2025-04-11 20:42:29.503,FORWARD,3
30.0,-1750.432163528462,-22566.41060905583,-35387.52769083115,-24609.91884588228,19478.315946855062,3999.777615043833,27831.83340213697,49718.12513090672,0.0,0.0,0.0,193.0,0.0,192.0,0.0,0.0,0.0,178.0,192.0,0.0,178.0,1744418549.503539,0.0,2025-04-11 20:42:29.503,FORWARD,3
31.0,-1733.0648580866884,-22550.764387937117,-35348.09921361199,-24594.071459063467,19459.831054190523,4144.594567369767,27554.82823310235,49804.894602882225,0.0,0.0,0.0,193.0,0.0,192.0,0.0,0.0,0.0,177.0,192.0,0.0,177.0,1744418549.503579,0.0,2025-04-11 20:42:29.503,FORWARD,3
32.0,-1741.7373349353475,-22586.638937787884,-35316.58325393,-24618.077232608466,19653.08423675111,4027.9184613130647,27799.736297099153,49818.97620188907,0.0,0.0,0.0,193.0,0.0,192.0,0.0,0.0,0.0,178.0,192.0,0.0,178.0,1744418549.5036576,0.0,2025-04-11 20:42:29.503,FORWARD,3
33.0,-1741.91614889099,-22590.818714001027,-35334.576408216526,-24626.77206120158,19624.563410826137,3803.2610777927734,28039.190535448855,49690.63248522669,0.0,0.0,0.0,193.0,0.0,192.0,0.0,0.0,0.0,178.0,192.0,0.0,178.0,1744418549.503702,0.0,2025-04-11 20:42:29.503,FORWARD,3
34.0,-1740.5750442236715,-22570.94801318026,-35362.96312367477,-24594.33967999693,19481.80281899009,3937.639765458079,27896.832275013006,49700.31079057584,0.0,0.0,0.0,193.0,0.0,192.0,0.0,0.0,0.0,178.0,192.0,0.0,178.0,1744418549.9783351,0.0,2025-04-11 20:42:29.978,FORWARD,3
35.0,-1719.7432183913254,-22540.236716298667,-35349.17209734584,-24566.511758150074,19435.199431800775,4133.731619564488,27602.772724958984,49812.18127157465,0.0,0.0,0.0,193.0,0.0,192.0,0.0,0.0,0.0,179.0,192.0,0.0,179.0,1744418549.9785104,0.0,2025-04-11 20:42:29.978,FORWARD,3
36.0,-1730.62851794106,-22570.433923057786,-35327.22268429073,-24600.464057977686,19594.433259300382,4057.3333570162486,27740.325360336945,49840.34446958834,0.0,0.0,0.0,193.0,0.0,193.0,0.0,0.0,0.0,179.0,193.0,0.0,179.0,1744418549.9785974,0.0,2025-04-11 20:42:29.978,FORWARD,3
37.0,-1743.5701779806827,-22595.512580336643,-35350.55790550207,-24637.031511906567,19635.56046909815,3821.097769868108,28058.569497891607,49740.87920676222,0.0,0.0,0.0,193.0,0.0,193.0,0.0,0.0,0.0,179.0,193.0,0.0,179.0,1744418549.9786344,0.0,2025-04-11 20:42:29.978,FORWARD,3
38.0,-1745.9841663818559,-22581.967423196726,-35387.348876875505,-24617.026700619066,19513.81051705009,3862.9849389773535,27942.273371490643,49679.478964743495,0.0,0.0,0.0,193.0,0.0,193.0,0.0,0.0,0.0,179.0,193.0,0.0,179.0,1744418549.9786704,0.0,2025-04-11 20:42:29.978,FORWARD,3
39.0,-1718.2903550017304,-22537.956838364225,-35380.24102213872,-24579.788694356525,19447.492891251193,4099.846374970242,27643.922286501205,49795.08218706634,0.0,0.0,0.0,193.0,0.0,192.0,0.0,0.0,0.0,178.0,192.0,0.0,178.0,1744418549.978706,0.0,2025-04-11 20:42:29.978,FORWARD,3
40.0,-1710.3778374645517,-22536.816899397007,-35341.147821086386,-24585.24252000362,19594.67912848939,4073.5607234908016,27667.61513562383,49836.18704511965,0.0,0.0,0.0,193.0,0.0,192.0,0.0,0.0,0.0,178.0,192.0,0.0,178.0,1744418549.9787416,0.0,2025-04-11 20:42:29.978,FORWARD,3
41.0,-1724.6382504270377,-22565.47183578871,-35347.87569616744,-24617.898418652825,19668.618699147548,3878.8993810295324,28055.954343790334,49779.52537292545,0.0,0.0,0.0,193.0,0.0,192.0,0.0,0.0,0.0,178.0,192.0,0.0,178.0,1744418549.9787772,0.0,2025-04-11 20:42:29.978,FORWARD,3
42.0,-1721.307840503197,-22561.157949108834,-35367.7463969882,-24599.458229477197,19549.908584345412,3843.0248311787645,27989.480255780254,49679.88129614369,0.0,0.0,0.0,193.0,0.0,192.0,0.0,0.0,0.0,178.0,192.0,0.0,178.0,1744418549.9788125,0.0,2025-04-11 20:42:29.978,FORWARD,3
43.0,-1708.8355670971355,-22526.624503925384,-35371.00975167868,-24567.29406920601,19464.413161803863,4097.14181389115,27692.313813246947,49779.99475955901,0.0,0.0,0.0,193.0,0.0,192.0,0.0,0.0,0.0,178.0,192.0,0.0,178.0,1744418549.9788475,0.0,2025-04-11 20:42:29.978,FORWARD,3
44.0,-1710.4448926979176,-22531.586591194464,-35345.28289381062,-24568.85869131788,19556.278831515174,4131.183520696583,27621.59289379035,49839.562158532404,0.0,0.0,0.0,193.0,0.0,193.0,0.0,0.0,0.0,179.0,193.0,0.0,179.0,1744418549.978883,0.0,2025-04-11 20:42:29.978,FORWARD,3
45.0,-1728.6168609400822,-22571.640917258374,-35355.4976410267,-24622.793450688536,19697.899484384,3951.5649022537355,28010.334433357053,49790.81300387538,0.0,0.0,0.0,193.0,0.0,193.0,0.0,0.0,0.0,179.0,193.0,0.0,179.0,1744418549.978918,0.0,2025-04-11 20:42:29.978,FORWARD,3
46.0,-1741.7373349353475,-22574.926623693304,-35394.32262114556,-24623.598113488926,19585.58196849608,3843.2483486233177,28042.230372694776,49673.86867688521,0.0,0.0,0.0,193.0,0.0,192.0,0.0,0.0,0.0,178.0,192.0,0.0,178.0,1744418549.978953,0.0,2025-04-11 20:42:29.978,FORWARD,3
47.0,-1715.9657735783785,-22526.333931247467,-35399.932909003845,-24578.358182711385,19440.362684769952,4072.9572263905084,27775.484654365144,49760.12405873824,0.0,0.0,0.0,193.0,0.0,192.0,0.0,0.0,0.0,178.0,192.0,0.0,178.0,1744418549.9790056,0.0,2025-04-11 20:42:29.979,FORWARD,3
48.0,-1687.0649679976664,-22503.378689691865,-35357.933981172326,-24565.014191271566,19455.003077388177,4111.581040809278,27595.441352777645,49814.9081843982,0.0,0.0,0.0,193.0,0.0,192.0,0.0,0.0,0.0,178.0,192.0,0.0,178.0,1744418549.979041,0.0,2025-04-11 20:42:29.979,FORWARD,3
49.0,-1714.691724144426,-22552.485472260174,-35357.62105674995,-24628.426090291276,19641.394274400984,3898.0995295166413,27952.48811870672,49778.29602698041,0.0,0.0,0.0,193.0,0.0,192.0,0.0,0.0,0.0,178.0,192.0,0.0,178.0,1744418549.9790764,0.0,2025-04-11 20:42:29.979,FORWARD,3
50.0,-1713.9764683218561,-22549.825614669993,-35369.26631561117,-24624.067500122488,19633.347646397073,3778.4729931918378,28063.3751229495,49657.6189586662,0.0,0.0,0.0,193.0,0.0,193.0,0.0,0.0,0.0,179.0,193.0,0.0,179.0,1744418549.979125,0.0,2025-04-11 20:42:29.979,FORWARD,3
51.0,-1713.1494537770097,-22529.820803382496,-35390.500472843705,-24598.139476554334,19509.362519903483,3972.6649490195455,27839.343588273954,49731.89380549119,0.0,0.0,0.0,193.0,0.0,193.0,0.0,0.0,0.0,179.0,193.0,0.0,179.0,1744418549.979176,0.0,2025-04-11 20:42:29.979,FORWARD,3
52.0,-1689.6577703544822,-22504.295111214535,-35352.43545203632,-24563.71779009316,19518.347921174518,4135.363296909725,27598.23532083456,49809.61082096229,0.0,0.0,0.0,193.0,0.0,193.0,0.0,0.0,0.0,179.0,193.0,0.0,179.0,1744418549.9792075,0.0,2025-04-11 20:42:29.979,FORWARD,3
53.0,-1705.9074885734904,-22543.27655354459,-35338.75618442967,-24595.457267219695,19679.682812652925,4072.577246734768,27896.765219779638,49801.675951680656,0.0,0.0,0.0,193.0,0.0,193.0,0.0,0.0,0.0,178.0,193.0,0.0,178.0,1744418549.9792392,0.0,2025-04-11 20:42:29.979,FORWARD,3
54.0,-1709.1037880305992,-22547.50103324664,-35367.634638265925,-24609.76238367109,19598.41186981343,3864.817782022689,28089.817236640127,49676.93086587559,0.0,0.0,0.0,193.0,0.0,193.0,0.0,0.0,0.0,178.0,193.0,0.0,178.0,1744418549.9792705,0.0,2025-04-11 20:42:29.979,FORWARD,3
55.0,-1711.6071834095935,-22522.780003879074,-35394.92611824586,-24577.799389100004,19512.089432727033,4015.0215047623524,27896.340536634987,49706.50222378996,0.0,0.0,0.0,193.0,0.0,192.0,0.0,0.0,0.0,178.0,192.0,0.0,178.0,1744418549.9793012,0.0,2025-04-11 20:42:29.979,FORWARD,3
56.0,-1689.590715121116,-22499.534189645554,-35351.988417147215,-24556.565231867462,19528.808537579604,4167.885085092197,27618.37424258879,49800.71482666908,0.0,0.0,0.0,193.0,0.0,192.0,0.0,0.0,0.0,178.0,192.0,0.0,178.0,1744418549.979332,0.0,2025-04-11 20:42:29.979,FORWARD,3
57.0,-1686.4614708973731,-22519.762518377607,-35302.09932352297,-24571.96558379717,19709.634150223035,4102.8862122161645,27825.641968922853,49804.62638194876,0.0,0.0,0.0,193.0,0.0,192.0,0.0,0.0,0.0,178.0,192.0,0.0,178.0,1744418549.9793627,0.0,2025-04-11 20:42:29.979,FORWARD,3
58.0,-1700.4313111819401,-22546.361094279422,-35330.173114558835,-24610.522342982575,19692.646824437004,3885.29197994375,28096.679222187904,49684.82103166831,0.0,0.0,0.0,193.0,0.0,192.0,0.0,0.0,0.0,178.0,192.0,0.0,178.0,1744418549.9793935,0.0,2025-04-11 20:42:29.979,FORWARD,3
59.0,-1691.3341511886301,-22516.387404964855,-35353.12835611443,-24583.096752535912,19512.111784471486,3960.97498666942,27943.592124413506,49660.949368590045,0.0,0.0,0.0,193.0,0.0,192.0,0.0,0.0,0.0,178.0,192.0,0.0,178.0,1744418549.9794247,0.0,2025-04-11 20:42:29.979,FORWARD,3
60.0,-1683.756909818281,-22495.35441343241,-35357.86692593896,-24566.221185472154,19414.077033290512,4117.101921689739,27653.645295339265,49778.36308221377,0.0,0.0,0.0,193.0,0.0,193.0,0.0,0.0,0.0,179.0,193.0,0.0,179.0,1744418549.9794557,0.0,2025-04-11 20:42:29.979,FORWARD,3
61.0,-1684.628627852038,-22508.27372172758,-35308.53662592609,-24588.908206094293,19625.83746026009,3990.8816207506206,27766.54395658302,49815.28816405394,0.0,0.0,0.0,193.0,0.0,192.0,0.0,0.0,0.0,178.0,192.0,0.0,178.0,1744418549.9794865,0.0,2025-04-11 20:42:29.979,FORWARD,3
62.0,-1698.1067297585882,-22531.430128983277,-35333.525876227126,-24620.781793687558,19691.90921686998,3838.398020076516,28120.930864921913,49729.90450023467,0.0,0.0,0.0,193.0,0.0,192.0,0.0,0.0,0.0,178.0,192.0,0.0,178.0,1744418549.9795308,0.0,2025-04-11 20:42:29.979,FORWARD,3
63.0,-1698.9337443034344,-22526.93742834776,-35367.18760337682,-24591.00927007309,19525.656941611403,3932.141236322074,28011.384965346453,49654.0203278089,0.0,0.0,0.0,193.0,0.0,192.0,0.0,0.0,0.0,178.0,192.0,0.0,178.0,1744418549.9795618,0.0,2025-04-11 20:42:29.979,FORWARD,3
64.0,-1681.566438861661,-22497.611939622395,-35350.75907120217,-24554.732388822125,19467.341240327507,4177.272817763426,27706.127191320324,49762.29217795041,0.0,0.0,0.0,193.0,0.0,192.0,0.0,0.0,0.0,178.0,192.0,0.0,178.0,1744418549.9795928,0.0,2025-04-11 20:42:29.979,FORWARD,3
65.0,-1686.372063919552,-22514.88983808635,-35312.24701550567,-24571.09386576341,19628.02793121671,4163.861771090242,27705.613101197854,49801.27362028046,0.0,0.0,0.0,193.0,0.0,192.0,0.0,0.0,0.0,178.0,192.0,0.0,178.0,1744418549.9796238,0.0,2025-04-11 20:42:29.979,FORWARD,3
66.0,-1712.7024188879036,-22560.308582819533,-35327.75912615766,-24624.715700711695,19729.124871388063,3921.032419327786,28090.353678507054,49737.45938986056,0.0,0.0,0.0,193.0,0.0,192.0,0.0,0.0,0.0,178.0,192.0,0.0,178.0,1744418549.979668,0.0,2025-04-11 20:42:29.979,FORWARD,3
67.0,-1702.7335408608367,-22538.873259886892,-35340.1419925859,-24602.520418467575,19623.44582360337,3847.3834213475493,28049.382930920474,49640.13989450216,0.0,0.0,0.0,193.0,0.0,193.0,0.0,0.0,0.0,179.0,193.0,0.0,179.0,1744418549.979699,0.0,2025-04-11 20:42:29.979,FORWARD,3
68.0,-1693.1669942339654,-22509.234846739157,-35359.16332711736,-24565.640040116316,19509.183705947842,4113.637401299167,27760.844261746915,49741.92973875162,0.0,0.0,0.0,193.0,0.0,192.0,0.0,0.0,0.0,178.0,192.0,0.0,178.0,1744418549.97973,0.0,2025-04-11 20:42:29.979,FORWARD,3
69.0,-1678.2360289378203,-22503.624558880874,-35308.53662592609,-24565.260060460576,19588.35358480854,4142.515855135423,27642.022388222504,49785.89562009521,0.0,0.0,0.0,193.0,0.0,192.0,0.0,0.0,0.0,178.0,192.0,0.0,178.0,1744418549.9797611,0.0,2025-04-11 20:42:29.979,FORWARD,3
70.0,-1697.9726192918563,-22537.308637775022,-35302.50165492316,-24603.950930112715,19726.17444111996,3962.874884948121,28038.20705869282,49756.39131741421,0.0,0.0,0.0,193.0,0.0,192.0,0.0,0.0,0.0,178.0,192.0,0.0,178.0,1744418549.979792,0.0,2025-04-11 20:42:29.979,FORWARD,3
71.0,-1697.0114942802782,-22528.680864415273,-35333.07884133802,-24587.52239793806,19612.247599631264,3847.405773092005,28082.88819585898,49633.903757799126,0.0,0.0,0.0,193.0,0.0,192.0,0.0,0.0,0.0,178.0,192.0,0.0,178.0,1744418549.9798229,0.0,2025-04-11 20:42:29.979,FORWARD,3
72.0,-1696.6538663689932,-22505.6138641374,-35361.554963774084,-24566.847034316903,19469.866987450958,4075.5723804917793,27837.08606208397,49724.96476471004,0.0,0.0,0.0,193.0,0.0,193.0,0.0,0.0,0.0,178.0,193.0,0.0,178.0,1744418549.9798539,0.0,2025-04-11 20:42:29.979,FORWARD,3
73.0,-1664.4450026088957,-22479.93170975825,-35306.45791369175,-24549.18915619721,19543.828909853568,4119.001819968441,27640.18954517717,49789.315436996876,0.0,0.0,0.0,193.0,0.0,192.0,0.0,0.0,0.0,178.0,192.0,0.0,178.0,1744418549.9798849,0.0,2025-04-11 20:42:29.979,FORWARD,3
74.0,-1682.9298952734346,-22522.064748056502,-35290.74463733967,-24592.48448520714,19706.683719954937,3956.549341267269,27991.804837203603,49769.310625709375,0.0,0.0,0.0,193.0,0.0,192.0,0.0,0.0,0.0,178.0,192.0,0.0,178.0,1744418549.9799154,0.0,2025-04-11 20:42:29.979,FORWARD,3
75.0,-1699.4925379148171,-22536.123995318892,-35329.14493431389,-24602.028680089556,19637.683884821403,3796.8014236451895,28118.405117798462,49627.64526935164,0.0,0.0,0.0,193.0,0.0,192.0,0.0,0.0,0.0,178.0,192.0,0.0,178.0,1744418549.9799464,0.0,2025-04-11 20:42:29.979,FORWARD,3
76.0,-1701.8841745715351,-22517.527343932074,-35361.71142598527,-24574.37957219834,19517.990293263232,3994.346141141193,27909.125734463425,49695.616924240225,0.0,0.0,0.0,193.0,0.0,193.0,0.0,0.0,0.0,178.0,193.0,0.0,178.0,1744418549.979977,0.0,2025-04-11 20:42:29.979,FORWARD,3
77.0,-1669.5859038336164,-22481.96571850368,-35318.75137314217,-24547.065740473958,19528.137985245943,4115.023209455396,27650.158423204237,49777.625474646746,0.0,0.0,0.0,193.0,0.0,193.0,0.0,0.0,0.0,179.0,193.0,0.0,179.0,1744418549.9800208,0.0,2025-04-11 20:42:29.980,FORWARD,3
78.0,-1681.4546801393844,-22505.725622859674,-35290.07408500601,-24577.128836766344,19686.65655692298,4044.3693452321704,27938.697092377795,49779.9500560701,0.0,0.0,0.0,193.0,0.0,192.0,0.0,0.0,0.0,178.0,192.0,0.0,178.0,1744418549.980052,0.0,2025-04-11 20:42:29.980,FORWARD,3
79.0,-1679.4206713939514,-22512.006463051614,-35309.69891663777,-24586.449514204207,19613.34283510957,3846.802275991711,28159.420568873953,49658.423621466594,0.0,0.0,0.0,193.0,0.0,192.0,0.0,0.0,0.0,178.0,192.0,0.0,178.0,1744418549.9800885,0.0,2025-04-11 20:42:29.980,FORWARD,3
80.0,-1692.9434767894122,-22518.60022766593,-35343.56180948756,-24577.777037355547,19555.63063092597,3957.488114534392,27966.90499388039,49659.85413311174,0.0,0.0,0.0,193.0,0.0,192.0,0.0,0.0,0.0,178.0,192.0,0.0,178.0,1744418549.980121,0.0,2025-04-11 20:42:29.980,FORWARD,3
81.0,-1659.8628949955578,-22474.477884111155,-35303.46277993474,-24556.788749312014,19549.662715156403,4077.449927026025,27666.296382700966,49753.574997612835,0.0,0.0,0.0,193.0,0.0,192.0,0.0,0.0,0.0,178.0,192.0,0.0,178.0,1744418549.9801705,0.0,2025-04-11 20:42:29.980,FORWARD,3
82.0,-1670.9940637343007,-22503.78102109206,-35272.30444816404,-24560.655601102782,19732.14235688953,4022.1070077546847,27861.762387962626,49777.960750813574,0.0,0.0,0.0,193.0,0.0,193.0,0.0,0.0,0.0,179.0,193.0,0.0,179.0,1744418549.9802015,0.0,2025-04-11 20:42:29.980,FORWARD,3
83.0,-1702.7111891163813,-22536.615733696908,-35314.34807948447,-24596.753668398105,19709.053004867197,3847.9198632144767,28164.516766609762,49675.835630397276,0.0,0.0,0.0,193.0,0.0,192.0,0.0,0.0,0.0,179.0,192.0,0.0,179.0,1744418549.9802325,0.0,2025-04-11 20:42:29.980,FORWARD,3
84.0,-1709.7072851308926,-22524.27757075758,-35338.80088791858,-24570.378609940843,19549.573308178584,3947.8545126741546,28031.278017911678,49651.9192638301,0.0,0.0,0.0,193.0,0.0,192.0,0.0,0.0,0.0,178.0,192.0,0.0,178.0,1744418549.9802628,0.0,2025-04-11 20:42:29.980,FORWARD,3
85.0,-1675.0173777362559,-22477.182445190247,-35316.47149520773,-24531.128946677323,19488.1507144154,4169.9190938376305,27713.34680477939,49755.92193078064,0.0,0.0,0.0,193.0,0.0,192.0,0.0,0.0,0.0,178.0,192.0,0.0,178.0,1744418549.980294,0.0,2025-04-11 20:42:29.980,FORWARD,3
86.0,-1675.0173777362559,-22497.656643111306,-35273.64555283136,-24544.897621261793,19664.08129502312,4133.038715486374,27786.59347135943,49779.435965947625,0.0,0.0,0.0,193.0,0.0,193.0,0.0,0.0,0.0,178.0,193.0,0.0,178.0,1744418549.9803247,0.0,2025-04-11 20:42:29.980,FORWARD,3
87.0,-1697.3020669581972,-22535.498146474143,-35299.86414907744,-24599.033546332546,19733.081130156654,3909.2083465109285,28149.38463561352,49699.30496207535,0.0,0.0,0.0,193.0,0.0,193.0,0.0,0.0,0.0,179.0,193.0,0.0,179.0,1744418549.980356,0.0,2025-04-11 20:42:29.980,FORWARD,3
88.0,-1696.0727210131552,-22512.140573518347,-35328.004995346666,-24580.995688557112,19581.044564371656,3896.266686471306,28068.963059063324,49626.63944085115,0.0,0.0,0.0,193.0,0.0,193.0,0.0,0.0,0.0,178.0,193.0,0.0,178.0,1744418549.980387,0.0,2025-04-11 20:42:29.980,FORWARD,3
89.0,-1679.3759679050409,-22478.858826024392,-35325.61335868995,-24547.401016640786,19434.618286444937,4092.067967899796,27771.282526407544,49740.365116639754,0.0,0.0,0.0,193.0,0.0,192.0,0.0,0.0,0.0,178.0,192.0,0.0,178.0,1744418549.980418,0.0,2025-04-11 20:42:29.980,FORWARD,3
90.0,-1659.4829153398175,-22472.041543965526,-35266.29182890557,-24549.56913585295,19632.565335341136,4057.9815576054525,27734.044520145002,49776.95492231309,0.0,0.0,0.0,193.0,0.0,192.0,0.0,0.0,0.0,178.0,192.0,0.0,178.0,1744418549.9804487,0.0,2025-04-11 20:42:29.980,FORWARD,3
91.0,-1687.0426162532112,-22518.868448599394,-35280.105206978944,-24593.28914800753,19783.841941814655,3909.275401744295,28138.342873852598,49729.949203723576,0.0,0.0,0.0,193.0,0.0,192.0,0.0,0.0,0.0,178.0,192.0,0.0,178.0,1744418549.98048,0.0,2025-04-11 20:42:29.980,FORWARD,3
92.0,-1694.172822734454,-22515.672149142283,-35315.95740508525,-24574.714848365173,19641.237812189796,3852.971357461376,28113.823010185126,49616.1117692127,0.0,0.0,0.0,193.0,0.0,192.0,0.0,0.0,0.0,178.0,192.0,0.0,178.0,1744418549.9805107,0.0,2025-04-11 20:42:29.980,FORWARD,3
93.0,-1684.9639040188677,-22485.65375633881,-35318.930187097816,-24537.253324658075,19519.554915375105,4095.3983778236366,27836.147288816846,49717.52163380643,0.0,0.0,0.0,193.0,0.0,192.0,0.0,0.0,0.0,178.0,192.0,0.0,178.0,1744418549.980674,0.0,2025-04-11 20:42:29.980,FORWARD,3
94.0,-1665.4284793649292,-22472.198006176714,-35275.21017494323,-24530.167821665746,19593.718003477814,4103.467357572003,27690.592728923886,49761.59927387229,0.0,0.0,0.0,193.0,0.0,192.0,0.0,0.0,0.0,178.0,192.0,0.0,178.0,1744418549.980706,0.0,2025-04-11 20:42:29.980,FORWARD,3
95.0,-1684.3604069185744,-22510.88887582885,-35276.28305867709,-24586.11423803738,19729.013112665787,3910.7953203672555,28077.50142544525,49731.04443920189,0.0,0.0,0.0,193.0,0.0,192.0,0.0,0.0,0.0,178.0,192.0,0.0,178.0,1744418549.9807367,0.0,2025-04-11 20:42:29.980,FORWARD,3
96.0,-1691.5129651442726,-22522.08709980096,-35307.21787300323,-24588.86350260538,19646.98221051481,3788.7994991301894,28140.935676209414,49606.12053944117,0.0,0.0,0.0,193.0,0.0,192.0,0.0,0.0,0.0,179.0,192.0,0.0,179.0,1744418549.9807856,0.0,2025-04-11 20:42:29.980,FORWARD,3
97.0,-1691.110633744077,-22498.438954167243,-35325.72511741223,-24558.554537123986,19531.893078314435,4021.101179254196,27891.46785634373,49677.1767350646,0.0,0.0,0.0,193.0,0.0,192.0,0.0,0.0,0.0,179.0,192.0,0.0,179.0,1744418549.9808168,0.0,2025-04-11 20:42:29.980,FORWARD,3
98.0,-1683.5780958626385,-22491.308747686,-35287.078951249,-24549.256211430577,19580.955157393833,4104.2943721168485,27682.4343421977,49750.75867781147,0.0,0.0,0.0,193.0,0.0,192.0,0.0,0.0,0.0,178.0,192.0,0.0,178.0,1744418549.9808478,0.0,2025-04-11 20:42:29.980,FORWARD,3
99.0,-1701.1242152600546,-22532.88299237287,-35261.62031431441,-24574.267813476064,19756.57281357918,3996.1342806976177,28024.773660275183,49743.49436086349,0.0,0.0,0.0,193.0,0.0,192.0,0.0,0.0,0.0,178.0,192.0,0.0,178.0,1744418549.9808784,0.0,2025-04-11 20:42:29.980,FORWARD,3
100.0,-1692.8987733005017,-22521.79652712304,-35280.7757593126,-24579.00638330059,19671.27855673773,3818.527319255748,28163.957972998378,49596.37517885866,0.0,0.0,0.0,193.0,0.0,192.0,0.0,0.0,0.0,178.0,192.0,0.0,178.0,1744418549.9809096,0.0,2025-04-11 20:42:29.980,FORWARD,3
101.0,-1686.662636597471,-22493.007480264605,-35296.91371880934,-24540.293161904,19543.851261598025,4004.6279435906345,27953.069264062557,49645.05727828232,0.0,0.0,0.0,193.0,0.0,193.0,0.0,0.0,0.0,179.0,193.0,0.0,179.0,1744418549.9809403,0.0,2025-04-11 20:42:29.980,FORWARD,3
102.0,-1668.75888928877,-22469.44874160871,-35272.66207607533,-24530.100766432377,19563.45374148533,4106.797767495843,27692.805551624962,49741.25918641796,0.0,0.0,0.0,193.0,0.0,193.0,0.0,0.0,0.0,178.0,193.0,0.0,178.0,1744418549.980971,0.0,2025-04-11 20:42:29.980,FORWARD,3
103.0,-1694.150470989999,-22513.951064819226,-35261.15092768084,-24571.876176819347,19755.946964734434,3986.970065470942,27957.941944353814,49743.06967771884,0.0,0.0,0.0,193.0,0.0,192.0,0.0,0.0,0.0,178.0,192.0,0.0,178.0,1744418549.981002,0.0,2025-04-11 20:42:29.981,FORWARD,3
104.0,-1698.7996338367027,-22525.618675424896,-35289.40353267235,-24584.281394992042,19734.489290057336,3817.454435521893,28187.941394798923,49617.49757736893,0.0,0.0,0.0,193.0,0.0,192.0,0.0,0.0,0.0,178.0,192.0,0.0,178.0,1744418549.9810328,0.0,2025-04-11 20:42:29.981,FORWARD,3
105.0,-1699.3137239591747,-22509.905399072817,-35301.98756480069,-24554.62063009985,19609.565390296626,3985.226629403428,28026.941779487348,49633.92610954358,0.0,0.0,0.0,193.0,0.0,192.0,0.0,0.0,0.0,178.0,192.0,0.0,178.0,1744418549.9810638,0.0,2025-04-11 20:42:29.981,FORWARD,3
106.0,-1684.4721656408508,-22493.07453549797,-35279.635820345386,-24527.105632675368,19537.212793494797,4161.492486177979,27737.933723680228,49747.45061963208,0.0,0.0,0.0,193.0,0.0,193.0,0.0,0.0,0.0,178.0,193.0,0.0,178.0,1744418549.9810946,0.0,2025-04-11 20:42:29.981,FORWARD,3
107.0,-1698.1067297585882,-22527.853849870426,-35252.65726478783,-24558.62159235735,19681.113324298065,4036.903862584098,27898.061620958048,49764.50500065148,0.0,0.0,0.0,193.0,0.0,193.0,0.0,0.0,0.0,179.0,193.0,0.0,179.0,1744418549.9811256,0.0,2025-04-11 20:42:29.981,FORWARD,3
108.0,-1714.5129101887835,-22553.200728082746,-35273.42203538681,-24605.1579243133,19746.112197174098,3778.9200280809437,28201.397144961018,49646.599548649734,0.0,0.0,0.0,193.0,0.0,192.0,0.0,0.0,0.0,178.0,192.0,0.0,178.0,1744418549.9811702,0.0,2025-04-11 20:42:29.981,FORWARD,3
109.0,-1709.3496572196077,-22522.131803289867,-35292.44336991828,-24562.086112747922,19639.65083833347,3881.2239624528843,28076.495596944762,49602.365446372685,0.0,0.0,0.0,193.0,0.0,192.0,0.0,0.0,0.0,178.0,192.0,0.0,178.0,1744418549.9812014,0.0,2025-04-11 20:42:29.981,FORWARD,3
110.0,-1678.7501190602923,-22483.038602237535,-35270.538660352075,-24510.56534177844,19549.43919771185,4117.593660067757,27779.284450922543,49726.64114554419,0.0,0.0,0.0,193.0,0.0,192.0,0.0,0.0,0.0,178.0,192.0,0.0,178.0,1744418549.9812322,0.0,2025-04-11 20:42:29.981,FORWARD,3
111.0,-1670.368214889552,-22498.39425067833,-35233.25595060062,-24527.50796407556,19687.61768193456,4066.3634617761927,27827.385404990364,49762.78391632842,0.0,0.0,0.0,193.0,0.0,192.0,0.0,0.0,0.0,178.0,192.0,0.0,178.0,1744418549.981263,0.0,2025-04-11 20:42:29.981,FORWARD,3
112.0,-1700.7218838598592,-22544.058864600524,-35274.450215631754,-24593.71383115218,19751.074284443177,3830.9325374284435,28201.218331005377,49693.85113642825,0.0,0.0,0.0,193.0,0.0,193.0,0.0,0.0,0.0,178.0,193.0,0.0,178.0,1744418549.981307,0.0,2025-04-11 20:42:29.981,FORWARD,3
113.0,-1686.5732296196497,-22515.89566658684,-35293.046867018566,-24566.1988337277,19642.37775115702,3831.8936624400217,28129.0892516481,49609.89798425412,0.0,0.0,0.0,193.0,0.0,193.0,0.0,0.0,0.0,179.0,193.0,0.0,179.0,1744418549.981338,0.0,2025-04-11 20:42:29.981,FORWARD,3
114.0,-1677.207848692876,-22481.74220105913,-35297.91954730982,-24531.91125773326,19500.846505266014,4099.8910784591535,27833.487431226666,49719.62269778523,0.0,0.0,0.0,193.0,0.0,193.0,0.0,0.0,0.0,178.0,193.0,0.0,178.0,1744418549.9813685,0.0,2025-04-11 20:42:29.981,FORWARD,3
115.0,-1681.8123080506693,-22494.996785521125,-35243.202476883234,-24513.00168192407,19627.402082371962,4103.735578505466,27763.973505970658,49764.57205588485,0.0,0.0,0.0,193.0,0.0,192.0,0.0,0.0,0.0,178.0,192.0,0.0,178.0,1744418549.9813993,0.0,2025-04-11 20:42:29.981,FORWARD,3
116.0,-1722.7383521483366,-22560.532100264085,-35252.94783746575,-24574.15605475379,19801.075136789696,3918.3055065042386,28161.499281108296,49718.95214545156,0.0,0.0,0.0,193.0,0.0,192.0,0.0,0.0,0.0,178.0,192.0,0.0,178.0,1744418549.9814303,0.0,2025-04-11 20:42:29.981,FORWARD,3
117.0,-1714.5352619332389,-22549.80326292554,-35281.826291302,-24560.275621447043,19705.47672575435,3837.682764253946,28162.1474816975,49608.82510052027,0.0,0.0,0.0,193.0,0.0,192.0,0.0,0.0,0.0,178.0,192.0,0.0,178.0,1744418549.9814613,0.0,2025-04-11 20:42:29.981,FORWARD,3
118.0,-1697.5255844027502,-22515.493335186642,-35290.58817512848,-24522.098841917377,19558.581061194072,4070.878514156165,27883.75650450665,49703.44003479958,0.0,0.0,0.0,193.0,0.0,193.0,0.0,0.0,0.0,179.0,193.0,0.0,179.0,1744418549.9814918,0.0,2025-04-11 20:42:29.981,FORWARD,3
119.0,-1684.9639040188677,-22511.447669440233,-35252.277285132084,-24516.75677499256,19595.103811634042,4094.481956300969,27724.880304918326,49757.195980214594,0.0,0.0,0.0,193.0,0.0,193.0,0.0,0.0,0.0,179.0,193.0,0.0,179.0,1744418549.9815226,0.0,2025-04-11 20:42:29.981,FORWARD,3
120.0,-1722.7830556372471,-22566.544719522564,-35260.86035500292,-24574.44662743171,19759.411485125005,3934.1752450675067,28116.862847431046,49742.71204980756,0.0,0.0,0.0,193.0,0.0,192.0,0.0,0.0,0.0,178.0,192.0,0.0,178.0,1744418549.9815536,0.0,2025-04-11 20:42:29.981,FORWARD,3
121.0,-1717.4186369679735,-22556.75465545114,-35280.48518663469,-24569.641002373817,19665.60121364608,3784.820888617145,28196.837389092136,49609.696818554025,0.0,0.0,0.0,193.0,0.0,192.0,0.0,0.0,0.0,178.0,192.0,0.0,178.0,1744418549.9815843,0.0,2025-04-11 20:42:29.981,FORWARD,3
122.0,-1698.8666890700686,-22516.588570664953,-35282.80976805804,-24523.529353562517,19578.943500392856,4028.1419787576174,27961.80879614458,49686.20683982454,0.0,0.0,0.0,193.0,0.0,192.0,0.0,0.0,0.0,178.0,192.0,0.0,178.0,1744418549.9816153,0.0,2025-04-11 20:42:29.981,FORWARD,3
123.0,-1687.4896511423174,-22497.16490473329,-35252.16552640981,-24513.269902857533,19603.30690184914,4116.967811223008,27748.39434008531,49773.42334668915,0.0,0.0,0.0,193.0,0.0,192.0,0.0,0.0,0.0,178.0,192.0,0.0,178.0,1744418549.981658,0.0,2025-04-11 20:42:29.981,FORWARD,3
124.0,-1696.0056657797893,-22527.496221959143,-35226.148095863835,-24554.642981844307,19805.12080253611,3966.07118440523,28066.951402062346,49767.16485824167,0.0,0.0,0.0,193.0,0.0,192.0,0.0,0.0,0.0,178.0,192.0,0.0,178.0,1744418549.9816892,0.0,2025-04-11 20:42:29.981,FORWARD,3
125.0,-1707.7179798743703,-22543.947105878247,-35266.24712541665,-24576.01124954358,19760.35025839213,3767.1853622419076,28227.77220341828,49633.56848163229,0.0,0.0,0.0,193.0,0.0,192.0,0.0,0.0,0.0,178.0,192.0,0.0,178.0,1744418549.98172,0.0,2025-04-11 20:42:29.981,FORWARD,3
126.0,-1711.1154450315769,-22522.377672478877,-35294.45502691925,-24529.206696654168,19634.644047575483,3987.17123117104,28034.9660557468,49672.92990361809,0.0,0.0,0.0,193.0,0.0,192.0,0.0,0.0,0.0,178.0,192.0,0.0,178.0,1744418549.9817507,0.0,2025-04-11 20:42:29.981,FORWARD,3
127.0,-1707.4050554519958,-22518.60022766593,-35269.68929406277,-24504.79859170897,19608.760727496236,4177.116355552239,27763.973505970658,49768.23774197552,0.0,0.0,0.0,193.0,0.0,193.0,0.0,0.0,0.0,179.0,193.0,0.0,179.0,1744418549.9817944,0.0,2025-04-11 20:42:29.981,FORWARD,3
128.0,-1714.62466891106,-22550.004428625638,-35239.33562509246,-24535.15226067928,19795.44249718696,4069.537409488846,27998.9573954293,49772.37281469975,0.0,0.0,0.0,193.0,0.0,193.0,0.0,0.0,0.0,179.0,193.0,0.0,179.0,1744418549.981825,0.0,2025-04-11 20:42:29.981,FORWARD,3
129.0,-1715.6528491560043,-22556.240565328666,-35260.52507883609,-24564.164824982265,19764.23946192735,3827.892700182522,28243.954866403925,49639.424638679586,0.0,0.0,0.0,193.0,0.0,193.0,0.0,0.0,0.0,178.0,193.0,0.0,178.0,1744418549.981856,0.0,2025-04-11 20:42:29.981,FORWARD,3
130.0,-1702.174747249454,-22518.73433813266,-35272.10328246395,-24516.980292437114,19631.291285907184,3961.8243529587216,28086.531530205197,49636.87653981168,0.0,0.0,0.0,193.0,0.0,192.0,0.0,0.0,0.0,178.0,192.0,0.0,178.0,1744418549.9818869,0.0,2025-04-11 20:42:29.981,FORWARD,3
131.0,-1686.528526130739,-22494.68386109875,-35261.19563116976,-24497.75779220555,19561.77736065118,4147.947329038064,27782.413695146286,49741.70622130707,0.0,0.0,0.0,193.0,0.0,192.0,0.0,0.0,0.0,178.0,192.0,0.0,178.0,1744418549.9819176,0.0,2025-04-11 20:42:29.981,FORWARD,3
132.0,-1703.9405350614234,-22531.02779758308,-35233.97120642319,-24533.319417633942,19735.539822046736,4073.359557790704,27923.207333470265,49769.35532919828,0.0,0.0,0.0,193.0,0.0,192.0,0.0,0.0,0.0,178.0,192.0,0.0,178.0,1744418549.9819484,0.0,2025-04-11 20:42:29.981,FORWARD,3
133.0,-1721.2184335253758,-22564.331896821488,-35264.68250330478,-24573.552557653496,19762.473674115383,3836.386363075538,28253.54376477525,49672.10288907324,0.0,0.0,0.0,193.0,0.0,192.0,0.0,0.0,0.0,178.0,192.0,0.0,178.0,1744418549.981979,0.0,2025-04-11 20:42:29.981,FORWARD,3
134.0,-1710.0649130421775,-22536.571030207997,-35289.15766348334,-24540.293161904,19623.490527092283,3888.7341485898673,28148.0435309462,49628.69580134103,0.0,0.0,0.0,193.0,0.0,192.0,0.0,0.0,0.0,178.0,192.0,0.0,178.0,1744418549.98201,0.0,2025-04-11 20:42:29.982,FORWARD,3
135.0,-1696.8103285801803,-22505.83738158195,-35294.54443389707,-24523.529353562517,19530.931953302857,4112.318648376304,27858.834309438982,49757.352442425785,0.0,0.0,0.0,193.0,0.0,193.0,0.0,0.0,0.0,178.0,193.0,0.0,178.0,1744418549.9820406,0.0,2025-04-11 20:42:29.982,FORWARD,3
136.0,-1666.9260462434347,-22486.614881350386,-35221.521284761584,-24505.536199275997,19710.930551401445,4058.428592494559,27860.354228061944,49778.608951402784,0.0,0.0,0.0,193.0,0.0,193.0,0.0,0.0,0.0,179.0,193.0,0.0,179.0,1744418549.982076,0.0,2025-04-11 20:42:29.982,FORWARD,3
137.0,-1707.2262414963534,-22537.532155219575,-35254.55716306653,-24572.412618686274,19771.973165508887,3842.555444545203,28246.01122689381,49709.02797091341,0.0,0.0,0.0,193.0,0.0,193.0,0.0,0.0,0.0,178.0,193.0,0.0,178.0,1744418549.9821067,0.0,2025-04-11 20:42:29.982,FORWARD,3
138.0,-1716.8821951010461,-22538.69444593125,-35288.576518127506,-24562.264926703567,19611.152364152953,3803.104615581586,28189.506016910796,49614.591850589735,0.0,0.0,0.0,193.0,0.0,193.0,0.0,0.0,0.0,178.0,193.0,0.0,178.0,1744418549.98215,0.0,2025-04-11 20:42:29.982,FORWARD,3
139.0,-1716.725732889859,-22519.36018697741,-35298.09836126547,-24523.149373906777,19501.181781432842,4098.57232553629,27905.325937906022,49726.97642171102,0.0,0.0,0.0,193.0,0.0,192.0,0.0,0.0,0.0,178.0,192.0,0.0,178.0,1744418549.9821813,0.0,2025-04-11 20:42:29.982,FORWARD,3
140.0,-1696.1397762465213,-22514.84513459744,-35244.61063678392,-24521.271827372533,19668.998678803287,4119.828834513287,27819.674053153285,49767.67894836413,0.0,0.0,0.0,193.0,0.0,192.0,0.0,0.0,0.0,178.0,192.0,0.0,178.0,1744418549.982212,0.0,2025-04-11 20:42:29.982,FORWARD,3
141.0,-1723.0736283151662,-22569.115170134923,-35243.53775305006,-24581.1521507683,19862.989468930897,3923.8710908736102,28209.466124709386,49722.14844490868,0.0,0.0,0.0,193.0,0.0,192.0,0.0,0.0,0.0,178.0,192.0,0.0,178.0,1744418549.9822428,0.0,2025-04-11 20:42:29.982,FORWARD,3
142.0,-1717.4409887124289,-22554.474777516698,-35270.6280673299,-24560.074455746944,19737.126795903063,3837.034563664742,28223.72653767187,49598.54329807083,0.0,0.0,0.0,193.0,0.0,192.0,0.0,0.0,0.0,178.0,192.0,0.0,178.0,1744418549.9822862,0.0,2025-04-11 20:42:29.982,FORWARD,3
143.0,-1697.7043983583926,-22513.4146229523,-35273.466738875715,-24511.28059760101,19596.579026768093,4098.974656936486,27953.40454022939,49685.64804621316,0.0,0.0,0.0,193.0,0.0,192.0,0.0,0.0,0.0,178.0,192.0,0.0,178.0,1744418549.9823172,0.0,2025-04-11 20:42:29.982,FORWARD,3
144.0,-1683.175764462443,-22504.764497848093,-35234.93233143477,-24499.94826316217,19649.418550660437,4150.070744761318,27772.91420375278,49749.46227663306,0.0,0.0,0.0,193.0,0.0,193.0,0.0,0.0,0.0,179.0,193.0,0.0,179.0,1744418549.982348,0.0,2025-04-11 20:42:29.982,FORWARD,3
145.0,-1700.9006978155016,-22551.99373388216,-35234.37353782338,-24566.981144783636,19820.141174810073,3976.8223734882326,28145.271914633744,49734.71012529256,0.0,0.0,0.0,193.0,0.0,193.0,0.0,1.0,0.0,179.0,193.0,1.0,179.0,1744418549.9823787,0.0,2025-04-11 20:42:29.982,FORWARD,3
146.0,-1708.7685118637696,-22561.292059575568,-35264.41428237132,-24571.09386576341,19712.405766535496,3801.56234521417,28248.514622272807,49600.84552774973,0.0,0.0,0.0,193.0,0.0,192.0,0.0,2.0,0.0,179.0,192.0,2.0,179.0,1744418549.9824104,0.0,2025-04-11 20:42:29.982,FORWARD,3
147.0,-1707.6509246410042,-22533.59824819544,-35272.438558630776,-24523.149373906777,19588.755916208735,4013.3451239282044,28016.07883168207,49666.00086283695,0.0,0.0,0.0,193.0,0.0,192.0,0.0,4.0,0.0,178.0,192.0,4.0,178.0,1744418549.9824421,0.0,2025-04-11 20:42:29.982,FORWARD,3
148.0,-1702.0629885271776,-22512.74407061864,-35237.77100298059,-24496.841370682883,19590.812276698623,4172.10956479425,27787.196968459724,49763.365061684264,0.0,0.0,0.0,193.0,0.0,192.0,0.0,5.0,0.0,178.0,192.0,5.0,178.0,1744418549.9824736,0.0,2025-04-11 20:42:29.982,FORWARD,3
149.0,-1720.726695147359,-22549.915021647816,-35219.95666264971,-24532.268885644542,19762.7642467933,4059.389717506137,28088.56553895063,49761.71103259457,0.0,0.0,0.0,193.0,0.0,192.0,0.0,6.0,0.0,178.0,192.0,6.0,178.0,1744418549.982505,0.0,2025-04-11 20:42:29.982,FORWARD,3
150.0,-1717.5527474347052,-22556.531138006587,-35249.50566881963,-24562.10846449238,19711.087013612632,3830.261985094784,28272.83332024018,49623.84547279424,0.0,0.0,0.0,193.0,0.0,192.0,0.0,7.0,0.0,178.0,192.0,7.0,178.0,1744418549.9825363,0.0,2025-04-11 20:42:29.982,FORWARD,3
151.0,-1715.205814266898,-22528.636160926362,-35271.991523741664,-24538.05798745847,19587.235997585776,3969.0216146733305,28092.097114574568,49660.16705753411,0.0,0.0,0.0,193.0,0.0,193.0,0.0,8.0,0.0,179.0,193.0,8.0,179.0,1744418549.9825673,0.0,2025-04-11 20:42:29.982,FORWARD,3
152.0,-1705.1251775175547,-22495.48852389914,-35246.37642459589,-24521.338882605898,19583.235035328275,4097.946476691542,27808.095849525434,49752.882093534725,0.0,0.0,0.0,193.0,0.0,193.0,0.0,9.0,0.0,179.0,193.0,9.0,179.0,1744418549.9825983,0.0,2025-04-11 20:42:29.982,FORWARD,3
153.0,-1724.079456815655,-22546.629315212886,-35217.810895182,-24560.365028424865,19779.48335164587,4004.0467982347964,28020.437421850853,49759.90054129369,0.0,0.0,0.0,193.0,0.0,193.0,0.0,9.0,0.0,179.0,193.0,9.0,179.0,1744418549.9826417,0.0,2025-04-11 20:42:29.982,FORWARD,3
154.0,-1727.1863492949426,-22569.31633583502,-35239.156811136825,-24576.346525710407,19786.993537782855,3823.3776478025497,28290.491198359872,49643.85028408174,0.0,0.0,0.0,193.0,0.0,193.0,0.0,10.0,0.0,179.0,193.0,10.0,179.0,1744418550.4583852,0.0,2025-04-11 20:42:30.458,FORWARD,3
155.0,-1738.8986633895236,-22565.80711195554,-35269.063445218024,-24541.70132180468,19627.60324807206,3948.748582452367,28151.798624014693,49636.85418806722,0.0,0.0,0.0,193.0,0.0,193.0,0.0,11.0,0.0,179.0,193.0,11.0,179.0,1744418550.458568,0.0,2025-04-11 20:42:30.458,FORWARD,3
156.0,-1717.9774305793562,-22530.290190016054,-35250.0197589421,-24507.61491151034,19532.921258559378,4151.925939551108,27850.31829480151,49749.26111093297,0.0,0.0,0.0,193.0,0.0,192.0,0.0,11.0,0.0,178.0,192.0,11.0,178.0,1744418550.4586365,0.0,2025-04-11 20:42:30.458,FORWARD,3
157.0,-1719.1397212910322,-22542.471890744197,-35212.647642212825,-24521.405937839263,19696.692490183414,4070.2750170558716,27945.044987803103,49767.79070708641,0.0,0.0,0.0,193.0,0.0,192.0,0.0,12.0,0.0,178.0,192.0,12.0,178.0,1744418550.4587326,0.0,2025-04-11 20:42:30.458,FORWARD,3
158.0,-1740.7762099237693,-22573.80903647054,-35239.38032858138,-24562.577851125938,19781.807933069224,3851.652604538513,28280.947003477457,49669.97947334999,0.0,0.0,0.0,193.0,0.0,192.0,0.0,12.0,0.0,178.0,192.0,12.0,178.0,1744418550.458774,0.0,2025-04-11 20:42:30.458,FORWARD,3
159.0,-1733.2883755312414,-22549.467986758707,-35264.88366900488,-24534.124080434332,19659.61094613206,3884.8225933101885,28181.86172030708,49604.24299290693,0.0,0.0,0.0,193.0,0.0,192.0,0.0,12.0,0.0,179.0,192.0,12.0,179.0,1744418550.4588149,0.0,2025-04-11 20:42:30.458,FORWARD,3
160.0,-1714.3564479775964,-22514.375747963877,-35267.7223405507,-24517.18145813721,19534.843508582533,4087.441156797547,27883.980021951204,49718.616869284735,0.0,0.0,0.0,193.0,0.0,193.0,0.0,13.0,0.0,179.0,193.0,13.0,179.0,1744418550.458855,0.0,2025-04-11 20:42:30.458,FORWARD,3
161.0,-1703.3593897055853,-22513.772250863585,-35228.89736043184,-24515.773298236527,19688.37764124604,4078.90279041562,27881.521330061118,49762.873323306245,0.0,0.0,0.0,193.0,0.0,193.0,0.0,13.0,0.0,179.0,193.0,13.0,179.0,1744418550.458895,0.0,2025-04-11 20:42:30.458,FORWARD,3
162.0,-1733.243672042331,-22559.481568274685,-35253.23841014366,-24570.602127385395,19810.194648527464,3876.5971513506356,28269.391151594064,49701.16015686514,0.0,0.0,0.0,193.0,0.0,192.0,0.0,13.0,0.0,178.0,192.0,13.0,178.0,1744418550.4589353,0.0,2025-04-11 20:42:30.458,FORWARD,3
163.0,-1724.5264917047612,-22544.66236170082,-35262.04499745906,-24547.71394106316,19716.205563092895,3813.9899151313207,28231.192020319944,49598.83387074875,0.0,0.0,0.0,193.0,0.0,192.0,0.0,13.0,0.0,178.0,192.0,13.0,178.0,1744418550.4589744,0.0,2025-04-11 20:42:30.458,FORWARD,3
164.0,-1714.4458549554176,-22518.60022766593,-35266.11301494992,-24516.265036614543,19590.767573209712,4089.5198690318907,27946.63196165943,49697.94150566358,0.0,0.0,0.0,193.0,0.0,193.0,0.0,14.0,0.0,179.0,193.0,14.0,179.0,1744418550.459014,0.0,2025-04-11 20:42:30.459,FORWARD,3
165.0,-1709.2155467528758,-22517.639102654353,-35228.58443600946,-24506.586731265394,19617.32144562262,4119.895889746653,27829.754689902627,49735.62654681523,0.0,0.0,0.0,193.0,0.0,193.0,0.0,14.0,0.0,179.0,193.0,14.0,179.0,1744418550.4590533,0.0,2025-04-11 20:42:30.459,FORWARD,3
166.0,-1739.3233465341743,-22562.119074120412,-35230.95372092172,-24550.977295753633,19768.553348607227,3947.3404225516824,28227.705148184916,49701.85306094326,0.0,0.0,0.0,193.0,0.0,193.0,0.0,14.0,0.0,179.0,193.0,14.0,179.0,1744418550.459093,0.0,2025-04-11 20:42:30.459,FORWARD,3
167.0,-1730.136779563043,-22550.2726495591,-35254.57951481098,-24533.989969967603,19690.165780802465,3825.881043181544,28259.109349144623,49574.33635882573,0.0,0.0,0.0,193.0,0.0,193.0,0.0,14.0,0.0,179.0,193.0,14.0,179.0,1744418550.4591334,0.0,2025-04-11 20:42:30.459,FORWARD,3
168.0,-1714.2446892553198,-22511.827649095972,-35260.1227474359,-24496.50609451605,19582.452724272338,4072.3313775457596,28002.287805353142,49661.6199209237,0.0,0.0,0.0,193.0,0.0,193.0,0.0,14.0,0.0,179.0,193.0,14.0,179.0,1744418550.4591973,0.0,2025-04-11 20:42:30.459,FORWARD,3
169.0,-1695.916258801968,-22491.97930001966,-35223.19766559573,-24488.593576978874,19627.647951560968,4150.204855228049,27806.575930902476,49725.23298564351,0.0,0.0,0.0,193.0,0.0,192.0,0.0,15.0,0.0,178.0,192.0,15.0,178.0,1744418550.4592369,0.0,2025-04-11 20:42:30.459,FORWARD,3
170.0,-1716.144587534021,-22528.926733604283,-35218.72731670467,-24536.225144413133,19801.321005978705,3985.785423014811,28151.53040308123,49701.003694653955,0.0,0.0,0.0,193.0,0.0,193.0,0.0,15.0,0.0,179.0,193.0,15.0,179.0,1744418550.4592762,0.0,2025-04-11 20:42:30.459,FORWARD,3
171.0,-1717.083360801144,-22530.871335371892,-35257.105261934434,-24555.53705162252,19705.163801331975,3762.335033695106,28266.97716319289,49556.074983605744,0.0,0.0,0.0,193.0,0.0,193.0,0.0,15.0,0.0,179.0,193.0,15.0,179.0,1744418550.4593165,0.0,2025-04-11 20:42:30.459,FORWARD,3
172.0,-1728.147474306521,-22517.46028869871,-35292.64453561837,-24536.873345002336,19528.786185835146,3993.7202922964448,28071.913489331426,49627.935842029554,0.0,0.0,0.0,193.0,0.0,193.0,0.0,15.0,0.0,179.0,193.0,15.0,179.0,1744418550.459376,0.0,2025-04-11 20:42:30.459,FORWARD,3
173.0,-1706.8015583517026,-22480.53520685854,-35240.92259894879,-24514.633359269304,19556.34588674854,4094.7278254899775,27826.044300323047,49725.948241466074,0.0,0.0,0.0,193.0,0.0,193.0,0.0,15.0,0.0,179.0,193.0,15.0,179.0,1744418550.4594169,0.0,2025-04-11 20:42:30.459,FORWARD,3
174.0,-1739.1668843229872,-22536.66043718582,-35214.23461606915,-24545.277600917532,19804.405546713537,3996.0448737197967,28117.242827086786,49727.24464264449,0.0,0.0,0.0,193.0,0.0,193.0,0.0,15.0,0.0,179.0,193.0,15.0,179.0,1744418550.4594564,0.0,2025-04-11 20:42:30.459,FORWARD,3
175.0,-1750.6780327174704,-22573.674926003805,-35239.156811136825,-24555.380589411332,19787.284110460772,3812.0900168526196,28319.570817896227,49580.77366122886,0.0,0.0,0.0,193.0,0.0,193.0,0.0,15.0,0.0,178.0,193.0,15.0,178.0,1744418550.4594965,0.0,2025-04-11 20:42:30.459,FORWARD,3
176.0,-1739.9715471233783,-22549.155062336336,-35253.30546537703,-24512.197019123676,19665.914138068456,4000.5375743553136,28131.838516216103,49593.29063812383,0.0,0.0,0.0,193.0,0.0,192.0,0.0,15.0,0.0,178.0,192.0,15.0,178.0,1744418550.4595366,0.0,2025-04-11 20:42:30.459,FORWARD,3
177.0,-1722.0230963257668,-22520.83540211146,-35235.379366323876,-24494.51678925953,19594.701480233845,4172.154268283161,27843.16573657581,49701.09310163178,0.0,0.0,0.0,193.0,0.0,192.0,0.0,15.0,0.0,178.0,192.0,15.0,178.0,1744418550.4595764,0.0,2025-04-11 20:42:30.459,FORWARD,3
178.0,-1729.8685586295794,-22550.831443170482,-35214.83811316945,-24519.95307444967,19701.56517047467,4088.0446538978404,28038.542334859652,49725.121226921234,0.0,0.0,0.0,193.0,0.0,192.0,0.0,15.0,0.0,178.0,192.0,15.0,178.0,1744418550.4596157,0.0,2025-04-11 20:42:30.459,FORWARD,3
179.0,-1738.2281110558642,-22570.36686782442,-35244.58828503946,-24563.024886015046,19712.18224909094,3836.0287351642532,28332.288960491296,49608.86980400918,0.0,0.0,0.0,193.0,0.0,192.0,0.0,15.0,0.0,179.0,192.0,15.0,179.0,1744418550.459655,0.0,2025-04-11 20:42:30.459,FORWARD,3
180.0,-1735.0318115987554,-22540.75080642114,-35265.53186959408,-24537.1415659358,19636.074559220622,3902.0334365407753,28194.177531501955,49579.432556561536,0.0,0.0,0.0,193.0,0.0,193.0,0.0,16.0,0.0,179.0,193.0,16.0,179.0,1744418550.4596944,0.0,2025-04-11 20:42:30.459,FORWARD,3
181.0,-1710.3107822311858,-22498.4613059117,-35248.790412997056,-24497.869550927826,19592.73452672178,4098.751139491933,27895.75939127915,49696.48864227398,0.0,0.0,0.0,193.0,0.0,193.0,0.0,16.0,0.0,179.0,193.0,16.0,179.0,1744418550.459735,0.0,2025-04-11 20:42:30.459,FORWARD,3
182.0,-1713.9764683218561,-22519.628407910874,-35216.64860447033,-24525.47395533013,19707.935417644432,4026.6220601346567,27976.650354462905,49734.37484912573,0.0,0.0,0.0,193.0,0.0,192.0,0.0,16.0,0.0,178.0,192.0,16.0,178.0,1744418550.4597745,0.0,2025-04-11 20:42:30.459,FORWARD,3
183.0,-1741.044430857233,-22567.930527678793,-35248.20926764122,-24579.76634261207,19719.692435227924,3776.3495774685834,28334.524134936826,49646.44308643855,0.0,0.0,0.0,193.0,0.0,192.0,0.0,16.0,0.0,178.0,192.0,16.0,178.0,1744418550.4598298,0.0,2025-04-11 20:42:30.459,FORWARD,3
184.0,-1752.242654829342,-22562.767274709615,-35268.41524462882,-24552.63132484333,19671.010335804265,3854.1112964285967,28245.02775013778,49559.293634807305,0.0,0.0,0.0,193.0,0.0,192.0,0.0,16.0,0.0,178.0,192.0,16.0,178.0,1744418550.45987,0.0,2025-04-11 20:42:30.459,FORWARD,3
185.0,-1734.9200528764788,-22519.94133233325,-35252.009064198624,-24504.552722519962,19588.10771561953,4134.469227131513,27943.837993602516,49673.73456641848,0.0,0.0,0.0,193.0,0.0,192.0,0.0,16.0,0.0,179.0,192.0,16.0,179.0,1744418550.45991,0.0,2025-04-11 20:42:30.459,FORWARD,3
186.0,-1730.2261865408643,-22527.74209114815,-35216.40273528132,-24507.61491151034,19691.41747849196,4133.15047420865,27915.56303686655,49727.66932578914,0.0,0.0,0.0,193.0,0.0,192.0,0.0,16.0,0.0,179.0,192.0,16.0,179.0,1744418550.4599495,0.0,2025-04-11 20:42:30.459,FORWARD,3
187.0,-1741.4691140018838,-22560.66621073082,-35228.20445635372,-24553.43598764372,19769.53682536326,3917.6573059150346,28296.16854145152,49666.49260121496,0.0,0.0,0.0,193.0,0.0,193.0,0.0,16.0,0.0,179.0,193.0,16.0,179.0,1744418550.4600043,0.0,2025-04-11 20:42:30.460,FORWARD,3
188.0,-1744.8665791590906,-22556.79935894005,-35266.73886379467,-24559.67212434675,19643.450634890873,3829.166749616474,28270.48638707237,49548.408335257576,0.0,0.0,0.0,193.0,0.0,193.0,0.0,16.0,0.0,179.0,193.0,16.0,179.0,1744418550.4600449,0.0,2025-04-11 20:42:30.460,FORWARD,3
189.0,-1740.9773756238671,-22532.83828888396,-35279.88168953439,-24541.56721133795,19538.240973739743,4057.489819227436,27998.935043684847,49655.137915031664,0.0,0.0,0.0,193.0,0.0,193.0,0.0,16.0,0.0,179.0,193.0,16.0,179.0,1744418550.4600852,0.0,2025-04-11 20:42:30.460,FORWARD,3
190.0,-1715.0940555446216,-22512.475849685175,-35224.538770263054,-24513.56047553545,19582.67624171689,4078.925142160075,27882.147178905867,49731.02208745743,0.0,0.0,0.0,193.0,0.0,193.0,0.0,16.0,0.0,178.0,193.0,16.0,178.0,1744418550.4601305,0.0,2025-04-11 20:42:30.460,FORWARD,3
191.0,-1744.3971925255291,-22564.398952054853,-35220.40369753882,-24560.81206331397,19753.823549011177,3909.007180810831,28265.189023636463,49697.44976728556,0.0,0.0,0.0,193.0,0.0,192.0,0.0,16.0,0.0,178.0,192.0,16.0,178.0,1744418550.4601705,0.0,2025-04-11 20:42:30.460,FORWARD,3
192.0,-1748.398154783029,-22566.23179510019,-35244.387119339364,-24550.95494400918,19711.735214201835,3778.852972847578,28317.17918123951,49558.868951662655,0.0,0.0,0.0,193.0,0.0,192.0,0.0,16.0,0.0,178.0,192.0,16.0,178.0,1744418550.4602106,0.0,2025-04-11 20:42:30.460,FORWARD,3
193.0,-1730.6732214299705,-22531.228963283178,-35251.2714566316,-24504.03863239749,19598.233055857785,4012.6745715945453,28061.564631648616,49629.43340890806,0.0,0.0,0.0,193.0,0.0,192.0,0.0,16.0,0.0,178.0,192.0,16.0,178.0,1744418550.4602504,0.0,2025-04-11 20:42:30.460,FORWARD,3
194.0,-1705.4157501954735,-22504.138649003347,-35200.19772055122,-24468.49935871355,19639.628486589016,4114.129139677184,27843.433957509274,49701.74130222098,0.0,0.0,0.0,193.0,0.0,192.0,0.0,16.0,0.0,178.0,192.0,16.0,178.0,1744418550.4602904,0.0,2025-04-11 20:42:30.460,FORWARD,3
195.0,-1734.8306458986576,-22551.65845771533,-35187.77015063407,-24501.535237018496,19814.061500318232,3975.481268820914,28187.136731998533,49699.886107431186,0.0,0.0,0.0,193.0,0.0,192.0,0.0,16.0,0.0,178.0,192.0,16.0,178.0,1744418550.4603307,0.0,2025-04-11 20:42:30.460,FORWARD,3
196.0,-1752.242654829342,-22570.18805386878,-35234.55235177903,-24527.865591986847,19717.792536949222,3776.3048739796727,28333.42889945852,49566.066213377264,0.0,0.0,0.0,193.0,0.0,192.0,0.0,16.0,0.0,179.0,192.0,16.0,179.0,1744418550.4603703,0.0,2025-04-11 20:42:30.460,FORWARD,3
197.0,-1742.2290733133643,-22530.93839060526,-35268.571706840004,-24507.503152788064,19554.177767536374,3956.906969178554,28124.775364968227,49618.235184935955,0.0,0.0,0.0,193.0,0.0,192.0,0.0,16.0,0.0,178.0,192.0,16.0,178.0,1744418550.46041,0.0,2025-04-11 20:42:30.460,FORWARD,3
198.0,-1702.9570583053899,-22483.083305726446,-35231.110183132914,-24476.36717276182,19553.641325669447,4093.4761278004803,27861.762387962626,49721.09791291928,0.0,0.0,0.0,193.0,0.0,192.0,0.0,16.0,0.0,178.0,192.0,16.0,178.0,1744418550.4604642,0.0,2025-04-11 20:42:30.460,FORWARD,3
199.0,-1720.0561428136998,-22535.341684262956,-35202.49995023012,-24506.94435917668,19749.532014075758,4002.5268796118357,28122.38372831151,49733.994869469985,0.0,0.0,0.0,193.0,0.0,192.0,0.0,17.0,0.0,178.0,192.0,17.0,178.0,1744418550.4605038,0.0,2025-04-11 20:42:30.460,FORWARD,3
200.0,-1743.4584192584061,-22567.46114104523,-35254.08777643296,-24537.119214191345,19676.08418179562,3807.75377842829,28355.892402636102,49600.756120771905,0.0,0.0,0.0,193.0,0.0,192.0,0.0,16.0,0.0,178.0,192.0,16.0,178.0,1744418550.4605432,0.0,2025-04-11 20:42:30.460,FORWARD,3
201.0,-1746.140628593043,-22544.125919833892,-35272.25974467513,-24499.165952106232,19564.325459519085,3964.998300671375,28189.461313421885,49607.886327253145,0.0,0.0,0.0,193.0,0.0,192.0,0.0,16.0,0.0,179.0,192.0,16.0,179.0,1744418550.4605825,0.0,2025-04-11 20:42:30.460,FORWARD,3
202.0,-1718.0221340682667,-22504.49627691463,-35230.752555221625,-24456.630582407783,19575.791904424656,4130.222395685005,27885.32112661852,49713.20774712655,0.0,0.0,0.0,193.0,0.0,192.0,0.0,17.0,0.0,179.0,192.0,17.0,179.0,1744418550.4606376,0.0,2025-04-11 20:42:30.460,FORWARD,3
203.0,-1727.9463086064231,-22539.677922687286,-35189.84886286841,-24473.953184360646,19753.53297633326,4040.1448655301174,28040.17401220489,49733.8384072588,0.0,0.0,0.0,193.0,0.0,193.0,0.0,17.0,0.0,179.0,193.0,17.0,179.0,1744418550.460678,0.0,2025-04-11 20:42:30.460,FORWARD,3
204.0,-1743.301957047219,-22569.09281839047,-35213.429953268766,-24511.861742956848,19764.954717749923,3799.7965574022005,28332.35601572466,49618.995144247434,0.0,0.0,0.0,193.0,0.0,193.0,0.0,17.0,0.0,179.0,193.0,17.0,179.0,1744418550.4607177,0.0,2025-04-11 20:42:30.460,FORWARD,3
205.0,-1740.5526924792164,-22544.28238204508,-35238.75447973663,-24480.524597230506,19623.7810997702,3866.1588866900074,28205.800438618713,49574.8504489482,0.0,0.0,0.0,193.0,0.0,193.0,0.0,17.0,0.0,179.0,193.0,17.0,179.0,1744418550.4607573,0.0,2025-04-11 20:42:30.460,FORWARD,3
206.0,-1735.367087765585,-22524.70225390223,-35249.34920660844,-24464.83367262288,19520.404281664407,4096.314799346304,27915.540685122098,49695.0804823733,0.0,0.0,0.0,193.0,0.0,192.0,0.0,17.0,0.0,178.0,192.0,17.0,178.0,1744418550.4607973,0.0,2025-04-11 20:42:30.460,FORWARD,3
207.0,-1721.307840503197,-22524.83636436896,-35205.96447062069,-24471.315678514922,19676.173588773443,4067.4139937655923,27959.931249610338,49726.50703507746,0.0,0.0,0.0,193.0,0.0,192.0,0.0,17.0,0.0,178.0,192.0,17.0,178.0,1744418550.4608376,0.0,2025-04-11 20:42:30.460,FORWARD,3
208.0,-1746.4759047598727,-22567.75171372315,-35241.1684681378,-24536.538068835507,19741.86536572759,3824.5175867697703,28319.83903882969,49640.78809509136,0.0,0.0,0.0,193.0,0.0,193.0,0.0,17.0,0.0,178.0,193.0,17.0,178.0,1744418550.4608772,0.0,2025-04-11 20:42:30.460,FORWARD,3
209.0,-1742.7655151802917,-22546.89753614635,-35268.25878241763,-24514.901580202768,19617.0308729447,3776.5060396797708,28254.102558386632,49558.108992351175,0.0,0.0,0.0,193.0,0.0,192.0,0.0,17.0,0.0,179.0,192.0,17.0,179.0,1744418550.460917,0.0,2025-04-11 20:42:30.460,FORWARD,3
210.0,-1724.6829539159482,-22508.45253568322,-35265.19659342725,-24480.614004208328,19496.711432541782,4017.480196652436,27966.97204911376,49674.06984258531,0.0,0.0,0.0,193.0,0.0,193.0,0.0,17.0,0.0,179.0,193.0,17.0,179.0,1744418550.4609568,0.0,2025-04-11 20:42:30.460,FORWARD,3
211.0,-1720.1231980470657,-22516.27564624258,-35218.660261471305,-24473.170873304713,19618.55079156766,4055.1205343151732,27912.23262694271,49729.882148490215,0.0,0.0,0.0,193.0,0.0,193.0,0.0,17.0,0.0,179.0,193.0,17.0,179.0,1744418550.4609964,0.0,2025-04-11 20:42:30.460,FORWARD,3
212.0,-1748.5099135053056,-22565.158911366336,-35232.87597094488,-24522.165897150746,19727.783766720746,3875.6583780835126,28303.79048631078,49687.61499972523,0.0,0.0,0.0,193.0,0.0,192.0,0.0,17.0,0.0,179.0,192.0,17.0,179.0,1744418550.4610362,0.0,2025-04-11 20:42:30.461,FORWARD,3
213.0,-1747.4817332603616,-22545.69054194576,-35265.151889938345,-24511.07943190091,19587.370108052506,3811.9335546414322,28306.45034390096,49566.915579666565,0.0,0.0,0.0,193.0,0.0,192.0,0.0,17.0,0.0,178.0,192.0,17.0,178.0,1744418550.4610891,0.0,2025-04-11 20:42:30.461,FORWARD,3
214.0,-1728.594509195627,-22506.2620647266,-35257.84286950146,-24470.3769052478,19481.445191078805,4072.353729290215,28031.568590589595,49654.13208653118,0.0,0.0,0.0,193.0,0.0,192.0,0.0,17.0,0.0,178.0,192.0,17.0,178.0,1744418550.4611292,0.0,2025-04-11 20:42:30.461,FORWARD,3
215.0,-1704.6110873950824,-22496.78492507755,-35201.24825254062,-24449.83565209337,19589.29235807566,4138.090209733273,27883.376524850908,49720.56147105235,0.0,0.0,0.0,193.0,0.0,192.0,0.0,17.0,0.0,178.0,192.0,17.0,178.0,1744418550.4611683,0.0,2025-04-11 20:42:30.461,FORWARD,3
216.0,-1756.2659688312972,-22572.400876569853,-35220.91778766129,-24513.1357923908,19797.320043721207,3974.162515898051,28262.73033174638,49699.193203353076,0.0,0.0,0.0,193.0,0.0,192.0,0.0,17.0,0.0,178.0,192.0,17.0,178.0,1744418550.4612076,0.0,2025-04-11 20:42:30.461,FORWARD,3
217.0,-1742.4302390134621,-22545.779948923584,-35238.28509310306,-24503.345728319375,19691.46218198087,3792.979275343332,28316.0839457612,49545.07792533373,0.0,0.0,0.0,193.0,0.0,192.0,0.0,17.0,0.0,178.0,192.0,17.0,178.0,1744418550.461398,0.0,2025-04-11 20:42:30.461,FORWARD,3
218.0,-1731.4108289969956,-22506.664396126795,-35259.16162242432,-24478.311774529433,19559.72100016129,3994.681417308023,28072.092303287067,49606.969905730475,0.0,0.0,0.0,193.0,0.0,193.0,0.0,17.0,0.0,179.0,193.0,17.0,179.0,1744418550.4614525,0.0,2025-04-11 20:42:30.461,FORWARD,3
219.0,-1698.6431716255156,-22485.676108083262,-35211.954738134715,-24449.768596860005,19596.221398856807,4094.5266597898794,27842.405777264332,49687.27972355839,0.0,0.0,0.0,193.0,0.0,193.0,0.0,17.0,0.0,179.0,193.0,17.0,179.0,1744418550.46149,0.0,2025-04-11 20:42:30.461,FORWARD,3
220.0,-1725.174692293965,-22540.32612327649,-35206.63502295435,-24490.404068279753,19769.62623234108,3961.8690564476324,28171.825787046648,49686.050377613356,0.0,0.0,0.0,193.0,0.0,193.0,0.0,17.0,0.0,179.0,193.0,17.0,179.0,1744418550.461526,0.0,2025-04-11 20:42:30.461,FORWARD,3
221.0,-1736.663488943993,-22546.852832657438,-35231.69132848875,-24500.395298051277,19705.700243198902,3754.7801440692124,28326.879838333112,49541.47929447643,0.0,0.0,0.0,193.0,0.0,192.0,0.0,17.0,0.0,178.0,192.0,17.0,178.0,1744418550.4615612,0.0,2025-04-11 20:42:30.461,FORWARD,3
222.0,-1745.91711114849,-22534.715835418207,-35260.23450615817,-24472.857948882338,19573.377916023484,3953.1742278545175,28137.694673263395,49593.000065445915,0.0,0.0,0.0,193.0,0.0,192.0,0.0,17.0,0.0,178.0,192.0,17.0,178.0,1744418550.4615963,0.0,2025-04-11 20:42:30.461,FORWARD,3
223.0,-1725.8005411387137,-22509.525419417074,-35233.412412811806,-24447.019332292002,19533.278886470664,4066.877551898665,27868.780835721594,49703.663552244136,0.0,0.0,0.0,193.0,0.0,192.0,0.0,17.0,0.0,178.0,192.0,17.0,178.0,1744418550.4616313,0.0,2025-04-11 20:42:30.461,FORWARD,3
224.0,-1739.0104221118002,-22543.075387844492,-35213.02762186857,-24466.152425545744,19717.61372299358,3984.6901875365006,28105.79873392567,49715.264107616444,0.0,0.0,0.0,193.0,0.0,192.0,0.0,17.0,0.0,178.0,192.0,17.0,178.0,1744418550.461666,0.0,2025-04-11 20:42:30.461,FORWARD,3
225.0,-1756.9365211649563,-22570.0762951465,-35247.89634321885,-24500.887036429292,19704.292083298216,3802.6352289480246,28348.51632696585,49583.9029054526,0.0,0.0,0.0,193.0,0.0,192.0,0.0,17.0,0.0,179.0,192.0,17.0,179.0,1744418550.461701,0.0,2025-04-11 20:42:30.461,FORWARD,3
226.0,-1748.7781344387693,-22543.388312266867,-35263.25199165964,-24478.200015807157,19585.336099307075,3898.1218812610964,28185.19213023092,49573.844620447715,0.0,0.0,0.0,193.0,0.0,193.0,0.0,17.0,0.0,179.0,193.0,17.0,179.0,1744418550.461736,0.0,2025-04-11 20:42:30.461,FORWARD,3
227.0,-1709.5284711752502,-22485.184369705246,-35227.66801448679,-24435.150555986234,19552.143758790942,4105.8813459731755,27885.09760917397,49688.352607292254,0.0,0.0,0.0,193.0,0.0,193.0,0.0,17.0,0.0,179.0,193.0,17.0,179.0,1744418550.462113,0.0,2025-04-11 20:42:30.462,FORWARD,3
228.0,-1714.7587793777918,-22507.513762416096,-35192.866348369884,-24451.802605605437,19683.974347588344,4064.7988396643213,28025.13128818647,49716.62756402821,0.0,0.0,0.0,193.0,0.0,192.0,0.0,17.0,0.0,178.0,192.0,17.0,178.0,1744418550.4621727,0.0,2025-04-11 20:42:30.462,FORWARD,3
229.0,-1733.8918726315349,-22538.828556397984,-35234.44059305675,-24501.22231259612,19666.875263080034,3821.589508246125,28354.908925880067,49614.43538837855,0.0,0.0,0.0,193.0,0.0,192.0,0.0,17.0,0.0,178.0,192.0,17.0,178.0,1744418550.4622085,0.0,2025-04-11 20:42:30.462,FORWARD,3
230.0,-1734.5847767096493,-22508.720756616684,-35249.3715583529,-24464.2748790115,19577.58004398108,3876.8877240285547,28240.847973924636,49569.933065168036,0.0,0.0,0.0,193.0,0.0,192.0,0.0,17.0,0.0,178.0,192.0,17.0,178.0,1744418550.4622433,0.0,2025-04-11 20:42:30.462,FORWARD,3
231.0,-1720.883157358546,-22492.158113975303,-35243.761270494615,-24437.855117065326,19543.06895054209,4091.6656364996,27932.43860393031,49685.53628749088,0.0,0.0,0.0,193.0,0.0,192.0,0.0,17.0,0.0,178.0,192.0,17.0,178.0,1744418550.4622786,0.0,2025-04-11 20:42:30.462,FORWARD,3
232.0,-1729.7791516517582,-22528.23382952617,-35220.44840102773,-24453.858966095326,19680.37571673104,4042.6482609091117,27948.263639004665,49716.89578496168,0.0,0.0,0.0,193.0,0.0,192.0,0.0,17.0,0.0,178.0,192.0,17.0,178.0,1744418550.4624412,0.0,2025-04-11 20:42:30.462,FORWARD,3
233.0,-1761.786849711758,-22578.592309783973,-35241.59315128245,-24515.147449391778,19780.53388363527,3836.743990986823,28327.148059266576,49645.839589338255,0.0,0.0,0.0,193.0,0.0,192.0,0.0,17.0,0.0,179.0,192.0,17.0,179.0,1744418550.4624772,0.0,2025-04-11 20:42:30.462,FORWARD,3
234.0,-1751.6391577290485,-22555.100626361447,-35270.40454988534,-24492.84040842538,19659.566242643148,3817.7003047109015,28267.670067271003,49541.65810843207,0.0,0.0,0.0,193.0,0.0,193.0,0.0,17.0,0.0,179.0,193.0,17.0,179.0,1744418550.462512,0.0,2025-04-11 20:42:30.462,FORWARD,3
235.0,-1732.7072301754035,-22511.850000840426,-35271.25391617464,-24450.237983493567,19531.043712025134,4060.2837872843493,27984.58522374454,49653.41683070861,0.0,0.0,0.0,193.0,0.0,193.0,0.0,17.0,0.0,179.0,193.0,17.0,179.0,1744418550.462547,0.0,2025-04-11 20:42:30.462,FORWARD,3
236.0,-1718.9385555909344,-22503.155172247312,-35218.70496496021,-24443.44305317915,19607.956064695845,4068.3304152882597,27903.22487392722,49707.84332845728,0.0,0.0,0.0,193.0,0.0,193.0,0.0,17.0,0.0,179.0,193.0,17.0,179.0,1744418550.4625819,0.0,2025-04-11 20:42:30.462,FORWARD,3
237.0,-1747.6158437270933,-22552.88780366037,-35232.7642122226,-24496.796667193972,19731.04712141122,3879.033491496264,28300.348317664662,49664.59270293626,0.0,0.0,0.0,193.0,0.0,193.0,0.0,17.0,0.0,179.0,193.0,17.0,179.0,1744418550.4626167,0.0,2025-04-11 20:42:30.462,FORWARD,3
238.0,-1746.6994222044257,-22545.109396589924,-35264.83896551597,-24493.46625727013,19653.66538210695,3757.819981315134,28309.490181146884,49533.70088740598,0.0,0.0,0.0,193.0,0.0,192.0,0.0,17.0,0.0,179.0,192.0,17.0,179.0,1744418550.462652,0.0,2025-04-11 20:42:30.462,FORWARD,3
239.0,-1731.7014016749147,-22502.775192591573,-35263.43080561529,-24461.99500107706,19524.606409622003,3988.6687980495453,28044.197326206846,49634.35079268823,0.0,0.0,0.0,193.0,0.0,193.0,0.0,17.0,0.0,178.0,193.0,17.0,178.0,1744418550.4626868,0.0,2025-04-11 20:42:30.462,FORWARD,3
240.0,-1706.1533577624987,-22490.571140118976,-35211.172427078774,-24448.807471848428,19570.82981715558,4025.862100823176,27861.874146684906,49698.58970625278,0.0,0.0,0.0,193.0,0.0,193.0,0.0,17.0,0.0,179.0,193.0,17.0,179.0,1744418550.462722,0.0,2025-04-11 20:42:30.462,FORWARD,3
241.0,-1742.1173145910877,-22549.579745480987,-35227.73506972016,-24502.362251563343,19716.987874148832,3862.2249796658734,28241.607933236115,49689.336084048286,0.0,0.0,0.0,193.0,0.0,193.0,0.0,17.0,0.0,179.0,193.0,17.0,179.0,1744418550.4627569,0.0,2025-04-11 20:42:30.462,FORWARD,3
242.0,-1745.2465588148307,-22555.435902528276,-35251.58438105397,-24485.687850199683,19651.050228005675,3786.0725863066423,28337.787489627302,49545.94964336749,0.0,0.0,0.0,193.0,0.0,192.0,0.0,17.0,0.0,178.0,192.0,17.0,178.0,1744418550.462792,0.0,2025-04-11 20:42:30.462,FORWARD,3
243.0,-1741.8043901687136,-22530.759576649616,-35259.80982301352,-24442.616038634307,19584.889064417966,4057.199246549517,28109.531475249707,49617.475225624476,0.0,0.0,0.0,193.0,0.0,192.0,0.0,17.0,0.0,178.0,192.0,17.0,178.0,1744418550.462842,0.0,2025-04-11 20:42:30.462,FORWARD,3
244.0,-1726.9404801059343,-22512.98993980765,-35233.45711630072,-24430.993131517545,19559.832758883567,4159.391422199181,27871.08306540049,49706.30105808986,0.0,0.0,0.0,193.0,0.0,192.0,0.0,17.0,0.0,178.0,192.0,17.0,178.0,1744418550.4628775,0.0,2025-04-11 20:42:30.462,FORWARD,3
245.0,-1748.1075821051102,-22548.775082680593,-35218.392040537845,-24477.641222195773,19761.736066548357,4017.904879797087,28186.466179664872,49716.15817739465,0.0,0.0,0.0,193.0,0.0,193.0,0.0,17.0,0.0,179.0,193.0,17.0,179.0,1744418550.4629126,0.0,2025-04-11 20:42:30.462,FORWARD,3
246.0,-1746.3864977820515,-22554.474777516698,-35247.42695658529,-24491.968690391626,19732.879964456555,3774.3379204676057,28360.27334454934,49574.112841381175,0.0,0.0,0.0,193.0,0.0,193.0,0.0,17.0,0.0,179.0,193.0,17.0,179.0,1744418550.4629476,0.0,2025-04-11 20:42:30.462,FORWARD,3
247.0,-1736.2164540548868,-22523.94229459075,-35253.752500266135,-24441.565506644907,19616.539134566683,3949.061506874741,28159.33116189613,49595.928143969555,0.0,0.0,0.0,193.0,0.0,193.0,0.0,17.0,0.0,179.0,193.0,17.0,179.0,1744418550.463074,0.0,2025-04-11 20:42:30.463,FORWARD,3
248.0,-1726.5828521946494,-22506.239712982144,-35239.44738381474,-24427.03687274896,19589.649985986947,4139.476017889502,27892.96542322224,49704.87054644473,0.0,0.0,0.0,193.0,0.0,192.0,0.0,17.0,0.0,178.0,192.0,17.0,178.0,1744418550.4631097,0.0,2025-04-11 20:42:30.463,FORWARD,3
249.0,-1734.6071284541047,-22535.02875984058,-35212.89351140184,-24462.687905155173,19742.267697127783,4034.2663567383715,28097.21566405483,49712.5818982818,0.0,0.0,0.0,193.0,0.0,193.0,0.0,17.0,0.0,178.0,193.0,17.0,178.0,1744418550.4631453,0.0,2025-04-11 20:42:30.463,FORWARD,3
250.0,-1734.4283144984622,-22544.1706233228,-35223.421183040286,-24484.056172854445,19701.207542563385,3766.2465889747846,28362.32970503923,49589.490841566425,0.0,0.0,0.0,193.0,0.0,192.0,0.0,17.0,0.0,178.0,192.0,17.0,178.0,1744418550.4631803,0.0,2025-04-11 20:42:30.463,FORWARD,3
251.0,-1730.7402766633365,-22521.55065793403,-35244.29771236154,-24455.84827135185,19523.265304954686,3826.7304094708456,28212.640072422037,49565.41801278806,0.0,0.0,0.0,193.0,0.0,193.0,0.0,17.0,0.0,179.0,193.0,17.0,179.0,1744418550.4632154,0.0,2025-04-11 20:42:30.463,FORWARD,3
252.0,-1725.5993754386159,-22497.34371868893,-35235.78169772407,-24442.280762467475,19508.781374547645,4065.737612931444,27921.195676469288,49682.85407815625,0.0,0.0,0.0,193.0,0.0,193.0,0.0,17.0,0.0,179.0,193.0,17.0,179.0,1744418550.4632504,0.0,2025-04-11 20:42:30.463,FORWARD,3
253.0,-1717.0163055677779,-22499.511837901096,-35191.50289195811,-24441.74432060055,19732.81290922319,4050.091391812729,28023.298445141132,49703.77531096641,0.0,0.0,0.0,193.0,0.0,193.0,0.0,17.0,0.0,179.0,193.0,17.0,179.0,1744418550.4632852,0.0,2025-04-11 20:42:30.463,FORWARD,3
254.0,-1734.696535431926,-22540.974323865692,-35214.8604649139,-24487.565396733928,19769.76034280781,3802.7693394147564,28356.741768925403,49603.30421963981,0.0,0.0,0.0,193.0,0.0,193.0,0.0,17.0,0.0,179.0,193.0,17.0,179.0,1744418550.4633205,0.0,2025-04-11 20:42:30.463,FORWARD,3
255.0,-1723.207738781898,-22527.451518470232,-35226.75159296412,-24441.23023047808,19617.522611322715,3846.6458137805243,28254.97427642039,49540.13818980911,0.0,0.0,0.0,193.0,0.0,193.0,0.0,17.0,0.0,179.0,193.0,17.0,179.0,1744418550.4633553,0.0,2025-04-11 20:42:30.463,FORWARD,3
0.0,-1721.978392836856,-22503.758669347608,-35231.311348833005,-24410.273064407476,19527.57919163456,4109.681142530578,27963.663990934372,49660.7705546344,0.0,0.0,0.0,193.0,0.0,193.0,0.0,17.0,0.0,178.0,193.0,17.0,178.0,1744418550.4633904,0.0,2025-04-11 20:42:30.463,FORWARD,3
1.0,-1730.0026690963114,-22525.395157980343,-35195.74972340462,-24434.010617019012,19663.90248106748,4083.3954910511366,27964.178081056845,49708.87150870222,0.0,0.0,0.0,193.0,0.0,193.0,0.0,17.0,0.0,179.0,193.0,17.0,179.0,1744418550.4634254,0.0,2025-04-11 20:42:30.463,FORWARD,3
2.0,-1738.3845732670516,-22554.31831530551,-35200.35418276241,-24472.634431437786,19748.973220464377,3842.175464889463,28341.766100140347,49638.39645843464,0.0,0.0,0.0,193.0,0.0,193.0,0.0,17.0,0.0,178.0,193.0,17.0,178.0,1744418550.4634757,0.0,2025-04-11 20:42:30.463,FORWARD,3
3.0,-1736.305861032708,-22536.83925114146,-35232.9653779227,-24455.580050418386,19617.723777022813,3769.889923321,28309.668995102526,49540.65227993158,0.0,0.0,0.0,193.0,0.0,193.0,0.0,17.0,0.0,179.0,193.0,17.0,179.0,1744418550.4635112,0.0,2025-04-11 20:42:30.463,FORWARD,3
4.0,-1717.9327270904455,-22495.667337854786,-35231.601921510926,-24409.73662254055,19524.1593747329,4032.612327648679,28028.59580857704,49653.461534197515,0.0,0.0,0.0,193.0,0.0,193.0,0.0,17.0,0.0,178.0,193.0,17.0,178.0,1744418550.4635465,0.0,2025-04-11 20:42:30.463,FORWARD,3
5.0,-1712.076570043155,-22499.064803011992,-35191.23467102464,-24416.285683665956,19628.8325940171,4067.972787376975,27919.318129935044,49704.222345855516,0.0,0.0,0.0,193.0,0.0,192.0,0.0,17.0,0.0,178.0,192.0,17.0,178.0,1744418550.463581,0.0,2025-04-11 20:42:30.463,FORWARD,3
6.0,-1753.270835074286,-22558.140463607368,-35217.38621203735,-24484.61496646583,19751.43191235446,3868.3717093910827,28314.98871028289,49673.71221467402,0.0,0.0,0.0,193.0,0.0,192.0,0.0,17.0,0.0,178.0,192.0,17.0,178.0,1744418550.463693,0.0,2025-04-11 20:42:30.463,FORWARD,3
7.0,-1757.4282595429731,-22567.79641721206,-35248.05280543004,-24485.55373973295,19640.388445900495,3733.16600718093,28353.18784155701,49549.168294569055,0.0,0.0,0.0,193.0,0.0,192.0,0.0,17.0,0.0,178.0,192.0,17.0,178.0,1744418550.4637284,0.0,2025-04-11 20:42:30.463,FORWARD,3
8.0,-1744.620709970082,-22534.78289065157,-35258.513421835116,-24456.809396363427,19525.232258466753,3965.1771146270175,28090.063105829133,49632.47324615398,0.0,0.0,0.0,193.0,0.0,193.0,0.0,17.0,0.0,179.0,193.0,17.0,179.0,1744418550.4637637,0.0,2025-04-11 20:42:30.463,FORWARD,3
9.0,-1724.750009149314,-22511.3135589735,-35219.73314520516,-24434.524707141485,19552.72490414678,4050.985461590941,27897.011088968648,49708.71504649104,0.0,0.0,0.0,193.0,0.0,193.0,0.0,17.0,0.0,179.0,193.0,17.0,179.0,1744418550.4637983,0.0,2025-04-11 20:42:30.463,FORWARD,3
10.0,-1735.8141226546911,-22536.571030207997,-35197.78373215005,-24448.963934059615,19749.129682675564,3916.58442218118,28239.26100006831,49690.11839510422,0.0,0.0,0.0,193.0,0.0,193.0,0.0,17.0,0.0,179.0,193.0,17.0,179.0,1744418550.4638336,0.0,2025-04-11 20:42:30.463,FORWARD,3
11.0,-1735.1212185765767,-22534.760538907118,-35220.35899404991,-24453.45663469513,19678.766391130255,3768.4147081869496,28350.863260133658,49544.38502125562,0.0,0.0,0.0,193.0,0.0,193.0,0.0,17.0,0.0,179.0,193.0,17.0,179.0,1744418550.4638684,0.0,2025-04-11 20:42:30.463,FORWARD,3
12.0,-1729.0415440847332,-22511.425317695775,-35240.52026754859,-24429.897896039238,19499.28188315414,3963.4783820484145,28117.712213720348,49579.432556561536,0.0,0.0,0.0,193.0,0.0,193.0,0.0,17.0,0.0,179.0,193.0,17.0,179.0,1744418550.4639032,0.0,2025-04-11 20:42:30.463,FORWARD,3
13.0,-1720.7937503807248,-22500.763535590595,-35207.10440958791,-24421.203067446124,19502.075851211055,4082.836697439754,27875.396952080366,49679.680130443594,0.0,0.0,0.0,193.0,0.0,193.0,0.0,17.0,0.0,178.0,193.0,17.0,178.0,1744418550.463938,0.0,2025-04-11 20:42:30.463,FORWARD,3
14.0,-1744.754820436814,-22540.32612327649,-35185.177348277255,-24447.242849736554,19760.19379618094,3983.282027635816,28176.363191171076,49700.17668010911,0.0,0.0,0.0,193.0,0.0,192.0,0.0,17.0,0.0,178.0,192.0,17.0,178.0,1744418550.4639733,0.0,2025-04-11 20:42:30.463,FORWARD,3
15.0,-1735.9258813769677,-22532.212440039213,-35206.366802020886,-24451.824957349894,19694.233798293328,3778.070661791642,28380.926356426044,49562.48993426442,0.0,0.0,0.0,193.0,0.0,192.0,0.0,17.0,0.0,178.0,192.0,17.0,178.0,1744418550.464008,0.0,2025-04-11 20:42:30.464,FORWARD,3
16.0,-1721.5537096922053,-22508.40783219431,-35228.60678775392,-24422.83474479136,19558.893985616443,3953.9565389104537,28199.273729237764,49575.85627744869,0.0,0.0,0.0,193.0,0.0,193.0,0.0,17.0,0.0,178.0,193.0,17.0,178.0,1744418550.464043,0.0,2025-04-11 20:42:30.464,FORWARD,3
17.0,-1712.3224392321636,-22498.617768122884,-35223.73410746266,-24414.050509220426,19508.177877447353,4115.872575744698,27913.506676376663,49677.444955998064,0.0,0.0,0.0,193.0,0.0,193.0,0.0,17.0,0.0,179.0,193.0,17.0,179.0,1744418550.4640925,0.0,2025-04-11 20:42:30.464,FORWARD,3
18.0,-1728.9297853624566,-22534.514669718108,-35192.57577569196,-24437.609247876317,19708.225990322353,3999.5988010881906,28097.37212626602,49693.40410153915,0.0,0.0,0.0,193.0,0.0,193.0,0.0,17.0,0.0,179.0,193.0,17.0,179.0,1744418550.9380884,0.0,2025-04-11 20:42:30.938,FORWARD,3
19.0,-1744.5313029922609,-22555.07827461699,-35212.647642212825,-24478.42353325171,19691.126905814042,3723.9123849764333,28375.830158690234,49575.47629779295,0.0,0.0,0.0,193.0,0.0,193.0,0.0,17.0,0.0,179.0,193.0,17.0,179.0,1744418550.9382255,0.0,2025-04-11 20:42:30.938,FORWARD,3
20.0,-1740.9550238794118,-22527.98796033716,-35225.991633652644,-24439.620904877294,19547.069912799587,3823.8246826916557,28248.916953673,49552.56575972626,0.0,0.0,0.0,193.0,0.0,193.0,0.0,17.0,0.0,179.0,193.0,17.0,179.0,1744418550.9382775,0.0,2025-04-11 20:42:30.938,FORWARD,3
21.0,-1729.332116762652,-22503.93748330325,-35210.613633467394,-24414.02815747597,19552.434331468863,4071.0349763673516,27963.596935701007,49679.478964743495,0.0,0.0,0.0,193.0,0.0,193.0,0.0,17.0,0.0,179.0,193.0,17.0,179.0,1744418550.938671,0.0,2025-04-11 20:42:30.938,FORWARD,3
22.0,-1722.984221337345,-22513.951064819226,-35173.55444116049,-24419.124355211778,19722.1064236291,4057.3780605051593,28037.089471470055,49705.898726689666,0.0,0.0,0.0,193.0,0.0,193.0,0.0,17.0,0.0,179.0,193.0,17.0,179.0,1744418550.9387145,0.0,2025-04-11 20:42:30.938,FORWARD,3
23.0,-1741.402058768518,-22547.70219894674,-35205.47273224268,-24463.26905051101,19729.907182444,3843.293052112228,28381.261632592876,49609.830929020754,0.0,0.0,0.0,193.0,0.0,192.0,0.0,17.0,0.0,178.0,192.0,17.0,178.0,1744418550.9387548,0.0,2025-04-11 20:42:30.938,FORWARD,3
24.0,-1736.2611575437973,-22526.51274520311,-35232.94302617825,-24456.98821031907,19589.202951097843,3799.1260050685414,28289.239500670374,49533.85734961717,0.0,0.0,0.0,193.0,0.0,192.0,0.0,17.0,0.0,179.0,192.0,17.0,179.0,1744418550.9387956,0.0,2025-04-11 20:42:30.938,FORWARD,3
25.0,-1735.3223842766745,-22498.997747778627,-35246.152907151336,-24413.82699177587,19518.683197341346,4052.4383249805364,28007.384003088955,49653.99797606444,0.0,0.0,0.0,193.0,0.0,193.0,0.0,17.0,0.0,179.0,193.0,17.0,179.0,1744418550.9388359,0.0,2025-04-11 20:42:30.938,FORWARD,3
26.0,-1720.4808259583506,-22497.008442522103,-35188.172482034264,-24393.509256065998,19637.192146443387,4084.3566160627147,27971.777674171648,49693.314694561326,0.0,0.0,0.0,193.0,0.0,193.0,0.0,17.0,0.0,179.0,193.0,17.0,179.0,1744418550.938886,0.0,2025-04-11 20:42:30.938,FORWARD,3
27.0,-1742.0279076132665,-22540.482585487676,-35190.564118690985,-24445.432358435675,19752.28127864376,3901.9887330518645,28361.167414327552,49636.31774620029,0.0,0.0,0.0,193.0,0.0,193.0,0.0,17.0,0.0,179.0,193.0,17.0,179.0,1744418550.938926,0.0,2025-04-11 20:42:30.938,FORWARD,3
28.0,-1732.1484365640208,-22529.954913849226,-35210.345412533934,-24426.142802970746,19623.803451514657,3833.078304896153,28330.94785582398,49518.03231454281,0.0,0.0,0.0,193.0,0.0,193.0,0.0,17.0,0.0,179.0,193.0,17.0,179.0,1744418550.9389677,0.0,2025-04-11 20:42:30.938,FORWARD,3
29.0,-1716.5245671897612,-22499.64594836783,-35214.97222363618,-24397.376107856766,19468.525882783637,4034.8251503497545,28052.579230377585,49615.95530700151,0.0,0.0,0.0,193.0,0.0,193.0,0.0,17.0,0.0,178.0,193.0,17.0,178.0,1744418550.9390087,0.0,2025-04-11 20:42:30.939,FORWARD,3
30.0,-1709.7296368753478,-22498.617768122884,-35175.20847025019,-24394.11275316629,19582.54213125016,4079.8862671716533,27927.208295727767,49673.98043560749,0.0,0.0,0.0,193.0,0.0,192.0,0.0,17.0,0.0,179.0,192.0,17.0,179.0,1744418550.9390488,0.0,2025-04-11 20:42:30.939,FORWARD,3
31.0,-1735.8364743991465,-22544.729416934184,-35184.43974071023,-24441.45374792263,19753.75649377781,3931.0012973548532,28318.22971322891,49649.23705449546,0.0,0.0,0.0,193.0,0.0,192.0,0.0,17.0,0.0,178.0,192.0,17.0,178.0,1744418550.9390893,0.0,2025-04-11 20:42:30.939,FORWARD,3
32.0,-1741.335003535152,-22539.65557094283,-35229.29969183203,-24448.516899170507,19626.64212306048,3777.2883507357064,28375.249013334396,49513.87489007413,0.0,0.0,0.0,193.0,0.0,192.0,0.0,17.0,0.0,178.0,192.0,17.0,178.0,1744418550.9391503,0.0,2025-04-11 20:42:30.939,FORWARD,3
33.0,-1728.81802664018,-22506.127954259868,-35242.24135187166,-24421.02425349048,19513.966979261277,3977.9623124554532,28130.050376659678,49598.588001559736,0.0,0.0,0.0,193.0,0.0,192.0,0.0,17.0,0.0,178.0,192.0,17.0,178.0,1744418550.9391913,0.0,2025-04-11 20:42:30.939,FORWARD,3
34.0,-1700.5877733931272,-22482.524512115066,-35190.74293264663,-24398.73956426854,19578.988203881767,4064.5306187308574,27921.016862513647,49677.33319727579,0.0,0.0,0.0,193.0,0.0,193.0,0.0,17.0,0.0,179.0,193.0,17.0,179.0,1744418550.9392464,0.0,2025-04-11 20:42:30.939,FORWARD,3
35.0,-1737.0434685997332,-22536.906306374825,-35181.3551999754,-24430.814317561904,19771.19085445295,3952.7495447098668,28265.725465503394,49672.86284838472,0.0,0.0,0.0,193.0,0.0,193.0,0.0,17.0,0.0,179.0,193.0,17.0,179.0,1744418550.9392796,0.0,2025-04-11 20:42:30.939,FORWARD,3
36.0,-1744.0395646142442,-22549.75855943663,-35212.17825557927,-24446.706407869628,19700.08995534062,3750.466257389338,28391.0516966643,49518.03231454281,0.0,0.0,0.0,193.0,0.0,193.0,0.0,17.0,0.0,179.0,193.0,17.0,179.0,1744418550.9393811,0.0,2025-04-11 20:42:30.939,FORWARD,3
37.0,-1719.5867561801383,-22507.290244971544,-35212.245310812636,-24406.048584705422,19543.180709264365,3939.4055532700486,28172.786912058225,49565.41801278806,0.0,0.0,0.0,193.0,0.0,193.0,0.0,17.0,0.0,179.0,193.0,17.0,179.0,1744418550.9394138,0.0,2025-04-11 20:42:30.939,FORWARD,3
38.0,-1698.0620262696775,-22477.83064577945,-35176.48251968414,-24379.673526248163,19498.43251686484,4073.2477990684274,27907.225836184723,49662.201066279544,0.0,0.0,0.0,193.0,0.0,193.0,0.0,17.0,0.0,179.0,193.0,17.0,179.0,1744418550.939446,0.0,2025-04-11 20:42:30.939,FORWARD,3
39.0,-1711.271907242764,-22498.4613059117,-35155.69539734071,-24404.21574166009,19683.929644099433,3972.5978937861796,28160.873432263546,49663.40806048013,0.0,0.0,0.0,193.0,0.0,192.0,0.0,17.0,0.0,178.0,192.0,17.0,178.0,1744418550.9394777,0.0,2025-04-11 20:42:30.939,FORWARD,3
40.0,-1716.2116427673868,-22513.83930609695,-35189.44653146822,-24435.64229436425,19706.32609204365,3761.463315661349,28381.373391315152,49525.07311404623,0.0,0.0,0.0,193.0,0.0,192.0,0.0,17.0,0.0,178.0,192.0,17.0,178.0,1744418550.9395094,0.0,2025-04-11 20:42:30.939,FORWARD,3
41.0,-1732.3943057530291,-22523.204687023725,-35223.77881095157,-24421.761861057505,19583.34679405055,3874.6078460941135,28212.885941611046,49532.583300183214,0.0,0.0,0.0,193.0,0.0,192.0,0.0,17.0,0.0,178.0,192.0,17.0,178.0,1744418550.939541,0.0,2025-04-11 20:42:30.939,FORWARD,3
42.0,-1719.6091079245937,-22495.55557913251,-35197.694325172226,-24378.131255880744,19548.746293633736,4074.9018281581198,27925.464859660253,49645.861941082716,0.0,0.0,0.0,193.0,0.0,193.0,0.0,17.0,0.0,179.0,193.0,17.0,179.0,1744418550.9395723,0.0,2025-04-11 20:42:30.939,FORWARD,3
43.0,-1726.4263899834623,-22507.089079271445,-35158.24349620861,-24394.98447120005,19706.124926343553,4037.954394573497,28093.818198897625,49676.90851413114,0.0,0.0,0.0,193.0,0.0,193.0,0.0,17.0,0.0,179.0,193.0,17.0,179.0,1744418550.939604,0.0,2025-04-11 20:42:30.939,FORWARD,3
44.0,-1740.016250612289,-22535.967533107705,-35187.837205867436,-24433.809451318917,19719.71478697238,3800.4224062469493,28398.13719965663,49563.29459706481,0.0,0.0,0.0,193.0,0.0,193.0,0.0,17.0,0.0,179.0,193.0,17.0,179.0,1744418550.9396355,0.0,2025-04-11 20:42:30.939,FORWARD,3
45.0,-1740.5973959681269,-22526.333931247467,-35210.30070904502,-24402.069974192378,19598.434221557884,3870.137497203052,28272.252174884343,49526.8389018582,0.0,0.0,0.0,193.0,0.0,193.0,0.0,17.0,0.0,178.0,193.0,17.0,178.0,1744418550.9396672,0.0,2025-04-11 20:42:30.939,FORWARD,3
46.0,-1715.630497411549,-22487.218378450678,-35192.84399662542,-24374.040886645424,19519.62197060847,4084.848354440732,27968.737836925728,49642.62093813669,0.0,0.0,0.0,193.0,0.0,192.0,0.0,17.0,0.0,178.0,192.0,17.0,178.0,1744418550.9396992,0.0,2025-04-11 20:42:30.939,FORWARD,3
47.0,-1707.7403316188256,-22495.756744832604,-35150.17451646025,-24387.809561229893,19661.26497522175,4024.31983045576,28028.97578823278,49686.20683982454,0.0,0.0,0.0,193.0,0.0,192.0,0.0,17.0,0.0,178.0,192.0,17.0,178.0,1744418550.9397447,0.0,2025-04-11 20:42:30.939,FORWARD,3
48.0,-1733.8024656537136,-22546.02581811259,-35184.93147908825,-24448.136919514767,19704.783821676236,3771.3204349661396,28395.9020252111,49602.67837079506,0.0,0.0,0.0,193.0,0.0,192.0,0.0,17.0,0.0,178.0,192.0,17.0,178.0,1744418550.9397807,0.0,2025-04-11 20:42:30.939,FORWARD,3
49.0,-1750.8344949286575,-22543.254201800133,-35220.895435916835,-24419.526686611975,19573.981413123776,3785.7820136287232,28327.729204622414,49516.53474766431,0.0,0.0,0.0,193.0,0.0,193.0,0.0,17.0,0.0,179.0,193.0,17.0,179.0,1744418550.939813,0.0,2025-04-11 20:42:30.939,FORWARD,3
50.0,-1736.015288354789,-22509.033681039058,-35209.94308113374,-24375.270232590465,19510.256589681696,4062.004871607408,28029.109898699513,49629.63457460816,0.0,0.0,0.0,193.0,0.0,192.0,0.0,17.0,0.0,178.0,192.0,17.0,178.0,1744418550.9398444,0.0,2025-04-11 20:42:30.939,FORWARD,3
51.0,-1728.370991751074,-22513.615788652398,-35168.34648470241,-24387.653099018706,19625.859812004546,4055.813438393288,27967.128511324947,49678.51783973192,0.0,0.0,0.0,193.0,0.0,192.0,0.0,17.0,0.0,178.0,192.0,17.0,178.0,1744418550.9398904,0.0,2025-04-11 20:42:30.939,FORWARD,3
52.0,-1744.9112826480011,-22546.964591379714,-35171.78865334853,-24438.79389033245,19742.759435505803,3845.103543413108,28349.164527555055,49625.74537107294,0.0,0.0,0.0,193.0,0.0,192.0,0.0,17.0,0.0,178.0,192.0,17.0,178.0,1744418550.9399223,0.0,2025-04-11 20:42:30.939,FORWARD,3
53.0,-1734.8977011320235,-22528.97143709319,-35198.56604320598,-24421.292474423943,19599.194180869363,3747.8958067769777,28338.234524516407,49506.92349754852,0.0,0.0,0.0,193.0,0.0,192.0,0.0,17.0,0.0,178.0,192.0,17.0,178.0,1744418550.939954,0.0,2025-04-11 20:42:30.939,FORWARD,3
54.0,-1730.0697243296772,-22508.40783219431,-35206.34445027643,-24398.560750312896,19463.742609470202,3965.132411138107,28077.99316382327,49617.29641166883,0.0,0.0,0.0,193.0,0.0,193.0,0.0,17.0,0.0,179.0,193.0,17.0,179.0,1744418550.9399855,0.0,2025-04-11 20:42:30.939,FORWARD,3
55.0,-1719.6538114135042,-22496.98609077765,-35159.025807264545,-24386.11082865129,19555.295354759142,4026.555004901291,27940.86521158996,49694.38757829519,0.0,0.0,0.0,193.0,0.0,193.0,0.0,17.0,0.0,179.0,193.0,17.0,179.0,1744418550.9400167,0.0,2025-04-11 20:42:30.940,FORWARD,3
56.0,-1743.9054541475123,-22536.995713352648,-35154.75662407358,-24412.776459786473,19753.555328077713,3919.0207623268084,28315.8827800611,49663.609226180226,0.0,0.0,0.0,193.0,0.0,193.0,0.0,17.0,0.0,179.0,193.0,17.0,179.0,1744418550.9400485,0.0,2025-04-11 20:42:30.940,FORWARD,3
57.0,-1750.8344949286575,-22545.84700415695,-35185.3561622329,-24404.327500382366,19687.32710925664,3789.6488654194914,28388.458894307485,49520.26748898834,0.0,0.0,0.0,193.0,0.0,192.0,0.0,17.0,0.0,178.0,192.0,17.0,178.0,1744418550.9400797,0.0,2025-04-11 20:42:30.940,FORWARD,3
58.0,-1738.6527942005152,-22521.103623044924,-35198.6554501838,-24369.771703454462,19546.801691866123,4000.850498777688,28144.243734388798,49582.293579851816,0.0,0.0,0.0,193.0,0.0,192.0,0.0,18.0,0.0,178.0,192.0,18.0,178.0,1744418550.9401116,0.0,2025-04-11 20:42:30.940,FORWARD,3
59.0,-1719.206776524398,-22509.346605461433,-35167.67593236875,-24367.02243888646,19537.995104550733,4079.4615840270026,27923.117926492447,49661.6199209237,0.0,0.0,0.0,193.0,0.0,192.0,0.0,17.0,0.0,178.0,192.0,17.0,178.0,1744418550.940143,0.0,2025-04-11 20:42:30.940,FORWARD,3
60.0,-1743.8607506586018,-22560.152120608345,-35175.43198769474,-24418.58791334485,19691.32807151414,3943.1829980829953,28251.509756029816,49658.96006333352,0.0,0.0,0.0,193.0,0.0,192.0,0.0,17.0,0.0,178.0,192.0,17.0,178.0,1744418550.9401748,0.0,2025-04-11 20:42:30.940,FORWARD,3
61.0,-1747.1017536046213,-22563.683696232285,-35196.979069349654,-24434.904686797225,19647.87628029302,3750.6450713449804,28427.261522681896,49535.95841359597,0.0,0.0,0.0,193.0,0.0,192.0,0.0,17.0,0.0,179.0,192.0,17.0,179.0,1744418550.9402063,0.0,2025-04-11 20:42:30.940,FORWARD,3
62.0,-1761.8762566895791,-22546.182280323777,-35215.665127714296,-24415.615131332295,19531.826023081067,3907.0849307876747,28232.77899417627,49578.314969338775,0.0,0.0,0.0,193.0,0.0,193.0,0.0,17.0,0.0,179.0,193.0,17.0,179.0,1744418550.940265,0.0,2025-04-11 20:42:30.940,FORWARD,3
63.0,-1729.622689440571,-22499.914169301293,-35170.82752833695,-24369.995220899014,19520.225467708762,4069.850333911221,27938.920609822348,49659.11652554471,0.0,0.0,0.0,193.0,0.0,193.0,0.0,17.0,0.0,179.0,193.0,17.0,179.0,1744418550.9402962,0.0,2025-04-11 20:42:30.940,FORWARD,3
64.0,-1734.2942040317303,-22525.775137636083,-35127.934530727216,-24372.252747088998,19721.592333506625,4006.1925657025063,28174.48564463683,49668.995996593956,0.0,0.0,0.0,193.0,0.0,192.0,0.0,17.0,0.0,179.0,192.0,17.0,179.0,1744418550.9403267,0.0,2025-04-11 20:42:30.940,FORWARD,3
65.0,-1743.7489919363252,-22543.812995411517,-35164.36787418937,-24401.91351198119,19680.599234175592,3780.4846501928155,28434.615246607693,49553.66099520457,0.0,0.0,0.0,193.0,0.0,192.0,0.0,17.0,0.0,178.0,192.0,17.0,178.0,1744418550.9403574,0.0,2025-04-11 20:42:30.940,FORWARD,3
66.0,-1752.1532478515207,-22533.620599939895,-35209.94308113374,-24387.96602344108,19523.66763635488,3889.158831734518,28277.3260208757,49551.537579481315,0.0,0.0,0.0,193.0,0.0,192.0,0.0,17.0,0.0,178.0,192.0,17.0,178.0,1744418550.9404008,0.0,2025-04-11 20:42:30.940,FORWARD,3
67.0,-1739.7927331677358,-22517.12501253188,-35203.34931651942,-24372.16334011118,19466.0448391491,4058.6297581946565,27981.72420045426,49669.80065939434,0.0,0.0,0.0,193.0,0.0,192.0,0.0,17.0,0.0,178.0,192.0,17.0,178.0,1744418550.9404316,0.0,2025-04-11 20:42:30.940,FORWARD,3
68.0,-1737.0881720886437,-22533.620599939895,-35158.64582760881,-24389.754162997506,19661.868472322043,3967.4569925614587,28101.976585623812,49683.390520023175,0.0,0.0,0.0,193.0,0.0,192.0,0.0,17.0,0.0,178.0,192.0,17.0,178.0,1744418550.940462,0.0,2025-04-11 20:42:30.940,FORWARD,3
69.0,-1758.4117362990066,-22567.66230674533,-35185.177348277255,-24437.74335834305,19699.397051262506,3739.0668677171316,28432.938865773544,49585.69104500903,0.0,0.0,0.0,193.0,0.0,192.0,0.0,17.0,0.0,178.0,192.0,17.0,178.0,1744418550.9404926,0.0,2025-04-11 20:42:30.940,FORWARD,3
70.0,-1762.1444776230428,-22550.94320189276,-35211.23948231214,-24413.335253397854,19587.30305281914,3809.988952873821,28321.09073651919,49523.95552682347,0.0,0.0,0.0,193.0,0.0,192.0,0.0,17.0,0.0,178.0,192.0,17.0,178.0,1744418550.9405231,0.0,2025-04-11 20:42:30.940,FORWARD,3
71.0,-1743.592529725138,-22512.878181085372,-35200.57770020696,-24377.170130869166,19486.854313236992,4078.3663485486927,28023.812535263605,49635.51308339991,0.0,0.0,0.0,193.0,0.0,193.0,0.0,17.0,0.0,179.0,193.0,17.0,179.0,1744418550.9405537,0.0,2025-04-11 20:42:30.940,FORWARD,3
72.0,-1722.470131214873,-22508.966625805693,-35142.68668206772,-24370.755180210494,19632.520631852225,4064.1059355862067,28033.11086095701,49674.31571177432,0.0,0.0,0.0,193.0,0.0,192.0,0.0,17.0,0.0,178.0,192.0,17.0,178.0,1744418550.940584,0.0,2025-04-11 20:42:30.940,FORWARD,3
73.0,-1741.849093657624,-22551.85962341543,-35155.181307218234,-24411.25654116351,19751.8118920102,3857.3746511190716,28406.541455571827,49604.757083029406,0.0,0.0,0.0,193.0,0.0,192.0,0.0,17.0,0.0,178.0,192.0,17.0,178.0,1744418550.9406147,0.0,2025-04-11 20:42:30.940,FORWARD,3
74.0,-1740.686802945948,-22539.141480820355,-35186.87608085586,-24388.01072692999,19627.93852423889,3804.7362929268234,28350.259763033362,49506.23059347041,0.0,0.0,0.0,193.0,0.0,192.0,0.0,17.0,0.0,178.0,192.0,17.0,178.0,1744418550.940645,0.0,2025-04-11 20:42:30.940,FORWARD,3
75.0,-1745.335965792652,-22522.198858523236,-35205.1598078203,-24374.44321804562,19488.776563260148,4043.1176475426732,28069.87948058599,49621.87851928217,0.0,0.0,0.0,193.0,0.0,192.0,0.0,17.0,0.0,178.0,192.0,17.0,178.0,1744418550.9406755,0.0,2025-04-11 20:42:30.940,FORWARD,3
76.0,-1734.9200528764788,-22523.159983534813,-35171.967467304166,-24384.188578628135,19573.26615730121,4028.7231241134555,27985.2557760782,49679.21074381003,0.0,0.0,0.0,193.0,0.0,192.0,0.0,17.0,0.0,179.0,192.0,17.0,179.0,1744418550.940706,0.0,2025-04-11 20:42:30.940,FORWARD,3
77.0,-1755.0366228862551,-22567.818768956517,-35184.48444419914,-24437.989227532056,19701.855743152588,3795.2815050222284,28370.130463854133,49630.953327531024,0.0,0.0,0.0,193.0,0.0,192.0,0.0,17.0,0.0,179.0,192.0,17.0,179.0,1744418550.9407895,0.0,2025-04-11 20:42:30.940,FORWARD,3
78.0,-1748.398154783029,-22552.46312051572,-35198.878967628356,-24410.653044063216,19595.21557035632,3731.914309491433,28393.175112387555,49511.41619818404,0.0,0.0,0.0,193.0,0.0,193.0,0.0,17.0,0.0,179.0,193.0,17.0,179.0,1744418550.940821,0.0,2025-04-11 20:42:30.940,FORWARD,3
79.0,-1739.72567793437,-22516.32034973149,-35199.571871706474,-24382.892177449725,19479.18766488882,3995.351969641682,28140.913324464957,49616.04471397933,0.0,0.0,0.0,193.0,0.0,193.0,0.0,17.0,0.0,179.0,193.0,17.0,179.0,1744418550.9408517,0.0,2025-04-11 20:42:30.940,FORWARD,3
80.0,-1711.7412938763255,-22488.06774473998,-35144.00543499058,-24362.708552206583,19543.58304066456,4026.6667636235675,27957.517261209163,49679.79188916587,0.0,0.0,0.0,193.0,0.0,192.0,0.0,17.0,0.0,178.0,192.0,17.0,178.0,1744418550.9408824,0.0,2025-04-11 20:42:30.940,FORWARD,3
81.0,-1741.8043901687136,-22540.907268632327,-35148.07345248145,-24400.952386969613,19693.51854247076,3864.773078533778,28329.629102901115,49662.53634244637,0.0,0.0,0.0,193.0,0.0,192.0,0.0,17.0,0.0,178.0,192.0,17.0,178.0,1744418550.9409273,0.0,2025-04-11 20:42:30.940,FORWARD,3
82.0,-1739.1668843229872,-22538.917963375803,-35169.173499247256,-24401.332366625353,19621.188297413388,3712.4235883264055,28411.995281218922,49506.521166148326,0.0,0.0,0.0,193.0,0.0,192.0,0.0,17.0,0.0,178.0,192.0,17.0,178.0,1744418550.940958,0.0,2025-04-11 20:42:30.940,FORWARD,3
83.0,-1732.304898775208,-22518.913152088306,-35186.6078599224,-24371.313973821878,19503.640473322925,3923.044076328764,28182.062886007177,49574.0010826589,0.0,0.0,0.0,193.0,0.0,192.0,0.0,17.0,0.0,179.0,192.0,17.0,179.0,1744418550.940989,0.0,2025-04-11 20:42:30.940,FORWARD,3
84.0,-1715.272869500264,-22502.797544336026,-35158.1987927197,-24352.404398012688,19522.617104365483,4072.2643223123937,27946.184926770322,49663.85509536923,0.0,0.0,0.0,193.0,0.0,193.0,0.0,17.0,0.0,179.0,193.0,17.0,179.0,1744418550.9410193,0.0,2025-04-11 20:42:30.941,FORWARD,3
85.0,-1760.3116345777078,-22558.341629307466,-35154.30958918448,-24405.959177727604,19761.736066548357,3976.107117665663,28250.77214846279,49660.1223540452,0.0,0.0,0.0,193.0,0.0,193.0,0.0,17.0,0.0,179.0,193.0,17.0,179.0,1744418550.94105,0.0,2025-04-11 20:42:30.941,FORWARD,3
86.0,-1762.8150299567021,-22571.61856551392,-35176.370760961865,-24428.176811716177,19680.80039987569,3754.958958024855,28430.547229116826,49512.33261970671,0.0,0.0,0.0,193.0,0.0,193.0,0.0,17.0,0.0,179.0,193.0,17.0,179.0,1744418550.9410806,0.0,2025-04-11 20:42:30.941,FORWARD,3
87.0,-1749.1134106055988,-22542.024855855092,-35188.66422041228,-24374.689087234627,19530.9096015584,3917.836119870677,28233.695415698938,49540.339355509204,0.0,0.0,0.0,193.0,0.0,193.0,0.0,17.0,0.0,179.0,193.0,17.0,179.0,1744418550.941111,0.0,2025-04-11 20:42:30.941,FORWARD,3
88.0,-1737.3787447665627,-22518.13084103237,-35170.60401089239,-24349.789243911415,19491.078792939043,4071.9961013789302,27952.15284253989,49648.566502161804,0.0,0.0,0.0,193.0,0.0,193.0,0.0,17.0,0.0,179.0,193.0,17.0,179.0,1744418550.9411418,0.0,2025-04-11 20:42:30.941,FORWARD,3
89.0,-1747.72760244937,-22548.149233835848,-35142.61962683435,-24383.093343149823,19666.36117295756,3972.217914130439,28174.172720214454,49668.54896170485,0.0,0.0,0.0,193.0,0.0,193.0,0.0,17.0,0.0,178.0,193.0,17.0,178.0,1744418550.941187,0.0,2025-04-11 20:42:30.941,FORWARD,3
90.0,-1755.2154368418976,-22563.393123554364,-35177.555403417995,-24411.59181733034,19626.820937016124,3747.6052340990586,28445.88052581317,49551.06819284776,0.0,0.0,0.0,193.0,0.0,192.0,0.0,18.0,0.0,178.0,192.0,18.0,178.0,1744418550.9412186,0.0,2025-04-11 20:42:30.941,FORWARD,3
91.0,-1748.9345966499563,-22541.488413988165,-35200.04125834003,-24372.431561044643,19493.604540062493,3848.657470781502,28294.290994917275,49533.65618391707,0.0,0.0,0.0,193.0,0.0,192.0,0.0,17.0,0.0,178.0,192.0,17.0,178.0,1744418550.9412496,0.0,2025-04-11 20:42:30.941,FORWARD,3
92.0,-1741.20089306842,-22515.046300297538,-35188.44070296773,-24350.079816589336,19489.447115593804,4067.861028654698,27997.77275297317,49649.907606829125,0.0,0.0,0.0,193.0,0.0,193.0,0.0,17.0,0.0,179.0,193.0,17.0,179.0,1744418550.9412944,0.0,2025-04-11 20:42:30.941,FORWARD,3
93.0,-1741.6479279575262,-22532.480660972677,-35146.039443736016,-24363.222642329056,19684.935472599922,4029.0807520247404,28095.069896587123,49670.06888032781,0.0,0.0,0.0,193.0,0.0,193.0,0.0,17.0,0.0,179.0,193.0,17.0,179.0,1744418550.9413269,0.0,2025-04-11 20:42:30.941,FORWARD,3
94.0,-1764.8713904465903,-22578.257033617145,-35181.82458660896,-24411.770631285985,19733.81873772368,3824.338772814128,28440.49375539944,49577.66676874957,0.0,0.0,0.0,193.0,0.0,193.0,0.0,17.0,0.0,179.0,193.0,17.0,179.0,1744418550.941358,0.0,2025-04-11 20:42:30.941,FORWARD,3
95.0,-1754.8354571861576,-22548.618620469406,-35195.41444723779,-24385.12735189526,19554.9153751034,3848.2551393813064,28342.70487340747,49523.62025065664,0.0,0.0,0.0,193.0,0.0,192.0,0.0,17.0,0.0,178.0,192.0,17.0,178.0,1744418550.9413898,0.0,2025-04-11 20:42:30.941,FORWARD,3
96.0,-1740.016250612289,-22516.901495087328,-35189.55829019049,-24360.361619038777,19432.405463743864,4055.3664035041816,28043.392663406452,49645.63842363816,0.0,0.0,0.0,193.0,0.0,192.0,0.0,17.0,0.0,178.0,192.0,17.0,178.0,1744418550.9414346,0.0,2025-04-11 20:42:30.941,FORWARD,3
97.0,-1727.7674946507807,-22516.65562589832,-35145.681815824726,-24370.017572643468,19561.82206414009,3990.6357515616123,28033.177916190376,49677.31084553133,0.0,0.0,0.0,193.0,0.0,192.0,0.0,17.0,0.0,178.0,192.0,17.0,178.0,1744418550.941466,0.0,2025-04-11 20:42:30.941,FORWARD,3
98.0,-1753.9413874079453,-22558.922774663304,-35157.639999108316,-24417.626788333273,19699.37469951805,3804.13279582653,28417.762031288392,49606.61227781919,0.0,0.0,0.0,193.0,0.0,192.0,0.0,17.0,0.0,178.0,192.0,17.0,178.0,1744418550.9414976,0.0,2025-04-11 20:42:30.941,FORWARD,3
99.0,-1762.6362160010597,-22553.737169949673,-35187.72544714516,-24397.040831689934,19593.40507905544,3792.733406154324,28378.28885058032,49512.51143366235,0.0,0.0,0.0,193.0,0.0,192.0,0.0,18.0,0.0,178.0,192.0,18.0,178.0,1744418550.9415295,0.0,2025-04-11 20:42:30.941,FORWARD,3
100.0,-1756.10950662011,-22524.434032968766,-35193.02281058107,-24362.216813828567,19501.829982022045,4047.364478989182,28103.42944901341,49633.38966767665,0.0,0.0,0.0,193.0,0.0,193.0,0.0,17.0,0.0,179.0,193.0,17.0,179.0,1744418550.9415607,0.0,2025-04-11 20:42:30.941,FORWARD,3
