Sample Index,EXG Channel 0,EXG Channel 1,EXG Channel 2,EXG Channel 3,EXG Channel 4,EXG Channel 5,EXG Channel 6,EXG Channel 7,Accel Channel 0,Accel Channel 1,Accel Channel 2,Not Used,Digital Channel 0 (D11),Digital Channel 1 (D12),Digital Channel 2 (D13),Digital Channel 3 (D17),Not Used,Digital Channel 4 (D18),Analog Channel 0,Analog Channel 1,Analog Channel 2,Timestamp,Marker Channel,Timestamp (Formatted),Stimulus_Direction,Stimulus_Number
184.0,19984.58295876777,3765.017243029743,-66650.86795698023,-65214.58956177111,-39049.21281924401,-36718.12703825558,-33705.00012695791,-22740.50834661822,0.0,0.0,0.0,193.0,1.0,154.0,0.0,10.0,3.0,249.0,410.0,10.0,1017.0,1744252581.219765,0.0,2025-04-09 22:36:21.219,FORWARD,1
185.0,19917.840649824222,3770.98515879931,-66608.44434600405,-65155.53625292019,-39004.97871696696,-36678.855023247605,-33624.89147483009,-22688.406430292896,0.0,0.0,0.0,193.0,1.0,155.0,0.0,9.0,3.0,249.0,411.0,9.0,1017.0,1744252581.219774,0.0,2025-04-09 22:36:21.219,FORWARD,1
186.0,19823.06925333372,3736.07173396012,-66655.40536110465,-65223.08322466412,-39033.79011556985,-36712.24852946383,-33495.27370873377,-22730.897096502435,0.0,0.0,0.0,193.0,1.0,155.0,0.0,8.0,3.0,250.0,411.0,8.0,1018.0,1744252581.2197824,0.0,2025-04-09 22:36:21.219,FORWARD,1
187.0,19864.59879453168,3714.8375767275784,-66673.06323922434,-65198.16102959646,-39104.30986932634,-36778.074416884716,-33404.99501287878,-22790.308033264642,0.0,0.0,0.0,193.0,1.0,155.0,0.0,8.0,3.0,250.0,411.0,8.0,1018.0,1744252581.2197914,0.0,2025-04-09 22:36:21.219,FORWARD,1
188.0,19984.940586679055,3757.596463870581,-66668.27996591092,-65220.91510545196,-39080.594668459256,-36748.59246594816,-33581.797311520255,-22774.930033079392,0.0,0.0,0.0,193.0,1.0,154.0,0.0,7.0,3.0,250.0,410.0,7.0,1018.0,1744252581.2198,0.0,2025-04-09 22:36:21.219,FORWARD,1
189.0,19911.17982997654,3760.591597627592,-66609.45017450454,-65164.85693035805,-39003.81642625528,-36684.934697739445,-33729.54234236984,-22702.86800895548,0.0,0.0,0.0,193.0,1.0,154.0,0.0,7.0,3.0,249.0,410.0,7.0,1017.0,1744252581.2198088,0.0,2025-04-09 22:36:21.219,FORWARD,1
190.0,19833.10518659415,3740.944414251377,-66651.04677093586,-65218.970503684344,-39030.10207773472,-36712.38263993057,-33473.77133056776,-22728.125480189978,0.0,0.0,0.0,193.0,1.0,154.0,0.0,6.0,3.0,249.0,410.0,6.0,1017.0,1744252581.2198176,0.0,2025-04-09 22:36:21.219,FORWARD,1
191.0,19818.464793975927,3698.3866928084726,-66677.2877189264,-65218.344654839595,-39094.475101766,-36780.04137039678,-33479.22515621485,-22791.604434443052,0.0,0.0,0.0,193.0,1.0,154.0,0.0,6.0,3.0,249.0,410.0,6.0,1017.0,1744252581.2198262,0.0,2025-04-09 22:36:21.219,FORWARD,1
192.0,19970.300194060826,3736.1834926823967,-66687.9942045205,-65232.85093699109,-39108.199072861564,-36790.792559479785,-33464.71887406336,-22810.536361996696,0.0,0.0,0.0,193.0,1.0,154.0,0.0,6.0,3.0,249.0,410.0,6.0,1017.0,1744252581.2198353,0.0,2025-04-09 22:36:21.219,FORWARD,1
193.0,19938.583068678745,3777.8694960915445,-66589.49006670596,-65155.60330815355,-38982.8504899562,-36669.914325465485,-33823.57613129332,-22699.179971120357,0.0,0.0,0.0,193.0,1.0,154.0,0.0,5.0,3.0,250.0,410.0,5.0,1018.0,1744252581.219844,0.0,2025-04-09 22:36:21.219,FORWARD,1
194.0,19876.132294670617,3775.6119699015585,-66617.80972693083,-65181.46427648834,-39004.71049603349,-36698.301040923725,-33451.55369657918,-22724.951532477324,0.0,0.0,0.0,193.0,1.0,154.0,0.0,5.0,3.0,252.0,410.0,5.0,1020.0,1744252581.2198527,0.0,2025-04-09 22:36:21.219,FORWARD,1
195.0,19811.87102936161,3712.535347048682,-66661.37327687422,-65214.924837937935,-39072.16806079961,-36761.489422498875,-33523.861589892105,-22782.84255061657,0.0,0.0,0.0,193.0,1.0,155.0,0.0,5.0,3.0,249.0,411.0,5.0,1017.0,1744252581.2198617,0.0,2025-04-09 22:36:21.219,FORWARD,1
196.0,19990.70733674852,3760.301024949673,-66666.5365298434,-65200.06092787516,-39104.421628048614,-36788.73619898989,-33368.67342813891,-22804.70255669386,0.0,0.0,0.0,193.0,1.0,155.0,0.0,5.0,3.0,249.0,411.0,5.0,1017.0,1744252581.699073,0.0,2025-04-09 22:36:21.699,FORWARD,1
197.0,19965.941603892043,3796.689664922913,-66586.20436027102,-65157.65966864344,-38984.03513241233,-36665.62279053006,-33856.36614040925,-22691.803895450103,0.0,0.0,0.0,193.0,1.0,154.0,0.0,5.0,3.0,250.0,410.0,5.0,1018.0,1744252581.6991143,0.0,2025-04-09 22:36:21.699,FORWARD,1
198.0,19895.89123676911,3789.470051463849,-66613.80876467333,-65169.01435482674,-39004.55403382231,-36698.52455836828,-33456.06874895916,-22712.322796860077,0.0,0.0,0.0,193.0,1.0,154.0,0.0,5.0,3.0,250.0,410.0,5.0,1018.0,1744252581.6991649,0.0,2025-04-09 22:36:21.699,FORWARD,1
199.0,19802.371537968105,3723.331239620595,-66661.82031176332,-65222.92676245294,-39056.49948793644,-36753.241628794865,-33546.32509306969,-22760.26728871671,0.0,0.0,0.0,193.0,1.0,154.0,0.0,5.0,3.0,249.0,410.0,5.0,1017.0,1744252581.699185,0.0,2025-04-09 22:36:21.699,FORWARD,1
200.0,19956.598574709722,3749.8627602890447,-66681.37808816173,-65201.75966045376,-39118.07854391081,-36809.56802482224,-33309.28484312115,-22809.061146862645,0.0,0.0,0.0,193.0,1.0,155.0,0.0,4.0,3.0,251.0,411.0,4.0,1019.0,1744252581.6992044,0.0,2025-04-09 22:36:21.699,FORWARD,1
201.0,19965.874548658678,3781.1328507820194,-66608.13142158168,-65179.29615727618,-39000.418961098076,-36681.26901164878,-33840.965788479545,-22690.73101171625,0.0,0.0,0.0,193.0,1.0,155.0,0.0,4.0,3.0,252.0,411.0,4.0,1020.0,1744252581.6992247,0.0,2025-04-09 22:36:21.699,FORWARD,1
202.0,19890.16919018855,3765.464277918849,-66625.81165144582,-65173.86468337354,-39019.10501946271,-36710.57214862968,-33488.411723185985,-22706.109011901503,0.0,0.0,0.0,193.0,1.0,155.0,0.0,4.0,3.0,249.0,411.0,4.0,1017.0,1744252581.6992424,0.0,2025-04-09 22:36:21.699,FORWARD,1
203.0,19785.026584270785,3706.8803557014894,-66677.84651253778,-65245.05498946369,-39062.93679033957,-36752.16874506101,-33557.21039261942,-22755.72988459228,0.0,0.0,0.0,193.0,1.0,154.0,0.0,4.0,3.0,250.0,410.0,4.0,1018.0,1744252581.699252,0.0,2025-04-09 22:36:21.699,FORWARD,1
204.0,19917.438318424025,3725.3205448771173,-66686.02725100843,-65203.592503499094,-39121.38660209019,-36809.322155633236,-33326.27216890719,-22802.93676888189,0.0,0.0,0.0,193.0,1.0,155.0,0.0,4.0,3.0,251.0,411.0,4.0,1019.0,1744252581.6992607,0.0,2025-04-09 22:36:21.699,FORWARD,1
205.0,19979.844388943242,3779.076490292131,-66627.1304043687,-65198.89863716348,-39015.57344383877,-36695.015334488795,-33774.55875570283,-22709.282959614153,0.0,0.0,0.0,193.0,1.0,155.0,0.0,4.0,3.0,252.0,411.0,4.0,1020.0,1744252581.6992695,0.0,2025-04-09 22:36:21.699,FORWARD,1
206.0,19912.78915557732,3779.9929118147984,-66605.00217735794,-65153.30107847465,-38993.132292405644,-36684.28649715024,-33547.64384599255,-22690.172218104868,0.0,0.0,0.0,193.0,1.0,156.0,0.0,4.0,3.0,252.0,412.0,4.0,1020.0,1744252581.6992784,0.0,2025-04-09 22:36:21.699,FORWARD,1
207.0,19800.8739710896,3724.0911989320757,-66667.20708217706,-65236.740140526315,-39038.75220283892,-36728.58765466066,-33514.563264198696,-22738.02730298368,0.0,0.0,0.0,193.0,1.0,155.0,0.0,4.0,3.0,251.0,411.0,4.0,1019.0,1744252581.6992872,0.0,2025-04-09 22:36:21.699,FORWARD,1
208.0,19873.15951265806,3711.9094982039333,-66690.87757955522,-65209.44866054638,-39116.3351078433,-36803.24248114139,-33358.88336406748,-22805.015481116236,0.0,0.0,0.0,193.0,1.0,155.0,0.0,4.0,3.0,250.0,411.0,4.0,1018.0,1744252581.699296,0.0,2025-04-09 22:36:21.699,FORWARD,1
209.0,19980.9172726771,3770.4263651879273,-66655.27125063792,-65215.483631549316,-39046.64236863165,-36719.51284641181,-33670.13140560763,-22736.46268087181,0.0,0.0,0.0,193.0,1.0,154.0,0.0,4.0,3.0,251.0,410.0,4.0,1019.0,1744252581.6993048,0.0,2025-04-09 22:36:21.699,FORWARD,1
210.0,19923.294475471317,3786.7431386403014,-66598.11784006571,-65145.41091268193,-38980.61531551067,-36658.13495613753,-33644.11397506166,-22668.602784705494,0.0,0.0,0.0,193.0,1.0,154.0,0.0,4.0,3.0,250.0,410.0,4.0,1018.0,1744252581.6993136,0.0,2025-04-09 22:36:21.699,FORWARD,1
211.0,19818.710663164933,3740.586786340092,-66663.22847166401,-65226.3465793546,-39026.16817071059,-36704.850102049124,-33463.66834207396,-22719.721224274785,0.0,0.0,0.0,193.0,1.0,154.0,0.0,3.0,3.0,249.0,410.0,3.0,1017.0,1744252581.6993222,0.0,2025-04-09 22:36:21.699,FORWARD,1
212.0,19829.14892782556,3693.625771239492,-66702.67930062763,-65227.15124215499,-39115.50809329845,-36789.00441992336,-33413.4886757718,-22798.175847312912,0.0,0.0,0.0,193.0,1.0,154.0,0.0,3.0,3.0,250.0,410.0,3.0,1018.0,1744252581.6993368,0.0,2025-04-09 22:36:21.699,FORWARD,1
213.0,19972.24479582844,3741.860835774045,-66691.81635282235,-65238.7965010162,-39091.77054068691,-36755.29798928476,-33549.00730240432,-22778.30514649214,0.0,0.0,0.0,193.0,1.0,154.0,0.0,3.0,3.0,250.0,410.0,3.0,1018.0,1744252581.6993456,0.0,2025-04-09 22:36:21.699,FORWARD,1
214.0,19920.18758299203,3769.4652401763487,-66610.70187219404,-65163.29230824618,-38988.7513504924,-36657.73262473734,-33757.549078172335,-22677.118799342967,0.0,0.0,0.0,193.0,1.0,154.0,0.0,3.0,3.0,249.0,410.0,3.0,1017.0,1744252581.6993544,0.0,2025-04-09 22:36:21.699,FORWARD,1
215.0,19843.699913465967,3758.557588882159,-66649.14687265716,-65211.75089022528,-39012.779475781856,-36689.06977046368,-33452.559525079676,-22702.845657211026,0.0,0.0,0.0,193.0,1.0,154.0,0.0,3.0,3.0,250.0,410.0,3.0,1018.0,1744252581.6993632,0.0,2025-04-09 22:36:21.699,FORWARD,1
216.0,19807.512439192826,3700.7559777207352,-66689.17884697662,-65233.610896302576,-39086.62963946219,-36767.45733826844,-33470.507975877284,-22774.482998190284,0.0,0.0,0.0,193.0,1.0,154.0,0.0,3.0,3.0,250.0,410.0,3.0,1018.0,1744252581.699372,0.0,2025-04-09 22:36:21.699,FORWARD,1
217.0,19976.7151447195,3750.689774833891,-66688.06125975386,-65231.80040500169,-39097.67140122312,-36771.70416971495,-33420.14949561948,-22789.436315230887,0.0,0.0,0.0,193.0,1.0,154.0,0.0,3.0,3.0,250.0,410.0,3.0,1018.0,1744252581.6993809,0.0,2025-04-09 22:36:21.699,FORWARD,1
218.0,19933.97860932095,3780.8646298485555,-66601.06827033381,-65171.67421241692,-38981.82230971126,-36654.29045609122,-33820.40218358066,-22682.840845923525,0.0,0.0,0.0,193.0,1.0,154.0,0.0,3.0,3.0,252.0,410.0,3.0,1020.0,1744252581.6993897,0.0,2025-04-09 22:36:21.699,FORWARD,1
219.0,19859.010858417852,3761.8656470615447,-66645.99527668898,-65211.706186736374,-39018.032135728856,-36698.16693045699,-33435.348681849086,-22719.654169041416,0.0,0.0,0.0,193.0,1.0,155.0,0.0,3.0,3.0,252.0,411.0,3.0,1020.0,1744252581.6993985,0.0,2025-04-09 22:36:21.699,FORWARD,1
220.0,19785.652433115534,3695.0339311401763,-66693.4927336565,-65256.029695991245,-39084.1262440832,-36768.99960863586,-33528.890732394546,-22792.386745498985,0.0,0.0,0.0,193.0,1.0,155.0,0.0,3.0,3.0,252.0,411.0,3.0,1020.0,1744252581.699407,0.0,2025-04-09 22:36:21.699,FORWARD,1
221.0,19956.44211249854,3733.367172881028,-66704.10981227277,-65240.71875103936,-39127.86860798224,-36809.25510039987,-33353.78716633167,-22829.46828955034,0.0,0.0,0.0,193.0,1.0,155.0,0.0,3.0,3.0,252.0,411.0,3.0,1020.0,1744252581.6994162,0.0,2025-04-09 22:36:21.699,FORWARD,1
222.0,19955.61509795369,3788.531278196726,-66608.69021519307,-65187.096916091075,-38993.6016790392,-36665.287514363234,-33869.12898649323,-22703.53856128914,0.0,0.0,0.0,193.0,1.0,155.0,0.0,3.0,3.0,251.0,411.0,3.0,1019.0,1744252581.6994247,0.0,2025-04-09 22:36:21.699,FORWARD,1
223.0,19888.381050632128,3772.147449510986,-66632.67363699361,-65192.79661092718,-39014.83583627175,-36696.3117356672,-33457.67807455994,-22715.541448061642,0.0,0.0,0.0,193.0,1.0,155.0,0.0,3.0,3.0,251.0,411.0,3.0,1019.0,1744252581.6994336,0.0,2025-04-09 22:36:21.699,FORWARD,1
224.0,19793.721412863903,3705.3157335896176,-66675.67839332562,-65250.39705638851,-39058.511144937416,-36746.0220153358,-33547.44268029245,-22767.956288809335,0.0,0.0,0.0,193.0,1.0,155.0,0.0,3.0,3.0,252.0,411.0,3.0,1020.0,1744252581.6994424,0.0,2025-04-09 22:36:21.699,FORWARD,1
225.0,19951.167100807084,3736.988155482788,-66680.34990791678,-65217.24941936129,-39113.8317124643,-36797.94511770548,-33307.18377914235,-22812.771536442226,0.0,0.0,0.0,193.0,1.0,155.0,0.0,3.0,3.0,251.0,411.0,3.0,1019.0,1744252581.6994512,0.0,2025-04-09 22:36:21.699,FORWARD,1
226.0,19971.82011268379,3776.170763512941,-66613.96522688451,-65208.33107332362,-39001.313030876285,-36683.057151205205,-33831.91333197514,-22716.480221328762,0.0,0.0,0.0,193.0,1.0,155.0,0.0,3.0,3.0,251.0,411.0,3.0,1019.0,1744252581.6994596,0.0,2025-04-09 22:36:21.699,FORWARD,1
227.0,19905.770707818356,3777.3107024801616,-66609.45017450454,-65180.27963403221,-38998.29554537482,-36697.83165429016,-33499.6099471581,-22719.40829985241,0.0,0.0,0.0,193.0,1.0,154.0,0.0,3.0,3.0,249.0,410.0,3.0,1017.0,1744252581.6994731,0.0,2025-04-09 22:36:21.699,FORWARD,1
228.0,19792.82734308569,3714.9940389387657,-66672.4373903796,-65262.53405362774,-39053.884333835165,-36749.330073515186,-33543.30760756822,-22775.533530179684,0.0,0.0,0.0,193.0,1.0,154.0,0.0,3.0,3.0,249.0,410.0,3.0,1017.0,1744252581.699482,0.0,2025-04-09 22:36:21.699,FORWARD,1
229.0,19915.76193758988,3734.2835944036956,-66677.17596020413,-65216.17653562743,-39114.636375264694,-36806.21526315394,-33334.02822423318,-22818.694748722883,0.0,0.0,0.0,193.0,1.0,154.0,0.0,3.0,3.0,250.0,410.0,3.0,1018.0,1744252581.6994908,0.0,2025-04-09 22:36:21.699,FORWARD,1
230.0,19990.28265360387,3790.5429351977036,-66621.81068918832,-65214.20958211536,-39017.96508049549,-36702.68198283696,-33752.54228741435,-22736.283866916165,0.0,0.0,0.0,193.0,1.0,154.0,0.0,3.0,3.0,250.0,410.0,3.0,1018.0,1744252581.6994991,0.0,2025-04-09 22:36:21.699,FORWARD,1
231.0,19927.004865050898,3794.074510821642,-66587.50076144944,-65159.67132564442,-38984.34805683471,-36681.42547385996,-33583.272526654306,-22706.64545376843,0.0,0.0,0.0,193.0,1.0,155.0,0.0,3.0,3.0,249.0,411.0,3.0,1017.0,1744252581.699508,0.0,2025-04-09 22:36:21.699,FORWARD,1
232.0,19810.30640724974,3735.110608948542,-66655.67358203811,-65249.07830346565,-39036.29351094884,-36736.813096620215,-33506.49428445033,-22761.161358494923,0.0,0.0,0.0,193.0,1.0,154.0,0.0,3.0,3.0,249.0,410.0,3.0,1017.0,1744252581.6995168,0.0,2025-04-09 22:36:21.699,FORWARD,1
233.0,19872.287794624306,3721.6101552975365,-66671.49861711248,-65219.462242062364,-39105.40510480465,-36805.879986987115,-33379.87165211101,-22819.61117024555,0.0,0.0,0.0,193.0,1.0,154.0,0.0,3.0,3.0,250.0,410.0,3.0,1018.0,1744252581.6995256,0.0,2025-04-09 22:36:21.699,FORWARD,1
234.0,19980.514941276902,3766.335995952606,-66653.2372418925,-65238.66239054947,-39059.718139138,-36748.79363164826,-33642.482297716415,-22773.65598364544,0.0,0.0,0.0,193.0,1.0,154.0,0.0,3.0,3.0,250.0,410.0,3.0,1018.0,1744252581.6995344,0.0,2025-04-09 22:36:21.699,FORWARD,1
235.0,19913.526763144346,3773.2203332448407,-66597.53669470987,-65177.2845002752,-38995.68039127355,-36694.2106716884,-33691.94670819601,-22715.340282361543,0.0,0.0,0.0,193.0,1.0,154.0,0.0,3.0,3.0,250.0,410.0,3.0,1018.0,1744252581.6995432,0.0,2025-04-09 22:36:21.699,FORWARD,1
236.0,19830.64649470407,3747.180550954408,-66643.55893654334,-65239.62351556105,-39025.47526663247,-36726.531294170774,-33490.75865635379,-22751.88538454597,0.0,0.0,0.0,193.0,1.0,155.0,0.0,3.0,3.0,252.0,411.0,3.0,1020.0,1744252581.699552,0.0,2025-04-09 22:36:21.699,FORWARD,1
237.0,19848.483186779402,3719.8667192300227,-66660.76977977392,-65222.30091360819,-39088.775406929904,-36786.21045186644,-33452.76069077977,-22800.433373502896,0.0,0.0,0.0,193.0,1.0,155.0,0.0,3.0,3.0,250.0,411.0,3.0,1018.0,1744252581.6995606,0.0,2025-04-09 22:36:21.699,FORWARD,1
238.0,19996.33997635126,3766.358347697061,-66656.61235530525,-65233.43208234693,-39079.58883995877,-36766.809137679236,-33513.15510429801,-22789.190446041877,0.0,0.0,0.0,193.0,1.0,155.0,0.0,3.0,3.0,250.0,411.0,3.0,1018.0,1744252581.6995692,0.0,2025-04-09 22:36:21.699,FORWARD,1
239.0,19939.70065590151,3788.7324438968235,-66580.90699683511,-65169.88607286049,-38979.60948701018,-36675.435206345945,-33775.69869467005,-22701.750421732715,0.0,0.0,0.0,193.0,1.0,155.0,0.0,3.0,3.0,252.0,411.0,3.0,1020.0,1744252581.699578,0.0,2025-04-09 22:36:21.699,FORWARD,1
240.0,19867.236300377404,3776.1260600240303,-66619.68727346507,-65213.71784373735,-39004.598737311215,-36704.1124944821,-33446.18927790991,-22727.052596456124,0.0,0.0,0.0,193.0,1.0,155.0,0.0,3.0,3.0,250.0,411.0,3.0,1018.0,1744252581.6995869,0.0,2025-04-09 22:36:21.699,FORWARD,1
241.0,19820.051767832254,3720.2690506302183,-66658.3334396283,-65233.47678583584,-39073.15153755564,-36769.58075399169,-33495.743095367325,-22785.837684373582,0.0,0.0,0.0,193.0,1.0,154.0,0.0,3.0,3.0,250.0,410.0,3.0,1018.0,1744252581.6995957,0.0,2025-04-09 22:36:21.699,FORWARD,1
242.0,19976.62573774168,3758.0658505041424,-66677.42182939313,-65243.53507084073,-39107.305003083355,-36799.889719473096,-33392.96977436182,-22812.83859167559,0.0,0.0,0.0,193.0,1.0,154.0,0.0,3.0,3.0,250.0,410.0,3.0,1018.0,1744252581.6996093,0.0,2025-04-09 22:36:21.699,FORWARD,1
243.0,19946.38382749365,3786.944304340399,-66585.13147653716,-65184.74998292327,-38978.246030598406,-36672.48477607784,-33831.91333197514,-22694.35199431801,0.0,0.0,0.0,193.0,1.0,155.0,0.0,2.0,3.0,252.0,411.0,2.0,1020.0,1744252581.699618,0.0,2025-04-09 22:36:21.699,FORWARD,1
244.0,19870.432599834516,3765.956016296866,-66625.40932004563,-65214.81307921566,-39009.985507724945,-36712.762619586305,-33429.7383939908,-22732.282904658667,0.0,0.0,0.0,193.0,1.0,155.0,0.0,2.0,3.0,251.0,411.0,2.0,1019.0,1744252581.6996267,0.0,2025-04-09 22:36:21.699,FORWARD,1
245.0,19787.529979649782,3698.7443207197575,-66673.01853573543,-65262.601108861105,-39075.67728467909,-36771.838280181684,-33533.87517140808,-22793.61609144403,0.0,0.0,0.0,193.0,1.0,155.0,0.0,3.0,3.0,251.0,411.0,3.0,1019.0,1744252581.6996355,0.0,2025-04-09 22:36:21.699,FORWARD,1
246.0,19968.020316126385,3745.7723910537234,-66668.68229731111,-65226.57009679915,-39106.96972691652,-36795.24055662639,-33328.46263986381,-22801.059222347645,0.0,0.0,0.0,193.0,1.0,155.0,0.0,2.0,3.0,251.0,411.0,2.0,1019.0,1744252581.699644,0.0,2025-04-09 22:36:21.699,FORWARD,1
247.0,19961.58301372326,3784.4185572169495,-66589.4230114726,-65195.52352375073,-38982.224641111454,-36668.796738242716,-33841.524582090926,-22692.407392550398,0.0,0.0,0.0,193.0,1.0,155.0,0.0,2.0,3.0,252.0,411.0,2.0,1020.0,1744252581.699653,0.0,2025-04-09 22:36:21.699,FORWARD,1
248.0,19896.204161191483,3779.1882490144076,-66605.51626748042,-65191.88018940452,-38997.1556064076,-36696.065866478195,-33446.94923722139,-22709.908808458902,0.0,0.0,0.0,193.0,1.0,155.0,0.0,2.0,3.0,252.0,411.0,2.0,1020.0,1744252581.6996615,0.0,2025-04-09 22:36:21.699,FORWARD,1
249.0,19801.29865423425,3725.365248366028,-66647.80576798985,-65247.62544007605,-39040.38388018416,-36736.74604138685,-33534.09868885263,-22755.72988459228,0.0,0.0,0.0,193.0,1.0,155.0,0.0,2.0,3.0,252.0,411.0,2.0,1020.0,1744252581.6996703,0.0,2025-04-09 22:36:21.699,FORWARD,1
250.0,19940.862946613186,3738.731591550302,-66671.02923047892,-65222.703245008386,-39115.15046538717,-36805.589414309194,-33293.75038072472,-22811.318673052632,0.0,0.0,0.0,193.0,1.0,155.0,0.0,2.0,3.0,252.0,411.0,2.0,1020.0,1744252581.6996794,0.0,2025-04-09 22:36:21.699,FORWARD,1
251.0,19973.362383051204,3778.5847519141143,-66614.85929666273,-65222.07739616364,-39011.97481298147,-36696.5129013673,-33806.78997120738,-22723.051634198622,0.0,0.0,0.0,193.0,1.0,155.0,0.0,2.0,3.0,251.0,411.0,2.0,1019.0,1744252581.6996882,0.0,2025-04-09 22:36:21.699,FORWARD,1
252.0,19904.42960315104,3778.9200280809437,-66609.2713605489,-65191.366099282044,-39007.92914723506,-36703.196072959436,-33514.63031943206,-22715.429689339362,0.0,0.0,0.0,193.0,1.0,155.0,0.0,2.0,3.0,252.0,411.0,2.0,1020.0,1744252581.6996968,0.0,2025-04-09 22:36:21.699,FORWARD,1
253.0,19797.655319888036,3726.1252076775086,-66658.91458498414,-65263.71869608387,-39043.78134534137,-36737.32718674269,-33526.92377888248,-22749.69491358935,0.0,0.0,0.0,193.0,1.0,155.0,0.0,2.0,3.0,251.0,411.0,2.0,1019.0,1744252581.6997056,0.0,2025-04-09 22:36:21.699,FORWARD,1
254.0,19893.07491696774,3718.6820767738914,-66677.91356777115,-65233.25326839129,-39120.20195963406,-36813.70309754647,-33326.47333460728,-22816.973664399822,0.0,0.0,0.0,193.0,1.0,155.0,0.0,2.0,3.0,252.0,411.0,2.0,1020.0,1744252581.6997144,0.0,2025-04-09 22:36:21.699,FORWARD,1
255.0,19970.635470227655,3763.8326005736117,-66641.32376209782,-65244.00445747429,-39043.82604883028,-36725.905445326025,-33723.68618532255,-22753.047675257647,0.0,0.0,0.0,193.0,1.0,155.0,0.0,2.0,3.0,250.0,411.0,2.0,1018.0,1744252581.6997232,0.0,2025-04-09 22:36:21.699,FORWARD,1
0.0,19912.78915557732,3782.004568815776,-66590.89822660665,-65173.4847037178,-38993.24405112792,-36684.01827621678,-33607.188893221486,-22706.041956668134,0.0,0.0,0.0,193.0,1.0,155.0,0.0,2.0,3.0,252.0,411.0,2.0,1020.0,1744252581.699732,0.0,2025-04-09 22:36:21.699,FORWARD,1
1.0,19806.439555458972,3735.1553124374527,-66649.81742499083,-65253.45924537889,-39034.237150458954,-36728.7217651274,-33495.81015060069,-22750.343114178555,0.0,0.0,0.0,193.0,1.0,155.0,0.0,2.0,3.0,252.0,411.0,2.0,1020.0,1744252581.6997452,0.0,2025-04-09 22:36:21.699,FORWARD,1
2.0,19860.26255610735,3714.8375767275784,-66672.21387293504,-65230.39224510101,-39110.07661939581,-36799.95677470646,-33384.54316670218,-22810.715175952337,0.0,0.0,0.0,193.0,1.0,155.0,0.0,2.0,3.0,250.0,411.0,2.0,1018.0,1744252581.6997535,0.0,2025-04-09 22:36:21.699,FORWARD,1
3.0,19989.14271463665,3769.4875919208043,-66657.39466636117,-65245.9490592419,-39077.241906790965,-36749.3747770041,-33606.98772752139,-22778.014573814224,0.0,0.0,0.0,193.0,1.0,155.0,0.0,2.0,3.0,253.0,411.0,2.0,1021.0,1744252581.6997623,0.0,2025-04-09 22:36:21.699,FORWARD,1
4.0,19930.871716841666,3785.983179328821,-66583.14217128065,-65170.690735660886,-38986.203251624494,-36672.7529970113,-33702.98846995693,-22695.424878051865,0.0,0.0,0.0,193.0,1.0,155.0,0.0,2.0,3.0,251.0,411.0,2.0,1019.0,1744252581.6997712,0.0,2025-04-09 22:36:21.699,FORWARD,1
5.0,19827.696064435968,3738.306908405651,-66643.64834352117,-65245.56907958616,-39027.44222014454,-36722.08329702417,-33445.11639417605,-22738.92137276189,0.0,0.0,0.0,193.0,1.0,155.0,0.0,2.0,3.0,252.0,411.0,2.0,1020.0,1744252581.69978,0.0,2025-04-09 22:36:21.699,FORWARD,1
6.0,19818.44244223147,3695.659779984925,-66671.65507932367,-65241.81398651767,-39096.21853783352,-36785.80812046625,-33442.5906470526,-22798.913454879937,0.0,0.0,0.0,193.0,1.0,155.0,0.0,2.0,3.0,251.0,411.0,2.0,1019.0,1744252581.6997888,0.0,2025-04-09 22:36:21.699,FORWARD,1
7.0,19972.758885950912,3742.4866846187933,-66667.29648915488,-65245.546727841705,-39091.81524417582,-36768.26200106883,-33468.29515317621,-22786.41882972942,0.0,0.0,0.0,193.0,1.0,155.0,0.0,2.0,3.0,251.0,411.0,2.0,1019.0,1744252581.6997976,0.0,2025-04-09 22:36:21.699,FORWARD,1
8.0,19914.778460833844,3766.626568630525,-66593.69219466356,-65187.49924749127,-38994.0040104394,-36669.08731092064,-33782.13599707317,-22692.474447783763,0.0,0.0,0.0,193.0,1.0,155.0,0.0,2.0,3.0,252.0,411.0,2.0,1020.0,1744252581.6998065,0.0,2025-04-09 22:36:21.699,FORWARD,1
9.0,19834.267477305828,3744.0736584751203,-66639.26740160793,-65233.81206200267,-39026.52579862187,-36709.3651544291,-33438.27676037273,-22728.572515079086,0.0,0.0,0.0,193.0,1.0,155.0,0.0,2.0,3.0,251.0,411.0,2.0,1019.0,1744252581.6998153,0.0,2025-04-09 22:36:21.699,FORWARD,1
10.0,19782.232616213874,3679.2983030436403,-66675.16430320314,-65257.77313205876,-39088.574241229806,-36771.905335415046,-33502.739191381836,-22786.530588451697,0.0,0.0,0.0,193.0,1.0,154.0,0.0,2.0,3.0,251.0,410.0,2.0,1019.0,1744252581.6998236,0.0,2025-04-09 22:36:21.699,FORWARD,1
11.0,19953.826958397265,3723.331239620595,-66677.95827126005,-65244.227974918846,-39114.79283747588,-36790.34552459067,-33373.43434970789,-22809.888161407493,0.0,0.0,0.0,193.0,1.0,154.0,0.0,2.0,3.0,250.0,410.0,2.0,1018.0,1744252581.6998324,0.0,2025-04-09 22:36:21.699,FORWARD,1
12.0,19925.507298172393,3759.3175481936396,-66594.04982257483,-65194.584750483606,-38992.774664494355,-36666.405101586,-33845.436137370605,-22700.856351954502,0.0,0.0,0.0,193.0,1.0,154.0,0.0,2.0,3.0,250.0,410.0,2.0,1018.0,1744252581.6998415,0.0,2025-04-09 22:36:21.699,FORWARD,1
13.0,19856.55216652777,3751.270920189729,-66626.34809331276,-65216.06477690516,-39016.400458383614,-36704.20190145992,-33440.26606562926,-22727.142003433946,0.0,0.0,0.0,193.0,1.0,154.0,0.0,2.0,3.0,250.0,410.0,2.0,1018.0,1744252581.69985,0.0,2025-04-09 22:36:21.699,FORWARD,1
14.0,19766.47463637288,3683.0310443676767,-66677.33242241532,-65274.291071211235,-39075.34200851226,-36765.51273650083,-33537.406747032015,-22789.65983267544,0.0,0.0,0.0,193.0,1.0,154.0,0.0,2.0,3.0,251.0,410.0,2.0,1019.0,1744252581.699859,0.0,2025-04-09 22:36:21.699,FORWARD,1
15.0,19933.263353498383,3720.7384372637794,-66680.52872187243,-65245.546727841705,-39117.94443344408,-36808.830417255216,-33315.69979377983,-22829.9376761839,0.0,0.0,0.0,193.0,1.0,155.0,0.0,2.0,3.0,251.0,411.0,2.0,1019.0,1744252581.6998675,0.0,2025-04-09 22:36:21.699,FORWARD,1
16.0,19930.156461019094,3753.8190190576343,-66612.31119779483,-65227.95590495538,-39006.073952445266,-36686.901651251515,-33840.5858088238,-22724.280980143667,0.0,0.0,0.0,193.0,1.0,154.0,0.0,2.0,3.0,249.0,410.0,2.0,1017.0,1744252581.6998808,0.0,2025-04-09 22:36:21.699,FORWARD,1
17.0,19862.765951486344,3744.543045108682,-66628.06917763581,-65221.87623046354,-39022.12250496417,-36709.99100327385,-33475.02302825726,-22735.278038415676,0.0,0.0,0.0,193.0,1.0,154.0,0.0,2.0,3.0,250.0,410.0,2.0,1018.0,1744252581.6998901,0.0,2025-04-09 22:36:21.699,FORWARD,1
18.0,19755.701095545424,3678.3595297765173,-66680.32755617233,-65292.239522008844,-39068.077691564285,-36756.54968697425,-33537.18322958746,-22781.769666882716,0.0,0.0,0.0,193.0,1.0,153.0,0.0,2.0,3.0,250.0,409.0,2.0,1018.0,1744252581.6998987,0.0,2025-04-09 22:36:21.699,FORWARD,1
19.0,19886.056469208776,3689.267181070707,-66699.77357384843,-65265.328021684654,-39140.564398832845,-36828.27643493133,-33302.40050582892,-22846.701484525383,0.0,0.0,0.0,193.0,1.0,154.0,0.0,2.0,3.0,249.0,410.0,2.0,1017.0,1744252581.6999075,0.0,2025-04-09 22:36:21.699,FORWARD,1
20.0,19945.869737371177,3749.6168911000364,-66628.24799159146,-65249.190062187925,-39025.72113582148,-36705.632413105064,-33793.69184895657,-22743.12350071949,0.0,0.0,0.0,193.0,1.0,154.0,0.0,2.0,3.0,251.0,410.0,2.0,1019.0,1744252581.699917,0.0,2025-04-09 22:36:21.699,FORWARD,1
21.0,19886.659966309067,3757.3952981704833,-66605.20334305803,-65201.647901731485,-39003.99524021092,-36695.998811244826,-33528.622511461086,-22716.100241673023,0.0,0.0,0.0,193.0,1.0,154.0,0.0,2.0,3.0,250.0,410.0,2.0,1018.0,1744252581.699926,0.0,2025-04-09 22:36:21.699,FORWARD,1
22.0,19772.174331208986,3698.632561997481,-66668.86111126676,-65284.72933587186,-39053.01261580141,-36741.99870133385,-33508.93062459596,-22761.94366955086,0.0,0.0,0.0,193.0,1.0,154.0,0.0,2.0,3.0,250.0,410.0,2.0,1018.0,1744252581.6999345,0.0,2025-04-09 22:36:21.699,FORWARD,1
23.0,19861.02251541883,3695.6150764960144,-66685.82608530833,-65252.43106513394,-39124.359384102754,-36813.74780103538,-33335.101107967035,-22826.47315579333,0.0,0.0,0.0,193.0,1.0,154.0,0.0,2.0,3.0,250.0,410.0,2.0,1018.0,1744252581.6999428,0.0,2025-04-09 22:36:21.699,FORWARD,1
24.0,19962.655897457113,3751.0026992562653,-66647.96223020104,-65260.76826581577,-39051.20212450053,-36726.955977315425,-33680.52496677935,-22764.715285863316,0.0,0.0,0.0,193.0,1.0,154.0,0.0,2.0,3.0,249.0,410.0,2.0,1017.0,1744252581.6999516,0.0,2025-04-09 22:36:21.699,FORWARD,1
25.0,19905.770707818356,3768.593522142592,-66590.56295043981,-65188.75094518077,-38988.52783304785,-36674.2058604009,-33615.36963169213,-22701.72806998826,0.0,0.0,0.0,193.0,1.0,154.0,0.0,2.0,3.0,250.0,410.0,2.0,1018.0,1744252581.6999605,0.0,2025-04-09 22:36:21.699,FORWARD,1
26.0,19807.53479093728,3731.243757157774,-66641.63668652019,-65259.315402426175,-39021.027269485865,-36707.88993929505,-33457.25339141529,-22729.511288346206,0.0,0.0,0.0,193.0,1.0,154.0,0.0,2.0,3.0,250.0,410.0,2.0,1018.0,1744252581.699969,0.0,2025-04-09 22:36:21.699,FORWARD,1
27.0,19827.249029546863,3690.9659136493106,-66677.75710555997,-65254.80035004621,-39107.014430405434,-36795.24055662639,-33373.0767217966,-22806.69186195038,0.0,0.0,0.0,193.0,1.0,154.0,0.0,2.0,3.0,250.0,410.0,2.0,1018.0,1744252581.6999776,0.0,2025-04-09 22:36:21.699,FORWARD,1
28.0,19948.551946705815,3726.8404635000784,-66676.84068403729,-65277.5097224128,-39089.93769764158,-36764.95394288945,-33533.7634126858,-22792.65496643245,0.0,0.0,0.0,193.0,1.0,154.0,0.0,2.0,3.0,249.0,410.0,2.0,1017.0,1744252581.6999865,0.0,2025-04-09 22:36:21.699,FORWARD,1
29.0,19890.012727977362,3744.297175919673,-66606.00800585843,-65207.235837845314,-39001.55890006529,-36682.18543317144,-33708.24112990393,-22710.91463695939,0.0,0.0,0.0,193.0,1.0,155.0,0.0,2.0,3.0,251.0,411.0,2.0,1019.0,1744252581.6999953,0.0,2025-04-09 22:36:21.699,FORWARD,1
30.0,19806.35014848115,3722.4818733312936,-66653.70662852605,-65262.53405362774,-39034.84064755925,-36716.76358184381,-33432.889989959,-22741.894154774447,0.0,0.0,0.0,193.0,1.0,155.0,0.0,2.0,3.0,251.0,411.0,2.0,1019.0,1744252581.7000039,0.0,2025-04-09 22:36:21.700,FORWARD,1
31.0,19790.256892473328,3681.019387366699,-66675.3878206477,-65259.33775417063,-39096.039723877875,-36776.93447791749,-33449.13970817801,-22796.879446134502,0.0,0.0,0.0,193.0,1.0,155.0,0.0,2.0,3.0,251.0,411.0,2.0,1019.0,1744252581.7000172,0.0,2025-04-09 22:36:21.700,FORWARD,1
32.0,19957.00090610992,3738.1951496833744,-66671.23039617902,-65260.43298964894,-39099.21367159053,-36776.15216686155,-33425.2903968442,-22805.775440427715,0.0,0.0,0.0,193.0,1.0,155.0,0.0,2.0,3.0,252.0,411.0,2.0,1020.0,1744252581.700026,0.0,2025-04-09 22:36:21.700,FORWARD,1
33.0,19911.738623587924,3765.5089814077596,-66587.65722366062,-65202.25139883178,-38988.21490862547,-36668.75203475381,-33787.70158144255,-22706.488991557242,0.0,0.0,0.0,193.0,1.0,154.0,0.0,2.0,3.0,250.0,410.0,2.0,1018.0,1744252581.7000349,0.0,2025-04-09 22:36:21.700,FORWARD,1
34.0,19832.45698600495,3738.2622049167403,-66638.61920101872,-65250.59822208861,-39027.732792822455,-36718.216445233404,-33408.571291991626,-22749.98548626727,0.0,0.0,0.0,193.0,1.0,154.0,0.0,2.0,3.0,250.0,410.0,2.0,1018.0,1744252581.7000437,0.0,2025-04-09 22:36:21.700,FORWARD,1
35.0,19769.492121874348,3679.4547652548276,-66676.57246310383,-65280.41544919198,-39085.1767760726,-36772.106501115144,-33495.07254303367,-22800.165152569432,0.0,0.0,0.0,193.0,1.0,155.0,0.0,2.0,3.0,252.0,411.0,2.0,1020.0,1744252581.7000525,0.0,2025-04-09 22:36:21.700,FORWARD,1
36.0,19933.308056987295,3710.21076562533,-66695.3479284463,-65277.44266717943,-39132.31660512884,-36811.892606245594,-33329.781392786674,-22838.543097799196,0.0,0.0,0.0,193.0,1.0,155.0,0.0,2.0,3.0,251.0,411.0,2.0,1019.0,1744252581.700061,0.0,2025-04-09 22:36:21.700,FORWARD,1
37.0,19913.996149777908,3748.208731199352,-66610.70187219404,-65231.75570151278,-39005.98454546744,-36680.1067209371,-33833.969692465034,-22726.292637144645,0.0,0.0,0.0,193.0,1.0,155.0,0.0,2.0,3.0,251.0,411.0,2.0,1019.0,1744252581.70007,0.0,2025-04-09 22:36:21.700,FORWARD,1
38.0,19845.97979140041,3740.631489829003,-66637.00987541793,-65237.72361728235,-39026.4587433885,-36705.74417182734,-33426.85501895607,-22736.730901805273,0.0,0.0,0.0,193.0,1.0,154.0,0.0,2.0,3.0,250.0,410.0,2.0,1018.0,1744252581.7000787,0.0,2025-04-09 22:36:21.700,FORWARD,1
39.0,19754.15882517801,3681.1311460889756,-66678.80763754935,-65285.91397832799,-39074.04560733386,-36751.11821307161,-33519.88297937906,-22779.13216103699,0.0,0.0,0.0,193.0,1.0,154.0,0.0,2.0,3.0,249.0,410.0,2.0,1017.0,1744252581.7000875,0.0,2025-04-09 22:36:21.700,FORWARD,1
40.0,19919.137051002628,3718.570318051615,-66683.50150388498,-65251.78286454474,-39124.09116316929,-36801.49904507388,-33286.01667714318,-22819.924094667924,0.0,0.0,0.0,193.0,1.0,154.0,0.0,2.0,3.0,249.0,410.0,2.0,1017.0,1744252581.700096,0.0,2025-04-09 22:36:21.700,FORWARD,1
41.0,19934.738568632434,3758.4234784154273,-66611.4171280166,-65233.789710258214,-39003.16822566608,-36676.552793568706,-33804.59950025076,-22712.993349193734,0.0,0.0,0.0,193.0,1.0,154.0,0.0,2.0,3.0,251.0,410.0,2.0,1019.0,1744252581.7001047,0.0,2025-04-09 22:36:21.700,FORWARD,1
42.0,19863.50355905337,3747.69464107688,-66621.25189557695,-65220.06573916266,-39012.42184787057,-36695.39531414453,-33450.726682034336,-22722.78341326516,0.0,0.0,0.0,193.0,1.0,155.0,0.0,2.0,3.0,251.0,411.0,2.0,1019.0,1744252581.7001133,0.0,2025-04-09 22:36:21.700,FORWARD,1
43.0,19761.132569448062,3692.307018316629,-66667.40824787716,-65289.53496092975,-39049.59279889975,-36739.204733276936,-33501.35338322561,-22769.543262665662,0.0,0.0,0.0,193.0,1.0,155.0,0.0,2.0,3.0,252.0,411.0,2.0,1020.0,1744252581.700122,0.0,2025-04-09 22:36:21.700,FORWARD,1
44.0,19880.669698795045,3699.727797475791,-66685.15553297466,-65260.61180360458,-39121.65482302366,-36810.79737076728,-33271.71156069179,-22827.99307441629,0.0,0.0,0.0,193.0,1.0,155.0,0.0,2.0,3.0,252.0,411.0,2.0,1020.0,1744252581.7001307,0.0,2025-04-09 22:36:21.700,FORWARD,1
45.0,19941.24292626893,3747.2252544433186,-66635.06527365033,-65261.3047076827,-39029.140952723144,-36702.39141015904,-33731.59870285972,-22740.17307045139,0.0,0.0,0.0,193.0,1.0,154.0,0.0,2.0,3.0,250.0,410.0,2.0,1018.0,1744252581.7001395,0.0,2025-04-09 22:36:21.700,FORWARD,1
46.0,19879.12742842763,3754.668385346936,-66603.10227907923,-65204.41951804394,-38997.06619942978,-36682.02897096026,-33526.54379922674,-22708.567703791585,0.0,0.0,0.0,193.0,1.0,155.0,0.0,2.0,3.0,252.0,411.0,2.0,1020.0,1744252581.7001529,0.0,2025-04-09 22:36:21.700,FORWARD,1
47.0,19782.702002847436,3713.4741203158046,-66644.90004121065,-65267.33967868563,-39021.42960088606,-36708.1134567396,-33472.16200496698,-22733.825175026082,0.0,0.0,0.0,193.0,1.0,155.0,0.0,2.0,3.0,252.0,411.0,2.0,1020.0,1744252581.7001617,0.0,2025-04-09 22:36:21.700,FORWARD,1
48.0,19855.70280023847,3694.721006717802,-66669.41990487813,-65240.42817836144,-39101.33708731378,-36788.91501294554,-33311.7658867557,-22802.445030503874,0.0,0.0,0.0,193.0,1.0,155.0,0.0,2.0,3.0,252.0,411.0,2.0,1020.0,1744252581.7001705,0.0,2025-04-09 22:36:21.700,FORWARD,1
49.0,19955.95037412052,3738.306908405651,-66648.6774860236,-65255.51560586877,-39046.35179595373,-36726.08425928167,-33601.533901874296,-22745.22456469829,0.0,0.0,0.0,193.0,1.0,155.0,0.0,2.0,3.0,252.0,411.0,2.0,1020.0,1744252581.700179,0.0,2025-04-09 22:36:21.700,FORWARD,1
50.0,19897.098230969696,3755.048365002676,-66590.3170812508,-65183.386526511495,-38982.76108297838,-36670.808395243694,-33606.78656182129,-22685.88068316945,0.0,0.0,0.0,193.0,1.0,155.0,0.0,2.0,3.0,252.0,411.0,2.0,1020.0,1744252581.7001877,0.0,2025-04-09 22:36:21.700,FORWARD,1
51.0,19807.288921748273,3728.941527478877,-66641.14494814217,-65249.92766975495,-39017.048658972824,-36708.40402941752,-33426.56444627815,-22722.157564420413,0.0,0.0,0.0,193.0,1.0,154.0,0.0,2.0,3.0,251.0,410.0,2.0,1019.0,1744252581.7001965,0.0,2025-04-09 22:36:21.700,FORWARD,1
52.0,19825.68440743499,3703.0358556551764,-66667.40824787716,-65236.38251261503,-39089.49066275247,-36782.52241403132,-33365.65594263744,-22782.64138491647,0.0,0.0,0.0,193.0,1.0,154.0,0.0,2.0,3.0,249.0,410.0,2.0,1017.0,1744252581.7002048,0.0,2025-04-09 22:36:21.700,FORWARD,1
53.0,19968.221481826484,3742.7772572967124,-66654.3324773708,-65240.092902194614,-39066.4236624746,-36749.86651538211,-33483.13671149453,-22758.143872993456,0.0,0.0,0.0,193.0,1.0,154.0,0.0,2.0,3.0,250.0,410.0,2.0,1018.0,1744252581.7002137,0.0,2025-04-09 22:36:21.700,FORWARD,1
54.0,19909.838725309222,3758.8705133045332,-66574.13441826515,-65161.928851834404,-38963.2480100689,-36655.095118891615,-33708.77757177086,-22656.309325255075,0.0,0.0,0.0,193.0,1.0,154.0,0.0,2.0,3.0,249.0,410.0,2.0,1017.0,1744252581.700222,0.0,2025-04-09 22:36:21.700,FORWARD,1
55.0,19819.627084687603,3730.9755362243104,-66625.16345085662,-65212.10851813657,-38992.03705692734,-36694.233023432855,-33382.86678586803,-22686.171255847366,0.0,0.0,0.0,193.0,1.0,154.0,0.0,2.0,3.0,250.0,410.0,2.0,1018.0,1744252581.7002308,0.0,2025-04-09 22:36:21.700,FORWARD,1
56.0,19779.19277896795,3670.759936661713,-66672.72796305752,-65228.067663677655,-39072.123357310695,-36765.22216382291,-33415.1874083504,-22753.986448524767,0.0,0.0,0.0,193.0,1.0,154.0,0.0,2.0,3.0,249.0,410.0,2.0,1017.0,1744252581.7002394,0.0,2025-04-09 22:36:21.700,FORWARD,1
57.0,19945.668571671078,3714.2564313717407,-66679.81346604985,-65223.01616943076,-39088.68599995208,-36771.055969125744,-33356.51407915522,-22761.228413728288,0.0,0.0,0.0,193.0,1.0,154.0,0.0,2.0,3.0,252.0,410.0,2.0,1020.0,1744252581.700248,0.0,2025-04-09 22:36:21.700,FORWARD,1
58.0,19905.41307990707,3747.337013165595,-66590.45119171753,-65153.412837196935,-38964.63381822513,-36644.254522830786,-33765.23807826496,-22641.62422914794,0.0,0.0,0.0,193.0,1.0,154.0,0.0,2.0,3.0,252.0,410.0,2.0,1020.0,1744252581.7002568,0.0,2025-04-09 22:36:21.700,FORWARD,1
59.0,19810.48522120538,3713.1388441489753,-66651.69497152508,-65200.12798310852,-39015.439333372036,-36702.52552062577,-33375.781282875694,-22694.083773384547,0.0,0.0,0.0,193.0,1.0,154.0,0.0,2.0,3.0,251.0,410.0,2.0,1019.0,1744252581.7002654,0.0,2025-04-09 22:36:21.700,FORWARD,1
60.0,19736.90327845851,3655.538398687649,-66692.46455341156,-65232.20273640189,-39075.34200851226,-36754.493326484364,-33487.94233655243,-22751.103073490034,0.0,0.0,0.0,193.0,1.0,154.0,0.0,2.0,3.0,253.0,410.0,2.0,1021.0,1744252581.7002745,0.0,2025-04-09 22:36:21.700,FORWARD,1
61.0,19908.877600297645,3698.2302305972853,-66700.13120175972,-65207.95109366788,-39116.31275609884,-36787.17157687802,-33292.29751733512,-22776.51700693572,0.0,0.0,0.0,193.0,1.0,154.0,0.0,2.0,3.0,252.0,410.0,2.0,1020.0,1744252582.1840692,0.0,2025-04-09 22:36:22.184,FORWARD,1
62.0,19897.478210625435,3738.0610392166427,-66621.78833744387,-65175.67517467442,-38994.182824395044,-36664.77342424076,-33802.789008949876,-22674.39188651942,0.0,0.0,0.0,193.0,1.0,155.0,0.0,2.0,3.0,251.0,411.0,2.0,1019.0,1744252582.1841087,0.0,2025-04-09 22:36:22.184,FORWARD,1
63.0,19837.84375641868,3735.2447194152737,-66637.92629694061,-65170.62368042752,-39006.565690823285,-36688.510976852296,-33415.634443239505,-22695.335471074042,0.0,0.0,0.0,193.0,1.0,155.0,0.0,2.0,3.0,252.0,411.0,2.0,1020.0,1744252582.1841285,0.0,2025-04-09 22:36:22.184,FORWARD,1
64.0,19744.167595406485,3675.3196925305956,-66678.36060266025,-65218.992855428805,-39044.89893256413,-36724.49728542534,-33499.49818843582,-22725.398567366432,0.0,0.0,0.0,193.0,1.0,154.0,0.0,2.0,3.0,251.0,410.0,2.0,1019.0,1744252582.1841488,0.0,2025-04-09 22:36:22.184,FORWARD,1
65.0,19888.381050632128,3694.721006717802,-66697.96308254756,-65192.12605859352,-39113.11645664173,-36789.384399579096,-33249.42687146984,-22778.238091258776,0.0,0.0,0.0,193.0,1.0,154.0,0.0,2.0,3.0,251.0,410.0,2.0,1019.0,1744252582.184166,0.0,2025-04-09 22:36:22.184,FORWARD,1
66.0,19914.309074200282,3733.6353938144916,-66633.99238991647,-65179.631433443006,-39003.39174311063,-36670.11549116558,-33764.43341546457,-22679.957470888792,0.0,0.0,0.0,193.0,1.0,154.0,0.0,2.0,3.0,250.0,410.0,2.0,1018.0,1744252582.1841834,0.0,2025-04-09 22:36:22.184,FORWARD,1
67.0,19849.06433213524,3732.2272339138076,-66629.92437242561,-65146.841424327074,-39000.64247854263,-36676.73160752435,-33446.05516744318,-22677.43172376534,0.0,0.0,0.0,193.0,1.0,154.0,0.0,2.0,3.0,250.0,410.0,2.0,1018.0,1744252582.184201,0.0,2025-04-09 22:36:22.184,FORWARD,1
68.0,19737.171499391974,3671.6763581843807,-66691.5928353778,-65226.72655901034,-39049.63750238866,-36723.15618075802,-33480.7003713489,-22727.186706922854,0.0,0.0,0.0,193.0,1.0,153.0,0.0,2.0,3.0,250.0,409.0,2.0,1018.0,1744252582.1842184,0.0,2025-04-09 22:36:22.184,FORWARD,1
69.0,19847.723227467923,3676.3925762644503,-66709.27306524194,-65194.651805716974,-39121.74423000148,-36797.96746944993,-33279.244098573225,-22790.28568152019,0.0,0.0,0.0,193.0,1.0,154.0,0.0,2.0,3.0,249.0,410.0,2.0,1017.0,1744252582.1842356,0.0,2025-04-09 22:36:22.184,FORWARD,1
70.0,19928.636542396136,3735.2447194152737,-66658.9816402175,-65195.90350340647,-39030.750278323925,-36699.351572913125,-33697.579347798746,-22715.183820150356,0.0,0.0,0.0,193.0,1.0,154.0,0.0,2.0,3.0,250.0,410.0,2.0,1018.0,1744252582.1842449,0.0,2025-04-09 22:36:22.184,FORWARD,1
71.0,19865.35875384316,3748.1863794548967,-66622.86122117772,-65139.68886610137,-38996.39564709612,-36669.80256674321,-33547.8673634371,-22676.82822666505,0.0,0.0,0.0,193.0,1.0,154.0,0.0,2.0,3.0,250.0,410.0,2.0,1018.0,1744252582.184254,0.0,2025-04-09 22:36:22.184,FORWARD,1
72.0,19758.651525813526,3701.0912538875646,-66682.04864049538,-65222.613838030564,-39039.847438317236,-36714.997794031835,-33469.85977528808,-22724.035110954657,0.0,0.0,0.0,193.0,1.0,154.0,0.0,2.0,3.0,252.0,410.0,2.0,1020.0,1744252582.1842628,0.0,2025-04-09 22:36:22.184,FORWARD,1
73.0,19822.756328911346,3682.7851751786684,-66692.66571911165,-65190.29321554819,-39099.23602333498,-36779.79550120777,-33335.21286668931,-22779.087457548078,0.0,0.0,0.0,193.0,1.0,155.0,0.0,2.0,3.0,252.0,411.0,2.0,1020.0,1744252582.1842716,0.0,2025-04-09 22:36:22.184,FORWARD,1
74.0,19947.032028082853,3738.0610392166427,-66666.96121298806,-65200.70912846436,-39048.47521167698,-36721.88213132407,-33572.90131722705,-22739.524869862184,0.0,0.0,0.0,193.0,1.0,155.0,0.0,2.0,3.0,252.0,411.0,2.0,1020.0,1744252582.1842809,0.0,2025-04-09 22:36:22.184,FORWARD,1
75.0,19889.073954710242,3755.607158614059,-66596.10618306472,-65123.640313582466,-38966.55606824828,-36651.09415663411,-33636.89436160259,-22661.696095668805,0.0,0.0,0.0,193.0,1.0,154.0,0.0,2.0,3.0,252.0,410.0,2.0,1020.0,1744252582.18429,0.0,2025-04-09 22:36:22.184,FORWARD,1
76.0,19795.8224768427,3722.8618529870337,-66650.0856459243,-65191.231988815314,-39005.29164138933,-36690.187357686445,-33418.38370780751,-22700.699889743315,0.0,0.0,0.0,193.0,1.0,155.0,0.0,2.0,3.0,252.0,411.0,2.0,1020.0,1744252582.1843522,0.0,2025-04-09 22:36:22.184,FORWARD,1
77.0,19793.83317158618,3682.1816780783747,-66683.52385562944,-65192.70720394936,-39080.102930081244,-36768.485518513386,-33393.70738192885,-22774.997088312757,0.0,0.0,0.0,193.0,1.0,155.0,0.0,2.0,3.0,251.0,411.0,2.0,1019.0,1744252582.1843612,0.0,2025-04-09 22:36:22.184,FORWARD,1
78.0,19938.56071693429,3719.9784779522993,-66693.40332667867,-65215.416576315954,-39084.997962116955,-36767.4796900129,-33447.95506572188,-22783.60250992805,0.0,0.0,0.0,193.0,1.0,155.0,0.0,2.0,3.0,252.0,411.0,2.0,1020.0,1744252582.1843703,0.0,2025-04-09 22:36:22.184,FORWARD,1
79.0,19891.8455710227,3753.1261149795196,-66603.75047966844,-65141.61111612453,-38975.13913811912,-36656.346816581114,-33743.355720443215,-22674.928328386348,0.0,0.0,0.0,193.0,1.0,154.0,0.0,2.0,3.0,252.0,410.0,2.0,1020.0,1744252582.184379,0.0,2025-04-09 22:36:22.184,FORWARD,1
80.0,19811.468697961416,3735.825864771112,-66652.54433781438,-65192.59544522708,-39009.02438271337,-36698.569261857185,-33406.60433847956,-22719.609465552505,0.0,0.0,0.0,193.0,1.0,154.0,0.0,2.0,3.0,252.0,410.0,2.0,1020.0,1744252582.184388,0.0,2025-04-09 22:36:22.184,FORWARD,1
81.0,19762.16074969301,3676.7055006868245,-66694.67737611262,-65215.1930588714,-39079.320619025304,-36766.451509767954,-33461.209650183875,-22784.51893145072,0.0,0.0,0.0,193.0,1.0,155.0,0.0,2.0,3.0,251.0,411.0,2.0,1019.0,1744252582.1843967,0.0,2025-04-09 22:36:22.184,FORWARD,1
82.0,19927.496603428914,3716.0892744170756,-66709.0942512863,-65217.62939901703,-39117.095067154776,-36793.76534149234,-33358.21281173382,-22815.632559732505,0.0,0.0,0.0,193.0,1.0,155.0,0.0,2.0,3.0,252.0,411.0,2.0,1020.0,1744252582.1844056,0.0,2025-04-09 22:36:22.184,FORWARD,1
83.0,19903.51318162837,3766.1571819969636,-66608.53375298188,-65149.925965061906,-38983.72220798996,-36655.13982238052,-33815.440096311584,-22692.340337317033,0.0,0.0,0.0,193.0,1.0,155.0,0.0,2.0,3.0,253.0,411.0,2.0,1021.0,1744252582.1844146,0.0,2025-04-09 22:36:22.184,FORWARD,1
84.0,19845.555108255758,3769.0629087761536,-66630.43846254807,-65158.55373842165,-38999.703705275504,-36677.178642413455,-33405.03971636769,-22703.627968266963,0.0,0.0,0.0,193.0,1.0,155.0,0.0,2.0,3.0,252.0,411.0,2.0,1020.0,1744252582.1844234,0.0,2025-04-09 22:36:22.184,FORWARD,1
85.0,19749.084979186653,3680.34883503304,-66691.05639351087,-65220.08809090711,-39070.71519741001,-36749.50888747083,-33498.98409831335,-22769.69972487685,0.0,0.0,0.0,193.0,1.0,155.0,0.0,2.0,3.0,251.0,411.0,2.0,1019.0,1744252582.184432,0.0,2025-04-09 22:36:22.184,FORWARD,1
86.0,19907.871771797156,3703.3264283330955,-66710.5918181648,-65207.21348610085,-39127.82390449332,-36803.13072241911,-33295.11383713649,-22816.75014695527,0.0,0.0,0.0,193.0,1.0,154.0,0.0,2.0,3.0,251.0,410.0,2.0,1019.0,1744252582.184441,0.0,2025-04-09 22:36:22.184,FORWARD,1
87.0,19903.624940350644,3740.2291584288073,-66633.74652072747,-65179.45261948736,-39005.11282743369,-36674.11645342308,-33827.398279595174,-22702.085697899547,0.0,0.0,0.0,193.0,1.0,154.0,0.0,2.0,3.0,250.0,410.0,2.0,1018.0,1744252582.1844504,0.0,2025-04-09 22:36:22.184,FORWARD,1
88.0,19842.515271009837,3745.1241904645194,-66642.15077664265,-65166.51095944774,-39007.191539668034,-36692.60134608762,-33444.53524882022,-22714.334453861054,0.0,0.0,0.0,193.0,1.0,154.0,0.0,2.0,3.0,250.0,410.0,2.0,1018.0,1744252582.184459,0.0,2025-04-09 22:36:22.184,FORWARD,1
89.0,19741.48538607185,3686.7190822028024,-66687.97185277604,-65225.0948816651,-39047.0670517763,-36733.05800355173,-33521.06762183519,-22754.522890391698,0.0,0.0,0.0,193.0,1.0,154.0,0.0,2.0,3.0,250.0,410.0,2.0,1018.0,1744252582.1844676,0.0,2025-04-09 22:36:22.184,FORWARD,1
90.0,19885.31886164175,3704.7122364893244,-66700.19825699308,-65190.89671264848,-39109.07079089532,-36793.027733925315,-33277.992400883726,-22799.248731046766,0.0,0.0,0.0,193.0,1.0,154.0,0.0,2.0,3.0,250.0,410.0,2.0,1018.0,1744252582.1844766,0.0,2025-04-09 22:36:22.184,FORWARD,1
91.0,19920.969894047965,3743.179588696908,-66647.1799191451,-65192.19311382689,-39005.49280708943,-36685.560546584195,-33766.24390676545,-22708.92533170287,0.0,0.0,0.0,193.0,1.0,154.0,0.0,2.0,3.0,249.0,410.0,2.0,1017.0,1744252582.184508,0.0,2025-04-09 22:36:22.184,FORWARD,1
92.0,19857.893271195087,3746.3758881540166,-66629.6785032366,-65151.244717984766,-38988.90781270359,-36678.54209882523,-33477.41466491397,-22681.52209300066,0.0,0.0,0.0,193.0,1.0,154.0,0.0,2.0,3.0,249.0,410.0,2.0,1017.0,1744252582.184517,0.0,2025-04-09 22:36:22.184,FORWARD,1
93.0,19752.8624239996,3697.626733496992,-66681.37808816173,-65227.35240785508,-39030.8620370462,-36716.1153812546,-33479.29221144822,-22726.292637144645,0.0,0.0,0.0,193.0,1.0,154.0,0.0,2.0,3.0,251.0,410.0,2.0,1019.0,1744252582.1845257,0.0,2025-04-09 22:36:22.184,FORWARD,1
94.0,19846.292715822783,3691.9717421497994,-66697.85132382528,-65194.9870818838,-39105.87449143821,-36785.539899532785,-33286.91074692139,-22789.637480930982,0.0,0.0,0.0,193.0,1.0,155.0,0.0,2.0,3.0,253.0,411.0,2.0,1021.0,1744252582.1845345,0.0,2025-04-09 22:36:22.184,FORWARD,1
95.0,19934.22447850996,3745.1241904645194,-66657.64053555019,-65204.84420118859,-39026.4587433885,-36698.65866883501,-33666.130443350135,-22723.69983478783,0.0,0.0,0.0,193.0,1.0,155.0,0.0,2.0,3.0,252.0,411.0,2.0,1020.0,1744252582.1845434,0.0,2025-04-09 22:36:22.184,FORWARD,1
96.0,19874.7911900033,3767.7665075977457,-66603.99634885744,-65133.56448812062,-38966.73488220393,-36651.09415663411,-33564.85468922314,-22667.73106667174,0.0,0.0,0.0,193.0,1.0,155.0,0.0,2.0,3.0,252.0,411.0,2.0,1020.0,1744252582.1845522,0.0,2025-04-09 22:36:22.184,FORWARD,1
97.0,19766.92167126199,3718.9055942184445,-66672.07976246832,-65219.17166938444,-39018.07683921776,-36700.469160135886,-33438.18735339491,-22722.761061520705,0.0,0.0,0.0,193.0,1.0,155.0,0.0,2.0,3.0,251.0,411.0,2.0,1019.0,1744252582.1845608,0.0,2025-04-09 22:36:22.184,FORWARD,1
98.0,19806.17133452551,3685.310922302118,-66699.52770465943,-65204.75479421077,-39099.66070647963,-36779.16965236302,-33349.11565174051,-22793.0796495771,0.0,0.0,0.0,193.0,1.0,154.0,0.0,2.0,3.0,251.0,410.0,2.0,1019.0,1744252582.1845696,0.0,2025-04-09 22:36:22.184,FORWARD,1
99.0,19940.773539635367,3739.7821235397014,-66677.42182939313,-65210.18626811341,-39058.93582808207,-36724.1173057696,-33535.529200497775,-22750.901907789936,0.0,0.0,0.0,193.0,1.0,154.0,0.0,2.0,3.0,249.0,410.0,2.0,1017.0,1744252582.1845787,0.0,2025-04-09 22:36:22.184,FORWARD,1
100.0,19875.26057663686,3759.7422313382904,-66612.8252879173,-65141.96874403582,-38980.52590853285,-36655.095118891615,-33657.167393823554,-22679.73395344424,0.0,0.0,0.0,193.0,1.0,154.0,0.0,2.0,3.0,249.0,410.0,2.0,1017.0,1744252582.1845875,0.0,2025-04-09 22:36:22.184,FORWARD,1
101.0,19787.082944760674,3727.4439606003716,-66661.79796001887,-65204.41951804394,-39015.640499072135,-36695.440017633446,-33407.78898093569,-22727.566686578597,0.0,0.0,0.0,193.0,1.0,154.0,0.0,2.0,3.0,250.0,410.0,2.0,1018.0,1744252582.1845963,0.0,2025-04-09 22:36:22.184,FORWARD,1
102.0,19775.236520199363,3679.6112274660145,-66689.84939931029,-65206.56528551165,-39086.69669469556,-36766.317399301224,-33415.16505660595,-22805.12723983851,0.0,0.0,0.0,193.0,1.0,154.0,0.0,2.0,3.0,249.0,410.0,2.0,1017.0,1744252582.184605,0.0,2025-04-09 22:36:22.184,FORWARD,1
103.0,19925.7531673614,3718.860890729534,-66696.68903311361,-65220.46807056285,-39098.140787856675,-36767.32322780171,-33420.19419910839,-22813.911475409448,0.0,0.0,0.0,193.0,1.0,154.0,0.0,2.0,3.0,250.0,410.0,2.0,1018.0,1744252582.184614,0.0,2025-04-09 22:36:22.184,FORWARD,1
104.0,19885.676489553036,3754.109591735553,-66603.68342443508,-65148.54015690568,-38982.04582715581,-36646.33323506513,-33764.29930499784,-22694.709622229293,0.0,0.0,0.0,193.0,1.0,155.0,0.0,2.0,3.0,251.0,411.0,2.0,1019.0,1744252582.1846228,0.0,2025-04-09 22:36:22.184,FORWARD,1
105.0,19804.316139735718,3728.0251059562097,-66652.65609653665,-65196.48464876231,-39019.26148167389,-36689.87443326407,-33392.768608661725,-22727.298465645134,0.0,0.0,0.0,193.0,1.0,155.0,0.0,2.0,3.0,252.0,411.0,2.0,1020.0,1744252582.1846316,0.0,2025-04-09 22:36:22.184,FORWARD,1
106.0,19743.47469132837,3666.691919170847,-66694.31974820135,-65228.73821601132,-39079.83470914778,-36753.46514623942,-33466.037626986224,-22789.2798530197,0.0,0.0,0.0,193.0,1.0,155.0,0.0,2.0,3.0,251.0,411.0,2.0,1019.0,1744252582.184646,0.0,2025-04-09 22:36:22.184,FORWARD,1
107.0,19922.69097837102,3721.5878035530814,-66697.53839940291,-65213.20375361488,-39107.103837383256,-36778.65556224055,-33315.96801471329,-22814.80554518766,0.0,0.0,0.0,193.0,1.0,155.0,0.0,2.0,3.0,252.0,411.0,2.0,1020.0,1744252582.1846547,0.0,2025-04-09 22:36:22.184,FORWARD,1
108.0,19883.6424808076,3740.1397514509863,-66629.25382009195,-65181.19605555488,-38999.18961515303,-36664.3040376072,-33799.145674603664,-22713.999177694222,0.0,0.0,0.0,193.0,1.0,155.0,0.0,2.0,3.0,252.0,411.0,2.0,1020.0,1744252582.1846635,0.0,2025-04-09 22:36:22.184,FORWARD,1
109.0,19823.046901589263,3740.497379362271,-66647.24697437847,-65184.28059628971,-39013.00299322641,-36683.79475877223,-33405.352640790064,-22729.01954996819,0.0,0.0,0.0,193.0,1.0,155.0,0.0,2.0,3.0,252.0,411.0,2.0,1020.0,1744252582.1846724,0.0,2025-04-09 22:36:22.184,FORWARD,1
110.0,19740.81483373819,3684.1039281015314,-66686.29547194189,-65229.83345148963,-39061.8192031168,-36729.88405583907,-33501.19692101442,-22773.2760039897,0.0,0.0,0.0,193.0,1.0,155.0,0.0,2.0,3.0,252.0,411.0,2.0,1020.0,1744252582.1846812,0.0,2025-04-09 22:36:22.184,FORWARD,1
111.0,19909.12346948665,3718.525614562704,-66690.11762024375,-65198.18338134091,-39110.63541300719,-36777.87325118462,-33261.49681347571,-22814.671434720927,0.0,0.0,0.0,193.0,1.0,155.0,0.0,2.0,3.0,251.0,411.0,2.0,1019.0,1744252582.18469,0.0,2025-04-09 22:36:22.184,FORWARD,1
112.0,19908.721138086457,3746.3535364095615,-66627.51038402443,-65190.136753337,-39002.34121112123,-36666.38274984154,-33787.03102910889,-22723.275151643178,0.0,0.0,0.0,193.0,1.0,155.0,0.0,2.0,3.0,251.0,411.0,2.0,1019.0,1744252582.1846988,0.0,2025-04-09 22:36:22.184,FORWARD,1
113.0,19851.41126530305,3751.025051000721,-66625.72224446801,-65165.19220652488,-38997.602641296704,-36676.150462168516,-33429.403117823975,-22721.44230859784,0.0,0.0,0.0,193.0,1.0,154.0,0.0,2.0,3.0,251.0,410.0,2.0,1019.0,1744252582.184708,0.0,2025-04-09 22:36:22.184,FORWARD,1
114.0,19744.34640936213,3691.0106171382213,-66678.5841201048,-65234.504966080785,-39043.758993596915,-36721.859779579616,-33485.01425802878,-22765.78816959717,0.0,0.0,0.0,193.0,1.0,154.0,0.0,2.0,3.0,249.0,410.0,2.0,1017.0,1744252582.1847172,0.0,2025-04-09 22:36:22.184,FORWARD,1
115.0,19866.074009665732,3700.174832364897,-66700.22060873755,-65206.94526516739,-39119.86668346723,-36794.279431614814,-33258.38992099642,-22827.926019182923,0.0,0.0,0.0,193.0,1.0,154.0,0.0,2.0,3.0,249.0,410.0,2.0,1017.0,1744252582.184726,0.0,2025-04-09 22:36:22.184,FORWARD,1
116.0,19917.32655970175,3746.912330020944,-66646.62112553373,-65207.10172737858,-39020.64728983013,-36687.57220358517,-33737.58897037375,-22745.22456469829,0.0,0.0,0.0,193.0,1.0,154.0,0.0,2.0,3.0,250.0,410.0,2.0,1018.0,1744252582.184735,0.0,2025-04-09 22:36:22.184,FORWARD,1
117.0,19855.68044849401,3749.952167266866,-66617.85443041974,-65153.50224417475,-38990.58419353774,-36668.64027603153,-33496.7042203789,-22715.25087538372,0.0,0.0,0.0,193.0,1.0,154.0,0.0,2.0,3.0,250.0,410.0,2.0,1018.0,1744252582.1847436,0.0,2025-04-09 22:36:22.184,FORWARD,1
118.0,19745.48634832935,3696.2856288296734,-66678.71823057154,-65232.15803291298,-39039.86979006169,-36708.80636081772,-33461.00848448378,-22755.841643314558,0.0,0.0,0.0,193.0,1.0,154.0,0.0,2.0,3.0,249.0,410.0,2.0,1017.0,1744252582.1847525,0.0,2025-04-09 22:36:22.184,FORWARD,1
119.0,19829.55125922576,3689.4459950263495,-66696.51021915796,-65199.70329996387,-39113.31762234183,-36782.16478612003,-33291.269337090176,-22814.51497250974,0.0,0.0,0.0,193.0,1.0,154.0,0.0,2.0,3.0,250.0,410.0,2.0,1018.0,1744252582.1847613,0.0,2025-04-09 22:36:22.184,FORWARD,1
120.0,19930.290571485828,3741.302042162662,-66665.91068099866,-65210.81211695816,-39047.312920965305,-36707.4652561504,-33609.289957200286,-22759.127349749488,0.0,0.0,0.0,193.0,1.0,155.0,0.0,2.0,3.0,250.0,411.0,2.0,1018.0,1744252582.1847696,0.0,2025-04-09 22:36:22.184,FORWARD,1
121.0,19866.45398932147,3752.701431834869,-66616.13334609669,-65145.52267140421,-38992.171167394066,-36660.21366837188,-33574.30947712773,-22709.327663103064,0.0,0.0,0.0,193.0,1.0,155.0,0.0,2.0,3.0,252.0,411.0,2.0,1020.0,1744252582.1847837,0.0,2025-04-09 22:36:22.184,FORWARD,1
122.0,19764.10535146062,3707.1262248904977,-66680.26050093895,-65227.82179448865,-39039.82508657278,-36707.75582882832,-33423.16698112094,-22762.1224835065,0.0,0.0,0.0,193.0,1.0,155.0,0.0,2.0,3.0,252.0,411.0,2.0,1020.0,1744252582.1847925,0.0,2025-04-09 22:36:22.184,FORWARD,1
123.0,19786.278281960283,3671.0952128285426,-66705.76384136247,-65216.042425160704,-39112.69177349708,-36780.19783260797,-33358.92806755639,-22825.310865081654,0.0,0.0,0.0,193.0,1.0,155.0,0.0,2.0,3.0,251.0,411.0,2.0,1019.0,1744252582.184801,0.0,2025-04-09 22:36:22.184,FORWARD,1
124.0,19932.905725587098,3731.981364724799,-66682.3392131733,-65219.35048334009,-39074.13501431167,-36733.393279718555,-33501.15221752551,-22788.475190219306,0.0,0.0,0.0,193.0,1.0,155.0,0.0,2.0,3.0,249.0,411.0,2.0,1017.0,1744252582.18481,0.0,2025-04-09 22:36:22.184,FORWARD,1
125.0,19878.725097027433,3758.26701620424,-66604.97982561348,-65144.31567720362,-38978.737768976425,-36644.14276410851,-33686.202309871,-22699.805819965106,0.0,0.0,0.0,193.0,1.0,155.0,0.0,2.0,3.0,251.0,411.0,2.0,1019.0,1744252582.1848187,0.0,2025-04-09 22:36:22.184,FORWARD,1
126.0,19785.63008137108,3724.2923646321733,-66666.40241937667,-65212.823773959135,-39024.22356894297,-36694.68005832196,-33393.57327146212,-22750.83485255657,0.0,0.0,0.0,193.0,1.0,155.0,0.0,2.0,3.0,251.0,411.0,2.0,1019.0,1744252582.1848276,0.0,2025-04-09 22:36:22.184,FORWARD,1
127.0,19752.616554810593,3664.859076125512,-66705.96500706256,-65229.14054741151,-39095.63739247768,-36767.300876057256,-33414.27098682773,-22814.17969634291,0.0,0.0,0.0,193.0,1.0,155.0,0.0,2.0,3.0,251.0,411.0,2.0,1019.0,1744252582.1848364,0.0,2025-04-09 22:36:22.184,FORWARD,1
128.0,19933.576277920758,3729.7461902792684,-66687.45776265356,-65209.51571577975,-39084.59563071676,-36749.5759427042,-33370.528622928694,-22797.304129279153,0.0,0.0,0.0,193.0,1.0,155.0,0.0,2.0,3.0,251.0,411.0,2.0,1019.0,1744252582.184845,0.0,2025-04-09 22:36:22.184,FORWARD,1
129.0,19884.849475008188,3753.1484667239747,-66611.30536929434,-65155.04451454217,-38980.57061202176,-36646.22147634286,-33744.897990810634,-22699.604654265007,0.0,0.0,0.0,193.0,1.0,155.0,0.0,2.0,3.0,253.0,411.0,2.0,1021.0,1744252582.1848543,0.0,2025-04-09 22:36:22.184,FORWARD,1
130.0,19799.085831533175,3731.0425914576763,-66666.44712286557,-65204.777145955224,-39027.44222014454,-36697.7645990568,-33369.99218106177,-22746.07393098759,0.0,0.0,0.0,193.0,1.0,155.0,0.0,2.0,3.0,250.0,411.0,2.0,1018.0,1744252582.1848629,0.0,2025-04-09 22:36:22.184,FORWARD,1
131.0,19738.110272659098,3678.828916410079,-66698.32071045885,-65229.34171311161,-39078.58301145828,-36742.46808796741,-33461.38846413952,-22782.41786747192,0.0,0.0,0.0,193.0,1.0,155.0,0.0,2.0,3.0,251.0,411.0,2.0,1019.0,1744252582.1848717,0.0,2025-04-09 22:36:22.184,FORWARD,1
132.0,19913.32559744425,3719.0397046851763,-66702.85811458327,-65207.90639017897,-39111.97651767451,-36769.670160969516,-33276.91951714987,-22803.115582837534,0.0,0.0,0.0,193.0,1.0,154.0,0.0,2.0,3.0,249.0,410.0,2.0,1017.0,1744252582.1848803,0.0,2025-04-09 22:36:22.184,FORWARD,1
133.0,19896.494733869404,3750.6450713449804,-66619.977846143,-65168.90259610446,-38987.09732140271,-36644.43333678643,-33774.73756965847,-22699.671709498372,0.0,0.0,0.0,193.0,1.0,155.0,0.0,2.0,3.0,251.0,411.0,2.0,1019.0,1744252582.1848888,0.0,2025-04-09 22:36:22.184,FORWARD,1
134.0,19824.946799867965,3734.4847601037936,-66648.25280287895,-65181.91131137745,-39015.34992639422,-36683.817110516684,-33372.20500376284,-22734.60748608202,0.0,0.0,0.0,193.0,1.0,154.0,0.0,2.0,3.0,251.0,410.0,2.0,1019.0,1744252582.1848977,0.0,2025-04-09 22:36:22.184,FORWARD,1
135.0,19729.32603708816,3674.984416363766,-66695.90672205767,-65239.399998116496,-39064.47906070698,-36731.11340178411,-33475.80533931319,-22775.622937157506,0.0,0.0,0.0,193.0,1.0,154.0,0.0,2.0,3.0,250.0,410.0,2.0,1018.0,1744252582.1849065,0.0,2025-04-09 22:36:22.184,FORWARD,1
136.0,19887.8446087652,3708.8473092135564,-66700.4441261821,-65205.492401777796,-39114.859892709246,-36780.309591330246,-33243.28014174463,-22820.929923168413,0.0,0.0,0.0,193.0,1.0,154.0,0.0,2.0,3.0,249.0,410.0,2.0,1017.0,1744252582.18492,0.0,2025-04-09 22:36:22.184,FORWARD,1
137.0,19901.45682113848,3746.6888125763912,-66635.22173586152,-65195.41176502845,-39002.54237682133,-36661.040682916726,-33765.41689222061,-22726.940837733848,0.0,0.0,0.0,193.0,1.0,154.0,0.0,2.0,3.0,249.0,410.0,2.0,1017.0,1744252582.184929,0.0,2025-04-09 22:36:22.184,FORWARD,1
138.0,19826.332608024193,3733.1883589253857,-66646.66582902263,-65180.97253811033,-39013.830007771256,-36682.431302360455,-33425.13393463301,-22729.176012179378,0.0,0.0,0.0,193.0,1.0,155.0,0.0,2.0,3.0,252.0,411.0,2.0,1020.0,1744252582.1849377,0.0,2025-04-09 22:36:22.184,FORWARD,1
139.0,19728.208449865397,3680.8405734110565,-66693.40332667867,-65247.49132960932,-39050.15159251113,-36720.22810223438,-33474.79951081271,-22774.125370279,0.0,0.0,0.0,193.0,1.0,154.0,0.0,2.0,3.0,250.0,410.0,2.0,1018.0,1744252582.1849463,0.0,2025-04-09 22:36:22.184,FORWARD,1
140.0,19857.69210549499,3700.7336259762797,-66694.5432656459,-65197.75869819626,-39106.20976760504,-36772.397073793065,-33248.57750518054,-22807.09419335058,0.0,0.0,0.0,193.0,1.0,155.0,0.0,2.0,3.0,251.0,411.0,2.0,1019.0,1744252582.1849551,0.0,2025-04-09 22:36:22.184,FORWARD,1
141.0,19920.388748692127,3745.54887360917,-66650.7785500024,-65207.3923000565,-39021.20608344151,-36678.653857547506,-33677.55218476679,-22727.857259256514,0.0,0.0,0.0,193.0,1.0,155.0,0.0,2.0,3.0,252.0,411.0,2.0,1020.0,1744252582.1849637,0.0,2025-04-09 22:36:22.184,FORWARD,1
142.0,19854.294640337783,3751.1591614674526,-66624.40349154515,-65160.2301192558,-38996.842681985225,-36666.38274984154,-33494.8043221002,-22710.333491603553,0.0,0.0,0.0,193.0,1.0,154.0,0.0,2.0,3.0,250.0,410.0,2.0,1018.0,1744252582.1849723,0.0,2025-04-09 22:36:22.184,FORWARD,1
143.0,19746.849804741123,3702.7005794883466,-66685.17788471913,-65243.937402240925,-39043.98251104147,-36714.66251786501,-33440.46723132935,-22761.541338150662,0.0,0.0,0.0,193.0,1.0,154.0,0.0,1.0,3.0,251.0,410.0,1.0,1019.0,1744252582.184981,0.0,2025-04-09 22:36:22.184,FORWARD,1
144.0,19817.05663407524,3681.7793466781795,-66699.08066977032,-65213.6954919929,-39111.50713104095,-36784.198794865464,-33300.38884882794,-22820.862867935048,0.0,0.0,0.0,193.0,1.0,154.0,0.0,2.0,3.0,251.0,410.0,2.0,1019.0,1744252582.1849897,0.0,2025-04-09 22:36:22.184,FORWARD,1
145.0,19923.786213849333,3725.8346349995895,-66678.1370852157,-65232.336846868624,-39061.46157520552,-36723.737326113864,-33569.9732387034,-22779.84741685956,0.0,0.0,0.0,193.0,1.0,154.0,0.0,2.0,3.0,249.0,410.0,2.0,1017.0,1744252582.1849985,0.0,2025-04-09 22:36:22.184,FORWARD,1
146.0,19860.866053207643,3743.9618997528437,-66618.39087228666,-65165.929814091905,-38995.97096395147,-36662.49354630632,-33602.360916419144,-22718.06719518509,0.0,0.0,0.0,193.0,1.0,155.0,0.0,2.0,3.0,249.0,411.0,2.0,1017.0,1744252582.185007,0.0,2025-04-09 22:36:22.185,FORWARD,1
147.0,19767.614575340103,3710.702504003347,-66670.15751244516,-65235.95782947038,-39031.242016701945,-36700.22329094688,-33408.2360158248,-22756.243974714755,0.0,0.0,0.0,193.0,1.0,154.0,0.0,2.0,3.0,249.0,410.0,2.0,1017.0,1744252582.185016,0.0,2025-04-09 22:36:22.185,FORWARD,1
148.0,19778.25400570083,3671.6763581843807,-66698.43246918112,-65231.1969079014,-39102.477026281005,-36773.78288194929,-33360.962076301825,-22820.8852196795,0.0,0.0,0.0,193.0,1.0,154.0,0.0,2.0,3.0,252.0,410.0,2.0,1020.0,1744252582.1850247,0.0,2025-04-09 22:36:22.185,FORWARD,1
149.0,19930.290571485828,3726.5051873332486,-66686.47428589754,-65238.64003880502,-39084.72974118349,-36744.18917229047,-33450.592571567606,-22800.031042102702,0.0,0.0,0.0,193.0,1.0,155.0,0.0,1.0,3.0,251.0,411.0,1.0,1019.0,1744252582.1850336,0.0,2025-04-09 22:36:22.185,FORWARD,1
150.0,19873.96417545845,3750.0639259891423,-66606.99148261447,-65168.12028504852,-38989.019571425866,-36647.56258101018,-33699.97098445547,-22707.807744480106,0.0,0.0,0.0,193.0,1.0,155.0,0.0,2.0,3.0,252.0,411.0,2.0,1020.0,1744252582.1850424,0.0,2025-04-09 22:36:22.185,FORWARD,1
151.0,19792.268549474305,3729.50032109026,-66654.51129132645,-65220.69158800741,-39021.47430437497,-36686.87929950706,-33382.03977132318,-22744.129329219977,0.0,0.0,0.0,193.0,1.0,155.0,0.0,2.0,3.0,252.0,411.0,2.0,1020.0,1744252582.1850562,0.0,2025-04-09 22:36:22.185,FORWARD,1
152.0,19756.52811009027,3676.6831489423694,-66685.82608530833,-65234.929649225436,-39082.38280801568,-36750.98410260488,-33416.77438220673,-22798.309957779642,0.0,0.0,0.0,193.0,1.0,154.0,0.0,2.0,3.0,250.0,410.0,2.0,1018.0,1744252582.1850648,0.0,2025-04-09 22:36:22.185,FORWARD,1
153.0,19921.953370803996,3718.3244488626065,-66695.5937976353,-65239.71292253887,-39109.339011828786,-36769.82662318071,-33332.64241607695,-22821.488716779797,0.0,0.0,0.0,193.0,1.0,154.0,0.0,2.0,3.0,249.0,410.0,2.0,1017.0,1744252582.1850736,0.0,2025-04-09 22:36:22.185,FORWARD,1
154.0,19890.996204733397,3761.485667405804,-66598.85544763273,-65174.378773496006,-38977.95545792049,-36638.644234972504,-33764.07578755329,-22704.76790723418,0.0,0.0,0.0,193.0,1.0,154.0,0.0,2.0,3.0,249.0,410.0,2.0,1017.0,1744252582.1850824,0.0,2025-04-09 22:36:22.185,FORWARD,1
155.0,19816.25197127485,3745.146542208975,-66638.41803531862,-65204.33011106612,-39009.09143794673,-36681.11254943759,-33356.357616944035,-22739.63662858446,0.0,0.0,0.0,193.0,1.0,154.0,0.0,2.0,3.0,250.0,410.0,2.0,1018.0,1744252582.185091,0.0,2025-04-09 22:36:22.185,FORWARD,1
156.0,19737.551479047714,3670.983454106266,-66684.57438761884,-65249.36887614356,-39068.88235436468,-36736.00843381983,-33448.491507588806,-22789.0786873196,0.0,0.0,0.0,193.0,1.0,154.0,0.0,2.0,3.0,249.0,410.0,2.0,1017.0,1744252582.1851,0.0,2025-04-09 22:36:22.185,FORWARD,1
157.0,19901.523876371848,3702.0076754102324,-66701.38289944922,-65234.48261433633,-39122.79476199088,-36783.50589078735,-33249.873906358946,-22831.904629695968,0.0,0.0,0.0,193.0,1.0,154.0,0.0,2.0,3.0,249.0,410.0,2.0,1017.0,1744252582.1851087,0.0,2025-04-09 22:36:22.185,FORWARD,1
158.0,19900.473344382448,3751.6061963565585,-66610.67952044959,-65188.8850556475,-38989.39955108161,-36639.985339639825,-33776.63746793717,-22707.02543342417,0.0,0.0,0.0,193.0,1.0,154.0,0.0,2.0,3.0,249.0,410.0,2.0,1017.0,1744252582.1851175,0.0,2025-04-09 22:36:22.185,FORWARD,1
159.0,19833.932201139,3746.822923043123,-66625.2752095789,-65182.93949162239,-39005.38104836715,-36665.5557352967,-33378.3293817436,-22724.68331154386,0.0,0.0,0.0,193.0,1.0,154.0,0.0,2.0,3.0,249.0,410.0,2.0,1017.0,1744252582.185126,0.0,2025-04-09 22:36:22.185,FORWARD,1
160.0,19725.32507483066,3678.6053989655256,-66683.34504167379,-65256.72260006936,-39062.82503161729,-36727.917102327,-33467.11051072008,-22784.36246923953,0.0,0.0,0.0,193.0,1.0,154.0,0.0,2.0,3.0,250.0,410.0,2.0,1018.0,1744252582.185135,0.0,2025-04-09 22:36:22.185,FORWARD,1
161.0,19881.966099973455,3711.887146459478,-66684.21675970755,-65216.51181179426,-39109.87545369571,-36783.10355938716,-33224.45997291327,-22828.261295349756,0.0,0.0,0.0,193.0,1.0,154.0,0.0,2.0,3.0,252.0,410.0,2.0,1020.0,1744252582.1851437,0.0,2025-04-09 22:36:22.185,FORWARD,1
162.0,19916.790117834822,3753.595501613081,-66613.94287514006,-65203.07841337662,-38994.09341741722,-36660.34777883861,-33732.62688310467,-22725.510326088708,0.0,0.0,0.0,193.0,1.0,155.0,0.0,2.0,3.0,252.0,411.0,2.0,1020.0,1744252582.1851523,0.0,2025-04-09 22:36:22.185,FORWARD,1
163.0,19849.936050169,3748.208731199352,-66610.14307858265,-65171.40599148345,-38994.6522110286,-36662.78411898424,-33429.31371084615,-22714.915599216893,0.0,0.0,0.0,193.0,1.0,155.0,0.0,2.0,3.0,251.0,411.0,2.0,1019.0,1744252582.185161,0.0,2025-04-09 22:36:22.185,FORWARD,1
164.0,19746.00043845182,3695.30215207364,-66663.5860995753,-65245.837300519626,-39032.225493457976,-36703.55370087072,-33447.41862385495,-22755.573422381094,0.0,0.0,0.0,193.0,1.0,155.0,0.0,2.0,3.0,251.0,411.0,2.0,1019.0,1744252582.18517,0.0,2025-04-09 22:36:22.185,FORWARD,1
165.0,19848.50553852386,3698.051416641643,-66679.90287302768,-65212.48849779231,-39101.851177436256,-36773.67112322702,-33234.45120268479,-22812.682129464403,0.0,0.0,0.0,193.0,1.0,155.0,0.0,2.0,3.0,251.0,411.0,2.0,1019.0,1744252582.185184,0.0,2025-04-09 22:36:22.185,FORWARD,1
166.0,19924.166193505072,3747.784048054701,-66637.41220681813,-65220.8927537075,-39019.44029562954,-36679.905555237005,-33633.385137723104,-22741.648285585437,0.0,0.0,0.0,193.0,1.0,155.0,0.0,1.0,3.0,251.0,411.0,1.0,1019.0,1744252582.1851928,0.0,2025-04-09 22:36:22.185,FORWARD,1
167.0,19851.053637391764,3747.0017369987654,-66607.79614541485,-65171.00366008326,-38988.08079815874,-36659.990150927326,-33506.62839491706,-22717.9107329739,0.0,0.0,0.0,193.0,1.0,154.0,0.0,2.0,3.0,250.0,410.0,2.0,1018.0,1744252582.1852016,0.0,2025-04-09 22:36:22.185,FORWARD,1
168.0,19742.20064189442,3699.1243003754976,-66672.92912875762,-65256.27556518025,-39037.522856893884,-36707.62171836159,-33419.389536307994,-22772.337230722576,0.0,0.0,0.0,193.0,1.0,154.0,0.0,2.0,3.0,251.0,410.0,2.0,1019.0,1744252582.1852105,0.0,2025-04-09 22:36:22.185,FORWARD,1
169.0,19808.048881059753,3695.3245038180953,-66674.76197180295,-65212.91318093696,-39092.01640987592,-36759.03073060879,-33313.08463967856,-22813.598550987073,0.0,0.0,0.0,193.0,1.0,155.0,0.0,2.0,3.0,251.0,411.0,2.0,1019.0,1744252582.185219,0.0,2025-04-09 22:36:22.185,FORWARD,1
170.0,19935.47617619946,3752.679080090413,-66646.10703541125,-65217.13766063901,-39037.321691193785,-36693.31660191019,-33519.57005495668,-22752.578288624085,0.0,0.0,0.0,193.0,1.0,154.0,0.0,2.0,3.0,250.0,410.0,2.0,1018.0,1744252582.185228,0.0,2025-04-09 22:36:22.185,FORWARD,1
171.0,19872.086628924208,3762.625606373025,-66586.56198818231,-65154.41866569742,-38965.48318451443,-36632.922188391945,-33595.677744827,-22685.724220958262,0.0,0.0,0.0,193.0,1.0,154.0,0.0,2.0,3.0,249.0,410.0,2.0,1017.0,1744252582.1852365,0.0,2025-04-09 22:36:22.185,FORWARD,1
172.0,19771.302613175227,3719.486739574282,-66653.14783491466,-65235.37668411454,-39015.72990604996,-36687.54985184072,-33359.8221373346,-22739.32370416209,0.0,0.0,0.0,193.0,1.0,154.0,0.0,10.0,3.0,249.0,410.0,10.0,1017.0,1744252582.1852453,0.0,2025-04-09 22:36:22.185,FORWARD,1
173.0,19767.234595684364,3678.8959716434447,-66682.5850823623,-65233.34267536911,-39085.53440398388,-36755.02976835129,-33348.46745115131,-22797.75116416826,0.0,0.0,0.0,193.0,1.0,154.0,0.0,21.0,3.0,249.0,410.0,21.0,1017.0,1744252582.185254,0.0,2025-04-09 22:36:22.185,FORWARD,1
174.0,19925.37318770566,3732.540158336182,-66674.58315784732,-65234.03557944723,-39073.48681372247,-36736.07548905319,-33383.693800412875,-22786.016498329223,0.0,0.0,0.0,193.0,1.0,154.0,0.0,31.0,3.0,250.0,410.0,31.0,1018.0,1744252582.185263,0.0,2025-04-09 22:36:22.185,FORWARD,1
175.0,19874.61237604766,3758.9375685378996,-66594.3180435083,-65170.467218216334,-38966.354902548184,-36637.28077856074,-33689.465664561474,-22695.06725014058,0.0,0.0,0.0,193.0,1.0,155.0,0.0,38.0,3.0,250.0,411.0,38.0,1018.0,1744252582.1852717,0.0,2025-04-09 22:36:22.185,FORWARD,1
176.0,19792.33560470767,3739.648013072969,-66647.13521565619,-65225.05017817619,-39004.93401347804,-36684.666476805985,-33341.33724467007,-22736.485032616263,0.0,0.0,0.0,193.0,1.0,155.0,0.0,39.0,3.0,253.0,411.0,39.0,1021.0,1744252582.1852806,0.0,2025-04-09 22:36:22.185,FORWARD,1
177.0,19743.92172621748,3677.599570465037,-66679.74641081649,-65244.94323074142,-39067.13891829716,-36740.94816934445,-33407.47605651332,-22782.84255061657,0.0,0.0,0.0,193.0,1.0,155.0,0.0,39.0,3.0,252.0,411.0,39.0,1020.0,1744252582.1852891,0.0,2025-04-09 22:36:22.185,FORWARD,1
178.0,19915.806641078787,3717.0503994286537,-66684.6861463411,-65237.96948647136,-39096.86673842272,-36765.87036441211,-33282.462749774786,-22812.27979806421,0.0,0.0,0.0,193.0,1.0,155.0,0.0,39.0,3.0,251.0,411.0,39.0,1019.0,1744252582.185298,0.0,2025-04-09 22:36:22.185,FORWARD,1
179.0,19892.806696034277,3754.400164413472,-66593.64749117465,-65183.07360208913,-38970.66878922806,-36635.00090062629,-33750.88825832466,-22692.139171616935,0.0,0.0,0.0,193.0,1.0,155.0,0.0,39.0,3.0,251.0,411.0,39.0,1019.0,1744252582.1853068,0.0,2025-04-09 22:36:22.185,FORWARD,1
180.0,19819.604732943146,3738.2845566611954,-66626.2810380794,-65205.559457011164,-38998.586118052735,-36674.54113656773,-33346.23227670578,-22720.2129626528,0.0,0.0,0.0,193.0,1.0,155.0,0.0,38.0,3.0,252.0,411.0,38.0,1020.0,1744252582.1853201,0.0,2025-04-09 22:36:22.185,FORWARD,1
181.0,19736.43389182495,3677.756032676224,-66667.14002694369,-65250.06178022168,-39050.4198134446,-36724.13965751405,-33437.941484205905,-22765.765817852716,0.0,0.0,0.0,193.0,1.0,155.0,0.0,39.0,3.0,252.0,411.0,39.0,1020.0,1744252582.659069,0.0,2025-04-09 22:36:22.659,FORWARD,1
182.0,19897.947597258997,3713.3176581046177,-66683.16622771815,-65229.319361367154,-39107.95320367256,-36777.09094012868,-33214.73696407521,-22815.74431845478,0.0,0.0,0.0,193.0,1.0,155.0,0.0,39.0,3.0,252.0,411.0,39.0,1020.0,1744252582.6591084,0.0,2025-04-09 22:36:22.659,FORWARD,1
183.0,19897.098230969696,3754.5789783691143,-66615.48514550748,-65211.25915184727,-38995.88155697365,-36657.37499682605,-33751.78232810287,-22715.809668995105,0.0,0.0,0.0,193.0,1.0,155.0,0.0,39.0,3.0,252.0,411.0,39.0,1020.0,1744252582.6591287,0.0,2025-04-09 22:36:22.659,FORWARD,1
184.0,19823.44923298946,3742.3525741520616,-66632.27130559341,-65204.62068374404,-39010.2090251695,-36684.107683194605,-33377.2788497542,-22727.700797045327,0.0,0.0,0.0,193.0,1.0,155.0,0.0,39.0,3.0,251.0,411.0,39.0,1019.0,1744252582.6591487,0.0,2025-04-09 22:36:22.659,FORWARD,1
185.0,19720.251228839308,3681.2876083001624,-66680.97575676153,-65270.379515931556,-39056.477136191985,-36731.02399480629,-33451.75486227928,-22779.646251159462,0.0,0.0,0.0,193.0,1.0,155.0,0.0,40.0,3.0,252.0,411.0,40.0,1020.0,1744252582.659166,0.0,2025-04-09 22:36:22.659,FORWARD,1
186.0,19865.962250943452,3707.729721990791,-66680.79694280589,-65222.65854151947,-39110.434247307094,-36781.74010297538,-33215.04988849758,-22825.24380984829,0.0,0.0,0.0,193.0,1.0,155.0,0.0,40.0,3.0,251.0,411.0,40.0,1019.0,1744252582.6591866,0.0,2025-04-09 22:36:22.659,FORWARD,1
187.0,19915.51606840087,3762.3573854395613,-66611.93121813909,-65205.96178841136,-39000.37425760916,-36653.70931073539,-33702.116751923175,-22719.989445208248,0.0,0.0,0.0,193.0,1.0,155.0,0.0,40.0,3.0,252.0,411.0,40.0,1020.0,1744252582.659204,0.0,2025-04-09 22:36:22.659,FORWARD,1
188.0,19848.662000735047,3763.0949930065863,-66595.92736910908,-65163.76169487974,-38988.12550164766,-36647.80845019918,-33428.79962072368,-22699.805819965106,0.0,0.0,0.0,193.0,1.0,155.0,0.0,40.0,3.0,252.0,411.0,40.0,1020.0,1744252582.6592214,0.0,2025-04-09 22:36:22.659,FORWARD,1
189.0,19747.408598352504,3713.5411755491705,-66644.6765237661,-65236.98600971532,-39020.37906889666,-36687.50514835181,-33409.75593444776,-22741.089491974057,0.0,0.0,0.0,193.0,1.0,154.0,0.0,41.0,3.0,249.0,410.0,41.0,1017.0,1744252582.659239,0.0,2025-04-09 22:36:22.659,FORWARD,1
190.0,19835.96620988443,3704.444015555861,-66667.60941357726,-65210.81211695816,-39101.11356986923,-36768.75373944685,-33227.365699692455,-22815.31963531013,0.0,0.0,0.0,193.0,1.0,154.0,0.0,41.0,3.0,252.0,410.0,41.0,1020.0,1744252582.6592484,0.0,2025-04-09 22:36:22.659,FORWARD,1
191.0,19929.12828077415,3755.7636208252457,-66629.74555846996,-65221.47389906334,-39026.279929432865,-36683.28066864976,-33591.56502384723,-22744.330494920076,0.0,0.0,0.0,193.0,1.0,155.0,0.0,41.0,3.0,252.0,411.0,41.0,1020.0,1744252582.659258,0.0,2025-04-09 22:36:22.659,FORWARD,1
192.0,19866.699858510477,3766.7383273528017,-66582.24810150244,-65158.55373842165,-38970.17705085004,-36640.2982640622,-33511.18815078594,-22689.881645426947,0.0,0.0,0.0,193.0,1.0,154.0,0.0,41.0,3.0,250.0,410.0,41.0,1018.0,1744252582.6592672,0.0,2025-04-09 22:36:22.659,FORWARD,1
193.0,19756.14813043453,3713.630582526992,-66649.482148824,-65248.43010287644,-39014.455856616005,-36690.09795070862,-33369.54514617266,-22744.88928853146,0.0,0.0,0.0,193.0,1.0,154.0,0.0,41.0,3.0,251.0,410.0,41.0,1019.0,1744252582.659276,0.0,2025-04-09 22:36:22.659,FORWARD,1
194.0,19781.137380735563,3668.5471139606375,-66682.60743410676,-65242.64100106252,-39096.7773314449,-36774.0287511383,-33285.033200387144,-22822.226324346822,0.0,0.0,0.0,193.0,1.0,154.0,0.0,42.0,3.0,249.0,410.0,42.0,1017.0,1744252582.6592853,0.0,2025-04-09 22:36:22.659,FORWARD,1
195.0,19914.04085326682,3721.6772105309024,-66663.42963736411,-65252.72163781186,-39059.29345599335,-36726.73245987087,-33467.80341479819,-22789.905701864445,0.0,0.0,0.0,193.0,1.0,154.0,0.0,42.0,3.0,249.0,410.0,42.0,1017.0,1744252582.6593256,0.0,2025-04-09 22:36:22.659,FORWARD,1
196.0,19849.10903562415,3737.4798938608046,-66595.32387200878,-65184.928796878914,-38976.65905674208,-36647.07084263216,-33617.3365852042,-22707.137192146445,0.0,0.0,0.0,193.0,1.0,154.0,0.0,42.0,3.0,250.0,410.0,42.0,1018.0,1744252582.659335,0.0,2025-04-09 22:36:22.659,FORWARD,1
197.0,19772.308441675716,3723.30888787614,-66634.59588701677,-65236.33780912612,-39000.977754709456,-36673.892935978525,-33353.340131442565,-22731.74646279174,0.0,0.0,0.0,193.0,1.0,153.0,0.0,42.0,3.0,249.0,409.0,42.0,1017.0,1744252582.6593435,0.0,2025-04-09 22:36:22.659,FORWARD,1
198.0,19753.33181063316,3674.5820849635707,-66668.65994556666,-65242.417483617966,-39075.02908408989,-36745.552628702244,-33353.11661399801,-22794.733678666795,0.0,0.0,0.0,193.0,1.0,154.0,0.0,42.0,3.0,250.0,410.0,42.0,1018.0,1744252582.6593525,0.0,2025-04-09 22:36:22.659,FORWARD,1
199.0,19911.8503823102,3724.5158820767265,-66669.46460836704,-65248.51950985426,-39076.9736858575,-36745.64203568006,-33347.193401717355,-22801.32744328111,0.0,0.0,0.0,193.0,1.0,154.0,0.0,42.0,3.0,249.0,410.0,42.0,1017.0,1744252582.6593616,0.0,2025-04-09 22:36:22.659,FORWARD,1
200.0,19866.856320721665,3752.6120248570473,-66583.79037186985,-65183.542988722686,-38961.9963123794,-36635.2467698153,-33704.91071998009,-22699.87287519847,0.0,0.0,0.0,193.0,1.0,154.0,0.0,42.0,3.0,249.0,410.0,42.0,1017.0,1744252582.659371,0.0,2025-04-09 22:36:22.659,FORWARD,1
201.0,19790.90509306253,3735.378829882006,-66630.50551778145,-65226.86066947707,-38998.027324441355,-36676.79866275772,-33354.14479424296,-22736.999122738736,0.0,0.0,0.0,193.0,1.0,154.0,0.0,42.0,3.0,249.0,410.0,42.0,1017.0,1744252582.6593795,0.0,2025-04-09 22:36:22.659,FORWARD,1
202.0,19722.195830606917,3666.1554773039197,-66678.49471312699,-65263.89751003951,-39068.368264242206,-36741.641073422565,-33439.57316155114,-22789.302204764153,0.0,0.0,0.0,193.0,1.0,154.0,0.0,43.0,3.0,250.0,410.0,43.0,1018.0,1744252582.6593888,0.0,2025-04-09 22:36:22.659,FORWARD,1
203.0,19889.65510006608,3706.9921144237655,-66691.81635282235,-65256.879062280546,-39108.51199728394,-36773.33584706019,-33289.61530800049,-22817.97949290031,0.0,0.0,0.0,193.0,1.0,154.0,0.0,43.0,3.0,251.0,410.0,43.0,1019.0,1744252582.6593978,0.0,2025-04-09 22:36:22.659,FORWARD,1
204.0,19868.555053300268,3747.5381788656928,-66600.57653195578,-65207.28054133422,-38980.481205043936,-36642.26521757427,-33789.33325878778,-22702.93506418885,0.0,0.0,0.0,193.0,1.0,154.0,0.0,43.0,3.0,249.0,410.0,43.0,1017.0,1744252582.659407,0.0,2025-04-09 22:36:22.659,FORWARD,1
205.0,19803.511476935324,3741.592614840581,-66623.3753113002,-65215.66244550496,-39000.28485063134,-36673.58001155615,-33383.60439343505,-22728.17018367889,0.0,0.0,0.0,193.0,1.0,154.0,0.0,43.0,3.0,250.0,410.0,43.0,1018.0,1744252582.6594155,0.0,2025-04-09 22:36:22.659,FORWARD,1
206.0,19713.27748456925,3676.3478727755396,-66667.67646881062,-65267.0044025188,-39053.750223368435,-36722.84325633565,-33479.78394982624,-22778.707477892338,0.0,0.0,0.0,193.0,1.0,154.0,0.0,43.0,3.0,250.0,410.0,43.0,1018.0,1744252582.6594243,0.0,2025-04-09 22:36:22.659,FORWARD,1
207.0,19871.30431786827,3704.39931206695,-66680.39461140569,-65241.411655117474,-39110.21072986254,-36778.49910002937,-33246.61055166848,-22825.80260345967,0.0,0.0,0.0,193.0,1.0,154.0,0.0,43.0,3.0,250.0,410.0,43.0,1018.0,1744252582.6594331,0.0,2025-04-09 22:36:22.659,FORWARD,1
208.0,19888.60456807668,3750.309795178151,-66603.23638954597,-65217.24941936129,-38985.06331265728,-36650.334197322634,-33777.553889459836,-22721.084680686556,0.0,0.0,0.0,193.0,1.0,154.0,0.0,43.0,3.0,249.0,410.0,43.0,1017.0,1744252582.6594565,0.0,2025-04-09 22:36:22.659,FORWARD,1
209.0,19826.91375338003,3751.717955078835,-66606.58915121427,-65195.65763421746,-38988.304315603295,-36662.31473235068,-33412.75106820477,-22717.73191901826,0.0,0.0,0.0,193.0,1.0,155.0,0.0,43.0,3.0,251.0,411.0,43.0,1019.0,1744252582.6594653,0.0,2025-04-09 22:36:22.659,FORWARD,1
210.0,19727.582601020647,3698.006713152732,-66651.80673024735,-65261.23765244933,-39029.96796726799,-36701.07265723618,-33475.35830442409,-22759.753198594237,0.0,0.0,0.0,193.0,1.0,154.0,0.0,43.0,3.0,251.0,410.0,43.0,1019.0,1744252582.6594808,0.0,2025-04-09 22:36:22.659,FORWARD,1
211.0,19852.8864804371,3712.334181348584,-66668.54818684437,-65228.224125888846,-39100.82299719131,-36770.56423074773,-33249.49392670321,-22822.829821447114,0.0,0.0,0.0,193.0,1.0,154.0,0.0,43.0,3.0,251.0,410.0,43.0,1019.0,1744252582.6594925,0.0,2025-04-09 22:36:22.659,FORWARD,1
212.0,19905.167210718064,3749.3486701665724,-66620.35782579874,-65233.11915792456,-39007.258594901396,-36668.41675858698,-33718.63469107565,-22740.418939640396,0.0,0.0,0.0,193.0,1.0,155.0,0.0,43.0,3.0,252.0,411.0,43.0,1020.0,1744252582.6595013,0.0,2025-04-09 22:36:22.659,FORWARD,1
213.0,19834.28982905028,3741.950242751866,-66605.04688084684,-65193.265997560746,-38996.01566744038,-36664.72872075185,-33499.6099471581,-22725.957360977813,0.0,0.0,0.0,193.0,1.0,155.0,0.0,43.0,3.0,251.0,411.0,43.0,1019.0,1744252582.6595101,0.0,2025-04-09 22:36:22.659,FORWARD,1
214.0,19736.612705780593,3709.026123169199,-66651.33734361379,-65261.66233559398,-39027.755144566916,-36695.48472112235,-33478.64401085902,-22763.709457362827,0.0,0.0,0.0,193.0,1.0,154.0,0.0,43.0,3.0,251.0,410.0,43.0,1019.0,1744252582.6595192,0.0,2025-04-09 22:36:22.659,FORWARD,1
215.0,19822.711625422435,3705.3827888229835,-66658.24403265047,-65219.37283508454,-39085.8249766618,-36751.60995144963,-33306.13324715295,-22807.407117772953,0.0,0.0,0.0,193.0,1.0,155.0,0.0,43.0,3.0,252.0,411.0,43.0,1020.0,1744252582.659528,0.0,2025-04-09 22:36:22.659,FORWARD,1
216.0,19914.21966722246,3742.7772572967124,-66637.85924170724,-65241.05402720619,-39030.593816112734,-36684.59942157262,-33608.306480444255,-22752.108901990523,0.0,0.0,0.0,193.0,1.0,155.0,0.0,43.0,3.0,251.0,411.0,43.0,1019.0,1744252582.6595368,0.0,2025-04-09 22:36:22.659,FORWARD,1
217.0,19854.473454293427,3758.0658505041424,-66581.9128253356,-65173.104724062054,-38969.774719449844,-36634.755031437286,-33595.76715180482,-22694.77667746266,0.0,0.0,0.0,193.0,1.0,155.0,0.0,43.0,3.0,251.0,411.0,43.0,1019.0,1744252582.659546,0.0,2025-04-09 22:36:22.659,FORWARD,1
218.0,19762.473674115383,3724.426475098905,-66632.04778814886,-65241.76928302876,-39002.05063844331,-36669.10966266509,-33428.71021374586,-22725.756195277714,0.0,0.0,0.0,193.0,1.0,155.0,0.0,43.0,3.0,251.0,411.0,43.0,1019.0,1744252582.6595545,0.0,2025-04-09 22:36:22.659,FORWARD,1
219.0,19783.193741225452,3689.155422348431,-66658.89223323968,-65232.20273640189,-39076.481947479486,-36745.820849635704,-33353.60835237603,-22794.286643777687,0.0,0.0,0.0,193.0,1.0,155.0,0.0,43.0,3.0,252.0,411.0,43.0,1020.0,1744252582.6595635,0.0,2025-04-09 22:36:22.659,FORWARD,1
220.0,19907.8494200527,3721.9677832088214,-66666.7376955435,-65265.462132151384,-39068.9717613425,-36734.10853554113,-33487.62941213005,-22795.136010066988,0.0,0.0,0.0,193.0,1.0,155.0,0.0,43.0,3.0,252.0,411.0,43.0,1020.0,1744252582.6595724,0.0,2025-04-09 22:36:22.659,FORWARD,1
221.0,19863.011820675354,3757.976443526321,-66575.14024676564,-65178.96088110935,-38956.07310009874,-36630.15057207949,-33693.91366170808,-22689.859293682493,0.0,0.0,0.0,193.0,1.0,155.0,0.0,43.0,3.0,251.0,411.0,43.0,1019.0,1744252582.6595814,0.0,2025-04-09 22:36:22.659,FORWARD,1
222.0,19772.82253179819,3725.946393721866,-66633.45594804954,-65241.00932371728,-38998.47435933046,-36676.910421479995,-33400.18938782089,-22736.060349471612,0.0,0.0,0.0,193.0,1.0,155.0,0.0,43.0,3.0,252.0,411.0,43.0,1020.0,1744252582.6595953,0.0,2025-04-09 22:36:22.659,FORWARD,1
223.0,19741.887717472044,3670.022329094688,-66672.92912875762,-65256.27556518025,-39071.27399102139,-36751.31937877171,-33431.81710622515,-22805.864847405537,0.0,0.0,0.0,193.0,1.0,155.0,0.0,43.0,3.0,252.0,411.0,43.0,1020.0,1744252582.659604,0.0,2025-04-09 22:36:22.659,FORWARD,1
224.0,19902.596760105702,3712.3788848374948,-66680.66283233915,-65262.19877746091,-39086.808453417834,-36760.729463187396,-33380.408093977945,-22816.75014695527,0.0,0.0,0.0,193.0,1.0,155.0,0.0,44.0,3.0,252.0,411.0,44.0,1020.0,1744252582.659613,0.0,2025-04-09 22:36:22.659,FORWARD,1
225.0,19865.917547454545,3748.1863794548967,-66587.92544459409,-65193.35540453857,-38962.018664123854,-36633.36922328106,-33766.82505212129,-22694.26258734019,0.0,0.0,0.0,193.0,1.0,155.0,0.0,44.0,3.0,252.0,411.0,44.0,1020.0,1744252582.659629,0.0,2025-04-09 22:36:22.659,FORWARD,1
226.0,19802.25977924583,3745.3924113979833,-66616.8262501748,-65213.51667803725,-38981.44233005552,-36659.856040460596,-33388.41001849294,-22714.06623292759,0.0,0.0,0.0,193.0,1.0,155.0,0.0,43.0,3.0,251.0,411.0,43.0,1019.0,1744252582.6596377,0.0,2025-04-09 22:36:22.659,FORWARD,1
227.0,19726.19679286442,3675.498506486238,-66665.39659087617,-65252.185195944934,-39048.519915165896,-36726.30777672622,-33473.927792778944,-22773.052486545144,0.0,0.0,0.0,193.0,1.0,155.0,0.0,44.0,3.0,251.0,411.0,44.0,1019.0,1744252582.6596467,0.0,2025-04-09 22:36:22.659,FORWARD,1
228.0,19888.40340237658,3707.6179632685144,-66680.52872187243,-65238.32711438264,-39089.55771798584,-36765.5797917342,-33287.8048166996,-22799.382841513496,0.0,0.0,0.0,193.0,1.0,154.0,0.0,44.0,3.0,250.0,410.0,44.0,1018.0,1744252582.6596556,0.0,2025-04-09 22:36:22.659,FORWARD,1
229.0,19864.26351836485,3739.715068306335,-66605.42686050259,-65201.73730870931,-38970.51232701687,-36639.80652568418,-33794.69767745706,-22680.516264500173,0.0,0.0,0.0,193.0,1.0,154.0,0.0,44.0,3.0,249.0,410.0,44.0,1017.0,1744252582.6596642,0.0,2025-04-09 22:36:22.659,FORWARD,1
230.0,19799.041128044264,3734.820036270623,-66624.4258432896,-65198.786878441206,-38986.560879535784,-36666.49450856382,-33399.89881514297,-22696.49776178572,0.0,0.0,0.0,193.0,1.0,154.0,0.0,44.0,3.0,249.0,410.0,44.0,1017.0,1744252582.6596727,0.0,2025-04-09 22:36:22.659,FORWARD,1
231.0,19708.80713567819,3666.2001807928305,-66667.36354438824,-65248.87713776555,-39035.48884814845,-36716.58476788816,-33496.927737823455,-22744.241087942253,0.0,0.0,0.0,193.0,1.0,154.0,0.0,44.0,3.0,250.0,410.0,44.0,1018.0,1744252582.6596816,0.0,2025-04-09 22:36:22.659,FORWARD,1
232.0,19866.386934088103,3694.653951484436,-66672.77266654643,-65208.62164600154,-39087.68017145159,-36769.02196038031,-33255.193621539314,-22786.642347173973,0.0,0.0,0.0,193.0,1.0,154.0,0.0,44.0,3.0,249.0,410.0,44.0,1017.0,1744252582.6596904,0.0,2025-04-09 22:36:22.659,FORWARD,1
233.0,19882.904873240575,3734.1941874258746,-66612.08768035028,-65194.87532316153,-38977.64253349812,-36651.27297058976,-33773.418816735604,-22684.092543613024,0.0,0.0,0.0,193.0,1.0,154.0,0.0,44.0,3.0,249.0,410.0,44.0,1017.0,1744252582.6596992,0.0,2025-04-09 22:36:22.659,FORWARD,1
234.0,19819.627084687603,3740.5420828511815,-66610.63481696068,-65162.44294195688,-38975.452062541495,-36656.48092704784,-33454.66058905847,-22680.449209266808,0.0,0.0,0.0,193.0,1.0,154.0,0.0,44.0,3.0,250.0,410.0,44.0,1018.0,1744252582.659708,0.0,2025-04-09 22:36:22.659,FORWARD,1
235.0,19716.227914837353,3688.082538614576,-66661.32857338531,-65226.81596598816,-39017.96508049549,-36698.25633743481,-33496.368944212074,-22730.517116846695,0.0,0.0,0.0,193.0,1.0,154.0,0.0,44.0,3.0,250.0,410.0,44.0,1018.0,1744252582.659717,0.0,2025-04-09 22:36:22.659,FORWARD,1
236.0,19829.864183648133,3688.216649081308,-66680.99810850598,-65189.33209053661,-39093.15634884314,-36767.502041757354,-33279.10998810649,-22788.005803585747,0.0,0.0,0.0,193.0,1.0,155.0,0.0,44.0,3.0,250.0,411.0,44.0,1018.0,1744252582.6597257,0.0,2025-04-09 22:36:22.659,FORWARD,1
237.0,19897.724079814445,3735.825864771112,-66631.73486372648,-65188.12509633602,-38998.54141456383,-36667.388578342034,-33711.30331889431,-22701.549256032617,0.0,0.0,0.0,193.0,1.0,155.0,0.0,44.0,3.0,251.0,411.0,44.0,1019.0,1744252582.6597345,0.0,2025-04-09 22:36:22.659,FORWARD,1
238.0,19839.341323297183,3752.07558299012,-66590.18297078407,-65120.28755191417,-38955.98369312092,-36635.98437738232,-33528.93543588346,-22658.499796211698,0.0,0.0,0.0,193.0,1.0,155.0,0.0,44.0,3.0,252.0,411.0,44.0,1020.0,1744252582.6597428,0.0,2025-04-09 22:36:22.659,FORWARD,1
239.0,19743.564098306193,3713.898803460456,-66639.55797428584,-65186.672232946425,-38988.86310921468,-36667.00859868629,-33458.16981293796,-22697.54829377512,0.0,0.0,0.0,193.0,1.0,155.0,0.0,44.0,3.0,252.0,411.0,44.0,1020.0,1744252582.659757,0.0,2025-04-09 22:36:22.659,FORWARD,1
240.0,19801.991558312366,3688.3954630369503,-66667.02826822142,-65164.096971046565,-39068.860002620226,-36747.69839616995,-33311.00592744421,-22767.285736475675,0.0,0.0,0.0,193.0,1.0,156.0,0.0,44.0,3.0,252.0,412.0,44.0,1020.0,1744252582.6597655,0.0,2025-04-09 22:36:22.659,FORWARD,1
241.0,19910.397518920603,3736.272899660218,-66646.59877378926,-65180.54785496568,-39020.267310174386,-36685.69465705093,-33578.62336380761,-22718.111898674,0.0,0.0,0.0,193.0,1.0,155.0,0.0,44.0,3.0,251.0,411.0,44.0,1019.0,1744252582.6597743,0.0,2025-04-09 22:36:22.659,FORWARD,1
242.0,19846.248012333872,3751.427382400916,-66591.5240754514,-65114.58785707806,-38954.66494019806,-36627.893045889505,-33621.91869281753,-22658.946831100802,0.0,0.0,0.0,193.0,1.0,155.0,0.0,44.0,3.0,251.0,411.0,44.0,1019.0,1744252582.6597831,0.0,2025-04-09 22:36:22.659,FORWARD,1
243.0,19754.15882517801,3719.240870385274,-66643.69304701008,-65180.0337648432,-38990.67360051556,-36664.818127729675,-33429.9395596909,-22699.269378098175,0.0,0.0,0.0,193.0,1.0,155.0,0.0,44.0,3.0,249.0,411.0,44.0,1017.0,1744252582.6597917,0.0,2025-04-09 22:36:22.659,FORWARD,1
244.0,19760.52907234777,3679.991207121755,-66672.21387293504,-65171.629508928,-39066.2224967745,-36734.577922174685,-33388.05239058166,-22760.155529994434,0.0,0.0,0.0,193.0,1.0,155.0,0.0,44.0,3.0,251.0,411.0,44.0,1019.0,1744252582.6598003,0.0,2025-04-09 22:36:22.659,FORWARD,1
245.0,19909.011710764375,3732.473103102816,-66668.61524207774,-65182.40304975546,-39054.82310710229,-36713.522578897784,-33458.01335072677,-22749.918431033904,0.0,0.0,0.0,193.0,1.0,155.0,0.0,44.0,3.0,251.0,411.0,44.0,1019.0,1744252582.659809,0.0,2025-04-09 22:36:22.659,FORWARD,1
246.0,19853.624088004122,3755.853027803067,-66589.55712193932,-65112.88912449946,-38953.03326285282,-36621.58985395311,-33716.019536974374,-22663.23836603622,0.0,0.0,0.0,193.0,1.0,155.0,0.0,44.0,3.0,251.0,411.0,44.0,1019.0,1744252582.659819,0.0,2025-04-09 22:36:22.659,FORWARD,1
247.0,19774.565967865703,3732.137826935986,-66637.94864868507,-65165.37102048052,-38988.50548130339,-36665.17575564096,-33404.100943100566,-22707.20424737981,0.0,0.0,0.0,193.0,1.0,155.0,0.0,44.0,3.0,251.0,411.0,44.0,1019.0,1744252582.6598277,0.0,2025-04-09 22:36:22.659,FORWARD,1
248.0,19735.316304602184,3678.8959716434447,-66672.83972177979,-65182.87243638903,-39053.43729894606,-36726.57599765968,-33454.16885068046,-22762.725980606792,0.0,0.0,0.0,193.0,1.0,155.0,0.0,44.0,3.0,249.0,411.0,44.0,1017.0,1744252582.6598363,0.0,2025-04-09 22:36:22.659,FORWARD,1
249.0,19902.015614749864,3721.140768663975,-66679.3887829052,-65181.35251776606,-39073.30799976683,-36740.83641062217,-33357.58696288907,-22777.187559269376,0.0,0.0,0.0,193.0,1.0,154.0,0.0,44.0,3.0,250.0,410.0,44.0,1018.0,1744252582.659845,0.0,2025-04-09 22:36:22.659,FORWARD,1
250.0,19873.69595452499,3758.26701620424,-66583.54450268084,-65119.304075158136,-38942.08090806972,-36615.53253120572,-33786.852215153245,-22658.946831100802,0.0,0.0,0.0,193.0,1.0,154.0,0.0,44.0,3.0,250.0,410.0,44.0,1018.0,1744252582.6598544,0.0,2025-04-09 22:36:22.659,FORWARD,1
251.0,19794.88370357558,3738.016335727732,-66626.10222412375,-65154.396313952966,-38979.96711492147,-36663.141746895526,-33383.44793122386,-22700.2081513653,0.0,0.0,0.0,193.0,1.0,154.0,0.0,44.0,3.0,250.0,410.0,44.0,1018.0,1744252582.6598632,0.0,2025-04-09 22:36:22.659,FORWARD,1
252.0,19717.39020554903,3677.8677913985007,-66666.11184669875,-65195.7917446842,-39035.39944117063,-36716.16008474351,-33485.08131326215,-22754.768759580704,0.0,0.0,0.0,193.0,1.0,154.0,0.0,44.0,3.0,249.0,410.0,44.0,1017.0,1744252582.659872,0.0,2025-04-09 22:36:22.659,FORWARD,1
253.0,19890.258597166372,3721.8783762310004,-66668.97286998903,-65165.907462347444,-39073.28564802237,-36750.49236422686,-33280.227575329256,-22786.79880938516,0.0,0.0,0.0,193.0,1.0,154.0,0.0,44.0,3.0,249.0,410.0,44.0,1017.0,1744252582.6598809,0.0,2025-04-09 22:36:22.659,FORWARD,1
254.0,19882.7931145183,3757.8423330595892,-66591.3676132402,-65133.87741254299,-38950.66397794056,-36621.92513011994,-33805.717087473524,-22676.738819687227,0.0,0.0,0.0,193.0,1.0,154.0,0.0,44.0,3.0,250.0,410.0,44.0,1018.0,1744252582.659894,0.0,2025-04-09 22:36:22.659,FORWARD,1
255.0,19814.307369507238,3749.371021911028,-66614.88164840719,-65136.47021489981,-38972.05459738429,-36653.262275846275,-33417.69080372939,-22703.3597473335,0.0,0.0,0.0,193.0,1.0,154.0,0.0,44.0,3.0,250.0,410.0,44.0,1018.0,1744252582.6599028,0.0,2025-04-09 22:36:22.659,FORWARD,1
0.0,19724.453356796905,3698.8337276975785,-66655.11478842674,-65189.64501495899,-39013.695897304526,-36686.67813380696,-33504.50497919381,-22737.69202681685,0.0,0.0,0.0,193.0,1.0,154.0,0.0,44.0,3.0,249.0,410.0,44.0,1017.0,1744252582.659912,0.0,2025-04-09 22:36:22.659,FORWARD,1
1.0,19864.621146276135,3713.585879038081,-66675.8348555368,-65165.572186180616,-39085.757921428434,-36757.868439897116,-33259.328694263546,-22796.499466478763,0.0,0.0,0.0,193.0,1.0,154.0,0.0,44.0,3.0,250.0,410.0,44.0,1018.0,1744252582.6599207,0.0,2025-04-09 22:36:22.659,FORWARD,1
2.0,19892.404364634083,3749.3263184221173,-66618.5696862423,-65165.013392569235,-38981.397626566606,-36648.948389166406,-33771.85419462373,-22707.897151457924,0.0,0.0,0.0,193.0,1.0,154.0,0.0,44.0,3.0,248.0,410.0,44.0,1016.0,1744252582.6599293,0.0,2025-04-09 22:36:22.659,FORWARD,1
3.0,19831.853488904657,3756.7918010701896,-66602.54348546786,-65123.84147928256,-38971.36169330617,-36647.4508222879,-33481.1027027491,-22696.609520507995,0.0,0.0,0.0,193.0,1.0,154.0,0.0,44.0,3.0,250.0,410.0,44.0,1018.0,1744252582.659938,0.0,2025-04-09 22:36:22.659,FORWARD,1
4.0,19720.340635817127,3697.604381752537,-66658.86988149522,-65203.23487558781,-39013.3606211377,-36694.18831994395,-33500.48166519185,-22742.430596641374,0.0,0.0,0.0,193.0,1.0,154.0,0.0,44.0,3.0,250.0,410.0,44.0,1018.0,1744252582.659947,0.0,2025-04-09 22:36:22.659,FORWARD,1
5.0,19822.7786806558,3704.756939978235,-66670.53749210089,-65168.12028504852,-39080.01352310342,-36761.645884710066,-33290.911709178894,-22790.46449547583,0.0,0.0,0.0,193.0,1.0,154.0,0.0,44.0,3.0,250.0,410.0,44.0,1018.0,1744252582.6599555,0.0,2025-04-09 22:36:22.659,FORWARD,1
6.0,19897.545265858804,3742.9337195078997,-66632.87480269371,-65181.508979977254,-39001.67065878757,-36672.998866200316,-33670.310219563275,-22722.69400628734,0.0,0.0,0.0,193.0,1.0,154.0,0.0,44.0,3.0,251.0,410.0,44.0,1019.0,1744252582.6599643,0.0,2025-04-09 22:36:22.659,FORWARD,1
7.0,19830.959419126444,3744.3195276641286,-66596.10618306472,-65124.55673510513,-38961.41516702356,-36640.141801851016,-33556.51748854131,-22683.53375000164,0.0,0.0,0.0,193.0,1.0,154.0,0.0,44.0,3.0,251.0,410.0,44.0,1019.0,1744252582.6599731,0.0,2025-04-09 22:36:22.659,FORWARD,1
8.0,19729.884830699546,3700.7783294651904,-66652.25376513645,-65203.70426222137,-39001.78241750985,-36683.10185469411,-33464.562411852174,-22731.366483135997,0.0,0.0,0.0,193.0,1.0,154.0,0.0,44.0,3.0,252.0,410.0,44.0,1020.0,1744252582.659982,0.0,2025-04-09 22:36:22.659,FORWARD,1
9.0,19780.265662701808,3675.3643960195063,-66671.25274792347,-65178.93852936489,-39068.860002620226,-36752.30285552774,-33346.07581449459,-22788.318728008122,0.0,0.0,0.0,193.0,1.0,155.0,0.0,44.0,3.0,252.0,411.0,44.0,1020.0,1744252582.6599905,0.0,2025-04-09 22:36:22.659,FORWARD,1
10.0,19899.13223971513,3720.0678849301203,-66657.30525938336,-65197.155201095964,-39028.85038004522,-36698.81513104619,-33558.35033158664,-22748.957306022323,0.0,0.0,0.0,193.0,1.0,155.0,0.0,44.0,3.0,251.0,411.0,44.0,1019.0,1744252582.6599991,0.0,2025-04-09 22:36:22.659,FORWARD,1
11.0,19837.799052929768,3742.821960785623,-66587.970148083,-65121.941581003855,-38945.27720752683,-36621.455743486375,-33655.96039962297,-22667.95458411629,0.0,0.0,0.0,193.0,1.0,155.0,0.0,44.0,3.0,252.0,411.0,44.0,1020.0,1744252582.6600084,0.0,2025-04-09 22:36:22.660,FORWARD,1
12.0,19754.538804833748,3724.8958617324665,-66634.10414863875,-65177.440962486384,-38973.28394332933,-36653.44108980192,-33417.42258279593,-22697.280072841655,0.0,0.0,0.0,193.0,1.0,155.0,0.0,44.0,3.0,252.0,411.0,44.0,1020.0,1744252582.6600173,0.0,2025-04-09 22:36:22.660,FORWARD,1
13.0,19751.85659549911,3682.561657734115,-66659.20515766206,-65172.18830253939,-39040.048604017335,-36718.68583186696,-33400.41290526544,-22753.718227591304,0.0,0.0,0.0,193.0,1.0,155.0,0.0,44.0,3.0,252.0,411.0,44.0,1020.0,1744252582.6600301,0.0,2025-04-09 22:36:22.660,FORWARD,1
14.0,19904.139030473118,3724.9629169658324,-66663.49669259747,-65186.78399166871,-39044.5636563973,-36715.84716032114,-33422.58583576511,-22758.79207358266,0.0,0.0,0.0,193.0,1.0,154.0,0.0,44.0,3.0,252.0,410.0,44.0,1020.0,1744252582.6600387,0.0,2025-04-09 22:36:22.660,FORWARD,1
15.0,19855.188710115995,3752.9249492794215,-66579.45413344553,-65120.30990365862,-38937.45409696747,-36613.47617071583,-33740.226476219475,-22664.713581170272,0.0,0.0,0.0,193.0,1.0,155.0,0.0,44.0,3.0,252.0,411.0,44.0,1020.0,1744252582.6600475,0.0,2025-04-09 22:36:22.660,FORWARD,1
16.0,19769.805046296722,3727.958050722844,-66630.79609045936,-65171.54010195019,-38976.346132319704,-36654.44691830241,-33395.026134851716,-22696.430706552354,0.0,0.0,0.0,193.0,1.0,155.0,0.0,44.0,3.0,252.0,411.0,44.0,1020.0,1744252582.6600564,0.0,2025-04-09 22:36:22.660,FORWARD,1
17.0,19724.788632963733,3681.3546635335283,-66659.16045417315,-65187.99098586929,-39028.224531200474,-36708.1134567396,-33463.66834207396,-22744.509308875717,0.0,0.0,0.0,193.0,1.0,155.0,0.0,44.0,3.0,251.0,411.0,44.0,1019.0,1744252582.6600652,0.0,2025-04-09 22:36:22.660,FORWARD,1
18.0,19887.93401574302,3712.8482714710563,-66677.95827126005,-65193.19894232738,-39068.860002620226,-36748.70422467044,-33321.399488615934,-22786.41882972942,0.0,0.0,0.0,193.0,1.0,154.0,0.0,44.0,3.0,248.0,410.0,44.0,1016.0,1744252582.660074,0.0,2025-04-09 22:36:22.660,FORWARD,1
19.0,19866.02930617682,3750.421553900427,-66585.04206955935,-65138.61598236752,-38938.57168419024,-36619.68995567441,-33796.79874143586,-22671.419104506866,0.0,0.0,0.0,193.0,1.0,154.0,0.0,44.0,3.0,249.0,410.0,44.0,1017.0,1744252582.6600826,0.0,2025-04-09 22:36:22.660,FORWARD,1
20.0,19798.504686177337,3744.654803830958,-66613.96522688451,-65151.91527031842,-38964.18678333602,-36648.34489206611,-33390.37697200501,-22686.43947678083,0.0,0.0,0.0,193.0,1.0,154.0,0.0,44.0,3.0,250.0,410.0,44.0,1018.0,1744252582.6600914,0.0,2025-04-09 22:36:22.660,FORWARD,1
21.0,19702.034557108233,3668.994148849744,-66671.81154153484,-65213.15905012596,-39034.84064755925,-36713.29906145323,-33493.306755221696,-22753.427654913387,0.0,0.0,0.0,193.0,1.0,154.0,0.0,44.0,3.0,249.0,410.0,44.0,1017.0,1744252582.6601,0.0,2025-04-09 22:36:22.660,FORWARD,1
22.0,19871.661945779557,3700.7336259762797,-66674.47139912503,-65182.73832592229,-39078.426549247095,-36755.0744718402,-33276.025447371656,-22791.537379209683,0.0,0.0,0.0,193.0,1.0,154.0,0.0,44.0,3.0,249.0,410.0,44.0,1017.0,1744252582.6601088,0.0,2025-04-09 22:36:22.660,FORWARD,1
23.0,19876.355812115173,3743.2242921858183,-66596.95554935402,-65157.592613410074,-38956.90011464359,-36627.11073483357,-33798.676287970105,-22685.724220958262,0.0,0.0,0.0,193.0,1.0,154.0,0.0,44.0,3.0,250.0,410.0,44.0,1018.0,1744252582.6601174,0.0,2025-04-09 22:36:22.660,FORWARD,1
24.0,19807.266570003816,3735.5352920931928,-66610.99244487195,-65150.820034840115,-38973.39570205161,-36654.24575260231,-33432.28649285871,-22706.958378190804,0.0,0.0,0.0,193.0,1.0,154.0,0.0,44.0,3.0,249.0,410.0,44.0,1017.0,1744252582.6601262,0.0,2025-04-09 22:36:22.660,FORWARD,1
25.0,19704.917932142966,3676.437279753361,-66659.92041348462,-65215.66244550496,-39019.59675784073,-36695.68588682245,-33507.16483678399,-22749.449044400342,0.0,0.0,0.0,193.0,1.0,155.0,0.0,44.0,3.0,252.0,411.0,44.0,1020.0,1744252582.660135,0.0,2025-04-09 22:36:22.660,FORWARD,1
26.0,19839.20721283045,3691.480003771783,-66674.06906772483,-65182.693622433384,-39086.540232484374,-36759.50011724235,-33272.78444442564,-22800.50042873626,0.0,0.0,0.0,193.0,1.0,155.0,0.0,44.0,3.0,250.0,411.0,44.0,1018.0,1744252582.6601436,0.0,2025-04-09 22:36:22.660,FORWARD,1
27.0,19884.625957563636,3736.138789193486,-66619.91079090963,-65182.76067766675,-38984.951553935,-36646.981435654336,-33751.625865891685,-22707.271302613175,0.0,0.0,0.0,193.0,1.0,155.0,0.0,44.0,3.0,251.0,411.0,44.0,1019.0,1744252582.6601524,0.0,2025-04-09 22:36:22.660,FORWARD,1
28.0,19827.092567335676,3744.945376508877,-66596.24029353146,-65135.35262767704,-38961.97396063495,-36635.82791517114,-33499.27467099127,-22690.865122182982,0.0,0.0,0.0,193.0,1.0,155.0,0.0,44.0,3.0,251.0,411.0,44.0,1019.0,1744252582.6601658,0.0,2025-04-09 22:36:22.660,FORWARD,1
29.0,19720.742967217324,3694.9445241623553,-66648.56572730133,-65209.85099194658,-39002.45296984351,-36676.128110424055,-33484.567223139675,-22734.49572735974,0.0,0.0,0.0,193.0,1.0,155.0,0.0,44.0,3.0,252.0,411.0,44.0,1020.0,1744252582.6601746,0.0,2025-04-09 22:36:22.660,FORWARD,1
30.0,19800.516343178315,3679.63357921047,-66672.19152119059,-65185.44288700139,-39087.523709240406,-36759.20954456444,-33301.68525000635,-22808.54705674017,0.0,0.0,0.0,193.0,1.0,155.0,0.0,44.0,3.0,251.0,411.0,44.0,1019.0,1744252582.6601832,0.0,2025-04-09 22:36:22.660,FORWARD,1
31.0,19889.78921053281,3726.4604838443383,-66639.42386381912,-65199.88211391951,-39018.45681887351,-36681.20195641541,-33655.37925426713,-22746.78918681016,0.0,0.0,0.0,193.0,1.0,155.0,0.0,44.0,3.0,251.0,411.0,44.0,1019.0,1744252582.660192,0.0,2025-04-09 22:36:22.660,FORWARD,1
32.0,19828.36661676963,3743.045478230176,-66587.45605796052,-65133.36332242052,-38958.62119896665,-36635.224418070844,-33592.88377677009,-22689.412258793385,0.0,0.0,0.0,193.0,1.0,154.0,0.0,44.0,3.0,250.0,410.0,44.0,1018.0,1744252582.6602008,0.0,2025-04-09 22:36:22.660,FORWARD,1
33.0,19732.09765340062,3705.203974867341,-66640.4296923196,-65204.017186643745,-38995.09924591771,-36672.23890688884,-33448.53621107772,-22724.280980143667,0.0,0.0,0.0,193.0,1.0,154.0,0.0,44.0,3.0,250.0,410.0,44.0,1018.0,1744252582.6602094,0.0,2025-04-09 22:36:22.660,FORWARD,1
34.0,19759.232671169364,3670.692881428347,-66672.72796305752,-65195.23295107281,-39077.308962024326,-36751.431137493986,-33364.65011413695,-22792.27498677671,0.0,0.0,0.0,193.0,1.0,154.0,0.0,44.0,3.0,249.0,410.0,44.0,1017.0,1744252582.6602182,0.0,2025-04-09 22:36:22.660,FORWARD,1
35.0,19896.874713525143,3728.1145129340307,-66655.71828552704,-65205.96178841136,-39041.97085404049,-36710.68390735196,-33528.08606959415,-22770.88436733298,0.0,0.0,0.0,193.0,1.0,154.0,0.0,45.0,3.0,250.0,410.0,45.0,1018.0,1744252582.6602268,0.0,2025-04-09 22:36:22.660,FORWARD,1
36.0,19847.92439316802,3751.9414725233883,-66572.32392696428,-65124.06499672712,-38943.19849529249,-36620.136990563515,-33688.43748431653,-22674.883624897437,0.0,0.0,0.0,193.0,1.0,155.0,0.0,44.0,3.0,252.0,411.0,44.0,1020.0,1744252582.6602356,0.0,2025-04-09 22:36:22.660,FORWARD,1
37.0,19760.640831070046,3720.559623308137,-66622.88357292219,-65182.67127068893,-38980.23533585493,-36660.01250267178,-33411.298204815175,-22711.3616718485,0.0,0.0,0.0,193.0,1.0,154.0,0.0,44.0,3.0,249.0,410.0,44.0,1017.0,1744252582.6602442,0.0,2025-04-09 22:36:22.660,FORWARD,1
38.0,19739.406673837504,3669.8435151390454,-66655.71828552704,-65189.91323589245,-39052.05149078983,-36730.107573283625,-33423.591664265594,-22776.002916813246,0.0,0.0,0.0,193.0,1.0,154.0,0.0,44.0,3.0,249.0,410.0,44.0,1017.0,1744252582.6602564,0.0,2025-04-09 22:36:22.660,FORWARD,1
39.0,19897.880542025632,3710.8366144700785,-66663.87667225322,-65200.64207323099,-39067.42949097508,-36734.55557043023,-33399.071800598125,-22786.35177449605,0.0,0.0,0.0,193.0,1.0,154.0,0.0,44.0,3.0,252.0,410.0,44.0,1020.0,1744252582.6602652,0.0,2025-04-09 22:36:22.660,FORWARD,1
40.0,19861.06721890774,3748.052268988165,-66568.47942691797,-65128.40123515144,-38943.46671622595,-36610.570443936645,-33769.48490971147,-22672.648450451907,0.0,0.0,0.0,193.0,1.0,154.0,0.0,45.0,3.0,249.0,410.0,45.0,1017.0,1744252582.6602738,0.0,2025-04-09 22:36:22.660,FORWARD,1
41.0,19786.792372082757,3738.1727979389193,-66605.71743318051,-65162.57705242361,-38970.08764387222,-36647.29436007671,-33389.52760571571,-22700.92340718787,0.0,0.0,0.0,193.0,1.0,154.0,0.0,44.0,3.0,249.0,410.0,44.0,1017.0,1744252582.6602824,0.0,2025-04-09 22:36:22.660,FORWARD,1
42.0,19718.016054393775,3673.017462851699,-66650.59973604676,-65199.56918949714,-39038.796906327836,-36713.5672823867,-33468.764539809774,-22760.759027094726,0.0,0.0,0.0,193.0,1.0,155.0,0.0,44.0,3.0,249.0,411.0,44.0,1017.0,1744252582.6602912,0.0,2025-04-09 22:36:22.660,FORWARD,1
43.0,19890.325652399737,3713.049437171154,-66657.64053555019,-65185.44288700139,-39073.88914512267,-36746.401994991546,-33310.760058255204,-22797.102963579055,0.0,0.0,0.0,193.0,1.0,155.0,0.0,44.0,3.0,252.0,411.0,44.0,1020.0,1744252582.6603353,0.0,2025-04-09 22:36:22.660,FORWARD,1
44.0,19873.047753935785,3751.8297138011117,-66570.1111042632,-65138.28070620069,-38943.489067970404,-36615.71134516136,-33802.990174649975,-22675.86710165347,0.0,0.0,0.0,193.0,1.0,155.0,0.0,44.0,3.0,252.0,411.0,44.0,1020.0,1744252582.660344,0.0,2025-04-09 22:36:22.660,FORWARD,1
45.0,19795.777773353788,3733.143655436475,-66606.49974423644,-65157.50320643225,-38978.13427187613,-36656.771499725764,-33400.83758841009,-22708.277131113664,0.0,0.0,0.0,193.0,1.0,155.0,0.0,44.0,3.0,251.0,411.0,44.0,1019.0,1744252583.1396759,0.0,2025-04-09 22:36:23.139,FORWARD,1
46.0,19704.940283887423,3671.586951206559,-66651.27028838043,-65210.56624776915,-39028.40334515612,-36705.297136938236,-33505.24258676083,-22756.10986424802,0.0,0.0,0.0,193.0,1.0,155.0,0.0,44.0,3.0,251.0,411.0,44.0,1019.0,1744252583.139734,0.0,2025-04-09 22:36:23.139,FORWARD,1
47.0,19863.50355905337,3698.0737683860984,-66660.233337907,-65182.51480847774,-39080.7734824149,-36757.75668117484,-33264.424891999355,-22797.728812423804,0.0,0.0,0.0,193.0,1.0,155.0,0.0,44.0,3.0,252.0,411.0,44.0,1020.0,1744252583.1397688,0.0,2025-04-09 22:36:23.139,FORWARD,1
48.0,19882.390783118106,3743.0007747412656,-66580.83994160175,-65159.3807529665,-38956.72130068795,-36628.787115667714,-33790.96493613302,-22690.418087293874,0.0,0.0,0.0,193.0,1.0,155.0,0.0,44.0,3.0,251.0,411.0,44.0,1019.0,1744252583.1398036,0.0,2025-04-09 22:36:23.139,FORWARD,1
49.0,19823.985674856387,3752.276748690218,-66573.59797639823,-65128.870621785005,-38950.351053518185,-36634.06212735917,-33441.31659761865,-22688.764058204182,0.0,0.0,0.0,193.0,1.0,155.0,0.0,44.0,3.0,250.0,411.0,44.0,1018.0,1744252583.1398342,0.0,2025-04-09 22:36:23.139,FORWARD,1
50.0,19718.038406138232,3692.441128783361,-66626.43750029057,-65200.79853544218,-38995.88155697365,-36677.89389823603,-33493.73143836635,-22731.657055813917,0.0,0.0,0.0,193.0,1.0,154.0,0.0,44.0,3.0,249.0,410.0,44.0,1017.0,1744252583.1398647,0.0,2025-04-09 22:36:23.139,FORWARD,1
51.0,19835.899154651066,3693.089329372565,-66647.9845819455,-65175.25049152977,-39070.42462473209,-36755.11917532911,-33265.96716236677,-22798.64523394647,0.0,0.0,0.0,193.0,1.0,154.0,0.0,44.0,3.0,250.0,410.0,44.0,1018.0,1744252583.1398957,0.0,2025-04-09 22:36:23.139,FORWARD,1
52.0,19896.36062340267,3745.7500393092682,-66601.09062207826,-65181.933663121905,-38979.47537654345,-36652.94935142391,-33728.268292935885,-22719.1624306634,0.0,0.0,0.0,193.0,1.0,155.0,0.0,44.0,3.0,252.0,411.0,44.0,1020.0,1744252583.139926,0.0,2025-04-09 22:36:23.139,FORWARD,1
53.0,19830.69119819298,3746.912330020944,-66574.15677000962,-65131.19520320836,-38950.57457096274,-36635.090307604114,-33520.48647647935,-22684.271357568665,0.0,0.0,0.0,193.0,1.0,155.0,0.0,44.0,3.0,252.0,411.0,44.0,1020.0,1744252583.1399567,0.0,2025-04-09 22:36:23.139,FORWARD,1
54.0,19706.214333321375,3676.7725559201904,-66651.31499186934,-65228.40293984448,-39009.62787981366,-36697.45167463442,-33476.09591199111,-22751.103073490034,0.0,0.0,0.0,193.0,1.0,155.0,0.0,44.0,3.0,252.0,411.0,44.0,1020.0,1744252583.1399825,0.0,2025-04-09 22:36:23.139,FORWARD,1
55.0,19777.739915578357,3665.10494531452,-66668.12350369972,-65196.99873888478,-39081.3769795152,-36767.61380047963,-33328.50734335272,-22812.27979806421,0.0,0.0,0.0,193.0,1.0,156.0,0.0,44.0,3.0,252.0,412.0,44.0,1020.0,1744252583.1399977,0.0,2025-04-09 22:36:23.139,FORWARD,1
56.0,19882.16726567355,3714.5470040496593,-66639.40151207466,-65210.36508206905,-39024.7600108099,-36700.49151188034,-33629.495934187886,-22761.250765472745,0.0,0.0,0.0,193.0,1.0,155.0,0.0,44.0,3.0,251.0,411.0,44.0,1019.0,1744252583.1400132,0.0,2025-04-09 22:36:23.140,FORWARD,1
57.0,19827.87487839161,3740.7432485512795,-66572.92742406458,-65131.48577588628,-38955.71547218746,-36633.16805758096,-33632.02168131134,-22688.004098892703,0.0,0.0,0.0,193.0,1.0,155.0,0.0,44.0,3.0,251.0,411.0,44.0,1019.0,1744252583.1400287,0.0,2025-04-09 22:36:23.140,FORWARD,1
58.0,19737.10444415861,3706.6791900013914,-66622.45888977754,-65195.61293072855,-38987.38789408063,-36661.01833117227,-33445.406966853974,-22712.188686393343,0.0,0.0,0.0,193.0,1.0,155.0,0.0,44.0,3.0,251.0,411.0,44.0,1019.0,1744252583.1400797,0.0,2025-04-09 22:36:23.140,FORWARD,1
59.0,19758.62917406907,3677.2195908092967,-66643.24601212097,-65176.59159619708,-39051.358586711714,-36722.195055746444,-33382.19623353436,-22762.815387584615,0.0,0.0,0.0,193.0,1.0,155.0,0.0,44.0,3.0,249.0,411.0,44.0,1017.0,1744252583.1400957,0.0,2025-04-09 22:36:23.140,FORWARD,1
60.0,19904.630768851133,3729.433265856894,-66635.33349458379,-65186.94045387989,-39029.47622888997,-36693.338953654646,-33484.96955453987,-22744.486957131263,0.0,0.0,0.0,193.0,1.0,155.0,0.0,45.0,3.0,251.0,411.0,45.0,1019.0,1744252583.140111,0.0,2025-04-09 22:36:23.140,FORWARD,1
61.0,19839.989523886386,3737.1222659495197,-66572.77096185338,-65131.15049971944,-38946.05951858277,-36616.53835970621,-33712.37620262816,-22670.68149693984,0.0,0.0,0.0,193.0,1.0,155.0,0.0,45.0,3.0,251.0,411.0,45.0,1019.0,1744252583.1401265,0.0,2025-04-09 22:36:23.140,FORWARD,1
62.0,19759.76911303629,3722.2136523978297,-66617.0721193638,-65182.78302941121,-38978.55895502078,-36653.3516828241,-33420.261254341756,-22711.182857892854,0.0,0.0,0.0,193.0,1.0,154.0,0.0,44.0,3.0,251.0,410.0,44.0,1019.0,1744252583.1401417,0.0,2025-04-09 22:36:23.140,FORWARD,1
63.0,19726.085034142143,3670.469363983794,-66648.6774860236,-65198.11632610755,-39045.34596745324,-36719.13286675607,-33451.33017913463,-22769.87853883249,0.0,0.0,0.0,193.0,1.0,154.0,0.0,44.0,3.0,249.0,410.0,44.0,1017.0,1744252583.1401577,0.0,2025-04-09 22:36:23.140,FORWARD,1
64.0,19894.37131814615,3721.408989597439,-66647.4257883341,-65196.6411109735,-39057.90764783712,-36726.0172040483,-33380.56455618913,-22778.99805057026,0.0,0.0,0.0,193.0,1.0,154.0,0.0,45.0,3.0,249.0,410.0,45.0,1017.0,1744252583.1401727,0.0,2025-04-09 22:36:23.140,FORWARD,1
65.0,19860.195500873986,3758.401126670972,-66552.92261277707,-65130.90463053044,-38932.581416676214,-36599.238109497805,-33783.18652906257,-22659.10329331199,0.0,0.0,0.0,193.0,1.0,154.0,0.0,45.0,3.0,250.0,410.0,45.0,1018.0,1744252583.1401885,0.0,2025-04-09 22:36:23.140,FORWARD,1
66.0,19767.54752010674,3721.051361686154,-66611.59594197225,-65184.32529977862,-38981.263516099876,-36660.124261394056,-33390.35462026055,-22715.764965506194,0.0,0.0,0.0,193.0,1.0,154.0,0.0,44.0,3.0,251.0,410.0,44.0,1019.0,1744252583.1402037,0.0,2025-04-09 22:36:23.140,FORWARD,1
67.0,19701.587522219124,3670.625826194981,-66645.5258900554,-65216.48946004981,-39033.85717080321,-36712.002660274826,-33497.553586668204,-22770.035001043678,0.0,0.0,0.0,193.0,1.0,154.0,0.0,44.0,3.0,251.0,410.0,44.0,1019.0,1744252583.1402192,0.0,2025-04-09 22:36:23.140,FORWARD,1
68.0,19881.899044740087,3716.625716284003,-66642.5307562984,-65185.04055560119,-39063.98732232897,-36733.169762274,-33306.69204076434,-22785.524759951208,0.0,0.0,0.0,193.0,1.0,154.0,0.0,44.0,3.0,251.0,410.0,44.0,1019.0,1744252583.1402345,0.0,2025-04-09 22:36:23.140,FORWARD,1
69.0,19867.16924514404,3744.9006730199667,-66565.26077571641,-65150.887090073484,-38939.75632664637,-36607.4411997129,-33813.07081139932,-22673.408409763386,0.0,0.0,0.0,193.0,1.0,154.0,0.0,45.0,3.0,249.0,410.0,45.0,1017.0,1744252583.14025,0.0,2025-04-09 22:36:23.140,FORWARD,1
70.0,19789.206360483928,3728.181568167397,-66597.2684737764,-65163.1805495239,-38969.05946362728,-36648.07667113265,-33418.629576996515,-22709.953511947813,0.0,0.0,0.0,193.0,1.0,154.0,0.0,44.0,3.0,250.0,410.0,44.0,1018.0,1744252583.1402652,0.0,2025-04-09 22:36:23.140,FORWARD,1
71.0,19691.819809892157,3667.764802904702,-66644.74357899948,-65223.82083223115,-39014.6570223161,-36694.70241006642,-33515.189113043445,-22751.46070140132,0.0,0.0,0.0,193.0,1.0,154.0,0.0,44.0,3.0,249.0,410.0,44.0,1017.0,1744252583.1402805,0.0,2025-04-09 22:36:23.140,FORWARD,1
72.0,19838.424901774517,3685.7356054467687,-66661.39562861867,-65200.32914880862,-39078.985342858476,-36761.1764980765,-33262.05560708709,-22802.55678922615,0.0,0.0,0.0,193.0,1.0,154.0,0.0,44.0,3.0,250.0,410.0,44.0,1018.0,1744252583.140304,0.0,2025-04-09 22:36:23.140,FORWARD,1
73.0,19865.828140476722,3729.589728068081,-66596.93319760957,-65191.366099282044,-38967.45013802649,-36639.96298789537,-33784.885261641175,-22700.766944976684,0.0,0.0,0.0,193.0,1.0,155.0,0.0,45.0,3.0,252.0,411.0,45.0,1020.0,1744252583.140319,0.0,2025-04-09 22:36:23.140,FORWARD,1
74.0,19807.288921748273,3735.781161282201,-66584.50562769242,-65151.870566829515,-38954.821402409245,-36633.23511281432,-33471.11147297758,-22684.316061057576,0.0,0.0,0.0,193.0,1.0,155.0,0.0,44.0,3.0,253.0,411.0,44.0,1021.0,1744252583.1403348,0.0,2025-04-09 22:36:23.140,FORWARD,1
75.0,19703.12979258654,3680.952332133333,-66636.87576495121,-65225.38545434302,-38999.23431864194,-36676.97747671336,-33495.36311571159,-22736.03799772716,0.0,0.0,0.0,193.0,1.0,155.0,0.0,44.0,3.0,253.0,411.0,44.0,1021.0,1744252583.14035,0.0,2025-04-09 22:36:23.140,FORWARD,1
76.0,19801.142192023064,3671.3187302730958,-66667.29648915488,-65207.012320400754,-39086.13790108418,-36764.26103881133,-33286.9554504103,-22815.1855248434,0.0,0.0,0.0,193.0,1.0,155.0,0.0,44.0,3.0,251.0,411.0,44.0,1019.0,1744252583.1403651,0.0,2025-04-09 22:36:23.140,FORWARD,1
77.0,19877.205178404474,3725.655821043947,-66616.96036064153,-65206.90056167848,-38996.73092326295,-36660.16896488297,-33710.63276656065,-22735.099224460035,0.0,0.0,0.0,193.0,1.0,155.0,0.0,45.0,3.0,252.0,411.0,45.0,1020.0,1744252583.1403806,0.0,2025-04-09 22:36:23.140,FORWARD,1
78.0,19818.598904442657,3740.6091380845473,-66575.31906072129,-65144.47213941481,-38955.33549253172,-36629.27885404573,-33563.24536362235,-22698.15179087541,0.0,0.0,0.0,193.0,1.0,155.0,0.0,44.0,3.0,251.0,411.0,44.0,1019.0,1744252583.1403959,0.0,2025-04-09 22:36:23.140,FORWARD,1
79.0,19711.8022694352,3691.480003771783,-66635.44525330607,-65228.80527124468,-39001.20127215401,-36676.128110424055,-33481.16975798247,-22746.856242043526,0.0,0.0,0.0,193.0,1.0,154.0,0.0,44.0,3.0,251.0,410.0,44.0,1019.0,1744252583.140411,0.0,2025-04-09 22:36:23.140,FORWARD,1
80.0,19766.54169160625,3666.2672360261963,-66658.9369367286,-65210.90152393598,-39083.34393302726,-36754.67214044001,-33355.41884367691,-22814.492620765286,0.0,0.0,0.0,193.0,1.0,154.0,0.0,44.0,3.0,249.0,410.0,44.0,1017.0,1744252583.1404262,0.0,2025-04-09 22:36:23.140,FORWARD,1
81.0,19893.432544879026,3727.1310361779974,-66626.43750029057,-65214.88013444903,-39027.79984805582,-36686.07463670667,-33601.84682629667,-22764.447064929853,0.0,0.0,0.0,193.0,1.0,154.0,0.0,45.0,3.0,249.0,410.0,45.0,1017.0,1744252583.1404417,0.0,2025-04-09 22:36:23.140,FORWARD,1
82.0,19839.788358186288,3751.047402745176,-66556.43183665656,-65137.45369165584,-38945.9924633494,-36613.856150371575,-33667.33743755072,-22688.58524424854,0.0,0.0,0.0,193.0,1.0,154.0,0.0,45.0,3.0,250.0,410.0,45.0,1018.0,1744252583.140457,0.0,2025-04-09 22:36:23.140,FORWARD,1
83.0,19749.44260709794,3726.236966399785,-66607.86320064822,-65202.989006398806,-38978.111920131676,-36651.34002582312,-33440.10960341807,-22720.905866730915,0.0,0.0,0.0,193.0,1.0,155.0,0.0,44.0,3.0,252.0,411.0,44.0,1020.0,1744252583.1404722,0.0,2025-04-09 22:36:23.140,FORWARD,1
84.0,19749.643772798037,3689.155422348431,-66633.61241026073,-65197.51282900725,-39046.97764479848,-36719.758715600816,-33409.264196069744,-22780.137989537478,0.0,0.0,0.0,193.0,1.0,155.0,0.0,44.0,3.0,252.0,411.0,44.0,1020.0,1744252583.1404877,0.0,2025-04-09 22:36:23.140,FORWARD,1
85.0,19902.037966494318,3728.896823989967,-66628.44915729156,-65207.95109366788,-39037.813429571805,-36703.77721831527,-33459.15328969399,-22772.627803400494,0.0,0.0,0.0,193.0,1.0,155.0,0.0,45.0,3.0,251.0,411.0,45.0,1019.0,1744252583.140499,0.0,2025-04-09 22:36:23.140,FORWARD,1
86.0,19850.204271102462,3747.6499375879694,-66545.09950221771,-65139.51005214573,-38928.267529996345,-36601.02624905422,-33736.1137552397,-22667.999287605202,0.0,0.0,0.0,193.0,1.0,155.0,0.0,45.0,3.0,251.0,411.0,45.0,1019.0,1744252583.1405077,0.0,2025-04-09 22:36:23.140,FORWARD,1
87.0,19763.166578193497,3718.726780262802,-66599.72716566648,-65196.50700050676,-38967.98657989342,-36649.46247928888,-33396.50134998576,-22710.199381136823,0.0,0.0,0.0,193.0,1.0,155.0,0.0,44.0,3.0,252.0,411.0,44.0,1020.0,1744252583.1405208,0.0,2025-04-09 22:36:23.140,FORWARD,1
88.0,19706.437850765928,3653.347927731029,-66649.81742499083,-65230.77222475675,-39047.87171457669,-36729.03468954977,-33462.10371996209,-22787.916396607925,0.0,0.0,0.0,193.0,1.0,155.0,0.0,44.0,3.0,250.0,411.0,44.0,1018.0,1744252583.1405299,0.0,2025-04-09 22:36:23.140,FORWARD,1
89.0,19882.07785869573,3703.214669610819,-66649.30333486835,-65220.19984962939,-39067.98828458646,-36740.81405887772,-33360.85031757955,-22805.03783286069,0.0,0.0,0.0,193.0,1.0,155.0,0.0,45.0,3.0,251.0,411.0,45.0,1019.0,1744252583.1405387,0.0,2025-04-09 22:36:23.140,FORWARD,1
90.0,19852.21592810344,3740.586786340092,-66558.3093831908,-65159.73838087778,-38942.75146040338,-36610.72690614783,-33808.22048285252,-22680.002174377703,0.0,0.0,0.0,193.0,1.0,155.0,0.0,45.0,3.0,251.0,411.0,45.0,1019.0,1744252583.1405475,0.0,2025-04-09 22:36:23.140,FORWARD,1
91.0,19764.39592413854,3713.8764517160002,-66610.61246521623,-65200.91029416446,-38986.89615570261,-36665.73454925234,-33403.49744600027,-22720.659997541905,0.0,0.0,0.0,193.0,1.0,154.0,0.0,44.0,3.0,249.0,410.0,44.0,1017.0,1744252583.140556,0.0,2025-04-09 22:36:23.140,FORWARD,1
92.0,19682.208559776373,3648.855227095512,-66655.67358203811,-65248.4524546209,-39043.043737774344,-36722.37386970209,-33512.10457230861,-22783.378992483496,0.0,0.0,0.0,193.0,1.0,154.0,0.0,44.0,3.0,250.0,410.0,44.0,1018.0,1744252583.140565,0.0,2025-04-09 22:36:23.140,FORWARD,1
93.0,19859.88257645161,3700.0630736426206,-66648.72218951251,-65209.78393671322,-39076.23607829047,-36748.88303862608,-33300.47825580576,-22804.769611927226,0.0,0.0,0.0,193.0,1.0,155.0,0.0,45.0,3.0,252.0,411.0,45.0,1020.0,1744252583.1405737,0.0,2025-04-09 22:36:23.140,FORWARD,1
94.0,19851.61243100315,3731.824902513612,-66574.82732234328,-65184.63822420099,-38958.107108844175,-36626.30607203318,-33813.78606722189,-22694.195532106824,0.0,0.0,0.0,193.0,1.0,155.0,0.0,45.0,3.0,253.0,411.0,45.0,1021.0,1744252583.1405826,0.0,2025-04-09 22:36:23.140,FORWARD,1
95.0,19783.305499947728,3723.1971291538634,-66590.5182469509,-65176.65865143045,-38973.86508868517,-36651.2506188453,-33426.877370700524,-22708.143020646934,0.0,0.0,0.0,193.0,1.0,156.0,0.0,44.0,3.0,252.0,412.0,44.0,1020.0,1744252583.1405911,0.0,2025-04-09 22:36:23.140,FORWARD,1
96.0,19691.03749883622,3672.235151795763,-66631.39958755966,-65230.5487073122,-39017.29452816183,-36687.84042451864,-33511.32226125267,-22752.757102579726,0.0,0.0,0.0,193.0,1.0,155.0,0.0,44.0,3.0,251.0,411.0,44.0,1019.0,1744252583.1406002,0.0,2025-04-09 22:36:23.140,FORWARD,1
97.0,19834.513346494838,3695.950352662844,-66640.51909929742,-65192.0366516157,-39080.61702020372,-36743.675082167996,-33269.27522054616,-22802.46738224833,0.0,0.0,0.0,193.0,1.0,155.0,0.0,45.0,3.0,249.0,411.0,45.0,1017.0,1744252583.140609,0.0,2025-04-09 22:36:23.140,FORWARD,1
98.0,19873.5394923138,3739.5139026062375,-66584.10329629223,-65188.8850556475,-38976.569649764264,-36630.687013946415,-33770.93777310107,-22709.595884036527,0.0,0.0,0.0,193.0,1.0,154.0,0.0,45.0,3.0,249.0,410.0,45.0,1017.0,1744252583.1406193,0.0,2025-04-09 22:36:23.140,FORWARD,1
99.0,19805.791354869765,3733.9259664924107,-66578.67182238959,-65159.000773310756,-38967.76306244887,-36637.750165194295,-33491.36215345409,-22708.165372391388,0.0,0.0,0.0,193.0,1.0,154.0,0.0,45.0,3.0,250.0,410.0,45.0,1018.0,1744252583.1406314,0.0,2025-04-09 22:36:23.140,FORWARD,1
100.0,19708.225990322353,3691.6588177274252,-66625.38696830117,-65228.11236716657,-39002.162397165586,-36670.92015396597,-33498.02297330177,-22745.962172265314,0.0,0.0,0.0,193.0,1.0,154.0,0.0,44.0,3.0,250.0,410.0,44.0,1018.0,1744252583.1406407,0.0,2025-04-09 22:36:23.140,FORWARD,1
