Sample Index,EXG Channel 0,EXG Channel 1,EXG Channel 2,EXG Channel 3,EXG Channel 4,EXG Channel 5,EXG Channel 6,EXG Channel 7,Accel Channel 0,Accel Channel 1,Accel Channel 2,Not Used,Digital Channel 0 (D11),Digital Channel 1 (D12),Digital Channel 2 (D13),Digital Channel 3 (D17),Not Used,Digital Channel 4 (D18),Analog Channel 0,Analog Channel 1,Analog Channel 2,Timestamp,Marker Channel,Timestamp (Formatted),Stimulus_Direction,Stimulus_Number
49.0,16265.207977915763,2951.5255035788423,-64345.196109437486,-62456.9430895976,-37215.967442508634,-34807.72343966048,-29937.68065424927,-22562.052018887047,0.0,0.0,0.0,193.0,1.0,154.0,0.0,10.0,3.0,249.0,410.0,10.0,1017.0,1744252661.4388204,0.0,2025-04-09 22:37:41.438,FORWARD,11
50.0,16239.682285747802,2905.2573925563565,-64365.75971433637,-62455.8925576082,-37271.42212050225,-34857.61253328473,-29943.2685903631,-22606.844914775484,0.0,0.0,0.0,193.0,1.0,155.0,0.0,9.0,3.0,249.0,411.0,9.0,1017.0,1744252661.4388292,0.0,2025-04-09 22:37:41.438,FORWARD,11
51.0,16375.33502284706,2924.904575932572,-64373.18049349553,-62461.36873499975,-37292.56687075697,-34870.308324135345,-29818.970539447135,-22620.568885871042,0.0,0.0,0.0,193.0,1.0,154.0,0.0,8.0,3.0,251.0,410.0,8.0,1019.0,1744252661.4388375,0.0,2025-04-09 22:37:41.438,FORWARD,11
52.0,16353.609127236501,2949.044459944303,-64306.81816420772,-62427.17056598313,-37192.833386997394,-34775.648686367116,-30289.787684653722,-22533.821765639994,0.0,0.0,0.0,193.0,1.0,154.0,0.0,8.0,3.0,249.0,410.0,8.0,1017.0,1744252661.4388463,0.0,2025-04-09 22:37:41.438,FORWARD,11
53.0,16280.138943211907,2944.8646837311608,-64341.44101636899,-62449.47760694953,-37216.325070419916,-34807.90225361613,-29924.426069787274,-22561.381466553386,0.0,0.0,0.0,193.0,1.0,155.0,0.0,7.0,3.0,249.0,411.0,7.0,1017.0,1744252661.4388552,0.0,2025-04-09 22:37:41.438,FORWARD,11
54.0,16233.26733508913,2906.643200712586,-64357.35545842117,-62468.63305194773,-37252.51254469306,-34848.2248006135,-29998.343288700973,-22600.742888539182,0.0,0.0,0.0,193.0,1.0,154.0,0.0,7.0,3.0,250.0,410.0,7.0,1018.0,1744252661.4388635,0.0,2025-04-09 22:37:41.438,FORWARD,11
55.0,16370.283528600161,2933.3311835922223,-64358.473045643936,-62445.5884034143,-37288.610611988384,-34881.73006555201,-29728.043643002948,-22626.827374318527,0.0,0.0,0.0,193.0,1.0,154.0,0.0,6.0,3.0,249.0,410.0,6.0,1017.0,1744252661.438872,0.0,2025-04-09 22:37:41.438,FORWARD,11
56.0,16359.934670917353,2949.4467913444987,-64313.14370788857,-62452.71860989554,-37201.95289873516,-34788.47858768447,-30293.587481211125,-22546.495204746152,0.0,0.0,0.0,193.0,1.0,155.0,0.0,6.0,3.0,252.0,411.0,6.0,1020.0,1744252661.4388807,0.0,2025-04-09 22:37:41.438,FORWARD,11
57.0,16298.959112043276,2954.3641751246664,-64324.431338838505,-62436.58065039881,-37209.194863938676,-34801.867282613195,-29940.92165719529,-22545.93641113477,0.0,0.0,0.0,193.0,1.0,155.0,0.0,6.0,3.0,251.0,411.0,6.0,1019.0,1744252661.4388895,0.0,2025-04-09 22:37:41.438,FORWARD,11
58.0,16238.967029925232,2923.317602076245,-64341.485719857905,-62466.26376703546,-37230.67489036023,-34822.78851542336,-30023.109021557455,-22565.00244915515,0.0,0.0,0.0,193.0,1.0,154.0,0.0,5.0,3.0,250.0,410.0,5.0,1018.0,1744252661.438898,0.0,2025-04-09 22:37:41.438,FORWARD,11
59.0,16348.490577756236,2929.889014946105,-64352.41572289655,-62429.673961362125,-37292.41040854578,-34880.74658879597,-29694.11369491979,-22615.47268813523,0.0,0.0,0.0,193.0,1.0,154.0,0.0,5.0,3.0,250.0,410.0,5.0,1018.0,1744252661.438912,0.0,2025-04-09 22:37:41.438,FORWARD,11
60.0,16389.43897359836,2969.3174921652667,-64298.79388794827,-62440.581612656315,-37193.74980852006,-34770.887764798135,-30253.309637702663,-22525.909248102816,0.0,0.0,0.0,193.0,1.0,155.0,0.0,5.0,3.0,252.0,411.0,5.0,1020.0,1744252661.9088273,0.0,2025-04-09 22:37:41.908,FORWARD,11
61.0,16324.954190844797,2971.4185561440654,-64296.044623380265,-62400.504934847944,-37193.16866316422,-34782.1083405147,-29975.835082034482,-22527.809146381518,0.0,0.0,0.0,193.0,1.0,155.0,0.0,5.0,3.0,251.0,411.0,5.0,1019.0,1744252661.9088626,0.0,2025-04-09 22:37:41.908,FORWARD,11
62.0,16233.312038578038,2927.117398633647,-64346.7383798049,-62474.332746783824,-37236.79926834098,-34822.72146019,-30016.872884854423,-22570.14335037987,0.0,0.0,0.0,193.0,1.0,154.0,0.0,5.0,3.0,250.0,410.0,5.0,1018.0,1744252661.9088829,0.0,2025-04-09 22:37:41.908,FORWARD,11
63.0,16317.891039596921,2920.5236340193314,-64349.241775183895,-62424.46600490404,-37298.870062693364,-34884.41227488664,-29733.206895972122,-22623.251095205676,0.0,0.0,0.0,193.0,1.0,155.0,0.0,5.0,3.0,252.0,411.0,5.0,1020.0,1744252661.9089031,0.0,2025-04-09 22:37:41.908,FORWARD,11
64.0,16397.306787646627,2963.059003717781,-64315.892972456575,-62453.65738316267,-37226.00337576907,-34795.89936684363,-30172.128101840986,-22560.107417119434,0.0,0.0,0.0,193.0,1.0,155.0,0.0,4.0,3.0,251.0,411.0,4.0,1019.0,1744252661.9089231,0.0,2025-04-09 22:37:41.908,FORWARD,11
65.0,16327.099958312507,2962.4555066174876,-64298.570370503716,-62404.215324427525,-37204.12101794732,-34783.58355564875,-30061.732835976225,-22536.772195908095,0.0,0.0,0.0,193.0,1.0,155.0,0.0,4.0,3.0,248.0,411.0,4.0,1016.0,1744252661.9089413,0.0,2025-04-09 22:37:41.908,FORWARD,11
66.0,16237.7823874691,2934.2923086038004,-64344.12322570363,-62475.36092702877,-37226.91979729173,-34808.03636408286,-29996.979832289202,-22554.184204838777,0.0,0.0,0.0,193.0,1.0,154.0,0.0,4.0,3.0,249.0,410.0,4.0,1017.0,1744252661.9089584,0.0,2025-04-09 22:37:41.908,FORWARD,11
67.0,16288.632606104924,2914.466311271943,-64338.84821401218,-62421.426167658115,-37273.38907401432,-34856.85257397325,-29792.908405412247,-22594.19382741378,0.0,0.0,0.0,193.0,1.0,155.0,0.0,4.0,3.0,252.0,411.0,4.0,1020.0,1744252661.9089787,0.0,2025-04-09 22:37:41.908,FORWARD,11
68.0,16386.645005541446,2943.0765441747362,-64334.288458143295,-62462.6427844337,-37242.45425968817,-34818.720497932496,-30021.678509912315,-22578.99464118417,0.0,0.0,0.0,193.0,1.0,155.0,0.0,4.0,3.0,250.0,411.0,4.0,1018.0,1744252661.9089932,0.0,2025-04-09 22:37:41.908,FORWARD,11
69.0,16333.112577570986,2956.6440530591076,-64283.19237031846,-62396.727490035,-37180.45052056915,-34764.29400018382,-30140.679197392372,-22521.729471889674,0.0,0.0,0.0,193.0,1.0,154.0,0.0,4.0,3.0,249.0,410.0,4.0,1017.0,1744252661.9090025,0.0,2025-04-09 22:37:41.909,FORWARD,11
70.0,16257.876605734422,2941.9142534630605,-64327.38176910661,-62456.227833775025,-37209.59719533887,-34794.49120694294,-29956.232602147174,-22552.70898970473,0.0,0.0,0.0,193.0,1.0,154.0,0.0,4.0,3.0,249.0,410.0,4.0,1017.0,1744252661.9090116,0.0,2025-04-09 22:37:41.909,FORWARD,11
71.0,16268.001945972675,2913.1028548601694,-64334.288458143295,-62429.40574042866,-37263.75547215408,-34850.3258645923,-29879.432008198743,-22605.794382786084,0.0,0.0,0.0,193.0,1.0,155.0,0.0,4.0,3.0,252.0,411.0,4.0,1020.0,1744252661.9090204,0.0,2025-04-09 22:37:41.909,FORWARD,11
72.0,16385.952101463332,2939.500265061887,-64341.753940791365,-62458.4406564761,-37268.44933848969,-34845.85551570124,-29901.470828231675,-22611.71759506674,0.0,0.0,0.0,193.0,1.0,155.0,0.0,4.0,3.0,251.0,411.0,4.0,1019.0,1744252661.9090292,0.0,2025-04-09 22:37:41.909,FORWARD,11
73.0,16345.763664932689,2958.7451170379063,-64273.40230624704,-62401.421356370614,-37175.913116444724,-34757.78964254733,-30228.99093973529,-22522.82470736798,0.0,0.0,0.0,193.0,1.0,154.0,0.0,3.0,3.0,250.0,410.0,3.0,1018.0,1744252661.909038,0.0,2025-04-09 22:37:41.909,FORWARD,11
74.0,16265.45384710477,2946.5410645653087,-64320.8327079812,-62447.17537727063,-37213.799323296465,-34798.022782566884,-29926.057747132512,-22568.914004434828,0.0,0.0,0.0,193.0,1.0,155.0,0.0,3.0,3.0,252.0,411.0,3.0,1020.0,1744252661.90908,0.0,2025-04-09 22:37:41.909,FORWARD,11
75.0,16235.278992090107,2907.1572908350577,-64335.741321532885,-62446.03543830341,-37258.77103314055,-34844.04502440036,-29956.41141610282,-22599.982929227703,0.0,0.0,0.0,193.0,1.0,155.0,0.0,3.0,3.0,251.0,411.0,3.0,1019.0,1744252661.909089,0.0,2025-04-09 22:37:41.909,FORWARD,11
76.0,16380.207703138318,2941.0648871737585,-64336.07659769972,-62437.47472017702,-37274.908992637276,-34852.78455648239,-29782.71600994063,-22607.403708386864,0.0,0.0,0.0,193.0,1.0,154.0,0.0,3.0,3.0,250.0,410.0,3.0,1018.0,1744252661.909098,0.0,2025-04-09 22:37:41.909,FORWARD,11
77.0,16367.958947176809,2972.5137916223757,-64263.99222183135,-62400.504934847944,-37170.191069864166,-34746.278494152844,-30276.555451936183,-22514.062823541502,0.0,0.0,0.0,193.0,1.0,155.0,0.0,3.0,3.0,250.0,411.0,3.0,1018.0,1744252661.9091089,0.0,2025-04-09 22:37:41.909,FORWARD,11
78.0,16297.618007375957,2970.144506710113,-64296.26814082482,-62414.273609432414,-37195.068561442924,-34780.85664282521,-29906.67878468976,-22544.617658211908,0.0,0.0,0.0,193.0,1.0,155.0,0.0,3.0,3.0,252.0,411.0,3.0,1020.0,1744252661.9091177,0.0,2025-04-09 22:37:41.909,FORWARD,11
79.0,16234.40727405635,2920.344820063689,-64331.561545319746,-62454.6408599187,-37248.44452720219,-34834.65729172913,-29991.45895140874,-22595.75844952565,0.0,0.0,0.0,193.0,1.0,154.0,0.0,3.0,3.0,249.0,410.0,3.0,1017.0,1744252661.9091263,0.0,2025-04-09 22:37:41.909,FORWARD,11
80.0,16376.966700192297,2950.0949919337027,-64319.06692016923,-62415.25708618845,-37272.40559725829,-34860.69707401956,-29712.799753284427,-22617.216124202743,0.0,0.0,0.0,193.0,1.0,154.0,0.0,3.0,3.0,248.0,410.0,3.0,1016.0,1744252661.909135,0.0,2025-04-09 22:37:41.909,FORWARD,11
81.0,16378.95600544882,2967.7305183089397,-64268.48492246687,-62422.744920580975,-37177.85771821233,-34761.83530829374,-30277.985963581323,-22538.135652319866,0.0,0.0,0.0,193.0,1.0,154.0,0.0,3.0,3.0,251.0,410.0,3.0,1019.0,1744252661.909144,0.0,2025-04-09 22:37:41.909,FORWARD,11
82.0,16314.784147117633,2972.469088133465,-64279.95136737244,-62403.522420349414,-37187.84894798386,-34777.23566022344,-29928.807011700515,-22538.962666864714,0.0,0.0,0.0,193.0,1.0,155.0,0.0,3.0,3.0,252.0,411.0,3.0,1020.0,1744252661.9091525,0.0,2025-04-09 22:37:41.909,FORWARD,11
83.0,16238.452939802759,2928.2349858564125,-64312.92019044402,-62456.92073785314,-37223.07529724542,-34815.904178131124,-30012.46959119673,-22582.32505110801,0.0,0.0,0.0,193.0,1.0,154.0,0.0,3.0,3.0,251.0,410.0,3.0,1019.0,1744252661.9091616,0.0,2025-04-09 22:37:41.909,FORWARD,11
84.0,16354.95023190382,2936.996869682893,-64311.132050887594,-62409.73620530799,-37270.7962716575,-34867.24613514497,-29698.338174621844,-22624.167516728347,0.0,0.0,0.0,193.0,1.0,154.0,0.0,3.0,3.0,249.0,410.0,3.0,1017.0,1744252661.90917,0.0,2025-04-09 22:37:41.909,FORWARD,11
85.0,16398.156153935928,2970.725652065951,-64267.501445710834,-62433.47375791953,-37180.0258374245,-34768.83140430825,-30214.37289886152,-22538.98501860917,0.0,0.0,0.0,193.0,1.0,155.0,0.0,3.0,3.0,252.0,411.0,3.0,1020.0,1744252661.9091787,0.0,2025-04-09 22:37:41.909,FORWARD,11
86.0,16324.194231533318,2968.82575378725,-64267.81437013321,-62399.8790860032,-37177.96947693461,-34779.18026199106,-29954.891497479857,-22532.50301271713,0.0,0.0,0.0,193.0,1.0,155.0,0.0,3.0,3.0,251.0,411.0,3.0,1019.0,1744252661.9091876,0.0,2025-04-09 22:37:41.909,FORWARD,11
87.0,16247.706562007257,2944.529407564331,-64300.89495192707,-62460.5417204549,-37202.77991328,-34803.25309076942,-29988.977907774202,-22562.431998542786,0.0,0.0,0.0,193.0,1.0,154.0,0.0,3.0,3.0,249.0,410.0,3.0,1017.0,1744252661.9091964,0.0,2025-04-09 22:37:41.909,FORWARD,11
88.0,16325.512984456182,2937.890939461105,-64305.32059732921,-62413.60305709876,-37262.57082969795,-34871.09063519128,-29719.751145810027,-22627.944961541292,0.0,0.0,0.0,193.0,1.0,155.0,0.0,3.0,3.0,250.0,411.0,3.0,1018.0,1744252661.9092054,0.0,2025-04-09 22:37:41.909,FORWARD,11
89.0,16385.639177040957,2954.8112100137723,-64298.77153620381,-62470.93528162662,-37212.83819828489,-34818.25111129894,-30109.856141788503,-22588.494132577674,0.0,0.0,0.0,193.0,1.0,155.0,0.0,3.0,3.0,251.0,411.0,3.0,1019.0,1744252661.9092197,0.0,2025-04-09 22:37:41.909,FORWARD,11
90.0,16328.396359490915,2967.01526248637,-64257.040829305755,-62407.6798448181,-37163.84317443886,-34782.39891319262,-30057.441301040806,-22537.46509998621,0.0,0.0,0.0,193.0,1.0,154.0,0.0,3.0,3.0,250.0,410.0,3.0,1018.0,1744252661.9092288,0.0,2025-04-09 22:37:41.909,FORWARD,11
91.0,16250.478178319716,2947.278672132334,-64298.61507399262,-62474.39980201719,-37189.771198007016,-34808.84102688325,-29962.64755280585,-22563.907213676837,0.0,0.0,0.0,193.0,1.0,155.0,0.0,3.0,3.0,250.0,411.0,3.0,1018.0,1744252661.9092376,0.0,2025-04-09 22:37:41.909,FORWARD,11
92.0,16287.693832837802,2916.790892695295,-64308.49454504187,-62442.07917953482,-37252.37843422633,-34871.984704969494,-29789.868568166326,-22617.976083514226,0.0,0.0,0.0,193.0,1.0,155.0,0.0,3.0,3.0,252.0,411.0,3.0,1020.0,1744252661.9092462,0.0,2025-04-09 22:37:41.909,FORWARD,11
93.0,16394.691633545357,2949.826771000239,-64303.73362347289,-62484.9498254001,-37225.89161704679,-34840.33463482078,-29984.84283504997,-22610.220028188232,0.0,0.0,0.0,193.0,1.0,155.0,0.0,3.0,3.0,250.0,411.0,3.0,1018.0,1744252661.909255,0.0,2025-04-09 22:37:41.909,FORWARD,11
94.0,16342.768531175678,2963.148410695602,-64249.128311768574,-62428.466967161534,-37156.17652609069,-34783.29298297084,-30147.7647003847,-22543.880050644882,0.0,0.0,0.0,193.0,1.0,154.0,0.0,3.0,3.0,249.0,410.0,3.0,1017.0,1744252661.9092636,0.0,2025-04-09 22:37:41.909,FORWARD,11
95.0,16272.31583265255,2957.2922536483115,-64281.426582506494,-62474.73507818402,-37170.034607652975,-34802.98486983596,-29919.173409840278,-22559.258050830133,0.0,0.0,0.0,193.0,1.0,155.0,0.0,3.0,3.0,252.0,411.0,3.0,1020.0,1744252661.9092724,0.0,2025-04-09 22:37:41.909,FORWARD,11
96.0,16262.07873369202,2915.0027531388705,-64303.42069905051,-62466.82256064684,-37236.531047407516,-34876.119777693726,-29859.024865511044,-22627.319112696543,0.0,0.0,0.0,193.0,1.0,155.0,0.0,3.0,3.0,251.0,411.0,3.0,1019.0,1744252661.9092808,0.0,2025-04-09 22:37:41.909,FORWARD,11
97.0,16387.7178892753,2938.4944365613983,-64311.15440263205,-62491.16361035867,-37243.303625977474,-34871.53767008039,-29844.451528126185,-22622.13350798291,0.0,0.0,0.0,193.0,1.0,155.0,0.0,3.0,3.0,251.0,411.0,3.0,1019.0,1744252661.90929,0.0,2025-04-09 22:37:41.909,FORWARD,11
98.0,16353.89969991442,2960.734422294429,-64244.590907644146,-62443.19676675758,-37149.38159577627,-34784.74584636043,-30222.12895418751,-22540.92962037678,0.0,0.0,0.0,193.0,1.0,154.0,0.0,3.0,3.0,249.0,410.0,3.0,1017.0,1744252661.909299,0.0,2025-04-09 22:37:41.909,FORWARD,11
99.0,16273.768696042145,2947.435134343521,-64292.08836461167,-62486.000357389494,-37178.81884322391,-34828.97994863748,-29898.81097064149,-22579.911062706837,0.0,0.0,0.0,193.0,1.0,155.0,0.0,3.0,3.0,252.0,411.0,3.0,1020.0,1744252661.9093072,0.0,2025-04-09 22:37:41.909,FORWARD,11
100.0,16232.7308932222,2897.9483721194715,-64323.13493766009,-62500.37252907426,-37232.55243689447,-34879.3831323842,-29947.11309040941,-22624.94982778428,0.0,0.0,0.0,193.0,1.0,155.0,0.0,3.0,3.0,252.0,411.0,3.0,1020.0,1744252661.9093163,0.0,2025-04-09 22:37:41.909,FORWARD,11
101.0,16370.48469430026,2927.4303230560213,-64331.91917323103,-62489.97896790254,-37258.815736629454,-34897.912728537645,-29753.390521215264,-22643.926458826838,0.0,0.0,0.0,193.0,1.0,154.0,0.0,3.0,3.0,250.0,410.0,3.0,1018.0,1744252661.909325,0.0,2025-04-09 22:37:41.909,FORWARD,11
102.0,16349.943441145831,2951.279634389834,-64277.06799233771,-62470.577653715336,-37164.44667153915,-34796.54756743283,-30285.742018907313,-22556.352324050942,0.0,0.0,0.0,193.0,1.0,154.0,0.0,3.0,3.0,250.0,410.0,3.0,1018.0,1744252661.9093337,0.0,2025-04-09 22:37:41.909,FORWARD,11
103.0,16294.399356174394,2965.942378752515,-64303.35364381715,-62469.84004614831,-37176.963648434124,-34820.039250855356,-29920.02277612958,-22574.144312637367,0.0,0.0,0.0,193.0,1.0,155.0,0.0,3.0,3.0,251.0,411.0,3.0,1019.0,1744252661.9093423,0.0,2025-04-09 22:37:41.909,FORWARD,11
104.0,16240.464596803737,2930.403105068577,-64332.14269067558,-62498.94201742912,-37219.09668673237,-34856.00320768395,-30000.310242213043,-22610.309435166055,0.0,0.0,0.0,193.0,1.0,155.0,0.0,2.0,3.0,252.0,411.0,2.0,1020.0,1744252661.9093559,0.0,2025-04-09 22:37:41.909,FORWARD,11
105.0,16362.61688025199,2937.287442360812,-64339.92109774603,-62464.43092399013,-37269.07518733444,-34893.934118024605,-29691.096209418323,-22627.76614758565,0.0,0.0,0.0,193.0,1.0,154.0,0.0,3.0,3.0,249.0,410.0,3.0,1017.0,1744252661.9093645,0.0,2025-04-09 22:37:41.909,FORWARD,11
106.0,16373.077496657073,2961.7849542838285,-64285.04756510825,-62465.97319435754,-37171.867450698315,-34782.37656144817,-30268.777044865736,-22539.566163965006,0.0,0.0,0.0,193.0,1.0,154.0,0.0,2.0,3.0,249.0,410.0,2.0,1017.0,1744252661.9093733,0.0,2025-04-09 22:37:41.909,FORWARD,11
107.0,16293.192361973806,2950.899654734094,-64314.50716430035,-62456.36194424176,-37197.05786669944,-34815.635957197665,-29931.869200690893,-22572.51263529213,0.0,0.0,0.0,193.0,1.0,155.0,0.0,3.0,3.0,252.0,411.0,3.0,1020.0,1744252661.909382,0.0,2025-04-09 22:37:41.909,FORWARD,11
108.0,16218.06814885952,2912.4546542709654,-64355.187339209006,-62512.3530641023,-37236.95573055217,-34847.598951768756,-30030.730966416715,-22611.71759506674,0.0,0.0,0.0,193.0,1.0,155.0,0.0,2.0,3.0,251.0,411.0,2.0,1019.0,1744252661.9093904,0.0,2025-04-09 22:37:41.909,FORWARD,11
109.0,16323.724844899756,2915.762712450351,-64355.746132820386,-62458.41830473165,-37286.308382309486,-34898.35976342676,-29713.06797421789,-22646.116929783457,0.0,0.0,0.0,193.0,1.0,155.0,0.0,2.0,3.0,252.0,411.0,2.0,1020.0,1744252661.9093993,0.0,2025-04-09 22:37:41.909,FORWARD,11
110.0,16367.511912287702,2944.3058901197783,-64327.44882433997,-62489.88956092472,-37210.89359651728,-34807.27640477138,-30214.663471539436,-22567.125864878402,0.0,0.0,0.0,193.0,1.0,154.0,0.0,2.0,3.0,249.0,410.0,2.0,1017.0,1744252661.9094079,0.0,2025-04-09 22:37:41.909,FORWARD,11
111.0,16310.246742993206,2958.052212959792,-64312.048472410264,-62433.36199919725,-37196.2308521546,-34795.96642207699,-30003.104210269954,-22544.23767855617,0.0,0.0,0.0,193.0,1.0,154.0,0.0,3.0,3.0,250.0,410.0,3.0,1018.0,1744252661.9094164,0.0,2025-04-09 22:37:41.909,FORWARD,11
112.0,16223.030236128598,2918.668439229541,-64355.96965026494,-62500.37252907426,-37226.09278274689,-34828.622320726194,-30003.305375970052,-22582.056830174548,0.0,0.0,0.0,193.0,1.0,155.0,0.0,2.0,3.0,252.0,411.0,2.0,1020.0,1744252661.9094248,0.0,2025-04-09 22:37:41.909,FORWARD,11
113.0,16287.984405515721,2900.787043665295,-64365.960880036466,-62456.384295986216,-37290.44345503372,-34901.75722858396,-29751.06593979191,-22651.81662461956,0.0,0.0,0.0,193.0,1.0,155.0,0.0,2.0,3.0,252.0,411.0,2.0,1020.0,1744252661.9094336,0.0,2025-04-09 22:37:41.909,FORWARD,11
114.0,16374.463304813304,2943.6353377861187,-64344.05617047026,-62491.409479547685,-37227.65740485876,-34826.23068406948,-30109.990252255233,-22591.310452379043,0.0,0.0,0.0,193.0,1.0,155.0,0.0,2.0,3.0,252.0,411.0,2.0,1020.0,1744252661.9094422,0.0,2025-04-09 22:37:41.909,FORWARD,11
115.0,16315.65586515139,2949.089163433214,-64310.57325727621,-62430.6350863737,-37186.194918894165,-34791.585480163754,-30087.39263861092,-22543.388312266867,0.0,0.0,0.0,193.0,1.0,155.0,0.0,2.0,3.0,251.0,411.0,2.0,1019.0,1744252661.9094508,0.0,2025-04-09 22:37:41.909,FORWARD,11
116.0,16232.485024033193,2924.211671854457,-64362.317545690246,-62500.41723256317,-37218.71670707664,-34825.291910802356,-29977.958497757736,-22583.688507519782,0.0,0.0,0.0,193.0,1.0,154.0,0.0,2.0,3.0,249.0,410.0,2.0,1017.0,1744252661.909459,0.0,2025-04-09 22:37:41.909,FORWARD,11
117.0,16257.943660967787,2894.260334284346,-64380.17658951004,-62472.7457729275,-37289.23646083313,-34891.497777878976,-29835.95786523317,-22643.591182660006,0.0,0.0,0.0,193.0,1.0,155.0,0.0,2.0,3.0,252.0,411.0,2.0,1020.0,1744252661.9094677,0.0,2025-04-09 22:37:41.909,FORWARD,11
118.0,16375.357374591516,2935.5887097822083,-64374.11926676265,-62502.160668630684,-37265.2977425215,-34852.60574252674,-29988.150893229355,-22621.619417860442,0.0,0.0,0.0,193.0,1.0,155.0,0.0,2.0,3.0,251.0,411.0,2.0,1019.0,1744252661.9094765,0.0,2025-04-09 22:37:41.909,FORWARD,11
119.0,16336.241821794729,2961.2708641613563,-64310.12622238711,-62433.83138583081,-37186.954878205644,-34778.66617186859,-30191.79763696166,-22547.858661157927,0.0,0.0,0.0,193.0,1.0,155.0,0.0,2.0,3.0,249.0,411.0,2.0,1017.0,1744252661.9094899,0.0,2025-04-09 22:37:41.909,FORWARD,11
120.0,16254.993230699687,2946.317547120756,-64363.05515325727,-62493.912874926675,-37224.86343680185,-34816.77589616489,-29946.017854931102,-22597.27836814861,0.0,0.0,0.0,193.0,1.0,154.0,0.0,2.0,3.0,250.0,410.0,2.0,1018.0,1744252661.9094985,0.0,2025-04-09 22:37:41.909,FORWARD,11
121.0,16242.677419504813,2904.318619289234,-64383.9987378119,-62484.72630795554,-37286.442492776216,-34878.422007372625,-29926.281264577065,-22658.276278767145,0.0,0.0,0.0,193.0,1.0,154.0,0.0,2.0,3.0,250.0,410.0,2.0,1018.0,1744252661.9095068,0.0,2025-04-09 22:37:41.909,FORWARD,11
122.0,16373.390421079448,2936.2592621158674,-64388.62554891415,-62495.83512494983,-37293.215071346174,-34869.4813095905,-29865.77509233655,-22639.321999469044,0.0,0.0,0.0,193.0,1.0,155.0,0.0,2.0,3.0,253.0,411.0,2.0,1021.0,1744252661.9095154,0.0,2025-04-09 22:37:41.909,FORWARD,11
123.0,16338.007609606697,2955.794686769806,-64322.889068471086,-62451.57867092833,-37198.89070974478,-34776.72157010098,-30272.621544912046,-22551.65845771533,0.0,0.0,0.0,193.0,1.0,155.0,0.0,2.0,3.0,252.0,411.0,2.0,1020.0,1744252661.909524,0.0,2025-04-09 22:37:41.909,FORWARD,11
124.0,16258.904785979366,2942.405991841077,-64365.22327246944,-62486.89442716771,-37225.17636122422,-34819.815733410804,-29933.456174547217,-22595.75844952565,0.0,0.0,0.0,193.0,1.0,154.0,0.0,2.0,3.0,249.0,410.0,2.0,1017.0,1744252661.9095323,0.0,2025-04-09 22:37:41.909,FORWARD,11
125.0,16206.400538253849,2884.224401023913,-64395.48753446192,-62509.22381987856,-37285.52607125355,-34871.60472531375,-29995.25874796614,-22642.652409392886,0.0,0.0,0.0,193.0,1.0,154.0,0.0,2.0,3.0,249.0,410.0,2.0,1017.0,1744252661.9095411,0.0,2025-04-09 22:37:41.909,FORWARD,11
126.0,16340.13102532995,2900.9658576209376,-64401.36604325367,-62500.86426745228,-37315.81268499049,-34900.32671693882,-29787.678097209704,-22667.95458411629,0.0,0.0,0.0,193.0,1.0,155.0,0.0,2.0,3.0,251.0,411.0,2.0,1019.0,1744252661.9095497,0.0,2025-04-09 22:37:41.909,FORWARD,11
127.0,16325.982371089742,2922.24471834239,-64337.4847576004,-62489.151953357694,-37206.64676507077,-34803.00722158042,-30320.454278046403,-22588.762353511138,0.0,0.0,0.0,193.0,1.0,155.0,0.0,2.0,3.0,252.0,411.0,2.0,1020.0,1744252661.909558,0.0,2025-04-09 22:37:41.909,FORWARD,11
128.0,16255.21674814424,2920.5012822748763,-64362.228138712424,-62490.38129930274,-37225.690451346694,-34830.18694283807,-29939.73701473916,-22607.47076362023,0.0,0.0,0.0,193.0,1.0,154.0,0.0,2.0,3.0,250.0,410.0,2.0,1018.0,1744252661.9095664,0.0,2025-04-09 22:37:41.909,FORWARD,11
129.0,16201.080823073486,2891.444014482977,-64373.0463830288,-62514.051796680906,-37247.773974868534,-34846.34725407926,-30038.46466999825,-22618.311359681054,0.0,0.0,0.0,193.0,1.0,155.0,0.0,2.0,3.0,250.0,411.0,2.0,1018.0,1744252661.9095752,0.0,2025-04-09 22:37:41.909,FORWARD,11
130.0,16326.742330401223,2907.023180368326,-64376.24268248591,-62479.428944519634,-37297.99834465961,-34894.09058023579,-29729.921189537192,-22655.61642117696,0.0,0.0,0.0,193.0,1.0,155.0,0.0,2.0,3.0,250.0,411.0,2.0,1018.0,1744252661.9095836,0.0,2025-04-09 22:37:41.909,FORWARD,11
131.0,16337.828795651056,2929.509035290365,-64337.12712968912,-62506.11692739927,-37215.69922157517,-34806.22587278198,-30303.444600515915,-22589.4329058448,0.0,0.0,0.0,193.0,1.0,155.0,0.0,2.0,3.0,253.0,411.0,2.0,1021.0,1744252661.9095924,0.0,2025-04-09 22:37:41.909,FORWARD,11
132.0,16277.277919921627,2938.829712728228,-64333.4837953429,-62473.013993860965,-37205.68564005919,-34815.278329286375,-29980.21602394772,-22584.403763342354,0.0,0.0,0.0,193.0,1.0,155.0,0.0,2.0,3.0,251.0,411.0,2.0,1019.0,1744252661.909601,0.0,2025-04-09 22:37:41.909,FORWARD,11
133.0,16200.9243608623,2900.2282500539127,-64362.652821857075,-62525.13826193074,-37231.770125838535,-34841.8769051882,-30034.46370774075,-22612.388147400397,0.0,0.0,0.0,193.0,1.0,154.0,0.0,2.0,3.0,250.0,410.0,2.0,1018.0,1744252661.909615,0.0,2025-04-09 22:37:41.909,FORWARD,11
134.0,16303.56357140107,2901.837575654695,-64363.03280151282,-62471.963461871565,-37289.34821955541,-34899.27618494942,-29722.232189444567,-22651.615458919463,0.0,0.0,0.0,193.0,1.0,154.0,0.0,2.0,3.0,250.0,410.0,2.0,1018.0,1744252661.9096236,0.0,2025-04-09 22:37:41.909,FORWARD,11
135.0,16348.579984734059,2920.791854952795,-64339.87639425712,-62517.29279962693,-37223.879960045815,-34827.84000967026,-30206.236863879785,-22600.228798416712,0.0,0.0,0.0,193.0,1.0,155.0,0.0,2.0,3.0,252.0,411.0,2.0,1020.0,1744252661.909632,0.0,2025-04-09 22:37:41.909,FORWARD,11
136.0,16280.898902523388,2920.322468319234,-64322.86671672663,-62467.44840949159,-37206.400895881765,-34819.189884566054,-30031.60268445047,-22581.94507145227,0.0,0.0,0.0,193.0,1.0,155.0,0.0,2.0,3.0,252.0,411.0,2.0,1020.0,1744252661.9096406,0.0,2025-04-09 22:37:41.909,FORWARD,11
137.0,16213.039006357076,2911.962915892949,-64348.25829842786,-62519.37151186127,-37220.39308791079,-34830.29870156034,-30021.56675119004,-22602.598083328972,0.0,0.0,0.0,193.0,1.0,155.0,0.0,2.0,3.0,251.0,411.0,2.0,1019.0,1744252661.9096491,0.0,2025-04-09 22:37:41.909,FORWARD,11
138.0,16283.201132202284,2905.4585582564546,-64344.570260592736,-62462.08399082232,-37278.261754305575,-34885.52986210941,-29792.32726005641,-22654.297668254098,0.0,0.0,0.0,193.0,1.0,154.0,0.0,2.0,3.0,249.0,410.0,2.0,1017.0,1744252661.9096577,0.0,2025-04-09 22:37:41.909,FORWARD,11
139.0,16367.7130779878,2937.53331154982,-64334.5343273323,-62505.20050587661,-37236.77691659652,-34827.90706490363,-30100.222539928265,-22608.029557231614,0.0,0.0,0.0,193.0,1.0,154.0,0.0,2.0,3.0,250.0,410.0,2.0,1018.0,1744252661.909666,0.0,2025-04-09 22:37:41.909,FORWARD,11
140.0,16303.451812678793,2941.958956951971,-64295.39642279106,-62444.44846444708,-37184.227965382095,-34790.26672724089,-30111.174894711367,-22557.2240420847,0.0,0.0,0.0,193.0,1.0,155.0,0.0,2.0,3.0,252.0,411.0,2.0,1020.0,1744252661.909675,0.0,2025-04-09 22:37:41.909,FORWARD,11
141.0,16215.028311613598,2915.5838984947086,-64348.34770540568,-62515.9069914707,-37217.308547175955,-34828.68937595956,-29957.59605855895,-22596.920740237325,0.0,0.0,0.0,193.0,1.0,154.0,0.0,2.0,3.0,250.0,410.0,2.0,1018.0,1744252661.9096832,0.0,2025-04-09 22:37:41.909,FORWARD,11
142.0,16228.081730375498,2878.0776712987035,-64362.63047011262,-62490.291892324916,-37286.48719626513,-34893.46473139104,-29843.266885670055,-22652.062493808568,0.0,0.0,0.0,193.0,1.0,154.0,0.0,2.0,3.0,250.0,410.0,2.0,1018.0,1744252661.9096918,0.0,2025-04-09 22:37:41.909,FORWARD,11
143.0,16354.391438292438,2922.669401487041,-64354.136807219606,-62513.53770655843,-37264.64954193229,-34862.48521357599,-29953.036302690067,-22629.10725225297,0.0,0.0,0.0,193.0,1.0,155.0,0.0,2.0,3.0,251.0,411.0,2.0,1019.0,1744252661.9097004,0.0,2025-04-09 22:37:41.909,FORWARD,11
144.0,16319.030978564142,2951.301986134289,-64281.53834122877,-62441.81095860135,-37178.10358740135,-34774.21817472198,-30202.280605111195,-22535.699312174238,0.0,0.0,0.0,193.0,1.0,155.0,0.0,2.0,3.0,251.0,411.0,2.0,1019.0,1744252661.9097087,0.0,2025-04-09 22:37:41.909,FORWARD,11
145.0,16233.73672172269,2928.480855045421,-64336.90361224456,-62500.12665988525,-37220.14721872177,-34820.039250855356,-29928.15881111131,-22585.32018486502,0.0,0.0,0.0,193.0,1.0,155.0,0.0,2.0,3.0,252.0,411.0,2.0,1020.0,1744252661.909717,0.0,2025-04-09 22:37:41.909,FORWARD,11
146.0,16217.039968614576,2891.7122354164408,-64352.88510953011,-62492.37060455926,-37272.96439086967,-34873.6834375481,-29938.239447860655,-22640.43958669181,0.0,0.0,0.0,193.0,1.0,154.0,0.0,2.0,3.0,251.0,410.0,2.0,1019.0,1744252661.909726,0.0,2025-04-09 22:37:41.909,FORWARD,11
147.0,16357.610089494001,2928.123227134136,-64351.320487418234,-62494.15874411568,-37273.81375715897,-34871.40355961365,-29830.81696400845,-22638.830261091025,0.0,0.0,0.0,193.0,1.0,154.0,0.0,2.0,3.0,249.0,410.0,2.0,1017.0,1744252661.9097345,0.0,2025-04-09 22:37:41.909,FORWARD,11
148.0,16333.872536882465,2954.25241640239,-64278.498503982846,-62450.59519417229,-37160.959799404125,-34769.12197698617,-30261.155100006476,-22541.264896543613,0.0,0.0,0.0,193.0,1.0,154.0,0.0,2.0,3.0,252.0,410.0,2.0,1020.0,1744252661.9097476,0.0,2025-04-09 22:37:41.909,FORWARD,11
149.0,16260.558815069058,2947.703355276985,-64315.892972456575,-62473.61749096126,-37186.23962238307,-34799.60975642321,-29894.139456050332,-22560.822672942006,0.0,0.0,0.0,193.0,1.0,155.0,0.0,2.0,3.0,251.0,411.0,2.0,1019.0,1744252661.909756,0.0,2025-04-09 22:37:41.909,FORWARD,11
150.0,16208.345140021462,2899.0436075977814,-64342.603307080666,-62495.92453192765,-37236.531047407516,-34846.01197791243,-29967.296715652552,-22607.224894431223,0.0,0.0,0.0,193.0,1.0,154.0,0.0,2.0,3.0,250.0,410.0,2.0,1018.0,1744252661.9097645,0.0,2025-04-09 22:37:41.909,FORWARD,11
151.0,16338.476996240259,2919.0707706297367,-64359.74709507789,-62488.816677190865,-37285.50371950909,-34891.207205201055,-29720.198180699135,-22651.10136879699,0.0,0.0,0.0,193.0,1.0,154.0,0.0,2.0,3.0,250.0,410.0,2.0,1018.0,1744252661.9097733,0.0,2025-04-09 22:37:41.909,FORWARD,11
152.0,16331.413844992381,2941.3554598516776,-64305.0300246513,-62486.26857832296,-37192.07342768591,-34788.70210512902,-30286.770199152255,-22567.818768956517,0.0,0.0,0.0,193.0,1.0,155.0,0.0,2.0,3.0,253.0,411.0,2.0,1021.0,1744252661.909782,0.0,2025-04-09 22:37:41.909,FORWARD,11
153.0,16266.616137816447,2938.0697534167475,-64319.312789358235,-62474.37745027274,-37198.86835800033,-34809.198654794534,-29925.96834015469,-22578.078219661504,0.0,0.0,0.0,193.0,1.0,155.0,0.0,2.0,3.0,251.0,411.0,2.0,1019.0,1744252661.9097905,0.0,2025-04-09 22:37:41.909,FORWARD,11
154.0,16195.805811382033,2895.310866273745,-64348.459464127955,-62517.09163392683,-37234.45233517317,-34846.526068034895,-30013.877751097414,-22612.90223752287,0.0,0.0,0.0,193.0,1.0,154.0,0.0,2.0,3.0,249.0,410.0,2.0,1017.0,1744252661.9097989,0.0,2025-04-09 22:37:41.909,FORWARD,11
155.0,16307.296312725106,2897.993075608382,-64363.25631895737,-62486.849723678795,-37295.89728068081,-34902.51718789544,-29697.39940135472,-22658.589203189516,0.0,0.0,0.0,193.0,1.0,154.0,0.0,2.0,3.0,250.0,410.0,2.0,1018.0,1744252661.9098072,0.0,2025-04-09 22:37:41.909,FORWARD,11
156.0,16342.656772453402,2935.275785359834,-64307.86869619712,-62498.02559590645,-37190.70997127414,-34789.79734060733,-30258.495242416295,-22558.073408374003,0.0,0.0,0.0,193.0,1.0,155.0,0.0,2.0,3.0,252.0,411.0,2.0,1020.0,1744252661.9098155,0.0,2025-04-09 22:37:41.909,FORWARD,11
157.0,16275.98151874322,2938.0026981833817,-64308.74041423088,-62463.60390944528,-37189.01123869553,-34808.25988152741,-29949.795299744048,-22573.85373995945,0.0,0.0,0.0,193.0,1.0,154.0,0.0,2.0,3.0,249.0,410.0,2.0,1017.0,1744252661.9098244,0.0,2025-04-09 22:37:41.909,FORWARD,11
158.0,16188.407383967327,2897.210764552446,-64349.77821705082,-62529.18392767715,-37224.639919357294,-34840.91578017661,-30004.51237017064,-22608.655406076363,0.0,0.0,0.0,193.0,1.0,154.0,0.0,2.0,3.0,250.0,410.0,2.0,1018.0,1744252661.9098327,0.0,2025-04-09 22:37:41.909,FORWARD,11
159.0,16289.750193327689,2897.7695581638286,-64341.21749892444,-62466.12965656873,-37273.0985013364,-34886.89331852118,-29706.854189259317,-22635.835127334016,0.0,0.0,0.0,193.0,1.0,155.0,0.0,2.0,3.0,252.0,411.0,2.0,1020.0,1744252661.9098415,0.0,2025-04-09 22:37:41.909,FORWARD,11
160.0,16356.112522615496,2930.045477157292,-64316.60822827915,-62503.16649713117,-37210.29009941698,-34813.08785832976,-30166.339000027063,-22586.12484766541,0.0,0.0,0.0,193.0,1.0,155.0,0.0,2.0,3.0,250.0,411.0,2.0,1018.0,1744252661.90985,0.0,2025-04-09 22:37:41.909,FORWARD,11
161.0,16300.411975432871,2943.0988959191914,-64288.93676864348,-62438.01116204395,-37181.50105255855,-34792.300735986326,-30043.0914811005,-22553.580707738485,0.0,0.0,0.0,193.0,1.0,154.0,0.0,2.0,3.0,249.0,410.0,2.0,1017.0,1744252661.9098585,0.0,2025-04-09 22:37:41.909,FORWARD,11
162.0,16214.581276724492,2910.666514714541,-64334.95901047695,-62508.08388091134,-37204.81392202544,-34826.45420151403,-29986.899195539856,-22574.61369927093,0.0,0.0,0.0,193.0,1.0,154.0,0.0,2.0,3.0,252.0,410.0,2.0,1020.0,1744252661.9098668,0.0,2025-04-09 22:37:41.909,FORWARD,11
163.0,16269.700678551279,2899.9153256315385,-64334.713141287946,-62452.62920291772,-37254.18892552721,-34882.93705975259,-29761.41479747472,-22615.204467201766,0.0,0.0,0.0,193.0,1.0,155.0,0.0,2.0,3.0,252.0,411.0,2.0,1020.0,1744252661.9098804,0.0,2025-04-09 22:37:41.909,FORWARD,11
164.0,16364.04739189713,2931.5206922913426,-64329.527536574315,-62490.38129930274,-37220.594253610885,-34833.740870206464,-30022.304358757065,-22584.873149975916,0.0,0.0,0.0,193.0,1.0,154.0,0.0,2.0,3.0,249.0,410.0,2.0,1017.0,1744252661.9098887,0.0,2025-04-09 22:37:41.909,FORWARD,11
165.0,16307.631588891934,2939.835541228717,-64287.170980831506,-62426.321199693826,-37168.20176460764,-34792.59130866424,-30110.19141795533,-22542.047207599546,0.0,0.0,0.0,193.0,1.0,154.0,0.0,2.0,3.0,249.0,410.0,2.0,1017.0,1744252661.9098976,0.0,2025-04-09 22:37:41.909,FORWARD,11
166.0,16220.906820405344,2913.3040205602674,-64343.81030128126,-62492.236494092525,-37204.97038423662,-34831.52804750539,-29944.564991541505,-22577.13944639438,0.0,0.0,0.0,193.0,1.0,155.0,0.0,2.0,3.0,252.0,411.0,2.0,1020.0,1744252661.909906,0.0,2025-04-09 22:37:41.909,FORWARD,11
167.0,16228.864041431432,2880.1340317885915,-64363.077505001726,-62469.12479032574,-37269.76809141256,-34898.04683900438,-29856.812042809972,-22630.470708664743,0.0,0.0,0.0,193.0,1.0,155.0,0.0,2.0,3.0,251.0,411.0,2.0,1019.0,1744252661.9099145,0.0,2025-04-09 22:37:41.909,FORWARD,11
168.0,16355.777246448666,2919.2048810964684,-64366.07263875874,-62490.04602313591,-37264.51543146556,-34880.81364402934,-29914.568950482484,-22632.661179621362,0.0,0.0,0.0,193.0,1.0,155.0,0.0,2.0,3.0,250.0,411.0,2.0,1018.0,1744252661.9099233,0.0,2025-04-09 22:37:41.909,FORWARD,11
169.0,16306.446946435804,2931.498340546887,-64304.65004499556,-62427.19291772758,-37178.50591880154,-34791.80899760831,-30225.302901900162,-22544.08121634498,0.0,0.0,0.0,193.0,1.0,155.0,0.0,2.0,3.0,249.0,411.0,2.0,1017.0,1744252661.9099317,0.0,2025-04-09 22:37:41.909,FORWARD,11
170.0,16224.9301344073,2913.2593170713567,-64351.25343218487,-62467.8954443807,-37207.1832069377,-34822.98968112346,-29932.070366390988,-22568.75754222364,0.0,0.0,0.0,193.0,1.0,155.0,0.0,2.0,3.0,252.0,411.0,2.0,1020.0,1744252661.9099402,0.0,2025-04-09 22:37:41.909,FORWARD,11
171.0,16205.39470975336,2881.0728050557145,-64362.89869104609,-62453.54562444039,-37249.78563186951,-34860.4288530861,-29943.089776407454,-22594.70791753625,0.0,0.0,0.0,193.0,1.0,154.0,0.0,2.0,3.0,251.0,410.0,2.0,1019.0,1744252661.9099488,0.0,2025-04-09 22:37:41.909,FORWARD,11
172.0,16337.538222973137,2903.9162878890384,-64371.057077772275,-62453.165644784654,-37269.14224256781,-34872.76701602543,-29789.26507106603,-22609.169496198832,0.0,0.0,0.0,193.0,1.0,154.0,0.0,2.0,3.0,249.0,410.0,2.0,1017.0,1744252661.9099574,0.0,2025-04-09 22:37:41.909,FORWARD,11
173.0,16308.771527859155,2924.189320110002,-64309.70153924246,-62419.6827315906,-37174.05792165493,-34773.21234622149,-30270.676943144437,-22526.669207414296,0.0,0.0,0.0,193.0,1.0,155.0,0.0,2.0,3.0,250.0,411.0,2.0,1018.0,1744252661.909966,0.0,2025-04-09 22:37:41.909,FORWARD,11
174.0,16230.763939710134,2917.14852060658,-64348.124187961126,-62434.68075212011,-37201.95289873516,-34804.30362275882,-29909.29393879103,-22554.161853094323,0.0,0.0,0.0,193.0,1.0,155.0,0.0,2.0,3.0,251.0,411.0,2.0,1019.0,1744252661.9099743,0.0,2025-04-09 22:37:41.909,FORWARD,11
175.0,16173.409363437817,2865.672453126008,-64373.426362684535,-62455.490226208,-37239.79440209799,-34844.581466267286,-29983.211157704733,-22586.81775174353,0.0,0.0,0.0,193.0,1.0,154.0,0.0,2.0,3.0,249.0,410.0,2.0,1017.0,1744252661.9099827,0.0,2025-04-09 22:37:41.909,FORWARD,11
176.0,16310.805536604588,2883.3526829901557,-64371.92879580603,-62422.54375488088,-37271.80210015799,-34868.631943301196,-29702.07091594588,-22601.94988273977,0.0,0.0,0.0,193.0,1.0,154.0,0.0,2.0,3.0,250.0,410.0,2.0,1018.0,1744252661.9099915,0.0,2025-04-09 22:37:41.909,FORWARD,11
177.0,16314.046539550609,2913.9522211494714,-64315.267123611826,-62418.006350756456,-37172.20272686514,-34763.489337383435,-30267.23477449832,-22518.577875921474,0.0,0.0,0.0,193.0,1.0,154.0,0.0,2.0,3.0,249.0,410.0,2.0,1017.0,1744252661.91,0.0,2025-04-09 22:37:41.910,FORWARD,11
178.0,16237.670628746824,2905.659723956552,-64344.88318501511,-62417.559315867344,-37196.677887043705,-34801.12967504617,-29910.031546358055,-22551.099664103946,0.0,0.0,0.0,193.0,1.0,155.0,0.0,2.0,3.0,252.0,411.0,2.0,1020.0,1744252661.9100783,0.0,2025-04-09 22:37:41.910,FORWARD,11
179.0,16171.129485503376,2870.5898369061756,-64369.648917871586,-62457.61364193126,-37224.79638156848,-34826.56596023631,-30004.959405059744,-22576.84887371646,0.0,0.0,0.0,193.0,1.0,154.0,0.0,2.0,3.0,249.0,410.0,2.0,1017.0,1744252661.910087,0.0,2025-04-09 22:37:41.910,FORWARD,11
180.0,16295.740460841711,2889.030026081804,-64368.50897890437,-62408.95389425205,-37275.400731015296,-34875.15865268215,-29685.217700626577,-22613.058699734058,0.0,0.0,0.0,193.0,1.0,154.0,0.0,2.0,3.0,249.0,410.0,2.0,1017.0,1744252662.1563995,0.0,2025-04-09 22:37:42.156,FORWARD,11
181.0,16325.870612367466,2914.175738594024,-64334.891955243584,-62440.9392405676,-37196.16379692123,-34786.77985510586,-30238.870410784533,-22545.2211553122,0.0,0.0,0.0,193.0,1.0,155.0,0.0,2.0,3.0,252.0,411.0,2.0,1020.0,1744252662.1564384,0.0,2025-04-09 22:37:42.156,FORWARD,11
182.0,16265.36444012695,2922.892918931594,-64325.124242916616,-62398.51562959143,-37184.56324154893,-34792.23368075296,-29982.585308859983,-22542.78481516657,0.0,0.0,0.0,193.0,1.0,155.0,0.0,2.0,3.0,252.0,411.0,2.0,1020.0,1744252662.1564584,0.0,2025-04-09 22:37:42.156,FORWARD,11
183.0,16188.765011878611,2895.6461424405747,-64356.506092131865,-62455.490226208,-37205.86445401484,-34817.111172331715,-30009.541512673084,-22576.982984183192,0.0,0.0,0.0,193.0,1.0,154.0,0.0,2.0,3.0,250.0,410.0,2.0,1018.0,1744252662.156478,0.0,2025-04-09 22:37:42.156,FORWARD,11
184.0,16272.137018696907,2888.2924185147785,-64359.76944682234,-62404.10356570525,-37265.43185298823,-34871.649428802666,-29717.873599275783,-22610.398842143877,0.0,0.0,0.0,193.0,1.0,155.0,0.0,2.0,3.0,249.0,411.0,2.0,1017.0,1744252662.1564875,0.0,2025-04-09 22:37:42.156,FORWARD,11
185.0,16346.300106799616,2919.3389915632,-64335.49545234388,-62444.917851080645,-37204.54570109197,-34794.20063426503,-30135.404185700918,-22547.79160592456,0.0,0.0,0.0,193.0,1.0,154.0,0.0,2.0,3.0,250.0,410.0,2.0,1018.0,1744252662.1564972,0.0,2025-04-09 22:37:42.156,FORWARD,11
186.0,16281.815324046056,2925.0610381437587,-64308.36043457514,-62390.245484142964,-37173.90145944375,-34775.49222415593,-30046.37718753543,-22523.49525970164,0.0,0.0,0.0,193.0,1.0,155.0,0.0,2.0,3.0,252.0,411.0,2.0,1020.0,1744252662.1565063,0.0,2025-04-09 22:37:42.156,FORWARD,11
187.0,16195.135259048375,2897.0319505968037,-64351.9910397519,-62458.73122915402,-37198.53308183349,-34804.19186403655,-29976.572689601504,-22553.670114716308,0.0,0.0,0.0,193.0,1.0,155.0,0.0,2.0,3.0,251.0,411.0,2.0,1019.0,1744252662.1565156,0.0,2025-04-09 22:37:42.156,FORWARD,11
188.0,16248.064189918541,2887.130127803103,-64345.665496071044,-62403.90240000516,-37245.292931234,-34852.71750124902,-29787.387524531787,-22592.450391346265,0.0,0.0,0.0,193.0,1.0,154.0,0.0,2.0,3.0,249.0,410.0,2.0,1017.0,1744252662.1565268,0.0,2025-04-09 22:37:42.156,FORWARD,11
189.0,16348.37881903396,2922.4011805535774,-64340.52459484633,-62442.16858651264,-37215.81098029744,-34808.8186751388,-29999.17030324582,-22560.688562475272,0.0,0.0,0.0,193.0,1.0,154.0,0.0,2.0,3.0,249.0,410.0,2.0,1017.0,1744252662.1565356,0.0,2025-04-09 22:37:42.156,FORWARD,11
190.0,16294.801687574589,2935.0746196597365,-64293.85415242364,-62385.417507340615,-37161.76446220451,-34761.61179084919,-30142.10970903751,-22513.861657841404,0.0,0.0,0.0,193.0,1.0,155.0,0.0,2.0,3.0,252.0,411.0,2.0,1020.0,1744252662.1565444,0.0,2025-04-09 22:37:42.156,FORWARD,11
191.0,16205.461764986727,2904.9444681339824,-64349.82292053973,-62455.35611574127,-37196.342610876876,-34807.90225361613,-29943.335645596464,-22558.766312452117,0.0,0.0,0.0,193.0,1.0,154.0,0.0,2.0,3.0,250.0,410.0,2.0,1018.0,1744252662.1565535,0.0,2025-04-09 22:37:42.156,FORWARD,11
192.0,16211.295570289562,2873.5179154298207,-64355.45556014247,-62430.25510671796,-37244.2423992446,-34861.59114379778,-29874.80519709649,-22609.39301364339,0.0,0.0,0.0,193.0,1.0,155.0,0.0,2.0,3.0,250.0,411.0,2.0,1018.0,1744252662.1565628,0.0,2025-04-09 22:37:42.156,FORWARD,11
193.0,16344.780188176655,2913.236965326901,-64346.98424899391,-62443.42028420214,-37232.21716072764,-34840.71461447652,-29884.66231640128,-22594.439696602785,0.0,0.0,0.0,193.0,1.0,155.0,0.0,2.0,3.0,249.0,411.0,2.0,1017.0,1744252662.1566005,0.0,2025-04-09 22:37:42.156,FORWARD,11
194.0,16307.251609236195,2931.5430440357977,-64279.1690563165,-62390.73722252098,-37137.87044738179,-34752.91696225607,-30218.910302985943,-22498.64011986734,0.0,0.0,0.0,193.0,1.0,155.0,0.0,2.0,3.0,251.0,411.0,2.0,1019.0,1744252662.1566124,0.0,2025-04-09 22:37:42.156,FORWARD,11
195.0,16221.510317505637,2911.6946949594853,-64331.427434853016,-62440.581612656315,-37174.21438386612,-34793.55243367582,-29895.10058106191,-22534.93935286276,0.0,0.0,0.0,193.0,1.0,154.0,0.0,2.0,3.0,250.0,410.0,2.0,1018.0,1744252662.1566212,0.0,2025-04-09 22:37:42.156,FORWARD,11
196.0,16189.212046767718,2868.242903738368,-64353.77917930832,-62448.06944704884,-37228.52912289252,-34849.36473958072,-29938.30650309402,-22595.490228592185,0.0,0.0,0.0,193.0,1.0,154.0,0.0,2.0,3.0,250.0,410.0,2.0,1018.0,1744252662.15663,0.0,2025-04-09 22:37:42.156,FORWARD,11
197.0,16337.314705528583,2906.7102559459518,-64348.8394437837,-62435.39600794268,-37244.912951578255,-34857.0760914178,-29773.015352847025,-22607.649577575874,0.0,0.0,0.0,193.0,1.0,155.0,0.0,2.0,3.0,251.0,411.0,2.0,1019.0,1744252662.1566389,0.0,2025-04-09 22:37:42.156,FORWARD,11
198.0,16312.772490116657,2923.3846573096107,-64291.976605889395,-62417.00052225596,-37152.10850859982,-34765.34453217322,-30272.95682107888,-22526.69155915875,0.0,0.0,0.0,193.0,1.0,155.0,0.0,2.0,3.0,251.0,411.0,2.0,1019.0,1744252662.1566477,0.0,2025-04-09 22:37:42.156,FORWARD,11
199.0,16237.268297346629,2919.316639818745,-64327.31471387324,-62432.87026081923,-37172.85092745435,-34798.24630001144,-29902.2084357987,-22546.0705216015,0.0,0.0,0.0,193.0,1.0,154.0,0.0,2.0,3.0,250.0,410.0,2.0,1018.0,1744252662.1566565,0.0,2025-04-09 22:37:42.156,FORWARD,11
200.0,16179.399630951839,2875.8424968531726,-64350.18054845102,-62461.36873499975,-37211.139465706285,-34836.221913841,-29992.308317698044,-22577.653536516853,0.0,0.0,0.0,193.0,1.0,154.0,0.0,2.0,3.0,250.0,410.0,2.0,1018.0,1744252662.156665,0.0,2025-04-09 22:37:42.156,FORWARD,11
201.0,16316.70639714079,2904.318619289234,-64346.98424899391,-62427.438786916595,-37250.165611525255,-34870.06245494634,-29707.770610781983,-22611.67289157783,0.0,0.0,0.0,193.0,1.0,155.0,0.0,2.0,3.0,251.0,411.0,2.0,1019.0,1744252662.156674,0.0,2025-04-09 22:37:42.156,FORWARD,11
202.0,16325.177708289351,2931.8783202026275,-64297.2739693253,-62436.245374231985,-37159.5739912479,-34771.871241554174,-30279.32706824864,-22534.447614484743,0.0,0.0,0.0,193.0,1.0,155.0,0.0,2.0,3.0,251.0,411.0,2.0,1019.0,1744252662.1566827,0.0,2025-04-09 22:37:42.156,FORWARD,11
203.0,16251.841634731489,2922.334125320211,-64318.7316440024,-62426.812938071846,-37180.048189168956,-34803.208387280516,-29937.837116460458,-22561.13559736438,0.0,0.0,0.0,193.0,1.0,154.0,0.0,2.0,3.0,249.0,410.0,2.0,1017.0,1744252662.1566916,0.0,2025-04-09 22:37:42.156,FORWARD,11
204.0,16183.735869376169,2887.420700481022,-64343.385618136606,-62470.17532231514,-37201.10353244586,-34822.60970146772,-30018.728079644214,-22572.84791145896,0.0,0.0,0.0,193.0,1.0,154.0,0.0,2.0,3.0,251.0,410.0,2.0,1019.0,1744252662.1567004,0.0,2025-04-09 22:37:42.156,FORWARD,11
205.0,16283.871684535943,2880.1116800441364,-64359.76944682234,-62433.719627108534,-37270.438643746216,-34886.89331852118,-29690.805636740406,-22626.80502257407,0.0,0.0,0.0,193.0,1.0,155.0,0.0,2.0,3.0,253.0,411.0,2.0,1021.0,1744252662.1567092,0.0,2025-04-09 22:37:42.156,FORWARD,11
206.0,16322.271981510161,2907.4925670018874,-64327.67234178452,-62467.35900251377,-37192.85573874185,-34801.710820402004,-30222.106602443055,-22561.71674272022,0.0,0.0,0.0,193.0,1.0,155.0,0.0,2.0,3.0,251.0,411.0,2.0,1019.0,1744252662.1567175,0.0,2025-04-09 22:37:42.156,FORWARD,11
207.0,16260.402352857871,2920.657744486063,-64315.15536488955,-62417.291094933884,-37179.98113393559,-34797.28517499986,-29995.79518983307,-22550.250297814644,0.0,0.0,0.0,193.0,1.0,154.0,0.0,2.0,3.0,249.0,410.0,2.0,1017.0,1744252662.1567264,0.0,2025-04-09 22:37:42.156,FORWARD,11
208.0,16175.130447760876,2881.028101566804,-64358.98713576641,-62486.11211611178,-37214.022840741025,-34827.97412013699,-30023.24313202419,-22588.337670366487,0.0,0.0,0.0,193.0,1.0,154.0,0.0,2.0,3.0,250.0,410.0,2.0,1018.0,1744252662.1567397,0.0,2025-04-09 22:37:42.156,FORWARD,11
209.0,16250.344067852982,2869.8075258502395,-64360.99879276739,-62434.94897305358,-37269.56692571246,-34888.055609232855,-29747.467308934607,-22630.470708664743,0.0,0.0,0.0,193.0,1.0,155.0,0.0,2.0,3.0,252.0,411.0,2.0,1020.0,1744252662.1567483,0.0,2025-04-09 22:37:42.156,FORWARD,11
210.0,16346.680086455357,2922.4682357869433,-64323.224344637914,-62454.59615642979,-37193.191014908676,-34798.89450060064,-30112.650109845414,-22558.900422918847,0.0,0.0,0.0,193.0,1.0,155.0,0.0,2.0,3.0,251.0,411.0,2.0,1019.0,1744252662.156757,0.0,2025-04-09 22:37:42.156,FORWARD,11
211.0,16287.805591560078,2928.927889934527,-64294.94938790195,-62396.749841779456,-37163.64200873876,-34780.186090491545,-30059.095330130498,-22543.812995411517,0.0,0.0,0.0,193.0,1.0,154.0,0.0,2.0,3.0,250.0,410.0,2.0,1018.0,1744252662.156766,0.0,2025-04-09 22:37:42.156,FORWARD,11
212.0,16207.562828965525,2907.3361047907,-64339.76463553484,-62463.96153735656,-37191.80520675245,-34814.384259508166,-29969.80011103155,-22587.24243488818,0.0,0.0,0.0,193.0,1.0,154.0,0.0,2.0,3.0,251.0,410.0,2.0,1019.0,1744252662.1567745,0.0,2025-04-09 22:37:42.156,FORWARD,11
213.0,16234.183756611796,2874.9707788194155,-64351.476949629425,-62429.7857200844,-37261.56500119746,-34874.06341720383,-29808.42051606423,-22623.58637137251,0.0,0.0,0.0,193.0,1.0,155.0,0.0,2.0,3.0,252.0,411.0,2.0,1020.0,1744252662.156783,0.0,2025-04-09 22:37:42.156,FORWARD,11
214.0,16340.846281152522,2910.890032159094,-64349.509996117355,-62467.31429902486,-37239.257960231065,-34834.90316091814,-29986.474512395205,-22590.2822721341,0.0,0.0,0.0,193.0,1.0,154.0,0.0,2.0,3.0,251.0,410.0,2.0,1019.0,1744252662.156792,0.0,2025-04-09 22:37:42.156,FORWARD,11
215.0,16294.622873618946,2928.838482956706,-64292.93773090097,-62404.97528373901,-37166.88301168478,-34772.94412528803,-30164.997895359746,-22524.992826580146,0.0,0.0,0.0,193.0,1.0,154.0,0.0,2.0,3.0,249.0,410.0,2.0,1017.0,1744252662.1568007,0.0,2025-04-09 22:37:42.156,FORWARD,11
216.0,16220.839765171977,2916.9697066509375,-64335.56250757725,-62459.71470591005,-37188.96653520662,-34805.17534079258,-29928.315273322496,-22563.57193751001,0.0,0.0,0.0,193.0,1.0,155.0,0.0,2.0,3.0,250.0,411.0,2.0,1018.0,1744252662.15681,0.0,2025-04-09 22:37:42.156,FORWARD,11
217.0,16222.292628561572,2884.850249868661,-64340.92692624652,-62435.77598759842,-37235.10053576238,-34855.80204198385,-29884.081171045444,-22606.420231630833,0.0,0.0,0.0,193.0,1.0,155.0,0.0,2.0,3.0,252.0,411.0,2.0,1020.0,1744252662.156819,0.0,2025-04-09 22:37:42.156,FORWARD,11
218.0,16346.90360389991,2910.7559216923623,-64352.035743240805,-62458.97709834303,-37247.86338184636,-34859.08774841878,-29843.95978974817,-22621.060624249058,0.0,0.0,0.0,193.0,1.0,155.0,0.0,2.0,3.0,252.0,411.0,2.0,1020.0,1744252662.1568277,0.0,2025-04-09 22:37:42.156,FORWARD,11
219.0,16311.833716849533,2935.029916170826,-64285.31578604171,-62408.30569366285,-37155.215401079106,-34758.661360581085,-30235.56235260515,-22528.010312081613,0.0,0.0,0.0,193.0,1.0,154.0,0.0,2.0,3.0,250.0,410.0,2.0,1018.0,1744252662.1568365,0.0,2025-04-09 22:37:42.156,FORWARD,11
220.0,16237.7823874691,2919.5848607522084,-64330.82393775272,-62447.13067378172,-37187.446616583664,-34794.20063426503,-29908.422220757275,-22562.722571220707,0.0,0.0,0.0,193.0,1.0,154.0,0.0,2.0,3.0,249.0,410.0,2.0,1017.0,1744252662.1568449,0.0,2025-04-09 22:37:42.156,FORWARD,11
221.0,16195.738756148668,2875.2613514973345,-64350.47112112893,-62455.467874463546,-37232.91006480576,-34835.39489929615,-29958.579535314984,-22593.38916461339,0.0,0.0,0.0,193.0,1.0,155.0,0.0,2.0,3.0,252.0,411.0,2.0,1020.0,1744252662.1568534,0.0,2025-04-09 22:37:42.156,FORWARD,11
222.0,16333.783129904645,2905.5926687231863,-64358.607156110666,-62449.18703427161,-37261.632056430826,-34863.26752463192,-29743.399291443744,-22619.38424341491,0.0,0.0,0.0,193.0,1.0,155.0,0.0,2.0,3.0,251.0,411.0,2.0,1019.0,1744252662.1568625,0.0,2025-04-09 22:37:42.156,FORWARD,11
223.0,16324.060121066586,2938.0026981833817,-64292.04366112276,-62426.455310160556,-37156.95883714662,-34760.69536932652,-30276.46604495836,-22534.067634829004,0.0,0.0,0.0,193.0,1.0,154.0,0.0,2.0,3.0,249.0,410.0,2.0,1017.0,1744252662.1568756,0.0,2025-04-09 22:37:42.156,FORWARD,11
224.0,16249.382942841405,2926.3350875777114,-64318.99986493586,-62429.62925787321,-37178.572974034905,-34788.724456873475,-29904.62242419987,-22558.766312452117,0.0,0.0,0.0,193.0,1.0,155.0,0.0,2.0,3.0,252.0,411.0,2.0,1020.0,1744252662.156885,0.0,2025-04-09 22:37:42.156,FORWARD,11
225.0,16180.517218174604,2870.4557264394434,-64348.52651936132,-62465.392049001704,-37223.27646294552,-34825.984814880474,-30010.346175473474,-22594.126772180414,0.0,0.0,0.0,193.0,1.0,155.0,0.0,2.0,3.0,251.0,411.0,2.0,1019.0,1744252662.1568935,0.0,2025-04-09 22:37:42.156,FORWARD,11
226.0,16303.898847567898,2882.7715376343176,-64357.86954854364,-62434.144310253185,-37271.93621062472,-34872.49879509197,-29702.92028223518,-22631.3424266985,0.0,0.0,0.0,193.0,1.0,154.0,0.0,2.0,3.0,249.0,410.0,2.0,1017.0,1744252662.156902,0.0,2025-04-09 22:37:42.156,FORWARD,11
227.0,16329.13396705794,2924.345782321189,-64291.82014367821,-62429.56220263985,-37157.69644471365,-34753.36399714518,-30272.08510304512,-22528.926733604283,0.0,0.0,0.0,193.0,1.0,155.0,0.0,2.0,3.0,252.0,411.0,2.0,1020.0,1744252662.156911,0.0,2025-04-09 22:37:42.156,FORWARD,11
228.0,16256.781370256112,2919.2719363298343,-64306.12526012961,-62411.18906869758,-37168.04530239646,-34781.32602945877,-29931.288055335055,-22546.31639079051,0.0,0.0,0.0,193.0,1.0,155.0,0.0,2.0,3.0,252.0,411.0,2.0,1020.0,1744252662.1569192,0.0,2025-04-09 22:37:42.156,FORWARD,11
229.0,16170.68245061427,2871.774479362307,-64355.83553979821,-62485.17334284465,-37213.396991896276,-34835.841934185264,-30006.769896360627,-22608.543647354087,0.0,0.0,0.0,193.0,1.0,155.0,0.0,2.0,3.0,251.0,411.0,2.0,1019.0,1744252662.1569278,0.0,2025-04-09 22:37:42.156,FORWARD,11
230.0,16270.706507051767,2871.573313662209,-64357.623679354634,-62437.54177541039,-37263.733120409626,-34888.055609232855,-29697.44410484363,-22642.361836714965,0.0,0.0,0.0,193.0,1.0,154.0,0.0,2.0,3.0,249.0,410.0,2.0,1017.0,1744252662.1569364,0.0,2025-04-09 22:37:42.156,FORWARD,11
231.0,16323.434272221837,2906.017351867837,-64317.52464980181,-62461.972232100044,-37176.31544784492,-34784.254107982415,-30191.574119517103,-22546.69637044625,0.0,0.0,0.0,193.0,1.0,154.0,0.0,2.0,3.0,250.0,410.0,2.0,1018.0,1744252662.1569448,0.0,2025-04-09 22:37:42.156,FORWARD,11
232.0,16264.380963370915,2913.14755834908,-64298.123335614604,-62406.40579538415,-37159.39517729225,-34770.060750253295,-29980.327782669996,-22512.1629252628,0.0,0.0,0.0,193.0,1.0,155.0,0.0,2.0,3.0,252.0,411.0,2.0,1020.0,1744252662.156953,0.0,2025-04-09 22:37:42.156,FORWARD,11
233.0,16177.9691193067,2878.2341335098904,-64346.44780712698,-62481.57471198735,-37198.287212644485,-34807.388163493655,-29982.205329204244,-22555.637068228374,0.0,0.0,0.0,193.0,1.0,154.0,0.0,2.0,3.0,249.0,410.0,2.0,1017.0,1744252662.156962,0.0,2025-04-09 22:37:42.156,FORWARD,11
234.0,16249.092370163486,2869.874581083606,-64346.224289682425,-62428.131690994705,-37253.51837319355,-34864.89920197716,-29743.488698421563,-22609.728289810217,0.0,0.0,0.0,193.0,1.0,154.0,0.0,2.0,3.0,249.0,410.0,2.0,1017.0,1744252662.1569705,0.0,2025-04-09 22:37:42.156,FORWARD,11
235.0,16331.570307203569,2900.3400087761893,-64338.0882547007,-62475.115057839765,-37212.41351514024,-34811.63499494016,-30082.63171704194,-22581.967423196726,0.0,0.0,0.0,193.0,1.0,154.0,0.0,2.0,3.0,249.0,410.0,2.0,1017.0,1744252662.1569788,0.0,2025-04-09 22:37:42.156,FORWARD,11
236.0,16283.111725224464,2920.791854952795,-64285.561655230726,-62401.287245903884,-37150.320369043395,-34765.14336647312,-30080.731818763237,-22525.998655080635,0.0,0.0,0.0,193.0,1.0,155.0,0.0,2.0,3.0,252.0,411.0,2.0,1020.0,1744252662.1569874,0.0,2025-04-09 22:37:42.156,FORWARD,11
237.0,16199.471497472705,2896.8754883856163,-64335.29428664378,-62470.53295022642,-37180.71874150261,-34802.58253843577,-29939.289979850055,-22567.37173406741,0.0,0.0,0.0,193.0,1.0,155.0,0.0,2.0,3.0,252.0,411.0,2.0,1020.0,1744252662.156996,0.0,2025-04-09 22:37:42.156,FORWARD,11
238.0,16223.387864039883,2865.761860103829,-64349.15236820607,-62439.12874926672,-37247.52810567953,-34865.74856826646,-29806.878245696815,-22617.37258641393,0.0,0.0,0.0,193.0,1.0,154.0,0.0,2.0,3.0,250.0,410.0,2.0,1018.0,1744252662.1570086,0.0,2025-04-09 22:37:42.157,FORWARD,11
239.0,16335.683028183346,2895.914363374038,-64351.43224614052,-62473.75160142799,-37234.07235551743,-34837.96534990852,-29933.79145071405,-22593.120943679925,0.0,0.0,0.0,193.0,1.0,154.0,0.0,2.0,3.0,249.0,410.0,2.0,1017.0,1744252662.1570172,0.0,2025-04-09 22:37:42.157,FORWARD,11
240.0,16284.855161291976,2913.6169449826416,-64294.636463479575,-62412.97720825401,-37161.0715581264,-34767.93733453004,-30170.138796584466,-22525.618675424896,0.0,0.0,0.0,193.0,1.0,155.0,0.0,2.0,3.0,252.0,411.0,2.0,1020.0,1744252662.2593985,0.0,2025-04-09 22:37:42.259,FORWARD,11
241.0,16203.137183563374,2896.0037703518597,-64348.70533331697,-62472.254034549485,-37201.05882895694,-34809.24335828345,-29927.19768609973,-22574.41253357083,0.0,0.0,0.0,193.0,1.0,155.0,0.0,2.0,3.0,252.0,411.0,2.0,1020.0,1744252662.2594264,0.0,2025-04-09 22:37:42.259,FORWARD,11
242.0,16197.482192216183,2870.254560739346,-64350.26995542884,-62447.95768832656,-37235.45816367366,-34850.9740651815,-29907.125819578865,-22608.1860194428,0.0,0.0,0.0,193.0,1.0,154.0,0.0,2.0,3.0,249.0,410.0,2.0,1017.0,1744252662.259437,0.0,2025-04-09 22:37:42.259,FORWARD,11
243.0,16330.56447870308,2901.8822791436055,-64358.76361832186,-62461.92752861113,-37247.930437079725,-34859.5794867968,-29808.129943386313,-22623.698130094785,0.0,0.0,0.0,193.0,1.0,154.0,0.0,2.0,3.0,249.0,410.0,2.0,1017.0,1744252662.259447,0.0,2025-04-09 22:37:42.259,FORWARD,11
244.0,16298.467373665258,2915.181567094513,-64298.01157689233,-62425.42712991562,-37157.808203435925,-34767.5573548743,-30234.75768980476,-22537.93448661977,0.0,0.0,0.0,193.0,1.0,155.0,0.0,2.0,3.0,252.0,411.0,2.0,1020.0,1744252662.259457,0.0,2025-04-09 22:37:42.259,FORWARD,11
245.0,16231.50154727716,2910.666514714541,-64328.58876330719,-62446.50482493697,-37178.26004961253,-34789.99850630743,-29897.134589807345,-22556.687600217774,0.0,0.0,0.0,193.0,1.0,155.0,0.0,2.0,3.0,251.0,411.0,2.0,1019.0,1744252662.259466,0.0,2025-04-09 22:37:42.259,FORWARD,11
246.0,16183.713517631713,2870.7239473729073,-64348.37005715014,-62459.02180183194,-37226.36100368035,-34832.53387600587,-29964.614506317917,-22597.65834780435,0.0,0.0,0.0,193.0,1.0,154.0,0.0,2.0,3.0,250.0,410.0,2.0,1018.0,1744252662.2594757,0.0,2025-04-09 22:37:42.259,FORWARD,11
247.0,16320.305027998094,2898.596572708675,-64357.08723748771,-62445.543699925394,-37263.911934365264,-34866.08384443329,-29730.211762215113,-22631.968275543248,0.0,0.0,0.0,193.0,1.0,154.0,0.0,2.0,3.0,249.0,410.0,2.0,1017.0,1744252662.2594852,0.0,2025-04-09 22:37:42.259,FORWARD,11
248.0,16310.917295326864,2919.964840407949,-64302.43722229448,-62441.02864754542,-37167.240639596064,-34771.62537236516,-30278.65651591498,-22550.384408281378,0.0,0.0,0.0,193.0,1.0,155.0,0.0,2.0,3.0,250.0,411.0,2.0,1018.0,1744252662.2594943,0.0,2025-04-09 22:37:42.259,FORWARD,11
249.0,16245.203166628262,2918.5566805072644,-64321.771481248325,-62440.06752253384,-37178.30475310144,-34799.8109221233,-29906.611729456396,-22568.824597457005,0.0,0.0,0.0,193.0,1.0,154.0,0.0,2.0,3.0,249.0,410.0,2.0,1017.0,1744252662.2595031,0.0,2025-04-09 22:37:42.259,FORWARD,11
250.0,16177.432677439772,2876.75891837584,-64350.20290019547,-62480.99356663151,-37215.25218668606,-34839.261751086924,-29999.46087592374,-22606.487286864198,0.0,0.0,0.0,193.0,1.0,154.0,0.0,2.0,3.0,250.0,410.0,2.0,1018.0,1744252662.2595153,0.0,2025-04-09 22:37:42.259,FORWARD,11
251.0,16304.815269090566,2898.3507035196667,-64351.11932171814,-62439.464025433546,-37262.66023667577,-34881.17127194062,-29693.666660030685,-22633.19762148829,0.0,0.0,0.0,193.0,1.0,154.0,0.0,2.0,3.0,250.0,410.0,2.0,1018.0,1744252662.259524,0.0,2025-04-09 22:37:42.259,FORWARD,11
252.0,16323.166051288374,2925.7539422218733,-64304.15830661754,-62455.959612841565,-37171.19689836465,-34785.52815741637,-30257.958800549368,-22558.922774663304,0.0,0.0,0.0,193.0,1.0,155.0,0.0,2.0,3.0,251.0,411.0,2.0,1019.0,1744252662.259533,0.0,2025-04-09 22:37:42.259,FORWARD,11
253.0,16253.02627718762,2923.049381142781,-64309.90270494256,-62425.42712991562,-37175.779005977995,-34800.16855003459,-29947.001331687134,-22563.102550876447,0.0,0.0,0.0,193.0,1.0,154.0,0.0,2.0,3.0,249.0,410.0,2.0,1017.0,1744252662.2595727,0.0,2025-04-09 22:37:42.259,FORWARD,11
254.0,16171.688279114758,2881.9445230894717,-64347.431283883016,-62487.6990899681,-37210.06658197243,-34833.36089055072,-30015.21885576473,-22602.62043507343,0.0,0.0,0.0,193.0,1.0,154.0,0.0,2.0,3.0,250.0,410.0,2.0,1018.0,1744252662.259582,0.0,2025-04-09 22:37:42.259,FORWARD,11
255.0,16262.145788925385,2876.5801044201976,-64357.78014156582,-62445.40958945866,-37274.52901298154,-34898.35976342676,-29713.559712595907,-22661.360819501977,0.0,0.0,0.0,193.0,1.0,155.0,0.0,2.0,3.0,252.0,411.0,2.0,1020.0,1744252662.2595909,0.0,2025-04-09 22:37:42.259,FORWARD,11
0.0,16322.271981510161,2915.762712450351,-64326.91238247304,-62479.40659277518,-37197.9295847332,-34809.757448405915,-30185.293279325164,-22592.1821704128,0.0,0.0,0.0,193.0,1.0,155.0,0.0,2.0,3.0,251.0,411.0,2.0,1019.0,1744252662.2595997,0.0,2025-04-09 22:37:42.259,FORWARD,11
1.0,16265.766771527145,2924.3681340656444,-64298.905646670544,-62417.60401935626,-37165.25133433954,-34786.04224753884,-30017.386974976896,-22549.60209722544,0.0,0.0,0.0,193.0,1.0,154.0,0.0,2.0,3.0,249.0,410.0,2.0,1017.0,1744252662.2596087,0.0,2025-04-09 22:37:42.259,FORWARD,11
2.0,16181.67950888628,2893.723892417418,-64343.81030128126,-62488.30258706839,-37198.22015741112,-34817.55820722082,-29983.680544338295,-22588.270615133122,0.0,0.0,0.0,193.0,1.0,154.0,0.0,2.0,3.0,250.0,410.0,2.0,1018.0,1744252662.2596176,0.0,2025-04-09 22:37:42.259,FORWARD,11
3.0,16233.803776956056,2874.0096538078374,-64353.220385696935,-62443.82261560233,-37265.99064659961,-34885.86513827624,-29772.523614469006,-22650.743740885704,0.0,0.0,0.0,193.0,1.0,155.0,0.0,2.0,3.0,252.0,411.0,2.0,1020.0,1744252662.259626,0.0,2025-04-09 22:37:42.259,FORWARD,11
4.0,16332.218507792773,2912.499357759876,-64336.61303956665,-62478.87015090825,-37216.101552975364,-34826.23068406948,-30063.69978948829,-22598.999452471668,0.0,0.0,0.0,193.0,1.0,155.0,0.0,2.0,3.0,251.0,411.0,2.0,1019.0,1744252662.2596347,0.0,2025-04-09 22:37:42.259,FORWARD,11
5.0,16277.635547832913,2926.6927154889963,-64289.406155277036,-62411.904324520154,-37158.59051449186,-34777.72739860146,-30104.536426608138,-22548.685675702774,0.0,0.0,0.0,193.0,1.0,155.0,0.0,2.0,3.0,250.0,411.0,2.0,1018.0,1744252662.2596438,0.0,2025-04-09 22:37:42.259,FORWARD,11
6.0,16189.949654334743,2900.898802387572,-64346.20193793797,-62486.51444751197,-37199.94124173418,-34817.33468977627,-29954.288000379565,-22593.500923335665,0.0,0.0,0.0,193.0,1.0,154.0,0.0,2.0,3.0,249.0,410.0,2.0,1017.0,1744252662.2596524,0.0,2025-04-09 22:37:42.259,FORWARD,11
7.0,16208.59100921047,2871.148630517558,-64353.80153105278,-62456.27253726394,-37253.76424238256,-34875.04689395987,-29852.364045663366,-22641.512470425663,0.0,0.0,0.0,193.0,1.0,155.0,0.0,2.0,3.0,252.0,411.0,2.0,1020.0,1744252662.2596607,0.0,2025-04-09 22:37:42.259,FORWARD,11
8.0,16324.015417577675,2899.870622142628,-64358.00365901038,-62488.23553183503,-37246.254056245576,-34855.31030360583,-29925.20838084321,-22632.638827876908,0.0,0.0,0.0,193.0,1.0,155.0,0.0,2.0,3.0,251.0,411.0,2.0,1019.0,1744252662.2596695,0.0,2025-04-09 22:37:42.259,FORWARD,11
9.0,16275.065097220553,2917.9084799180605,-64302.97366416141,-62435.37365619823,-37171.59922976485,-34780.677828869564,-30206.7286022578,-22557.268745573612,0.0,0.0,0.0,193.0,1.0,154.0,0.0,2.0,3.0,250.0,410.0,2.0,1018.0,1744252662.7278328,0.0,2025-04-09 22:37:42.727,FORWARD,11
10.0,16201.840782384967,2908.3866367800997,-64346.04547572679,-62480.7476974425,-37194.26389864253,-34812.10438157373,-29928.784659956058,-22584.89550172037,0.0,0.0,0.0,193.0,1.0,154.0,0.0,2.0,3.0,250.0,410.0,2.0,1018.0,1744252662.7278745,0.0,2025-04-09 22:37:42.727,FORWARD,11
11.0,16181.992433308655,2863.9066653140385,-64358.808321810764,-62472.254034549485,-37240.46495443165,-34860.47355657501,-29929.58932275645,-22632.90704881037,0.0,0.0,0.0,193.0,1.0,155.0,0.0,2.0,3.0,252.0,411.0,2.0,1020.0,1744252662.7278943,0.0,2025-04-09 22:37:42.727,FORWARD,11
12.0,16321.914353598877,2897.7472064193735,-64358.58480436621,-62472.27638629394,-37251.10438479238,-34860.89823971966,-29805.09010614039,-22631.834165076514,0.0,0.0,0.0,193.0,1.0,154.0,0.0,2.0,3.0,249.0,410.0,2.0,1017.0,1744252662.727945,0.0,2025-04-09 22:37:42.727,FORWARD,11
13.0,16287.447963648792,2911.9405641484936,-64304.091251384176,-62446.996563314984,-37165.76542446201,-34772.65355261011,-30264.37375120804,-22552.820748427006,0.0,0.0,0.0,193.0,1.0,154.0,0.0,2.0,3.0,249.0,410.0,2.0,1017.0,1744252662.7279654,0.0,2025-04-09 22:37:42.727,FORWARD,11
14.0,16224.036064629086,2916.7461892063843,-64329.035798196295,-62458.86533962075,-37180.048189168956,-34795.31822148779,-29916.1112208499,-22574.05490565955,0.0,0.0,0.0,193.0,1.0,154.0,0.0,2.0,3.0,250.0,410.0,2.0,1018.0,1744252662.7279828,0.0,2025-04-09 22:37:42.727,FORWARD,11
15.0,16163.641651110847,2859.860999567628,-64365.73736259191,-62491.14125861422,-37237.581579396916,-34855.28795186138,-29988.285003696088,-22633.734063355216,0.0,0.0,0.0,193.0,1.0,155.0,0.0,2.0,3.0,251.0,411.0,2.0,1019.0,1744252662.7280004,0.0,2025-04-09 22:37:42.728,FORWARD,11
16.0,16301.753080100189,2887.2865900142897,-64368.21840622645,-62465.950842613085,-37272.02561760254,-34884.38992314219,-29735.46442216211,-22655.1470345434,0.0,0.0,0.0,193.0,1.0,155.0,0.0,2.0,3.0,252.0,411.0,2.0,1020.0,1744252662.72801,0.0,2025-04-09 22:37:42.728,FORWARD,11
17.0,16297.729766098235,2916.43326478401,-64307.779289219296,-62457.1889587866,-37169.632276252785,-34777.79445383483,-30289.742981164814,-22568.690486990272,0.0,0.0,0.0,193.0,1.0,154.0,0.0,2.0,3.0,250.0,410.0,2.0,1018.0,1744252662.7280195,0.0,2025-04-09 22:37:42.728,FORWARD,11
18.0,16234.429625800805,2919.048418885281,-64329.460481340946,-62449.00822031596,-37188.988886951076,-34801.84493086874,-29933.54558152504,-22588.963519211236,0.0,0.0,0.0,193.0,1.0,154.0,0.0,2.0,3.0,250.0,410.0,2.0,1018.0,1744252662.7280283,0.0,2025-04-09 22:37:42.728,FORWARD,11
19.0,16166.033287767565,2877.2953602427674,-64354.67324908653,-62489.95661615809,-37214.022840741025,-34830.253998071435,-30021.253826767665,-22610.354138654966,0.0,0.0,0.0,193.0,1.0,155.0,0.0,2.0,3.0,252.0,411.0,2.0,1020.0,1744252662.728037,0.0,2025-04-09 22:37:42.728,FORWARD,11
20.0,16283.759925813667,2886.5489824472647,-64361.11055148966,-62447.60006041528,-37263.53195470953,-34881.39478938518,-29680.009744168492,-22640.81956634755,0.0,0.0,0.0,193.0,1.0,155.0,0.0,1.0,3.0,250.0,411.0,1.0,1018.0,1744252662.728046,0.0,2025-04-09 22:37:42.728,FORWARD,11
21.0,16305.105841768485,2906.6208489681303,-64330.712179030445,-62483.54166549941,-37185.79258749397,-34796.905195344116,-30232.611922337048,-22579.17345513981,0.0,0.0,0.0,193.0,1.0,154.0,0.0,2.0,3.0,250.0,410.0,2.0,1018.0,1744252662.7280548,0.0,2025-04-09 22:37:42.728,FORWARD,11
22.0,16240.710465992746,2908.990133880393,-64327.60528655116,-62447.17537727063,-37183.44565432616,-34803.70012565853,-29958.579535314984,-22585.94603370977,0.0,0.0,0.0,193.0,1.0,155.0,0.0,2.0,3.0,253.0,411.0,2.0,1021.0,1744252662.728064,0.0,2025-04-09 22:37:42.728,FORWARD,11
23.0,16158.67956384177,2871.6180171511196,-64367.30198470378,-62509.69320651212,-37217.710878576145,-34836.80305919684,-30017.27521625462,-22624.100461494978,0.0,0.0,0.0,193.0,1.0,154.0,0.0,2.0,3.0,253.0,410.0,2.0,1021.0,1744252662.728073,0.0,2025-04-09 22:37:42.728,FORWARD,11
24.0,16255.8873004779,2880.8716393556165,-64359.70239158898,-62442.99560105749,-37267.39880650029,-34880.94775449607,-29731.843439560347,-22648.955601329282,0.0,0.0,0.0,193.0,1.0,154.0,0.0,2.0,3.0,249.0,410.0,2.0,1017.0,1744252662.7280817,0.0,2025-04-09 22:37:42.728,FORWARD,11
25.0,16325.46828096727,2919.607212496664,-64329.08050168521,-62476.83614216282,-37192.36400036383,-34796.59227092174,-30155.83368013307,-22581.118056907424,0.0,0.0,0.0,193.0,1.0,154.0,0.0,2.0,3.0,250.0,410.0,2.0,1018.0,1744252662.7280903,0.0,2025-04-09 22:37:42.728,FORWARD,11
26.0,16265.006812215664,2925.0833898882142,-64300.649082738055,-62416.88876353369,-37160.15513660373,-34778.241488723936,-30027.065280326045,-22555.480606017187,0.0,0.0,0.0,193.0,1.0,155.0,0.0,2.0,3.0,251.0,411.0,2.0,1019.0,1744252662.7280993,0.0,2025-04-09 22:37:42.728,FORWARD,11
27.0,16171.19654073674,2885.789023135784,-64354.22621419743,-62494.51637202697,-37197.41549461073,-34814.56307346381,-29974.27045992261,-22590.259920389646,0.0,0.0,0.0,193.0,1.0,154.0,0.0,2.0,3.0,250.0,410.0,2.0,1018.0,1744252662.7281137,0.0,2025-04-09 22:37:42.728,FORWARD,11
28.0,16223.298457062061,2871.729775873396,-64353.868586286146,-62445.744865625486,-37251.81964061494,-34871.224745658015,-29783.52067274102,-22639.456109935774,0.0,0.0,0.0,193.0,1.0,154.0,0.0,2.0,3.0,251.0,410.0,2.0,1019.0,1744252662.7281225,0.0,2025-04-09 22:37:42.728,FORWARD,11
29.0,16314.270056995161,2902.8434041551836,-64353.0415717413,-62493.68935748212,-37221.7341925781,-34836.0207481409,-30023.24313202419,-22621.53001088262,0.0,0.0,0.0,193.0,1.0,154.0,0.0,2.0,3.0,250.0,410.0,2.0,1018.0,1744252662.7281308,0.0,2025-04-09 22:37:42.728,FORWARD,11
30.0,16259.284765635106,2913.86281417165,-64309.72389098691,-62435.39600794268,-37165.497203528554,-34790.42318945208,-30125.34590069603,-22570.009239913135,0.0,0.0,0.0,193.0,1.0,155.0,0.0,2.0,3.0,252.0,411.0,2.0,1020.0,1744252662.7281396,0.0,2025-04-09 22:37:42.728,FORWARD,11
31.0,16182.171247264296,2893.8803546286053,-64353.8909380306,-62494.628130749246,-37194.21919515362,-34815.68066068657,-29943.89443920785,-22586.460123832243,0.0,0.0,0.0,193.0,1.0,154.0,0.0,2.0,3.0,251.0,410.0,2.0,1019.0,1744252662.7281487,0.0,2025-04-09 22:37:42.728,FORWARD,11
32.0,16198.175096294297,2869.3604909611336,-64357.847196799186,-62460.0946855658,-37247.014015557055,-34865.90503047765,-29860.343618433908,-22637.19858374579,0.0,0.0,0.0,193.0,1.0,154.0,0.0,2.0,3.0,249.0,410.0,2.0,1017.0,1744252662.7281575,0.0,2025-04-09 22:37:42.728,FORWARD,11
33.0,16326.630571678947,2907.537270490798,-64356.66255434306,-62480.770049186955,-37241.5378381655,-34848.58242852479,-29891.501950204605,-22634.538726155606,0.0,0.0,0.0,193.0,1.0,154.0,0.0,9.0,3.0,252.0,410.0,9.0,1020.0,1744252662.7281663,0.0,2025-04-09 22:37:42.728,FORWARD,11
34.0,16283.268187435651,2922.95997416496,-64295.15055360205,-62431.350342196274,-37162.25620058253,-34770.37367467567,-30223.22418966582,-22561.113245619923,0.0,0.0,0.0,193.0,1.0,155.0,0.0,20.0,3.0,251.0,411.0,20.0,1019.0,1744252662.7281804,0.0,2025-04-09 22:37:42.728,FORWARD,11
35.0,16219.521012249115,2924.9716311659377,-64323.44786208247,-62463.91683386765,-37172.51565128752,-34795.22881450997,-29927.532962266563,-22587.153027910357,0.0,0.0,0.0,193.0,1.0,154.0,0.0,30.0,3.0,249.0,410.0,30.0,1017.0,1744252662.7281897,0.0,2025-04-09 22:37:42.728,FORWARD,11
36.0,16186.44043045526,2878.971741076916,-64347.52069086084,-62471.404668260184,-37225.64574785778,-34852.78455648239,-29928.091755877944,-22633.331731955022,0.0,0.0,0.0,193.0,1.0,154.0,0.0,38.0,3.0,250.0,410.0,38.0,1018.0,1744252662.7281983,0.0,2025-04-09 22:37:42.728,FORWARD,11
37.0,16321.601429176502,2905.5256134898204,-64352.438074641,-62469.25890079247,-37244.57767541143,-34862.88754497618,-29762.040646319467,-22639.746682613695,0.0,0.0,0.0,193.0,1.0,154.0,0.0,39.0,3.0,252.0,410.0,39.0,1020.0,1744252662.728207,0.0,2025-04-09 22:37:42.728,FORWARD,11
38.0,16300.523734155147,2928.883186445616,-64285.98633837538,-62437.63118238821,-37142.40785150622,-34759.17545070356,-30251.163870234952,-22543.924754133794,0.0,0.0,0.0,193.0,1.0,155.0,0.0,39.0,3.0,251.0,411.0,39.0,1019.0,1744252662.728216,0.0,2025-04-09 22:37:42.728,FORWARD,11
39.0,16229.668704231824,2924.3234305767337,-64317.4799463129,-62451.913947095156,-37164.04434013896,-34790.199672007526,-29885.44462745722,-22566.254146844643,0.0,0.0,0.0,193.0,1.0,154.0,0.0,38.0,3.0,250.0,410.0,38.0,1018.0,1744252662.7282248,0.0,2025-04-09 22:37:42.728,FORWARD,11
40.0,16164.423962166782,2870.0086915503375,-64353.66742058605,-62488.90608416869,-37220.70601233316,-34847.151916879644,-29972.907003510834,-22628.369644685943,0.0,0.0,0.0,193.0,1.0,154.0,0.0,39.0,3.0,249.0,410.0,39.0,1017.0,1744252662.7282336,0.0,2025-04-09 22:37:42.728,FORWARD,11
41.0,16296.790992831111,2892.539249961287,-64356.59549910969,-62458.66417392065,-37261.632056430826,-34877.304420149856,-29703.12144793528,-22655.906993854882,0.0,0.0,0.0,193.0,1.0,154.0,0.0,38.0,3.0,251.0,410.0,38.0,1019.0,1744252662.7282467,0.0,2025-04-09 22:37:42.728,FORWARD,11
42.0,16305.061138279574,2925.820997455239,-64292.91537915652,-62450.46108370556,-37150.610941721316,-34758.34843615871,-30267.435940198415,-22546.003466368136,0.0,0.0,0.0,193.0,1.0,155.0,0.0,38.0,3.0,252.0,411.0,38.0,1020.0,1744252662.7282555,0.0,2025-04-09 22:37:42.728,FORWARD,11
43.0,16239.101140391964,2925.1057416326694,-64310.215629364924,-62435.84304283179,-37160.043377881455,-34779.67200036907,-29900.28618577554,-22553.960687394225,0.0,0.0,0.0,193.0,1.0,154.0,0.0,39.0,3.0,251.0,410.0,39.0,1019.0,1744252662.7282643,0.0,2025-04-09 22:37:42.728,FORWARD,11
44.0,16164.401610422328,2880.625770166608,-64349.2864786728,-62488.72727021304,-37201.95289873516,-34816.66413744261,-29984.55226237205,-22588.04709768857,0.0,0.0,0.0,193.0,1.0,154.0,0.0,39.0,3.0,249.0,410.0,39.0,1017.0,1744252662.7282732,0.0,2025-04-09 22:37:42.728,FORWARD,11
45.0,16276.808533288067,2888.828860381706,-64356.729609576425,-62446.61658365925,-37260.20154478568,-34872.49879509197,-29670.53260451944,-22639.657275635873,0.0,0.0,0.0,193.0,1.0,154.0,0.0,39.0,3.0,250.0,410.0,39.0,1018.0,1744252662.728282,0.0,2025-04-09 22:37:42.728,FORWARD,11
46.0,16319.99210357572,2927.251509100379,-64311.46732705442,-62466.509636224466,-37169.74403497506,-34772.18416597655,-30214.9316924729,-22565.494187533164,0.0,0.0,0.0,193.0,1.0,155.0,0.0,40.0,3.0,252.0,411.0,40.0,1020.0,1744252662.7282908,0.0,2025-04-09 22:37:42.728,FORWARD,11
47.0,16256.35668711146,2928.5926137676975,-64303.44305079497,-62421.850850802766,-37161.83151743788,-34773.6593811106,-29964.100416195444,-22553.379542038387,0.0,0.0,0.0,193.0,1.0,154.0,0.0,40.0,3.0,250.0,410.0,40.0,1018.0,1744252662.7282994,0.0,2025-04-09 22:37:42.728,FORWARD,11
48.0,16164.446313911238,2884.224401023913,-64352.952164763476,-62495.96923541657,-37203.15989293574,-34808.863378627706,-29996.108114255443,-22593.38916461339,0.0,0.0,0.0,193.0,1.0,154.0,0.0,40.0,3.0,249.0,410.0,40.0,1017.0,1744252662.728308,0.0,2025-04-09 22:37:42.728,FORWARD,11
49.0,16244.286745105595,2881.989226578382,-64358.7412665774,-62447.95768832656,-37266.32592276644,-34875.62803931571,-29732.089308749357,-22656.979877588736,0.0,0.0,0.0,193.0,1.0,154.0,0.0,40.0,3.0,249.0,410.0,40.0,1017.0,1744252662.7283168,0.0,2025-04-09 22:37:42.728,FORWARD,11
50.0,16306.916333069365,2904.408026267055,-64345.039647226295,-62501.64657850821,-37208.74782904957,-34818.586387465766,-30130.978540298765,-22614.53391486811,0.0,0.0,0.0,193.0,1.0,154.0,0.0,40.0,3.0,250.0,410.0,40.0,1018.0,1744252662.728333,0.0,2025-04-09 22:37:42.728,FORWARD,11
51.0,16242.92328869382,2908.2078228244573,-64311.75789973234,-62442.459159190556,-37168.91702043021,-34794.15593077611,-30049.28291431462,-22574.70310624875,0.0,0.0,0.0,193.0,1.0,155.0,0.0,41.0,3.0,252.0,411.0,41.0,1020.0,1744252662.7283416,0.0,2025-04-09 22:37:42.728,FORWARD,11
52.0,16148.375409647871,2862.2302844798905,-64375.236853985414,-62527.7087125431,-37217.24149194259,-34839.75348946494,-29966.44734936325,-22618.959560270257,0.0,0.0,0.0,193.0,1.0,155.0,0.0,41.0,3.0,251.0,411.0,41.0,1019.0,1744252662.7283502,0.0,2025-04-09 22:37:42.728,FORWARD,11
53.0,16194.48705845917,2843.767743559807,-64375.952109807986,-62479.8983311532,-37271.08684433542,-34889.35201041127,-29804.017222406535,-22652.35306648649,0.0,0.0,0.0,193.0,1.0,154.0,0.0,41.0,3.0,249.0,410.0,41.0,1017.0,1744252662.7283587,0.0,2025-04-09 22:37:42.728,FORWARD,11
54.0,16310.649074393401,2888.091252814681,-64353.98034500842,-62501.825392463856,-37221.845951300376,-34832.53387600587,-29995.616375877427,-22606.867266519937,0.0,0.0,0.0,193.0,1.0,154.0,0.0,41.0,3.0,250.0,410.0,41.0,1018.0,1744252662.7283673,0.0,2025-04-09 22:37:42.728,FORWARD,11
55.0,16253.585070799003,2900.094139587181,-64303.644216495064,-62441.85566209027,-37156.95883714662,-34780.43195968056,-30138.846354347035,-22555.50295776164,0.0,0.0,0.0,193.0,1.0,155.0,0.0,41.0,3.0,252.0,411.0,41.0,1020.0,1744252662.728376,0.0,2025-04-09 22:37:42.728,FORWARD,11
56.0,16179.19846525174,2890.035854582293,-64346.96189724945,-62498.182058117636,-37184.33972410437,-34811.590291451255,-29917.228808072665,-22585.81192324304,0.0,0.0,0.0,193.0,1.0,154.0,0.0,42.0,3.0,251.0,410.0,42.0,1019.0,1744252662.7283893,0.0,2025-04-09 22:37:42.728,FORWARD,11
57.0,16178.751430362634,2851.8143715637175,-64361.199958467485,-62478.31135729687,-37243.571846910934,-34870.64360030217,-29855.47093814265,-22644.932287327327,0.0,0.0,0.0,193.0,1.0,154.0,0.0,42.0,3.0,248.0,410.0,42.0,1016.0,1744252662.7283978,0.0,2025-04-09 22:37:42.728,FORWARD,11
58.0,16310.202039504295,2887.823031881217,-64361.60228986768,-62491.76710745897,-37244.33180622242,-34853.03042567139,-29843.468051370153,-22631.610647631962,0.0,0.0,0.0,193.0,1.0,155.0,0.0,42.0,3.0,250.0,411.0,42.0,1018.0,1744252662.728407,0.0,2025-04-09 22:37:42.728,FORWARD,11
59.0,16281.323585668039,2917.5285002623204,-64286.813352920224,-62429.316333450835,-37146.006482363526,-34749.51949709887,-30212.249483138265,-22523.361149234912,0.0,0.0,0.0,193.0,1.0,155.0,0.0,42.0,3.0,251.0,411.0,42.0,1019.0,1744252662.7284155,0.0,2025-04-09 22:37:42.728,FORWARD,11
60.0,16202.176058551797,2902.731645432907,-64336.233059910905,-62473.32691828334,-37179.57880253539,-34794.58061392076,-29886.986897824634,-22559.638030485872,0.0,0.0,0.0,193.0,1.0,154.0,0.0,42.0,3.0,249.0,410.0,42.0,1017.0,1744252662.728424,0.0,2025-04-09 22:37:42.728,FORWARD,11
61.0,16166.413267423306,2857.80463907774,-64357.22134795444,-62479.07131660835,-37230.51842814904,-34842.03336739938,-29930.97513091268,-22601.726365295217,0.0,0.0,0.0,193.0,1.0,154.0,0.0,42.0,3.0,249.0,410.0,42.0,1017.0,1744252662.7284327,0.0,2025-04-09 22:37:42.728,FORWARD,11
62.0,16302.468335922758,2884.3361597461894,-64363.54689163529,-62471.13644732672,-37252.959579582166,-34857.925457707104,-29732.335177938367,-22619.875981792928,0.0,0.0,0.0,193.0,1.0,155.0,0.0,42.0,3.0,251.0,411.0,42.0,1019.0,1744252662.7284412,0.0,2025-04-09 22:37:42.728,FORWARD,11
63.0,16287.269149693151,2911.962915892949,-64294.368242546116,-62444.22494700253,-37144.84419165185,-34750.32415989925,-30247.744053333292,-22528.41264348181,0.0,0.0,0.0,193.0,1.0,155.0,0.0,42.0,3.0,251.0,411.0,42.0,1019.0,1744252662.72845,0.0,2025-04-09 22:37:42.728,FORWARD,11
64.0,16221.7785384391,2912.4546542709654,-64322.01735043733,-62453.165644784654,-37165.34074131736,-34784.74584636043,-29875.0510662855,-22558.006353140638,0.0,0.0,0.0,193.0,1.0,154.0,0.0,43.0,3.0,249.0,410.0,43.0,1017.0,1744252662.7284584,0.0,2025-04-09 22:37:42.728,FORWARD,11
65.0,16160.400648164827,2864.0407757807707,-64349.95703100647,-62487.67673822364,-37208.79253253848,-34830.946902149546,-29968.146081941853,-22604.47562986322,0.0,0.0,0.0,193.0,1.0,155.0,0.0,43.0,3.0,251.0,411.0,43.0,1019.0,1744252662.7284672,0.0,2025-04-09 22:37:42.728,FORWARD,11
66.0,16291.583036373024,2887.085424314192,-64350.135844962104,-62449.678772649626,-37245.60585565637,-34864.429815343596,-29666.285773072934,-22629.643694119895,0.0,0.0,0.0,193.0,1.0,154.0,0.0,43.0,3.0,250.0,410.0,43.0,1018.0,1744252662.7284758,0.0,2025-04-09 22:37:42.728,FORWARD,11
67.0,16297.573303887048,2914.1980903384797,-64302.86190543913,-62460.04998207689,-37155.282456312474,-34763.26581993888,-30236.255256683264,-22546.09287334596,0.0,0.0,0.0,193.0,1.0,155.0,0.0,43.0,3.0,251.0,411.0,43.0,1019.0,1744252662.7284844,0.0,2025-04-09 22:37:42.728,FORWARD,11
68.0,16226.584163496991,2908.923078647027,-64321.99499869288,-62444.20259525807,-37172.94033443217,-34788.232718495456,-29899.660336930792,-22555.27944031709,0.0,0.0,0.0,193.0,1.0,155.0,0.0,43.0,3.0,252.0,411.0,43.0,1020.0,1744252662.7284927,0.0,2025-04-09 22:37:42.728,FORWARD,11
69.0,16150.05179048202,2868.2652554828237,-64358.87537704413,-62499.94784592961,-37203.383410380295,-34825.82835266928,-29978.003201246644,-22591.3328041235,0.0,0.0,0.0,193.0,1.0,154.0,0.0,43.0,3.0,249.0,410.0,43.0,1017.0,1744252662.7285016,0.0,2025-04-09 22:37:42.728,FORWARD,11
70.0,16259.575338313025,2874.099060785659,-64364.35155443568,-62452.98683082901,-37265.0965768214,-34883.786426041894,-29658.999104380502,-22640.327827969533,0.0,0.0,0.0,193.0,1.0,154.0,0.0,43.0,3.0,251.0,410.0,43.0,1019.0,1744252662.7285104,0.0,2025-04-09 22:37:42.728,FORWARD,11
71.0,16318.874516352955,2923.7199334764405,-64311.66849275452,-62467.94014786961,-37172.917982687715,-34779.87316606917,-30190.702401483348,-22564.018972399113,0.0,0.0,0.0,193.0,1.0,154.0,0.0,43.0,3.0,249.0,410.0,43.0,1017.0,1744252662.728523,0.0,2025-04-09 22:37:42.728,FORWARD,11
72.0,16252.534538809603,2923.2952503317897,-64297.788059447776,-62417.00052225596,-37154.43309002317,-34777.48152941246,-29957.39489285885,-22547.009294868625,0.0,0.0,0.0,193.0,1.0,155.0,0.0,43.0,3.0,251.0,411.0,43.0,1019.0,1744252662.728532,0.0,2025-04-09 22:37:42.728,FORWARD,11
73.0,16164.53572088906,2877.921209087516,-64341.59747858018,-62488.90608416869,-37185.16673864922,-34809.80215189483,-29954.55622131303,-22583.733211008694,0.0,0.0,0.0,193.0,1.0,155.0,0.0,43.0,3.0,252.0,411.0,43.0,1020.0,1744252662.7285404,0.0,2025-04-09 22:37:42.728,FORWARD,11
74.0,16232.7308932222,2867.348833960156,-64346.67132457154,-62439.21815624454,-37245.4940969341,-34871.76118752494,-29705.06604970289,-22641.557173914574,0.0,0.0,0.0,193.0,1.0,154.0,0.0,43.0,3.0,249.0,410.0,43.0,1017.0,1744252662.7285492,0.0,2025-04-09 22:37:42.728,FORWARD,11
75.0,16317.533411685636,2907.1349390906025,-64321.32444635921,-62471.91875838266,-37184.18326189319,-34794.3123929873,-30060.9952284092,-22574.948975437757,0.0,0.0,0.0,193.0,1.0,154.0,0.0,43.0,3.0,250.0,410.0,43.0,1018.0,1744252662.7285578,0.0,2025-04-09 22:37:42.728,FORWARD,11
76.0,16251.998096942676,2908.856023413661,-64293.04948962325,-62415.16767921063,-37148.04049110896,-34764.09283448372,-30026.819411137036,-22522.578838178975,0.0,0.0,0.0,193.0,1.0,154.0,0.0,43.0,3.0,250.0,410.0,43.0,1018.0,1744252662.7285664,0.0,2025-04-09 22:37:42.728,FORWARD,11
77.0,16164.96040403371,2878.5023544433543,-64349.55469960627,-62493.84581969331,-37183.93739270418,-34803.94599484754,-29927.734127966658,-22565.628297999894,0.0,0.0,0.0,193.0,1.0,155.0,0.0,43.0,3.0,253.0,411.0,43.0,1021.0,1744252662.7285748,0.0,2025-04-09 22:37:42.728,FORWARD,11
78.0,16195.381128237383,2855.860037310128,-64358.98713576641,-62458.97709834303,-37247.215181257154,-34866.06149268884,-29783.654783207752,-22620.613589359953,0.0,0.0,0.0,193.0,1.0,155.0,0.0,43.0,3.0,252.0,411.0,43.0,1020.0,1744252662.7285833,0.0,2025-04-09 22:37:42.728,FORWARD,11
79.0,16303.340053956515,2889.1641365485357,-64358.45069389948,-62496.19275286112,-37229.60200662637,-34836.73600396347,-29936.83128795997,-22603.76037404065,0.0,0.0,0.0,193.0,1.0,155.0,0.0,43.0,3.0,252.0,411.0,43.0,1020.0,1744252662.728592,0.0,2025-04-09 22:37:42.728,FORWARD,11
80.0,16256.759018511657,2907.1572908350577,-64301.25257983835,-62434.59134514229,-37155.68478771267,-34772.96647703248,-30143.137889282454,-22543.209498311222,0.0,0.0,0.0,193.0,1.0,155.0,0.0,43.0,3.0,251.0,411.0,43.0,1019.0,1744252662.7286005,0.0,2025-04-09 22:37:42.728,FORWARD,11
81.0,16177.544436162048,2889.991151093382,-64349.4876443729,-62491.051851636395,-37184.69735201566,-34807.74579140494,-29905.24827304462,-22585.09666742047,0.0,0.0,0.0,193.0,1.0,155.0,0.0,44.0,3.0,249.0,411.0,44.0,1017.0,1744252662.728609,0.0,2025-04-09 22:37:42.728,FORWARD,11
82.0,16169.117828502398,2853.580159375687,-64360.97644102293,-62471.65053744919,-37236.08401251841,-34858.55130655185,-29871.787711595025,-22624.636903361905,0.0,0.0,0.0,193.0,1.0,154.0,0.0,44.0,3.0,250.0,410.0,44.0,1018.0,1744252662.7286177,0.0,2025-04-09 22:37:42.728,FORWARD,11
83.0,16309.822059848555,2892.1592703055467,-64358.07071424374,-62475.47268575105,-37237.782745097014,-34850.92936169259,-29811.95209168817,-22616.52322012463,0.0,0.0,0.0,193.0,1.0,155.0,0.0,43.0,3.0,249.0,411.0,43.0,1017.0,1744252662.728626,0.0,2025-04-09 22:37:42.728,FORWARD,11
84.0,16280.831847290023,2912.991096137893,-64287.997995376354,-62425.181260726604,-37141.49142998355,-34755.26389542388,-30216.78688726269,-22529.865506871403,0.0,0.0,0.0,193.0,1.0,155.0,0.0,43.0,3.0,249.0,411.0,43.0,1017.0,1744252662.7286348,0.0,2025-04-09 22:37:42.728,FORWARD,11
85.0,16205.953503364743,2906.7996629237728,-64331.472138341924,-62455.55728144137,-37171.442767553664,-34790.71376213,-29876.302763975,-22557.84989092945,0.0,0.0,0.0,193.0,1.0,155.0,0.0,44.0,3.0,251.0,411.0,44.0,1019.0,1744252662.7286432,0.0,2025-04-09 22:37:42.728,FORWARD,11
86.0,16163.284023199561,2867.572351404709,-64351.85692928517,-62462.21810128905,-37217.97909950961,-34838.479440030984,-29935.758404226115,-22600.452315861265,0.0,0.0,0.0,193.0,1.0,154.0,0.0,44.0,3.0,251.0,410.0,44.0,1019.0,1744252662.7286563,0.0,2025-04-09 22:37:42.728,FORWARD,11
87.0,16300.747251599701,2890.281723771301,-64353.6897723305,-62443.64380164669,-37239.548532908986,-34861.211164142034,-29697.73467752155,-22613.32692066752,0.0,0.0,0.0,193.0,1.0,154.0,0.0,43.0,3.0,249.0,410.0,43.0,1017.0,1744252662.728665,0.0,2025-04-09 22:37:42.728,FORWARD,11
88.0,16291.873609050943,2917.349686306678,-64289.78613493278,-62421.11324323574,-37135.925845614176,-34755.42035763506,-30228.834477524102,-22519.762518377607,0.0,0.0,0.0,193.0,1.0,154.0,0.0,44.0,3.0,249.0,410.0,44.0,1017.0,1744252662.728674,0.0,2025-04-09 22:37:42.728,FORWARD,11
89.0,16225.935962907788,2919.8977851745826,-64317.859925968645,-62420.12976647971,-37156.265933068506,-34785.63991613864,-29862.467034157162,-22544.84117565646,0.0,0.0,0.0,193.0,1.0,155.0,0.0,44.0,3.0,252.0,411.0,44.0,1020.0,1744252662.7286825,0.0,2025-04-09 22:37:42.728,FORWARD,11
90.0,16150.968212004687,2865.7395083593738,-64358.20482471047,-62466.1967118021,-37204.05396271395,-34838.03240514188,-29963.45221560624,-22602.24045541769,0.0,0.0,0.0,193.0,1.0,155.0,0.0,44.0,3.0,251.0,411.0,44.0,1019.0,1744252662.7286909,0.0,2025-04-09 22:37:42.728,FORWARD,11
91.0,16285.995100259199,2888.7171016594293,-64355.254394442374,-62414.16185071014,-37244.220047500145,-34865.52505082191,-29662.418921282166,-22611.47172587773,0.0,0.0,0.0,193.0,1.0,154.0,0.0,44.0,3.0,249.0,410.0,44.0,1017.0,1744252662.7286994,0.0,2025-04-09 22:37:42.728,FORWARD,11
92.0,16310.917295326864,2923.5187677763424,-64298.16803910352,-62413.53600186539,-37141.69259568365,-34751.39704363311,-30219.871427997525,-22503.55750364751,0.0,0.0,0.0,193.0,1.0,155.0,0.0,44.0,3.0,252.0,411.0,44.0,1020.0,1744252662.728708,0.0,2025-04-09 22:37:42.728,FORWARD,11
93.0,16243.772654983122,2926.089218388703,-64306.01350140733,-62382.80235323934,-37142.296092783945,-34769.0549217528,-29889.691458903726,-22514.778079364074,0.0,0.0,0.0,193.0,1.0,155.0,0.0,44.0,3.0,252.0,411.0,44.0,1020.0,1744252662.7287164,0.0,2025-04-09 22:37:42.728,FORWARD,11
94.0,16167.039116268053,2889.074729570714,-64343.095045458685,-62435.73128410951,-37175.39902632225,-34798.06748605579,-29960.68059929378,-22546.74107393516,0.0,0.0,0.0,193.0,1.0,155.0,0.0,44.0,3.0,250.0,411.0,44.0,1018.0,1744252662.7287252,0.0,2025-04-09 22:37:42.728,FORWARD,11
95.0,16261.564643569547,2886.0348923247925,-64354.40502815307,-62386.37863235219,-37241.80605909897,-34860.85353623075,-29650.505441487487,-22601.726365295217,0.0,0.0,0.0,193.0,1.0,154.0,0.0,44.0,3.0,250.0,410.0,44.0,1018.0,1744252662.7287338,0.0,2025-04-09 22:37:42.728,FORWARD,11
96.0,16316.058196551587,2918.3331630627113,-64317.837574224184,-62413.044263487376,-37159.752805203534,-34769.569011875275,-30143.271999749184,-22535.36403600741,0.0,0.0,0.0,193.0,1.0,154.0,0.0,44.0,3.0,250.0,410.0,44.0,1018.0,1744252662.7287424,0.0,2025-04-09 22:37:42.728,FORWARD,11
97.0,16262.346954625484,2931.408933569066,-64294.48000126839,-62352.11340810221,-37131.76842114549,-34755.30859891279,-29957.618410303407,-22509.50306767262,0.0,0.0,0.0,193.0,1.0,155.0,0.0,44.0,3.0,252.0,411.0,44.0,1020.0,1744252662.7287507,0.0,2025-04-09 22:37:42.728,FORWARD,11
98.0,16172.62705238188,2892.628656939108,-64349.15236820607,-62429.606906128756,-37172.895630943254,-34796.055829054814,-29939.0664624055,-22555.905289161838,0.0,0.0,0.0,193.0,1.0,155.0,0.0,44.0,3.0,251.0,411.0,44.0,1019.0,1744252662.7287593,0.0,2025-04-09 22:37:42.728,FORWARD,11
99.0,16230.205146098751,2880.0446248107705,-64359.18830146651,-62384.41167884013,-37241.58254165442,-34863.22282114301,-29711.570407339386,-22617.305531180566,0.0,0.0,0.0,193.0,1.0,155.0,0.0,44.0,3.0,251.0,411.0,44.0,1019.0,1744252662.728768,0.0,2025-04-09 22:37:42.728,FORWARD,11
100.0,16317.622818663458,2910.442997269988,-64346.67132457154,-62424.220135715026,-37199.11422718933,-34804.8177128813,-30041.213934566254,-22584.493170320176,0.0,0.0,0.0,193.0,1.0,154.0,0.0,44.0,3.0,249.0,410.0,44.0,1017.0,1744252662.7287765,0.0,2025-04-09 22:37:42.728,FORWARD,11
101.0,16262.749286025679,2916.187395595002,-64303.19718160596,-62358.95304190553,-37144.39715676274,-34757.99080824743,-30065.75614997818,-22525.238695769156,0.0,0.0,0.0,193.0,1.0,154.0,0.0,44.0,3.0,250.0,410.0,44.0,1018.0,1744252662.7287893,0.0,2025-04-09 22:37:42.728,FORWARD,11
102.0,16170.43658142526,2885.5878574356866,-64358.62950785512,-62435.79833934288,-37176.56131703393,-34800.36971573469,-29911.417354514284,-22557.916946162815,0.0,0.0,0.0,193.0,1.0,154.0,0.0,44.0,3.0,252.0,410.0,44.0,1020.0,1744252662.728798,0.0,2025-04-09 22:37:42.728,FORWARD,11
103.0,16186.663947899813,2853.0437175087595,-64371.10178126118,-62403.61182732724,-37240.46495443165,-34852.09165240427,-29784.235928563587,-22598.150086182366,0.0,0.0,0.0,193.0,1.0,155.0,0.0,44.0,3.0,252.0,411.0,44.0,1020.0,1744252662.7288067,0.0,2025-04-09 22:37:42.728,FORWARD,11
104.0,16308.816231348066,2893.276857528312,-64358.87537704413,-62420.17446996862,-37212.14529420678,-34808.639861183154,-29886.897490846815,-22565.538891022075,0.0,0.0,0.0,193.0,1.0,155.0,0.0,44.0,3.0,252.0,411.0,44.0,1020.0,1744252662.7288153,0.0,2025-04-09 22:37:42.728,FORWARD,11
105.0,16262.54812032558,2913.9075176605606,-64298.905646670544,-62360.808236695324,-37132.81895313489,-34736.37667135915,-30132.654921132915,-22496.874332055373,0.0,0.0,0.0,193.0,1.0,155.0,0.0,44.0,3.0,252.0,411.0,44.0,1020.0,1744252662.7288268,0.0,2025-04-09 22:37:42.728,FORWARD,11
106.0,16193.548285192048,2906.7102559459518,-64340.234022168406,-62406.49520236197,-37159.52928775898,-34764.942200773025,-29867.093845259413,-22531.117204560902,0.0,0.0,0.0,193.0,1.0,155.0,0.0,44.0,3.0,251.0,411.0,44.0,1019.0,1744252662.728835,0.0,2025-04-09 22:37:42.728,FORWARD,11
107.0,16180.15959026332,2866.834743837684,-64351.275783929326,-62392.413603355126,-37208.52431160502,-34814.384259508166,-29863.09288300191,-22578.972289439713,0.0,0.0,0.0,193.0,1.0,154.0,0.0,44.0,3.0,249.0,410.0,44.0,1017.0,1744252662.7288437,0.0,2025-04-09 22:37:42.728,FORWARD,11
108.0,16309.017397048165,2897.7695581638286,-64357.131940976615,-62401.421356370614,-37222.18122746721,-34824.68841370206,-29763.337047497876,-22594.19382741378,0.0,0.0,0.0,193.0,1.0,154.0,0.0,44.0,3.0,250.0,410.0,44.0,1018.0,1744252662.7288525,0.0,2025-04-09 22:37:42.728,FORWARD,11
109.0,16275.22155943174,2916.5897269951975,-64296.044623380265,-62368.072553643295,-37127.052203065425,-34734.744994013905,-30201.878273711,-22509.74893686163,0.0,0.0,0.0,193.0,1.0,155.0,0.0,44.0,3.0,252.0,411.0,44.0,1020.0,1744252662.7288609,0.0,2025-04-09 22:37:42.728,FORWARD,11
110.0,16203.181887052286,2906.5314419903093,-64337.082426200206,-62398.15800168014,-37156.15417434623,-34774.75461658891,-29852.18523170772,-22546.808129168527,0.0,0.0,0.0,193.0,1.0,155.0,0.0,44.0,3.0,252.0,411.0,44.0,1020.0,1744252662.7288697,0.0,2025-04-09 22:37:42.728,FORWARD,11
111.0,16157.71843883019,2863.99607229186,-64355.92494677603,-62412.910153020646,-37198.913061489235,-34818.921663632595,-29923.39788954233,-22590.88576923439,0.0,0.0,0.0,193.0,1.0,155.0,0.0,44.0,3.0,251.0,411.0,44.0,1019.0,1744252662.7288785,0.0,2025-04-09 22:37:42.728,FORWARD,11
112.0,16291.404222417383,2886.6607411695413,-64363.45748465747,-62396.70513829055,-37235.94990205168,-34848.76124248043,-29672.141930120222,-22610.44354563279,0.0,0.0,0.0,193.0,1.0,154.0,0.0,44.0,3.0,250.0,410.0,44.0,1018.0,1744252662.7288868,0.0,2025-04-09 22:37:42.728,FORWARD,11
113.0,16282.642338590902,2910.1971280809794,-64308.24867585286,-62391.63129229919,-37140.2173805496,-34747.30667439779,-30234.288303171197,-22521.103623044924,0.0,0.0,0.0,193.0,1.0,154.0,0.0,44.0,3.0,249.0,410.0,44.0,1017.0,1744252662.7288957,0.0,2025-04-09 22:37:42.728,FORWARD,11
114.0,16215.8776779029,2906.4867385013986,-64330.86864124163,-62387.6750335306,-37156.71296795762,-34772.51944214338,-29868.300839459996,-22536.191050552257,0.0,0.0,0.0,193.0,1.0,154.0,0.0,44.0,3.0,250.0,410.0,44.0,1018.0,1744252662.728904,0.0,2025-04-09 22:37:42.728,FORWARD,11
115.0,16146.72138055818,2865.5159909148206,-64362.60811836817,-62430.098644506776,-37193.9286224757,-34810.45035248403,-29962.044055705555,-22581.296870863065,0.0,0.0,0.0,193.0,1.0,155.0,0.0,44.0,3.0,251.0,411.0,44.0,1019.0,1744252662.7289124,0.0,2025-04-09 22:37:42.728,FORWARD,11
116.0,16268.069001206042,2878.636464910086,-64369.67126961605,-62389.03848994237,-37248.86921034684,-34863.26752463192,-29650.080758342836,-22631.588295887508,0.0,0.0,0.0,193.0,1.0,155.0,0.0,44.0,3.0,250.0,411.0,44.0,1018.0,1744252662.7289255,0.0,2025-04-09 22:37:42.728,FORWARD,11
117.0,16286.062155492564,2902.95516287746,-64328.432301096,-62408.149231451665,-37160.89274417076,-34759.778947803854,-30217.815067507636,-22538.44857674224,0.0,0.0,0.0,193.0,1.0,155.0,0.0,44.0,3.0,252.0,411.0,44.0,1020.0,1744252662.728934,0.0,2025-04-09 22:37:42.728,FORWARD,11
118.0,16226.45005303026,2911.605287981664,-64322.64319928208,-62366.93261467608,-37150.27566555449,-34763.623447850165,-29907.77402016807,-22524.232867268667,0.0,0.0,0.0,193.0,1.0,154.0,0.0,44.0,3.0,251.0,410.0,44.0,1019.0,1744252662.7289429,0.0,2025-04-09 22:37:42.728,FORWARD,11
119.0,16155.840892295944,2882.123337045114,-64348.92885076152,-62419.01217925694,-37168.33587507437,-34787.85273883972,-29950.39879684434,-22551.881975159882,0.0,0.0,0.0,193.0,1.0,154.0,0.0,44.0,3.0,249.0,410.0,44.0,1017.0,1744252662.7289512,0.0,2025-04-09 22:37:42.728,FORWARD,11
120.0,16239.570527025526,2868.0640897827257,-64364.8432928137,-62382.44472532806,-37240.37554745383,-34864.228649643504,-29636.714415158563,-22623.675778350327,0.0,0.0,0.0,193.0,1.0,154.0,0.0,44.0,3.0,250.0,410.0,44.0,1018.0,1744252662.7289596,0.0,2025-04-09 22:37:42.728,FORWARD,11
121.0,16299.808478332578,2904.2068605669574,-64333.95318197647,-62416.35232166676,-37167.50886052953,-34774.19582297753,-30107.9562435098,-22550.719684448206,0.0,0.0,0.0,193.0,1.0,154.0,0.0,44.0,3.0,252.0,410.0,44.0,1020.0,1744252662.728968,0.0,2025-04-09 22:37:42.728,FORWARD,11
122.0,16244.309096850051,2918.087293873703,-64303.48775428388,-62350.05704761232,-37135.232941536065,-34744.043319707314,-29968.414302875317,-22504.31746295899,0.0,0.0,0.0,193.0,1.0,155.0,0.0,44.0,3.0,252.0,411.0,44.0,1020.0,1744252662.7289767,0.0,2025-04-09 22:37:42.728,FORWARD,11
123.0,16160.62416560938,2888.694749914974,-64349.64410658409,-62421.51557463594,-37167.06182564042,-34774.06171251079,-29937.30067459353,-22534.157041806822,0.0,0.0,0.0,193.0,1.0,154.0,0.0,44.0,3.0,251.0,410.0,44.0,1019.0,1744252662.7289853,0.0,2025-04-09 22:37:42.728,FORWARD,11
124.0,16219.051625615553,2875.66368289753,-64348.37005715014,-62369.480713543984,-37219.58842511039,-34832.08684111677,-29709.06701196039,-22581.006298185148,0.0,0.0,0.0,193.0,1.0,154.0,0.0,44.0,3.0,249.0,410.0,44.0,1017.0,1744252662.728994,0.0,2025-04-09 22:37:42.728,FORWARD,11
125.0,16301.70837661128,2895.623790696119,-64351.275783929326,-62421.984961269496,-37191.20170965215,-34795.787608121354,-29968.07902670849,-22564.689524732774,0.0,0.0,0.0,193.0,1.0,155.0,0.0,44.0,3.0,250.0,411.0,44.0,1018.0,1744252662.7290025,0.0,2025-04-09 22:37:42.729,FORWARD,11
126.0,16240.598707270468,2904.7433024338848,-64317.34583584617,-62368.787809465866,-37146.9676073751,-34759.68954082603,-30053.507394016673,-22524.434032968766,0.0,0.0,0.0,193.0,1.0,155.0,0.0,44.0,3.0,252.0,411.0,44.0,1020.0,1744252662.7290108,0.0,2025-04-09 22:37:42.729,FORWARD,11
127.0,16159.931261531267,2888.113604559136,-64365.2903277028,-62433.31729570834,-37176.00252342255,-34789.99850630743,-29907.148171323322,-22557.313449062523,0.0,0.0,0.0,193.0,1.0,155.0,0.0,44.0,3.0,251.0,411.0,44.0,1019.0,1744252662.7290194,0.0,2025-04-09 22:37:42.729,FORWARD,11
128.0,16179.712555374213,2856.9105692995277,-64365.379734680624,-62393.82176325581,-37222.829428056415,-34835.014919640416,-29807.012356163545,-22593.635033802395,0.0,0.0,0.0,193.0,1.0,154.0,0.0,44.0,3.0,249.0,410.0,44.0,1017.0,1744252662.729028,0.0,2025-04-09 22:37:42.729,FORWARD,11
129.0,16295.114611996964,2876.5130491868317,-64374.07456327374,-62427.61760087223,-37223.6340908568,-34826.29773930284,-29856.14149047631,-22605.45910661925,0.0,0.0,0.0,193.0,1.0,154.0,0.0,44.0,3.0,250.0,410.0,44.0,1018.0,1744252662.7668219,0.0,2025-04-09 22:37:42.766,FORWARD,11
130.0,16258.45775109026,2903.67041870003,-64303.08542288368,-62365.52445477539,-37134.69649966914,-34741.85284875069,-30159.856994135025,-22528.1667742928,0.0,0.0,0.0,193.0,1.0,155.0,0.0,44.0,3.0,252.0,411.0,44.0,1020.0,1744252662.766883,0.0,2025-04-09 22:37:42.766,FORWARD,11
131.0,16175.801000094534,2887.2865900142897,-64353.93564151951,-62418.52044087892,-37167.01712215151,-34780.56607014729,-29868.63611562683,-22557.291097318066,0.0,0.0,0.0,193.0,1.0,155.0,0.0,44.0,3.0,252.0,411.0,44.0,1020.0,1744252662.766894,0.0,2025-04-09 22:37:42.766,FORWARD,11
132.0,16152.644592838837,2848.930996528983,-64367.07846725923,-62412.2843041759,-37213.95578550766,-34828.75643119293,-29875.967487808168,-22589.09762967797,0.0,0.0,0.0,193.0,1.0,155.0,0.0,44.0,3.0,250.0,411.0,44.0,1018.0,1744252662.7669036,0.0,2025-04-09 22:37:42.766,FORWARD,11
133.0,16283.670518835846,2873.47321194091,-64381.607101155176,-62424.287190948395,-37243.52714342203,-34848.58242852479,-29735.553829139928,-22607.269597920134,0.0,0.0,0.0,193.0,1.0,154.0,0.0,44.0,3.0,249.0,410.0,44.0,1017.0,1744252662.7669132,0.0,2025-04-09 22:37:42.766,FORWARD,11
134.0,16264.64918430438,2901.725816932418,-64318.95516144695,-62395.20757141204,-37150.72270044359,-34755.21919193497,-30230.55556184716,-22528.904381859826,0.0,0.0,0.0,193.0,1.0,154.0,0.0,44.0,3.0,249.0,410.0,44.0,1017.0,1744252662.7669227,0.0,2025-04-09 22:37:42.766,FORWARD,11
135.0,16197.39278523836,2897.501337230365,-64349.8899757731,-62412.39606289817,-37172.694465243156,-34788.45623594001,-29878.04620004251,-22565.404780555342,0.0,0.0,0.0,193.0,1.0,154.0,0.0,44.0,3.0,252.0,410.0,44.0,1020.0,1744252662.7669325,0.0,2025-04-09 22:37:42.766,FORWARD,11
136.0,16145.022647979577,2855.2341884653797,-64360.708220089466,-62424.30954269285,-37203.048134213466,-34821.24624505595,-29955.83027074698,-22601.100516450468,0.0,0.0,0.0,193.0,1.0,154.0,0.0,44.0,3.0,249.0,410.0,44.0,1017.0,1744252662.7669413,0.0,2025-04-09 22:37:42.766,FORWARD,11
137.0,16273.589882086502,2874.702557885952,-64362.49635964589,-62397.59920806876,-37237.000434041074,-34848.984759924984,-29661.368389292766,-22612.209333444756,0.0,0.0,0.0,193.0,1.0,154.0,0.0,44.0,3.0,251.0,410.0,44.0,1019.0,1744252663.072846,0.0,2025-04-09 22:37:43.072,FORWARD,11
138.0,16273.053440219575,2901.5470029767757,-64304.38182406209,-62395.78871676788,-37136.10465956982,-34744.758575529886,-30214.50700932825,-22526.22217252519,0.0,0.0,0.0,193.0,1.0,154.0,0.0,44.0,3.0,252.0,410.0,44.0,1020.0,1744252663.072882,0.0,2025-04-09 22:37:43.072,FORWARD,11
139.0,16213.284875546084,2906.374979779122,-64316.11648990113,-62379.98603343798,-37144.62067420729,-34765.94802927352,-29855.940324776213,-22534.17939355128,0.0,0.0,0.0,193.0,1.0,154.0,0.0,44.0,3.0,251.0,410.0,44.0,1019.0,1744252663.0729048,0.0,2025-04-09 22:37:43.072,FORWARD,11
140.0,16143.14510144533,2860.5986071346533,-64346.55956584926,-62427.10351074977,-37183.73622700408,-34793.41832320909,-29935.937218181756,-22558.811015941028,0.0,0.0,0.0,193.0,1.0,154.0,0.0,44.0,3.0,249.0,410.0,44.0,1017.0,1744252663.072925,0.0,2025-04-09 22:37:43.072,FORWARD,11
141.0,16256.893128978389,2872.5567904182426,-64352.68394383001,-62386.06570792982,-37237.156896252265,-34847.46484130202,-29610.29465321239,-22607.403708386864,0.0,0.0,0.0,193.0,1.0,154.0,0.0,44.0,3.0,252.0,410.0,44.0,1020.0,1744252663.0729425,0.0,2025-04-09 22:37:43.072,FORWARD,11
142.0,16291.471277650748,2906.57614547922,-64310.95323693195,-62409.02094948542,-37150.9685696326,-34754.325122156755,-30163.54503197015,-22538.31446627551,0.0,0.0,0.0,193.0,1.0,155.0,0.0,44.0,3.0,252.0,411.0,44.0,1020.0,1744252663.072952,0.0,2025-04-09 22:37:43.072,FORWARD,11
143.0,16233.177928111307,2914.24279382739,-64303.21953335041,-62365.367992564206,-37140.91028462771,-34755.30859891279,-29895.234691528643,-22531.27366677209,0.0,0.0,0.0,193.0,1.0,154.0,0.0,44.0,3.0,251.0,410.0,44.0,1019.0,1744252663.072961,0.0,2025-04-09 22:37:43.072,FORWARD,11
144.0,16150.76704630459,2877.764746876329,-64343.49737685888,-62429.808071828855,-37172.560354776426,-34782.93535505955,-29941.03341591757,-22563.236661343177,0.0,0.0,0.0,193.0,1.0,154.0,0.0,44.0,3.0,250.0,410.0,44.0,1018.0,1744252663.0729709,0.0,2025-04-09 22:37:43.072,FORWARD,11
145.0,16230.87569843241,2870.3663194616224,-64354.0921037307,-62386.043356185364,-37240.59906489838,-34849.65531225864,-29654.43934851162,-22619.04896724808,0.0,0.0,0.0,193.0,1.0,155.0,0.0,44.0,3.0,252.0,411.0,44.0,1020.0,1744252663.0730076,0.0,2025-04-09 22:37:43.073,FORWARD,11
146.0,16294.913446296865,2898.887145386594,-64332.85794649815,-62431.32799045181,-37180.20465138014,-34778.33089570176,-30078.831920484536,-22562.096722375958,0.0,0.0,0.0,193.0,1.0,155.0,0.0,44.0,3.0,252.0,411.0,44.0,1020.0,1744252663.0730166,0.0,2025-04-09 22:37:43.073,FORWARD,11
147.0,16248.31005910755,2916.857947928661,-64291.73073670039,-62362.10463787373,-37136.57404620339,-34747.41843312007,-29984.79813156106,-22523.159983534813,0.0,0.0,0.0,193.0,1.0,155.0,0.0,44.0,3.0,249.0,411.0,44.0,1017.0,1744252663.073026,0.0,2025-04-09 22:37:43.073,FORWARD,11
148.0,16163.462837155204,2885.4537469689544,-64345.91136526005,-62438.99463879999,-37174.34849433285,-34786.73515161695,-29915.93240689426,-22568.489321290177,0.0,0.0,0.0,193.0,1.0,154.0,0.0,44.0,3.0,250.0,410.0,44.0,1018.0,1744252663.0730348,0.0,2025-04-09 22:37:43.073,FORWARD,11
149.0,16212.480212745693,2869.606360150142,-64348.191243194495,-62391.40777485464,-37229.043213014986,-34844.76028022293,-29732.335177938367,-22618.601932358975,0.0,0.0,0.0,193.0,1.0,154.0,0.0,44.0,3.0,248.0,410.0,44.0,1016.0,1744252663.073044,0.0,2025-04-09 22:37:43.073,FORWARD,11
150.0,16310.604370904492,2903.2904390442895,-64345.173757693025,-62432.69144686359,-37200.05300045646,-34807.455218727024,-29957.059616692022,-22600.407612372353,0.0,0.0,0.0,193.0,1.0,155.0,0.0,44.0,3.0,252.0,411.0,44.0,1020.0,1744252663.0730531,0.0,2025-04-09 22:37:43.073,FORWARD,11
151.0,16258.54715806808,2918.4225700405327,-64295.284664068786,-62368.854864699235,-37138.07161308189,-34752.6040378337,-30086.252699643697,-22539.99084710966,0.0,0.0,0.0,193.0,1.0,155.0,0.0,44.0,3.0,252.0,411.0,44.0,1020.0,1744252663.073062,0.0,2025-04-09 22:37:43.073,FORWARD,11
152.0,16176.270386728096,2896.9425436189827,-64349.91232751755,-62435.37365619823,-37172.09096814287,-34789.93145107406,-29884.68466814574,-22571.395048069364,0.0,0.0,0.0,193.0,1.0,155.0,0.0,44.0,3.0,251.0,411.0,44.0,1019.0,1744252663.0730708,0.0,2025-04-09 22:37:43.073,FORWARD,11
153.0,16176.024517539086,2859.4586681674327,-64368.531330648824,-62415.771176310926,-37234.11705900634,-34853.05277741585,-29818.009414435557,-22636.617438389952,0.0,0.0,0.0,193.0,1.0,154.0,0.0,44.0,3.0,250.0,410.0,44.0,1018.0,1744252663.0730798,0.0,2025-04-09 22:37:43.073,FORWARD,11
154.0,16303.541219656614,2897.3001715302676,-64364.66447885805,-62428.77989158391,-37226.9868525251,-34823.7719921794,-29833.23095240962,-22606.353176397464,0.0,0.0,0.0,193.0,1.0,154.0,0.0,44.0,3.0,249.0,410.0,44.0,1017.0,1744252663.0730886,0.0,2025-04-09 22:37:43.073,FORWARD,11
155.0,16268.292518650595,2920.8365584417056,-64294.502353012846,-62366.86555944271,-37130.270854266986,-34727.99476718841,-30160.34873251304,-22502.484619913652,0.0,0.0,0.0,193.0,1.0,154.0,0.0,44.0,3.0,252.0,410.0,44.0,1020.0,1744252663.0730977,0.0,2025-04-09 22:37:43.073,FORWARD,11
156.0,16191.737793891169,2909.7500931918735,-64342.603307080666,-62413.73716756549,-37161.25037208204,-34771.3571514317,-29849.95005726219,-22552.373713537898,0.0,0.0,0.0,193.0,1.0,155.0,0.0,44.0,3.0,251.0,411.0,44.0,1019.0,1744252663.0731063,0.0,2025-04-09 22:37:43.073,FORWARD,11
157.0,16159.841854553444,2866.6782816264968,-64360.775275322834,-62415.547658866366,-37212.32410816242,-34826.118925347204,-29881.354258221898,-22609.01303398765,0.0,0.0,0.0,193.0,1.0,154.0,0.0,45.0,3.0,249.0,410.0,45.0,1017.0,1744252663.0731153,0.0,2025-04-09 22:37:43.073,FORWARD,11
158.0,16291.337167184016,2890.505241215854,-64371.45940917247,-62417.44755714507,-37237.46982067464,-34844.4250040561,-29701.757991523504,-22617.707862580763,0.0,0.0,0.0,193.0,1.0,154.0,0.0,44.0,3.0,249.0,410.0,44.0,1017.0,1744252663.0731244,0.0,2025-04-09 22:37:43.073,FORWARD,11
159.0,16273.500475108682,2916.075636872725,-64305.25354209585,-62389.03848994237,-37135.232941536065,-34740.24352314991,-30196.782075975192,-22519.22607651068,0.0,0.0,0.0,193.0,1.0,154.0,0.0,44.0,3.0,250.0,410.0,44.0,1018.0,1744252663.0731335,0.0,2025-04-09 22:37:43.073,FORWARD,11
160.0,16205.886448131378,2910.375942036622,-64339.317600645736,-62403.41066162714,-37163.1726221052,-34777.01214277889,-29835.242609410598,-22553.826576927495,0.0,0.0,0.0,193.0,1.0,155.0,0.0,44.0,3.0,252.0,411.0,44.0,1020.0,1744252663.0731905,0.0,2025-04-09 22:37:43.073,FORWARD,11
161.0,16144.128578201364,2863.5266856582984,-64374.07456327374,-62439.75459811147,-37215.94509076418,-34826.63301546968,-29931.645683246337,-22607.738984553693,0.0,0.0,0.0,193.0,1.0,154.0,0.0,44.0,3.0,251.0,410.0,44.0,1019.0,1744252663.0731995,0.0,2025-04-09 22:37:43.073,FORWARD,11
162.0,16279.289576922605,2886.3031132582564,-64377.80730459777,-62410.026777985906,-37256.938190095214,-34865.972085711015,-29651.064235098867,-22637.869136079447,0.0,0.0,0.0,193.0,1.0,154.0,0.0,44.0,3.0,249.0,410.0,44.0,1017.0,1744252663.0732083,0.0,2025-04-09 22:37:43.073,FORWARD,11
163.0,16285.481010136726,2911.828805426217,-64321.480908570404,-62411.54669660887,-37156.690616213156,-34763.332875172244,-30223.067727454632,-22554.854757172438,0.0,0.0,0.0,193.0,1.0,154.0,0.0,44.0,3.0,249.0,410.0,44.0,1017.0,1744252663.0732172,0.0,2025-04-09 22:37:43.073,FORWARD,11
164.0,16215.20712556924,2909.86185191415,-64336.97066747793,-62393.799411511354,-37166.07834888439,-34782.98005854846,-29875.63221164134,-22557.98400139618,0.0,0.0,0.0,193.0,1.0,154.0,0.0,44.0,3.0,249.0,410.0,44.0,1017.0,1744252663.073226,0.0,2025-04-09 22:37:43.073,FORWARD,11
165.0,16140.775816533069,2870.2992642282566,-64368.59838588219,-62443.62144990223,-37196.72259053261,-34815.32303277529,-29955.204421902232,-22588.024745944113,0.0,0.0,0.0,193.0,1.0,154.0,0.0,44.0,3.0,250.0,410.0,44.0,1018.0,1744252663.0732348,0.0,2025-04-09 22:37:43.073,FORWARD,11
166.0,16252.378076598416,2877.2059532649464,-64369.78302833832,-62394.648777800656,-37248.757451624566,-34866.44147234457,-29626.834944109316,-22629.308417953067,0.0,0.0,0.0,193.0,1.0,155.0,0.0,44.0,3.0,252.0,411.0,44.0,1020.0,1744252663.073244,0.0,2025-04-09 22:37:43.073,FORWARD,11
167.0,16295.449888163792,2911.7393984483956,-64325.43716733899,-62417.49226063398,-37159.99867439255,-34766.66328509609,-30150.357502741517,-22550.250297814644,0.0,0.0,0.0,193.0,1.0,155.0,0.0,44.0,3.0,251.0,411.0,44.0,1019.0,1744252663.073253,0.0,2025-04-09 22:37:43.073,FORWARD,11
168.0,16237.514166535637,2922.021200897837,-64314.551867789254,-62372.22997811199,-37149.51570624301,-34764.13753797264,-29906.768191667583,-22537.778024408584,0.0,0.0,0.0,193.0,1.0,154.0,0.0,44.0,3.0,249.0,410.0,44.0,1017.0,1744252663.0732615,0.0,2025-04-09 22:37:43.073,FORWARD,11
169.0,16161.115903987398,2889.5888196931865,-64354.606193853164,-62438.36878995524,-37180.20465138014,-34793.17245402008,-29933.38911931385,-22573.2278911147,0.0,0.0,0.0,193.0,1.0,153.0,0.0,45.0,3.0,249.0,409.0,45.0,1017.0,1744252663.0732703,0.0,2025-04-09 22:37:43.073,FORWARD,11
170.0,16235.167233367829,2877.5859329206864,-64361.199958467485,-62388.72556552,-37242.70012887718,-34852.13635589318,-29666.57634575085,-22623.608723116962,0.0,0.0,0.0,193.0,1.0,155.0,0.0,44.0,3.0,252.0,411.0,44.0,1020.0,1744252663.0732803,0.0,2025-04-09 22:37:43.073,FORWARD,11
171.0,16305.195248746306,2906.598497223675,-64344.01146698135,-62432.199708485576,-37187.111340416835,-34780.49901491392,-30047.71829220275,-22569.025763157104,0.0,0.0,0.0,193.0,1.0,155.0,0.0,44.0,3.0,252.0,411.0,44.0,1020.0,1744252663.0732892,0.0,2025-04-09 22:37:43.073,FORWARD,11
172.0,16241.202204370762,2911.0017908813707,-64314.998902678366,-62375.11335314672,-37152.37672953329,-34758.63900883663,-29994.476436910205,-22542.002504110635,0.0,0.0,0.0,193.0,1.0,155.0,0.0,44.0,3.0,251.0,411.0,44.0,1019.0,1744252663.073298,0.0,2025-04-09 22:37:43.073,FORWARD,11
173.0,16161.67469759878,2886.9513138474604,-64358.473045643936,-62442.54856616838,-37180.539927546975,-34791.18314876356,-29917.29586330603,-22588.24826338867,0.0,0.0,0.0,193.0,1.0,155.0,0.0,44.0,3.0,250.0,411.0,44.0,1018.0,1744252663.0733068,0.0,2025-04-09 22:37:43.073,FORWARD,11
174.0,16195.626997426392,2859.860999567628,-64367.25728121487,-62404.997635483465,-37242.409556199265,-34856.69611176206,-29755.044550304956,-22647.748607128695,0.0,0.0,0.0,193.0,1.0,154.0,0.0,44.0,3.0,249.0,410.0,44.0,1017.0,1744252663.0733156,0.0,2025-04-09 22:37:43.073,FORWARD,11
175.0,16304.256475479184,2901.0776163432142,-64360.88703404511,-62440.46985393404,-37214.06754422993,-34815.39008800866,-29937.68065424927,-22619.205429459267,0.0,0.0,0.0,193.0,1.0,154.0,0.0,44.0,3.0,250.0,410.0,44.0,1018.0,1744252663.0733304,0.0,2025-04-09 22:37:43.073,FORWARD,11
176.0,16253.473312076727,2913.795758938284,-64306.795812463264,-62378.24259737046,-37143.03370035097,-34748.62542732065,-30105.87753127546,-22532.257143528124,0.0,0.0,0.0,193.0,1.0,155.0,0.0,44.0,3.0,252.0,411.0,44.0,1020.0,1744252663.0733397,0.0,2025-04-09 22:37:43.073,FORWARD,11
177.0,16183.355889720428,2907.1796425795133,-64344.771426292835,-62427.05880726085,-37160.98215114858,-34766.953857774,-29883.2541565006,-22542.94127737776,0.0,0.0,0.0,193.0,1.0,155.0,0.0,44.0,3.0,251.0,411.0,44.0,1019.0,1744252663.0733483,0.0,2025-04-09 22:37:43.073,FORWARD,11
178.0,16184.406421709828,2878.4800026988987,-64349.308830417256,-62402.471888360014,-37204.21042492514,-34821.24624505595,-29827.777126762525,-22592.785667513093,0.0,0.0,0.0,193.0,1.0,154.0,0.0,45.0,3.0,250.0,410.0,45.0,1018.0,1744252663.073357,0.0,2025-04-09 22:37:43.073,FORWARD,11
179.0,16304.167068501363,2897.5236889748203,-64359.50122588888,-62428.04228401688,-37211.430038384206,-34826.78947768086,-29784.839425663882,-22607.00137698667,0.0,0.0,0.0,193.0,1.0,154.0,0.0,44.0,3.0,249.0,410.0,44.0,1017.0,1744252663.0733657,0.0,2025-04-09 22:37:43.073,FORWARD,11
180.0,16268.65014656188,2915.4274362835213,-64299.30797807074,-62383.674071273104,-37124.884083853256,-34743.708043540486,-30166.24959304924,-22538.001541853137,0.0,0.0,0.0,193.0,1.0,154.0,0.0,44.0,3.0,249.0,410.0,44.0,1017.0,1744252663.0733745,0.0,2025-04-09 22:37:43.073,FORWARD,11
181.0,16198.868000372411,2909.0348373693037,-64342.87152801413,-62420.04035950189,-37157.651741224734,-34779.58259339126,-29849.77124330655,-22574.792513226574,0.0,0.0,0.0,193.0,1.0,155.0,0.0,45.0,3.0,251.0,411.0,45.0,1019.0,1744252663.073383,0.0,2025-04-09 22:37:43.073,FORWARD,11
182.0,16152.733999816657,2856.2623687103237,-64373.292252217805,-62437.83234808831,-37217.509712876046,-34836.13250686318,-29901.515531720586,-22621.351196926975,0.0,0.0,0.0,193.0,1.0,155.0,0.0,45.0,3.0,252.0,411.0,45.0,1020.0,1744252663.073392,0.0,2025-04-09 22:37:43.073,FORWARD,11
183.0,16290.197228216795,2884.5820289351977,-64374.32043246275,-62426.58942062729,-37241.11315502085,-34849.76707098092,-29698.27111938848,-22627.85555456347,0.0,0.0,0.0,193.0,1.0,155.0,0.0,44.0,3.0,250.0,411.0,44.0,1018.0,1744252663.0734005,0.0,2025-04-09 22:37:43.073,FORWARD,11
184.0,16276.473257121237,2912.566412993242,-64307.28755084128,-62401.95779823754,-37136.93167411467,-34740.623502805654,-30216.07163144012,-22530.40194873833,0.0,0.0,0.0,193.0,1.0,154.0,0.0,44.0,3.0,249.0,410.0,44.0,1017.0,1744252663.0734093,0.0,2025-04-09 22:37:43.073,FORWARD,11
185.0,16214.424814513304,2918.3331630627113,-64329.97457146342,-62401.51076334844,-37153.24844756704,-34759.33191291474,-29849.212449695166,-22543.45536750023,0.0,0.0,0.0,193.0,1.0,155.0,0.0,44.0,3.0,252.0,411.0,44.0,1020.0,1744252663.073418,0.0,2025-04-09 22:37:43.073,FORWARD,11
186.0,16145.469682868683,2871.729775873396,-64362.04932475679,-62440.31339172285,-37201.72938129061,-34800.190901779046,-29947.224849131686,-22592.629205301906,0.0,0.0,0.0,193.0,1.0,155.0,0.0,44.0,3.0,251.0,411.0,44.0,1019.0,1744252663.0734265,0.0,2025-04-09 22:37:43.073,FORWARD,11
187.0,16271.198245429785,2889.924095860016,-64365.245624213894,-62406.741071550976,-37244.2423992446,-34839.954655165035,-29652.070063599356,-22626.939133040803,0.0,0.0,0.0,193.0,1.0,154.0,0.0,44.0,3.0,249.0,410.0,44.0,1017.0,1744252663.0734353,0.0,2025-04-09 22:37:43.073,FORWARD,11
188.0,16293.549989885092,2922.334125320211,-64306.12526012961,-62410.92084776412,-37140.619711949796,-34731.83926723472,-30217.926826229912,-22534.425262740286,0.0,0.0,0.0,193.0,1.0,154.0,0.0,44.0,3.0,251.0,410.0,44.0,1019.0,1744252663.073444,0.0,2025-04-09 22:37:43.073,FORWARD,11
189.0,16220.951523894255,2912.119378104136,-64327.985266206895,-62399.29794064736,-37162.144441860255,-34765.0539594953,-29881.287202988533,-22554.452425772244,0.0,0.0,0.0,193.0,1.0,154.0,0.0,44.0,3.0,249.0,410.0,44.0,1017.0,1744252663.0734525,0.0,2025-04-09 22:37:43.073,FORWARD,11
190.0,16139.926450243765,2868.4217176940106,-64368.93366204902,-62460.40760998817,-37199.38244812279,-34804.88476811466,-29972.728189555193,-22597.90421699336,0.0,0.0,0.0,193.0,1.0,154.0,0.0,45.0,3.0,250.0,410.0,45.0,1018.0,1744252663.0734663,0.0,2025-04-09 22:37:43.073,FORWARD,11
191.0,16243.392675327383,2874.6802061414965,-64370.23006322743,-62407.54573435137,-37250.433832458715,-34858.79717574086,-29657.322723546356,-22640.14901401389,0.0,0.0,0.0,193.0,1.0,155.0,0.0,44.0,3.0,252.0,411.0,44.0,1020.0,1744252663.0734751,0.0,2025-04-09 22:37:43.073,FORWARD,11
192.0,16292.834734062522,2908.274878057823,-64332.388559864594,-62435.70893236506,-37167.799433207445,-34766.17154671807,-30153.643209176447,-22570.433923057786,0.0,0.0,0.0,193.0,1.0,155.0,0.0,44.0,3.0,251.0,411.0,44.0,1019.0,1744252663.0734837,0.0,2025-04-09 22:37:43.073,FORWARD,11
193.0,16231.30038157706,2915.807415939262,-64315.69180675648,-62383.69642301756,-37150.76740393251,-34760.002465248406,-29951.605791044927,-22556.75465545114,0.0,0.0,0.0,193.0,1.0,154.0,0.0,44.0,3.0,250.0,410.0,44.0,1018.0,1744252663.0734923,0.0,2025-04-09 22:37:43.073,FORWARD,11
194.0,16151.281136427062,2885.5208022023207,-64357.51192063236,-62451.66807790614,-37183.400950837255,-34789.19384350703,-29957.84192774796,-22591.064583190037,0.0,0.0,0.0,193.0,1.0,154.0,0.0,44.0,3.0,250.0,410.0,44.0,1018.0,1744252663.073501,0.0,2025-04-09 22:37:43.073,FORWARD,11
195.0,16224.080768117998,2878.4800026988987,-64359.25535669987,-62399.610865069735,-37245.65055914528,-34843.62034125571,-29706.049526458923,-22636.14805175639,0.0,0.0,0.0,193.0,1.0,155.0,0.0,44.0,3.0,252.0,411.0,44.0,1020.0,1744252663.07351,0.0,2025-04-09 22:37:43.073,FORWARD,11
196.0,16303.94355105681,2910.152424592069,-64347.74420830539,-62445.45429294757,-37200.99177372358,-34790.84787259673,-30054.2450015837,-22620.121850981934,0.0,0.0,0.0,193.0,1.0,155.0,0.0,44.0,3.0,250.0,411.0,44.0,1018.0,1744252663.0735185,0.0,2025-04-09 22:37:43.073,FORWARD,11
197.0,16247.25952711815,2918.2661078293454,-64308.85217295316,-62385.86454222972,-37150.56623823241,-34763.08700598324,-30053.79796669459,-22587.018917443624,0.0,0.0,0.0,193.0,1.0,155.0,0.0,45.0,3.0,250.0,411.0,45.0,1018.0,1744252663.0735273,0.0,2025-04-09 22:37:43.073,FORWARD,11
198.0,16161.205310965219,2891.4887179718876,-64354.11445547515,-62451.31044999486,-37174.54966003295,-34786.15400626112,-29914.88187490486,-22577.787646983583,0.0,0.0,0.0,193.0,1.0,155.0,0.0,44.0,3.0,252.0,411.0,44.0,1020.0,1744252663.073536,0.0,2025-04-09 22:37:43.073,FORWARD,11
199.0,16185.903988588332,2865.1807147479913,-64359.47887414442,-62412.97720825401,-37228.41736417024,-34847.82246921331,-29756.631524161283,-22617.171420713836,0.0,0.0,0.0,193.0,1.0,155.0,0.0,44.0,3.0,251.0,411.0,44.0,1019.0,1744252663.0735447,0.0,2025-04-09 22:37:43.073,FORWARD,11
200.0,16302.490687667214,2901.8822791436055,-64355.07558048673,-62445.16372026965,-37210.26774767253,-34818.5193322324,-29888.35035423641,-22609.75064155467,0.0,0.0,0.0,193.0,1.0,154.0,0.0,44.0,3.0,249.0,410.0,44.0,1017.0,1744252663.073553,0.0,2025-04-09 22:37:43.073,FORWARD,11
201.0,16258.569509812536,2918.601383996175,-64297.05045188075,-62383.58466429528,-37137.98220610407,-34748.312502898276,-30120.24970296022,-22536.727492419184,0.0,0.0,0.0,193.0,1.0,154.0,0.0,44.0,3.0,250.0,410.0,44.0,1018.0,1744252663.073562,0.0,2025-04-09 22:37:43.073,FORWARD,11
202.0,16195.96227359322,2918.6460874850854,-64329.12520517412,-62425.51653689344,-37150.52153474349,-34770.328971186755,-29876.950964564203,-22549.4232832698,0.0,0.0,0.0,193.0,1.0,155.0,0.0,44.0,3.0,252.0,411.0,44.0,1020.0,1744252663.0735707,0.0,2025-04-09 22:37:43.073,FORWARD,11
203.0,16187.312148489018,2882.95035158996,-64339.29524890128,-62407.94806575157,-37200.50003534556,-34822.3191287898,-29831.554571575474,-22595.646690803373,0.0,0.0,0.0,193.0,1.0,155.0,0.0,44.0,3.0,251.0,411.0,44.0,1019.0,1744252663.0735795,0.0,2025-04-09 22:37:43.073,FORWARD,11
204.0,16304.882324323933,2899.4235872535214,-64357.86954854364,-62433.92079280863,-37223.70114609017,-34840.580504009784,-29754.55281192694,-22620.926513782324,0.0,0.0,0.0,193.0,1.0,154.0,0.0,44.0,3.0,248.0,410.0,44.0,1016.0,1744252663.073593,0.0,2025-04-09 22:37:43.073,FORWARD,11
205.0,16262.995155214687,2909.1912995804905,-64298.61507399262,-62399.476754603005,-37136.52934271447,-34755.82268903526,-30187.30493632614,-22543.70123668924,0.0,0.0,0.0,193.0,1.0,154.0,0.0,44.0,3.0,250.0,410.0,44.0,1018.0,1744252663.0736015,0.0,2025-04-09 22:37:43.073,FORWARD,11
206.0,16186.77570662209,2900.6305814541083,-64340.41283612405,-62431.10447300726,-37165.698369228645,-34787.40570395061,-29853.57103986395,-22573.116132392424,0.0,0.0,0.0,193.0,1.0,154.0,0.0,44.0,3.0,251.0,410.0,44.0,1019.0,1744252663.0736103,0.0,2025-04-09 22:37:43.073,FORWARD,11
207.0,16141.781645033558,2857.5587698887316,-64362.228138712424,-62443.95672606907,-37212.83819828489,-34827.3706230367,-29919.039299373544,-22613.930417767813,0.0,0.0,0.0,193.0,1.0,154.0,0.0,45.0,3.0,249.0,410.0,45.0,1017.0,1744252663.0736191,0.0,2025-04-09 22:37:43.073,FORWARD,11
208.0,16279.066059478053,2881.3857294780887,-64367.68196435952,-62429.5845543843,-37243.97417831113,-34849.99058842547,-29684.144816892724,-22634.47167092224,0.0,0.0,0.0,193.0,1.0,154.0,0.0,44.0,3.0,252.0,410.0,44.0,1020.0,1744252663.073628,0.0,2025-04-09 22:37:43.073,FORWARD,11
209.0,16272.31583265255,2906.017351867837,-64308.67335899751,-62417.983999011994,-37142.25138929503,-34747.194915675514,-30232.947198503876,-22545.243507056657,0.0,0.0,0.0,193.0,1.0,154.0,0.0,44.0,3.0,251.0,410.0,44.0,1019.0,1744252663.0736368,0.0,2025-04-09 22:37:43.073,FORWARD,11
210.0,16205.282951031084,2906.084407101203,-64332.34385637568,-62416.0841007333,-37159.21636333661,-34774.88872705564,-29866.646810370305,-22560.934431664282,0.0,0.0,0.0,193.0,1.0,154.0,0.0,45.0,3.0,250.0,410.0,45.0,1018.0,1744252663.0736454,0.0,2025-04-09 22:37:43.073,FORWARD,11
211.0,16132.282153640052,2861.47032516841,-64365.938528292005,-62460.07233382134,-37202.93637549119,-34818.07229734329,-29960.30061963804,-22602.933359495804,0.0,0.0,0.0,193.0,1.0,154.0,0.0,45.0,3.0,252.0,410.0,45.0,1020.0,1744252663.073654,0.0,2025-04-09 22:37:43.073,FORWARD,11
212.0,16253.674477776824,2871.5956654066645,-64373.40401094008,-62426.00827527145,-37255.01594007206,-34868.207260156545,-29648.896115886702,-22647.659200150872,0.0,0.0,0.0,193.0,1.0,155.0,0.0,44.0,3.0,252.0,411.0,44.0,1020.0,1744252663.0736628,0.0,2025-04-09 22:37:43.073,FORWARD,11
213.0,16278.663728077858,2904.76565417834,-64319.20103063596,-62438.45819693306,-37156.891781913255,-34766.39506416262,-30224.27472165522,-22577.161798138834,0.0,0.0,0.0,193.0,1.0,155.0,0.0,44.0,3.0,251.0,411.0,44.0,1019.0,1744252663.0736718,0.0,2025-04-09 22:37:43.073,FORWARD,11
214.0,16212.279047045595,2906.218517567935,-64327.5829348067,-62410.54086810838,-37164.938409917166,-34788.0092010509,-29923.666110475795,-22601.74871703967,0.0,0.0,0.0,193.0,1.0,154.0,0.0,45.0,3.0,251.0,410.0,45.0,1019.0,1744252663.545849,0.0,2025-04-09 22:37:43.545,FORWARD,11
215.0,16131.410435606294,2863.951368802949,-64366.87730155913,-62468.99067985901,-37199.09187544488,-34807.61168093821,-29989.89432929687,-22602.41926937333,0.0,0.0,0.0,193.0,1.0,155.0,0.0,45.0,3.0,252.0,411.0,45.0,1020.0,1744252663.5458844,0.0,2025-04-09 22:37:43.545,FORWARD,11
216.0,16235.770730468123,2869.4946014278653,-64363.21161546846,-62410.40675764165,-37247.59516091289,-34856.606704784244,-29671.046694641915,-22625.396862673388,0.0,0.0,0.0,193.0,1.0,155.0,0.0,44.0,3.0,250.0,411.0,44.0,1018.0,1744252663.5459049,0.0,2025-04-09 22:37:43.545,FORWARD,11
217.0,16297.595655631503,2905.570316978731,-64327.5829348067,-62442.36975221274,-37160.91509591521,-34773.771139832876,-30125.837639074045,-22561.31441132002,0.0,0.0,0.0,193.0,1.0,155.0,0.0,44.0,3.0,252.0,411.0,44.0,1020.0,1744252663.5459247,0.0,2025-04-09 22:37:43.545,FORWARD,11
218.0,16233.26733508913,2907.000828623871,-64310.796774720766,-62392.23478939948,-37142.94429337315,-34767.57970661875,-29958.668942292803,-22551.323181548498,0.0,0.0,0.0,193.0,1.0,155.0,0.0,45.0,3.0,249.0,411.0,45.0,1017.0,1744252663.5459447,0.0,2025-04-09 22:37:43.545,FORWARD,11
