Sample Index,EXG Channel 0,EXG Channel 1,EXG Channel 2,EXG Channel 3,EXG Channel 4,EXG Channel 5,EXG Channel 6,EXG Channel 7,Accel Channel 0,Accel Channel 1,Accel Channel 2,Not Used,Digital Channel 0 (D11),Digital Channel 1 (D12),Digital Channel 2 (D13),Digital Channel 3 (D17),Not Used,Digital Channel 4 (D18),Analog Channel 0,Analog Channel 1,Analog Channel 2,Timestamp,Marker Channel,Timestamp (Formatted),Stimulus_Direction,Stimulus_Number
25.0,7925.168624540404,-12527.99630498842,-21626.60916168799,-23799.37753669948,17263.593347500962,6890.864001615525,39840.39751772851,44291.72507425846,0.0,0.0,0.0,193.0,0.0,193.0,0.0,1.0,0.0,179.0,193.0,1.0,179.0,1744418790.0718217,0.0,2025-04-11 20:46:30.071,FORWARD,33
26.0,7898.2794759606695,-12566.10602928472,-21653.900641667922,-23852.239412336283,17298.70793804025,6654.941338889759,40191.878699288216,44227.82143686074,0.0,0.0,0.0,193.0,0.0,193.0,0.0,1.0,0.0,179.0,193.0,1.0,179.0,1744418790.072428,0.0,2025-04-11 20:46:30.072,FORWARD,33
27.0,7900.9840370397615,-12549.543386643338,-21675.939461700855,-23825.43967073437,17172.800561523505,6593.16111721529,40082.89159332414,44119.34842101913,0.0,0.0,0.0,193.0,0.0,193.0,0.0,1.0,0.0,178.0,193.0,1.0,178.0,1744418790.072489,0.0,2025-04-11 20:46:30.072,FORWARD,33
28.0,7909.9023830774295,-12518.116833939175,-21676.565310545604,-23792.247330218237,17113.34492127239,6876.760050864226,39811.273194703244,44224.13339902561,0.0,0.0,0.0,193.0,0.0,193.0,0.0,1.0,0.0,178.0,193.0,1.0,178.0,1744418790.0725565,0.0,2025-04-11 20:46:30.072,FORWARD,33
29.0,7917.434920958868,-12511.813642002779,-21634.61108620299,-23795.84596107554,17222.84611735894,6906.398464011963,39783.601735067576,44270.42386179255,0.0,0.0,0.0,193.0,0.0,193.0,0.0,1.0,0.0,179.0,193.0,1.0,179.0,1744418790.0726268,0.0,2025-04-11 20:46:30.072,FORWARD,33
30.0,7893.004464269217,-12556.070096024287,-21641.09309209503,-23845.645647721965,17342.517357172652,6716.430987886309,40157.56877154932,44229.050782805774,0.0,0.0,0.0,193.0,0.0,193.0,0.0,1.0,0.0,178.0,193.0,1.0,178.0,1744418790.0727015,0.0,2025-04-11 20:46:30.072,FORWARD,33
31.0,7899.464118416801,-12549.699848854525,-21664.070685395087,-23832.122842326506,17229.350474995434,6569.669433792763,40104.50573021242,44086.938391558935,0.0,0.0,0.0,193.0,0.0,192.0,0.0,1.0,0.0,178.0,192.0,1.0,178.0,1744418790.072766,0.0,2025-04-11 20:46:30.072,FORWARD,33
32.0,7899.508821905712,-12535.148863214119,-21679.314575113603,-23804.98782455776,17121.033921365015,6835.454027110819,39849.06999457717,44177.9770467254,0.0,0.0,0.0,193.0,0.0,193.0,0.0,1.0,0.0,179.0,193.0,1.0,179.0,1744418790.0728395,0.0,2025-04-11 20:46:30.072,FORWARD,33
33.0,7912.606944156521,-12528.577450344259,-21639.170842071875,-23793.09669650754,17182.367108150378,6942.049496418178,39735.72429844431,44257.75042268639,0.0,0.0,0.0,193.0,0.0,193.0,0.0,1.0,0.0,179.0,193.0,1.0,179.0,1744418790.072912,0.0,2025-04-11 20:46:30.072,FORWARD,33
34.0,7889.405833411913,-12565.368421717694,-21631.705359423802,-23841.19765057536,17330.112138999957,6784.715567197271,40105.243337779444,44249.36851851565,0.0,0.0,0.0,193.0,0.0,192.0,0.0,1.0,0.0,178.0,192.0,1.0,178.0,1744418790.0729685,0.0,2025-04-11 20:46:30.072,FORWARD,33
35.0,7890.299903190125,-12565.837808351256,-21672.72081049929,-23854.72045597082,17219.918038835294,6550.20106437219,40140.693204485564,44102.159929533,0.0,0.0,0.0,193.0,0.0,193.0,0.0,1.0,0.0,179.0,193.0,1.0,179.0,1744418790.0730429,0.0,2025-04-11 20:46:30.073,FORWARD,33
36.0,7902.6827696183655,-12537.071113237276,-21694.938444487863,-23811.067499049605,17088.19920876017,6756.105334294479,39903.58589930367,44158.41927032701,0.0,0.0,0.0,193.0,0.0,193.0,0.0,1.0,0.0,179.0,193.0,1.0,179.0,1744418790.0731137,0.0,2025-04-11 20:46:30.073,FORWARD,33
37.0,7920.653572160432,-12517.759206027891,-21666.127045884972,-23794.482504663767,17090.94847332817,6918.669571717927,39723.02850759369,44251.67074819455,0.0,0.0,0.0,193.0,0.0,192.0,0.0,1.0,0.0,178.0,192.0,1.0,178.0,1744418790.0733392,0.0,2025-04-11 20:46:30.073,FORWARD,33
38.0,7902.70512136282,-12559.400505948128,-21645.608144475,-23832.301656282147,17255.144388096858,6804.049826151112,40045.69829055051,44253.05655635078,0.0,0.0,0.0,193.0,0.0,192.0,0.0,1.0,0.0,178.0,192.0,1.0,178.0,1744418790.073399,0.0,2025-04-11 20:46:30.073,FORWARD,33
39.0,7903.1521562519265,-12563.513226927904,-21674.598357033534,-23856.44154029388,17217.839326600948,6553.442067318209,40163.29081812988,44107.74786564682,0.0,0.0,0.0,193.0,0.0,193.0,0.0,1.0,0.0,178.0,193.0,1.0,178.0,1744418790.0734465,0.0,2025-04-11 20:46:30.073,FORWARD,33
40.0,7908.360112710013,-12527.772787543869,-21690.132819429975,-23820.27641776519,17148.68302925623,6716.90037451987,39943.260245711834,44119.862511141604,0.0,0.0,0.0,193.0,0.0,192.0,0.0,1.0,0.0,178.0,192.0,1.0,178.0,1744418790.0734887,0.0,2025-04-11 20:46:30.073,FORWARD,33
41.0,7930.130711809482,-12512.104214680698,-21668.473979052782,-23798.729336110275,17144.369142576354,6930.963031168346,39709.79627487616,44223.64166064759,0.0,0.0,0.0,193.0,0.0,193.0,0.0,1.0,0.0,179.0,193.0,1.0,179.0,1744418790.0737123,0.0,2025-04-11 20:46:30.073,FORWARD,33
42.0,7903.37567369648,-12559.847540837234,-21648.111539853995,-23840.325932541604,17297.746813028672,6850.78732380716,39957.252437740855,44247.379213259126,0.0,0.0,0.0,193.0,0.0,193.0,0.0,1.0,0.0,179.0,193.0,1.0,179.0,1744418790.073748,0.0,2025-04-11 20:46:30.073,FORWARD,33
43.0,7896.692502104343,-12564.206131006018,-21665.456493551315,-23865.53870028719,17277.294966852067,6596.044492250025,40154.90891395914,44108.79839763622,0.0,0.0,0.0,193.0,0.0,193.0,0.0,1.0,0.0,178.0,193.0,1.0,178.0,1744418790.0737808,0.0,2025-04-11 20:46:30.073,FORWARD,33
44.0,7894.613789869999,-12550.415104677095,-21694.938444487863,-23838.403682518445,17138.512985529065,6698.974275466714,39982.420501997534,44088.52536541526,0.0,0.0,0.0,193.0,0.0,192.0,0.0,1.0,0.0,178.0,192.0,1.0,178.0,1744418790.073813,0.0,2025-04-11 20:46:30.073,FORWARD,33
45.0,7900.693464361842,-12540.490930138938,-21690.490447341257,-23820.321121254103,17069.155522484245,6929.80074045667,39720.97214710381,44197.62423010162,0.0,0.0,0.0,193.0,0.0,193.0,0.0,1.0,0.0,179.0,193.0,1.0,179.0,1744418790.0738444,0.0,2025-04-11 20:46:30.073,FORWARD,33
46.0,7904.761481852709,-12550.504511654915,-21639.66258044989,-23829.08300508058,17232.032684330068,6875.910684574925,39852.825087645666,44210.34237269669,0.0,0.0,0.0,193.0,0.0,192.0,0.0,1.0,0.0,178.0,192.0,1.0,178.0,1744418790.0738766,0.0,2025-04-11 20:46:30.073,FORWARD,33
47.0,7902.436900429357,-12560.652203637625,-21651.263135822195,-23855.56982226012,17259.927661410293,6633.081332812469,40144.671814998605,44097.64487715303,0.0,0.0,0.0,193.0,0.0,193.0,0.0,1.0,0.0,179.0,193.0,1.0,179.0,1744418790.0739083,0.0,2025-04-11 20:46:30.073,FORWARD,33
48.0,7913.8362901015635,-12540.267412694386,-21681.616804792502,-23822.95862709983,17140.412883807767,6620.631411150863,40003.5429005078,44016.08336163561,0.0,0.0,0.0,193.0,0.0,193.0,0.0,1.0,0.0,179.0,193.0,1.0,179.0,1744418790.07394,0.0,2025-04-11 20:46:30.073,FORWARD,33
49.0,7919.08895004856,-12517.848613005712,-21686.981223461775,-23796.76238259821,17050.536519352976,6885.186658523877,39743.94974040386,44131.619528725096,0.0,0.0,0.0,193.0,0.0,192.0,0.0,1.0,0.0,178.0,192.0,1.0,178.0,1744418790.073972,0.0,2025-04-11 20:46:30.073,FORWARD,33
50.0,7916.339685480558,-12529.96325850049,-21644.5576124856,-23809.413469959913,17198.080384502457,6887.93592309188,39790.75429329328,44168.05287218725,0.0,0.0,0.0,193.0,0.0,192.0,0.0,1.0,0.0,178.0,192.0,1.0,178.0,1744418790.0740104,0.0,2025-04-11 20:46:30.074,FORWARD,33
51.0,7894.300865447625,-12567.625947907682,-21657.029885891665,-23856.977982160806,17305.771089288126,6674.7673362216165,40148.04692841136,44112.64289768254,0.0,0.0,0.0,193.0,0.0,193.0,0.0,1.0,0.0,179.0,193.0,1.0,179.0,1744418790.0740428,0.0,2025-04-11 20:46:30.074,FORWARD,33
52.0,7901.788699840153,-12554.349011701228,-21684.746049016245,-23841.532926742188,17185.83162854095,6583.214590932678,40055.08602322174,44011.72477146683,0.0,0.0,0.0,193.0,0.0,192.0,0.0,1.0,0.0,178.0,192.0,1.0,178.0,1744418790.0740752,0.0,2025-04-11 20:46:30.074,FORWARD,33
53.0,7914.059807546117,-12528.041008477332,-21691.67508979739,-23809.301711237636,17073.916444053226,6862.83491406857,39792.5424328497,44123.23762455436,0.0,0.0,0.0,193.0,0.0,192.0,0.0,1.0,0.0,178.0,192.0,1.0,178.0,1744418790.0741303,0.0,2025-04-11 20:46:30.074,FORWARD,33
54.0,7905.90142081993,-12534.210089946997,-21657.70043822532,-23814.219095017805,17145.978468177138,6928.884318934002,39754.81268820914,44197.06543649024,0.0,0.0,0.0,193.0,0.0,192.0,0.0,1.0,0.0,178.0,192.0,1.0,178.0,1744418790.0741637,0.0,2025-04-11 20:46:30.074,FORWARD,33
55.0,7887.863563044497,-12562.216825749496,-21650.614935232992,-23853.982848403793,17280.625376775908,6721.415426899842,40121.11307634271,44166.86822973111,0.0,0.0,0.0,193.0,0.0,193.0,0.0,1.0,0.0,179.0,193.0,1.0,179.0,1744418790.0741951,0.0,2025-04-11 20:46:30.074,FORWARD,33
56.0,7892.579781124567,-12548.135226742654,-21680.09688616954,-23844.036322121185,17186.12220121887,6555.610186530374,40088.56893641579,44035.23880663381,0.0,0.0,0.0,193.0,0.0,192.0,0.0,1.0,0.0,178.0,192.0,1.0,178.0,1744418790.0742364,0.0,2025-04-11 20:46:30.074,FORWARD,33
57.0,7893.2279817137705,-12538.881604538155,-21709.28826442817,-23813.23561826177,17069.691964351176,6818.623163535973,39834.630767659044,44134.43584852646,0.0,0.0,0.0,193.0,0.0,193.0,0.0,1.0,0.0,179.0,193.0,1.0,179.0,1744418790.0744624,0.0,2025-04-11 20:46:30.074,FORWARD,33
58.0,7918.597211670543,-12528.24217417743,-21663.802464461623,-23800.025737288684,17128.611162735364,6918.826033929114,39684.605858875024,44210.14120699659,0.0,0.0,0.0,193.0,0.0,193.0,0.0,1.0,0.0,179.0,193.0,1.0,179.0,1744418790.0744948,0.0,2025-04-11 20:46:30.074,FORWARD,33
59.0,7896.312522448603,-12557.29944196933,-21639.595525216526,-23832.055787093137,17308.073318967025,6761.760325641671,40039.37274686965,44189.845823031166,0.0,0.0,0.0,193.0,0.0,192.0,0.0,1.0,0.0,178.0,192.0,1.0,178.0,1744418790.0745263,0.0,2025-04-11 20:46:30.074,FORWARD,33
60.0,7889.025853756172,-12554.617232634691,-21677.705249512823,-23840.080063352594,17205.679977617263,6545.171921869746,40108.66315468111,44043.62071080455,0.0,0.0,0.0,193.0,0.0,192.0,0.0,1.0,0.0,178.0,192.0,1.0,178.0,1744418790.0745573,0.0,2025-04-11 20:46:30.074,FORWARD,33
61.0,7900.291132961647,-12531.48317712345,-21691.786848519667,-23799.690461121852,17079.169104000226,6750.00330805818,39872.3605122996,44075.606057120094,0.0,0.0,0.0,193.0,0.0,193.0,0.0,1.0,0.0,179.0,193.0,1.0,179.0,1744418790.0745883,0.0,2025-04-11 20:46:30.074,FORWARD,33
62.0,7914.462138946312,-12521.246078162918,-21659.779150459668,-23786.011193515205,17103.04076707849,6916.344990294575,39683.95765828582,44165.68358727498,0.0,0.0,0.0,193.0,0.0,193.0,0.0,1.0,0.0,179.0,193.0,1.0,179.0,1744418790.0746195,0.0,2025-04-11 20:46:30.074,FORWARD,33
63.0,7906.057883031116,-12549.588090132249,-21629.157260555898,-23816.498972952246,17279.17251338631,6798.417186548375,39974.82090888273,44158.21810462691,0.0,0.0,0.0,193.0,0.0,192.0,0.0,1.0,0.0,178.0,192.0,1.0,178.0,1744418790.0746508,0.0,2025-04-11 20:46:30.074,FORWARD,33
64.0,7906.124938264483,-12553.142017500642,-21652.13485385595,-23837.66607495142,17239.095835577948,6552.212721373167,40117.626204207685,44007.05325687567,0.0,0.0,0.0,193.0,0.0,192.0,0.0,0.0,0.0,179.0,192.0,0.0,179.0,1744418790.074682,0.0,2025-04-11 20:46:30.074,FORWARD,33
65.0,7901.721644606787,-12539.127473727165,-21676.028868678673,-23804.071403035094,17130.511061014065,6723.471787389731,39940.93566428848,44036.177579900934,0.0,0.0,0.0,193.0,0.0,193.0,0.0,0.0,0.0,179.0,193.0,0.0,179.0,1744418790.0747128,0.0,2025-04-11 20:46:30.074,FORWARD,33
66.0,7909.500051677233,-12519.927325240056,-21661.23201384926,-23786.502931893225,17091.171990772724,6936.170987626432,39706.39880971894,44144.42707829799,0.0,0.0,0.0,193.0,0.0,192.0,0.0,1.0,0.0,178.0,192.0,1.0,178.0,1744418790.0747435,0.0,2025-04-11 20:46:30.074,FORWARD,33
67.0,7909.589458655055,-12536.378209159162,-21613.287521992628,-23795.19776048634,17261.76050445563,6855.637652353961,39926.09410597016,44156.20644762593,0.0,0.0,0.0,193.0,0.0,193.0,0.0,1.0,0.0,179.0,193.0,1.0,179.0,1744418790.0747747,0.0,2025-04-11 20:46:30.074,FORWARD,33
68.0,7896.066653259594,-12555.399543690628,-21647.016304375687,-23834.961513872327,17238.246469288646,6574.63152106184,40171.69507404507,44039.44093459141,0.0,0.0,0.0,193.0,0.0,193.0,0.0,1.0,0.0,179.0,193.0,1.0,179.0,1744418790.0748217,0.0,2025-04-11 20:46:30.074,FORWARD,33
69.0,7889.405833411913,-12543.575470873771,-21679.605147791524,-23818.778850886687,17111.780299160517,6611.35543720191,40004.90635691957,44012.842358689595,0.0,0.0,0.0,193.0,0.0,193.0,0.0,0.0,0.0,178.0,193.0,0.0,178.0,1744418790.0748532,0.0,2025-04-11 20:46:30.074,FORWARD,33
70.0,7903.330970207569,-12526.029351476354,-21674.71011575581,-23790.570949384088,17041.931097737684,6868.780478093681,39735.72429844431,44132.60300548113,0.0,0.0,0.0,193.0,0.0,193.0,0.0,0.0,0.0,178.0,193.0,0.0,178.0,1744418790.074884,0.0,2025-04-11 20:46:30.074,FORWARD,33
71.0,7900.224077728281,-12545.698886597025,-21628.062025077586,-23802.931464067875,17221.88499234736,6872.960254306824,39861.81048891669,44170.71272977743,0.0,0.0,0.0,193.0,0.0,193.0,0.0,0.0,0.0,179.0,193.0,0.0,179.0,1744418790.0749152,0.0,2025-04-11 20:46:30.074,FORWARD,33
72.0,7878.721699562276,-12581.148753303141,-21650.033789877154,-23857.939107172384,17277.630243018895,6631.494358956142,40184.41321664015,44095.454406196404,0.0,0.0,0.0,193.0,0.0,192.0,0.0,1.0,0.0,178.0,192.0,1.0,178.0,1744418790.0749588,0.0,2025-04-11 20:46:30.074,FORWARD,33
73.0,7892.311560191102,-12552.806741333812,-21665.70236274032,-23823.785641644674,17164.575119563953,6601.54302138603,40046.033566717335,44018.09501863659,0.0,0.0,0.0,193.0,0.0,193.0,0.0,0.0,0.0,179.0,193.0,0.0,179.0,1744418790.0749905,0.0,2025-04-11 20:46:30.074,FORWARD,33
74.0,7896.84896431553,-12534.523014369372,-21676.878234967975,-23798.572873899087,17081.828961590407,6874.100193274045,39776.337418119605,44145.16468586501,0.0,0.0,0.0,193.0,0.0,192.0,0.0,0.0,0.0,178.0,192.0,0.0,178.0,1744418790.075022,0.0,2025-04-11 20:46:30.075,FORWARD,33
75.0,7895.865487559497,-12545.564776130293,-21634.409920502894,-23800.04808903314,17200.986111281647,6901.4587284873405,39804.567671366654,44204.240346460385,0.0,0.0,0.0,193.0,0.0,192.0,0.0,1.0,0.0,178.0,192.0,1.0,178.0,1744418790.0750527,0.0,2025-04-11 20:46:30.075,FORWARD,33
76.0,7888.042377000139,-12567.380078718672,-21633.00176060221,-23832.212249304324,17311.627246335418,6691.285275374088,40164.72132977502,44148.383337066574,0.0,0.0,0.0,193.0,0.0,192.0,0.0,0.0,0.0,178.0,192.0,0.0,178.0,1744418790.075084,0.0,2025-04-11 20:46:30.075,FORWARD,33
77.0,7906.817842342597,-12549.319869198784,-21657.186348102852,-23813.52619093969,17189.34085242043,6573.960968728182,40080.27643922287,44019.14555062599,0.0,0.0,0.0,193.0,0.0,193.0,0.0,0.0,0.0,179.0,193.0,0.0,179.0,1744418790.0751154,0.0,2025-04-11 20:46:30.075,FORWARD,33
78.0,7910.639990644454,-12533.271316679873,-21669.770380231188,-23785.18417897036,17080.554912156455,6846.562844105107,39824.080744276136,44121.80711290921,0.0,0.0,0.0,193.0,0.0,192.0,0.0,0.0,0.0,178.0,192.0,0.0,178.0,1744418790.0751464,0.0,2025-04-11 20:46:30.075,FORWARD,33
79.0,7910.528231922178,-12533.941869013534,-21636.734501926247,-23790.23567321726,17156.953174704693,6923.005810142256,39752.10812713005,44190.404616642554,0.0,0.0,0.0,193.0,0.0,192.0,0.0,0.0,0.0,178.0,192.0,0.0,178.0,1744418790.0751772,0.0,2025-04-11 20:46:30.075,FORWARD,33
80.0,7891.886877046451,-12562.999136805432,-21627.726748910758,-23835.72147318381,17290.2813303806,6738.246290474688,40114.29579428385,44157.01111042632,0.0,0.0,0.0,193.0,0.0,192.0,0.0,0.0,0.0,178.0,192.0,0.0,178.0,1744418790.075208,0.0,2025-04-11 20:46:30.075,FORWARD,33
81.0,7893.205629969315,-12562.283880982863,-21656.85107193602,-23836.257915050737,17181.182465694244,6556.526608053042,40108.73020991447,44026.02988791822,0.0,0.0,0.0,193.0,0.0,192.0,0.0,0.0,0.0,178.0,192.0,0.0,178.0,1744418790.0752409,0.0,2025-04-11 20:46:30.075,FORWARD,33
82.0,7890.791641568142,-12552.717334355992,-21683.896682726943,-23812.028624061182,17055.52095836651,6793.030416134646,39863.442166261935,44107.94903134692,0.0,0.0,0.0,193.0,0.0,193.0,0.0,0.0,0.0,179.0,193.0,0.0,179.0,1744418790.0752735,0.0,2025-04-11 20:46:30.075,FORWARD,33
83.0,7916.965534325306,-12532.220784690475,-21651.643115477935,-23798.818743088097,17078.230330733102,6907.828975657103,39707.85167310854,44186.09072996268,0.0,0.0,0.0,193.0,0.0,192.0,0.0,0.0,0.0,178.0,192.0,0.0,178.0,1744418790.0753193,0.0,2025-04-11 20:46:30.075,FORWARD,33
84.0,7899.285304461158,-12562.194474005042,-21635.57221121457,-23835.65441795044,17246.918946137303,6769.628139689939,40047.28526440683,44187.051854974256,0.0,0.0,0.0,193.0,0.0,192.0,0.0,0.0,0.0,178.0,192.0,0.0,178.0,1744418790.075351,0.0,2025-04-11 20:46:30.075,FORWARD,33
85.0,7884.7790223096645,-12569.481142697472,-21670.28447035366,-23851.501804769257,17179.64019532683,6541.215663101157,40112.68646868306,44047.86754225106,0.0,0.0,0.0,193.0,0.0,193.0,0.0,0.0,0.0,179.0,193.0,0.0,179.0,1744418790.075382,0.0,2025-04-11 20:46:30.075,FORWARD,33
86.0,7880.308673418603,-12552.829093078268,-21699.587607334568,-23824.81382188962,17057.353801411846,6733.418313672342,39865.58793372964,44095.09677828512,0.0,0.0,0.0,193.0,0.0,192.0,0.0,0.0,0.0,178.0,192.0,0.0,178.0,1744418790.0754128,0.0,2025-04-11 20:46:30.075,FORWARD,33
87.0,7901.498127162234,-12530.298534667318,-21664.33890632855,-23799.176370999383,17086.723993626118,6913.0816356041005,39633.353308839,44192.05864573224,0.0,0.0,0.0,193.0,0.0,193.0,0.0,0.0,0.0,179.0,193.0,0.0,179.0,1744418790.0754583,0.0,2025-04-11 20:46:30.075,FORWARD,33
88.0,7893.697368347332,-12561.099238526731,-21623.79284188662,-23816.34251074106,17274.500998795153,6833.218852665288,39906.11164642712,44199.25590744685,0.0,0.0,0.0,193.0,0.0,193.0,0.0,0.0,0.0,179.0,193.0,0.0,179.0,1744418790.0754895,0.0,2025-04-11 20:46:30.075,FORWARD,33
89.0,7889.428185156368,-12570.978709575977,-21654.8617666795,-23842.963438387327,17217.705216134218,6579.6159600753745,40064.78668031534,44053.25431266479,0.0,0.0,0.0,193.0,0.0,192.0,0.0,0.0,0.0,178.0,192.0,0.0,178.0,1744418790.0755212,0.0,2025-04-11 20:46:30.075,FORWARD,33
90.0,7883.996711253729,-12557.455904180517,-21689.506970585226,-23819.896438109452,17077.783295843994,6698.683702788795,39871.73466345485,44050.19212367441,0.0,0.0,0.0,193.0,0.0,193.0,0.0,0.0,0.0,178.0,193.0,0.0,178.0,1744418790.0755525,0.0,2025-04-11 20:46:30.075,FORWARD,33
91.0,7903.554487652122,-12527.549270099315,-21663.377781316973,-23796.62827213148,17035.94083022366,6913.238097815287,39621.93156742234,44158.665139516015,0.0,0.0,0.0,193.0,0.0,193.0,0.0,0.0,0.0,178.0,193.0,0.0,178.0,1744418790.0755837,0.0,2025-04-11 20:46:30.075,FORWARD,33
92.0,7898.793566083142,-12551.577395388771,-21618.920161595364,-23820.05290032064,17230.199841284735,6860.376222178486,39819.319822707155,44192.23745968789,0.0,0.0,0.0,193.0,0.0,192.0,0.0,0.0,0.0,178.0,192.0,0.0,178.0,1744418790.0756145,0.0,2025-04-11 20:46:30.075,FORWARD,33
93.0,7891.104565990516,-12573.10212529923,-21649.363237543494,-23851.367694302524,17232.189146541255,6608.114434255891,40066.35130242721,44080.16581298898,0.0,0.0,0.0,193.0,0.0,193.0,0.0,0.0,0.0,179.0,193.0,0.0,179.0,1744418790.0756457,0.0,2025-04-11 20:46:30.075,FORWARD,33
94.0,7893.2279817137705,-12553.901976812122,-21680.566272803102,-23819.6729206649,17100.827944377415,6661.110420359424,39899.96491670191,44016.128065124525,0.0,0.0,0.0,193.0,0.0,192.0,0.0,0.0,0.0,179.0,192.0,0.0,179.0,1744418790.0756767,0.0,2025-04-11 20:46:30.075,FORWARD,33
95.0,7909.991790055251,-12520.553174084804,-21672.407886076915,-23792.537902896154,17043.719237294106,6915.361513538542,39636.25903561819,44126.38922052255,0.0,0.0,0.0,193.0,0.0,193.0,0.0,0.0,0.0,179.0,193.0,0.0,179.0,1744418790.0757077,0.0,2025-04-11 20:46:30.075,FORWARD,33
96.0,7906.281400475669,-12534.657124836103,-21639.751987427713,-23811.447478705344,17182.92590176176,6895.155536550944,39750.54350501818,44183.58733458368,0.0,0.0,0.0,193.0,0.0,192.0,0.0,0.0,0.0,178.0,192.0,0.0,178.0,1744418790.075739,0.0,2025-04-11 20:46:30.075,FORWARD,33
97.0,7887.572990366578,-12566.955395574021,-21657.387513802947,-23856.285078082692,17225.12599529338,6631.784931634061,40070.77694782936,44107.32318250217,0.0,0.0,0.0,193.0,0.0,193.0,0.0,0.0,0.0,179.0,193.0,0.0,179.0,1744418790.0757697,0.0,2025-04-11 20:46:30.075,FORWARD,33
98.0,7885.918961276885,-12556.7630001024,-21685.52836007218,-23837.7778336737,17109.925104370726,6571.2787593935445,39952.290350471776,44019.972565170836,0.0,0.0,0.0,193.0,0.0,193.0,0.0,0.0,0.0,179.0,193.0,0.0,179.0,1744418790.0758145,0.0,2025-04-11 20:46:30.075,FORWARD,33
99.0,7884.197876953826,-12547.598784875725,-21702.068650969108,-23816.051938063138,17020.093443404847,6848.775666806182,39677.542707627144,44124.82459841068,0.0,0.0,0.0,193.0,0.0,193.0,0.0,0.0,0.0,179.0,193.0,0.0,179.0,1744418790.0758462,0.0,2025-04-11 20:46:30.075,FORWARD,33
100.0,7902.593362640544,-12542.726104584468,-21642.501251995713,-23802.931464067875,17155.38855259282,6905.1020628335555,39664.35517839852,44164.610703541126,0.0,0.0,0.0,193.0,0.0,193.0,0.0,0.0,0.0,179.0,193.0,0.0,179.0,1744418790.0758777,0.0,2025-04-11 20:46:30.075,FORWARD,33
101.0,7878.542885606634,-12585.887323127667,-21642.94828688482,-23845.019798877216,17273.070487150013,6722.868290289437,40038.47867709144,44108.35136274712,0.0,0.0,0.0,193.0,0.0,192.0,0.0,0.0,0.0,178.0,192.0,0.0,178.0,1744418790.0759087,0.0,2025-04-11 20:46:30.075,FORWARD,33
102.0,7872.574969837066,-12581.372270747695,-21681.52739781468,-23839.677731952397,17156.39438109331,6601.140689985835,39995.65273471508,43987.51783222173,0.0,0.0,0.0,193.0,0.0,193.0,0.0,0.0,0.0,179.0,193.0,0.0,179.0,1744418790.0759528,0.0,2025-04-11 20:46:30.075,FORWARD,33
103.0,7880.621597840977,-12552.270299466885,-21702.96272074732,-23811.894513594452,17027.22364988609,6855.660004098417,39743.323891559114,44079.38350193304,0.0,0.0,0.0,193.0,0.0,193.0,0.0,0.0,0.0,178.0,193.0,0.0,178.0,1744418790.0759838,0.0,2025-04-11 20:46:30.075,FORWARD,33
104.0,7906.951952809329,-12531.863156779189,-21652.313667811595,-23795.75655409772,17102.794897889486,6925.486853776795,39634.18032338385,44130.25607231332,0.0,0.0,0.0,193.0,0.0,193.0,0.0,0.0,0.0,179.0,193.0,0.0,179.0,1744418790.0760207,0.0,2025-04-11 20:46:30.076,FORWARD,33
105.0,7883.147344964426,-12574.912616600112,-21647.351580542516,-23840.86237440853,17243.99086761366,6752.417296459353,40010.36018256667,44106.11618830159,0.0,0.0,0.0,193.0,0.0,193.0,0.0,0.0,0.0,179.0,193.0,0.0,179.0,1744418790.076053,0.0,2025-04-11 20:46:30.076,FORWARD,33
106.0,7881.090984474538,-12575.538465444859,-21687.651775795435,-23847.99258088977,17128.432348779723,6544.858997447372,40032.91309272207,43963.37794821,0.0,0.0,0.0,193.0,0.0,193.0,0.0,0.0,0.0,179.0,193.0,0.0,179.0,1744418790.076084,0.0,2025-04-11 20:46:30.076,FORWARD,33
107.0,7879.615769340488,-12559.176988503576,-21710.11527897302,-23816.610731674522,17016.02542591398,6773.718508925261,39786.79803452468,44023.526492539226,0.0,0.0,0.0,193.0,0.0,193.0,0.0,0.0,0.0,179.0,193.0,0.0,179.0,1744418790.0761151,0.0,2025-04-11 20:46:30.076,FORWARD,33
108.0,7895.217286970293,-12539.887433038644,-21663.556595272614,-23795.890664564453,17067.345031183366,6916.166176338933,39610.53217775014,44105.08800805664,0.0,0.0,0.0,193.0,0.0,192.0,0.0,0.0,0.0,178.0,192.0,0.0,178.0,1744418790.0761476,0.0,2025-04-11 20:46:30.076,FORWARD,33
109.0,7871.9267692478625,-12576.119610800697,-21637.405054259903,-23839.163641829928,17255.837292174972,6796.807860947592,39952.5809231497,44109.58070869216,0.0,0.0,0.0,193.0,0.0,193.0,0.0,0.0,0.0,179.0,193.0,0.0,179.0,1744418790.076179,0.0,2025-04-11 20:46:30.076,FORWARD,33
110.0,7863.500161588212,-12585.842619638755,-21678.95694720232,-23865.449293309368,17175.72864004715,6550.58104402793,40055.51070636639,43970.08347154659,0.0,0.0,0.0,193.0,0.0,193.0,0.0,0.0,0.0,178.0,193.0,0.0,178.0,1744418790.0762103,0.0,2025-04-11 20:46:30.076,FORWARD,33
111.0,7866.65175755641,-12571.515151442904,-21699.945235245854,-23831.80991790413,17037.41604535771,6720.856633288459,39833.937863580926,43998.04550386018,0.0,0.0,0.0,193.0,0.0,192.0,0.0,0.0,0.0,178.0,192.0,0.0,178.0,1744418790.0762415,0.0,2025-04-11 20:46:30.076,FORWARD,33
112.0,7880.733356563253,-12551.040953521842,-21668.876310452975,-23808.38528971497,17035.113815678815,6916.590859483584,39616.56714875307,44106.87614761307,0.0,0.0,0.0,193.0,0.0,193.0,0.0,0.0,0.0,179.0,193.0,0.0,179.0,1744418790.0762732,0.0,2025-04-11 20:46:30.076,FORWARD,33
113.0,7867.322309890069,-12580.053517824832,-21634.991065858732,-23839.275400552204,17215.604152155418,6828.301468885121,39889.146672385534,44134.70406945993,0.0,0.0,0.0,193.0,0.0,193.0,0.0,0.0,0.0,179.0,193.0,0.0,179.0,1744418790.0763044,0.0,2025-04-11 20:46:30.076,FORWARD,33
114.0,7873.871371015474,-12588.837753395766,-21657.47692078077,-23861.96242117434,17182.41181163929,6555.297262108,40069.815822817785,43994.49157649178,0.0,0.0,0.0,193.0,0.0,192.0,0.0,0.0,0.0,178.0,192.0,0.0,178.0,1744418790.0763505,0.0,2025-04-11 20:46:30.076,FORWARD,33
115.0,7880.532190863156,-12563.826151350278,-21681.32623211458,-23822.980978844284,17054.738647310573,6660.238702325667,39877.009675146306,43975.67140766042,0.0,0.0,0.0,193.0,0.0,193.0,0.0,0.0,0.0,179.0,193.0,0.0,179.0,1744418790.0763817,0.0,2025-04-11 20:46:30.076,FORWARD,33
116.0,7890.4116619124015,-12542.48023539546,-21668.585737775058,-23804.585493157567,17016.74068173655,6906.420815756419,39639.097707164015,44100.79647312123,0.0,0.0,0.0,193.0,0.0,193.0,0.0,0.0,0.0,178.0,193.0,0.0,178.0,1744418790.550411,0.0,2025-04-11 20:46:30.550,FORWARD,33
117.0,7887.461231644301,-12560.138113515153,-21620.90946685189,-23821.46106022132,17180.802486038505,6857.4928471437515,39817.64344187301,44129.00437462382,0.0,0.0,0.0,193.0,0.0,192.0,0.0,0.0,0.0,178.0,192.0,0.0,178.0,1744418790.5505908,0.0,2025-04-11 20:46:30.550,FORWARD,33
118.0,7869.490429102234,-12582.981596348476,-21648.871499165478,-23861.20246186286,17196.672224601774,6595.239829449633,40091.02762830587,44016.50804478026,0.0,0.0,0.0,193.0,0.0,193.0,0.0,0.0,0.0,179.0,193.0,0.0,179.0,1744418790.5506341,0.0,2025-04-11 20:46:30.550,FORWARD,33
119.0,7873.491391359734,-12564.474351939483,-21674.307784355617,-23826.37844400149,17073.491760908575,6613.411797691799,39940.265111954825,43960.338110964076,0.0,0.0,0.0,193.0,0.0,193.0,0.0,0.0,0.0,178.0,193.0,0.0,178.0,1744418790.5506673,0.0,2025-04-11 20:46:30.550,FORWARD,33
120.0,7889.1823159673595,-12541.04972375032,-21669.882138953464,-23793.99076628575,17008.403481054724,6878.369376465008,39678.123852982986,44080.38933043353,0.0,0.0,0.0,193.0,0.0,192.0,0.0,0.0,0.0,178.0,192.0,0.0,178.0,1744418790.5506985,0.0,2025-04-11 20:46:30.550,FORWARD,33
121.0,7892.669188102387,-12554.72899135697,-21626.787975643634,-23803.534961168167,17158.763666005572,6870.635672883472,39749.403566050954,44112.88876687155,0.0,0.0,0.0,193.0,0.0,193.0,0.0,0.0,0.0,178.0,193.0,0.0,178.0,1744418790.5507305,0.0,2025-04-11 20:46:30.550,FORWARD,33
122.0,7871.32327214757,-12597.35376803324,-21648.357409043005,-23855.14513911547,17214.03953004355,6640.8373881384605,40093.12869228467,44038.770382257746,0.0,0.0,0.0,193.0,0.0,192.0,0.0,0.0,0.0,178.0,192.0,0.0,178.0,1744418790.5507617,0.0,2025-04-11 20:46:30.550,FORWARD,33
123.0,7880.018100740684,-12576.790163134357,-21668.25046160823,-23827.4736794798,17092.5354471845,6569.915302981771,39978.86657462914,43936.37704090799,0.0,0.0,0.0,193.0,0.0,193.0,0.0,0.0,0.0,179.0,193.0,0.0,179.0,1744418790.5507927,0.0,2025-04-11 20:46:30.550,FORWARD,33
124.0,7884.5108013762,-12548.425799420573,-21675.24655762274,-23797.723507609786,16997.071146615883,6842.897158014436,39708.70103939784,44045.14062942751,0.0,0.0,0.0,193.0,0.0,193.0,0.0,0.0,0.0,179.0,193.0,0.0,179.0,1744418790.5508244,0.0,2025-04-11 20:46:30.550,FORWARD,33
125.0,7897.541868393644,-12547.509377897904,-21623.36815874197,-23785.832379559564,17085.13701976979,6888.047681814156,39683.220050718795,44101.623487666075,0.0,0.0,0.0,193.0,0.0,192.0,0.0,0.0,0.0,178.0,192.0,0.0,178.0,1744418790.5508556,0.0,2025-04-11 20:46:30.550,FORWARD,33
126.0,7881.850943786019,-12586.78139290588,-21630.096033823018,-23834.24625804976,17200.807297326006,6700.784766767593,40068.74293908393,44065.86069653758,0.0,0.0,0.0,193.0,0.0,193.0,0.0,0.0,0.0,179.0,193.0,0.0,179.0,1744418790.5508869,0.0,2025-04-11 20:46:30.550,FORWARD,33
127.0,7878.297016417625,-12589.68711968507,-21678.554615802124,-23838.38133077399,17081.583092401397,6537.795846199495,40032.48840957742,43937.56168336412,0.0,0.0,0.0,193.0,0.0,192.0,0.0,0.0,0.0,178.0,192.0,0.0,178.0,1744418790.550918,0.0,2025-04-11 20:46:30.550,FORWARD,33
128.0,7875.41364138289,-12577.460715468016,-21698.58177883408,-23814.04028106216,16986.521123232975,6783.48622125223,39776.180955908414,44026.879254207524,0.0,0.0,0.0,193.0,0.0,192.0,0.0,0.0,0.0,178.0,192.0,0.0,178.0,1744418790.550949,0.0,2025-04-11 20:46:30.550,FORWARD,33
129.0,7882.4320891418565,-12567.894168841145,-21651.933688155856,-23806.619501903,17090.702604139162,6892.920362105413,39654.408652115904,44091.25227823881,0.0,0.0,0.0,193.0,0.0,192.0,0.0,0.0,0.0,178.0,192.0,0.0,178.0,1744418790.5510004,0.0,2025-04-11 20:46:30.551,FORWARD,33
130.0,7865.780039522653,-12598.49370700046,-21633.113519324485,-23839.56597323012,17258.720667209705,6756.217093016755,40013.176502368035,44068.900533783504,0.0,0.0,0.0,193.0,0.0,193.0,0.0,0.0,0.0,178.0,193.0,0.0,178.0,1744418790.5510316,0.0,2025-04-11 20:46:30.551,FORWARD,33
131.0,7861.0638214425835,-12597.376119777695,-21669.278641853172,-23844.66217096593,17166.005631209093,6564.3497186124,40048.46990686296,43915.20993890881,0.0,0.0,0.0,193.0,0.0,192.0,0.0,0.0,0.0,178.0,192.0,0.0,178.0,1744418790.5510633,0.0,2025-04-11 20:46:30.551,FORWARD,33
132.0,7871.725603547765,-12576.253721267429,-21696.48071485528,-23815.76136538522,17037.03606570197,6789.387081788431,39811.563767381165,43970.15052677996,0.0,0.0,0.0,193.0,0.0,193.0,0.0,0.0,0.0,179.0,193.0,0.0,179.0,1744418790.5510943,0.0,2025-04-11 20:46:30.551,FORWARD,33
133.0,7896.938371293351,-12559.020526292388,-21663.28837433915,-23798.215245987805,17052.570528098408,6950.409048844463,39634.42619257286,44058.1493447005,0.0,0.0,0.0,193.0,0.0,193.0,0.0,0.0,0.0,179.0,193.0,0.0,179.0,1744418790.55114,0.0,2025-04-11 20:46:30.551,FORWARD,33
134.0,7866.450591856313,-12594.850372654246,-21637.874440893465,-23837.800185418153,17221.616771413897,6841.198425435833,39963.421519210526,44063.513763369774,0.0,0.0,0.0,193.0,0.0,192.0,0.0,0.0,0.0,178.0,192.0,0.0,178.0,1744418790.5511713,0.0,2025-04-11 20:46:30.551,FORWARD,33
135.0,7862.874312743464,-12599.9242186456,-21661.00849640471,-23851.14417685797,17175.39336388032,6577.961930985682,40076.0072560319,43905.21870913729,0.0,0.0,0.0,193.0,0.0,193.0,0.0,0.0,0.0,178.0,193.0,0.0,178.0,1744418790.5512023,0.0,2025-04-11 20:46:30.551,FORWARD,33
136.0,7865.310652889091,-12581.081698069776,-21684.589586805057,-23811.827458361087,17053.75517055454,6747.634023145917,39879.17779435847,43940.17683746539,0.0,0.0,0.0,193.0,0.0,193.0,0.0,0.0,0.0,179.0,193.0,0.0,179.0,1744418790.5512333,0.0,2025-04-11 20:46:30.551,FORWARD,33
137.0,7876.665339072388,-12562.328584471774,-21667.75872323021,-23793.32021395209,17012.113870634304,6956.511075080762,39662.12000395299,44072.34270242962,0.0,0.0,0.0,193.0,0.0,193.0,0.0,0.0,0.0,179.0,193.0,0.0,179.0,1744418790.5512643,0.0,2025-04-11 20:46:30.551,FORWARD,33
138.0,7866.450591856313,-12591.654073197136,-21631.392435001428,-23816.47662120779,17169.4030963663,6876.380071208486,39902.22244289189,44099.947106831925,0.0,0.0,0.0,193.0,0.0,192.0,0.0,0.0,0.0,178.0,192.0,0.0,178.0,1744418790.5513008,0.0,2025-04-11 20:46:30.551,FORWARD,33
139.0,7853.643042283421,-12613.514079274426,-21660.829682449064,-23851.032418135695,17170.07364869996,6613.232983736156,40109.33370701477,43970.46345120233,0.0,0.0,0.0,193.0,0.0,193.0,0.0,0.0,0.0,179.0,193.0,0.0,179.0,1744418790.5513327,0.0,2025-04-11 20:46:30.551,FORWARD,33
140.0,7855.475885328757,-12596.63851221067,-21693.06089795362,-23824.590304445068,17043.89805124975,6699.644827800373,39936.28650144178,43956.51596266222,0.0,0.0,0.0,193.0,0.0,193.0,0.0,0.0,0.0,179.0,193.0,0.0,179.0,1744418790.5513637,0.0,2025-04-11 20:46:30.551,FORWARD,33
141.0,7877.335891406047,-12571.828075865278,-21684.09784842704,-23804.697251879843,16991.55026573542,6934.829882959114,39678.8167570611,44080.657551366996,0.0,0.0,0.0,193.0,0.0,193.0,0.0,0.0,0.0,178.0,193.0,0.0,178.0,1744418790.5513952,0.0,2025-04-11 20:46:30.551,FORWARD,33
142.0,7870.496257602723,-12596.459698255027,-21650.70434221081,-23832.502821982245,17145.978468177138,6881.342158477564,39836.150686282,44125.83042691117,0.0,0.0,0.0,193.0,0.0,193.0,0.0,0.0,0.0,179.0,193.0,0.0,179.0,1744418790.5514264,0.0,2025-04-11 20:46:30.551,FORWARD,33
143.0,7853.352469605502,-12618.431463054594,-21672.54199654365,-23871.998354434774,17164.77628526405,6612.964762802692,40125.873997911694,44037.228111890334,0.0,0.0,0.0,193.0,0.0,193.0,0.0,0.0,0.0,178.0,193.0,0.0,178.0,1744418790.5514576,0.0,2025-04-11 20:46:30.551,FORWARD,33
144.0,7858.918053974874,-12590.536485974371,-21694.08907819856,-23841.42116801991,17039.025370958494,6614.171757003279,39977.52546996182,43972.162183780936,0.0,0.0,0.0,193.0,0.0,192.0,0.0,0.0,0.0,178.0,192.0,0.0,178.0,1744418790.5515032,0.0,2025-04-11 20:46:30.551,FORWARD,33
145.0,7872.08323145905,-12562.44034319405,-21686.48948508376,-23807.647682147945,16985.82821915486,6907.851327401559,39711.51735919921,44102.651667911014,0.0,0.0,0.0,193.0,0.0,193.0,0.0,0.0,0.0,179.0,193.0,0.0,179.0,1744418790.551535,0.0,2025-04-11 20:46:30.551,FORWARD,33
146.0,7888.824688056075,-12567.9165205856,-21626.363292498983,-23799.601054144034,17142.692761742208,6919.138958351488,39743.50270551476,44144.11415387561,0.0,0.0,0.0,193.0,0.0,192.0,0.0,0.0,0.0,178.0,192.0,0.0,178.0,1744418790.551566,0.0,2025-04-11 20:46:30.551,FORWARD,33
147.0,7872.731432048254,-12593.06223309782,-21629.38077800045,-23835.699121439353,17238.917021622303,6704.830432514004,40094.492148696445,44077.975342032354,0.0,0.0,0.0,193.0,0.0,192.0,0.0,0.0,0.0,178.0,192.0,0.0,178.0,1744418790.551597,0.0,2025-04-11 20:46:30.551,FORWARD,33
148.0,7858.7168882747765,-12595.655035454636,-21673.97250818879,-23830.357054514534,17102.99606358958,6624.587669919452,40025.134685651625,43984.030960086704,0.0,0.0,0.0,193.0,0.0,193.0,0.0,0.0,0.0,179.0,193.0,0.0,179.0,1744418790.5516417,0.0,2025-04-11 20:46:30.551,FORWARD,33
149.0,7862.919016232374,-12576.231369522975,-21690.95983397482,-23805.881894335973,16992.064355857892,6881.632731155483,39763.30635110216,44094.694446884925,0.0,0.0,0.0,193.0,0.0,192.0,0.0,0.0,0.0,178.0,192.0,0.0,178.0,1744418790.5516732,0.0,2025-04-11 20:46:30.551,FORWARD,33
150.0,7876.84415302803,-12569.503494441926,-21648.737388698744,-23806.798315858643,17081.940720312683,6927.543214266684,39706.778789374686,44151.75845047933,0.0,0.0,0.0,193.0,0.0,193.0,0.0,0.0,0.0,179.0,193.0,0.0,179.0,1744418790.5517044,0.0,2025-04-11 20:46:30.551,FORWARD,33
151.0,7854.64887078391,-12614.16227986363,-21651.28548756665,-23845.936220399886,17206.17171599528,6732.434836916308,40088.39012246014,44122.96940362089,0.0,0.0,0.0,193.0,0.0,193.0,0.0,0.0,0.0,179.0,193.0,0.0,179.0,1744418790.5517356,0.0,2025-04-11 20:46:30.551,FORWARD,33
152.0,7858.515722574678,-12608.887268172177,-21682.108543170518,-23828.68067368039,17080.823133089918,6577.470192607665,40070.709892595994,44004.54986149667,0.0,0.0,0.0,193.0,0.0,193.0,0.0,0.0,0.0,179.0,193.0,0.0,179.0,1744418790.551767,0.0,2025-04-11 20:46:30.551,FORWARD,33
153.0,7866.539998834133,-12577.483067212472,-21700.90636025743,-23796.874141320484,16950.512462915478,6854.631823853472,39827.58996815562,44101.57878417716,0.0,0.0,0.0,193.0,0.0,193.0,0.0,0.0,0.0,179.0,193.0,0.0,179.0,1744418790.5517983,0.0,2025-04-11 20:46:30.551,FORWARD,33
154.0,7878.855810029007,-12568.654128152624,-21665.255327851217,-23799.645757632945,16999.731004206064,6958.120400681544,39691.64665837844,44174.400767612555,0.0,0.0,0.0,193.0,0.0,192.0,0.0,0.0,0.0,178.0,192.0,0.0,178.0,1744418790.5518293,0.0,2025-04-11 20:46:30.551,FORWARD,33
155.0,7862.114353431983,-12605.176878592596,-21646.703379953313,-23841.734092442286,17173.426410368254,6788.627122476951,40049.54279059682,44159.581561038685,0.0,0.0,0.0,193.0,0.0,192.0,0.0,0.0,0.0,178.0,192.0,0.0,178.0,1744418790.5518603,0.0,2025-04-11 20:46:30.551,FORWARD,33
156.0,7864.5283418331555,-12601.019454123909,-21675.872406467486,-23845.735054699788,17085.472295936623,6560.460515077176,40093.6651341516,43996.614992215036,0.0,0.0,0.0,193.0,0.0,192.0,0.0,0.0,0.0,178.0,192.0,0.0,178.0,1744418790.551891,0.0,2025-04-11 20:46:30.551,FORWARD,33
157.0,7874.474868115768,-12574.286767755362,-21687.67412753989,-23803.80318210163,16998.971044894584,6786.794279431615,39863.06218660619,44044.291263138206,0.0,0.0,0.0,193.0,0.0,192.0,0.0,0.0,0.0,178.0,192.0,0.0,178.0,1744418790.5519223,0.0,2025-04-11 20:46:30.551,FORWARD,33
158.0,7894.412624169901,-12540.066246994287,-21650.95021139982,-23784.08894349205,17033.32567612239,6958.56743557065,39665.04808247663,44132.98298513687,0.0,0.0,0.0,193.0,0.0,193.0,0.0,0.0,0.0,179.0,193.0,0.0,179.0,1744418790.5519533,0.0,2025-04-11 20:46:30.551,FORWARD,33
159.0,7872.619673325977,-12581.8193056368,-21622.161164541383,-23823.852696878042,17200.561428136996,6827.697971784827,39970.2835047583,44145.87994168758,0.0,0.0,0.0,193.0,0.0,192.0,0.0,0.0,0.0,178.0,192.0,0.0,178.0,1744418790.5520968,0.0,2025-04-11 20:46:30.552,FORWARD,33
160.0,7867.143495934427,-12599.901866901144,-21651.28548756665,-23840.169470330417,17142.804520464484,6578.453669363698,40108.0149540919,43995.09507359208,0.0,0.0,0.0,193.0,0.0,193.0,0.0,0.0,0.0,179.0,193.0,0.0,179.0,1744418790.5521293,0.0,2025-04-11 20:46:30.552,FORWARD,33
161.0,7860.057992942095,-12588.144849317652,-21678.375801846483,-23801.120972766992,17013.79025146845,6772.958549613781,39908.21271040591,44010.607184244065,0.0,0.0,0.0,193.0,0.0,193.0,0.0,0.0,0.0,178.0,193.0,0.0,178.0,1744418790.5521605,0.0,2025-04-11 20:46:30.552,FORWARD,33
162.0,7865.377708122458,-12577.706584657024,-21665.8141214626,-23790.45919066181,17009.789289210952,6998.510002912284,39677.94503902734,44130.65840371352,0.0,0.0,0.0,193.0,0.0,192.0,0.0,0.0,0.0,178.0,192.0,0.0,178.0,1744418790.5521917,0.0,2025-04-11 20:46:30.552,FORWARD,33
163.0,7850.804370737597,-12608.194364094063,-21631.66065593489,-23821.48341196578,17187.217436697178,6922.916403164435,39908.61504180611,44153.59129352466,0.0,0.0,0.0,193.0,0.0,193.0,0.0,0.0,0.0,179.0,193.0,0.0,179.0,1744418790.5522392,0.0,2025-04-11 20:46:30.552,FORWARD,33
164.0,7847.988050936228,-12621.203079367051,-21660.7626272157,-23859.839005451086,17165.603299808896,6636.523501458586,40135.75346896094,44023.41473381695,0.0,0.0,0.0,193.0,0.0,192.0,0.0,0.0,0.0,178.0,192.0,0.0,178.0,1744418790.5522707,0.0,2025-04-11 20:46:30.552,FORWARD,33
165.0,7866.383536622947,-12593.106936586732,-21681.013307692207,-23819.62821717599,17033.906821478227,6697.454356843753,39965.67904540051,43986.690817676885,0.0,0.0,0.0,193.0,0.0,192.0,0.0,0.0,0.0,178.0,192.0,0.0,178.0,1744418790.552302,0.0,2025-04-11 20:46:30.552,FORWARD,33
166.0,7880.8451152855305,-12562.149770516131,-21670.262118609207,-23788.112257494005,16953.82052109486,6963.5071710952725,39710.131551042985,44103.81395862269,0.0,0.0,0.0,193.0,0.0,193.0,0.0,0.0,0.0,179.0,193.0,0.0,179.0,1744418790.5523329,0.0,2025-04-11 20:46:30.552,FORWARD,33
167.0,7870.764478536186,-12573.549160188337,-21625.826850632056,-23804.876065835484,17106.14765955778,6934.986345170301,39836.28479674873,44147.77983996628,0.0,0.0,0.0,193.0,0.0,192.0,0.0,0.0,0.0,178.0,192.0,0.0,178.0,1744418790.5523639,0.0,2025-04-11 20:46:30.552,FORWARD,33
168.0,7858.292205130126,-12600.43830876807,-21635.616914703478,-23839.297752296658,17186.54688436352,6682.813964225526,40131.79721019235,44056.76353654427,0.0,0.0,0.0,193.0,0.0,193.0,0.0,0.0,0.0,179.0,193.0,0.0,179.0,1744418790.552395,0.0,2025-04-11 20:46:30.552,FORWARD,33
169.0,7855.654699284399,-12594.045709853854,-21672.072609910087,-23820.209362531827,17077.492723166077,6665.424307039298,40013.19885411249,43991.27292529022,0.0,0.0,0.0,193.0,0.0,193.0,0.0,0.0,0.0,178.0,193.0,0.0,178.0,1744418790.552426,0.0,2025-04-11 20:46:30.552,FORWARD,33
170.0,7863.678975543854,-12575.337299744762,-21685.885987983464,-23799.154019254926,16972.97596609306,6920.055379874156,39746.900170671965,44110.25126102582,0.0,0.0,0.0,193.0,0.0,192.0,0.0,0.0,0.0,178.0,192.0,0.0,178.0,1744418790.5524569,0.0,2025-04-11 20:46:30.552,FORWARD,33
171.0,7862.4719813432675,-12591.430555752582,-21642.32243804007,-23798.639929132456,17093.988310574092,6923.631658987005,39769.743653505284,44157.346386593155,0.0,0.0,0.0,193.0,0.0,193.0,0.0,0.0,0.0,179.0,193.0,0.0,179.0,1744418790.552488,0.0,2025-04-11 20:46:30.552,FORWARD,33
172.0,7845.998745679706,-12625.561669535837,-21639.975504872265,-23835.25208655025,17193.69944258922,6700.650656300862,40129.11500085772,44099.589478920636,0.0,0.0,0.0,193.0,0.0,192.0,0.0,0.0,0.0,178.0,192.0,0.0,178.0,1744418790.552519,0.0,2025-04-11 20:46:30.552,FORWARD,33
173.0,7852.123123660461,-12611.703587973547,-21669.09982789753,-23821.66222592142,17071.681269607696,6591.261218936589,40057.52236336737,43994.3351142806,0.0,0.0,0.0,193.0,0.0,192.0,0.0,0.0,0.0,178.0,192.0,0.0,178.0,1744418790.5525503,0.0,2025-04-11 20:46:30.552,FORWARD,33
174.0,7856.41465859588,-12588.413070251116,-21690.691613041356,-23798.28230122117,16952.390009449722,6878.436431698375,39797.504520118775,44090.87229858307,0.0,0.0,0.0,193.0,0.0,193.0,0.0,0.0,0.0,179.0,193.0,0.0,179.0,1744418790.5526292,0.0,2025-04-11 20:46:30.552,FORWARD,33
175.0,7876.486525116745,-12576.007852078421,-21634.968714114275,-23790.168617983894,17047.69784780715,6965.898807751991,39712.925519099896,44138.12388636159,0.0,0.0,0.0,193.0,0.0,192.0,0.0,0.0,0.0,178.0,192.0,0.0,178.0,1744418790.5526614,0.0,2025-04-11 20:46:30.552,FORWARD,33
176.0,7855.721754517765,-12612.172974607109,-21626.787975643634,-23837.08492959558,17193.2077042112,6789.67765446635,40085.59615440323,44104.95389758991,0.0,0.0,0.0,193.0,0.0,192.0,0.0,0.0,0.0,178.0,192.0,0.0,178.0,1744418790.5526927,0.0,2025-04-11 20:46:30.552,FORWARD,33
177.0,7851.229053882248,-12605.40039603715,-21662.953098172322,-23836.48143249529,17079.504380167054,6610.282553468055,40081.03639853435,43973.123308792514,0.0,0.0,0.0,193.0,0.0,193.0,0.0,0.0,0.0,179.0,193.0,0.0,179.0,1744418790.5527236,0.0,2025-04-11 20:46:30.552,FORWARD,33
178.0,7853.687745772332,-12584.970901604998,-21675.067743667096,-23796.60592038702,16975.61347193879,6846.093457471545,39832.5520554247,44053.34371964261,0.0,0.0,0.0,193.0,0.0,193.0,0.0,0.0,0.0,179.0,193.0,0.0,179.0,1744418790.55277,0.0,2025-04-11 20:46:30.552,FORWARD,33
179.0,7865.5565220781,-12579.785296891368,-21636.399225759415,-23785.13947548145,17020.965161438606,6967.306967652675,39685.54463214215,44132.33478454767,0.0,0.0,0.0,193.0,0.0,192.0,0.0,0.0,0.0,178.0,192.0,0.0,178.0,1744418790.5528016,0.0,2025-04-11 20:46:30.552,FORWARD,33
180.0,7854.872388228463,-12609.267247827918,-21613.95807432629,-23815.403737473935,17181.92007326127,6833.218852665288,40037.092868935215,44129.33965079065,0.0,0.0,0.0,193.0,0.0,193.0,0.0,0.0,0.0,179.0,193.0,0.0,179.0,1744418790.5528328,0.0,2025-04-11 20:46:30.552,FORWARD,33
181.0,7860.1250481754605,-12608.037901882875,-21650.19025208834,-23825.059691078626,17088.109801782346,6592.8258410484605,40111.09949482674,43986.28848627669,0.0,0.0,0.0,193.0,0.0,193.0,0.0,0.0,0.0,179.0,193.0,0.0,179.0,1744418790.5528805,0.0,2025-04-11 20:46:30.552,FORWARD,33
182.0,7862.673147043365,-12582.512209714916,-21673.927804699877,-23794.884836063964,16979.88265512975,6782.100413096001,39896.54509980024,44033.40596358848,0.0,0.0,0.0,193.0,0.0,193.0,0.0,0.0,0.0,179.0,193.0,0.0,179.0,1744418790.5529325,0.0,2025-04-11 20:46:30.552,FORWARD,33
183.0,7878.989920495739,-12555.779523346368,-21638.23206880475,-23771.12493170797,16990.99147212404,6958.835656504114,39680.24726870624,44118.38729600755,0.0,0.0,0.0,193.0,0.0,193.0,0.0,0.0,0.0,179.0,193.0,0.0,179.0,1744418790.552965,0.0,2025-04-11 20:46:30.552,FORWARD,33
184.0,7863.634272054944,-12593.86689589821,-21612.482859192238,-23803.6690716349,17165.715058531172,6866.880579814981,39974.932667605004,44132.75946769232,0.0,0.0,0.0,193.0,0.0,192.0,0.0,0.0,0.0,178.0,192.0,0.0,178.0,1744418790.5529964,0.0,2025-04-11 20:46:30.552,FORWARD,33
185.0,7866.1153156894825,-12596.63851221067,-21646.79278693113,-23822.10926081053,17108.1369648143,6615.535213415053,40147.75635573344,44009.42254178793,0.0,0.0,0.0,193.0,0.0,192.0,0.0,0.0,0.0,178.0,192.0,0.0,178.0,1744418790.5530508,0.0,2025-04-11 20:46:30.553,FORWARD,33
186.0,7860.84030399803,-12589.038919095865,-21681.795618748143,-23801.545655911646,16961.286003742935,6738.246290474688,39953.542048161275,44016.753913969274,0.0,0.0,0.0,193.0,0.0,193.0,0.0,0.0,0.0,179.0,193.0,0.0,179.0,1744418790.553094,0.0,2025-04-11 20:46:30.553,FORWARD,33
187.0,7885.18135370986,-12565.413125206605,-21654.258269579204,-23774.969431754285,16924.718549814053,6948.799723243681,39694.44062643536,44120.39895300853,0.0,0.0,0.0,193.0,0.0,193.0,0.0,0.0,0.0,178.0,193.0,0.0,178.0,1744418790.5531309,0.0,2025-04-11 20:46:30.553,FORWARD,33
188.0,7874.877199515963,-12592.794012164357,-21614.069833048565,-23799.556350655123,17121.682121954218,6890.0146353262235,39890.353666586125,44148.13746787757,0.0,0.0,0.0,193.0,0.0,193.0,0.0,0.0,0.0,178.0,193.0,0.0,178.0,1744418790.553167,0.0,2025-04-11 20:46:30.553,FORWARD,33
189.0,7855.475885328757,-12617.649151998658,-21636.488632737237,-23839.76713893022,17160.060067183982,6638.244585781645,40154.57363779231,44045.4982573388,0.0,0.0,0.0,193.0,0.0,193.0,0.0,0.0,0.0,178.0,193.0,0.0,178.0,1744418790.5533495,0.0,2025-04-11 20:46:30.553,FORWARD,33
190.0,7860.639138297933,-12591.564666219314,-21661.09790338253,-23797.745859354243,17036.566679068408,6696.4261765988085,39997.77615043833,44009.37783829902,0.0,0.0,0.0,193.0,0.0,192.0,0.0,0.0,0.0,178.0,192.0,0.0,178.0,1744418790.5533836,0.0,2025-04-11 20:46:30.553,FORWARD,33
191.0,7870.742126791732,-12568.743535130447,-21662.081380138563,-23773.740085809244,16974.11590506028,6975.510057867773,39741.69221421388,44132.312432803206,0.0,0.0,0.0,193.0,0.0,192.0,0.0,0.0,0.0,178.0,192.0,0.0,178.0,1744418790.5534153,0.0,2025-04-11 20:46:30.553,FORWARD,33
192.0,7851.989013193729,-12601.265323312919,-21630.677179178856,-23807.53592342567,17122.755005688072,6945.4246098309295,39847.66183467649,44175.49600309086,0.0,0.0,0.0,193.0,0.0,192.0,0.0,0.0,0.0,178.0,192.0,0.0,178.0,1744418790.5534463,0.0,2025-04-11 20:46:30.553,FORWARD,33
193.0,7835.158149618883,-12626.50044280296,-21646.256345064205,-23847.299676811657,17172.30882314549,6673.739155976672,40165.4812890865,44092.34751371712,0.0,0.0,0.0,193.0,0.0,193.0,0.0,0.0,0.0,179.0,193.0,0.0,179.0,1744418790.5534954,0.0,2025-04-11 20:46:30.553,FORWARD,33
194.0,7841.349582833002,-12609.73663446148,-21674.061915166607,-23824.970284100807,17054.85040603285,6612.741245358139,40050.526267352856,44004.90748940796,0.0,0.0,0.0,193.0,0.0,193.0,0.0,0.0,0.0,179.0,193.0,0.0,179.0,1744418790.553527,0.0,2025-04-11 20:46:30.553,FORWARD,33
195.0,7861.086173187038,-12571.783372376369,-21673.369011088493,-23790.05685926162,16958.02264905246,6898.932981363891,39775.219830896836,44109.35719124761,0.0,0.0,0.0,193.0,0.0,193.0,0.0,0.0,0.0,179.0,193.0,0.0,179.0,1744418790.5535583,0.0,2025-04-11 20:46:30.553,FORWARD,33
196.0,7871.166809936382,-12578.019509079399,-21632.554725713104,-23796.04712677564,17056.929118267195,6929.1078363785555,39773.610505296056,44163.04608142925,0.0,0.0,0.0,193.0,0.0,193.0,0.0,0.0,0.0,179.0,193.0,0.0,179.0,1744418790.5535893,0.0,2025-04-11 20:46:30.553,FORWARD,33
197.0,7846.1552078908935,-12632.446006828071,-21649.51969975468,-23855.279249582203,17152.1475496468,6697.61081905494,40139.933245174085,44115.950955861925,0.0,0.0,0.0,193.0,0.0,193.0,0.0,0.0,0.0,179.0,193.0,0.0,179.0,1744418790.5536203,0.0,2025-04-11 20:46:30.553,FORWARD,33
198.0,7838.667373498366,-12629.227355626506,-21686.400078105937,-23843.321066298613,17037.594859313354,6590.836535791938,40084.009180546906,44005.354524297065,0.0,0.0,0.0,193.0,0.0,193.0,0.0,0.0,0.0,179.0,193.0,0.0,179.0,1744418790.553652,0.0,2025-04-11 20:46:30.553,FORWARD,33
199.0,7853.21835913877,-12596.370291277206,-21696.279549155184,-23802.015042545205,16924.115052713758,6875.843629341559,39818.38104944003,44101.80230162171,0.0,0.0,0.0,193.0,0.0,193.0,0.0,0.0,0.0,179.0,193.0,0.0,179.0,1744418790.5536828,0.0,2025-04-11 20:46:30.553,FORWARD,33
200.0,7874.497219860223,-12576.656052667626,-21639.61787696098,-23781.876120790974,17001.049757128927,6967.239912419309,39710.95856558783,44148.808020211225,0.0,0.0,0.0,193.0,0.0,193.0,0.0,0.0,0.0,179.0,193.0,0.0,179.0,1744418790.5537145,0.0,2025-04-11 20:46:30.553,FORWARD,33
201.0,7850.826722482053,-12617.582096765293,-21636.80155715961,-23831.496993481756,17126.890078412303,6795.265590580177,40084.07623578027,44118.52140647428,0.0,0.0,0.0,193.0,0.0,193.0,0.0,0.0,0.0,178.0,193.0,0.0,178.0,1744418790.5537455,0.0,2025-04-11 20:46:30.553,FORWARD,33
202.0,7857.621652796466,-12608.216715838518,-21662.28254583866,-23829.91001962543,17017.94767593714,6597.072672494969,40092.256974250915,43973.79386112617,0.0,0.0,0.0,193.0,0.0,193.0,0.0,0.0,0.0,179.0,193.0,0.0,179.0,1744418790.5537767,0.0,2025-04-11 20:46:30.553,FORWARD,33
203.0,7854.738277761731,-12591.20703830803,-21679.314575113603,-23802.28326347867,16941.43765466662,6832.883576498459,39856.06609059168,44045.274739894245,0.0,0.0,0.0,193.0,0.0,192.0,0.0,0.0,0.0,178.0,192.0,0.0,178.0,1744418790.553808,0.0,2025-04-11 20:46:30.553,FORWARD,33
204.0,7857.331080118547,-12586.736689416968,-21648.647981720922,-23800.159847755414,17014.684321246663,6960.422630360441,39693.85948107952,44127.10447634512,0.0,0.0,0.0,193.0,0.0,193.0,0.0,0.0,0.0,178.0,193.0,0.0,178.0,1744418790.5538387,0.0,2025-04-11 20:46:30.553,FORWARD,33
205.0,7836.052219397095,-12618.20794561004,-21629.626647189456,-23835.989694117274,17193.25240770011,6819.651343780916,40019.882025704625,44114.38633375005,0.0,0.0,0.0,193.0,0.0,192.0,0.0,0.0,0.0,178.0,192.0,0.0,178.0,1744418790.5538845,0.0,2025-04-11 20:46:30.553,FORWARD,33
206.0,7841.327231088547,-12624.153509635153,-21653.967696901287,-23836.66024645093,17118.41876726374,6582.745204299117,40107.45616048052,43968.31768373462,0.0,0.0,0.0,193.0,0.0,192.0,0.0,0.0,0.0,178.0,192.0,0.0,178.0,1744418790.553916,0.0,2025-04-11 20:46:30.553,FORWARD,33
207.0,7850.446742826312,-12600.371253534706,-21677.43702857936,-23800.69628962234,16990.320919790378,6776.400718259897,39893.79583523224,44003.63343997401,0.0,0.0,0.0,193.0,0.0,192.0,0.0,0.0,0.0,178.0,192.0,0.0,178.0,1744418790.553947,0.0,2025-04-11 20:46:30.553,FORWARD,33
208.0,7863.276644143659,-12578.377136990684,-21655.86759517999,-23789.319251694593,16981.089649330337,6967.038746719211,39679.442605905846,44096.84021435263,0.0,0.0,0.0,193.0,0.0,192.0,0.0,0.0,0.0,178.0,192.0,0.0,178.0,1744418790.5539913,0.0,2025-04-11 20:46:30.553,FORWARD,33
209.0,7845.998745679706,-12612.552954262848,-21620.484783707238,-23818.555333442135,17162.16113116278,6881.40921371093,39958.593542408176,44113.648726183026,0.0,0.0,0.0,193.0,0.0,192.0,0.0,0.0,0.0,178.0,192.0,0.0,178.0,1744418790.5540228,0.0,2025-04-11 20:46:30.554,FORWARD,33
210.0,7846.714001502276,-12627.327457347807,-21649.407941032405,-23849.467796023822,17117.547049229986,6621.905460584815,40149.52214354541,43979.02416932871,0.0,0.0,0.0,193.0,0.0,193.0,0.0,0.0,0.0,178.0,193.0,0.0,178.0,1744418790.5540593,0.0,2025-04-11 20:46:30.554,FORWARD,33
211.0,7845.305841601592,-12616.419806053616,-21690.713964785813,-23826.87018237951,16972.394820737223,6727.85272930297,39970.35055999167,43973.95032333736,0.0,0.0,0.0,193.0,0.0,192.0,0.0,0.0,0.0,178.0,192.0,0.0,178.0,1744418790.5540907,0.0,2025-04-11 20:46:30.554,FORWARD,33
212.0,7860.572083064567,-12577.416011979105,-21669.412752319902,-23797.142362253948,16923.042168979904,6947.436266831907,39706.01883006321,44078.17650773245,0.0,0.0,0.0,193.0,0.0,193.0,0.0,0.0,0.0,178.0,193.0,0.0,178.0,1744418790.554122,0.0,2025-04-11 20:46:30.554,FORWARD,33
213.0,7856.727583018253,-12590.044747596354,-21617.757870883688,-23807.51357168121,17103.04076707849,6877.654120642438,39881.055340892715,44096.81786260818,0.0,0.0,0.0,193.0,0.0,192.0,0.0,0.0,0.0,179.0,192.0,0.0,179.0,1744418790.5541532,0.0,2025-04-11 20:46:30.554,FORWARD,33
214.0,7846.512835802178,-12617.269172342918,-21638.701455438313,-23845.600944233054,17114.28369453951,6608.807338334005,40159.3792628502,44000.28067830571,0.0,0.0,0.0,193.0,0.0,193.0,0.0,0.0,0.0,179.0,193.0,0.0,179.0,1744418790.5541844,0.0,2025-04-11 20:46:30.554,FORWARD,33
215.0,7842.176597377849,-12610.0272071394,-21667.490502296747,-23817.39304273046,16998.07697511637,6666.273673328599,40020.664336760565,43955.39837543945,0.0,0.0,0.0,193.0,0.0,192.0,0.0,0.0,0.0,178.0,192.0,0.0,178.0,1744418790.554221,0.0,2025-04-11 20:46:30.554,FORWARD,33
216.0,7847.496312558212,-12588.167201062108,-21672.162016887905,-23793.297862207637,16942.86816631176,6936.170987626432,39746.05080438266,44061.65856857998,0.0,0.0,0.0,193.0,0.0,193.0,0.0,0.0,0.0,179.0,193.0,0.0,179.0,1744418790.554252,0.0,2025-04-11 20:46:30.554,FORWARD,33
217.0,7848.368030591969,-12595.476221498993,-21626.005664587698,-23800.89745532244,17086.880455837305,6931.253603846265,39839.99518632832,44114.02870583877,0.0,0.0,0.0,193.0,0.0,192.0,0.0,0.0,0.0,178.0,192.0,0.0,178.0,1744418790.5542831,0.0,2025-04-11 20:46:30.554,FORWARD,33
218.0,7839.963774676773,-12623.862936957234,-21631.28067627915,-23837.375502273502,17138.4459302957,6685.697339260261,40175.293704902375,44038.94919621339,0.0,0.0,0.0,193.0,0.0,193.0,0.0,0.0,0.0,179.0,193.0,0.0,179.0,1744418790.5543141,0.0,2025-04-11 20:46:30.554,FORWARD,33
219.0,7838.64502175391,-12617.000951409455,-21662.90839468341,-23826.534906212677,17016.45010905863,6620.45259719522,40069.77111932887,43940.199189209845,0.0,0.0,0.0,193.0,0.0,193.0,0.0,0.0,0.0,178.0,193.0,0.0,178.0,1744418790.5543451,0.0,2025-04-11 20:46:30.554,FORWARD,33
220.0,7850.536149804134,-12585.864971383211,-21668.272813352683,-23798.95285355483,16933.748654573996,6899.134147063988,39801.416075398454,44041.16201891447,0.0,0.0,0.0,193.0,0.0,192.0,0.0,0.0,0.0,178.0,192.0,0.0,178.0,1744418790.5543904,0.0,2025-04-11 20:46:30.554,FORWARD,33
221.0,7874.877199515963,-12575.806686378322,-21612.616969658968,-23787.32994643807,17040.545289581452,6929.756036967759,39764.133365647,44073.08030999664,0.0,0.0,0.0,193.0,0.0,193.0,0.0,0.0,0.0,179.0,193.0,0.0,179.0,1744418790.554422,0.0,2025-04-11 20:46:30.554,FORWARD,33
222.0,7845.954042190796,-12622.275963100907,-21623.65873141989,-23840.258877308235,17149.219471123157,6733.418313672342,40139.39680330716,44036.535207812216,0.0,0.0,0.0,193.0,0.0,193.0,0.0,0.0,0.0,179.0,193.0,0.0,179.0,1744418790.5544531,0.0,2025-04-11 20:46:30.554,FORWARD,33
223.0,7849.686783514832,-12607.25559082694,-21649.05031312112,-23828.390101002467,17055.364496155322,6590.2553904361,40090.75940737241,43917.065133698605,0.0,0.0,0.0,193.0,0.0,192.0,0.0,0.0,0.0,178.0,192.0,0.0,178.0,1744418790.554484,0.0,2025-04-11 20:46:30.554,FORWARD,33
224.0,7850.558501548589,-12584.63562543817,-21652.850109678522,-23785.98884177075,16970.62903292525,6865.673585614394,39845.76193639779,44020.68782099341,0.0,0.0,0.0,193.0,0.0,193.0,0.0,0.0,0.0,179.0,193.0,0.0,179.0,1744418790.5545287,0.0,2025-04-11 20:46:30.554,FORWARD,33
225.0,7853.21835913877,-12586.267302783406,-21617.869629605964,-23782.166693468895,17023.289742861958,6957.762772770259,39743.92738865941,44095.0073713073,0.0,0.0,0.0,193.0,0.0,193.0,0.0,0.0,0.0,179.0,193.0,0.0,179.0,1744418790.55456,0.0,2025-04-11 20:46:30.554,FORWARD,33
226.0,7827.267983826159,-12628.512099803937,-21615.522696438158,-23835.944990628363,17171.705326045194,6793.410395790386,40115.74865767344,44081.17164148947,0.0,0.0,0.0,193.0,0.0,193.0,0.0,0.0,0.0,178.0,193.0,0.0,178.0,1744418790.5545912,0.0,2025-04-11 20:46:30.554,FORWARD,33
227.0,7834.822873452053,-12628.556803292848,-21646.546917742126,-23837.95664762934,17075.90574930975,6583.818088032972,40134.88175092718,43927.190473936855,0.0,0.0,0.0,193.0,0.0,193.0,0.0,0.0,0.0,179.0,193.0,0.0,179.0,1744418790.5546224,0.0,2025-04-11 20:46:30.554,FORWARD,33
228.0,7835.314611830069,-12608.26141932743,-21671.357354087515,-23806.753612369732,16952.881747827738,6810.822404721071,39892.1194543981,43987.04844558817,0.0,0.0,0.0,193.0,0.0,192.0,0.0,0.0,0.0,178.0,192.0,0.0,178.0,1744418790.5546532,0.0,2025-04-11 20:46:30.554,FORWARD,33
229.0,7854.715926017276,-12572.364517732207,-21627.346769255015,-23783.641908602945,16983.391879009232,6960.422630360441,39707.471693452804,44069.459327394885,0.0,0.0,0.0,193.0,0.0,192.0,0.0,0.0,0.0,178.0,192.0,0.0,178.0,1744418790.5546844,0.0,2025-04-11 20:46:30.554,FORWARD,33
230.0,7829.704323971788,-12624.198213124064,-21612.058176047587,-23821.394004987957,17152.10284615789,6853.4471813973405,40050.32510165276,44082.19982173441,0.0,0.0,0.0,193.0,0.0,193.0,0.0,0.0,0.0,179.0,193.0,0.0,179.0,1744418790.5547154,0.0,2025-04-11 20:46:30.554,FORWARD,33
231.0,7823.69170471331,-12643.30895463335,-21645.272868308173,-23841.331761042093,17074.2293684756,6598.4584806511975,40161.748547762465,43933.918349017906,0.0,0.0,0.0,193.0,0.0,193.0,0.0,0.0,0.0,179.0,193.0,0.0,179.0,1744418790.5547464,0.0,2025-04-11 20:46:30.554,FORWARD,33
232.0,7832.118312372961,-12614.16227986363,-21660.315592326595,-23795.264815719704,16952.21119549408,6762.0508983195905,39943.03672826728,43951.33035794859,0.0,0.0,0.0,193.0,0.0,192.0,0.0,0.0,0.0,178.0,192.0,0.0,178.0,1744418790.5547774,0.0,2025-04-11 20:46:30.554,FORWARD,33
233.0,7849.552673048101,-12588.077794084287,-21634.94636236982,-23770.23086192976,16934.218041207558,6957.5169035812505,39712.85846386653,44047.308748639676,0.0,0.0,0.0,193.0,0.0,193.0,0.0,0.0,0.0,179.0,193.0,0.0,179.0,1744418790.5548084,0.0,2025-04-11 20:46:30.554,FORWARD,33
234.0,7833.973507162751,-12618.654980499146,-21604.771507355155,-23807.155943769925,17098.816287376438,6852.664870341405,39965.209658766944,44068.900533783504,0.0,0.0,0.0,193.0,0.0,193.0,0.0,0.0,0.0,178.0,193.0,0.0,178.0,1744418790.5548391,0.0,2025-04-11 20:46:30.554,FORWARD,33
235.0,7830.866614683464,-12631.015495182932,-21635.683969936847,-23838.53779298518,17082.968900557626,6580.375919386855,40165.436585597585,43933.53836936216,0.0,0.0,0.0,193.0,0.0,192.0,0.0,0.0,0.0,178.0,192.0,0.0,178.0,1744418790.5548837,0.0,2025-04-11 20:46:30.554,FORWARD,33
236.0,7828.385571048924,-12617.135061876186,-21666.99876391873,-23810.553408927135,16971.83602712584,6696.202659154255,39984.81213865425,43907.67740102737,0.0,0.0,0.0,193.0,0.0,193.0,0.0,0.0,0.0,179.0,193.0,0.0,179.0,1744418790.5549152,0.0,2025-04-11 20:46:30.554,FORWARD,33
237.0,7846.892815457919,-12592.816363908812,-21656.404037046916,-23789.766286583697,16938.509576142977,6948.866778477047,39737.06540311163,44027.21453037435,0.0,0.0,0.0,193.0,0.0,192.0,0.0,0.0,0.0,178.0,192.0,0.0,178.0,1744418791.029928,0.0,2025-04-11 20:46:31.029,FORWARD,33
238.0,7840.74608573271,-12617.917372932121,-21613.84631560401,-23806.66420539191,17098.10103155387,6923.497548520273,39903.496492325845,44071.15805997349,0.0,0.0,0.0,193.0,0.0,193.0,0.0,0.0,0.0,178.0,193.0,0.0,178.0,1744418791.0300815,0.0,2025-04-11 20:46:31.030,FORWARD,33
239.0,7833.571175762556,-12637.050466185865,-21629.045501833618,-23838.224868562804,17099.173915287724,6667.547722762552,40192.39278941069,43978.48772746178,0.0,0.0,0.0,193.0,0.0,193.0,0.0,0.0,0.0,179.0,193.0,0.0,179.0,1744418791.0301936,0.0,2025-04-11 20:46:31.030,FORWARD,33
240.0,7833.146492617905,-12609.535468761382,-21652.827757934065,-23803.825533846088,16990.812658168397,6676.711937989228,40042.65845330458,43912.84065399655,0.0,0.0,0.0,193.0,0.0,193.0,0.0,0.0,0.0,178.0,193.0,0.0,178.0,1744418791.030231,0.0,2025-04-11 20:46:31.030,FORWARD,33
241.0,7836.655716497388,-12600.43830876807,-21647.128063097964,-23778.724524822777,16939.22483196555,6935.746304481781,39775.17512740793,44036.311690367664,0.0,0.0,0.0,193.0,0.0,192.0,0.0,0.0,0.0,178.0,192.0,0.0,178.0,1744418791.0302672,0.0,2025-04-11 20:46:31.030,FORWARD,33
242.0,7839.293222343114,-12614.519907774915,-21600.927007308845,-23785.407696414914,17075.4810661651,6936.774484726726,39828.37227921156,44078.44472866592,0.0,0.0,0.0,193.0,0.0,192.0,0.0,0.0,0.0,178.0,192.0,0.0,178.0,1744418791.0303032,0.0,2025-04-11 20:46:31.030,FORWARD,33
243.0,7825.88217566993,-12639.620916798225,-21620.864763362977,-23834.492127238766,17143.34096233141,6707.959676737747,40171.82918451181,44008.26025107625,0.0,0.0,0.0,193.0,0.0,193.0,0.0,0.0,0.0,178.0,193.0,0.0,178.0,1744418791.0303388,0.0,2025-04-11 20:46:31.030,FORWARD,33
244.0,7842.802446222598,-12612.172974607109,-21647.955077642808,-23808.56410367061,17002.994358896536,6617.524518671575,40059.7575378129,43886.35383681701,0.0,0.0,0.0,193.0,0.0,192.0,0.0,0.0,0.0,178.0,192.0,0.0,178.0,1744418791.0303745,0.0,2025-04-11 20:46:31.030,FORWARD,33
245.0,7838.667373498366,-12597.845506411257,-21660.449702793325,-23780.535016123657,16908.982921717517,6902.129280821,39800.7455230648,43998.581945727106,0.0,0.0,0.0,193.0,0.0,192.0,0.0,0.0,0.0,178.0,192.0,0.0,178.0,1744418791.0304103,0.0,2025-04-11 20:46:31.030,FORWARD,33
246.0,7844.0988474010055,-12603.187573336074,-21617.646112161412,-23782.23374870226,17008.47053628809,6954.611176802061,39760.08769990059,44059.736318556825,0.0,0.0,0.0,193.0,0.0,192.0,0.0,0.0,0.0,178.0,192.0,0.0,178.0,1744418791.030446,0.0,2025-04-11 20:46:31.030,FORWARD,33
247.0,7827.156225103882,-12638.480977831005,-21614.405109215393,-23821.215191032315,17131.919220914748,6768.845828634004,40127.08099211228,44023.63825126151,0.0,0.0,0.0,193.0,0.0,192.0,0.0,1.0,0.0,178.0,192.0,1.0,178.0,1744418791.0304816,0.0,2025-04-11 20:46:31.030,FORWARD,33
248.0,7828.631440237933,-12631.171957394119,-21652.492481767236,-23819.04707182015,17010.593952011342,6619.871451839382,40103.008163333914,43897.35089508902,0.0,0.0,0.0,193.0,0.0,192.0,0.0,3.0,0.0,178.0,192.0,3.0,178.0,1744418791.030518,0.0,2025-04-11 20:46:31.030,FORWARD,33
249.0,7833.571175762556,-12607.702625716047,-21677.01234543471,-23792.33673719606,16895.81774423334,6873.362585707019,39855.3061312802,43984.34388450908,0.0,0.0,0.0,193.0,0.0,193.0,0.0,4.0,0.0,179.0,193.0,4.0,179.0,1744418791.0305533,0.0,2025-04-11 20:46:31.030,FORWARD,33
250.0,7856.5040655737,-12585.753212660935,-21633.448795491317,-23775.4611701323,16967.857416612795,6970.3691566430525,39718.2228825358,44048.225170162346,0.0,0.0,0.0,193.0,0.0,193.0,0.0,5.0,0.0,179.0,193.0,5.0,179.0,1744418791.0306067,0.0,2025-04-11 20:46:31.030,FORWARD,33
251.0,7827.804425693086,-12625.293448602373,-21623.345806997517,-23821.03637707667,17134.2438023381,6815.560974545596,40089.75357887192,44044.984167216324,0.0,0.0,0.0,193.0,0.0,193.0,0.0,6.0,0.0,179.0,193.0,6.0,179.0,1744418791.0306432,0.0,2025-04-11 20:46:31.030,FORWARD,33
252.0,7815.667428453855,-12637.095169674776,-21666.75289472972,-23836.23556330628,17037.103120935335,6593.272875937567,40146.70582374404,43913.44415109684,0.0,0.0,0.0,193.0,0.0,192.0,0.0,7.0,0.0,179.0,192.0,7.0,179.0,1744418791.0306787,0.0,2025-04-11 20:46:31.030,FORWARD,33
253.0,7829.324344316047,-12607.88143967169,-21686.556540317124,-23792.627309873977,16917.074253210336,6794.125651612956,39907.966841216905,43966.909523833936,0.0,0.0,0.0,193.0,0.0,193.0,0.0,8.0,0.0,179.0,193.0,8.0,179.0,1744418791.030714,0.0,2025-04-11 20:46:31.030,FORWARD,33
254.0,7849.306803859092,-12577.527770701381,-21655.129987612963,-23776.310536421603,16932.116977228758,6947.928005209924,39708.99161207576,44051.354414386085,0.0,0.0,0.0,193.0,0.0,193.0,0.0,9.0,0.0,179.0,193.0,9.0,179.0,1744418791.0307708,0.0,2025-04-11 20:46:31.030,FORWARD,33
255.0,7822.484710512724,-12627.483919558994,-21632.331208268548,-23824.255028278236,17135.24963083859,6847.479265627774,40025.0452786738,44061.077423224146,0.0,0.0,0.0,193.0,0.0,192.0,0.0,10.0,0.0,178.0,192.0,10.0,178.0,1744418791.0308068,0.0,2025-04-11 20:46:31.030,FORWARD,33
0.0,7823.31172505757,-12637.11752141923,-21656.649906235925,-23845.15390934395,17076.50924641004,6588.2437334351225,40150.43856506808,43912.617136552,0.0,0.0,0.0,193.0,0.0,192.0,0.0,10.0,0.0,178.0,192.0,10.0,178.0,1744418791.0308425,0.0,2025-04-11 20:46:31.030,FORWARD,33
1.0,7829.659620482877,-12610.630704239691,-21676.63236577897,-23809.100545537538,16939.470701154554,6731.764284582649,39937.51584738682,43916.68515404286,0.0,0.0,0.0,193.0,0.0,193.0,0.0,11.0,0.0,179.0,193.0,11.0,179.0,1744418791.030878,0.0,2025-04-11 20:46:31.030,FORWARD,33
2.0,7842.422466566857,-12587.004910350432,-21654.593545746036,-23787.08407724906,16906.5912850608,6946.452790075874,39693.770074101696,44022.29714659419,0.0,0.0,0.0,193.0,0.0,193.0,0.0,11.0,0.0,178.0,193.0,11.0,178.0,1744418791.0309136,0.0,2025-04-11 20:46:31.030,FORWARD,33
3.0,7829.033771638128,-12625.02522766891,-21620.99887382971,-23812.252141505738,17089.562665171943,6877.832934598081,39932.10672522864,44047.66637655096,0.0,0.0,0.0,193.0,0.0,193.0,0.0,12.0,0.0,178.0,193.0,12.0,178.0,1744418791.030949,0.0,2025-04-11 20:46:31.030,FORWARD,33
4.0,7813.655771452877,-12655.088323961298,-21650.436121277347,-23846.20444133335,17087.126325026315,6625.638201908851,40175.85249851376,43933.44896238434,0.0,0.0,0.0,193.0,0.0,193.0,0.0,12.0,0.0,179.0,193.0,12.0,179.0,1744418791.030985,0.0,2025-04-11 20:46:31.030,FORWARD,33
5.0,7818.997838377695,-12630.07672191581,-21673.078438410575,-23808.295882737148,16969.77966663595,6701.500022590163,40008.03560114332,43894.78044447666,0.0,0.0,0.0,193.0,0.0,193.0,0.0,12.0,0.0,181.0,193.0,12.0,181.0,1744418791.0310209,0.0,2025-04-11 20:46:31.031,FORWARD,33
6.0,7835.091094385517,-12598.091375600265,-21665.434141806858,-23789.118085994494,16920.67288406764,6939.680211505915,39744.799106693165,43986.44494848787,0.0,0.0,0.0,193.0,0.0,193.0,0.0,13.0,0.0,181.0,193.0,13.0,181.0,1744418791.0310564,0.0,2025-04-11 20:46:31.031,FORWARD,33
7.0,7838.9355944318295,-12608.373178049706,-21623.166993041872,-23803.892589079453,17065.355725926845,6901.592838954072,39880.340085070144,44012.4400272894,0.0,0.0,0.0,193.0,0.0,194.0,0.0,13.0,0.0,180.0,194.0,13.0,180.0,1744418791.0310926,0.0,2025-04-11 20:46:31.031,FORWARD,33
8.0,7831.760684461676,-12631.797806238868,-21636.622743203967,-23837.10728134004,17106.080604324416,6650.605100465429,40184.323809662324,43918.60740406602,0.0,0.0,0.0,193.0,0.0,193.0,0.0,13.0,0.0,180.0,193.0,13.0,180.0,1744418791.0311284,0.0,2025-04-11 20:46:31.031,FORWARD,33
9.0,7834.487597285223,-12609.200192594551,-21656.09111262454,-23804.518437924202,16992.354928535813,6632.746056645639,40044.51364809438,43836.53179842613,0.0,0.0,0.0,193.0,0.0,193.0,0.0,13.0,0.0,179.0,193.0,13.0,179.0,1744418791.0311775,0.0,2025-04-11 20:46:31.031,FORWARD,33
10.0,7839.472036298756,-12590.760003418924,-21661.611993505,-23778.07632423357,16915.241410165003,6917.46257751734,39776.67269428643,43947.73172709128,0.0,0.0,0.0,193.0,0.0,193.0,0.0,14.0,0.0,179.0,193.0,14.0,179.0,1744418791.0312133,0.0,2025-04-11 20:46:31.031,FORWARD,33
11.0,7841.126065388449,-12600.035977367876,-21622.18351628584,-23785.430048159367,17036.074940690392,6939.479045805818,39809.060372002175,43994.737445680796,0.0,0.0,0.0,193.0,0.0,193.0,0.0,14.0,0.0,179.0,193.0,14.0,179.0,1744418791.0312495,0.0,2025-04-11 20:46:31.031,FORWARD,33
12.0,7817.813195921564,-12646.102922690265,-21635.035769347644,-23835.274438294702,17128.231183079624,6719.560232110051,40165.77186176442,43936.98053800828,0.0,0.0,0.0,193.0,0.0,193.0,0.0,14.0,0.0,179.0,193.0,14.0,179.0,1744418791.0312855,0.0,2025-04-11 20:46:31.031,FORWARD,33
13.0,7816.270925554148,-12638.682143531101,-21661.656696993912,-23816.610731674522,17008.60464675482,6613.054169780514,40084.59032590274,43827.90402506638,0.0,0.0,0.0,193.0,0.0,193.0,0.0,14.0,0.0,178.0,193.0,14.0,178.0,1744418791.0313785,0.0,2025-04-11 20:46:31.031,FORWARD,33
14.0,7821.300068056592,-12615.458681042039,-21675.58183378957,-23784.066591747596,16896.801220989375,6884.806678868137,39826.36062221058,43938.031069997676,0.0,0.0,0.0,193.0,0.0,193.0,0.0,14.0,0.0,179.0,193.0,14.0,179.0,1744418791.031412,0.0,2025-04-11 20:46:31.031,FORWARD,33
15.0,7841.126065388449,-12602.941704147066,-21626.29623726562,-23776.936385266352,16989.337443034347,6941.84833071808,39756.24319985428,43998.93957363839,0.0,0.0,0.0,193.0,0.0,193.0,0.0,15.0,0.0,178.0,193.0,15.0,178.0,1744418791.031444,0.0,2025-04-11 20:46:31.031,FORWARD,33
16.0,7817.9249546438405,-12641.252594143461,-21627.011493088186,-23830.021778347706,17135.92018317225,6757.468790706253,40132.91479741511,43980.253515273755,0.0,0.0,0.0,193.0,0.0,193.0,0.0,15.0,0.0,178.0,193.0,15.0,178.0,1744418791.0314765,0.0,2025-04-11 20:46:31.031,FORWARD,33
17.0,7816.650905209888,-12633.11655916173,-21663.131912127963,-23832.301656282147,17021.99334168355,6566.137858168824,40109.4678174815,43842.455010706784,0.0,0.0,0.0,193.0,0.0,193.0,0.0,15.0,0.0,179.0,193.0,15.0,179.0,1744418791.031508,0.0,2025-04-11 20:46:31.031,FORWARD,33
18.0,7829.771379205154,-12603.299332058352,-21677.213511134807,-23789.47571390578,16908.088851939305,6801.702892983305,39836.038927559726,43898.177909633865,0.0,0.0,0.0,193.0,0.0,193.0,0.0,15.0,0.0,179.0,193.0,15.0,179.0,1744418791.03154,0.0,2025-04-11 20:46:31.031,FORWARD,33
19.0,7844.478827056745,-12590.380023763184,-21637.47210949327,-23766.587527583546,16970.338460247334,6950.7666767557475,39696.27346948069,43982.75691065275,0.0,0.0,0.0,193.0,0.0,193.0,0.0,15.0,0.0,179.0,193.0,15.0,179.0,1744418791.031572,0.0,2025-04-11 20:46:31.031,FORWARD,33
20.0,7811.957038874274,-12634.055332428854,-21630.654827434402,-23813.168563028405,17125.325456300434,6816.276230368166,40062.9091337811,43996.190309070385,0.0,0.0,0.0,193.0,0.0,193.0,0.0,15.0,0.0,179.0,193.0,15.0,179.0,1744418791.031604,0.0,2025-04-11 20:46:31.031,FORWARD,33
21.0,7811.085320840517,-12634.569422551325,-21662.774284216677,-23825.529077712188,17021.255734116523,6583.259294421589,40131.70780321453,43856.71542366927,0.0,0.0,0.0,193.0,0.0,193.0,0.0,15.0,0.0,179.0,193.0,15.0,179.0,1744418791.0316355,0.0,2025-04-11 20:46:31.031,FORWARD,33
22.0,7814.058102853072,-12618.230297354496,-21686.824761250587,-23792.85082731853,16902.031529191914,6777.630064204939,39903.9658789594,43899.92134570138,0.0,0.0,0.0,193.0,0.0,193.0,0.0,15.0,0.0,179.0,193.0,15.0,179.0,1744418791.0316725,0.0,2025-04-11 20:46:31.031,FORWARD,33
23.0,7839.4049810653905,-12590.312968529817,-21651.441949777836,-23775.885853276952,16915.420224120644,6944.105856908066,39690.394960688944,43988.94834386687,0.0,0.0,0.0,193.0,0.0,193.0,0.0,15.0,0.0,179.0,193.0,15.0,179.0,1744418791.0317044,0.0,2025-04-11 20:46:31.031,FORWARD,33
24.0,7836.543957775111,-12608.507288516437,-21619.27778950665,-23809.122897281995,17097.586941431397,6839.723210301782,39976.45258622797,43995.89973639247,0.0,0.0,0.0,193.0,0.0,193.0,0.0,15.0,0.0,179.0,193.0,15.0,179.0,1744418791.031752,0.0,2025-04-11 20:46:31.031,FORWARD,33
25.0,7836.812178708575,-12620.465471800027,-21643.52943224066,-23822.89157186646,17058.158464212236,6579.750070542106,40121.31424204281,43849.67462416585,0.0,0.0,0.0,193.0,0.0,193.0,0.0,15.0,0.0,179.0,193.0,15.0,179.0,1744418791.0317843,0.0,2025-04-11 20:46:31.031,FORWARD,33
26.0,7826.888004170419,-12619.772567721911,-21665.367086573493,-23783.977184769774,16948.724323359053,6732.501892149675,39927.59167284866,43864.15855457289,0.0,0.0,0.0,193.0,0.0,193.0,0.0,16.0,0.0,179.0,193.0,16.0,179.0,1744418791.031816,0.0,2025-04-11 20:46:31.031,FORWARD,33
27.0,7830.374876305446,-12609.468413528015,-21664.89769993993,-23781.071457990583,16905.943084471593,6955.594653558094,39698.77686485969,43992.39051251299,0.0,0.0,0.0,193.0,0.0,193.0,0.0,16.0,0.0,179.0,193.0,16.0,179.0,1744418791.031848,0.0,2025-04-11 20:46:31.031,FORWARD,33
28.0,7826.530376259134,-12633.943573706578,-21630.94540011232,-23808.988786815262,17052.794045542963,6875.642463641461,39895.15929164401,44019.10084713708,0.0,0.0,0.0,193.0,0.0,193.0,0.0,16.0,0.0,178.0,193.0,16.0,178.0,1744418791.0318966,0.0,2025-04-11 20:46:31.031,FORWARD,33
29.0,7809.945381873296,-12657.099980962275,-21653.99004864574,-23839.878897652496,17041.841690759862,6612.830652335961,40135.21702709401,43906.291592871145,0.0,0.0,0.0,193.0,0.0,193.0,0.0,16.0,0.0,179.0,193.0,16.0,179.0,1744418791.0319288,0.0,2025-04-11 20:46:31.031,FORWARD,33
30.0,7804.759777159665,-12643.376009866717,-21676.85588322352,-23802.55148441213,16920.762291045463,6672.643920498362,39972.40692048155,43871.3558162875,0.0,0.0,0.0,193.0,0.0,193.0,0.0,16.0,0.0,179.0,193.0,16.0,179.0,1744418791.0319605,0.0,2025-04-11 20:46:31.031,FORWARD,33
31.0,7826.284507070126,-12605.914486159621,-21659.75679871521,-23768.7109433068,16878.830418447305,6920.0106763852455,39703.71660038431,43978.04069257268,0.0,0.0,0.0,193.0,0.0,193.0,0.0,16.0,0.0,179.0,193.0,16.0,179.0,1744418791.031992,0.0,2025-04-11 20:46:31.031,FORWARD,33
32.0,7824.250498324693,-12620.621934011215,-21617.66846390587,-23784.737144081253,17043.4733681051,6888.450013214352,39810.714401091864,44008.483768520804,0.0,0.0,0.0,193.0,0.0,193.0,0.0,16.0,0.0,179.0,193.0,16.0,179.0,1744418791.0320237,0.0,2025-04-11 20:46:31.032,FORWARD,33
33.0,7797.674274167332,-12668.7899433124,-21651.5090050112,-23849.221926834816,17089.09327853838,6644.972460862692,40133.09361137076,43920.0155639667,0.0,0.0,0.0,193.0,0.0,193.0,0.0,16.0,0.0,179.0,193.0,16.0,179.0,1744418791.0320554,0.0,2025-04-11 20:46:31.032,FORWARD,33
34.0,7804.312742270558,-12648.382800624706,-21679.426333835883,-23829.686502180877,16953.999335050506,6594.010483504592,40009.48846453291,43832.50848442417,0.0,0.0,0.0,193.0,0.0,193.0,0.0,16.0,0.0,179.0,193.0,16.0,179.0,1744418791.032087,0.0,2025-04-11 20:46:31.032,FORWARD,33
35.0,7822.417655279358,-12607.25559082694,-21678.308746613115,-23791.576777884577,16835.780958626387,6851.055544740623,39720.86038838153,43935.32650891859,0.0,0.0,0.0,193.0,0.0,193.0,0.0,16.0,0.0,178.0,193.0,16.0,178.0,1744418791.0321188,0.0,2025-04-11 20:46:31.032,FORWARD,33
36.0,7830.0172483941615,-12612.888230429679,-21630.028978589653,-23787.866388304996,16969.98083233605,6893.456803972341,39722.514417471226,43992.16699506843,0.0,0.0,0.0,193.0,0.0,193.0,0.0,16.0,0.0,179.0,193.0,16.0,179.0,1744418791.0321505,0.0,2025-04-11 20:46:31.032,FORWARD,33
37.0,7800.7811666466205,-12664.923091521632,-21642.6577142069,-23839.00717961874,17110.550953215476,6708.764339538138,40099.11895979869,43954.101974261044,0.0,0.0,0.0,193.0,0.0,193.0,0.0,16.0,0.0,179.0,193.0,16.0,179.0,1744418791.032182,0.0,2025-04-11 20:46:31.032,FORWARD,33
38.0,7801.2505532801815,-12654.820103027834,-21673.70428725532,-23825.082042823084,17009.07403338838,6601.051283008013,40034.298900878304,43841.695051395305,0.0,0.0,0.0,193.0,0.0,193.0,0.0,16.0,0.0,179.0,193.0,16.0,179.0,1744418791.032214,0.0,2025-04-11 20:46:31.032,FORWARD,33
39.0,7805.027998093128,-12624.757006735446,-21687.16003741742,-23798.930501810373,16901.45038383608,6844.97587024878,39769.65424652747,43950.25747421473,0.0,0.0,0.0,193.0,0.0,193.0,0.0,16.0,0.0,179.0,193.0,16.0,179.0,1744418791.032259,0.0,2025-04-11 20:46:31.032,FORWARD,33
40.0,7822.238841323715,-12616.576268264804,-21635.505155981202,-23789.542769139145,16976.060506827893,6900.27408603121,39678.01209426071,44007.70145746487,0.0,0.0,0.0,193.0,0.0,193.0,0.0,16.0,0.0,179.0,193.0,16.0,179.0,1744418791.0322912,0.0,2025-04-11 20:46:31.032,FORWARD,33
41.0,7799.775338146132,-12655.31184140585,-21627.9055628664,-23819.896438109452,17100.179743788212,6764.487238465219,40051.59915108671,43978.46537571733,0.0,0.0,0.0,193.0,0.0,193.0,0.0,16.0,0.0,179.0,193.0,16.0,179.0,1744418791.032323,0.0,2025-04-11 20:46:31.032,FORWARD,33
42.0,7801.384663746913,-12650.84149251479,-21663.824816206077,-23816.38721422997,16986.83404765535,6585.360358400388,40051.93442725354,43833.06727803556,0.0,0.0,0.0,193.0,0.0,193.0,0.0,16.0,0.0,179.0,193.0,16.0,179.0,1744418791.0323548,0.0,2025-04-11 20:46:31.032,FORWARD,33
43.0,7811.085320840517,-12622.901811945656,-21677.034697179162,-23780.80323705712,16886.43001156211,6834.1129224435,39806.13229347853,43902.29063061364,0.0,0.0,0.0,193.0,0.0,192.0,0.0,16.0,0.0,178.0,192.0,16.0,178.0,1744418791.0323982,0.0,2025-04-11 20:46:31.032,FORWARD,33
44.0,7825.1445681029045,-12603.500497758449,-21636.33217052605,-23770.208510185304,16942.01880002246,6960.422630360441,39635.6555385179,43969.211753512835,0.0,0.0,0.0,193.0,0.0,193.0,0.0,16.0,0.0,179.0,193.0,16.0,179.0,1744418791.03243,0.0,2025-04-11 20:46:31.032,FORWARD,33
45.0,7806.391454504902,-12640.380876109706,-21612.169934769863,-23803.959644312818,17117.1894213187,6831.564823575595,39975.24559202738,43969.54702967966,0.0,0.0,0.0,193.0,0.0,193.0,0.0,16.0,0.0,179.0,193.0,16.0,179.0,1744418791.032462,0.0,2025-04-11 20:46:31.032,FORWARD,33
46.0,7803.195155047793,-12655.870635017232,-21654.839414935042,-23822.019853832706,17025.636676029764,6594.166945715779,40071.60396237421,43832.597891401994,0.0,0.0,0.0,193.0,0.0,193.0,0.0,16.0,0.0,179.0,193.0,16.0,179.0,1744418791.0324936,0.0,2025-04-11 20:46:31.032,FORWARD,33
47.0,7809.945381873296,-12635.530547562903,-21677.839359979556,-23784.647737103434,16881.04324114838,6767.795296644605,39849.874657377564,43870.46174650929,0.0,0.0,0.0,193.0,0.0,193.0,0.0,16.0,0.0,179.0,193.0,16.0,179.0,1744418791.0325253,0.0,2025-04-11 20:46:31.032,FORWARD,33
48.0,7826.1951000923045,-12609.982503650488,-21639.506118238703,-23766.118140949984,16896.711814011553,6941.177778384421,39628.99471867022,43959.55579990814,0.0,0.0,0.0,193.0,0.0,193.0,0.0,17.0,0.0,179.0,193.0,17.0,179.0,1744418791.0325568,0.0,2025-04-11 20:46:31.032,FORWARD,33
49.0,7805.564439960056,-12642.459588344049,-21607.341957967517,-23802.12680126748,17098.57041818743,6847.658079583416,39920.841446023165,43980.58879144058,0.0,0.0,0.0,193.0,0.0,193.0,0.0,17.0,0.0,178.0,193.0,17.0,178.0,1744418791.0325885,0.0,2025-04-11 20:46:31.032,FORWARD,33
50.0,7795.349692743981,-12659.670431574636,-21639.03673160514,-23833.843926649562,17053.486949621078,6575.883218751338,40104.81865463479,43849.048775321105,0.0,0.0,0.0,193.0,0.0,193.0,0.0,17.0,0.0,179.0,193.0,17.0,179.0,1744418791.0326204,0.0,2025-04-11 20:46:31.032,FORWARD,33
51.0,7803.150451558883,-12645.991163967987,-21664.070685395087,-23798.170542498894,16920.002331733984,6690.6147230404285,39910.29142264026,43839.50458043868,0.0,0.0,0.0,193.0,0.0,192.0,0.0,17.0,0.0,178.0,192.0,17.0,178.0,1744418791.032652,0.0,2025-04-11 20:46:31.032,FORWARD,33
52.0,7826.664486725866,-12618.073835143308,-21642.56830722908,-23768.64388807343,16867.72160145302,6918.222536828821,39654.676873049364,43938.47810488679,0.0,0.0,0.0,193.0,0.0,192.0,0.0,17.0,0.0,179.0,192.0,17.0,179.0,1744418791.0326836,0.0,2025-04-11 20:46:31.032,FORWARD,33
53.0,7809.788919662109,-12648.494559346982,-21608.70541437929,-23799.601054144034,17029.749397009542,6862.678451857383,39848.5559044547,43963.199134254355,0.0,0.0,0.0,193.0,0.0,193.0,0.0,17.0,0.0,179.0,193.0,17.0,179.0,1744418791.032715,0.0,2025-04-11 20:46:31.032,FORWARD,33
54.0,7803.68689342581,-12666.197140955584,-21634.09699608052,-23833.91098188293,17049.106007707836,6607.35447494441,40109.51252097041,43840.800981617096,0.0,0.0,0.0,193.0,0.0,193.0,0.0,16.0,0.0,179.0,193.0,16.0,179.0,1744418791.0327468,0.0,2025-04-11 20:46:31.032,FORWARD,33
55.0,7812.515832485657,-12643.130140677707,-21660.494406282236,-23805.03252804667,16931.334666172825,6637.261109025611,39956.179554007,43776.71853026373,0.0,0.0,0.0,193.0,0.0,192.0,0.0,17.0,0.0,179.0,192.0,17.0,179.0,1744418791.0327914,0.0,2025-04-11 20:46:31.032,FORWARD,33
56.0,7829.592565249511,-12607.63557048268,-21651.15137709992,-23777.383420155456,16883.68074699411,6901.503431976251,39681.92364954038,43877.6590082239,0.0,0.0,0.0,193.0,0.0,193.0,0.0,17.0,0.0,179.0,193.0,17.0,179.0,1744418791.0328236,0.0,2025-04-11 20:46:31.032,FORWARD,33
57.0,7826.3739140479465,-12630.300239360362,-21604.011548043676,-23789.319251694593,17044.076865205392,6886.952446335847,39760.08769990059,43907.74445626074,0.0,0.0,0.0,193.0,0.0,193.0,0.0,17.0,0.0,179.0,193.0,17.0,179.0,1744418791.0328555,0.0,2025-04-11 20:46:31.032,FORWARD,33
58.0,7810.3477132734915,-12661.45857113106,-21617.512001694682,-23825.350263756547,17111.333264271412,6644.45837074022,40088.948916071524,43824.86418782046,0.0,0.0,0.0,193.0,0.0,193.0,0.0,17.0,0.0,178.0,193.0,17.0,178.0,1744418791.0328984,0.0,2025-04-11 20:46:31.032,FORWARD,33
59.0,7814.460434253268,-12640.850262743266,-21646.077531108564,-23797.723507609786,16979.972062107572,6595.306884682999,39976.340827505686,43726.29299477256,0.0,0.0,0.0,193.0,0.0,193.0,0.0,17.0,0.0,179.0,193.0,17.0,179.0,1744418791.0329304,0.0,2025-04-11 20:46:31.032,FORWARD,33
60.0,7810.437120251313,-12620.73369273349,-21662.394304560938,-23782.457266146812,16882.563159771344,6874.480172929785,39719.228711036296,43839.325766483045,0.0,0.0,0.0,193.0,0.0,193.0,0.0,17.0,0.0,178.0,193.0,17.0,178.0,1744418791.032962,0.0,2025-04-11 20:46:31.032,FORWARD,33
61.0,7815.153338331383,-12619.54905027736,-21620.842411618523,-23787.03937376015,16985.716460432584,6910.868812903025,39707.896376597455,43889.863060696494,0.0,0.0,0.0,193.0,0.0,193.0,0.0,17.0,0.0,178.0,193.0,17.0,178.0,1744418791.0329938,0.0,2025-04-11 20:46:31.032,FORWARD,33
62.0,7790.0970327969835,-12664.140780465697,-21630.699530923313,-23840.05771160814,17087.461601193143,6707.982028482203,40082.44455843503,43834.76601061416,0.0,0.0,0.0,193.0,0.0,193.0,0.0,17.0,0.0,179.0,193.0,17.0,179.0,1744418791.0330255,0.0,2025-04-11 20:46:31.033,FORWARD,33
63.0,7797.49546021169,-12648.941594236088,-21666.439970307347,-23831.117013826017,16967.857416612795,6560.214645888168,40030.34264210971,43698.0627415255,0.0,0.0,0.0,193.0,0.0,193.0,0.0,17.0,0.0,180.0,193.0,17.0,180.0,1744418791.0330572,0.0,2025-04-11 20:46:31.033,FORWARD,33
64.0,7808.201945805782,-12622.521832289915,-21679.426333835883,-23789.22984471677,16864.43589501809,6827.630916551461,39769.36367384955,43770.99648368317,0.0,0.0,0.0,193.0,0.0,193.0,0.0,17.0,0.0,179.0,193.0,17.0,179.0,1744418791.0330887,0.0,2025-04-11 20:46:31.033,FORWARD,33
65.0,7816.650905209888,-12612.68706472958,-21636.488632737237,-23773.024829986673,16937.056712753383,6936.394505070985,39662.589390586545,43821.57848138553,0.0,0.0,0.0,193.0,0.0,193.0,0.0,17.0,0.0,179.0,193.0,17.0,179.0,1744418791.0331206,0.0,2025-04-11 20:46:31.033,FORWARD,33
66.0,7792.958056087263,-12652.070838459831,-21631.57124895707,-23819.650568920442,17087.37219421532,6774.456116492286,40034.500066578395,43804.8370247885,0.0,0.0,0.0,193.0,0.0,193.0,0.0,17.0,0.0,179.0,193.0,17.0,179.0,1744418791.0331523,0.0,2025-04-11 20:46:31.033,FORWARD,33
67.0,7812.426425507835,-12637.497501074971,-21655.24174633524,-23822.95862709983,16997.004091382514,6565.780230257539,40051.129764453144,43652.42047934777,0.0,0.0,0.0,193.0,0.0,193.0,0.0,17.0,0.0,178.0,193.0,17.0,178.0,1744418791.0331843,0.0,2025-04-11 20:46:31.033,FORWARD,33
68.0,7814.147509830894,-12617.716207232024,-21677.90641521292,-23792.29203370715,16869.08505786479,6811.515308799185,39830.47334319036,43735.61367221042,0.0,0.0,0.0,193.0,0.0,193.0,0.0,17.0,0.0,179.0,193.0,17.0,179.0,1744418791.0332158,0.0,2025-04-11 20:46:31.033,FORWARD,33
69.0,7817.969658132752,-12607.792032693867,-21649.76556894369,-23782.70313533582,16867.38632528619,6951.951319211879,39654.36394862699,43831.145028012405,0.0,0.0,0.0,193.0,0.0,193.0,0.0,17.0,0.0,179.0,193.0,17.0,179.0,1744418791.0332477,0.0,2025-04-11 20:46:31.033,FORWARD,33
70.0,7791.616951419945,-12648.785132024901,-21629.51488846718,-23827.876010879998,17062.38294391429,6814.1751663893665,39989.416598012045,43847.55120844259,0.0,0.0,0.0,193.0,0.0,192.0,0.0,17.0,0.0,178.0,192.0,17.0,178.0,1744418791.0332923,0.0,2025-04-11 20:46:31.033,FORWARD,33
71.0,7788.77827987412,-12656.652946073169,-21663.48954003925,-23848.171394845416,17019.244077115545,6550.469285305654,40104.86335812371,43720.14626504735,0.0,0.0,0.0,193.0,0.0,193.0,0.0,17.0,0.0,179.0,193.0,17.0,179.0,1744418791.033324,0.0,2025-04-11 20:46:31.033,FORWARD,33
72.0,7802.546954458589,-12629.652038771157,-21675.313612856105,-23801.411545444913,16899.997520446483,6739.676802119828,39886.75503572882,43758.81478295503,0.0,0.0,0.0,193.0,0.0,193.0,0.0,17.0,0.0,179.0,193.0,17.0,179.0,1744418791.033356,0.0,2025-04-11 20:46:31.033,FORWARD,33
73.0,7813.722826686243,-12616.26334384243,-21657.633382991957,-23784.804199314618,16893.895494210185,6965.563531585161,39663.03642547565,43875.26737156718,0.0,0.0,0.0,193.0,0.0,192.0,0.0,17.0,0.0,178.0,192.0,17.0,178.0,1744418791.0333877,0.0,2025-04-11 20:46:31.033,FORWARD,33
74.0,7799.417710234847,-12650.059181458853,-21628.821984389066,-23815.89547585195,17072.128304496804,6873.139068262466,39911.811341263216,43891.897069441926,0.0,0.0,0.0,193.0,0.0,193.0,0.0,17.0,0.0,179.0,193.0,17.0,179.0,1744418791.0334313,0.0,2025-04-11 20:46:31.033,FORWARD,33
75.0,7788.934742085307,-12666.465361889048,-21660.7626272157,-23847.970229145318,17044.814472772418,6604.851079565416,40111.39006750465,43760.02177715561,0.0,0.0,0.0,193.0,0.0,193.0,0.0,17.0,0.0,179.0,193.0,17.0,179.0,1744418791.0334632,0.0,2025-04-11 20:46:31.033,FORWARD,33
76.0,7793.516849698645,-12635.016457440432,-21679.448685580337,-23811.089850794062,16913.274456652936,6699.108385933446,39927.23404493738,43745.98488163768,0.0,0.0,0.0,193.0,0.0,193.0,0.0,17.0,0.0,179.0,193.0,17.0,179.0,1744418791.0334947,0.0,2025-04-11 20:46:31.033,FORWARD,33
77.0,7811.912335385363,-12613.514079274426,-21661.679048738366,-23786.257062704215,16861.440761261078,6921.865871175036,39659.795422529634,43850.9486735998,0.0,0.0,0.0,193.0,0.0,193.0,0.0,17.0,0.0,179.0,193.0,17.0,179.0,1744418791.0335267,0.0,2025-04-11 20:46:31.033,FORWARD,33
78.0,7812.895812141396,-12635.821120240822,-21614.74038538222,-23795.488333164256,17031.69399877715,6876.156553763933,39813.84364531561,43875.51324075618,0.0,0.0,0.0,193.0,0.0,193.0,0.0,17.0,0.0,179.0,193.0,17.0,179.0,1744418791.0335584,0.0,2025-04-11 20:46:31.033,FORWARD,33
79.0,7801.49642246919,-12658.038754229397,-21637.09212983753,-23837.889592395975,17067.076810249902,6632.12020780089,40100.571823188286,43784.74280652319,0.0,0.0,0.0,193.0,0.0,193.0,0.0,17.0,0.0,179.0,193.0,17.0,179.0,1744418791.03359,0.0,2025-04-11 20:46:31.033,FORWARD,33
80.0,7801.585829447011,-12633.921221962122,-21664.89769993993,-23809.681690893376,16951.562994904878,6640.211539293711,39954.77139410632,43732.95381462024,0.0,0.0,0.0,193.0,0.0,193.0,0.0,17.0,0.0,178.0,193.0,17.0,178.0,1744418791.0336215,0.0,2025-04-11 20:46:31.033,FORWARD,33
81.0,7803.865707381453,-12614.251686841451,-21676.095923912042,-23788.04520226064,16863.184197328592,6906.84549890107,39690.17144324439,43857.34127251402,0.0,0.0,0.0,193.0,0.0,193.0,0.0,17.0,0.0,179.0,193.0,17.0,179.0,1744418791.033657,0.0,2025-04-11 20:46:31.033,FORWARD,33
82.0,7813.767530175153,-12616.017474653421,-21629.89486812292,-23792.627309873977,16984.330652276356,6900.676417431405,39738.31710080113,43894.60163052102,0.0,0.0,0.0,193.0,0.0,192.0,0.0,17.0,0.0,178.0,192.0,17.0,178.0,1744418791.0336888,0.0,2025-04-11 20:46:31.033,FORWARD,33
83.0,7794.008588076662,-12648.74042853599,-21643.32826654056,-23834.022740605207,17074.251720220058,6682.881019458892,40087.94308757104,43832.84376059101,0.0,0.0,0.0,193.0,0.0,193.0,0.0,17.0,0.0,179.0,193.0,17.0,179.0,1744418791.0337205,0.0,2025-04-11 20:46:31.033,FORWARD,33
84.0,7801.272905024637,-12632.110730661241,-21670.776208731677,-23812.90034209494,16969.3549834913,6608.360303444899,39985.840318899194,43728.81874189601,0.0,0.0,0.0,193.0,0.0,193.0,0.0,17.0,0.0,179.0,193.0,17.0,179.0,1744418791.033752,0.0,2025-04-11 20:46:31.033,FORWARD,33
85.0,7819.31076280007,-12604.841602425768,-21674.62070877799,-23784.737144081253,16880.842075448283,6873.2284752402875,39710.399771976445,43825.08770526501,0.0,0.0,0.0,193.0,0.0,193.0,0.0,17.0,0.0,179.0,193.0,17.0,179.0,1744418791.0337968,0.0,2025-04-11 20:46:31.033,FORWARD,33
86.0,7820.07072211155,-12612.910582174132,-21636.354522270503,-23792.359088940513,16984.509466232,6919.5412897516835,39677.833280305065,43888.857232196,0.0,0.0,0.0,193.0,0.0,193.0,0.0,17.0,0.0,179.0,193.0,17.0,179.0,1744418791.0338287,0.0,2025-04-11 20:46:31.033,FORWARD,33
87.0,7797.920143356341,-12647.64519305768,-21639.86374614999,-23835.363845272524,17095.552932685965,6731.339601437999,40056.11420346668,43861.16342081588,0.0,0.0,0.0,193.0,0.0,193.0,0.0,17.0,0.0,179.0,193.0,17.0,179.0,1744418791.0338607,0.0,2025-04-11 20:46:31.033,FORWARD,33
88.0,7799.663579423855,-12641.185538910097,-21674.799522733632,-23823.09273756656,16941.86233781127,6584.756861300095,40018.65267975959,43732.8197041535,0.0,0.0,0.0,193.0,0.0,192.0,0.0,17.0,0.0,179.0,192.0,17.0,179.0,1744418791.0338924,0.0,2025-04-11 20:46:31.033,FORWARD,33
89.0,7808.336056272514,-12616.419806053616,-21680.007479191718,-23785.7653243262,16842.79940638535,6841.712515558304,39754.589170764586,43816.303469694074,0.0,0.0,0.0,193.0,0.0,193.0,0.0,17.0,0.0,179.0,193.0,17.0,179.0,1744418791.033936,0.0,2025-04-11 20:46:31.033,FORWARD,33
90.0,7822.663524468366,-12607.054425126842,-21634.856955392,-23777.003440499717,16937.436692409123,6960.266168149254,39636.25903561819,43899.27314511218,0.0,0.0,0.0,193.0,0.0,193.0,0.0,17.0,0.0,179.0,193.0,17.0,179.0,1744418791.033968,0.0,2025-04-11 20:46:31.033,FORWARD,33
91.0,7801.608181191466,-12649.120408191731,-21626.22918203225,-23821.03637707667,17103.510153712054,6814.912773956392,39990.06479860125,43882.88931642644,0.0,0.0,0.0,193.0,0.0,192.0,0.0,17.0,0.0,178.0,192.0,17.0,178.0,1744418791.0339992,0.0,2025-04-11 20:46:31.033,FORWARD,33
92.0,7800.982332346718,-12642.683105788603,-21657.34281031404,-23825.19380154536,17015.868963702796,6600.447785907721,40033.27072063336,43738.25117805615,0.0,0.0,0.0,193.0,0.0,193.0,0.0,17.0,0.0,179.0,193.0,17.0,179.0,1744418791.034031,0.0,2025-04-11 20:46:31.034,FORWARD,33
93.0,7801.49642246919,-12617.44798629856,-21683.24848213774,-23791.219149973294,16884.597168516775,6816.92443095737,39804.3441539221,43796.611582828955,0.0,0.0,0.0,193.0,0.0,193.0,0.0,17.0,0.0,179.0,193.0,17.0,179.0,1744418791.0340629,0.0,2025-04-11 20:46:31.034,FORWARD,33
94.0,7820.003666878184,-12598.650169211647,-21655.554670757614,-23779.439780645345,16897.5388285564,6965.47412460734,39609.21342482727,43877.99428439073,0.0,0.0,0.0,193.0,0.0,193.0,0.0,17.0,0.0,179.0,193.0,17.0,179.0,1744418791.0340943,0.0,2025-04-11 20:46:31.034,FORWARD,33
95.0,7810.325361529036,-12630.747274249468,-21623.457565719793,-23811.62629266099,17087.640415148784,6839.387934134953,39916.95224248794,43873.03219712165,0.0,0.0,0.0,193.0,0.0,193.0,0.0,17.0,0.0,179.0,193.0,17.0,179.0,1744418791.0341263,0.0,2025-04-11 20:46:31.034,FORWARD,33
96.0,7804.223335292738,-12641.811387754846,-21658.57215625908,-23837.554316229143,17022.306266105923,6581.605265331897,40043.44076436052,43714.826549866986,0.0,0.0,0.0,193.0,0.0,193.0,0.0,17.0,0.0,179.0,193.0,17.0,179.0,1744418791.0341582,0.0,2025-04-11 20:46:31.034,FORWARD,33
97.0,7799.328303257025,-12618.990256665977,-21690.33398513007,-23809.838153104563,16890.408622075156,6747.790485357104,39847.773593398764,43724.884834871875,0.0,0.0,0.0,193.0,0.0,193.0,0.0,17.0,0.0,179.0,193.0,17.0,179.0,1744418791.03419,0.0,2025-04-11 20:46:31.034,FORWARD,33
98.0,7813.789881919609,-12597.823154666801,-21671.446761065337,-23794.393097685945,16876.4834852795,6963.350708884086,39615.6507272304,43825.37827794293,0.0,0.0,0.0,193.0,0.0,193.0,0.0,17.0,0.0,180.0,193.0,17.0,180.0,1744418791.0342216,0.0,2025-04-11 20:46:31.034,FORWARD,33
99.0,7809.990085362207,-12627.349809092262,-21640.08726359454,-23824.411490489423,17045.75324603954,6886.773632380204,39835.86011360408,43835.10128678099,0.0,0.0,0.0,193.0,0.0,193.0,0.0,17.0,0.0,179.0,193.0,17.0,179.0,1744418791.0342531,0.0,2025-04-11 20:46:31.034,FORWARD,33
100.0,7818.260230810671,-12638.8833092312,-21658.48274928126,-23846.874993667006,17019.75816723802,6619.558527417008,40011.947156423,43691.26781121109,0.0,0.0,0.0,193.0,0.0,193.0,0.0,17.0,0.0,178.0,193.0,17.0,178.0,1744418791.0342977,0.0,2025-04-11 20:46:31.034,FORWARD,33
101.0,7808.447814994791,-12627.081588158797,-21666.372915073982,-23803.981996057275,16912.514497341454,6709.725464549717,39784.96519147935,43666.32326439897,0.0,0.0,0.0,193.0,0.0,193.0,0.0,17.0,0.0,179.0,193.0,17.0,179.0,1744418791.511126,0.0,2025-04-11 20:46:31.511,FORWARD,33
102.0,7791.25932350866,-12624.645248013168,-21660.092074882043,-23788.268719705193,16860.23376706049,6956.242854147298,39503.66848750931,43793.14706243838,0.0,0.0,0.0,193.0,0.0,192.0,0.0,17.0,0.0,178.0,192.0,17.0,178.0,1744418791.5113275,0.0,2025-04-11 20:46:31.511,FORWARD,33
103.0,7790.432308963813,-12641.721980777023,-21615.857972604987,-23800.89745532244,17009.923399677682,6907.136071578989,39615.203692341296,43825.22181573175,0.0,0.0,0.0,193.0,0.0,192.0,0.0,17.0,0.0,178.0,192.0,17.0,178.0,1744418791.5113895,0.0,2025-04-11 20:46:31.511,FORWARD,33
104.0,7776.082489023506,-12673.707327092568,-21637.829737404554,-23843.186955831883,17055.118626966312,6646.0006411076365,39893.482910809864,43720.347430747446,0.0,0.0,0.0,193.0,0.0,193.0,0.0,17.0,0.0,179.0,193.0,17.0,179.0,1744418791.5114973,0.0,2025-04-11 20:46:31.511,FORWARD,33
105.0,7778.474125680224,-12653.300184404872,-21668.272813352683,-23812.386251972468,16921.745767801498,6644.324260273488,39745.5814177491,43645.64790077781,0.0,0.0,0.0,193.0,0.0,193.0,0.0,17.0,0.0,179.0,193.0,17.0,179.0,1744418791.5115368,0.0,2025-04-11 20:46:31.511,FORWARD,33
106.0,7778.474125680224,-12639.844434242777,-21681.19212164785,-23792.247330218237,16841.659467418132,6932.974688169324,39478.723940697186,43774.6845215183,0.0,0.0,0.0,193.0,0.0,192.0,0.0,17.0,0.0,179.0,192.0,17.0,179.0,1744418791.5115776,0.0,2025-04-11 20:46:31.511,FORWARD,33
107.0,7778.094146024484,-12657.524664106926,-21639.595525216526,-23806.32892922508,16974.048849826915,6944.642298774994,39498.61699326241,43824.03717327561,0.0,0.0,0.0,193.0,0.0,193.0,0.0,17.0,0.0,179.0,193.0,17.0,179.0,1744418791.5116177,0.0,2025-04-11 20:46:31.511,FORWARD,33
108.0,7760.346860926969,-12691.23109474553,-21650.391417788436,-23853.133482114492,17054.246908932557,6719.80610129906,39836.68712814893,43750.9246171623,0.0,0.0,0.0,193.0,0.0,193.0,0.0,17.0,0.0,179.0,193.0,17.0,179.0,1744418791.511652,0.0,2025-04-11 20:46:31.511,FORWARD,33
109.0,7772.327395955014,-12673.640271859202,-21672.9666796883,-23830.893496381465,16935.603849363786,6608.4944139116305,39735.18785657738,43634.270862850055,0.0,0.0,0.0,193.0,0.0,193.0,0.0,17.0,0.0,178.0,193.0,17.0,178.0,1744418791.511688,0.0,2025-04-11 20:46:31.511,FORWARD,33
110.0,7777.49064892419,-12637.385742352693,-21685.707174027822,-23800.629234388976,16832.294086491358,6874.726042118793,39465.89403937984,43747.03541362708,0.0,0.0,0.0,193.0,0.0,193.0,0.0,17.0,0.0,179.0,193.0,17.0,179.0,1744418791.5117247,0.0,2025-04-11 20:46:31.511,FORWARD,33
111.0,7777.915332068841,-12640.82791099881,-21650.95021139982,-23804.22786524628,16910.480488596022,6959.774429771237,39409.232367185636,43819.85739706247,0.0,0.0,0.0,193.0,0.0,193.0,0.0,17.0,0.0,179.0,193.0,17.0,179.0,1744418791.5117633,0.0,2025-04-11 20:46:31.511,FORWARD,33
112.0,7771.768602343632,-12673.975548026032,-21634.18640305834,-23828.09952832455,17034.443263345154,6767.124744310945,39766.81557498164,43785.56982106803,0.0,0.0,0.0,193.0,0.0,193.0,0.0,17.0,0.0,178.0,193.0,17.0,178.0,1744418791.511803,0.0,2025-04-11 20:46:31.511,FORWARD,33
113.0,7775.814268090042,-12672.656795103168,-21663.802464461623,-23820.119955554004,16945.460968668576,6590.076576480458,39744.48618227079,43644.99970018861,0.0,0.0,0.0,193.0,0.0,193.0,0.0,17.0,0.0,179.0,193.0,17.0,179.0,1744418791.511838,0.0,2025-04-11 20:46:31.511,FORWARD,33
114.0,7774.2496459781705,-12657.703478062569,-21693.418525864905,-23798.595225643545,16859.987897871484,6852.3295941745755,39504.83077822099,43734.04905009855,0.0,0.0,0.0,193.0,0.0,193.0,0.0,17.0,0.0,179.0,193.0,17.0,179.0,1744418791.511875,0.0,2025-04-11 20:46:31.511,FORWARD,33
115.0,7793.449794465279,-12632.781282994902,-21653.18538584535,-23794.057821519116,16909.564067073356,6951.7054500228705,39347.54155248899,43804.81467304405,0.0,0.0,0.0,193.0,0.0,193.0,0.0,17.0,0.0,179.0,193.0,17.0,179.0,1744418791.5119414,0.0,2025-04-11 20:46:31.511,FORWARD,33
116.0,7761.710317338743,-12680.837533573811,-21635.594562959024,-23840.86237440853,17055.69977232215,6816.5220995571735,39717.1723505464,43813.37539117043,0.0,0.0,0.0,193.0,0.0,193.0,0.0,17.0,0.0,179.0,193.0,17.0,179.0,1744418791.5119784,0.0,2025-04-11 20:46:31.511,FORWARD,33
117.0,7764.124305739917,-12682.759783596968,-21662.953098172322,-23840.325932541604,16961.576576420855,6599.1066812404015,39781.701836788874,43678.30379942701,0.0,0.0,0.0,193.0,0.0,193.0,0.0,17.0,0.0,179.0,193.0,17.0,179.0,1744418791.5120134,0.0,2025-04-11 20:46:31.512,FORWARD,33
118.0,7766.91827379683,-12663.090248476297,-21685.52836007218,-23803.959644312818,16859.607918215745,6814.018704178179,39555.613941623444,43735.18898906577,0.0,0.0,0.0,193.0,0.0,193.0,0.0,17.0,0.0,179.0,193.0,17.0,179.0,1744418791.51205,0.0,2025-04-11 20:46:31.512,FORWARD,33
119.0,7789.225314763226,-12634.59177429578,-21654.392380045938,-23782.65843184691,16883.211360360547,6979.131040469532,39341.6853954417,43823.29956570859,0.0,0.0,0.0,193.0,0.0,193.0,0.0,17.0,0.0,179.0,193.0,17.0,179.0,1744418791.5121355,0.0,2025-04-11 20:46:31.512,FORWARD,33
120.0,7780.955169314763,-12651.780265781912,-21618.22725751725,-23804.18316175737,17079.19145574468,6865.40536468093,39632.36983208297,43834.38603095842,0.0,0.0,0.0,193.0,0.0,193.0,0.0,17.0,0.0,179.0,193.0,17.0,179.0,1744418791.5121734,0.0,2025-04-11 20:46:31.512,FORWARD,33
121.0,7775.926026812319,-12659.357507152261,-21643.75294968521,-23825.931409112385,17032.923344722192,6613.590611647441,39786.39570312449,43698.107445014415,0.0,0.0,0.0,193.0,0.0,193.0,0.0,17.0,0.0,179.0,193.0,17.0,179.0,1744418791.5122168,0.0,2025-04-11 20:46:31.512,FORWARD,33
122.0,7782.1174600264385,-12645.320611634328,-21665.411790062404,-23784.625385358977,16905.428994349124,6763.704927409283,39590.61677344046,43710.98204982067,0.0,0.0,0.0,193.0,0.0,193.0,0.0,17.0,0.0,179.0,193.0,17.0,179.0,1744418791.512253,0.0,2025-04-11 20:46:31.512,FORWARD,33
123.0,7797.093128811494,-12631.440178327583,-21651.039618377643,-23764.55351883811,16866.20168283006,6985.724805083848,39343.227665809114,43821.91375755236,0.0,0.0,0.0,193.0,0.0,193.0,0.0,17.0,0.0,178.0,193.0,17.0,178.0,1744418791.512288,0.0,2025-04-11 20:46:31.512,FORWARD,33
124.0,7782.430384448813,-12663.850207787778,-21624.910429109386,-23801.836228589564,17024.89906846274,6916.166176338933,39557.20091547977,43850.97102534426,0.0,0.0,0.0,193.0,0.0,193.0,0.0,17.0,0.0,179.0,193.0,17.0,179.0,1744418791.5123248,0.0,2025-04-11 20:46:31.512,FORWARD,33
125.0,7771.67919536581,-12682.022176029943,-21653.744179456735,-23838.180165073893,17000.93799840665,6652.12501908839,39800.47730213133,43730.830398896986,0.0,0.0,0.0,193.0,0.0,193.0,0.0,17.0,0.0,178.0,193.0,17.0,178.0,1744418791.5123668,0.0,2025-04-11 20:46:31.512,FORWARD,33
126.0,7777.513000668646,-12662.017364742442,-21682.130894914975,-23810.285187993668,16889.42514531912,6699.600124311462,39627.54185528062,43686.573944875476,0.0,0.0,0.0,193.0,0.0,193.0,0.0,17.0,0.0,179.0,193.0,17.0,179.0,1744418791.5124116,0.0,2025-04-11 20:46:31.512,FORWARD,33
127.0,7784.844372849986,-12648.271041902428,-21688.188217662362,-23795.018946530694,16830.215374257015,6960.199112915888,39358.15863110526,43802.44538813179,0.0,0.0,0.0,193.0,0.0,193.0,0.0,17.0,0.0,179.0,193.0,17.0,179.0,1744418791.5124717,0.0,2025-04-11 20:46:31.512,FORWARD,33
128.0,7777.468297179735,-12660.45274263057,-21641.09309209503,-23798.885798321462,16979.234454540547,6936.170987626432,39451.18659152825,43830.11684776746,0.0,0.0,0.0,193.0,0.0,193.0,0.0,17.0,0.0,179.0,193.0,17.0,179.0,1744418791.5125363,0.0,2025-04-11 20:46:31.512,FORWARD,33
129.0,7750.288575922082,-12692.974530813042,-21659.13094987046,-23844.70687445484,17027.536574308466,6684.08801365948,39771.934124461906,43743.056803114036,0.0,0.0,0.0,193.0,0.0,193.0,0.0,17.0,0.0,179.0,193.0,17.0,179.0,1744418791.5126,0.0,2025-04-11 20:46:31.512,FORWARD,33
130.0,7750.489741622179,-12682.089231263308,-21688.14351417345,-23827.540734713166,16902.925598970127,6655.2766150565885,39667.88675402245,43676.917991270784,0.0,0.0,0.0,193.0,0.0,193.0,0.0,17.0,0.0,179.0,193.0,17.0,179.0,1744418791.5127373,0.0,2025-04-11 20:46:31.512,FORWARD,33
131.0,7779.703471625266,-12637.54220456388,-21680.230996636274,-23788.536940638656,16821.98993229746,6921.910574663946,39383.237288384116,43787.022684457625,0.0,0.0,0.0,193.0,0.0,193.0,0.0,17.0,0.0,178.0,193.0,17.0,178.0,1744418791.5127764,0.0,2025-04-11 20:46:31.512,FORWARD,33
132.0,7791.460489208757,-12635.374085351717,-21628.598466944513,-23785.407696414914,16958.201463008103,6959.66267104896,39388.065265186466,43831.346193712496,0.0,0.0,0.0,193.0,0.0,193.0,0.0,17.0,0.0,179.0,193.0,17.0,179.0,1744418791.512812,0.0,2025-04-11 20:46:31.512,FORWARD,33
133.0,7768.639358119889,-12682.245693474495,-21633.71701642478,-23831.117013826017,17067.65795560574,6756.395906972398,39759.21598186684,43779.73601576519,0.0,0.0,0.0,193.0,0.0,193.0,0.0,17.0,0.0,178.0,193.0,17.0,178.0,1744418791.5128489,0.0,2025-04-11 20:46:31.512,FORWARD,33
134.0,7772.1932854882825,-12672.880312547722,-21669.032772664163,-23817.75067064174,16925.187936447615,6644.793646907049,39701.92846082788,43668.87136326687,0.0,0.0,0.0,193.0,0.0,192.0,0.0,17.0,0.0,178.0,192.0,17.0,178.0,1744418791.5129125,0.0,2025-04-11 20:46:31.512,FORWARD,33
135.0,7779.547009414078,-12644.605355811758,-21687.9199967289,-23792.537902896154,16805.784917567362,6899.469423230818,39440.502457678616,43768.87306795992,0.0,0.0,0.0,193.0,0.0,193.0,0.0,17.0,0.0,179.0,193.0,17.0,179.0,1744418791.512951,0.0,2025-04-11 20:46:31.512,FORWARD,33
136.0,7799.328303257025,-12635.239974884984,-21638.0085513602,-23782.79254231364,16904.467869337543,6954.074734935133,39352.347177546886,43825.02065003165,0.0,0.0,0.0,193.0,0.0,193.0,0.0,17.0,0.0,178.0,193.0,17.0,178.0,1744418791.5129893,0.0,2025-04-11 20:46:31.512,FORWARD,33
137.0,7775.456640178757,-12679.719946351046,-21633.42644374686,-23825.774946901198,17064.081676492893,6780.044052606113,39726.269510539714,43796.63393457341,0.0,0.0,0.0,193.0,0.0,193.0,0.0,17.0,0.0,179.0,193.0,17.0,179.0,1744418791.5130289,0.0,2025-04-11 20:46:31.513,FORWARD,33
138.0,7777.177724501816,-12669.46049564606,-21659.354467315017,-23823.51742071121,16986.185847066146,6589.271913680067,39727.63296695149,43661.29412189652,0.0,0.0,0.0,193.0,0.0,193.0,0.0,17.0,0.0,179.0,193.0,17.0,179.0,1744418791.5130756,0.0,2025-04-11 20:46:31.513,FORWARD,33
139.0,7773.735555855698,-12651.355582637261,-21681.683860025867,-23791.08503950656,16866.604014230255,6849.9826610067685,39500.24867060765,43737.31240478902,0.0,0.0,0.0,193.0,0.0,193.0,0.0,17.0,0.0,178.0,193.0,17.0,178.0,1744418791.5131295,0.0,2025-04-11 20:46:31.513,FORWARD,33
140.0,7778.719994869232,-12650.819140770334,-21662.03667664965,-23793.90135930793,16872.370764299725,6996.364235444575,39357.018692138045,43825.132408753925,0.0,0.0,0.0,193.0,0.0,193.0,0.0,17.0,0.0,179.0,193.0,17.0,179.0,1744418791.5131843,0.0,2025-04-11 20:46:31.513,FORWARD,33
141.0,7764.191360973283,-12686.023138287443,-21639.260249049694,-23834.760348172233,17035.583202312377,6854.654175597928,39691.400789189436,43818.80686507307,0.0,0.0,0.0,193.0,0.0,193.0,0.0,17.0,0.0,179.0,193.0,17.0,179.0,1744418791.513222,0.0,2025-04-11 20:46:31.513,FORWARD,33
142.0,7765.755983085154,-12680.189332984608,-21659.242708592737,-23837.15198482895,16979.234454540547,6608.270896467077,39759.46185105584,43668.84901152242,0.0,0.0,0.0,193.0,0.0,193.0,0.0,17.0,0.0,178.0,193.0,17.0,178.0,1744418791.513275,0.0,2025-04-11 20:46:31.513,FORWARD,33
143.0,7759.922177782319,-12657.435257129104,-21690.222226407794,-23800.629234388976,16862.7818659284,6798.886573181936,39540.14653446037,43716.07824755648,0.0,0.0,0.0,193.0,0.0,193.0,0.0,17.0,0.0,179.0,193.0,17.0,179.0,1744418791.513334,0.0,2025-04-11 20:46:31.513,FORWARD,33
144.0,7774.0708320225285,-12651.55674833736,-21670.776208731677,-23793.409620929913,16856.366915269722,6971.643206077005,39323.71459289963,43812.749542325684,0.0,0.0,0.0,193.0,0.0,193.0,0.0,17.0,0.0,179.0,193.0,17.0,179.0,1744418791.5133927,0.0,2025-04-11 20:46:31.513,FORWARD,33
145.0,7773.3108727110475,-12677.283606205418,-21632.71118792429,-23815.76136538522,17035.516147079008,6863.527818146685,39581.58666868051,43810.40260915788,0.0,0.0,0.0,193.0,0.0,193.0,0.0,17.0,0.0,179.0,193.0,17.0,179.0,1744418791.513646,0.0,2025-04-11 20:46:31.513,FORWARD,33
146.0,7762.224407461215,-12695.902609336688,-21670.44093256485,-23847.99258088977,16996.35589079331,6601.967704530681,39761.56291503464,43677.052101737514,0.0,0.0,0.0,193.0,0.0,192.0,0.0,17.0,0.0,178.0,192.0,17.0,178.0,1744418791.5137305,0.0,2025-04-11 20:46:31.513,FORWARD,33
147.0,7762.716145839232,-12680.949292296087,-21700.548732346146,-23815.71666189631,16850.063723333325,6713.771130296127,39570.388444708406,43677.11915697088,0.0,0.0,0.0,193.0,0.0,193.0,0.0,17.0,0.0,179.0,193.0,17.0,179.0,1744418791.513785,0.0,2025-04-11 20:46:31.513,FORWARD,33
148.0,7774.562570400545,-12658.55284435187,-21682.086191426064,-23792.247330218237,16819.66535087411,6947.615080787549,39316.02559280701,43791.56008858205,0.0,0.0,0.0,193.0,0.0,193.0,0.0,17.0,0.0,179.0,193.0,17.0,179.0,1744418791.513838,0.0,2025-04-11 20:46:31.513,FORWARD,33
149.0,7749.640375332878,-12694.360338969273,-21647.731560198255,-23824.053862578137,16976.820466139372,6911.807586170147,39510.888100968376,43825.53474015412,0.0,0.0,0.0,193.0,0.0,193.0,0.0,17.0,0.0,178.0,193.0,17.0,178.0,1744418791.5139837,0.0,2025-04-11 20:46:31.513,FORWARD,33
150.0,7739.045648461062,-12709.80539438789,-21672.005554676718,-23857.380313561003,16962.582404921344,6645.643013196352,39752.44340329688,43693.43593042326,0.0,0.0,0.0,193.0,0.0,193.0,0.0,17.0,0.0,179.0,193.0,17.0,179.0,1744418791.5140417,0.0,2025-04-11 20:46:31.514,FORWARD,33
151.0,7740.878491506397,-12688.280664477428,-21691.697441541844,-23823.80799338913,16870.783790443398,6678.365967078921,39582.816014625554,43630.11343838137,0.0,0.0,0.0,193.0,0.0,193.0,0.0,17.0,0.0,179.0,193.0,17.0,179.0,1744418791.5140905,0.0,2025-04-11 20:46:31.514,FORWARD,33
152.0,7759.877474293408,-12657.010573984453,-21682.019136192695,-23789.43101041687,16826.52733642189,6940.0825429061115,39311.59994740486,43741.715698446715,0.0,0.0,0.0,193.0,0.0,192.0,0.0,17.0,0.0,179.0,192.0,17.0,179.0,1744418791.5141337,0.0,2025-04-11 20:46:31.514,FORWARD,33
153.0,7771.835657576998,-12667.784114811911,-21633.89583038042,-23795.17540874188,16985.850570899318,6922.51407176424,39390.501605332094,43760.82643995601,0.0,0.0,0.0,193.0,0.0,193.0,0.0,17.0,0.0,179.0,193.0,17.0,179.0,1744418791.514177,0.0,2025-04-11 20:46:31.514,FORWARD,33
154.0,7740.72202929521,-12715.594496201813,-21663.66835399489,-23853.982848403793,17030.75522551003,6690.949999207259,39739.30057755716,43682.55063087352,0.0,0.0,0.0,193.0,0.0,193.0,0.0,17.0,0.0,179.0,193.0,17.0,179.0,1744418791.5142295,0.0,2025-04-11 20:46:31.514,FORWARD,33
155.0,7746.734648553687,-12692.214571501563,-21692.792677020156,-23829.977074858794,16865.19585432957,6630.555585689019,39616.67890747535,43578.50326043407,0.0,0.0,0.0,193.0,0.0,193.0,0.0,17.0,0.0,179.0,193.0,17.0,179.0,1744418791.5142741,0.0,2025-04-11 20:46:31.514,FORWARD,33
156.0,7760.77154407162,-12658.351678651772,-21690.177522918882,-23800.070440777596,16783.880208001163,6907.203126812355,39341.19365706368,43671.68768306824,0.0,0.0,0.0,193.0,0.0,193.0,0.0,17.0,0.0,179.0,193.0,17.0,179.0,1744418791.5143168,0.0,2025-04-11 20:46:31.514,FORWARD,33
157.0,7770.561608143045,-12672.120353236241,-21643.037693862643,-23805.390155957957,16925.478509125533,6942.541234796195,39333.21408429314,43714.15599753332,0.0,0.0,0.0,193.0,0.0,193.0,0.0,17.0,0.0,179.0,193.0,17.0,179.0,1744418791.5143633,0.0,2025-04-11 20:46:31.514,FORWARD,33
158.0,7755.340070168981,-12707.212592031074,-21639.66258044989,-23840.884726152985,17039.360647125322,6749.802142358082,39695.82643459159,43651.79463050302,0.0,0.0,0.0,193.0,0.0,193.0,0.0,17.0,0.0,179.0,193.0,17.0,179.0,1744418791.5144095,0.0,2025-04-11 20:46:31.514,FORWARD,33
159.0,7748.746305554665,-12697.46723144856,-21677.504083812724,-23831.787566159674,16905.29488388239,6628.052190310024,39650.65355904741,43527.36246912032,0.0,0.0,0.0,193.0,0.0,193.0,0.0,17.0,0.0,179.0,193.0,17.0,179.0,1744418791.5144603,0.0,2025-04-11 20:46:31.514,FORWARD,33
160.0,7753.10489572345,-12674.422582915138,-21693.30676714263,-23796.404754686922,16771.94437646203,6891.847478371558,39396.40246586829,43630.62752850384,0.0,0.0,0.0,193.0,0.0,193.0,0.0,17.0,0.0,179.0,193.0,17.0,179.0,1744418791.51461,0.0,2025-04-11 20:46:31.514,FORWARD,33
161.0,7766.873570307919,-12669.169922968142,-21651.5090050112,-23791.442667417847,16853.3270780238,6979.309854425175,39283.86143253582,43702.644849138844,0.0,0.0,0.0,193.0,0.0,193.0,0.0,17.0,0.0,179.0,193.0,17.0,179.0,1744418791.5146532,0.0,2025-04-11 20:46:31.514,FORWARD,33
162.0,7743.605404329945,-12707.436109475626,-21645.697551452824,-23835.922638883905,17028.60945804232,6796.182012102844,39642.07048917657,43686.775110575574,0.0,0.0,0.0,193.0,0.0,192.0,0.0,17.0,0.0,179.0,192.0,17.0,179.0,1744418791.5146935,0.0,2025-04-11 20:46:31.514,FORWARD,33
163.0,7743.225424674204,-12705.26799026346,-21677.302918112626,-23835.877935394998,16933.815709807364,6579.392442630821,39652.64286430393,43537.71132680313,0.0,0.0,0.0,193.0,0.0,193.0,0.0,17.0,0.0,180.0,193.0,17.0,180.0,1744418791.514735,0.0,2025-04-11 20:46:31.514,FORWARD,33
164.0,7735.111741436928,-12699.9482750831,-21705.846095782053,-23809.502876937735,16810.389376925155,6824.63578279445,39425.19151272673,43624.59255750091,0.0,0.0,0.0,193.0,0.0,193.0,0.0,17.0,0.0,179.0,193.0,17.0,179.0,1744418791.5148203,0.0,2025-04-11 20:46:31.514,FORWARD,33
165.0,7743.203072929749,-12691.745184868001,-21678.979298946775,-23803.13262976797,16831.198851013047,6961.808438516669,39250.758498997515,43725.6224424389,0.0,0.0,0.0,193.0,0.0,193.0,0.0,17.0,0.0,179.0,193.0,17.0,179.0,1744418791.5148616,0.0,2025-04-11 20:46:31.514,FORWARD,33
166.0,7723.8911657203635,-12729.743150442024,-21661.209662104808,-23843.52223199871,16989.80682966791,6829.195538663333,39585.98996233821,43744.55436999254,0.0,0.0,0.0,193.0,0.0,193.0,0.0,17.0,0.0,179.0,193.0,17.0,179.0,1744418791.514899,0.0,2025-04-11 20:46:31.514,FORWARD,33
167.0,7727.333334366481,-12730.123130097763,-21680.275700125185,-23848.39491228997,16923.668017824653,6562.472172078154,39678.77205357219,43594.350647252875,0.0,0.0,0.0,193.0,0.0,193.0,0.0,17.0,0.0,179.0,193.0,17.0,179.0,1744418791.5149376,0.0,2025-04-11 20:46:31.514,FORWARD,33
168.0,7729.1661774118165,-12713.381673500739,-21707.29895917165,-23814.04028106216,16812.98217928197,6734.1112177504565,39456.59571368644,43624.03376388953,0.0,0.0,0.0,193.0,0.0,193.0,0.0,17.0,0.0,179.0,193.0,17.0,179.0,1744418791.514976,0.0,2025-04-11 20:46:31.514,FORWARD,33
169.0,7735.335258881481,-12700.685882650123,-21685.975394961286,-23797.43293493187,16804.62262685569,6925.933888665902,39220.538940493934,43722.493198215154,0.0,0.0,0.0,193.0,0.0,193.0,0.0,17.0,0.0,179.0,193.0,17.0,179.0,1744418791.5150144,0.0,2025-04-11 20:46:31.515,FORWARD,33
170.0,7709.42958705778,-12742.863624437288,-21656.91812716939,-23830.021778347706,16964.661117155687,6851.726097074283,39480.28856280906,43740.66516645732,0.0,0.0,0.0,193.0,0.0,193.0,0.0,17.0,0.0,179.0,193.0,17.0,179.0,1744418791.5150695,0.0,2025-04-11 20:46:31.515,FORWARD,33
171.0,7690.452956015224,-12772.680851540668,-21685.215435649807,-23862.945897930374,16939.716570343564,6578.8560007638935,39679.24144020575,43609.99686837159,0.0,0.0,0.0,193.0,0.0,193.0,0.0,17.0,0.0,179.0,193.0,17.0,179.0,1744418791.51511,0.0,2025-04-11 20:46:31.515,FORWARD,33
172.0,7681.579313466467,-12766.154142159718,-21702.627444580492,-23822.064557321617,16817.98897003996,6675.214371110723,39485.921202411795,43570.21076324115,0.0,0.0,0.0,193.0,0.0,193.0,0.0,17.0,0.0,178.0,193.0,17.0,178.0,1744418791.515154,0.0,2025-04-11 20:46:31.515,FORWARD,33
173.0,7676.885447130853,-12754.866511209788,-21690.848075252543,-23792.47084766279,16749.145597117615,6945.4246098309295,39227.28916731944,43669.720729556175,0.0,0.0,0.0,193.0,0.0,193.0,0.0,17.0,0.0,179.0,193.0,17.0,179.0,1744418791.5151987,0.0,2025-04-11 20:46:31.515,FORWARD,33
174.0,7653.483170686147,-12793.110345972818,-21653.095978867528,-23813.727356639785,16924.919715514152,6906.823147156614,39400.67164905926,43697.4145409363,0.0,0.0,0.0,193.0,0.0,193.0,0.0,17.0,0.0,179.0,193.0,17.0,179.0,1744418791.515246,0.0,2025-04-11 20:46:31.515,FORWARD,33
175.0,7618.7485598026,-12838.640849428279,-21685.081325183073,-23866.611584021044,17002.100289118327,6650.783914421072,39700.900280582944,43591.131996051314,0.0,0.0,0.0,193.0,0.0,192.0,0.0,17.0,0.0,179.0,192.0,17.0,179.0,1744418791.515374,0.0,2025-04-11 20:46:31.515,FORWARD,33
176.0,7608.22088816415,-12840.674858173712,-21712.618674352012,-23839.029531363194,16877.10933412425,6664.239664583167,39548.081403742006,43512.006820679526,0.0,0.0,0.0,193.0,0.0,193.0,0.0,17.0,0.0,179.0,193.0,17.0,179.0,1744418791.5154245,0.0,2025-04-11 20:46:31.515,FORWARD,33
177.0,7613.093568455407,-12817.987837551575,-21698.782944534178,-23799.221074488294,16793.759679050407,6932.907632935958,39276.35124639884,43622.62560398884,0.0,0.0,0.0,193.0,0.0,192.0,0.0,18.0,0.0,178.0,192.0,18.0,178.0,1744418791.515466,0.0,2025-04-11 20:46:31.515,FORWARD,33
178.0,7613.540603344513,-12821.452357942148,-21654.61589749049,-23808.050013548138,16924.807956791872,6931.320659079631,39343.42883150921,43667.44085162173,0.0,0.0,0.0,193.0,0.0,193.0,0.0,17.0,0.0,179.0,193.0,17.0,179.0,1744418791.515511,0.0,2025-04-11 20:46:31.515,FORWARD,33
179.0,7587.210248376161,-12856.58930022589,-21676.14062740095,-23857.06738913863,16970.249053269512,6707.624400570918,39694.4182746909,43600.072693833434,0.0,0.0,0.0,193.0,0.0,193.0,0.0,17.0,0.0,179.0,193.0,17.0,179.0,1744418791.5156,0.0,2025-04-11 20:46:31.515,FORWARD,33
180.0,7589.043091421497,-12850.219053056127,-21712.7751365632,-23834.04509234966,16822.928705564584,6635.987059591658,39600.38448576743,43503.64726825324,0.0,0.0,0.0,193.0,0.0,192.0,0.0,17.0,0.0,179.0,192.0,17.0,179.0,1744418791.5156384,0.0,2025-04-11 20:46:31.515,FORWARD,33
181.0,7597.782623503522,-12831.331828991393,-21719.368901177517,-23814.800240373643,16758.80155072231,6899.625885442006,39331.62711043681,43609.81805441595,0.0,0.0,0.0,193.0,0.0,193.0,0.0,17.0,0.0,180.0,193.0,17.0,180.0,1744418791.515682,0.0,2025-04-11 20:46:31.515,FORWARD,33
182.0,7606.656266052279,-12824.961581821632,-21665.076513895576,-23815.828420618585,16898.276436123426,6944.619947030538,39284.71079882512,43656.77906951655,0.0,0.0,0.0,193.0,0.0,193.0,0.0,17.0,0.0,178.0,193.0,17.0,178.0,1744418791.5157225,0.0,2025-04-11 20:46:31.515,FORWARD,33
183.0,7581.555257028968,-12864.59122474089,-21664.361258073004,-23857.402665305457,17010.772765966984,6742.247252732188,39651.36881486998,43615.473045763145,0.0,0.0,0.0,193.0,0.0,193.0,0.0,17.0,0.0,178.0,193.0,17.0,178.0,1744418791.5157623,0.0,2025-04-11 20:46:31.515,FORWARD,33
184.0,7573.888608680798,-12867.429896286714,-21699.073517212095,-23847.545546000667,16892.91201745415,6589.987169502637,39615.06958187456,43489.45391052412,0.0,0.0,0.0,193.0,0.0,193.0,0.0,17.0,0.0,179.0,193.0,17.0,179.0,1744418791.5157955,0.0,2025-04-11 20:46:31.515,FORWARD,33
185.0,7574.603864503368,-12844.698172175667,-21707.47777312729,-23807.71473738131,16785.89186500214,6857.537550632662,39358.829183438924,43579.53144067901,0.0,0.0,0.0,193.0,0.0,192.0,0.0,17.0,0.0,178.0,192.0,17.0,178.0,1744418791.5158317,0.0,2025-04-11 20:46:31.515,FORWARD,33
186.0,7589.959512944164,-12832.404712725249,-21666.372915073982,-23799.176370999383,16834.75277838144,6966.099973452088,39243.04714716043,43663.082261452946,0.0,0.0,0.0,193.0,0.0,193.0,0.0,17.0,0.0,179.0,193.0,17.0,179.0,1744418791.5158653,0.0,2025-04-11 20:46:31.515,FORWARD,33
187.0,7570.178219101217,-12874.984785912608,-21663.690705739344,-23853.669923981422,16971.478399214557,6796.338474314031,39614.57784349655,43666.993816732625,0.0,0.0,0.0,193.0,0.0,193.0,0.0,17.0,0.0,179.0,193.0,17.0,179.0,1744418791.5159016,0.0,2025-04-11 20:46:31.515,FORWARD,33
188.0,7584.036300663508,-12864.233596829605,-21685.506008327724,-23851.702970469352,16887.99463367398,6539.159302611269,39643.366890354984,43515.69485851465,0.0,0.0,0.0,193.0,0.0,192.0,0.0,17.0,0.0,178.0,192.0,17.0,178.0,1744418791.5159373,0.0,2025-04-11 20:46:31.515,FORWARD,33
189.0,7579.789469216999,-12852.118951334829,-21715.278531942193,-23822.645702677455,16767.36226884869,6758.787543629115,39416.56373936698,43577.1845075112,0.0,0.0,0.0,193.0,0.0,193.0,0.0,17.0,0.0,179.0,193.0,17.0,179.0,1744418791.5159771,0.0,2025-04-11 20:46:31.515,FORWARD,33
190.0,7591.747652500589,-12835.221032526617,-21682.39911584844,-23806.775964114186,16783.813152767798,6923.721065964826,39225.70219346311,43667.66436906628,0.0,0.0,0.0,193.0,0.0,193.0,0.0,17.0,0.0,179.0,193.0,17.0,179.0,1744418791.5160708,0.0,2025-04-11 20:46:31.516,FORWARD,33
191.0,7578.202495360672,-12866.915806164243,-21653.095978867528,-23835.743824928264,16970.360811991788,6827.720323529283,39538.17958094831,43678.19204070474,0.0,0.0,0.0,193.0,0.0,193.0,0.0,17.0,0.0,178.0,193.0,17.0,178.0,1744418791.5161123,0.0,2025-04-11 20:46:31.516,FORWARD,33
192.0,7571.899303424276,-12880.662129004257,-21690.95983397482,-23858.85552869505,16928.183070204625,6601.967704530681,39677.38624541596,43554.94452177817,0.0,0.0,0.0,193.0,0.0,193.0,0.0,17.0,0.0,179.0,193.0,17.0,179.0,1744418791.516156,0.0,2025-04-11 20:46:31.516,FORWARD,33
193.0,7594.02753043503,-12843.088846574885,-21706.024909737698,-23811.961568827817,16808.064795501807,6754.38424997142,39460.0155305881,43574.77051911003,0.0,0.0,0.0,193.0,0.0,193.0,0.0,17.0,0.0,179.0,193.0,17.0,179.0,1744418791.5161924,0.0,2025-04-11 20:46:31.516,FORWARD,33
194.0,7612.043036466007,-12819.35129396335,-21689.506970585226,-23793.588434885554,16783.902559745617,6957.114572181055,39226.506856263506,43690.15022398833,0.0,0.0,0.0,193.0,0.0,193.0,0.0,17.0,0.0,179.0,193.0,17.0,179.0,1744418791.5162463,0.0,2025-04-11 20:46:31.516,FORWARD,33
195.0,7598.252010137083,-12856.298727547972,-21656.24757483573,-23823.450365477845,16951.004201293494,6859.280986700176,39462.653036433825,43727.49998897314,0.0,0.0,0.0,193.0,0.0,193.0,0.0,17.0,0.0,179.0,193.0,17.0,179.0,1744418791.5162804,0.0,2025-04-11 20:46:31.516,FORWARD,33
196.0,7592.015873434052,-12871.475562033125,-21681.214473392305,-23855.167490859927,16932.318142928856,6599.1066812404015,39686.841033320554,43623.74319121161,0.0,0.0,0.0,193.0,0.0,193.0,0.0,17.0,0.0,179.0,193.0,17.0,179.0,1744418791.516316,0.0,2025-04-11 20:46:31.516,FORWARD,33
197.0,7590.630065277823,-12846.754532665556,-21706.82957253809,-23827.943066113363,16820.157089252127,6693.296932375066,39515.067877181515,43605.81709215845,0.0,0.0,0.0,193.0,0.0,193.0,0.0,17.0,0.0,179.0,193.0,17.0,179.0,1744418791.516354,0.0,2025-04-11 20:46:31.516,FORWARD,33
198.0,7611.148966687795,-12812.15403224874,-21695.34077588806,-23802.976167556786,16760.723800745465,6942.18360688491,39242.62246401578,43717.59816617944,0.0,0.0,0.0,193.0,0.0,193.0,0.0,17.0,0.0,179.0,193.0,17.0,179.0,1744418791.5163908,0.0,2025-04-11 20:46:31.516,FORWARD,33
199.0,7619.910850514276,-12825.609782410835,-21653.967696901287,-23815.359033985023,16909.117032184247,6902.129280821,39382.186756394716,43760.15588762234,0.0,0.0,0.0,193.0,0.0,193.0,0.0,17.0,0.0,179.0,193.0,17.0,179.0,1744418791.5164256,0.0,2025-04-11 20:46:31.516,FORWARD,33
200.0,7594.653379279778,-12859.249157816072,-21683.404944348928,-23865.516348542733,16946.802073335897,6655.589539478963,39700.63205964948,43687.93740128725,0.0,0.0,0.0,193.0,0.0,193.0,0.0,18.0,0.0,178.0,193.0,18.0,178.0,1744418791.516462,0.0,2025-04-11 20:46:31.516,FORWARD,33
