Sample Index,EXG Channel 0,EXG Channel 1,EXG Channel 2,EXG Channel 3,EXG Channel 4,EXG Channel 5,EXG Channel 6,EXG Channel 7,Accel Channel 0,Accel Channel 1,Accel Channel 2,Not Used,Digital Channel 0 (D11),Digital Channel 1 (D12),Digital Channel 2 (D13),Digital Channel 3 (D17),Not Used,Digital Channel 4 (D18),Analog Channel 0,Analog Channel 1,Analog Channel 2,Timestamp,Marker Channel,Timestamp (Formatted),Stimulus_Direction,Stimulus_Number
30.0,14383.883998857022,2295.770024749044,-62633.16424288324,-60161.19541659301,-35855.37205402518,-33366.92999207139,-21041.93223022607,-22065.239794878937,0.0,0.0,0.0,193.0,1.0,154.0,0.0,10.0,3.0,251.0,410.0,10.0,1019.0,1744252717.6617062,0.0,2025-04-09 22:38:37.661,FORWARD,18
31.0,14410.683740458935,2263.3599952888485,-62643.58015579941,-60121.342256229196,-35916.638185577176,-33427.860847456555,-20873.914167155526,-22115.732385603475,0.0,0.0,0.0,193.0,1.0,154.0,0.0,9.0,3.0,251.0,410.0,9.0,1019.0,1744252717.6617196,0.0,2025-04-09 22:38:37.661,FORWARD,18
32.0,14510.819555618711,2291.0538066689737,-62640.40620808676,-60165.464599783976,-35895.15815915563,-33398.66946919793,-21053.912765254114,-22107.79751632184,0.0,0.0,0.0,193.0,1.0,154.0,0.0,8.0,3.0,250.0,410.0,8.0,1018.0,1744252717.6617281,0.0,2025-04-09 22:38:37.661,FORWARD,18
33.0,14466.741915552846,2309.0022574665854,-62585.10799230433,-60101.695072852985,-35827.81235311179,-33338.83384929107,-21192.76180181048,-22051.404065061102,0.0,0.0,0.0,193.0,1.0,155.0,0.0,8.0,3.0,251.0,411.0,8.0,1019.0,1744252717.6617367,0.0,2025-04-09 22:38:37.661,FORWARD,18
34.0,14399.843144398112,2308.734036533122,-62619.30616132095,-60143.96222161797,-35850.74524292293,-33353.65305586494,-21013.411404301096,-22050.621754005166,0.0,0.0,0.0,193.0,1.0,155.0,0.0,7.0,3.0,252.0,411.0,7.0,1020.0,1744252717.6617455,0.0,2025-04-09 22:38:37.661,FORWARD,18
35.0,14391.70710941638,2271.4513267816696,-62631.577269026915,-60125.76790163135,-35903.070676692805,-33407.252539068766,-20961.555357164783,-22092.732440558964,0.0,0.0,0.0,193.0,1.0,154.0,0.0,7.0,3.0,250.0,410.0,7.0,1018.0,1744252717.6617544,0.0,2025-04-09 22:38:37.661,FORWARD,18
36.0,14501.118898525108,2285.9129054442533,-62644.47422557762,-60155.56277699027,-35912.39135413067,-33416.17088510643,-20924.406757880064,-22105.249417453935,0.0,0.0,0.0,193.0,1.0,155.0,0.0,6.0,3.0,252.0,411.0,6.0,1020.0,1744252717.6617627,0.0,2025-04-09 22:38:37.661,FORWARD,18
37.0,14466.67486031948,2298.385178850315,-62592.75228890804,-60125.92436384253,-35834.96491133748,-33341.29254118115,-21260.174663087688,-22040.585820744735,0.0,0.0,0.0,193.0,1.0,155.0,0.0,6.0,3.0,251.0,411.0,6.0,1019.0,1744252717.6617715,0.0,2025-04-09 22:38:37.661,FORWARD,18
38.0,14404.42525201145,2304.308391130971,-62626.21285035764,-60148.20905306448,-35858.277780804376,-33368.27109673871,-20987.86336038868,-22070.60421354821,0.0,0.0,0.0,193.0,1.0,155.0,0.0,6.0,3.0,251.0,411.0,6.0,1019.0,1744252717.66178,0.0,2025-04-09 22:38:37.661,FORWARD,18
39.0,14371.188208006408,2265.505762756558,-62641.009705187054,-60153.41700952256,-35902.26601389242,-33411.96875714883,-21039.87586973618,-22115.866496070208,0.0,0.0,0.0,193.0,1.0,155.0,0.0,5.0,3.0,252.0,411.0,5.0,1020.0,1744252717.6617892,0.0,2025-04-09 22:38:37.661,FORWARD,18
40.0,14501.051843291742,2290.2938473574936,-62637.56753654093,-60134.23921277991,-35922.6284530912,-33426.45268755587,-20844.052236563235,-22130.52924043289,0.0,0.0,0.0,193.0,1.0,154.0,0.0,5.0,3.0,249.0,410.0,5.0,1017.0,1744252717.6617978,0.0,2025-04-09 22:38:37.661,FORWARD,18
41.0,14494.659244377524,2315.1042837028845,-62575.76496312201,-60121.968105073945,-35823.67728038756,-33324.2158084173,-21304.922855487213,-22039.579992244246,0.0,0.0,0.0,193.0,1.0,155.0,0.0,5.0,3.0,252.0,411.0,5.0,1020.0,1744252717.6618063,0.0,2025-04-09 22:38:37.661,FORWARD,18
42.0,14416.830470184144,2301.4697195851472,-62619.23910608758,-60134.79800639129,-35861.071748861286,-33368.96400081683,-20961.28713623132,-22074.851044994717,0.0,0.0,0.0,193.0,1.0,155.0,0.0,5.0,3.0,253.0,411.0,5.0,1021.0,1744252717.661815,0.0,2025-04-09 22:38:37.661,FORWARD,18
43.0,14350.624603107526,2256.8556376523543,-62645.770626756035,-60172.52775103185,-35902.511883081424,-33409.10773385855,-21077.516207398916,-22110.546780889843,0.0,0.0,0.0,193.0,1.0,154.0,0.0,5.0,3.0,249.0,410.0,5.0,1017.0,1744252717.6618235,0.0,2025-04-09 22:38:37.661,FORWARD,18
44.0,14475.749668568335,2276.882800684309,-62640.13798715329,-60128.047779565786,-35938.90052305467,-33449.47498434484,-20798.141753452033,-22146.734255162984,0.0,0.0,0.0,193.0,1.0,155.0,0.0,4.0,3.0,251.0,411.0,4.0,1019.0,1744252717.6618323,0.0,2025-04-09 22:38:37.661,FORWARD,18
45.0,14495.665072878013,2303.011989952563,-62597.75907966603,-60154.37813453414,-35851.52755397887,-33358.123404756,-21312.321282901918,-22067.072637924273,0.0,0.0,0.0,193.0,1.0,154.0,0.0,4.0,3.0,249.0,410.0,4.0,1017.0,1744252717.6618412,0.0,2025-04-09 22:38:37.661,FORWARD,18
46.0,14430.9567726799,2307.6164493103565,-62611.795975183966,-60125.1420527866,-35858.18837382655,-33372.74144562977,-20995.61941571467,-22070.85008273722,0.0,0.0,0.0,193.0,1.0,154.0,0.0,4.0,3.0,249.0,410.0,4.0,1017.0,1744252717.66189,0.0,2025-04-09 22:38:37.661,FORWARD,18
47.0,14365.868492826045,2279.140326874295,-62635.10884465085,-60168.929120174544,-35874.01340890091,-33388.857053382046,-21091.776620361405,-22094.162952204104,0.0,0.0,0.0,193.0,1.0,154.0,0.0,4.0,3.0,250.0,410.0,4.0,1018.0,1744252717.6618989,0.0,2025-04-09 22:38:37.661,FORWARD,18
48.0,14456.81774101469,2279.9896931635967,-62638.282792363505,-60112.80388984727,-35929.289272938884,-33445.071690687146,-20779.88037823205,-22139.425234726103,0.0,0.0,0.0,193.0,1.0,155.0,0.0,4.0,3.0,250.0,411.0,4.0,1018.0,1744252717.6619077,0.0,2025-04-09 22:38:37.661,FORWARD,18
49.0,14498.034357790275,2300.1733184067393,-62621.02724564401,-60169.57732076375,-35870.772405954885,-33377.99410557677,-21249.267011793498,-22099.572074362288,0.0,0.0,0.0,193.0,1.0,154.0,0.0,4.0,3.0,251.0,410.0,4.0,1019.0,1744252717.6619163,0.0,2025-04-09 22:38:37.661,FORWARD,18
50.0,14441.775016996267,2310.119844689351,-62599.30135003345,-60105.49486941039,-35847.75010916592,-33361.677332124396,-21052.12462569769,-22069.196053647527,0.0,0.0,0.0,193.0,1.0,155.0,0.0,4.0,3.0,250.0,411.0,4.0,1018.0,1744252717.6619248,0.0,2025-04-09 22:38:37.661,FORWARD,18
51.0,14365.600271892581,2284.1024141433736,-62636.181728384705,-60172.28188184284,-35865.609152985715,-33383.31382075713,-21073.381134674684,-22085.557530588812,0.0,0.0,0.0,193.0,1.0,154.0,0.0,4.0,3.0,252.0,410.0,4.0,1020.0,1744252717.6619334,0.0,2025-04-09 22:38:37.661,FORWARD,18
52.0,14429.548612779214,2273.239466338094,-62631.532565538,-60107.41711943354,-35915.85587452124,-33430.40894632446,-20825.20971598741,-22122.102632773236,0.0,0.0,0.0,193.0,1.0,154.0,0.0,4.0,3.0,251.0,410.0,4.0,1019.0,1744252717.661942,0.0,2025-04-09 22:38:37.661,FORWARD,18
53.0,14499.241351990862,2287.946914189686,-62637.522833052026,-60174.0029661659,-35891.00073468694,-33389.2817365267,-21137.552993005873,-22099.594426106745,0.0,0.0,0.0,193.0,1.0,155.0,0.0,4.0,3.0,252.0,411.0,4.0,1020.0,1744252717.6619503,0.0,2025-04-09 22:38:37.661,FORWARD,18
54.0,14449.57577581117,2303.9954667085967,-62596.35091976535,-60108.04296827829,-35841.826896885264,-33346.50049763924,-21127.070024856333,-22050.018256904874,0.0,0.0,0.0,193.0,1.0,154.0,0.0,4.0,3.0,250.0,410.0,4.0,1018.0,1744252717.661959,0.0,2025-04-09 22:38:37.661,FORWARD,18
55.0,14373.624548152036,2288.9974461790857,-62641.412036587244,-60171.67838474255,-35871.84528968875,-33377.41296022093,-21037.35012261273,-22084.305832899314,0.0,0.0,0.0,193.0,1.0,155.0,0.0,3.0,3.0,251.0,411.0,3.0,1019.0,1744252717.6619678,0.0,2025-04-09 22:38:37.661,FORWARD,18
56.0,14393.383490250528,2262.220056321628,-62645.99414420059,-60128.4948144549,-35924.55070311436,-33427.95025443438,-20911.37569086262,-22123.91312407412,0.0,0.0,0.0,193.0,1.0,155.0,0.0,3.0,3.0,251.0,411.0,3.0,1019.0,1744252717.6619763,0.0,2025-04-09 22:38:37.661,FORWARD,18
57.0,14504.516363682314,2290.249143868583,-62643.669562777235,-60160.32369855925,-35911.25141516345,-33397.730695930804,-21021.145107882632,-22105.36117617621,0.0,0.0,0.0,193.0,1.0,155.0,0.0,3.0,3.0,250.0,411.0,3.0,1018.0,1744252717.6619847,0.0,2025-04-09 22:38:37.661,FORWARD,18
58.0,14468.23948243135,2310.4551208561807,-62584.303329503935,-60100.73394784141,-35836.19425728253,-33325.98159622927,-21217.751052111515,-22036.853079420696,0.0,0.0,0.0,193.0,1.0,155.0,0.0,3.0,3.0,251.0,411.0,3.0,1019.0,1744252717.6619935,0.0,2025-04-09 22:38:37.661,FORWARD,18
59.0,14393.94228386191,2298.0051991945743,-62628.73859748109,-60149.55015773179,-35863.68690296256,-33361.40911119093,-21001.229703572953,-22069.017239691882,0.0,0.0,0.0,193.0,1.0,154.0,0.0,3.0,3.0,250.0,410.0,3.0,1018.0,1744252718.1293564,0.0,2025-04-09 22:38:38.129,FORWARD,18
60.0,14370.450600439382,2253.6816899397004,-62645.748275011574,-60144.23044255143,-35913.352479142246,-33416.61791999554,-20987.528084221853,-22111.820830323795,0.0,0.0,0.0,193.0,1.0,155.0,0.0,3.0,3.0,252.0,411.0,3.0,1020.0,1744252718.129396,0.0,2025-04-09 22:38:38.129,FORWARD,18
61.0,14497.363805456616,2281.084928641907,-62644.429522088714,-60151.874739155144,-35918.71689781152,-33421.42354505343,-20895.170676132522,-22119.219257738503,0.0,0.0,0.0,193.0,1.0,155.0,0.0,3.0,3.0,251.0,411.0,3.0,1019.0,1744252718.1294963,0.0,2025-04-09 22:38:38.129,FORWARD,18
62.0,14468.306537664717,2296.373521849337,-62586.829076627386,-60125.879660353625,-35830.82983861325,-33336.2186951898,-21269.87532018129,-22043.200974846004,0.0,0.0,0.0,193.0,1.0,154.0,0.0,3.0,3.0,249.0,410.0,3.0,1017.0,1744252718.1295164,0.0,2025-04-09 22:38:38.129,FORWARD,18
63.0,14398.390281008516,2289.913867701753,-62628.716245736636,-60151.76298043287,-35862.323446550785,-33372.07089329611,-20966.182168267034,-22077.354440373714,0.0,0.0,0.0,193.0,1.0,155.0,0.0,3.0,3.0,251.0,411.0,3.0,1019.0,1744252718.129526,0.0,2025-04-09 22:38:38.129,FORWARD,18
64.0,14357.330126444118,2259.895474898276,-62641.34498135388,-60159.854311925694,-35894.37584809969,-33404.436219267394,-21048.660105307117,-22116.09001351476,0.0,0.0,0.0,193.0,1.0,154.0,0.0,3.0,3.0,249.0,410.0,3.0,1017.0,1744252718.1295357,0.0,2025-04-09 22:38:38.129,FORWARD,18
65.0,14489.786564086267,2291.3667310913484,-62636.91933595173,-60128.47246271044,-35917.28638616638,-33420.32830957512,-20803.752041310316,-22126.863554342217,0.0,0.0,0.0,193.0,1.0,155.0,0.0,3.0,3.0,251.0,411.0,3.0,1019.0,1744252718.1295447,0.0,2025-04-09 22:38:38.129,FORWARD,18
66.0,14486.634968118069,2306.141234176306,-62586.35968999383,-60136.161462803066,-35828.52760893436,-33326.94272124085,-21295.512771071528,-22038.395349788112,0.0,0.0,0.0,193.0,1.0,154.0,0.0,3.0,3.0,250.0,410.0,3.0,1018.0,1744252718.129554,0.0,2025-04-09 22:38:38.129,FORWARD,18
67.0,14424.228897598852,2306.208289409672,-62606.16333558123,-60124.85148010868,-35843.48092597496,-33352.06608200861,-20957.509691418374,-22050.68880923853,0.0,0.0,0.0,193.0,1.0,155.0,0.0,3.0,3.0,252.0,411.0,3.0,1020.0,1744252718.1295671,0.0,2025-04-09 22:38:38.129,FORWARD,18
68.0,14357.665402610946,2269.8196494364324,-62632.56074578295,-60167.409201551585,-35875.13099612368,-33387.96298360384,-21062.607593847228,-22091.056059724815,0.0,0.0,0.0,193.0,1.0,154.0,0.0,3.0,3.0,249.0,410.0,3.0,1017.0,1744252718.1295764,0.0,2025-04-09 22:38:38.129,FORWARD,18
69.0,14464.573796340681,2275.474640783625,-62641.97083019863,-60127.46663420995,-35932.10559274025,-33443.26119938627,-20762.803645468193,-22137.078301558293,0.0,0.0,0.0,193.0,1.0,155.0,0.0,3.0,3.0,252.0,411.0,3.0,1020.0,1744252718.1295853,0.0,2025-04-09 22:38:38.129,FORWARD,18
70.0,14496.179163000485,2303.302562630482,-62597.49085873257,-60153.841692667214,-35844.844382386735,-33343.75123307124,-21286.795590733956,-22051.851099950207,0.0,0.0,0.0,193.0,1.0,154.0,0.0,3.0,3.0,250.0,410.0,3.0,1018.0,1744252718.129594,0.0,2025-04-09 22:38:38.129,FORWARD,18
71.0,14431.604973269103,2301.268553885049,-62599.65897794473,-60112.69213112499,-35841.625731185166,-33355.55295414364,-20986.58931095473,-22050.5546987718,0.0,0.0,0.0,193.0,1.0,155.0,0.0,3.0,3.0,252.0,411.0,3.0,1020.0,1744252718.129603,0.0,2025-04-09 22:38:38.129,FORWARD,18
72.0,14354.804379320667,2265.6398732232897,-62638.0369231745,-60180.9543586915,-35875.533327523866,-33393.77443716222,-21077.94089054357,-22101.673138341088,0.0,0.0,0.0,193.0,1.0,155.0,0.0,3.0,3.0,252.0,411.0,3.0,1020.0,1744252718.1296115,0.0,2025-04-09 22:38:38.129,FORWARD,18
73.0,14438.802234983712,2266.444536023681,-62637.791053985486,-60121.43166320702,-35928.77518281641,-33451.911324490466,-20794.87839876156,-22155.54084247838,0.0,0.0,0.0,193.0,1.0,154.0,0.0,3.0,3.0,249.0,410.0,3.0,1017.0,1744252718.1296206,0.0,2025-04-09 22:38:38.129,FORWARD,18
74.0,14490.323005953194,2286.382292077815,-62623.15066136726,-60180.1049924022,-35876.941487424556,-33386.554823703154,-21215.739395110537,-22107.79751632184,0.0,0.0,0.0,193.0,1.0,155.0,0.0,3.0,3.0,251.0,411.0,3.0,1019.0,1744252718.1296291,0.0,2025-04-09 22:38:38.129,FORWARD,18
75.0,14436.634115771547,2295.702969515678,-62595.16627730922,-60115.955485815466,-35848.3089027773,-33360.69385536836,-21055.477387365983,-22061.819977977273,0.0,0.0,0.0,193.0,1.0,154.0,0.0,3.0,3.0,249.0,410.0,3.0,1017.0,1744252718.129638,0.0,2025-04-09 22:38:38.129,FORWARD,18
76.0,14364.348574203084,2281.1966873641836,-62633.186594627696,-60180.48497205794,-35870.10185362123,-33384.05142832416,-21029.571715542283,-22089.37967889067,0.0,0.0,0.0,193.0,1.0,155.0,0.0,3.0,3.0,252.0,411.0,3.0,1020.0,1744252718.12967,0.0,2025-04-09 22:38:38.129,FORWARD,18
77.0,14413.209487582386,2266.444536023681,-62633.20894637215,-60126.32669524273,-35919.40980188964,-33438.634388284016,-20805.763698311293,-22131.579772422287,0.0,0.0,0.0,193.0,1.0,154.0,0.0,3.0,3.0,250.0,410.0,3.0,1018.0,1744252718.1296787,0.0,2025-04-09 22:38:38.129,FORWARD,18
78.0,14506.818593361211,2295.9488387046863,-62625.22937360161,-60174.047669654814,-35888.0726561633,-33394.5343964737,-21053.063398964812,-22107.886923299662,0.0,0.0,0.0,193.0,1.0,155.0,0.0,3.0,3.0,251.0,411.0,3.0,1019.0,1744252718.1296873,0.0,2025-04-09 22:38:38.129,FORWARD,18
79.0,14454.314345635696,2308.9352022332196,-62580.90586434673,-60109.80875609026,-35836.35071949372,-33347.55102962864,-21111.692024671083,-22059.070713409274,0.0,0.0,0.0,193.0,1.0,154.0,0.0,3.0,3.0,251.0,410.0,3.0,1019.0,1744252718.129696,0.0,2025-04-09 22:38:38.129,FORWARD,18
80.0,14383.928702345933,2302.632010296823,-62621.89896367776,-60166.96216666248,-35860.40119652763,-33375.87068985352,-20984.421191742564,-22088.70912655701,0.0,0.0,0.0,193.0,1.0,154.0,0.0,3.0,3.0,250.0,410.0,3.0,1018.0,1744252718.1297047,0.0,2025-04-09 22:38:38.129,FORWARD,18
81.0,14390.164839048963,2270.087870369896,-62631.68902774919,-60135.49091046941,-35916.995813488466,-33429.24665561279,-20892.913149942535,-22136.363045735725,0.0,0.0,0.0,193.0,1.0,155.0,0.0,3.0,3.0,252.0,411.0,3.0,1020.0,1744252718.1297133,0.0,2025-04-09 22:38:38.129,FORWARD,18
82.0,14507.355035228138,2289.600943279379,-62632.53839403849,-60163.11766661616,-35912.950147742056,-33415.45562928386,-20944.90330754558,-22137.257115513938,0.0,0.0,0.0,193.0,1.0,154.0,0.0,3.0,3.0,251.0,410.0,3.0,1019.0,1744252718.1297224,0.0,2025-04-09 22:38:38.129,FORWARD,18
83.0,14471.726354566379,2311.2374319121163,-62572.501608431536,-60112.91564856955,-35831.61214966919,-33343.5724191156,-21213.191296242632,-22068.97253620297,0.0,0.0,0.0,193.0,1.0,155.0,0.0,3.0,3.0,250.0,411.0,3.0,1018.0,1744252718.129731,0.0,2025-04-09 22:38:38.129,FORWARD,18
84.0,14400.536048476226,2306.9682487211526,-62613.315893806925,-60151.38300077713,-35855.23794355845,-33375.51306194223,-20954.246336727898,-22090.85489402472,0.0,0.0,0.0,193.0,1.0,155.0,0.0,3.0,3.0,252.0,411.0,3.0,1020.0,1744252718.1297395,0.0,2025-04-09 22:38:38.129,FORWARD,18
85.0,14379.145429032496,2269.707890714156,-62618.12151886482,-60142.03997159481,-35890.911327709124,-33414.85213218357,-20965.62337465565,-22127.020016553404,0.0,0.0,0.0,193.0,1.0,154.0,0.0,3.0,3.0,250.0,410.0,3.0,1018.0,1744252718.1297483,0.0,2025-04-09 22:38:38.129,FORWARD,18
86.0,14496.20151474494,2285.0635391549517,-62632.5830975274,-60150.824207165744,-35925.176551959106,-33439.260237128765,-20820.91818105199,-22146.264868529426,0.0,0.0,0.0,193.0,1.0,155.0,0.0,3.0,3.0,252.0,411.0,3.0,1020.0,1744252718.1297572,0.0,2025-04-09 22:38:38.129,FORWARD,18
87.0,14469.938215009954,2300.754463762577,-62582.91752134771,-60142.75522741738,-35845.29141727584,-33359.285695467675,-21266.053171879434,-22079.410800863603,0.0,0.0,0.0,193.0,1.0,154.0,0.0,2.0,3.0,251.0,410.0,2.0,1019.0,1744252718.129766,0.0,2025-04-09 22:38:38.129,FORWARD,18
88.0,14408.47091775786,2302.1626236632615,-62608.89024840477,-60147.963183875465,-35860.73647269446,-33384.69962891336,-20942.66813310005,-22097.403955150123,0.0,0.0,0.0,193.0,1.0,154.0,0.0,2.0,3.0,251.0,410.0,2.0,1019.0,1744252718.1297743,0.0,2025-04-09 22:38:38.129,FORWARD,18
89.0,14358.626527622526,2263.203533077661,-62628.5821352699,-60170.91842543107,-35895.046400433355,-33417.176713606925,-21032.320980110286,-22123.577847907287,0.0,0.0,0.0,193.0,1.0,155.0,0.0,3.0,3.0,251.0,411.0,3.0,1019.0,1744252718.1297836,0.0,2025-04-09 22:38:38.129,FORWARD,18
90.0,14482.231674460374,2281.017873408541,-62629.07387364792,-60136.0944075697,-35930.36215667274,-33447.57508606614,-20764.39061932452,-22147.51656621892,0.0,0.0,0.0,193.0,1.0,154.0,0.0,2.0,3.0,249.0,410.0,2.0,1017.0,1744252718.1297925,0.0,2025-04-09 22:38:38.129,FORWARD,18
91.0,14482.63400586057,2301.290905629505,-62587.11964930531,-60156.52390200185,-35846.76663240989,-33359.03982627867,-21287.48849481207,-22078.203806663016,0.0,0.0,0.0,193.0,1.0,155.0,0.0,2.0,3.0,252.0,411.0,2.0,1020.0,1744252718.12983,0.0,2025-04-09 22:38:38.129,FORWARD,18
92.0,14419.512679518783,2312.9138127462643,-62599.3237017779,-60129.590049933206,-35853.60626621321,-33374.28371599719,-20953.419322183054,-22078.18145491856,0.0,0.0,0.0,193.0,1.0,155.0,0.0,2.0,3.0,251.0,411.0,2.0,1019.0,1744252718.1298385,0.0,2025-04-09 22:38:38.129,FORWARD,18
93.0,14347.383600161505,2272.7700797045327,-62630.99612367107,-60180.753192991404,-35890.687810264564,-33407.54311174669,-21061.042971735355,-22110.412670423113,0.0,0.0,0.0,193.0,1.0,155.0,0.0,2.0,3.0,251.0,411.0,2.0,1019.0,1744252718.1298473,0.0,2025-04-09 22:38:38.129,FORWARD,18
94.0,14446.58064205416,2267.785640690999,-62636.00291442906,-60133.81452963526,-35942.65561612316,-33461.88020251754,-20753.415912796965,-22156.94900237906,0.0,0.0,0.0,193.0,1.0,155.0,0.0,2.0,3.0,249.0,411.0,2.0,1017.0,1744252718.129856,0.0,2025-04-09 22:38:38.129,FORWARD,18
95.0,14491.842924576154,2302.855527741376,-62597.043823843465,-60169.37615506365,-35860.490603505445,-33370.685085139885,-21261.02402937699,-22091.391335891647,0.0,0.0,0.0,193.0,1.0,155.0,0.0,2.0,3.0,253.0,411.0,2.0,1021.0,1744252718.1298647,0.0,2025-04-09 22:38:38.129,FORWARD,18
96.0,14427.13462437804,2305.537737076013,-62596.08269883189,-60124.00211381938,-35854.8132604138,-33377.524718943205,-20999.419212272074,-22086.45160036702,0.0,0.0,0.0,193.0,1.0,155.0,0.0,2.0,3.0,250.0,411.0,2.0,1018.0,1744252718.1298735,0.0,2025-04-09 22:38:38.129,FORWARD,18
97.0,14350.848120552078,2274.312350071949,-62635.48882430659,-60192.711376274994,-35883.8705282057,-33402.22339656632,-21061.713524069015,-22111.776126834888,0.0,0.0,0.0,193.0,1.0,155.0,0.0,2.0,3.0,252.0,411.0,2.0,1020.0,1744252718.1298823,0.0,2025-04-09 22:38:38.129,FORWARD,18
98.0,14420.384397552538,2262.3765185328148,-62638.52866155251,-60134.21686103546,-35943.21440973454,-33453.587705324615,-20796.420669128976,-22149.036484841883,0.0,0.0,0.0,193.0,1.0,155.0,0.0,2.0,3.0,249.0,411.0,2.0,1017.0,1744252718.129891,0.0,2025-04-09 22:38:38.129,FORWARD,18
99.0,14489.093660008153,2295.054768926474,-62625.408187557245,-60188.509248317394,-35894.01822018841,-33391.42750399441,-21176.13210393573,-22106.05408025433,0.0,0.0,0.0,193.0,1.0,154.0,0.0,2.0,3.0,250.0,410.0,2.0,1018.0,1744252718.1298995,0.0,2025-04-09 22:38:38.129,FORWARD,18
100.0,14446.04420018723,2319.3734668938478,-62582.224617269596,-60110.568715401736,-35846.25254228742,-33355.19532623236,-21082.79121909037,-22067.56437630229,0.0,0.0,0.0,193.0,1.0,155.0,0.0,2.0,3.0,252.0,411.0,2.0,1020.0,1744252718.1299083,0.0,2025-04-09 22:38:38.129,FORWARD,18
101.0,14360.548777645681,2285.667036255245,-62632.73955973859,-60185.782335493845,-35879.646048503644,-33387.672410925916,-21031.40455858762,-22098.43213539507,0.0,0.0,0.0,193.0,1.0,154.0,0.0,2.0,3.0,250.0,410.0,2.0,1018.0,1744252718.129917,0.0,2025-04-09 22:38:38.129,FORWARD,18
102.0,14395.03751934022,2260.275454554016,-62636.673466762724,-60138.86602388216,-35934.76545033043,-33441.18248715192,-20856.859786136127,-22140.922801604607,0.0,0.0,0.0,193.0,1.0,155.0,0.0,2.0,3.0,252.0,411.0,2.0,1020.0,1744252718.1299255,0.0,2025-04-09 22:38:38.129,FORWARD,18
103.0,14492.647587376547,2288.1033764008735,-62633.99125742808,-60182.87660871466,-35910.37969712969,-33408.83951292509,-21046.313172139307,-22126.483574686477,0.0,0.0,0.0,193.0,1.0,155.0,0.0,2.0,3.0,251.0,411.0,2.0,1019.0,1744252718.1299345,0.0,2025-04-09 22:38:38.129,FORWARD,18
104.0,14452.325040379172,2311.013914467563,-62574.937948577164,-60113.27327648083,-35837.44595497203,-33342.27601793719,-21160.061199672367,-22056.723780241464,0.0,0.0,0.0,193.0,1.0,155.0,0.0,2.0,3.0,250.0,411.0,2.0,1018.0,1744252718.1299431,0.0,2025-04-09 22:38:38.129,FORWARD,18
105.0,14377.916083087455,2296.9099637162644,-62622.86008868934,-60169.26439634137,-35868.87250767619,-33376.764759631726,-20986.477552232453,-22087.32331840078,0.0,0.0,0.0,193.0,1.0,155.0,0.0,2.0,3.0,251.0,411.0,2.0,1019.0,1744252718.129952,0.0,2025-04-09 22:38:38.129,FORWARD,18
106.0,14373.669251640948,2260.0742888539185,-62631.644324260276,-60145.035105351824,-35916.9287582551,-33425.33510033311,-20939.650647598584,-22125.94713281955,0.0,0.0,0.0,193.0,1.0,154.0,0.0,2.0,3.0,250.0,410.0,2.0,1018.0,1744252718.129966,0.0,2025-04-09 22:38:38.129,FORWARD,18
107.0,14490.68063386448,2285.4882222996025,-62636.69581850718,-60166.31396607328,-35920.549740856855,-33419.50129503028,-20921.366920634144,-22119.599237394243,0.0,0.0,0.0,193.0,1.0,154.0,0.0,2.0,3.0,252.0,410.0,2.0,1020.0,1744252718.1299744,0.0,2025-04-09 22:38:38.129,FORWARD,18
108.0,14462.204511428417,2307.8399667549097,-62575.18381776617,-60124.38209347512,-35830.94159733553,-33335.21286668931,-21239.67811342217,-22044.229155090947,0.0,0.0,0.0,193.0,1.0,155.0,0.0,2.0,3.0,253.0,411.0,2.0,1021.0,1744252718.1299832,0.0,2025-04-09 22:38:38.129,FORWARD,18
109.0,14379.860684855066,2293.2666293700495,-62625.05055964596,-60165.26343408388,-35866.70438846402,-33378.79876837716,-20945.14917673459,-22082.85296950972,0.0,0.0,0.0,193.0,1.0,154.0,0.0,2.0,3.0,249.0,410.0,2.0,1017.0,1744252718.129992,0.0,2025-04-09 22:38:38.129,FORWARD,18
110.0,14337.772350045723,2249.792486404477,-62646.73175176761,-60175.83580921123,-35917.53225535539,-33425.7374317333,-21007.242322831433,-22128.070548542804,0.0,0.0,0.0,193.0,1.0,155.0,0.0,2.0,3.0,252.0,411.0,2.0,1020.0,1744252718.1300008,0.0,2025-04-09 22:38:38.130,FORWARD,18
111.0,14473.782715056268,2283.2083443651613,-62639.91446970874,-60155.27220431235,-35935.659520108646,-33433.605245781575,-20822.63926537505,-22135.20075502405,0.0,0.0,0.0,193.0,1.0,154.0,0.0,2.0,3.0,250.0,410.0,2.0,1018.0,1744252718.1300094,0.0,2025-04-09 22:38:38.130,FORWARD,18
112.0,14468.15007545353,2308.2870016440156,-62577.53075093398,-60140.5424047163,-35835.121373548674,-33330.40724163142,-21284.64982326625,-22041.12226261166,0.0,0.0,0.0,193.0,1.0,154.0,0.0,2.0,3.0,252.0,410.0,2.0,1020.0,1744252718.1300182,0.0,2025-04-09 22:38:38.130,FORWARD,18
113.0,14409.432042769438,2307.951725477186,-62598.20611455514,-60135.42385523604,-35848.755937666414,-33353.58600063157,-20944.23275521192,-22057.863719208686,0.0,0.0,0.0,193.0,1.0,155.0,0.0,2.0,3.0,252.0,411.0,2.0,1020.0,1744252718.1300268,0.0,2025-04-09 22:38:38.130,FORWARD,18
114.0,14344.276707682218,2259.5154952425355,-62634.214774872635,-60183.16718139258,-35899.56145281332,-33408.95127164737,-21050.470596607996,-22116.313530959313,0.0,0.0,0.0,193.0,1.0,155.0,0.0,2.0,3.0,251.0,411.0,2.0,1019.0,1744252718.1300354,0.0,2025-04-09 22:38:38.130,FORWARD,18
115.0,14455.677802047469,2272.792431448988,-62648.765760513044,-60158.02146888035,-35952.3339214723,-33464.4506531299,-20774.49360781832,-22164.459188516044,0.0,0.0,0.0,193.0,1.0,154.0,0.0,2.0,3.0,249.0,410.0,2.0,1017.0,1744252718.1300445,0.0,2025-04-09 22:38:38.130,FORWARD,18
116.0,14481.29290119325,2312.332667390426,-62583.81159112592,-60162.33535556023,-35842.13982130764,-33347.372215673,-21300.49721008506,-22066.245623379426,0.0,0.0,0.0,193.0,1.0,155.0,0.0,2.0,3.0,252.0,411.0,2.0,1020.0,1744252718.1300533,0.0,2025-04-09 22:38:38.130,FORWARD,18
117.0,14411.689568959424,2314.947821491697,-62593.333434263885,-60128.47246271044,-35847.59364695474,-33361.14089025747,-20967.746790378904,-22070.313640870292,0.0,0.0,0.0,193.0,1.0,155.0,0.0,2.0,3.0,251.0,411.0,2.0,1019.0,1744252718.130062,0.0,2025-04-09 22:38:38.130,FORWARD,18
118.0,14337.12414945652,2269.8420011808876,-62631.62197251582,-60194.14188792013,-35885.9715921845,-33401.306975043655,-21067.41321890512,-22109.56330413381,0.0,0.0,0.0,193.0,1.0,154.0,0.0,2.0,3.0,249.0,410.0,2.0,1017.0,1744252718.1300707,0.0,2025-04-09 22:38:38.130,FORWARD,18
119.0,14437.751702994312,2270.5125535145467,-62627.82217595842,-60136.45203548099,-35932.66438635164,-33457.61101932657,-20762.96010767938,-22156.56902272332,0.0,0.0,0.0,193.0,1.0,155.0,0.0,2.0,3.0,252.0,411.0,2.0,1020.0,1744252718.1300795,0.0,2025-04-09 22:38:38.130,FORWARD,18
120.0,14490.993558286853,2305.157757420273,-62592.417012741214,-60176.215788866975,-35854.343873780235,-33371.55680317364,-21229.217497017085,-22088.41855387909,0.0,0.0,0.0,193.0,1.0,155.0,0.0,2.0,3.0,251.0,411.0,2.0,1019.0,1744252718.1300883,0.0,2025-04-09 22:38:38.130,FORWARD,18
121.0,14436.90233670501,2318.4570453711804,-62572.85923634282,-60110.345197957184,-35835.03196657085,-33348.534506384676,-21011.355043811207,-22045.860832436185,0.0,0.0,0.0,193.0,1.0,154.0,0.0,2.0,3.0,250.0,410.0,2.0,1018.0,1744252718.1301017,0.0,2025-04-09 22:38:38.130,FORWARD,18
122.0,14354.98319327631,2285.957608933164,-62622.63657124479,-60187.63753028364,-35877.142653124654,-33380.27398351121,-21045.195584916542,-22080.528388086368,0.0,0.0,0.0,193.0,1.0,155.0,0.0,2.0,3.0,252.0,411.0,2.0,1020.0,1744252718.1301103,0.0,2025-04-09 22:38:38.130,FORWARD,18
123.0,14409.007359624788,2265.9975011345746,-62629.38679807029,-60137.32375351474,-35936.88886605369,-33442.85886798607,-20806.434250644954,-22133.837298612274,0.0,0.0,0.0,193.0,1.0,154.0,0.0,2.0,3.0,250.0,410.0,2.0,1018.0,1744252718.1301188,0.0,2025-04-09 22:38:38.130,FORWARD,18
124.0,14487.417279174004,2295.8370799824097,-62611.840678672874,-60183.837733726235,-35883.24467936095,-33384.65492542445,-21114.240123538988,-22088.75383004592,0.0,0.0,0.0,193.0,1.0,154.0,0.0,2.0,3.0,249.0,410.0,2.0,1017.0,1744252718.1301277,0.0,2025-04-09 22:38:38.130,FORWARD,18
125.0,14436.276487860261,2308.108187688373,-62571.96516656461,-60114.30145672578,-35837.08832706074,-33343.50536388223,-21084.244082479963,-22049.615925504677,0.0,0.0,0.0,193.0,1.0,155.0,0.0,2.0,3.0,252.0,411.0,2.0,1020.0,1744252718.1301363,0.0,2025-04-09 22:38:38.130,FORWARD,18
126.0,14367.03078353772,2299.8380422399096,-62613.472356018116,-60174.8523324552,-35861.87641166167,-33370.21569850632,-21003.286064062842,-22080.03664970835,0.0,0.0,0.0,193.0,1.0,155.0,0.0,2.0,3.0,251.0,411.0,2.0,1019.0,1744252718.1301448,0.0,2025-04-09 22:38:38.130,FORWARD,18
127.0,14390.120135560053,2274.289998327494,-62618.45679503165,-60133.09927381269,-35916.638185577176,-33422.71994623184,-20867.521568241307,-22119.822754838795,0.0,0.0,0.0,193.0,1.0,155.0,0.0,2.0,3.0,252.0,411.0,2.0,1020.0,1744252718.1301537,0.0,2025-04-09 22:38:38.130,FORWARD,18
128.0,14493.742822854856,2295.2782863710268,-62621.921315422216,-60174.29353884382,-35902.53423482588,-33399.29531804268,-20988.1539330666,-22109.27273145589,0.0,0.0,0.0,193.0,1.0,155.0,0.0,2.0,3.0,251.0,411.0,2.0,1019.0,1744252718.1301625,0.0,2025-04-09 22:38:38.130,FORWARD,18
129.0,14441.95383095191,2295.5912107934014,-62581.06232655792,-60131.534651700815,-35842.63155968566,-33343.79593656015,-21183.1505516947,-22056.813187219286,0.0,0.0,0.0,193.0,1.0,154.0,0.0,2.0,3.0,250.0,410.0,2.0,1018.0,1744252718.1301708,0.0,2025-04-09 22:38:38.130,FORWARD,18
130.0,14367.455466682371,2286.2928850999933,-62623.82121370092,-60178.808591223795,-35867.59845824223,-33373.70257064135,-20980.62139518516,-22088.95499574602,0.0,0.0,0.0,193.0,1.0,155.0,0.0,2.0,3.0,252.0,411.0,2.0,1020.0,1744252718.1301794,0.0,2025-04-09 22:38:38.130,FORWARD,18
131.0,14354.491454898294,2251.2677015385275,-62635.19825162867,-60163.072963127255,-35914.29125240937,-33418.67428048543,-20965.131636277634,-22130.551592177344,0.0,0.0,0.0,193.0,1.0,154.0,0.0,2.0,3.0,249.0,410.0,2.0,1017.0,1744252718.130188,0.0,2025-04-09 22:38:38.130,FORWARD,18
132.0,14482.43284016047,2282.8060129649657,-62635.98056268461,-60173.01948940987,-35921.19794144606,-33420.97651016432,-20887.928710929,-22133.591429423264,0.0,0.0,0.0,193.0,1.0,155.0,0.0,2.0,3.0,252.0,411.0,2.0,1020.0,1744252718.1301963,0.0,2025-04-09 22:38:38.130,FORWARD,18
133.0,14446.915918220988,2297.446405583192,-62585.75619289353,-60152.34412578871,-35840.776364895864,-33347.14869822845,-21255.592555474348,-22074.448713594524,0.0,0.0,0.0,193.0,1.0,155.0,0.0,2.0,3.0,251.0,411.0,2.0,1019.0,1744252718.130205,0.0,2025-04-09 22:38:38.130,FORWARD,18
134.0,14374.049231296687,2289.891515957298,-62624.089434634385,-60175.232312110944,-35869.90068792113,-33374.75310263075,-20951.787644837816,-22089.55849284631,0.0,0.0,0.0,193.0,1.0,154.0,0.0,2.0,3.0,250.0,410.0,2.0,1018.0,1744252718.1302135,0.0,2025-04-09 22:38:38.130,FORWARD,18
135.0,14339.068751224131,2258.5543702309574,-62637.723998752124,-60180.86495171368,-35909.55268258484,-33402.08928609959,-21026.151898640623,-22113.206638480027,0.0,0.0,0.0,193.0,1.0,155.0,0.0,2.0,3.0,251.0,411.0,2.0,1019.0,1744252718.1302269,0.0,2025-04-09 22:38:38.130,FORWARD,18
136.0,14464.037354473754,2279.0732716409293,-62641.88142322081,-60159.94371890351,-35941.47097366703,-33435.01340568226,-20799.438154630443,-22144.29791501736,0.0,0.0,0.0,193.0,1.0,154.0,0.0,2.0,3.0,249.0,410.0,2.0,1017.0,1744252718.1302357,0.0,2025-04-09 22:38:38.130,FORWARD,18
137.0,14460.259909660806,2301.6485335407897,-62585.711489404624,-60157.3509165467,-35843.88325737516,-33337.44804113484,-21285.20861687763,-22054.98034417395,0.0,0.0,0.0,193.0,1.0,155.0,0.0,2.0,3.0,252.0,411.0,2.0,1020.0,1744252718.130244,0.0,2025-04-09 22:38:38.130,FORWARD,18
138.0,14401.653635698991,2306.0071237095744,-62604.88928614728,-60144.543366973805,-35856.08730984775,-33363.04078853617,-20947.250240713387,-22073.621699049676,0.0,0.0,0.0,193.0,1.0,155.0,0.0,2.0,3.0,251.0,411.0,2.0,1019.0,1744252718.1302524,0.0,2025-04-09 22:38:38.130,FORWARD,18
139.0,14350.714010085347,2278.514478029547,-62621.20605959965,-60176.23814061143,-35884.116397394704,-33389.99699234927,-21055.70090481054,-22103.908312786618,0.0,0.0,0.0,193.0,1.0,154.0,0.0,2.0,3.0,250.0,410.0,2.0,1018.0,1744252718.1302612,0.0,2025-04-09 22:38:38.130,FORWARD,18
140.0,14460.885758505556,2291.925524702731,-62626.615181757836,-60133.27808776833,-35938.095860254274,-33439.394347595495,-20762.066037901168,-22149.215298797524,0.0,0.0,0.0,193.0,1.0,155.0,0.0,2.0,3.0,252.0,411.0,2.0,1020.0,1744252718.13027,0.0,2025-04-09 22:38:38.130,FORWARD,18
141.0,14486.143229740052,2316.959478492675,-62584.41508822621,-60165.91163467308,-35849.873524889175,-33349.09329999606,-21279.35245983034,-22075.633356050654,0.0,0.0,0.0,193.0,1.0,154.0,0.0,2.0,3.0,249.0,410.0,2.0,1017.0,1744252718.1302786,0.0,2025-04-09 22:38:38.130,FORWARD,18
142.0,14423.826566198655,2312.533833090524,-62588.23723652807,-60128.85244236618,-35851.79577491233,-33362.39258794696,-20979.660270173583,-22076.125094428673,0.0,0.0,0.0,193.0,1.0,155.0,0.0,2.0,3.0,253.0,411.0,2.0,1021.0,1744252718.1302872,0.0,2025-04-09 22:38:38.130,FORWARD,18
143.0,14347.674172839425,2272.9712454046307,-62630.951420182166,-60200.1098036897,-35890.39723758665,-33403.1845215779,-21068.575509616796,-22120.493307172455,0.0,0.0,0.0,193.0,1.0,155.0,0.0,2.0,3.0,249.0,411.0,2.0,1017.0,1744252718.1302955,0.0,2025-04-09 22:38:38.130,FORWARD,18
144.0,14431.33675233564,2268.0985651133738,-62630.169109126226,-60142.196433806,-35946.902447569664,-33458.01335072677,-20789.78220102575,-22163.29689780437,0.0,0.0,0.0,193.0,1.0,155.0,0.0,2.0,3.0,251.0,411.0,2.0,1019.0,1744252718.1303043,0.0,2025-04-09 22:38:38.130,FORWARD,18
145.0,14494.301616466239,2302.922582974742,-62600.038957600475,-60183.79303023733,-35874.974533912486,-33379.335210244084,-21220.209744001597,-22107.84221981075,0.0,0.0,0.0,193.0,1.0,155.0,0.0,2.0,3.0,250.0,411.0,2.0,1018.0,1744252718.1303132,0.0,2025-04-09 22:38:38.130,FORWARD,18
146.0,14438.086979161142,2313.8749377578424,-62574.53561717697,-60118.548288172286,-35846.00667309841,-33362.3255327136,-21051.275259408387,-22084.886978255152,0.0,0.0,0.0,193.0,1.0,155.0,0.0,2.0,3.0,250.0,411.0,2.0,1018.0,1744252718.130322,0.0,2025-04-09 22:38:38.130,FORWARD,18
147.0,14358.89474855599,2290.7855857355103,-62619.2838095765,-60187.79399249482,-35880.47306304849,-33387.94063185938,-21052.39284663115,-22117.654635626634,0.0,0.0,0.0,193.0,1.0,155.0,0.0,2.0,3.0,252.0,411.0,2.0,1020.0,1744252718.1303303,0.0,2025-04-09 22:38:38.130,FORWARD,18
148.0,14411.37664453705,2281.956646675664,-62614.791108940975,-60125.65614290907,-35927.56818861583,-33428.6878620014,-20836.98908531536,-22131.66917940011,0.0,0.0,0.0,193.0,1.0,155.0,0.0,2.0,3.0,250.0,411.0,2.0,1018.0,1744252718.1303391,0.0,2025-04-09 22:38:38.130,FORWARD,18
149.0,14496.20151474494,2304.554260319979,-62612.04184437297,-60180.73084124695,-35893.23590913247,-33387.58300394809,-21079.036126021878,-22102.07546974128,0.0,0.0,0.0,193.0,1.0,155.0,0.0,2.0,3.0,250.0,411.0,2.0,1018.0,1744252718.1303475,0.0,2025-04-09 22:38:38.130,FORWARD,18
150.0,14448.681706032958,2316.624202325845,-62567.673631629186,-60116.26841023784,-35841.29045501834,-33344.2206197048,-21121.526792231416,-22060.389466332133,0.0,0.0,0.0,193.0,1.0,155.0,0.0,2.0,3.0,251.0,411.0,2.0,1019.0,1744252718.1303613,0.0,2025-04-09 22:38:38.130,FORWARD,18
151.0,14380.441830210904,2306.9906004656077,-62609.98548388309,-60173.91355918808,-35868.93956290955,-33368.67342813891,-21014.797212457324,-22093.17947544807,0.0,0.0,0.0,193.0,1.0,154.0,0.0,2.0,3.0,250.0,410.0,2.0,1018.0,1744252718.13037,0.0,2025-04-09 22:38:38.130,FORWARD,18
152.0,14397.026824596744,2281.174335619728,-62610.63368447229,-60131.62405867864,-35917.15227569965,-33411.14174260399,-20926.28430441431,-22129.836336354772,0.0,0.0,0.0,193.0,1.0,155.0,0.0,2.0,3.0,252.0,411.0,2.0,1020.0,1744252718.1303787,0.0,2025-04-09 22:38:38.130,FORWARD,18
153.0,14512.25006726385,2309.2034231666835,-62610.521925750014,-60159.74255320342,-35905.43996160507,-33395.80844590765,-20968.3502874792,-22118.414594938113,0.0,0.0,0.0,193.0,1.0,155.0,0.0,2.0,3.0,249.0,411.0,2.0,1017.0,1744252718.1303873,0.0,2025-04-09 22:38:38.130,FORWARD,18
154.0,14469.24531093184,2326.727190819644,-62557.43653266866,-60115.17317475953,-35830.47221070197,-33332.105974210026,-21215.739395110537,-22062.334068099746,0.0,0.0,0.0,193.0,1.0,155.0,0.0,2.0,3.0,252.0,411.0,2.0,1020.0,1744252718.130396,0.0,2025-04-09 22:38:38.130,FORWARD,18
155.0,14389.047251826198,2313.1596819352726,-62606.610370470335,-60160.211939836976,-35867.419644286594,-33365.32066647061,-20982.789514397326,-22086.004565477917,0.0,0.0,0.0,193.0,1.0,155.0,0.0,2.0,3.0,251.0,411.0,2.0,1019.0,1744252718.1304045,0.0,2025-04-09 22:38:38.130,FORWARD,18
156.0,14360.682888112413,2261.63891096579,-62621.51898402203,-60158.96024214748,-35912.234891919485,-33415.65679498396,-21002.30258730681,-22131.28919974437,0.0,0.0,0.0,193.0,1.0,154.0,0.0,2.0,3.0,251.0,410.0,2.0,1019.0,1744252718.1304133,0.0,2025-04-09 22:38:38.130,FORWARD,18
157.0,14483.8186483167,2281.5766670199237,-62629.38679807029,-60166.068096884264,-35932.642034607175,-33434.27579811523,-20873.198911332955,-22154.825586655807,0.0,0.0,0.0,193.0,1.0,155.0,0.0,2.0,3.0,251.0,411.0,2.0,1019.0,1744252718.1304219,0.0,2025-04-09 22:38:38.130,FORWARD,18
158.0,14471.502837121825,2313.964344735664,-62556.87773905727,-60132.942811601504,-35828.77347812337,-33329.6696340644,-21298.083221683886,-22063.31754485578,0.0,0.0,0.0,193.0,1.0,154.0,0.0,2.0,3.0,250.0,410.0,2.0,1018.0,1744252718.1304305,0.0,2025-04-09 22:38:38.130,FORWARD,18
159.0,14394.501077473293,2297.334646860915,-62599.278998288995,-60150.66774495456,-35862.6140192287,-33364.00191354775,-20957.80026409629,-22080.349574130723,0.0,0.0,0.0,193.0,1.0,155.0,0.0,2.0,3.0,251.0,411.0,2.0,1019.0,1744252718.130439,0.0,2025-04-09 22:38:38.130,FORWARD,18
160.0,14342.488568125793,2253.793448661977,-62624.20119335666,-60175.724050488956,-35903.92004298211,-33402.066934355134,-21047.78838727336,-22116.022958281395,0.0,0.0,0.0,193.0,1.0,154.0,0.0,2.0,3.0,250.0,410.0,2.0,1018.0,1744252718.1304474,0.0,2025-04-09 22:38:38.130,FORWARD,18
161.0,14467.591281842148,2275.988730906097,-62624.69293173468,-60141.83880589472,-35937.26884570943,-33434.67812951543,-20790.944491737428,-22150.154072064648,0.0,0.0,0.0,193.0,1.0,155.0,0.0,2.0,3.0,252.0,411.0,2.0,1020.0,1744252718.130456,0.0,2025-04-09 22:38:38.130,FORWARD,18
162.0,14470.966395254898,2298.9663242061524,-62574.468561943606,-60155.29455605681,-35848.53242022186,-33340.64434059195,-21315.629341081305,-22076.84035025124,0.0,0.0,0.0,193.0,1.0,154.0,0.0,2.0,3.0,250.0,410.0,2.0,1018.0,1744252718.1304643,0.0,2025-04-09 22:38:38.130,FORWARD,18
163.0,14415.869345172567,2309.114016188862,-62582.984576581075,-60126.371398731644,-35852.77925166837,-33353.69775935385,-20985.24820628741,-22077.84617875173,0.0,0.0,0.0,193.0,1.0,155.0,0.0,2.0,3.0,252.0,411.0,2.0,1020.0,1744252718.130473,0.0,2025-04-09 22:38:38.130,FORWARD,18
164.0,14338.55466110166,2266.9809778906083,-62626.615181757836,-60186.02820468286,-35896.47691207849,-33394.7802656627,-21084.154675502145,-22116.917028059608,0.0,0.0,0.0,193.0,1.0,155.0,0.0,2.0,3.0,251.0,411.0,2.0,1019.0,1744252718.1304815,0.0,2025-04-09 22:38:38.130,FORWARD,18
165.0,14435.158900637496,2263.0917743553846,-62639.98152494211,-60146.33150653023,-35954.032654050905,-33448.75972852227,-20778.53927356473,-22154.803234911353,0.0,0.0,0.0,193.0,1.0,155.0,0.0,2.0,3.0,252.0,411.0,2.0,1020.0,1744252718.1304948,0.0,2025-04-09 22:38:38.130,FORWARD,18
166.0,14464.43968587395,2280.794355963988,-62613.025321129004,-60196.488821087936,-35880.227193859486,-33370.99800956226,-21279.35245983034,-22101.449620896536,0.0,0.0,0.0,193.0,1.0,155.0,0.0,2.0,3.0,251.0,411.0,2.0,1019.0,1744252718.1305037,0.0,2025-04-09 22:38:38.130,FORWARD,18
167.0,14414.28237131624,2302.1402719188063,-62591.232370285084,-60134.820358135745,-35854.634446458156,-33358.726901856295,-21018.44054680354,-22077.26503339589,0.0,0.0,0.0,193.0,1.0,155.0,0.0,2.0,3.0,250.0,411.0,2.0,1018.0,1744252718.1305125,0.0,2025-04-09 22:38:38.130,FORWARD,18
168.0,14342.60032684807,2278.0450913959853,-62624.87174569032,-60193.560742564296,-35882.86469970521,-33377.547070687666,-21069.737800328472,-22091.36898414719,0.0,0.0,0.0,193.0,1.0,155.0,0.0,2.0,3.0,252.0,411.0,2.0,1020.0,1744252718.130521,0.0,2025-04-09 22:38:38.130,FORWARD,18
169.0,14419.624438241059,2267.9421029021864,-62620.803728199455,-60127.33252374322,-35932.26205495144,-33428.6878620014,-20800.667500575484,-22132.742063133963,0.0,0.0,0.0,193.0,1.0,155.0,0.0,2.0,3.0,249.0,411.0,2.0,1017.0,1744252718.1305296,0.0,2025-04-09 22:38:38.130,FORWARD,18
170.0,14489.183066985974,2294.697141015189,-62602.072966345906,-60180.77554473586,-35874.14751936764,-33365.11950077051,-21179.7977900264,-22085.959861989006,0.0,0.0,0.0,193.0,1.0,155.0,0.0,2.0,3.0,250.0,411.0,2.0,1018.0,1744252718.1305382,0.0,2025-04-09 22:38:38.130,FORWARD,18
171.0,14444.948964708921,2317.4065133817808,-62563.9185385607,-60112.4909654249,-35828.92994033455,-33334.63172133347,-21078.0750010103,-22044.229155090947,0.0,0.0,0.0,193.0,1.0,155.0,0.0,2.0,3.0,251.0,411.0,2.0,1019.0,1744252718.1305468,0.0,2025-04-09 22:38:38.130,FORWARD,18
172.0,14364.75090560328,2293.378388092326,-62613.58411474039,-60187.682233772546,-35864.22334482949,-33377.323553243106,-21034.980837700467,-22094.90055977113,0.0,0.0,0.0,193.0,1.0,154.0,0.0,2.0,3.0,249.0,410.0,2.0,1017.0,1744252718.1305556,0.0,2025-04-09 22:38:38.130,FORWARD,18
173.0,14395.618664696058,2267.9644546466416,-62620.89313517728,-60143.4481314955,-35924.43894439208,-33437.33798710561,-20869.980260131393,-22152.411598254635,0.0,0.0,0.0,193.0,1.0,155.0,0.0,2.0,3.0,251.0,411.0,2.0,1019.0,1744252718.1305647,0.0,2025-04-09 22:38:38.130,FORWARD,18
174.0,14490.702985608934,2291.478489813625,-62620.08847237688,-60187.39166109463,-35900.85785399173,-33394.64615519597,-21056.751436799936,-22119.241609482957,0.0,0.0,0.0,193.0,1.0,154.0,0.0,2.0,3.0,249.0,410.0,2.0,1017.0,1744252718.1305735,0.0,2025-04-09 22:38:38.130,FORWARD,18
175.0,14436.790577982734,2298.474585828136,-62581.46465795812,-60135.736779658415,-35849.49354523344,-33348.46745115131,-21170.85709224428,-22066.916175713086,0.0,0.0,0.0,193.0,1.0,155.0,0.0,2.0,3.0,251.0,411.0,2.0,1019.0,1744252718.130582,0.0,2025-04-09 22:38:38.130,FORWARD,18
176.0,14366.539045159703,2292.0372834250074,-62629.20798411465,-60192.06317568579,-35883.4681968055,-33385.146663802465,-21014.81956420178,-22106.47876339898,0.0,0.0,0.0,193.0,1.0,155.0,0.0,2.0,3.0,252.0,411.0,2.0,1020.0,1744252718.130591,0.0,2025-04-09 22:38:38.130,FORWARD,18
177.0,14371.03174579522,2264.0305476225076,-62630.951420182166,-60160.278995070345,-35925.28831068138,-33429.067841657146,-20957.599098396196,-22139.76051089293,0.0,0.0,0.0,193.0,1.0,155.0,0.0,2.0,3.0,249.0,411.0,2.0,1017.0,1744252718.1305993,0.0,2025-04-09 22:38:38.130,FORWARD,18
178.0,14488.132534996574,2283.5659722764462,-62629.07387364792,-60179.702661002004,-35920.59444434577,-33422.87640844302,-20941.707008088473,-22134.61960966821,0.0,0.0,0.0,193.0,1.0,155.0,0.0,2.0,3.0,252.0,411.0,2.0,1020.0,1744252718.130608,0.0,2025-04-09 22:38:38.130,FORWARD,18
179.0,14457.801217770722,2307.214117910161,-62563.58326239387,-60132.942811601504,-35831.03100431335,-33337.537448112664,-21250.272840293987,-22051.225251105458,0.0,0.0,0.0,193.0,1.0,155.0,0.0,2.0,3.0,250.0,411.0,2.0,1018.0,1744252718.613361,0.0,2025-04-09 22:38:38.613,FORWARD,18
180.0,14386.879132614033,2301.7379405186107,-62606.275094303506,-60166.358669562185,-35863.75395819592,-33369.79101536167,-20973.87116835966,-22088.75383004592,0.0,0.0,0.0,193.0,1.0,155.0,0.0,2.0,3.0,252.0,411.0,2.0,1020.0,1744252718.613433,0.0,2025-04-09 22:38:38.613,FORWARD,18
181.0,14345.371943160528,2257.727355686111,-62628.82800445891,-60177.132210389645,-35914.20184543155,-33418.204893851864,-21029.77288124238,-22138.32999924779,0.0,0.0,0.0,193.0,1.0,154.0,0.0,2.0,3.0,250.0,410.0,2.0,1018.0,1744252718.613453,0.0,2025-04-09 22:38:38.613,FORWARD,18
182.0,14472.374555155582,2284.147117632284,-62622.63657124479,-60157.19445433551,-35923.410764147135,-33427.1902951229,-20845.929783097483,-22153.015095354927,0.0,0.0,0.0,193.0,1.0,155.0,0.0,2.0,3.0,252.0,411.0,2.0,1020.0,1744252718.6134732,0.0,2025-04-09 22:38:38.613,FORWARD,18
183.0,14470.832284788166,2317.607679081879,-62553.972012278085,-60135.15563430257,-35819.72102161897,-33312.59290130054,-21295.713936771626,-22051.918155183575,0.0,0.0,0.0,193.0,1.0,155.0,0.0,2.0,3.0,252.0,411.0,2.0,1020.0,1744252718.6134913,0.0,2025-04-09 22:38:38.613,FORWARD,18
184.0,14395.641016440513,2304.6436672978007,-62590.91944586271,-60144.968050118456,-35850.58878071175,-33347.50632613973,-20946.020894768346,-22062.691696011032,0.0,0.0,0.0,193.0,1.0,154.0,0.0,2.0,3.0,249.0,410.0,2.0,1017.0,1744252718.6135087,0.0,2025-04-09 22:38:38.613,FORWARD,18
185.0,14334.55369884416,2254.307538784449,-62620.91548692173,-60184.21771338198,-35892.20772888753,-33392.58979470609,-21055.656201321628,-22108.602179122234,0.0,0.0,0.0,193.0,1.0,155.0,0.0,2.0,3.0,252.0,411.0,2.0,1020.0,1744252718.6135263,0.0,2025-04-09 22:38:38.613,FORWARD,18
186.0,14451.922708978977,2263.3152917999378,-62620.89313517728,-60143.31402102876,-35928.05992699384,-33427.033832911715,-20767.609270526085,-22128.22701075399,0.0,0.0,0.0,193.0,1.0,155.0,0.0,2.0,3.0,248.0,411.0,2.0,1016.0,1744252718.6135352,0.0,2025-04-09 22:38:38.613,FORWARD,18
187.0,14471.838113288655,2292.4172630807475,-62569.95350956363,-60160.211939836976,-35835.72487064897,-33330.04961372013,-21289.723669257604,-22047.201937103502,0.0,0.0,0.0,193.0,1.0,154.0,0.0,2.0,3.0,251.0,410.0,2.0,1019.0,1744252718.6135442,0.0,2025-04-09 22:38:38.613,FORWARD,18
188.0,14418.61860974057,2307.527042332535,-62575.42968695518,-60123.75624463037,-35838.3623764947,-33345.76289007222,-20973.06650555927,-22063.65282102261,0.0,0.0,0.0,193.0,1.0,155.0,0.0,2.0,3.0,251.0,411.0,2.0,1019.0,1744252718.6135528,0.0,2025-04-09 22:38:38.613,FORWARD,18
189.0,14338.331143657106,2268.724413958122,-62618.568553753925,-60186.072908171765,-35881.16596712661,-33389.058219082144,-21075.03516376438,-22116.33588270377,0.0,0.0,0.0,193.0,1.0,155.0,0.0,2.0,3.0,250.0,411.0,2.0,1018.0,1744252718.613562,0.0,2025-04-09 22:38:38.613,FORWARD,18
190.0,14429.392150568028,2264.6116929783457,-62622.79303345598,-60129.83591912221,-35935.503057897455,-33441.87539123004,-20772.34784035061,-22147.248345285458,0.0,0.0,0.0,193.0,1.0,155.0,0.0,2.0,3.0,252.0,411.0,2.0,1020.0,1744252718.6135707,0.0,2025-04-09 22:38:38.613,FORWARD,18
191.0,14479.460058147915,2293.110167158862,-62592.46171623012,-60171.946605676014,-35859.95416163852,-33360.068006523616,-21249.624639704783,-22080.93071948656,0.0,0.0,0.0,193.0,1.0,155.0,0.0,2.0,3.0,252.0,411.0,2.0,1020.0,1744252718.6135798,0.0,2025-04-09 22:38:38.613,FORWARD,18
192.0,14420.406749296993,2297.7146265166552,-62582.828114369884,-60119.48706143941,-35844.73262366446,-33362.07966352459,-21024.63198001766,-22065.46331232349,0.0,0.0,0.0,193.0,1.0,155.0,0.0,2.0,3.0,251.0,411.0,2.0,1019.0,1744252718.613593,0.0,2025-04-09 22:38:38.613,FORWARD,18
193.0,14349.909347284956,2278.5815332629127,-62620.55785901045,-60182.56368429228,-35867.978437897975,-33387.31478301463,-21064.88747178167,-22089.826713779774,0.0,0.0,0.0,193.0,1.0,154.0,0.0,2.0,3.0,250.0,410.0,2.0,1018.0,1744252718.6136055,0.0,2025-04-09 22:38:38.613,FORWARD,18
194.0,14410.90725790349,2272.010120393052,-62623.35182706736,-60119.28589573931,-35922.851970535754,-33443.171792408444,-20818.437137417455,-22131.11038578873,0.0,0.0,0.0,193.0,1.0,155.0,0.0,2.0,3.0,252.0,411.0,2.0,1020.0,1744252718.613618,0.0,2025-04-09 22:38:38.613,FORWARD,18
195.0,14482.34343318265,2287.008140922563,-62619.44027178768,-60176.32754758925,-35882.23885086046,-33399.272966298224,-21150.025266411933,-22106.255245954424,0.0,0.0,0.0,193.0,1.0,155.0,0.0,2.0,3.0,249.0,411.0,2.0,1017.0,1744252718.6136367,0.0,2025-04-09 22:38:38.613,FORWARD,18
196.0,14437.416426827482,2304.867184742354,-62571.182855508676,-60094.60956986065,-35823.18554200954,-33351.61904711951,-21107.624007180217,-22046.21846034747,0.0,0.0,0.0,193.0,1.0,155.0,0.0,2.0,3.0,251.0,411.0,2.0,1019.0,1744252718.613646,0.0,2025-04-09 22:38:38.613,FORWARD,18
197.0,14360.057039267665,2287.7904519784993,-62616.22162058612,-60156.25568106839,-35850.38761501165,-33383.269117268224,-21025.324884095775,-22083.27765265437,0.0,0.0,0.0,193.0,1.0,154.0,0.0,2.0,3.0,250.0,410.0,2.0,1018.0,1744252718.6136549,0.0,2025-04-09 22:38:38.613,FORWARD,18
198.0,14379.614815666058,2253.502875984058,-62628.20215561416,-60112.75918635836,-35914.4253628761,-33432.86763821455,-20893.13666738709,-22111.642016368154,0.0,0.0,0.0,193.0,1.0,155.0,0.0,2.0,3.0,252.0,411.0,2.0,1020.0,1744252718.6136637,0.0,2025-04-09 22:38:38.613,FORWARD,18
199.0,14489.495991408348,2283.990655421097,-62623.24006834508,-60142.55406171728,-35891.403066087136,-33399.80940816515,-21016.63005550266,-22080.304870641812,0.0,0.0,0.0,193.0,1.0,154.0,0.0,2.0,3.0,250.0,410.0,2.0,1018.0,1744252718.6136725,0.0,2025-04-09 22:38:38.613,FORWARD,18
200.0,14455.610746814102,2313.025571468541,-62562.82330308239,-60075.968214984925,-35812.27789071535,-33332.508305610216,-21184.469304617563,-22022.12327982465,0.0,0.0,0.0,193.0,1.0,155.0,0.0,2.0,3.0,252.0,411.0,2.0,1020.0,1744252718.613685,0.0,2025-04-09 22:38:38.613,FORWARD,18
201.0,14391.237722782818,2316.1101122033733,-62598.519038977516,-60112.64742763608,-35833.1097165477,-33351.529640141685,-20984.95763360949,-22044.027989390852,0.0,0.0,0.0,193.0,1.0,154.0,0.0,2.0,3.0,251.0,410.0,2.0,1019.0,1744252718.6136937,0.0,2025-04-09 22:38:38.613,FORWARD,18
202.0,14378.854856354577,2283.431861809714,-62611.10307110585,-60091.07799423671,-35883.6693625056,-33396.054315096655,-20956.63797338462,-22092.4642196255,0.0,0.0,0.0,193.0,1.0,154.0,0.0,2.0,3.0,250.0,410.0,2.0,1018.0,1744252718.6137028,0.0,2025-04-09 22:38:38.613,FORWARD,18
203.0,14491.842924576154,2301.3579608628706,-62628.068045147425,-60110.792232846296,-35907.25045290595,-33407.49840825777,-20888.308690584745,-22112.469030913002,0.0,0.0,0.0,193.0,1.0,155.0,0.0,2.0,3.0,251.0,411.0,2.0,1019.0,1744252718.613712,0.0,2025-04-09 22:38:38.613,FORWARD,18
204.0,14459.410543371505,2311.460949356669,-62574.51326543251,-60081.15381969856,-35824.97368156596,-33321.332433382566,-21261.44871252164,-22025.118413581662,0.0,0.0,0.0,193.0,1.0,154.0,0.0,2.0,3.0,249.0,410.0,2.0,1017.0,1744252718.613721,0.0,2025-04-09 22:38:38.613,FORWARD,18
205.0,14390.924798360444,2301.290905629505,-62611.55010599496,-60104.04200602079,-35850.231152800465,-33357.74342510026,-20960.571880408752,-22057.55079478631,0.0,0.0,0.0,193.0,1.0,155.0,0.0,2.0,3.0,251.0,411.0,2.0,1019.0,1744252718.6137297,0.0,2025-04-09 22:38:38.613,FORWARD,18
206.0,14359.006507278265,2273.977073905119,-62617.27215257552,-60103.81848857624,-35879.40017931464,-33382.44210272338,-21032.45509057702,-22078.807303763308,0.0,0.0,0.0,193.0,1.0,155.0,0.0,2.0,3.0,251.0,411.0,2.0,1019.0,1744252718.6137385,0.0,2025-04-09 22:38:38.613,FORWARD,18
207.0,14475.906130779522,2286.0917193998957,-62633.030132416505,-60093.26846519333,-35921.06383097933,-33418.80839095216,-20790.855084759605,-22110.14444948965,0.0,0.0,0.0,193.0,1.0,154.0,0.0,2.0,3.0,250.0,410.0,2.0,1018.0,1744252718.6137471,0.0,2025-04-09 22:38:38.613,FORWARD,18
208.0,14467.300709164228,2301.536774818513,-62585.73384114908,-60099.392843174086,-35834.33906249274,-33329.13319219747,-21298.194980406166,-22040.07173062226,0.0,0.0,0.0,193.0,1.0,155.0,0.0,2.0,3.0,251.0,411.0,2.0,1019.0,1744252718.613756,0.0,2025-04-09 22:38:38.613,FORWARD,18
209.0,14403.754699677791,2304.800129508988,-62605.269265803014,-60087.904046524054,-35845.98432135395,-33353.45189016484,-20961.77887460934,-22062.915213455584,0.0,0.0,0.0,193.0,1.0,154.0,0.0,2.0,3.0,249.0,410.0,2.0,1017.0,1744252718.6137648,0.0,2025-04-09 22:38:38.613,FORWARD,18
210.0,14351.429265907916,2280.2355623526055,-62619.328513065404,-60116.82720384922,-35866.637333230654,-33371.64621015146,-21072.911748041126,-22078.85200725222,0.0,0.0,0.0,193.0,1.0,155.0,0.0,2.0,3.0,252.0,411.0,2.0,1020.0,1744252718.6137784,0.0,2025-04-09 22:38:38.613,FORWARD,18
211.0,14476.554331368725,2306.2306411541276,-62608.085585604385,-60056.812769986725,-35901.93073772559,-33393.70738192885,-20761.239023356324,-22086.049268966828,0.0,0.0,0.0,193.0,1.0,154.0,0.0,2.0,3.0,251.0,410.0,2.0,1019.0,1744252718.6137874,0.0,2025-04-09 22:38:38.613,FORWARD,18
212.0,14493.34049145466,2322.7485803065993,-62572.74747762054,-60096.33065418371,-35820.0562977858,-33310.80476174412,-21264.846177678846,-22020.49160247941,0.0,0.0,0.0,193.0,1.0,155.0,0.0,2.0,3.0,250.0,411.0,2.0,1018.0,1744252718.6137962,0.0,2025-04-09 22:38:38.613,FORWARD,18
213.0,14421.256115586295,2316.9371267482197,-62585.15269579324,-60065.99933695786,-35829.19816126802,-33325.84748576254,-20971.256014258386,-22018.524648967345,0.0,0.0,0.0,193.0,1.0,155.0,0.0,2.0,3.0,251.0,411.0,2.0,1019.0,1744252718.6138048,0.0,2025-04-09 22:38:38.613,FORWARD,18
214.0,14352.41274266395,2287.6786932562227,-62616.333379308395,-60122.54925042978,-35854.92501913608,-33348.04276800666,-21061.534710113374,-22046.21846034747,0.0,0.0,0.0,193.0,1.0,154.0,0.0,2.0,3.0,250.0,410.0,2.0,1018.0,1744252718.6138136,0.0,2025-04-09 22:38:38.613,FORWARD,18
215.0,14434.71186574839,2279.542658274491,-62622.63657124479,-60070.8273137602,-35912.950147742056,-33407.386649535496,-20762.222500112355,-22097.918045272596,0.0,0.0,0.0,193.0,1.0,155.0,0.0,2.0,3.0,252.0,411.0,2.0,1020.0,1744252718.6138222,0.0,2025-04-09 22:38:38.613,FORWARD,18
216.0,14493.854581577132,2309.6728098002445,-62594.36161450882,-60118.50358468337,-35842.184524796554,-33329.2673026642,-21201.747203081515,-22039.02119863286,0.0,0.0,0.0,193.0,1.0,154.0,0.0,2.0,3.0,249.0,410.0,2.0,1017.0,1744252718.6138313,0.0,2025-04-09 22:38:38.613,FORWARD,18
217.0,14444.703095519913,2326.302507674993,-62567.450114184634,-60053.862339718624,-35814.4013064386,-33313.911654223404,-21030.331674853765,-22011.483849463923,0.0,0.0,0.0,193.0,1.0,155.0,0.0,2.0,3.0,252.0,411.0,2.0,1020.0,1744252718.6138399,0.0,2025-04-09 22:38:38.613,FORWARD,18
218.0,14360.74994334578,2293.087815414407,-62617.89800142026,-60131.98168658993,-35851.92988537907,-33348.95918952933,-21030.108157409213,-22050.711160982988,0.0,0.0,0.0,193.0,1.0,154.0,0.0,2.0,3.0,250.0,410.0,2.0,1018.0,1744252718.6138484,0.0,2025-04-09 22:38:38.613,FORWARD,18
219.0,14409.65556021399,2272.0324721375077,-62619.66378923223,-60077.286967907785,-35905.954051727545,-33404.39151577849,-20824.047425275734,-22096.845161538742,0.0,0.0,0.0,193.0,1.0,155.0,0.0,2.0,3.0,252.0,411.0,2.0,1020.0,1744252718.6138573,0.0,2025-04-09 22:38:38.613,FORWARD,18
220.0,14494.525133910793,2297.379350349826,-62612.980617640096,-60128.56186968826,-35868.00078964243,-33359.33039895659,-21093.69887038456,-22065.3068501123,0.0,0.0,0.0,193.0,1.0,155.0,0.0,2.0,3.0,252.0,411.0,2.0,1020.0,1744252718.613866,0.0,2025-04-09 22:38:38.613,FORWARD,18
221.0,14434.376589581561,2304.017818453052,-62580.95056783564,-60076.83993301868,-35826.02421355536,-33331.256607920724,-21123.158469576654,-22036.13782359813,0.0,0.0,0.0,193.0,1.0,154.0,0.0,2.0,3.0,250.0,410.0,2.0,1018.0,1744252718.6138744,0.0,2025-04-09 22:38:38.613,FORWARD,18
222.0,14357.710106099858,2285.756443233066,-62629.38679807029,-60145.459788496475,-35860.13297559416,-33365.097149026056,-21013.567866512283,-22070.89478622613,0.0,0.0,0.0,193.0,1.0,155.0,0.0,2.0,3.0,252.0,411.0,2.0,1020.0,1744252718.6138835,0.0,2025-04-09 22:38:38.613,FORWARD,18
223.0,14368.014260293754,2254.419297506726,-62632.71720799413,-60108.35589270067,-35907.831598261786,-33410.15826584795,-20914.303769386264,-22100.823772051786,0.0,0.0,0.0,193.0,1.0,154.0,0.0,2.0,3.0,250.0,410.0,2.0,1018.0,1744252718.6138923,0.0,2025-04-09 22:38:38.613,FORWARD,18
224.0,14484.109220994618,2285.1082426438625,-62634.32653359492,-60137.50256747039,-35900.94726096955,-33393.99795460677,-20984.175322553554,-22099.303853428824,0.0,0.0,0.0,193.0,1.0,154.0,0.0,2.0,3.0,250.0,410.0,2.0,1018.0,1744252718.6139011,0.0,2025-04-09 22:38:38.613,FORWARD,18
225.0,14451.162749667497,2307.1917661657058,-62577.91073058972,-60086.20531394545,-35819.02811754085,-33323.92523573938,-21214.510049165496,-22027.68886419402,0.0,0.0,0.0,193.0,1.0,154.0,0.0,2.0,3.0,251.0,410.0,2.0,1019.0,1744252718.6139145,0.0,2025-04-09 22:38:38.613,FORWARD,18
226.0,14370.070620783643,2292.305504358471,-62630.45968180415,-60136.83201513672,-35851.77342316788,-33368.89694558346,-20849.617820932606,-22066.849120479717,0.0,0.0,0.0,193.0,1.0,154.0,0.0,2.0,3.0,249.0,410.0,2.0,1017.0,1744252718.6139233,0.0,2025-04-09 22:38:38.613,FORWARD,18
227.0,14347.651821094969,2253.368765517326,-62636.338190595896,-60122.884526596616,-35892.38654284317,-33405.75497219026,-20766.312869347676,-22102.880132541675,0.0,0.0,0.0,193.0,1.0,155.0,0.0,2.0,3.0,251.0,411.0,2.0,1019.0,1744252718.613932,0.0,2025-04-09 22:38:38.613,FORWARD,18
228.0,14479.013023258809,2282.9401234316974,-62628.11274863634,-60114.1896980035,-35899.40499060214,-33408.66069896945,-20629.56489677011,-22113.251341968935,0.0,0.0,0.0,193.0,1.0,154.0,0.0,2.0,3.0,249.0,410.0,2.0,1017.0,1744252718.6139407,0.0,2025-04-09 22:38:38.613,FORWARD,18
229.0,14456.303650892218,2300.1286149178286,-62570.892282830755,-60093.69314833798,-35806.868768557164,-33319.1643141704,-21033.907953966613,-22038.752977699398,0.0,0.0,0.0,193.0,1.0,155.0,0.0,2.0,3.0,251.0,411.0,2.0,1019.0,1744252718.6139493,0.0,2025-04-09 22:38:38.613,FORWARD,18
230.0,14379.614815666058,2282.7389577316,-62611.639512972775,-60115.48609918191,-35837.71417590549,-33352.24489596426,-20702.208066249856,-22061.328239599257,0.0,0.0,0.0,193.0,1.0,154.0,0.0,2.0,3.0,249.0,410.0,2.0,1017.0,1744252718.6139588,0.0,2025-04-09 22:38:38.613,FORWARD,18
231.0,14330.731550542301,2249.0101753485415,-62626.92810618021,-60132.160500545564,-35872.49349027795,-33382.352695745554,-20790.229235914856,-22086.94333874504,0.0,0.0,0.0,193.0,1.0,155.0,0.0,2.0,3.0,252.0,411.0,2.0,1020.0,1744252718.6139677,0.0,2025-04-09 22:38:38.613,FORWARD,18
232.0,14442.311458863194,2250.7312596716,-62638.05927491895,-60111.194564246485,-35917.01816523292,-33424.26221659925,-20541.20845093828,-22123.84606884075,0.0,0.0,0.0,193.0,1.0,154.0,0.0,2.0,3.0,249.0,410.0,2.0,1017.0,1744252718.613976,0.0,2025-04-09 22:38:38.613,FORWARD,18
233.0,14454.04612470223,2280.2802658415158,-62575.83201835537,-60110.45695667946,-35813.01549828237,-33316.996194958236,-21055.052704221333,-22034.774367186354,0.0,0.0,0.0,193.0,1.0,155.0,0.0,2.0,3.0,253.0,411.0,2.0,1021.0,1744252718.6139846,0.0,2025-04-09 22:38:38.613,FORWARD,18
234.0,14376.664385397959,2272.5912657488902,-62599.68132968919,-60095.83891580569,-35831.47803920246,-33345.6734830944,-20709.830011109116,-22052.096969139217,0.0,0.0,0.0,193.0,1.0,155.0,0.0,2.0,3.0,249.0,411.0,2.0,1017.0,1744252718.6139932,0.0,2025-04-09 22:38:38.613,FORWARD,18
235.0,14306.032872919188,2228.8712535943096,-62624.31295207894,-60140.7435704164,-35862.949295395534,-33376.45183520935,-20823.935666553458,-22084.931681744063,0.0,0.0,0.0,193.0,1.0,154.0,0.0,2.0,3.0,250.0,410.0,2.0,1018.0,1744252718.614002,0.0,2025-04-09 22:38:38.614,FORWARD,18
236.0,14417.18809809543,2240.1588845442398,-62622.122481122315,-60086.60764534565,-35910.53615934088,-33422.205856109365,-20518.58848554951,-22124.695435130052,0.0,0.0,0.0,193.0,1.0,155.0,0.0,2.0,3.0,252.0,411.0,2.0,1020.0,1744252718.6140106,0.0,2025-04-09 22:38:38.614,FORWARD,18
237.0,14452.10152293462,2271.674844226223,-62587.47727721659,-60123.55507893027,-35831.8580188582,-33332.91063701041,-21023.045006161334,-22060.12124539867,0.0,0.0,0.0,193.0,1.0,155.0,0.0,2.0,3.0,249.0,411.0,2.0,1017.0,1744252718.6140192,0.0,2025-04-09 22:38:38.614,FORWARD,18
238.0,14393.875228628545,2274.8711436833314,-62586.31498650491,-60077.75635454135,-35828.77347812337,-33338.1185934685,-20766.648145514508,-22055.628544763156,0.0,0.0,0.0,193.0,1.0,156.0,0.0,2.0,3.0,253.0,412.0,2.0,1021.0,1744252718.6140277,0.0,2025-04-09 22:38:38.614,FORWARD,18
239.0,14316.717006768824,2242.952852601153,-62628.89505969227,-60148.387867020116,-35864.44686227404,-33372.83085260759,-20839.000742316337,-22095.057021982317,0.0,0.0,0.0,193.0,1.0,154.0,0.0,2.0,3.0,250.0,410.0,2.0,1018.0,1744252718.6140363,0.0,2025-04-09 22:38:38.614,FORWARD,18
240.0,14396.199810051896,2241.4552857226477,-62624.46941429012,-60084.774802300315,-35909.73149654049,-33421.75882122026,-20563.291974460124,-22126.483574686477,0.0,0.0,0.0,193.0,1.0,155.0,0.0,2.0,3.0,252.0,411.0,2.0,1020.0,1744252718.6140497,0.0,2025-04-09 22:38:38.614,FORWARD,18
241.0,14458.024735215276,2264.768155189533,-62608.17499258221,-60138.21782329295,-35852.55573422381,-33357.2740384667,-20929.03356898231,-22064.03280067835,0.0,0.0,0.0,193.0,1.0,154.0,0.0,2.0,3.0,250.0,410.0,2.0,1018.0,1744252718.6140585,0.0,2025-04-09 22:38:38.614,FORWARD,18
242.0,14401.832449654634,2269.5961319918792,-62582.89516960325,-60078.628072575106,-35827.81235311179,-33334.743480055746,-20816.82781181667,-22029.78992817282,0.0,0.0,0.0,193.0,1.0,154.0,0.0,2.0,3.0,249.0,410.0,2.0,1017.0,1744252718.6140668,0.0,2025-04-09 22:38:38.614,FORWARD,18
243.0,14334.799568033168,2257.1238585858177,-62619.39556829877,-60137.45786398147,-35854.634446458156,-33351.239067463765,-20801.963901753894,-22061.149425643616,0.0,0.0,0.0,193.0,1.0,155.0,0.0,2.0,3.0,252.0,411.0,2.0,1020.0,1744252718.6140757,0.0,2025-04-09 22:38:38.614,FORWARD,18
244.0,14372.261091740262,2236.7837711314883,-62618.90382992075,-60085.1324302116,-35904.63529880468,-33399.36237327604,-20618.858411176017,-22100.33203367377,0.0,0.0,0.0,193.0,1.0,154.0,0.0,2.0,3.0,249.0,410.0,2.0,1017.0,1744252718.614084,0.0,2025-04-09 22:38:38.614,FORWARD,18
245.0,14467.479523119871,2267.9644546466416,-62619.17205085421,-60136.69790466999,-35881.72476073799,-33369.008704305736,-20815.084375749157,-22083.65763231011,0.0,0.0,0.0,193.0,1.0,155.0,0.0,2.0,3.0,252.0,411.0,2.0,1020.0,1744252718.6140924,0.0,2025-04-09 22:38:38.614,FORWARD,18
246.0,14416.495194017316,2279.2520855965718,-62575.18381776617,-60080.34915689816,-35823.96785306548,-33318.15848566991,-20899.84219072368,-22027.13007058264,0.0,0.0,0.0,193.0,1.0,155.0,0.0,2.0,3.0,251.0,411.0,2.0,1019.0,1744252718.6141012,0.0,2025-04-09 22:38:38.614,FORWARD,18
247.0,14346.422475149928,2269.5514285029685,-62617.54037350898,-60134.619192435646,-35846.85603938771,-33346.18757321687,-20738.037912611715,-22060.098893654216,0.0,0.0,0.0,193.0,1.0,155.0,0.0,2.0,3.0,250.0,411.0,2.0,1018.0,1744252718.6141095,0.0,2025-04-09 22:38:38.614,FORWARD,18
248.0,14343.650858837469,2232.603994918346,-62628.53743178099,-60111.976875302425,-35901.28253713638,-33402.58102447761,-20678.068182238127,-22110.23385646747,0.0,0.0,0.0,193.0,1.0,155.0,0.0,2.0,3.0,252.0,411.0,2.0,1020.0,1744252718.614118,0.0,2025-04-09 22:38:38.614,FORWARD,18
249.0,14462.539787595248,2264.0752511114183,-62630.86201320434,-60133.61336393516,-35904.5235400824,-33397.730695930804,-20691.412173677945,-22116.447641426046,0.0,0.0,0.0,193.0,1.0,155.0,0.0,2.0,3.0,249.0,411.0,2.0,1017.0,1744252718.6141264,0.0,2025-04-09 22:38:38.614,FORWARD,18
250.0,14431.873194202566,2281.509611786558,-62569.99821305254,-60089.17809595801,-35820.74920186391,-33315.85625599101,-20997.25109305991,-22040.36230330018,0.0,0.0,0.0,193.0,1.0,155.0,0.0,2.0,3.0,252.0,411.0,2.0,1020.0,1744252718.6141348,0.0,2025-04-09 22:38:38.614,FORWARD,18
251.0,14360.235853223307,2271.4513267816696,-62612.46652751762,-60123.53272718582,-35849.873524889175,-33350.054425007635,-20723.10694731557,-22071.855911237708,0.0,0.0,0.0,193.0,1.0,155.0,0.0,2.0,3.0,251.0,411.0,2.0,1019.0,1744252718.6141434,0.0,2025-04-09 22:38:38.614,FORWARD,18
252.0,14321.83555624909,2232.8498641073543,-62635.5335277955,-60132.54048020131,-35903.11538018172,-33402.58102447761,-20760.836691956127,-22117.833449582275,0.0,0.0,0.0,193.0,1.0,154.0,0.0,2.0,3.0,249.0,410.0,2.0,1017.0,1744252718.614152,0.0,2025-04-09 22:38:38.614,FORWARD,18
253.0,14445.32894436466,2252.564102716935,-62642.57432729892,-60125.47732895343,-35929.423383405614,-33419.23307409681,-20599.904131877916,-22132.2726765004,0.0,0.0,0.0,193.0,1.0,155.0,0.0,2.0,3.0,251.0,411.0,2.0,1019.0,1744252718.6141603,0.0,2025-04-09 22:38:38.614,FORWARD,18
254.0,14444.14430190853,2284.5270972880244,-62571.60753865333,-60100.19750597448,-35821.73267861995,-33310.111857666,-21054.583317587774,-22038.12712885465,0.0,0.0,0.0,193.0,1.0,154.0,0.0,2.0,3.0,249.0,410.0,2.0,1017.0,1744252718.6141691,0.0,2025-04-09 22:38:38.614,FORWARD,18
255.0,14381.760583133768,2285.4882222996025,-62599.39075701127,-60103.594971131686,-35841.51397246289,-33340.063195236115,-20710.791136120693,-22059.74126574293,0.0,0.0,0.0,193.0,1.0,155.0,0.0,2.0,3.0,251.0,411.0,2.0,1019.0,1744252718.6141827,0.0,2025-04-09 22:38:38.614,FORWARD,18
0.0,14318.616905047526,2230.7264483841,-62629.94559168167,-60139.60363144918,-35883.13292063867,-33382.75502714575,-20809.742308824338,-22104.668272098097,0.0,0.0,0.0,193.0,1.0,154.0,0.0,2.0,3.0,250.0,410.0,2.0,1018.0,1744252718.6141913,0.0,2025-04-09 22:38:38.614,FORWARD,18
1.0,14432.990781425331,2245.657413680245,-62635.44412081768,-60104.57844788772,-35921.957900757545,-33423.90458868797,-20539.48736661522,-22142.33096150529,0.0,0.0,0.0,193.0,1.0,155.0,0.0,2.0,3.0,251.0,411.0,2.0,1019.0,1744252718.6141996,0.0,2025-04-09 22:38:38.614,FORWARD,18
2.0,14455.342525880638,2284.750614732577,-62576.92725383369,-60113.67560788103,-35822.44793444251,-33318.672575792385,-21057.48904436696,-22056.790835474832,0.0,0.0,0.0,193.0,1.0,154.0,0.0,2.0,3.0,250.0,410.0,2.0,1018.0,1744252718.614208,0.0,2025-04-09 22:38:38.614,FORWARD,18
3.0,14392.355310005583,2287.946914189686,-62591.12061156281,-60086.13825871209,-35838.63059742816,-33339.05736673562,-20732.494679986798,-22067.005582690905,0.0,0.0,0.0,193.0,1.0,155.0,0.0,2.0,3.0,251.0,411.0,2.0,1019.0,1744252718.6142163,0.0,2025-04-09 22:38:38.614,FORWARD,18
4.0,14322.953143471856,2254.8663323958317,-62619.64143748778,-60138.06136108177,-35868.62663848718,-33364.09132052557,-20836.095015537147,-22087.88211201216,0.0,0.0,0.0,193.0,1.0,154.0,0.0,2.0,3.0,250.0,410.0,2.0,1018.0,1744252718.614225,0.0,2025-04-09 22:38:38.614,FORWARD,18
5.0,14428.118101134074,2261.0130621210415,-62615.26049557454,-60076.97404348541,-35912.34665064176,-33408.0348501247,-20528.311494387566,-22116.738214103963,0.0,0.0,0.0,193.0,1.0,155.0,0.0,1.0,3.0,252.0,411.0,1.0,1020.0,1744252718.6142335,0.0,2025-04-09 22:38:38.614,FORWARD,18
6.0,14476.107296479619,2293.534850303513,-62577.106067789326,-60113.74266311439,-35829.19816126802,-33311.3635553555,-20994.971215125468,-22032.02510261835,0.0,0.0,0.0,193.0,1.0,155.0,0.0,2.0,3.0,251.0,411.0,2.0,1019.0,1744252718.614242,0.0,2025-04-09 22:38:38.614,FORWARD,18
7.0,14412.181307337441,2295.702969515678,-62566.24311998405,-60062.065429933726,-35815.340079705726,-33311.72118326678,-20757.550985521197,-22024.134936825627,0.0,0.0,0.0,193.0,1.0,155.0,0.0,2.0,3.0,250.0,411.0,2.0,1018.0,1744252718.6142504,0.0,2025-04-09 22:38:38.614,FORWARD,18
8.0,14328.652838307959,2261.571855732424,-62615.81928918592,-60139.06718958225,-35856.154365081115,-33352.75898608673,-20799.482858119354,-22073.55464381631,0.0,0.0,0.0,193.0,1.0,155.0,0.0,2.0,3.0,251.0,411.0,2.0,1019.0,1744252718.6142588,0.0,2025-04-09 22:38:38.614,FORWARD,18
9.0,14387.169705291952,2247.4232014922145,-62622.92714392271,-60086.27236917882,-35918.00164198895,-33418.18254210741,-20563.2025674823,-22136.988894580474,0.0,0.0,0.0,193.0,1.0,155.0,0.0,2.0,3.0,250.0,411.0,2.0,1018.0,1744252718.614267,0.0,2025-04-09 22:38:38.614,FORWARD,18
10.0,14466.563101597203,2280.6378937528007,-62604.48695474708,-60131.2440790229,-35862.457557017515,-33355.709416354824,-20904.938388459494,-22093.961786504005,0.0,0.0,0.0,193.0,1.0,155.0,0.0,2.0,3.0,252.0,411.0,2.0,1020.0,1744252718.6142757,0.0,2025-04-09 22:38:38.614,FORWARD,18
11.0,14416.495194017316,2295.9488387046863,-62559.694058858644,-60055.15874089703,-35812.613166882176,-33304.30040410762,-20843.94047784096,-22019.50812572338,0.0,0.0,0.0,193.0,1.0,154.0,0.0,2.0,3.0,249.0,410.0,2.0,1017.0,1744252718.6142845,0.0,2025-04-09 22:38:38.614,FORWARD,18
12.0,14340.879242525012,2278.3580158183595,-62608.13028909329,-60125.454977208974,-35848.33125452176,-33339.50440162473,-20770.984383938838,-22062.08819891074,0.0,0.0,0.0,193.0,1.0,155.0,0.0,2.0,3.0,252.0,411.0,2.0,1020.0,1744252718.6142929,0.0,2025-04-09 22:38:38.614,FORWARD,18
13.0,14361.46519916835,2241.4552857226477,-62618.38973979828,-60088.2840261798,-35907.85395000624,-33401.306975043655,-20636.046902662147,-22115.24064722546,0.0,0.0,0.0,193.0,1.0,154.0,0.0,2.0,3.0,250.0,410.0,2.0,1018.0,1744252718.6143014,0.0,2025-04-09 22:38:38.614,FORWARD,18
14.0,14465.713735307902,2264.9469691451754,-62616.24397233057,-60127.39957897658,-35887.826786974285,-33373.00966656324,-20777.198168897412,-22090.81019053581,0.0,0.0,0.0,193.0,1.0,155.0,0.0,2.0,3.0,252.0,411.0,2.0,1020.0,1744252718.6143148,0.0,2025-04-09 22:38:38.614,FORWARD,18
15.0,14425.212374354885,2287.1646031337505,-62558.48706465806,-60065.57465381321,-35817.23997798443,-33304.70273550782,-20938.197784208987,-22025.766614170865,0.0,0.0,0.0,193.0,1.0,155.0,0.0,2.0,3.0,249.0,411.0,2.0,1017.0,1744252718.6143234,0.0,2025-04-09 22:38:38.614,FORWARD,18
16.0,14352.591556619593,2278.0227396515297,-62604.039919857976,-60118.99532306139,-35845.470231231484,-33337.64920683494,-20742.351799291588,-22057.729608741953,0.0,0.0,0.0,193.0,1.0,155.0,0.0,2.0,3.0,250.0,411.0,2.0,1018.0,1744252718.614332,0.0,2025-04-09 22:38:38.614,FORWARD,18
17.0,14349.529367629215,2253.9052073842536,-62606.49861174806,-60094.02842450481,-35883.088217149765,-33379.26815501072,-20712.914551843947,-22093.827676037276,0.0,0.0,0.0,193.0,1.0,155.0,0.0,2.0,3.0,252.0,411.0,2.0,1020.0,1744252718.6143403,0.0,2025-04-09 22:38:38.614,FORWARD,18
18.0,14476.24140694635,2278.3356640739044,-62611.90773390624,-60106.880677566616,-35896.27574637839,-33379.93870734438,-20647.245126634258,-22103.19305696405,0.0,0.0,0.0,193.0,1.0,154.0,0.0,2.0,3.0,249.0,410.0,2.0,1017.0,1744252718.614349,0.0,2025-04-09 22:38:38.614,FORWARD,18
19.0,14444.613688542091,2295.2782863710268,-62558.867044313796,-60077.89046500808,-35818.04464078482,-33297.10314239301,-21009.0081106434,-22031.198088073503,0.0,0.0,0.0,193.0,1.0,154.0,0.0,2.0,3.0,249.0,410.0,2.0,1017.0,1744252718.6143577,0.0,2025-04-09 22:38:38.614,FORWARD,18
20.0,14372.931644073922,2292.372559591837,-62598.72020467761,-60105.00313103237,-35843.39151899714,-33332.575360843584,-20714.85915361156,-22056.723780241464,0.0,0.0,0.0,193.0,1.0,154.0,0.0,2.0,3.0,250.0,410.0,2.0,1018.0,1744252718.6143663,0.0,2025-04-09 22:38:38.614,FORWARD,18
21.0,14329.144576685976,2247.4232014922145,-62614.8805159188,-60117.788328860806,-35877.85790894722,-33372.294410740666,-20770.15736939399,-22088.70912655701,0.0,0.0,0.0,193.0,1.0,155.0,0.0,2.0,3.0,251.0,411.0,2.0,1019.0,1744252718.6143749,0.0,2025-04-09 22:38:38.614,FORWARD,18
22.0,14448.748761266323,2260.610730720846,-62626.816347457934,-60106.00895953285,-35914.11243845373,-33406.202007079366,-20551.669067343362,-22120.895638572652,0.0,0.0,0.0,193.0,1.0,154.0,0.0,6.0,3.0,250.0,410.0,6.0,1018.0,1744252718.6143835,0.0,2025-04-09 22:38:38.614,FORWARD,18
23.0,14435.67299075997,2279.050919896474,-62581.24114051356,-60112.446261935984,-35830.51691419088,-33318.113782181004,-21052.035218719866,-22055.740303485432,0.0,0.0,0.0,193.0,1.0,155.0,0.0,16.0,3.0,251.0,411.0,16.0,1019.0,1744252718.614392,0.0,2025-04-09 22:38:38.614,FORWARD,18
24.0,14377.156123775974,2286.382292077815,-62591.63470168528,-60093.42492740452,-35831.500390946916,-33324.57343632858,-20718.52483970223,-22046.285515580836,0.0,0.0,0.0,193.0,1.0,154.0,0.0,27.0,3.0,249.0,410.0,27.0,1017.0,1744252718.6144004,0.0,2025-04-09 22:38:38.614,FORWARD,18
25.0,14319.622733548014,2248.1608090592395,-62613.53941125148,-60129.008904577364,-35858.881277904664,-33355.150622743444,-20811.284579191753,-22081.265995653393,0.0,0.0,0.0,193.0,1.0,155.0,0.0,35.0,3.0,252.0,411.0,35.0,1020.0,1744252718.614409,0.0,2025-04-09 22:38:38.614,FORWARD,18
26.0,14425.547650521714,2254.799277162466,-62630.236164359594,-60096.88944779509,-35919.74507805647,-33411.81229493765,-20513.604046535977,-22131.937400333572,0.0,0.0,0.0,193.0,1.0,154.0,0.0,39.0,3.0,249.0,410.0,39.0,1017.0,1744252718.6144176,0.0,2025-04-09 22:38:38.614,FORWARD,18
27.0,14451.185101411951,2287.2316583671163,-62584.43743997067,-60126.41610222055,-35830.24869325742,-33318.56081707011,-21038.802986002327,-22057.304925597302,0.0,0.0,0.0,193.0,1.0,154.0,0.0,39.0,3.0,250.0,410.0,39.0,1018.0,1744252718.6144261,0.0,2025-04-09 22:38:38.614,FORWARD,18
28.0,14398.412632752972,2297.5134608165577,-62577.106067789326,-60079.47743886441,-35821.86678908668,-33326.36157588501,-20731.95823811987,-22058.7577889869,0.0,0.0,0.0,193.0,1.0,155.0,0.0,38.0,3.0,251.0,411.0,38.0,1019.0,1744252718.6144347,0.0,2025-04-09 22:38:38.614,FORWARD,18
29.0,14313.945390456367,2250.150114315762,-62622.278943333506,-60146.912651886065,-35864.73743495195,-33360.470337923805,-20817.65482636152,-22087.233911422958,0.0,0.0,0.0,193.0,1.0,154.0,0.0,38.0,3.0,251.0,410.0,38.0,1019.0,1744252718.6144786,0.0,2025-04-09 22:38:38.614,FORWARD,18
30.0,14397.451507741394,2248.0043468480526,-62629.00681841455,-60093.20140995996,-35926.31649092633,-33419.72481247483,-20533.698264801296,-22135.267810257414,0.0,0.0,0.0,193.0,1.0,155.0,0.0,38.0,3.0,252.0,411.0,38.0,1020.0,1744252718.614488,0.0,2025-04-09 22:38:38.614,FORWARD,18
31.0,14455.744857280835,2272.703024471167,-62601.69298669016,-60141.50352972788,-35859.39536802714,-33344.31002668262,-20976.1510462941,-22083.210597421003,0.0,0.0,0.0,193.0,1.0,154.0,0.0,38.0,3.0,250.0,410.0,38.0,1018.0,1744252718.6144967,0.0,2025-04-09 22:38:38.614,FORWARD,18
32.0,14405.386377023027,2284.370635076837,-62570.62406189729,-60074.425944617506,-35825.46541994398,-33320.88539849346,-20804.1096692216,-22048.498338281912,0.0,0.0,0.0,193.0,1.0,155.0,0.0,39.0,3.0,251.0,411.0,39.0,1019.0,1744252718.6145053,0.0,2025-04-09 22:38:38.614,FORWARD,18
33.0,14329.971591230822,2261.549503987969,-62609.4266902717,-60141.3470675167,-35849.06886208879,-33347.28280869518,-20803.752041310316,-22083.16589393209,0.0,0.0,0.0,193.0,1.0,154.0,0.0,39.0,3.0,250.0,410.0,39.0,1018.0,1744252718.614514,0.0,2025-04-09 22:38:38.614,FORWARD,18
34.0,14373.579844663125,2240.404753733248,-62616.08751011938,-60090.49684888087,-35905.75288602745,-33402.87159715553,-20581.64275665793,-22118.436946682566,0.0,0.0,0.0,193.0,1.0,155.0,0.0,39.0,3.0,252.0,411.0,39.0,1020.0,1744252718.6145225,0.0,2025-04-09 22:38:38.614,FORWARD,18
35.0,14465.490217863347,2279.3191408299376,-62604.68812044718,-60135.42385523604,-35866.12324310819,-33344.37708191598,-20855.764550657816,-22072.392353104635,0.0,0.0,0.0,193.0,1.0,154.0,0.0,39.0,3.0,249.0,410.0,39.0,1017.0,1744252718.6145313,0.0,2025-04-09 22:38:38.614,FORWARD,18
36.0,14415.064682372176,2288.8186322234433,-62567.69598337365,-60074.53770333978,-35821.82208559776,-33305.529750052665,-20876.015231134323,-22033.612076474677,0.0,0.0,0.0,193.0,1.0,155.0,0.0,40.0,3.0,251.0,411.0,40.0,1019.0,1744252718.6145396,0.0,2025-04-09 22:38:38.614,FORWARD,18
37.0,14330.9327162424,2263.2929400554826,-62622.614219500334,-60147.85142515319,-35857.830745915264,-33349.2721139517,-20771.498474061307,-22079.03082120786,0.0,0.0,0.0,193.0,1.0,154.0,0.0,40.0,3.0,250.0,410.0,40.0,1018.0,1744252718.614548,0.0,2025-04-09 22:38:38.614,FORWARD,18
38.0,14354.312640942651,2248.339623014882,-62613.29354206247,-60098.118793740134,-35895.91811846711,-33389.30408827116,-20670.42388563441,-22109.496248900447,0.0,0.0,0.0,193.0,1.0,155.0,0.0,40.0,3.0,252.0,411.0,40.0,1020.0,1744252718.6145568,0.0,2025-04-09 22:38:38.614,FORWARD,18
39.0,14458.784694526756,2267.9421029021864,-62620.06612063243,-60136.653201181085,-35890.95603119803,-33381.12334980051,-20728.4937177293,-22107.931626788573,0.0,0.0,0.0,193.0,1.0,155.0,0.0,40.0,3.0,251.0,411.0,40.0,1019.0,1744252718.6145651,0.0,2025-04-09 22:38:38.614,FORWARD,18
40.0,14419.311513818684,2285.1082426438625,-62565.90784381722,-60094.25194194936,-35817.46349542898,-33316.81738100259,-20960.840101342215,-22047.04547489232,0.0,0.0,0.0,193.0,1.0,155.0,0.0,41.0,3.0,250.0,411.0,41.0,1018.0,1744252718.6145737,0.0,2025-04-09 22:38:38.614,FORWARD,18
41.0,14350.89282404099,2272.5242105155244,-62600.48599248958,-60132.51812845685,-35838.94352185053,-33343.03597724867,-20729.05251134068,-22071.565338559787,0.0,0.0,0.0,193.0,1.0,155.0,0.0,41.0,3.0,252.0,411.0,41.0,1020.0,1744252718.6145835,0.0,2025-04-09 22:38:38.614,FORWARD,18
42.0,14326.149442928963,2232.4698844516142,-62613.69587346267,-60122.035160307314,-35886.15040614014,-33388.722942915316,-20733.880488143026,-22114.23481872497,0.0,0.0,0.0,193.0,1.0,154.0,0.0,41.0,3.0,250.0,410.0,41.0,1018.0,1744252718.614596,0.0,2025-04-09 22:38:38.614,FORWARD,18
43.0,14446.737104265345,2256.2521405520606,-62628.82800445891,-60134.418026735555,-35912.19018843057,-33408.928919902915,-20616.153850096925,-22133.122042789706,0.0,0.0,0.0,193.0,1.0,155.0,0.0,41.0,3.0,252.0,411.0,41.0,1020.0,1744252718.6146107,0.0,2025-04-09 22:38:38.614,FORWARD,18
44.0,14430.42033081297,2276.4134140507476,-62567.85244558483,-60109.40642469006,-35818.24580648492,-33310.40243034392,-21029.035273675356,-22037.45657652099,0.0,0.0,0.0,193.0,1.0,154.0,0.0,41.0,3.0,250.0,410.0,41.0,1018.0,1744252718.6869352,0.0,2025-04-09 22:38:38.686,FORWARD,18
45.0,14360.057039267665,2273.731204716111,-62600.44128900067,-60122.41513996305,-35841.491620718436,-33341.82898304808,-20710.455859953865,-22065.5080158124,0.0,0.0,0.0,193.0,1.0,154.0,0.0,42.0,3.0,249.0,410.0,42.0,1017.0,1744252718.6869648,0.0,2025-04-09 22:38:38.686,FORWARD,18
46.0,14315.822936990613,2239.667146166223,-62614.70170196315,-60136.921422114545,-35872.89582167814,-33376.4294834649,-20792.509113849297,-22096.912216772107,0.0,0.0,0.0,193.0,1.0,155.0,0.0,42.0,3.0,252.0,411.0,42.0,1020.0,1744252718.686976,0.0,2025-04-09 22:38:38.686,FORWARD,18
47.0,14442.087941418642,2257.6155969638344,-62618.859126431846,-60108.84763107868,-35910.64791806316,-33412.16992284893,-20535.754625291185,-22129.05402529884,0.0,0.0,0.0,193.0,1.0,154.0,0.0,42.0,3.0,249.0,410.0,42.0,1017.0,1744252718.6869857,0.0,2025-04-09 22:38:38.686,FORWARD,18
48.0,14441.216223384885,2275.251123339072,-62568.25477698503,-60117.967142816444,-35821.26329198638,-33316.30329088012,-21045.933192483568,-22052.208727861493,0.0,0.0,0.0,193.0,1.0,155.0,0.0,42.0,3.0,252.0,411.0,42.0,1020.0,1744252718.6869955,0.0,2025-04-09 22:38:38.686,FORWARD,18
49.0,14376.03853655321,2280.056748396963,-62590.38300399578,-60103.81848857624,-35839.8599433732,-33345.04763424965,-20713.316883244144,-22079.23198690796,0.0,0.0,0.0,193.0,1.0,154.0,0.0,42.0,3.0,249.0,410.0,42.0,1017.0,1744252718.6870046,0.0,2025-04-09 22:38:38.687,FORWARD,18
50.0,14318.438091091883,2248.4290299927034,-62608.554972237944,-60140.47534948294,-35863.306923306816,-33364.739521114774,-20824.628570631572,-22099.84029529575,0.0,0.0,0.0,193.0,1.0,155.0,0.0,42.0,3.0,252.0,411.0,42.0,1020.0,1744252718.6870136,0.0,2025-04-09 22:38:38.687,FORWARD,18
51.0,14420.294990574717,2249.278396282005,-62614.43348102969,-60093.20140995996,-35915.8782262657,-33413.19810309388,-20514.92279945884,-22133.077339300795,0.0,0.0,0.0,193.0,1.0,155.0,0.0,42.0,3.0,251.0,411.0,42.0,1019.0,1744252718.687023,0.0,2025-04-09 22:38:38.687,FORWARD,18
52.0,14455.588395069648,2274.669977983234,-62578.29071024546,-60130.41706447805,-35835.0096148264,-33321.84652350504,-21017.948808425524,-22063.496358811422,0.0,0.0,0.0,193.0,1.0,155.0,0.0,42.0,3.0,252.0,411.0,42.0,1020.0,1744252718.687032,0.0,2025-04-09 22:38:38.687,FORWARD,18
53.0,14390.969501849355,2274.379405305315,-62581.97874808058,-60093.35787217115,-35838.49648696143,-33335.74930855624,-20756.858081443082,-22071.09595192623,0.0,0.0,0.0,193.0,1.0,155.0,0.0,43.0,3.0,249.0,411.0,43.0,1017.0,1744252718.6870494,0.0,2025-04-09 22:38:38.687,FORWARD,18
54.0,14316.381730601996,2247.1996840476613,-62617.27215257552,-60159.4519805255,-35865.877373919175,-33365.2759629817,-20844.655733663527,-22105.584693620767,0.0,0.0,0.0,193.0,1.0,154.0,0.0,43.0,3.0,249.0,410.0,43.0,1017.0,1744252718.6870587,0.0,2025-04-09 22:38:38.687,FORWARD,18
55.0,14384.88982735751,2234.7497623860554,-62627.173975369216,-60108.02061653383,-35925.9812147595,-33432.15238239198,-20556.094712745515,-22161.19583382557,0.0,0.0,0.0,193.0,1.0,155.0,0.0,42.0,3.0,252.0,411.0,42.0,1020.0,1744252718.6870675,0.0,2025-04-09 22:38:38.687,FORWARD,18
56.0,14458.248252659829,2268.2997308134713,-62600.3742337673,-60151.33829728822,-35857.16019358161,-33347.86395405101,-20941.639952855105,-22081.444809609035,0.0,0.0,0.0,193.0,1.0,154.0,0.0,43.0,3.0,250.0,410.0,43.0,1018.0,1744252718.6870763,0.0,2025-04-09 22:38:38.687,FORWARD,18
57.0,14408.783842180233,2292.238449125105,-62558.174140235686,-60070.06735444872,-35809.77449533636,-33307.72022100928,-20810.949303024925,-22028.962913627973,0.0,0.0,0.0,193.0,1.0,155.0,0.0,43.0,3.0,251.0,411.0,43.0,1019.0,1744252718.6870852,0.0,2025-04-09 22:38:38.687,FORWARD,18
58.0,14341.639201836491,2280.6825972417114,-62595.3227395204,-60130.59587843369,-35833.3555857367,-33331.07779396508,-20775.991174696825,-22059.22717562046,0.0,0.0,0.0,193.0,1.0,154.0,0.0,43.0,3.0,251.0,410.0,43.0,1019.0,1744252718.6871235,0.0,2025-04-09 22:38:38.687,FORWARD,18
59.0,14375.703260386379,2250.7312596716,-62603.90580939124,-60086.093555223175,-35896.38750510067,-33393.7297336733,-20591.49987596272,-22111.418498923602,0.0,0.0,0.0,193.0,1.0,155.0,0.0,43.0,3.0,251.0,411.0,43.0,1019.0,1744252718.6871328,0.0,2025-04-09 22:38:38.687,FORWARD,18
60.0,14466.250177174828,2268.3220825579265,-62602.58705646838,-60138.55309945979,-35875.39921705714,-33362.41493969142,-20811.753965825315,-22094.52058011539,0.0,0.0,0.0,193.0,1.0,155.0,0.0,43.0,3.0,251.0,411.0,43.0,1019.0,1744252718.6871417,0.0,2025-04-09 22:38:38.687,FORWARD,18
61.0,14415.154089349997,2278.3133123294488,-62558.934099547165,-60083.97013949992,-35822.17971350905,-33316.996194958236,-20912.537981574296,-22051.493472038925,0.0,0.0,0.0,193.0,1.0,154.0,0.0,43.0,3.0,250.0,410.0,43.0,1018.0,1744252719.159366,0.0,2025-04-09 22:38:39.159,FORWARD,18
62.0,14339.627544835514,2265.885742412298,-62604.86693440282,-60145.102160585186,-35850.32055977828,-33352.49076515326,-20758.087427388124,-22089.13380970166,0.0,0.0,0.0,193.0,1.0,155.0,0.0,43.0,3.0,253.0,411.0,43.0,1021.0,1744252719.15941,0.0,2025-04-09 22:38:39.159,FORWARD,18
63.0,14337.280611667707,2232.179311773695,-62613.24883857356,-60119.28589573931,-35899.784970257875,-33404.302108800664,-20690.831028322107,-22128.539935176366,0.0,0.0,0.0,193.0,1.0,154.0,0.0,43.0,3.0,250.0,410.0,43.0,1018.0,1744252719.1594296,0.0,2025-04-09 22:38:39.159,FORWARD,18
64.0,14457.756514281811,2259.0014051200637,-62612.10889960634,-60137.36845700365,-35895.20286264454,-33386.353658003056,-20689.1322957435,-22103.550684875332,0.0,0.0,0.0,193.0,1.0,154.0,0.0,43.0,3.0,249.0,410.0,43.0,1017.0,1744252719.1594498,0.0,2025-04-09 22:38:39.159,FORWARD,18
65.0,14424.273601087762,2277.9109809292536,-62554.396695422736,-60095.30247393876,-35815.29537621682,-33309.0613256766,-20978.83325562874,-22034.372035786157,0.0,0.0,0.0,193.0,1.0,155.0,0.0,43.0,3.0,252.0,411.0,43.0,1020.0,1744252719.15947,0.0,2025-04-09 22:38:39.159,FORWARD,18
66.0,14344.924908271421,2264.0081958780524,-62601.223600056604,-60137.055532581275,-35847.772460910375,-33350.79203257466,-20722.414043237455,-22078.628489807666,0.0,0.0,0.0,193.0,1.0,155.0,0.0,43.0,3.0,251.0,411.0,43.0,1019.0,1744252719.1594877,0.0,2025-04-09 22:38:39.159,FORWARD,18
67.0,14314.705349767846,2224.6244221478014,-62617.76389095353,-60138.01665759285,-35891.49247306496,-33394.42263775142,-20757.975668665847,-22118.168725749103,0.0,0.0,0.0,193.0,1.0,155.0,0.0,43.0,3.0,250.0,411.0,43.0,1018.0,1744252719.1595051,0.0,2025-04-09 22:38:39.159,FORWARD,18
68.0,14442.490272818837,2247.4232014922145,-62622.52481252251,-60129.5453464443,-35916.66053732164,-33409.063030369645,-20595.947873109326,-22136.318342246814,0.0,0.0,0.0,193.0,1.0,154.0,0.0,43.0,3.0,249.0,410.0,43.0,1017.0,1744252719.1595228,0.0,2025-04-09 22:38:39.159,FORWARD,18
69.0,14434.600107026114,2278.156850118262,-62558.53176814697,-60110.25579097936,-35821.15153326411,-33307.206130886814,-21052.035218719866,-22046.17375685856,0.0,0.0,0.0,193.0,1.0,154.0,0.0,43.0,3.0,251.0,410.0,43.0,1019.0,1744252719.1595373,0.0,2025-04-09 22:38:39.159,FORWARD,18
70.0,14373.959824318867,2290.249143868583,-62581.442306213656,-60107.41711943354,-35836.887161360646,-33335.07875622258,-20721.765842648252,-22071.140655415136,0.0,0.0,0.0,193.0,1.0,155.0,0.0,43.0,3.0,251.0,411.0,43.0,1019.0,1744252719.1595466,0.0,2025-04-09 22:38:39.159,FORWARD,18
71.0,14319.242753892275,2243.0646113234297,-62605.984521625585,-60137.7931401483,-35872.56054551131,-33373.36729447452,-20807.373023912078,-22109.85387681173,0.0,0.0,0.0,193.0,1.0,154.0,0.0,44.0,3.0,250.0,410.0,44.0,1018.0,1744252719.1595557,0.0,2025-04-09 22:38:39.159,FORWARD,18
72.0,14433.795444225723,2249.6807276822005,-62616.042806630474,-60106.61245663315,-35921.1308862127,-33416.21558859535,-20530.30079964409,-22141.95098184955,0.0,0.0,0.0,193.0,1.0,155.0,0.0,43.0,3.0,251.0,411.0,43.0,1019.0,1744252719.1595647,0.0,2025-04-09 22:38:39.159,FORWARD,18
73.0,14441.126816407064,2274.2005913496723,-62575.80966661092,-60133.05457032378,-35841.357510251706,-33324.79695377314,-21063.68047758108,-22078.986117718952,0.0,0.0,0.0,193.0,1.0,154.0,0.0,43.0,3.0,249.0,410.0,43.0,1017.0,1744252719.1596043,0.0,2025-04-09 22:38:39.159,FORWARD,18
74.0,14378.385469721017,2276.569876261935,-62589.623044684304,-60107.26065722235,-35852.95806562401,-33342.3207214261,-20749.01261913927,-22084.886978255152,0.0,0.0,0.0,193.0,1.0,155.0,0.0,43.0,3.0,252.0,411.0,43.0,1020.0,1744252719.1596155,0.0,2025-04-09 22:38:39.159,FORWARD,18
75.0,14309.11741365402,2242.6175764343234,-62614.56759149642,-60157.01564037987,-35867.75492045342,-33363.30900946963,-20835.893849837048,-22101.449620896536,0.0,0.0,0.0,193.0,1.0,154.0,0.0,44.0,3.0,253.0,410.0,44.0,1021.0,1744252719.1596243,0.0,2025-04-09 22:38:39.159,FORWARD,18
76.0,14404.42525201145,2242.3940589897707,-62615.349902552356,-60101.51625889734,-35913.128961697694,-33412.974585649325,-20516.35331110398,-22140.989856837972,0.0,0.0,0.0,193.0,1.0,154.0,0.0,43.0,3.0,250.0,410.0,43.0,1018.0,1744252719.1596332,0.0,2025-04-09 22:38:39.159,FORWARD,18
77.0,14451.878005490067,2270.5796087479125,-62580.99527132455,-60142.50935822837,-35836.75305089391,-33326.5180380962,-20995.418250014576,-22075.99098396194,0.0,0.0,0.0,193.0,1.0,155.0,0.0,43.0,3.0,251.0,411.0,43.0,1019.0,1744252719.1596422,0.0,2025-04-09 22:38:39.159,FORWARD,18
78.0,14391.46124022737,2274.7146814721445,-62571.585186908866,-60088.17226745752,-35829.62284441267,-33321.600654316026,-20764.97176468036,-22055.47208255197,0.0,0.0,0.0,193.0,1.0,154.0,0.0,44.0,3.0,249.0,410.0,44.0,1017.0,1744252719.1596508,0.0,2025-04-09 22:38:39.159,FORWARD,18
79.0,14310.056186921143,2245.8809311247983,-62616.758062453046,-60160.18958809252,-35863.19516458454,-33353.74246284276,-20814.905561793516,-22088.195036434536,0.0,0.0,0.0,193.0,1.0,154.0,0.0,44.0,3.0,250.0,410.0,44.0,1018.0,1744252719.15966,0.0,2025-04-09 22:38:39.159,FORWARD,18
80.0,14370.338841717106,2230.34646872836,-62619.127347365305,-60104.60079963217,-35918.15810420014,-33411.67818447092,-20564.54367214962,-22137.368874236214,0.0,0.0,0.0,193.0,1.0,155.0,0.0,44.0,3.0,249.0,411.0,44.0,1017.0,1744252719.1596687,0.0,2025-04-09 22:38:39.159,FORWARD,18
81.0,14453.017944457288,2265.148134845273,-62597.75907966603,-60149.796026920805,-35863.17281284009,-33343.058328993124,-20913.163830419046,-22088.597367834733,0.0,0.0,0.0,193.0,1.0,154.0,0.0,44.0,3.0,249.0,410.0,44.0,1017.0,1744252719.1596775,0.0,2025-04-09 22:38:39.159,FORWARD,18
82.0,14403.33001653314,2280.772004219533,-62561.661012370714,-60083.65721507755,-35822.78321060934,-33310.80476174412,-20862.000687360847,-22048.20776560399,0.0,0.0,0.0,193.0,1.0,154.0,0.0,44.0,3.0,249.0,410.0,44.0,1017.0,1744252719.1596863,0.0,2025-04-09 22:38:39.159,FORWARD,18
83.0,14333.16789068793,2274.1558878607616,-62597.98259711058,-60139.55892796027,-35842.72096666348,-33328.529695097175,-20793.894922005526,-22066.782065246352,0.0,0.0,0.0,193.0,1.0,155.0,0.0,44.0,3.0,249.0,411.0,44.0,1017.0,1744252719.1596951,0.0,2025-04-09 22:38:39.159,FORWARD,18
84.0,14355.251414209773,2241.8352653783877,-62603.63758845778,-60097.26942745083,-35895.873414978196,-33385.25842252474,-20631.88947819346,-22110.680891356576,0.0,0.0,0.0,193.0,1.0,154.0,0.0,44.0,3.0,249.0,410.0,44.0,1017.0,1744252719.159704,0.0,2025-04-09 22:38:39.159,FORWARD,18
85.0,14458.695287548935,2262.600035977368,-62603.68229194669,-60140.92238437205,-35877.43322580257,-33359.442157678866,-20771.96786069487,-22094.27471092638,0.0,0.0,0.0,193.0,1.0,155.0,0.0,44.0,3.0,252.0,411.0,44.0,1020.0,1744252719.1597128,0.0,2025-04-09 22:38:39.159,FORWARD,18
86.0,14411.309589303684,2274.312350071949,-62554.866082056295,-60085.55711335625,-35812.03202152634,-33301.327622095065,-20923.780909035315,-22035.288457308827,0.0,0.0,0.0,193.0,1.0,155.0,0.0,44.0,3.0,253.0,411.0,44.0,1021.0,1744252719.1597216,0.0,2025-04-09 22:38:39.159,FORWARD,18
87.0,14334.352533144061,2260.409565020748,-62605.24691405856,-60142.55406171728,-35847.146612065626,-33342.25366619273,-20736.24977305529,-22076.102742684216,0.0,0.0,0.0,193.0,1.0,155.0,0.0,44.0,3.0,250.0,411.0,44.0,1018.0,1744252719.1597304,0.0,2025-04-09 22:38:39.159,FORWARD,18
88.0,14319.041588192176,2220.601108145846,-62623.86591718983,-60132.69694241249,-35906.33403138328,-33398.11067558655,-20711.886371599005,-22125.455394441535,0.0,0.0,0.0,193.0,1.0,155.0,0.0,44.0,3.0,252.0,411.0,44.0,1020.0,1744252719.1597445,0.0,2025-04-09 22:38:39.159,FORWARD,18
89.0,14445.507758320304,2252.854675394854,-62629.27503934802,-60147.47144549745,-35917.30873791084,-33397.95421337536,-20672.837874035584,-22130.551592177344,0.0,0.0,0.0,193.0,1.0,155.0,0.0,44.0,3.0,251.0,411.0,44.0,1019.0,1744252719.159753,0.0,2025-04-09 22:38:39.159,FORWARD,18
90.0,14427.559307522692,2283.633027509812,-62560.94575654814,-60104.556096143264,-35818.78224835185,-33303.1604651404,-21023.849668961724,-22043.536251012833,0.0,0.0,0.0,193.0,1.0,155.0,0.0,44.0,3.0,250.0,411.0,44.0,1018.0,1744252719.1597621,0.0,2025-04-09 22:38:39.159,FORWARD,18
91.0,14363.253338724773,2283.431861809714,-62592.685233674674,-60123.33156148572,-35835.99309158243,-33331.01073873171,-20714.792098378195,-22060.702390754508,0.0,0.0,0.0,193.0,1.0,155.0,0.0,44.0,3.0,251.0,411.0,44.0,1019.0,1744252719.159771,0.0,2025-04-09 22:38:39.159,FORWARD,18
92.0,14321.276762637706,2241.8576171228433,-62612.95826589564,-60135.669724425046,-35879.646048503644,-33372.96496307432,-20774.73947700733,-22099.214446451002,0.0,0.0,0.0,193.0,1.0,154.0,0.0,44.0,3.0,250.0,410.0,44.0,1018.0,1744252719.15978,0.0,2025-04-09 22:38:39.159,FORWARD,18
93.0,14436.008266926798,2254.2404835510833,-62628.60448701436,-60128.941849344,-35921.1308862127,-33408.884216414,-20565.25892797219,-22138.933496348083,0.0,0.0,0.0,193.0,1.0,155.0,0.0,44.0,3.0,251.0,411.0,44.0,1019.0,1744252719.1597888,0.0,2025-04-09 22:38:39.159,FORWARD,18
94.0,14435.337714593139,2278.5815332629127,-62571.42872469768,-60124.13622428611,-35827.41002171159,-33310.84946523303,-21051.58818383076,-22058.869547709175,0.0,0.0,0.0,193.0,1.0,154.0,0.0,44.0,3.0,250.0,410.0,44.0,1018.0,1744252719.1597977,0.0,2025-04-09 22:38:39.159,FORWARD,18
95.0,14365.935548059411,2266.109259856851,-62600.798916911954,-60122.303381240774,-35849.29237953334,-33345.53937262766,-20715.015615822747,-22085.66928931109,0.0,0.0,0.0,193.0,1.0,155.0,0.0,44.0,3.0,251.0,411.0,44.0,1019.0,1744252719.1598065,0.0,2025-04-09 22:38:39.159,FORWARD,18
96.0,14304.73647174078,2231.732276884589,-62623.463585789636,-60157.28386131333,-35881.970629927,-33376.6753526539,-20827.35548345512,-22115.4194611811,0.0,0.0,0.0,193.0,1.0,154.0,0.0,44.0,3.0,249.0,410.0,44.0,1017.0,1744252719.1598153,0.0,2025-04-09 22:38:39.159,FORWARD,18
97.0,14431.76143548029,2257.079155096907,-62613.2264868291,-60101.538610641794,-35913.03955471987,-33405.66556521244,-20530.792538022106,-22134.641961412664,0.0,0.0,0.0,193.0,1.0,154.0,0.0,44.0,3.0,252.0,410.0,44.0,1020.0,1744252719.1598253,0.0,2025-04-09 22:38:39.159,FORWARD,18
98.0,14453.934365979954,2282.2472193535828,-62570.735820619564,-60131.08761681171,-35827.20885601149,-33313.129343167464,-21037.931267968568,-22055.69559999652,0.0,0.0,0.0,193.0,1.0,154.0,0.0,44.0,3.0,249.0,410.0,44.0,1017.0,1744252719.159834,0.0,2025-04-09 22:38:39.159,FORWARD,18
99.0,14392.131792561031,2285.4211670662366,-62575.27322474399,-60093.581389615705,-35832.84149561423,-33321.35478512702,-20735.4451102549,-22046.061998136283,0.0,0.0,0.0,193.0,1.0,155.0,0.0,44.0,3.0,252.0,411.0,44.0,1020.0,1744252719.1598427,0.0,2025-04-09 22:38:39.159,FORWARD,18
100.0,14319.376864359007,2249.479561982103,-62611.86303041733,-60158.177931091544,-35865.72091170799,-33358.90571581194,-20834.776262614283,-22091.503094613923,0.0,0.0,0.0,193.0,1.0,154.0,0.0,44.0,3.0,249.0,410.0,44.0,1017.0,1744252719.1598516,0.0,2025-04-09 22:38:39.159,FORWARD,18
101.0,14407.42038576846,2250.8430183938767,-62607.929123393194,-60094.341348927184,-35908.949185484555,-33410.404135036966,-20532.267753156157,-22128.405824709633,0.0,0.0,0.0,193.0,1.0,154.0,0.0,44.0,3.0,250.0,410.0,44.0,1018.0,1744252719.1598604,0.0,2025-04-09 22:38:39.159,FORWARD,18
102.0,14462.159807939508,2281.800184464477,-62580.5705881799,-60140.5424047163,-35843.81620214179,-33332.32949165458,-20970.183130524532,-22068.97253620297,0.0,0.0,0.0,193.0,1.0,155.0,0.0,44.0,3.0,252.0,411.0,44.0,1020.0,1744252719.1598692,0.0,2025-04-09 22:38:39.159,FORWARD,18
103.0,14409.923781147454,2297.178184649728,-62556.52011114599,-60074.64946206206,-35820.95036756401,-33313.978709456766,-20791.77150628227,-22039.132957355137,0.0,0.0,0.0,193.0,1.0,154.0,0.0,44.0,3.0,250.0,410.0,44.0,1018.0,1744252719.159882,0.0,2025-04-09 22:38:39.159,FORWARD,18
104.0,14327.624658063014,2270.467850025636,-62600.68715818968,-60146.778541419335,-35852.01929235688,-33344.91352378291,-20806.054270989214,-22074.113437427695,0.0,0.0,0.0,193.0,1.0,154.0,0.0,44.0,3.0,252.0,410.0,44.0,1020.0,1744252719.159891,0.0,2025-04-09 22:38:39.159,FORWARD,18
105.0,14381.917045344955,2248.7196026706224,-62599.10018433335,-60087.12173546812,-35906.40108661665,-33393.685030184395,-20582.31330899159,-22115.6206268812,0.0,0.0,0.0,193.0,1.0,154.0,0.0,44.0,3.0,250.0,410.0,44.0,1018.0,1744252719.1598997,0.0,2025-04-09 22:38:39.159,FORWARD,18
106.0,14470.742877810346,2280.0120449080523,-62585.286806259974,-60132.07109356774,-35867.8666791757,-33337.38098590147,-20871.097847354158,-22084.03761196585,0.0,0.0,0.0,193.0,1.0,155.0,0.0,44.0,3.0,251.0,411.0,44.0,1019.0,1744252719.1599083,0.0,2025-04-09 22:38:39.159,FORWARD,18
107.0,14416.718711461868,2291.6796555137225,-62547.5123581305,-60071.81079051624,-35819.6539663856,-33299.56183428309,-20872.46130376593,-22045.5032045249,0.0,0.0,0.0,193.0,1.0,154.0,0.0,44.0,3.0,250.0,410.0,44.0,1018.0,1744252719.159917,0.0,2025-04-09 22:38:39.159,FORWARD,18
108.0,14347.540062372693,2282.40368156477,-62586.24793127155,-60129.07595981073,-35840.48579221795,-33316.839732747045,-20764.860005958082,-22059.18247213155,0.0,0.0,0.0,193.0,1.0,154.0,0.0,44.0,3.0,250.0,410.0,44.0,1018.0,1744252719.159926,0.0,2025-04-09 22:38:39.159,FORWARD,18
109.0,14365.108533514564,2257.056803352452,-62587.38787023877,-60084.55128485576,-35885.591612528755,-33362.929029813895,-20644.98760044427,-22095.14642896014,0.0,0.0,0.0,193.0,1.0,155.0,0.0,44.0,3.0,252.0,411.0,44.0,1020.0,1744252719.1599343,0.0,2025-04-09 22:38:39.159,FORWARD,18
110.0,14482.522247138293,2286.7175682446446,-62583.275149258996,-60113.87677358113,-35868.78310069837,-33339.996140002746,-20729.38778750751,-22084.976385232974,0.0,0.0,0.0,193.0,1.0,154.0,0.0,44.0,3.0,250.0,410.0,44.0,1018.0,1744252719.159943,0.0,2025-04-09 22:38:39.159,FORWARD,18
111.0,14438.645772772525,2299.1674899062505,-62533.05077946792,-60064.88174973509,-35800.27500394285,-33278.260621817186,-20947.205537224476,-22022.30209378029,0.0,0.0,0.0,193.0,1.0,155.0,0.0,44.0,3.0,252.0,411.0,44.0,1020.0,1744252719.1599517,0.0,2025-04-09 22:38:39.159,FORWARD,18
112.0,14352.74801883078,2275.049957638974,-62593.109916819325,-60126.70667489847,-35847.370129510186,-33330.1166689535,-20732.78525266472,-22074.024030449873,0.0,0.0,0.0,193.0,1.0,154.0,0.0,44.0,3.0,249.0,410.0,44.0,1017.0,1744252719.1599605,0.0,2025-04-09 22:38:39.159,FORWARD,18
113.0,14326.64118130698,2232.961622829631,-62612.980617640096,-60127.17606153203,-35903.40595285963,-33388.298259770665,-20739.15549983448,-22124.583676407776,0.0,0.0,0.0,193.0,1.0,155.0,0.0,44.0,3.0,251.0,411.0,44.0,1019.0,1744252719.159969,0.0,2025-04-09 22:38:39.159,FORWARD,18
114.0,14448.458188588404,2258.599073719868,-62618.05446363145,-60135.08857906921,-35916.30290941035,-33399.1835593204,-20633.387045071966,-22139.067606814817,0.0,0.0,0.0,193.0,1.0,154.0,0.0,44.0,3.0,249.0,410.0,44.0,1017.0,1744252719.159978,0.0,2025-04-09 22:38:39.159,FORWARD,18
115.0,14433.61663027008,2280.2802658415158,-62552.34033493285,-60102.47738390892,-35818.42462044056,-33297.08079064856,-21026.218953873988,-22034.372035786157,0.0,0.0,0.0,193.0,1.0,155.0,0.0,44.0,3.0,251.0,411.0,44.0,1019.0,1744252719.1599867,0.0,2025-04-09 22:38:39.159,FORWARD,18
116.0,14363.074524769132,2267.5174197575357,-62590.181838295684,-60121.45401495147,-35848.554771966315,-33331.59188408755,-20710.366452976043,-22057.170815130572,0.0,0.0,0.0,193.0,1.0,154.0,0.0,44.0,3.0,250.0,410.0,44.0,1018.0,1744252719.1599953,0.0,2025-04-09 22:38:39.159,FORWARD,18
117.0,14310.860849721534,2228.8712535943096,-62608.644379215766,-60139.35776226017,-35883.915231694606,-33371.35563747354,-20796.912407506992,-22097.716879572497,0.0,0.0,0.0,193.0,1.0,155.0,0.0,44.0,3.0,252.0,411.0,44.0,1020.0,1744252719.160004,0.0,2025-04-09 22:38:39.160,FORWARD,18
118.0,14440.09863616212,2248.6748991817117,-62607.41503327073,-60109.69699736798,-35909.06094420683,-33399.071800598125,-20546.327000418547,-22125.5224496749,0.0,0.0,0.0,193.0,1.0,154.0,0.0,44.0,3.0,251.0,410.0,44.0,1019.0,1744252719.1600173,0.0,2025-04-09 22:38:39.160,FORWARD,18
119.0,14452.8614822461,2282.3589780758593,-62547.42295115268,-60112.178041002524,-35808.25457671339,-33296.0079069147,-21038.177137157578,-22035.824899175754,0.0,0.0,0.0,193.0,1.0,154.0,0.0,44.0,3.0,252.0,410.0,44.0,1020.0,1744252719.1600256,0.0,2025-04-09 22:38:39.160,FORWARD,18
120.0,14387.013243080764,2285.0635391549517,-62568.70181187413,-60100.912761797044,-35825.59953041071,-33323.701718294826,-20699.458801681852,-22054.153329629105,0.0,0.0,0.0,193.0,1.0,155.0,0.0,44.0,3.0,252.0,411.0,44.0,1020.0,1744252719.1600344,0.0,2025-04-09 22:38:39.160,FORWARD,18
121.0,14317.8792974805,2247.244387536572,-62596.01564359852,-60145.3480297742,-35858.255429059915,-33352.66957910891,-20802.0086052428,-22078.18145491856,0.0,0.0,0.0,193.0,1.0,154.0,0.0,44.0,3.0,249.0,410.0,44.0,1017.0,1744252719.1600428,0.0,2025-04-09 22:38:39.160,FORWARD,18
122.0,14425.011208654787,2249.2336927930946,-62598.40728025523,-60095.59304661668,-35908.658612806634,-33400.457608754354,-20505.646825509888,-22124.024882796395,0.0,0.0,0.0,193.0,1.0,155.0,0.0,44.0,3.0,252.0,411.0,44.0,1020.0,1744252719.1600516,0.0,2025-04-09 22:38:39.160,FORWARD,18
123.0,14458.538825337748,2280.6825972417114,-62559.917576303196,-60131.199375533986,-35824.99603331042,-33307.45200007582,-21013.09847987872,-22045.480852780445,0.0,0.0,0.0,193.0,1.0,154.0,0.0,44.0,3.0,249.0,410.0,44.0,1017.0,1744252719.16006,0.0,2025-04-09 22:38:39.160,FORWARD,18
124.0,14400.08901358712,2289.153908390273,-62552.5638523774,-60081.22087493192,-35813.21666398247,-33306.60263378652,-20734.57339222114,-22028.35941652768,0.0,0.0,0.0,193.0,1.0,155.0,0.0,44.0,3.0,252.0,411.0,44.0,1020.0,1744252719.1600685,0.0,2025-04-09 22:38:39.160,FORWARD,18
125.0,14317.275800380206,2256.676823696712,-62600.15071632275,-60153.52876824484,-35855.260295302905,-33343.30419818213,-20807.21656170089,-22074.716934527987,0.0,0.0,0.0,193.0,1.0,154.0,0.0,44.0,3.0,249.0,410.0,44.0,1017.0,1744252719.1600776,0.0,2025-04-09 22:38:39.160,FORWARD,18
126.0,14393.338786761617,2240.2259397776056,-62610.23135307209,-60100.912761797044,-35920.840313534776,-33404.81619892314,-20550.327962676045,-22132.742063133963,0.0,0.0,0.0,193.0,1.0,154.0,0.0,44.0,3.0,251.0,410.0,44.0,1019.0,1744252719.160086,0.0,2025-04-09 22:38:39.160,FORWARD,18
127.0,14471.86046503311,2275.0723093834295,-62575.56379742191,-60139.73774191592,-35845.894914376135,-33323.41114561691,-20951.832348326727,-22071.587690304244,0.0,0.0,0.0,193.0,1.0,154.0,0.0,44.0,3.0,251.0,410.0,44.0,1019.0,1744252719.1600947,0.0,2025-04-09 22:38:39.160,FORWARD,18
128.0,14416.584600995136,2285.1082426438625,-62547.28884068595,-60079.544494097776,-35815.407134939094,-33307.42964833137,-20814.883210049058,-22048.475986537458,0.0,0.0,0.0,193.0,1.0,154.0,0.0,44.0,3.0,249.0,410.0,44.0,1017.0,1744252719.160103,0.0,2025-04-09 22:38:39.160,FORWARD,18
129.0,14339.202861690863,2266.310425556949,-62589.846562128856,-60148.47727399794,-35844.978492853465,-33333.51413411071,-20795.727765050862,-22073.33112637176,0.0,0.0,0.0,193.0,1.0,154.0,0.0,44.0,3.0,252.0,410.0,44.0,1020.0,1744252719.160112,0.0,2025-04-09 22:38:39.160,FORWARD,18
130.0,14367.455466682371,2237.767247887522,-62598.94372212217,-60100.309264696756,-35904.94822322705,-33390.84635863857,-20601.84873364553,-22114.86066756972,0.0,0.0,0.0,193.0,1.0,154.0,0.0,44.0,3.0,249.0,410.0,44.0,1017.0,1744252719.1601205,0.0,2025-04-09 22:38:39.160,FORWARD,18
131.0,14463.43385737346,2265.6622249677453,-62597.8261348994,-60149.90778564308,-35881.054208404326,-33355.41884367691,-20835.156242270023,-22103.99771976444,0.0,0.0,0.0,193.0,1.0,154.0,0.0,44.0,3.0,250.0,410.0,44.0,1018.0,1744252719.1601293,0.0,2025-04-09 22:38:39.160,FORWARD,18
132.0,14414.61764748307,2277.888629184798,-62553.055590755415,-60090.34038666968,-35817.59760589572,-33306.17795064187,-20909.632254795106,-22052.923983684064,0.0,0.0,0.0,193.0,1.0,155.0,0.0,44.0,3.0,253.0,411.0,44.0,1021.0,1744252719.160142,0.0,2025-04-09 22:38:39.160,FORWARD,18
133.0,14344.991963504788,2266.7127569571444,-62590.15948655123,-60140.92238437205,-35833.22147526997,-33321.466543849296,-20744.028180125737,-22048.587745259734,0.0,0.0,0.0,193.0,1.0,154.0,0.0,44.0,3.0,249.0,410.0,44.0,1017.0,1744252719.1601503,0.0,2025-04-09 22:38:39.160,FORWARD,18
134.0,14341.84036753659,2237.8790066097986,-62603.63758845778,-60112.62507589163,-35895.940470211564,-33369.142814772465,-20662.868996008518,-22086.250434666927,0.0,0.0,0.0,193.0,1.0,155.0,0.0,44.0,3.0,252.0,411.0,44.0,1020.0,1744252719.160159,0.0,2025-04-09 22:38:39.160,FORWARD,18
135.0,14455.744857280835,2265.3269488009155,-62607.77266118201,-60140.65416343858,-35896.7227812675,-33365.65594263744,-20694.42965917941,-22096.80045804983,0.0,0.0,0.0,193.0,1.0,154.0,0.0,44.0,3.0,250.0,410.0,44.0,1018.0,1744252719.1601677,0.0,2025-04-09 22:38:39.160,FORWARD,18
136.0,14427.291086589228,2281.8672396978427,-62535.68828531364,-60085.199485444966,-35799.42563765355,-33282.06041837459,-20971.34542123621,-22018.01055884487,0.0,0.0,0.0,193.0,1.0,155.0,0.0,44.0,3.0,252.0,411.0,44.0,1020.0,1744252719.1601763,0.0,2025-04-09 22:38:39.160,FORWARD,18
137.0,14360.369963690038,2276.502821028569,-62570.22173049709,-60117.65421839407,-35820.74920186391,-33313.50932282321,-20697.693013869884,-22039.758806199887,0.0,0.0,0.0,193.0,1.0,155.0,0.0,44.0,3.0,249.0,411.0,44.0,1017.0,1744252719.1601849,0.0,2025-04-09 22:38:39.160,FORWARD,18
138.0,14332.273820909719,2239.6224426773124,-62586.49380046056,-60117.56481141625,-35871.15238561063,-33362.23612573578,-20730.572429963642,-22083.16589393209,0.0,0.0,0.0,193.0,1.0,155.0,0.0,44.0,3.0,250.0,411.0,44.0,1018.0,1744252719.1601934,0.0,2025-04-09 22:38:39.160,FORWARD,18
139.0,14453.040296201742,2260.54367548748,-62599.3237017779,-60121.43166320702,-35902.89186273717,-33391.025172594214,-20587.141285793936,-22122.61672289571,0.0,0.0,0.0,193.0,1.0,155.0,0.0,44.0,3.0,252.0,411.0,44.0,1020.0,1744252719.160202,0.0,2025-04-09 22:38:39.160,FORWARD,18
140.0,14438.154034394507,2283.990655421097,-62540.538613860444,-60103.52791589832,-35810.42269592556,-33293.61627025798,-21035.383169100664,-22037.74714919891,0.0,0.0,0.0,193.0,1.0,154.0,0.0,44.0,3.0,249.0,410.0,44.0,1017.0,1744252719.1602104,0.0,2025-04-09 22:38:39.160,FORWARD,18
141.0,14374.384507463517,2282.2248676091276,-62569.484122930065,-60106.99243628889,-35830.49456244642,-33316.54916006913,-20706.745470374284,-22045.279687080347,0.0,0.0,0.0,193.0,1.0,154.0,0.0,44.0,3.0,251.0,410.0,44.0,1019.0,1744252719.1602192,0.0,2025-04-09 22:38:39.160,FORWARD,18
142.0,14330.753902286757,2250.954777116153,-62587.41022198323,-60130.41706447805,-35866.369112297194,-33346.79107031716,-20803.170895954478,-22068.704315269508,0.0,0.0,0.0,193.0,1.0,154.0,0.0,44.0,3.0,251.0,410.0,44.0,1019.0,1744252719.1602278,0.0,2025-04-09 22:38:39.160,FORWARD,18
143.0,14451.05099094522,2265.796335434477,-62591.58999819637,-60096.71063383945,-35908.50215059545,-33388.63353593749,-20531.954828733782,-22100.28733018486,0.0,0.0,0.0,193.0,1.0,154.0,0.0,44.0,3.0,250.0,410.0,44.0,1018.0,1744252719.1602364,0.0,2025-04-09 22:38:39.160,FORWARD,18
144.0,14461.265738161295,2290.4503095686805,-62539.82335803787,-60110.12168051263,-35810.869730814666,-33294.39858131392,-21043.228631404476,-22025.65485544859,0.0,0.0,0.0,193.0,1.0,155.0,0.0,44.0,3.0,252.0,411.0,44.0,1020.0,1744252719.1602447,0.0,2025-04-09 22:38:39.160,FORWARD,18
145.0,14396.13275481853,2296.4852805716137,-62550.060456998406,-60078.829238275204,-35818.6034343962,-33312.8164187451,-20716.133203045512,-22039.579992244246,0.0,0.0,0.0,193.0,1.0,154.0,0.0,44.0,3.0,249.0,410.0,44.0,1017.0,1744252719.1602535,0.0,2025-04-09 22:38:39.160,FORWARD,18
146.0,14325.478890595305,2259.046108608974,-62582.13521029177,-60126.66197140956,-35854.09800459123,-33341.69487258135,-20830.261210234312,-22073.599347305222,0.0,0.0,0.0,193.0,1.0,155.0,0.0,44.0,3.0,252.0,411.0,44.0,1020.0,1744252719.160262,0.0,2025-04-09 22:38:39.160,FORWARD,18
147.0,14420.294990574717,2254.4863527400917,-62592.685233674674,-60075.92351149601,-35911.899615752656,-33394.601451707065,-20526.702168786785,-22108.535123888865,0.0,0.0,0.0,193.0,1.0,154.0,0.0,44.0,3.0,250.0,410.0,44.0,1018.0,1744252719.1602752,0.0,2025-04-09 22:38:39.160,FORWARD,18
148.0,14456.549520081226,2278.0674431404404,-62563.15857924922,-60119.6882271395,-35834.24965551492,-33312.0117559447,-21009.566904254785,-22040.02702713335,0.0,0.0,0.0,193.0,1.0,155.0,0.0,44.0,3.0,251.0,411.0,44.0,1019.0,1744252719.1602836,0.0,2025-04-09 22:38:39.160,FORWARD,18
149.0,14399.418461253461,2287.052844411474,-62550.37338142078,-60061.19371189996,-35811.71909710397,-33305.19447388584,-20754.712313975375,-22012.623788431145,0.0,0.0,0.0,193.0,1.0,154.0,0.0,44.0,3.0,249.0,410.0,44.0,1017.0,1744252719.1602924,0.0,2025-04-09 22:38:39.160,FORWARD,18
150.0,14320.606210304048,2258.599073719868,-62591.522942963,-60125.83495686472,-35840.41873698458,-33331.83775327656,-20802.07566047617,-22041.569297500766,0.0,0.0,0.0,193.0,1.0,155.0,0.0,44.0,3.0,252.0,411.0,44.0,1020.0,1744252719.1603007,0.0,2025-04-09 22:38:39.160,FORWARD,18
151.0,14396.110403074075,2251.6700329387227,-62584.459791715126,-60054.55524379674,-35885.27868810638,-33379.46932071082,-20548.629230097442,-22076.99681246243,0.0,0.0,0.0,193.0,1.0,154.0,0.0,44.0,3.0,249.0,410.0,44.0,1017.0,1744252719.1603098,0.0,2025-04-09 22:38:39.160,FORWARD,18
152.0,14469.424124887482,2277.151021617773,-62575.072059043894,-60102.812660075746,-35840.84342012923,-33322.33826188305,-20895.595359277173,-22043.379788801645,0.0,0.0,0.0,193.0,1.0,155.0,0.0,44.0,3.0,252.0,411.0,44.0,1020.0,1744252719.1603184,0.0,2025-04-09 22:38:39.160,FORWARD,18
153.0,14418.685664973935,2297.178184649728,-62537.76699754799,-60028.493109761854,-35794.441198640016,-33289.59295625603,-20832.87636433558,-22006.78998312831,0.0,0.0,0.0,193.0,1.0,154.0,0.0,44.0,3.0,249.0,410.0,44.0,1017.0,1744252719.1603267,0.0,2025-04-09 22:38:39.160,FORWARD,18
154.0,14345.483701882804,2286.5611060334572,-62579.989442824066,-60088.01580524634,-35818.02228904037,-33307.831979731556,-20763.675363501952,-22018.83757338972,0.0,0.0,0.0,193.0,1.0,155.0,0.0,44.0,3.0,251.0,411.0,44.0,1019.0,1744252719.1603355,0.0,2025-04-09 22:38:39.160,FORWARD,18
155.0,14373.222216751841,2265.148134845273,-62591.00885284053,-60045.30162159224,-35880.33895258176,-33368.382855460986,-20611.348225039033,-22073.197015905025,0.0,0.0,0.0,193.0,1.0,155.0,0.0,44.0,3.0,249.0,411.0,44.0,1017.0,1744252719.160344,0.0,2025-04-09 22:38:39.160,FORWARD,18
156.0,14471.659299333012,2276.7710419620325,-62593.71341391962,-60086.42883139001,-35865.1621180966,-33341.22548594779,-20786.988232968837,-22056.053227907807,0.0,0.0,0.0,193.0,1.0,155.0,0.0,44.0,3.0,252.0,411.0,44.0,1020.0,1744252719.1603527,0.0,2025-04-09 22:38:39.160,FORWARD,18
157.0,14423.401883054004,2276.7710419620325,-62539.644544082235,-60021.78758642526,-35794.06121898427,-33279.22174682876,-20927.021911981334,-21985.891102062596,0.0,0.0,0.0,193.0,1.0,155.0,0.0,44.0,3.0,251.0,411.0,44.0,1019.0,1744252719.1603613,0.0,2025-04-09 22:38:39.160,FORWARD,18
158.0,14346.713047827847,2265.371652289826,-62583.63277717028,-60072.257825405344,-35823.38670770964,-33309.6648227769,-20732.76290092026,-22017.183544300027,0.0,0.0,0.0,193.0,1.0,154.0,0.0,44.0,3.0,250.0,410.0,44.0,1018.0,1744252719.16037,0.0,2025-04-09 22:38:39.160,FORWARD,18
159.0,14350.736361829802,2243.4222392347147,-62583.14103879226,-60042.08297039068,-35861.29526630584,-33350.23323896328,-20698.207103992358,-22052.32048658377,0.0,0.0,0.0,193.0,1.0,155.0,0.0,44.0,3.0,251.0,411.0,44.0,1019.0,1744252719.1603785,0.0,2025-04-09 22:38:39.160,FORWARD,18
160.0,14467.926558008976,2266.2210185791278,-62595.993291854065,-60065.17232241301,-35872.29232457785,-33359.285695467675,-20652.698952281353,-22071.364172859692,0.0,0.0,0.0,193.0,1.0,154.0,0.0,44.0,3.0,250.0,410.0,44.0,1018.0,1744252719.1603873,0.0,2025-04-09 22:38:39.160,FORWARD,18
161.0,14433.080188403153,2286.248181611083,-62536.358837647305,-60027.35317079463,-35786.685143314025,-33271.93507813634,-21001.408517528598,-21993.937730066507,0.0,0.0,0.0,193.0,1.0,155.0,0.0,44.0,3.0,251.0,411.0,44.0,1019.0,1744252719.1603956,0.0,2025-04-09 22:38:39.160,FORWARD,18
162.0,14365.041478281199,2286.538754289002,-62566.31017521742,-60043.46877854691,-35801.59375686571,-33290.66583998988,-20699.81642959314,-21997.06697429025,0.0,0.0,0.0,193.0,1.0,154.0,0.0,44.0,3.0,249.0,410.0,44.0,1017.0,1744252719.1604085,0.0,2025-04-09 22:38:39.160,FORWARD,18
163.0,14328.630486563503,2250.1054108268513,-62584.25862601503,-60054.152912396545,-35842.63155968566,-33329.781392786674,-20742.62002022505,-22031.153384584595,0.0,0.0,0.0,193.0,1.0,155.0,0.0,44.0,3.0,251.0,411.0,44.0,1019.0,1744252719.1604168,0.0,2025-04-09 22:38:39.160,FORWARD,18
164.0,14452.280336890262,2266.0645563679404,-62597.08852733237,-60046.86624370411,-35880.94244968205,-33362.906678069434,-20542.43779688332,-22064.94922220102,0.0,0.0,0.0,193.0,1.0,154.0,0.0,44.0,3.0,249.0,410.0,44.0,1017.0,1744252719.1604254,0.0,2025-04-09 22:38:39.160,FORWARD,18
165.0,14443.76432225279,2283.9012484432756,-62542.438512139146,-60041.83710120167,-35789.23324218193,-33268.49290949022,-21033.8632504777,-21994.317709722247,0.0,0.0,0.0,193.0,1.0,155.0,0.0,44.0,3.0,251.0,411.0,44.0,1019.0,1744252719.160434,0.0,2025-04-09 22:38:39.160,FORWARD,18
166.0,14389.427231481939,2291.3667310913484,-62559.11291350281,-60027.59903998364,-35799.60445160919,-33289.168273111376,-20699.90583657096,-22014.031948331827,0.0,0.0,0.0,193.0,1.0,154.0,0.0,44.0,3.0,251.0,410.0,44.0,1019.0,1744252719.1604426,0.0,2025-04-09 22:38:39.160,FORWARD,18
167.0,14322.84138474958,2248.272567781516,-62592.52877146349,-60072.548398083265,-35841.60337944071,-33330.5190003537,-20797.605311585106,-22050.822919705264,0.0,0.0,0.0,193.0,1.0,155.0,0.0,45.0,3.0,250.0,411.0,45.0,1018.0,1744252719.1604512,0.0,2025-04-09 22:38:39.160,FORWARD,18
168.0,14433.326057592161,2263.1364778442953,-62602.43059425719,-60037.098531377145,-35890.39723758665,-33376.25066950925,-20502.182305119313,-22081.020126464384,0.0,0.0,0.0,193.0,1.0,155.0,0.0,44.0,3.0,251.0,411.0,44.0,1019.0,1744252719.16046,0.0,2025-04-09 22:38:39.160,FORWARD,18
169.0,14459.365839882594,2298.40753059477,-62550.194567465136,-60055.069333919215,-35795.8493585407,-33270.370456024466,-21020.631017760163,-21992.037831787806,0.0,0.0,0.0,193.0,1.0,154.0,0.0,44.0,3.0,250.0,410.0,44.0,1018.0,1744252719.1604686,0.0,2025-04-09 22:38:39.160,FORWARD,18
170.0,14393.718766417358,2290.7855857355103,-62563.09152401585,-60024.4697957599,-35807.06993425726,-33289.727066722764,-20708.66772039744,-21998.832762102218,0.0,0.0,0.0,193.0,1.0,154.0,0.0,44.0,3.0,249.0,410.0,44.0,1017.0,1744252719.1604772,0.0,2025-04-09 22:38:39.160,FORWARD,18
171.0,14320.002713203754,2256.0062713630523,-62600.307178533934,-60087.009976745845,-35840.75401315141,-33328.55204684163,-20818.59359962864,-22053.192204617528,0.0,0.0,0.0,193.0,1.0,154.0,0.0,45.0,3.0,250.0,410.0,45.0,1018.0,1744252719.1604855,0.0,2025-04-09 22:38:39.160,FORWARD,18
172.0,14413.433005026938,2260.1636958317395,-62596.3732715098,-60025.83325217167,-35886.30686835133,-33376.80946312064,-20518.83435473852,-22088.731478301466,0.0,0.0,0.0,193.0,1.0,154.0,0.0,44.0,3.0,249.0,410.0,44.0,1017.0,1744252719.1604943,0.0,2025-04-09 22:38:39.160,FORWARD,18
173.0,14461.556310839214,2283.141289131795,-62576.23434975557,-60080.50561910935,-35820.77155360836,-33301.21586337279,-20957.330877462733,-22017.541172211313,0.0,0.0,0.0,193.0,1.0,155.0,0.0,44.0,3.0,251.0,411.0,44.0,1019.0,1744252719.160503,0.0,2025-04-09 22:38:39.160,FORWARD,18
174.0,14398.949074619899,2287.4551758116695,-62559.224672225086,-60021.228792813876,-35802.21960571046,-33292.07399989057,-20770.716163005374,-21997.379898712625,0.0,0.0,0.0,193.0,1.0,154.0,0.0,44.0,3.0,251.0,410.0,44.0,1019.0,1744252719.160512,0.0,2025-04-09 22:38:39.160,FORWARD,18
175.0,14324.02602720571,2265.7516319455663,-62599.45781224463,-60091.54738087027,-35828.63936765664,-33324.39462237294,-20796.93475925145,-22041.546945756312,0.0,0.0,0.0,193.0,1.0,154.0,0.0,45.0,3.0,250.0,410.0,45.0,1018.0,1744252719.1605203,0.0,2025-04-09 22:38:39.160,FORWARD,18
176.0,14385.985062835822,2256.92269288572,-62595.59096045387,-60032.44936853044,-35880.60717351522,-33376.51889044272,-20577.12770427796,-22086.71982130049,0.0,0.0,0.0,193.0,1.0,155.0,0.0,44.0,3.0,249.0,411.0,44.0,1017.0,1744252719.160529,0.0,2025-04-09 22:38:39.160,FORWARD,18
177.0,14468.440648131449,2286.5164025445465,-62587.030242327484,-60087.501715123864,-35841.268103273884,-33329.98255848677,-20866.448684507453,-22049.63827724913,0.0,0.0,0.0,193.0,1.0,155.0,0.0,44.0,3.0,252.0,411.0,44.0,1020.0,1744252719.1605415,0.0,2025-04-09 22:38:39.160,FORWARD,18
178.0,14413.924743404956,2296.172356149239,-62548.719352331085,-60027.48728126136,-35792.58600385022,-33295.06913364758,-20853.305858767733,-22009.047509318294,0.0,0.0,0.0,193.0,1.0,154.0,0.0,44.0,3.0,251.0,410.0,44.0,1019.0,1744252719.16055,0.0,2025-04-09 22:38:39.160,FORWARD,18
179.0,14333.145538943476,2271.384271548304,-62599.122536077804,-60095.749508827874,-35824.61605365468,-33323.18762817235,-20747.58210749413,-22030.460480506477,0.0,0.0,0.0,193.0,1.0,155.0,0.0,44.0,3.0,252.0,411.0,44.0,1020.0,1744252719.1605587,0.0,2025-04-09 22:38:39.160,FORWARD,18
180.0,14349.17173971793,2245.0762683244075,-62604.68812044718,-60057.68448802048,-35877.969667669495,-33375.24484100877,-20642.595963787553,-22077.577957818266,0.0,0.0,0.0,193.0,1.0,155.0,0.0,45.0,3.0,250.0,411.0,45.0,1018.0,1744252719.1605673,0.0,2025-04-09 22:38:39.160,FORWARD,18
181.0,14461.95864223941,2272.5912657488902,-62600.39658551176,-60088.060508735245,-35862.457557017515,-33352.446061664356,-20749.81728193966,-22067.966707702482,0.0,0.0,0.0,193.0,1.0,154.0,0.0,44.0,3.0,249.0,410.0,44.0,1017.0,1744252719.446954,0.0,2025-04-09 22:38:39.446,FORWARD,18
182.0,14415.310551561184,2281.956646675664,-62548.13820697525,-60036.942069165954,-35793.77064630636,-33285.56964225407,-20959.275479230342,-22004.532456938323,0.0,0.0,0.0,193.0,1.0,155.0,0.0,44.0,3.0,251.0,411.0,44.0,1019.0,1744252719.4469912,0.0,2025-04-09 22:38:39.446,FORWARD,18
183.0,14340.70042856937,2270.601960492368,-62591.56764645191,-60081.64555807657,-35822.87261758716,-33319.231369403766,-20737.143842833502,-22039.02119863286,0.0,0.0,0.0,193.0,1.0,154.0,0.0,44.0,3.0,251.0,410.0,44.0,1019.0,1744252719.4470103,0.0,2025-04-09 22:38:39.447,FORWARD,18
184.0,14318.30398062515,2228.8489018498544,-62608.62202747131,-60074.64946206206,-35873.633429245165,-33375.8259863646,-20731.71236893086,-22098.14156271715,0.0,0.0,0.0,193.0,1.0,155.0,0.0,44.0,3.0,252.0,411.0,44.0,1020.0,1744252719.4470274,0.0,2025-04-09 22:38:39.447,FORWARD,18
185.0,14446.893566476532,2259.9401783871863,-62609.6278559718,-60077.17520918551,-35887.58091778528,-33377.70353289885,-20644.160585899423,-22098.678004584075,0.0,0.0,0.0,193.0,1.0,154.0,0.0,44.0,3.0,250.0,410.0,44.0,1018.0,1744252719.4470377,0.0,2025-04-09 22:38:39.447,FORWARD,18
186.0,14429.347447079117,2287.4998793005802,-62544.114892973295,-60043.98286866938,-35794.17297770655,-33279.33350555104,-21038.490061579952,-21999.16803826905,0.0,0.0,0.0,193.0,1.0,155.0,0.0,44.0,3.0,251.0,411.0,44.0,1019.0,1744252719.4470472,0.0,2025-04-09 22:38:39.447,FORWARD,18
187.0,14357.17366423293,2273.865315182843,-62584.303329503935,-60067.60866255864,-35819.16222800758,-33317.71145078081,-20707.080746541113,-22029.186431072525,0.0,0.0,0.0,193.0,1.0,154.0,0.0,44.0,3.0,249.0,410.0,44.0,1017.0,1744252719.4470568,0.0,2025-04-09 22:38:39.447,FORWARD,18
188.0,14308.871544465012,2236.9849368315863,-62601.91650413472,-60081.80202028776,-35857.94250463754,-33351.529640141685,-20784.261320145288,-22061.998791932918,0.0,0.0,0.0,193.0,1.0,155.0,0.0,44.0,3.0,252.0,411.0,44.0,1020.0,1744252719.447066,0.0,2025-04-09 22:38:39.447,FORWARD,18
189.0,14435.561232037691,2258.241445808583,-62599.56957096691,-60046.821540215205,-35885.90453695113,-33371.13212002899,-20549.188023708826,-22078.94141423004,0.0,0.0,0.0,193.0,1.0,154.0,0.0,44.0,3.0,249.0,410.0,44.0,1017.0,1744252719.447075,0.0,2025-04-09 22:38:39.447,FORWARD,18
190.0,14441.596203040624,2291.2996758579825,-62542.99730575053,-60048.87790070509,-35788.495634614905,-33270.079883346545,-21049.26360240741,-21997.715174879453,0.0,0.0,0.0,193.0,1.0,155.0,0.0,44.0,3.0,252.0,411.0,44.0,1020.0,1744252719.4470837,0.0,2025-04-09 22:38:39.447,FORWARD,18
191.0,14372.8422370961,2292.3502078473816,-62569.66293688571,-60039.2219471004,-35807.159341235085,-33299.718296494284,-20700.71049937135,-22014.72485240994,0.0,0.0,0.0,193.0,1.0,155.0,0.0,45.0,3.0,249.0,411.0,45.0,1017.0,1744252719.447122,0.0,2025-04-09 22:38:39.447,FORWARD,18
192.0,14310.078538665599,2258.375556275315,-62593.02050984151,-60081.60085458766,-35834.361414237195,-33327.12153519649,-20811.105765236112,-22039.132957355137,0.0,0.0,0.0,193.0,1.0,155.0,0.0,45.0,3.0,252.0,411.0,45.0,1020.0,1744252719.4471312,0.0,2025-04-09 22:38:39.447,FORWARD,18
193.0,14430.465034301882,2267.7185854576333,-62584.05746031493,-60023.75453993733,-35872.448786789035,-33363.44311993636,-20498.91895042884,-22062.155254144105,0.0,0.0,0.0,193.0,1.0,155.0,0.0,44.0,3.0,249.0,411.0,44.0,1017.0,1744252719.4471405,0.0,2025-04-09 22:38:39.447,FORWARD,18
194.0,14447.899394977021,2274.245294838583,-62560.1634454922,-60072.86132250563,-35807.60637612419,-33287.53659576614,-21008.002282142912,-22007.63934941761,0.0,0.0,0.0,193.0,1.0,155.0,0.0,44.0,3.0,252.0,411.0,44.0,1020.0,1744252719.4471493,0.0,2025-04-09 22:38:39.447,FORWARD,18
195.0,14390.053080326687,2286.5611060334572,-62550.261622698505,-60021.07233060269,-35794.26238468437,-33288.475369033265,-20735.95920037737,-22003.996015071396,0.0,0.0,0.0,193.0,1.0,155.0,0.0,44.0,3.0,251.0,411.0,44.0,1019.0,1744252719.447158,0.0,2025-04-09 22:38:39.447,FORWARD,18
196.0,14321.969666715822,2268.120916857829,-62576.18964626666,-60076.035270218286,-35815.18361749454,-33310.33537511055,-20809.563494868697,-22034.282628808338,0.0,0.0,0.0,193.0,1.0,155.0,0.0,45.0,3.0,251.0,411.0,45.0,1019.0,1744252719.447172,0.0,2025-04-09 22:38:39.447,FORWARD,18
197.0,14390.522466960248,2246.372669502815,-62590.15948655123,-60029.00719988433,-35886.217461373504,-33379.67048641092,-20526.97038972025,-22088.865588768196,0.0,0.0,0.0,193.0,1.0,155.0,0.0,44.0,3.0,251.0,411.0,44.0,1019.0,1744252719.4471805,0.0,2025-04-09 22:38:39.447,FORWARD,18
198.0,14445.150130409018,2269.730242458611,-62581.77758238049,-60095.77186057233,-35838.18356253905,-33327.94854974133,-20952.324086704743,-22062.311716355292,0.0,0.0,0.0,193.0,1.0,155.0,0.0,44.0,3.0,250.0,411.0,44.0,1018.0,1744252719.4471896,0.0,2025-04-09 22:38:39.447,FORWARD,18
199.0,14394.478725728837,2285.287056599505,-62548.13820697525,-60026.07912136068,-35800.6996870875,-33299.04774416063,-20817.20779147241,-22024.291399036814,0.0,0.0,0.0,193.0,1.0,155.0,0.0,44.0,3.0,251.0,411.0,44.0,1019.0,1744252719.4471984,0.0,2025-04-09 22:38:39.447,FORWARD,18
