Sample Index,EXG Channel 0,EXG Channel 1,EXG Channel 2,EXG Channel 3,EXG Channel 4,EXG Channel 5,EXG Channel 6,EXG Channel 7,Accel Channel 0,Accel Channel 1,Accel Channel 2,Not Used,Digital Channel 0 (D11),Digital Channel 1 (D12),Digital Channel 2 (D13),Digital Channel 3 (D17),Not Used,Digital Channel 4 (D18),Analog Channel 0,Analog Channel 1,Analog Channel 2,Timestamp,Marker Channel,Timestamp (Formatted),Stimulus_Direction,Stimulus_Number
89.0,19367.49599784565,25146.20425059846,-31789.969717260567,-21028.990570186445,-35609.68167897245,-27471.38917105069,-14537.261669309339,-35309.65421314886,0.0,0.0,0.0,193.0,0.0,193.0,0.0,1.0,0.0,179.0,193.0,1.0,179.0,1744420560.0972855,0.0,2025-04-11 21:16:00.097,FORWARD,33
90.0,19376.190826438764,25151.322800078728,-31791.467284139075,-21029.012921930902,-35607.222987082365,-27482.967374678537,-14384.666309912958,-35290.543471639576,0.0,0.0,0.0,193.0,0.0,193.0,0.0,1.0,0.0,179.0,193.0,1.0,179.0,1744420560.097329,0.0,2025-04-11 21:16:00.097,FORWARD,33
91.0,19393.312262691532,25146.22660234292,-31806.420601179674,-21048.68245705157,-35623.87503670157,-27503.39686911069,-13934.546880071985,-35294.879710063906,0.0,0.0,0.0,193.0,0.0,194.0,0.0,1.0,0.0,179.0,194.0,1.0,179.0,1744420560.0973716,0.0,2025-04-11 21:16:00.097,FORWARD,33
92.0,19375.56497759402,25121.036186341786,-31808.052278524912,-21055.164462943612,-35622.26571110079,-27495.57375855133,-14125.453129464762,-35330.173114558835,0.0,0.0,0.0,193.0,0.0,193.0,0.0,1.0,0.0,179.0,193.0,1.0,179.0,1744420560.0974295,0.0,2025-04-11 21:16:00.097,FORWARD,33
93.0,19357.661230285317,25132.189706824985,-31799.96094703209,-21044.256811649422,-35614.01791739678,-27481.20158686657,-14479.236540703361,-35321.05360282107,0.0,0.0,0.0,193.0,0.0,193.0,0.0,1.0,0.0,179.0,193.0,1.0,179.0,1744420560.097473,0.0,2025-04-11 21:16:00.097,FORWARD,33
94.0,19369.820579269002,25139.610485984147,-31787.108693970287,-21033.527974310873,-35605.14427484802,-27475.211319352547,-14479.393002914549,-35313.00697481716,0.0,0.0,0.0,193.0,0.0,194.0,0.0,1.0,0.0,179.0,194.0,1.0,179.0,1744420560.0975206,0.0,2025-04-11 21:16:00.097,FORWARD,33
95.0,19390.205370212243,25135.341302793182,-31807.38172619125,-21052.862233264714,-35630.491153060335,-27502.234578399013,-14002.093851815922,-35305.74265786918,0.0,0.0,0.0,193.0,0.0,194.0,0.0,1.0,0.0,180.0,194.0,1.0,180.0,1744420560.0975635,0.0,2025-04-11 21:16:00.097,FORWARD,33
96.0,19379.990622996167,25116.722299661913,-31806.845284324325,-21060.88650952417,-35624.4561820574,-27492.10923816076,-14086.225817945699,-35333.28000703812,0.0,0.0,0.0,193.0,0.0,193.0,0.0,1.0,0.0,179.0,193.0,1.0,179.0,1744420560.097607,0.0,2025-04-11 21:16:00.097,FORWARD,33
97.0,19359.181148908276,25126.44530849997,-31797.949290031112,-21045.933192483568,-35615.29196683073,-27476.015982152938,-14421.122005119563,-35300.1323700109,0.0,0.0,0.0,193.0,0.0,193.0,0.0,1.0,0.0,179.0,193.0,1.0,179.0,1744420560.097649,0.0,2025-04-11 21:16:00.097,FORWARD,33
98.0,19367.272480401098,25141.599791240667,-31786.99693524801,-21035.74079701195,-35605.971289392866,-27475.09956063027,-14525.974038359409,-35302.971041556724,0.0,0.0,0.0,193.0,0.0,193.0,0.0,1.0,0.0,179.0,193.0,1.0,179.0,1744420560.0977056,0.0,2025-04-11 21:16:00.097,FORWARD,33
99.0,19396.039175515078,25147.590058754693,-31796.898758041712,-21043.049817448835,-35616.63307149805,-27496.467828329543,-14057.839102487458,-35276.685390077284,0.0,0.0,0.0,193.0,0.0,193.0,0.0,1.0,0.0,179.0,193.0,1.0,179.0,1744420560.0977488,0.0,2025-04-11 21:16:00.097,FORWARD,33
100.0,19398.050832516055,25130.982712624398,-31801.95025228861,-21057.93607925607,-35617.54949302071,-27495.909034718163,-14024.49029976014,-35326.57448370153,0.0,0.0,0.0,193.0,0.0,193.0,0.0,1.0,0.0,178.0,193.0,1.0,178.0,1744420560.0977912,0.0,2025-04-11 21:16:00.097,FORWARD,33
101.0,19372.323974647996,25126.959398622443,-31802.48669415554,-21052.526957097885,-35616.63307149805,-27482.67680200062,-14365.153237003475,-35317.454971963765,0.0,0.0,0.0,193.0,0.0,193.0,0.0,1.0,0.0,179.0,193.0,1.0,179.0,1744420560.0978339,0.0,2025-04-11 21:16:00.097,FORWARD,33
102.0,19365.841968755958,25135.184840581995,-31787.756894559494,-21040.747587769936,-35596.04711485471,-27470.91978441713,-14559.434599809003,-35315.82329461852,0.0,0.0,0.0,193.0,0.0,193.0,0.0,1.0,0.0,179.0,193.0,1.0,179.0,1744420560.0978904,0.0,2025-04-11 21:16:00.097,FORWARD,33
103.0,19388.149009722354,25136.436538271493,-31793.791865562423,-21041.64165754815,-35595.42126600996,-27488.309441603356,-14139.959411616257,-35282.83211980249,0.0,0.0,0.0,193.0,0.0,193.0,0.0,1.0,0.0,179.0,193.0,1.0,179.0,1744420560.0979333,0.0,2025-04-11 21:16:00.097,FORWARD,33
104.0,19384.908006776335,25111.581398437193,-31816.81416235139,-21075.236329464475,-35616.655423242504,-27510.616482569752,-13965.548749631495,-35334.6881669388,0.0,0.0,0.0,193.0,0.0,193.0,0.0,1.0,0.0,179.0,193.0,1.0,179.0,1744420560.0979757,0.0,2025-04-11 21:16:00.097,FORWARD,33
105.0,19360.097570430946,25107.558084435237,-31812.030889037957,-21068.84373055026,-35608.698202216416,-27495.372592851236,-14301.45076530585,-35329.92724536982,0.0,0.0,0.0,193.0,0.0,194.0,0.0,1.0,0.0,179.0,194.0,1.0,179.0,1744420560.098018,0.0,2025-04-11 21:16:00.098,FORWARD,33
106.0,19354.084951172466,25119.091584574177,-31805.92886280166,-21062.428779891587,-35604.563129492184,-27496.467828329543,-14556.841797452189,-35339.22557106323,0.0,0.0,0.0,193.0,0.0,193.0,0.0,1.0,0.0,179.0,193.0,1.0,179.0,1744420560.0980604,0.0,2025-04-11 21:16:00.098,FORWARD,33
107.0,19380.59412009646,25128.79224166778,-31807.806409335903,-21058.003134489434,-35613.012088896285,-27509.901226747184,-14246.711343134803,-35322.953501099764,0.0,0.0,0.0,193.0,0.0,193.0,0.0,1.0,0.0,179.0,193.0,1.0,179.0,1744420560.0981169,0.0,2025-04-11 21:16:00.098,FORWARD,33
108.0,19394.65336735885,25123.941913120976,-31817.61882515178,-21076.04099226487,-35623.42800181246,-27510.370613380746,-13959.111447228366,-35326.84270463499,0.0,0.0,0.0,193.0,0.0,193.0,0.0,1.0,0.0,179.0,193.0,1.0,179.0,1744420560.0981593,0.0,2025-04-11 21:16:00.098,FORWARD,33
109.0,19375.184997938275,25120.320930519218,-31814.936615817147,-21071.995326518456,-35620.209350610894,-27495.126723662226,-14263.139875309453,-35328.47438198023,0.0,0.0,0.0,193.0,0.0,193.0,0.0,1.0,0.0,179.0,193.0,1.0,179.0,1744420560.0982013,0.0,2025-04-11 21:16:00.098,FORWARD,33
110.0,19363.852663499434,25135.72128244892,-31801.279699954954,-21054.091579209755,-35604.697239958914,-27480.10635138826,-14561.088628898697,-35313.14108528389,0.0,0.0,0.0,193.0,0.0,193.0,0.0,1.0,0.0,179.0,193.0,1.0,179.0,1744420560.0982437,0.0,2025-04-11 21:16:00.098,FORWARD,33
111.0,19383.186922453275,25139.20815458395,-31800.855016810303,-21048.50364309593,-35606.48537951534,-27493.472694572534,-14328.87635575251,-35292.756294340645,0.0,0.0,0.0,193.0,0.0,194.0,0.0,1.0,0.0,180.0,194.0,1.0,180.0,1744420560.098286,0.0,2025-04-11 21:16:00.098,FORWARD,33
112.0,19400.26365521713,25124.21013405444,-31823.40792696571,-21076.152750987145,-35635.63205428506,-27523.558142609378,-13939.240746407599,-35327.98264360221,0.0,0.0,0.0,193.0,0.0,193.0,0.0,1.0,0.0,179.0,193.0,1.0,179.0,1744420560.0983288,0.0,2025-04-11 21:16:00.098,FORWARD,33
113.0,19381.73405906368,25115.180029294497,-31819.96575831959,-21074.16344573062,-35628.16657163698,-27513.231636671026,-14189.535580818127,-35354.71532997076,0.0,0.0,0.0,193.0,0.0,193.0,0.0,1.0,0.0,179.0,193.0,1.0,179.0,1744420560.0983834,0.0,2025-04-11 21:16:00.098,FORWARD,33
114.0,19362.556262321028,25128.814593412233,-31814.40017395022,-21063.21109094752,-35621.99749016732,-27502.83807549931,-14526.555183715247,-35336.118678583945,0.0,0.0,0.0,193.0,0.0,194.0,0.0,1.0,0.0,180.0,194.0,1.0,180.0,1744420560.0984268,0.0,2025-04-11 21:16:00.098,FORWARD,33
115.0,19371.049925214043,25134.179012081506,-31812.72379311607,-21057.377285644685,-35621.57280702267,-27509.20832266907,-14431.224993613363,-35325.45689647876,0.0,0.0,0.0,193.0,0.0,193.0,0.0,1.0,0.0,179.0,193.0,1.0,179.0,1744420560.0984695,0.0,2025-04-11 21:16:00.098,FORWARD,33
116.0,19390.07125974551,25131.742671935877,-31830.560485191407,-21077.40444867664,-35638.80600199771,-27533.92935203664,-13970.399078178298,-35329.50256222517,0.0,0.0,0.0,193.0,0.0,193.0,0.0,1.0,0.0,179.0,193.0,1.0,179.0,1744420560.0985117,0.0,2025-04-11 21:16:00.098,FORWARD,33
117.0,19379.25301542914,25117.86223862913,-31829.711118902105,-21082.880626068192,-35638.06839443069,-27524.318101920857,-14145.860272152457,-35366.584106276525,0.0,0.0,0.0,193.0,0.0,193.0,0.0,1.0,0.0,179.0,193.0,1.0,179.0,1744420560.0985675,0.0,2025-04-11 21:16:00.098,FORWARD,33
118.0,19357.59417505195,25123.383119509595,-31817.44001119614,-21063.859291536726,-35624.6573477575,-27502.949834221585,-14486.210284973418,-35329.971948858736,0.0,0.0,0.0,193.0,0.0,194.0,0.0,1.0,0.0,179.0,194.0,1.0,179.0,1744420560.09861,0.0,2025-04-11 21:16:00.098,FORWARD,33
119.0,19372.45808511473,25138.40349178356,-31804.118371500776,-21047.02842796188,-35618.24239709883,-27492.06453467185,-14505.67865439399,-35315.10803879595,0.0,0.0,0.0,193.0,0.0,193.0,0.0,1.0,0.0,179.0,193.0,1.0,179.0,1744420560.0986526,0.0,2025-04-11 21:16:00.098,FORWARD,33
120.0,19396.419155170817,25133.88843940359,-31825.86661885579,-21067.16734971611,-35640.23651364285,-27520.07127047435,-14017.91888689028,-35299.79709384407,0.0,0.0,0.0,193.0,0.0,193.0,0.0,1.0,0.0,179.0,193.0,1.0,179.0,1744420560.0986953,0.0,2025-04-11 21:16:00.098,FORWARD,33
121.0,19387.389050410875,25116.96816885092,-31818.982281563556,-21070.765980573415,-35620.61168201109,-27508.73893603551,-14067.137428180866,-35333.57057971604,0.0,0.0,0.0,193.0,0.0,193.0,0.0,1.0,0.0,179.0,193.0,1.0,179.0,1744420560.0987377,0.0,2025-04-11 21:16:00.098,FORWARD,33
122.0,19363.718553032704,25123.15960206504,-31812.612034393795,-21057.086712966768,-35614.46495228588,-27494.97026145104,-14411.242534070318,-35323.78051564461,0.0,0.0,0.0,193.0,0.0,193.0,0.0,1.0,0.0,180.0,193.0,1.0,180.0,1744420560.0987945,0.0,2025-04-11 21:16:00.098,FORWARD,33
123.0,19369.284137402075,25132.659093458547,-31806.33119420185,-21051.141148941657,-35610.1063621171,-27495.171427151137,-14542.134349600596,-35336.94569312879,0.0,0.0,0.0,193.0,0.0,193.0,0.0,0.0,0.0,179.0,193.0,0.0,179.0,1744420560.0988371,0.0,2025-04-11 21:16:00.098,FORWARD,33
124.0,19401.291835462074,25144.885497675597,-31822.044470553934,-21058.897204267647,-35630.62526352707,-27511.376441881235,-14086.44933539025,-35297.80778858755,0.0,0.0,0.0,193.0,0.0,193.0,0.0,1.0,0.0,179.0,193.0,1.0,179.0,1744420560.098879,0.0,2025-04-11 21:16:00.098,FORWARD,33
125.0,19387.925492277802,25121.371462508618,-31822.15622927621,-21068.508454383427,-35629.731193748856,-27504.357994122267,-14021.29400030303,-35328.54143721359,0.0,0.0,0.0,193.0,0.0,194.0,0.0,0.0,0.0,180.0,194.0,0.0,180.0,1744420560.0989215,0.0,2025-04-11 21:16:00.098,FORWARD,33
126.0,19349.39108483685,25104.49589544486,-31812.947310560623,-21053.711599554015,-35617.75065872081,-27487.415371825144,-14352.926832786421,-35318.8854836089,0.0,0.0,0.0,193.0,0.0,193.0,0.0,0.0,0.0,179.0,193.0,0.0,179.0,1744420560.0989635,0.0,2025-04-11 21:16:00.098,FORWARD,33
127.0,19357.84004424096,25130.5803812242,-31797.032868508446,-21035.15965165611,-35603.62435622506,-27470.450397783567,-14546.984678147397,-35308.000184059165,0.0,0.0,0.0,193.0,0.0,194.0,0.0,0.0,0.0,179.0,194.0,0.0,179.0,1744420560.0990057,0.0,2025-04-11 21:16:00.099,FORWARD,33
128.0,19387.03142249959,25139.342265050684,-31804.0066127785,-21037.528936568375,-35614.62141449707,-27486.878929958217,-14153.549272245084,-35277.043017988566,0.0,0.0,0.0,193.0,0.0,194.0,0.0,0.0,0.0,179.0,194.0,0.0,179.0,1744420560.09906,0.0,2025-04-11 21:16:00.099,FORWARD,33
129.0,19388.193713211265,25117.728128162402,-31814.601339650315,-21059.679515323583,-35625.57376928017,-27503.39686911069,-13966.174598476244,-35318.97489058672,0.0,0.0,0.0,193.0,0.0,193.0,0.0,0.0,0.0,179.0,193.0,0.0,179.0,1744420560.0991025,0.0,2025-04-11 21:16:00.099,FORWARD,33
130.0,19368.144198434853,25113.369537993618,-31809.795714592427,-21051.230555919476,-35621.86337970059,-27494.29970911738,-14298.276817593196,-35324.786344145105,0.0,0.0,0.0,193.0,0.0,194.0,0.0,0.0,0.0,179.0,194.0,0.0,179.0,1744420560.0991461,0.0,2025-04-11 21:16:00.099,FORWARD,33
131.0,19349.21227088121,25127.048805600265,-31803.358412189296,-21046.983724472968,-35613.0567923852,-27491.68455501611,-14562.16151263255,-35323.22172203323,0.0,0.0,0.0,193.0,0.0,194.0,0.0,0.0,0.0,180.0,194.0,0.0,180.0,1744420560.0991895,0.0,2025-04-11 21:16:00.099,FORWARD,33
132.0,19366.668983300806,25120.812668897233,-31809.974528548068,-21051.655239064126,-35620.29875758872,-27514.036299471416,-14256.926090350878,-35304.80388460206,0.0,0.0,0.0,193.0,0.0,194.0,0.0,0.0,0.0,179.0,194.0,0.0,179.0,1744420560.099249,0.0,2025-04-11 21:16:00.099,FORWARD,33
133.0,19375.520274105107,25096.11399127412,-31832.147459047734,-21083.9758615465,-35643.05283344422,-27541.417186429167,-13958.038563494512,-35352.52485901414,0.0,0.0,0.0,193.0,0.0,193.0,0.0,0.0,0.0,179.0,193.0,0.0,179.0,1744420560.099296,0.0,2025-04-11 21:16:00.099,FORWARD,33
134.0,19362.869186743403,25097.231578496885,-31815.227188495064,-21066.250928193444,-35623.159780878996,-27510.84000001431,-14247.694819890836,-35340.38786177491,0.0,0.0,0.0,193.0,0.0,193.0,0.0,0.0,0.0,179.0,193.0,0.0,179.0,1744420560.099338,0.0,2025-04-11 21:16:00.099,FORWARD,33
135.0,19347.35707609142,25109.994424580866,-31805.325365701363,-21056.371457144196,-35616.163684864485,-27499.28414813091,-14542.939012400988,-35318.505503953165,0.0,0.0,0.0,193.0,0.0,194.0,0.0,0.0,0.0,179.0,194.0,0.0,179.0,1744420560.09938,0.0,2025-04-11 21:16:00.099,FORWARD,33
136.0,19361.192805909253,25119.91859911902,-31809.482790170052,-21058.31605891181,-35623.24918785682,-27511.4434971146,-14358.000678777777,-35302.188730500784,0.0,0.0,0.0,193.0,0.0,193.0,0.0,0.0,0.0,179.0,193.0,0.0,179.0,1744420560.0994225,0.0,2025-04-11 21:16:00.099,FORWARD,33
137.0,19380.92939626329,25114.844753127665,-31825.19606652213,-21076.8233033208,-35640.0129961983,-27529.883686290228,-13950.595432590895,-35316.18092252981,0.0,0.0,0.0,193.0,0.0,193.0,0.0,0.0,0.0,178.0,193.0,0.0,178.0,1744420560.0995824,0.0,2025-04-11 21:16:00.099,FORWARD,33
138.0,19363.517387332606,25105.658186156536,-31821.686842642648,-21073.17996897459,-35633.508638561805,-27518.88662801822,-14176.19158937831,-35351.72019621375,0.0,0.0,0.0,193.0,0.0,193.0,0.0,0.0,0.0,179.0,193.0,0.0,179.0,1744420560.099625,0.0,2025-04-11 21:16:00.099,FORWARD,33
139.0,19353.816730239003,25120.902075875056,-31806.1076767573,-21050.962334986012,-35616.588368009136,-27495.01496493995,-14515.088738809674,-35327.37914650192,0.0,0.0,0.0,193.0,0.0,193.0,0.0,0.0,0.0,178.0,193.0,0.0,178.0,1744420560.0996675,0.0,2025-04-11 21:16:00.099,FORWARD,33
140.0,19370.133503691377,25126.288846288782,-31806.53235990195,-21046.760207028416,-35620.991661666834,-27502.860427243762,-14440.322153606672,-35314.19161727329,0.0,0.0,0.0,193.0,0.0,194.0,0.0,0.0,0.0,179.0,194.0,0.0,179.0,1744420560.0997095,0.0,2025-04-11 21:16:00.099,FORWARD,33
141.0,19383.11986721991,25119.851543885656,-31826.403060722718,-21068.620213105707,-35642.65050204402,-27528.654340345187,-13966.28635719852,-35308.53662592609,0.0,0.0,0.0,193.0,0.0,194.0,0.0,0.0,0.0,180.0,194.0,0.0,180.0,1744420560.0997517,0.0,2025-04-11 21:16:00.099,FORWARD,33
142.0,19377.196654939253,25112.229599026396,-31815.29424372843,-21064.64160259266,-35636.10144091862,-27511.06351745886,-14122.07801605201,-35339.13616408541,0.0,0.0,0.0,193.0,0.0,193.0,0.0,0.0,0.0,179.0,193.0,0.0,179.0,1744420560.0997937,0.0,2025-04-11 21:16:00.099,FORWARD,33
143.0,19362.846834998945,25129.14986957906,-31801.883197055246,-21045.888488994657,-35629.97706293787,-27496.132552162715,-14474.00623250082,-35324.04873657808,0.0,0.0,0.0,193.0,0.0,194.0,0.0,0.0,0.0,179.0,194.0,0.0,179.0,1744420560.099851,0.0,2025-04-11 21:16:00.099,FORWARD,33
144.0,19367.071314701,25133.799032425766,-31796.071743496865,-21041.194622659044,-35627.42896406996,-27504.469752844543,-14526.421073248515,-35337.07980359552,0.0,0.0,0.0,193.0,0.0,194.0,0.0,0.0,0.0,178.0,194.0,0.0,178.0,1744420560.0998971,0.0,2025-04-11 21:16:00.099,FORWARD,33
145.0,19391.322957435008,25131.519154491325,-31810.890950070734,-21055.142111199155,-35646.785574768255,-27527.603808355787,-14054.084009418966,-35320.47245746523,0.0,0.0,0.0,193.0,0.0,193.0,0.0,0.0,0.0,179.0,193.0,0.0,179.0,1744420560.0999455,0.0,2025-04-11 21:16:00.099,FORWARD,33
146.0,19383.723364320205,25116.92346536201,-31811.561502404395,-21065.73683807097,-35643.90219973352,-27521.50178211949,-14089.98091101419,-35352.390748547405,0.0,0.0,0.0,193.0,0.0,193.0,0.0,0.0,0.0,179.0,193.0,0.0,179.0,1744420560.0999928,0.0,2025-04-11 21:16:00.099,FORWARD,33
147.0,19367.11601818991,25128.50166898986,-31793.166016717678,-21041.64165754815,-35614.19673135242,-27491.125761404724,-14417.612781240081,-35315.197445773774,0.0,0.0,0.0,193.0,0.0,193.0,0.0,0.0,0.0,179.0,193.0,0.0,179.0,1744420560.1000772,0.0,2025-04-11 21:16:00.100,FORWARD,33
148.0,19374.13446594888,25137.84469817218,-31783.420656135164,-21031.248096376432,-35607.021821382266,-27481.179235122116,-14538.7815879323,-35301.09349502248,0.0,0.0,0.0,193.0,0.0,193.0,0.0,0.0,0.0,179.0,193.0,0.0,179.0,1744420560.1001277,0.0,2025-04-11 21:16:00.100,FORWARD,33
149.0,19393.40166966935,25134.223715570417,-31807.33702270234,-21046.44728260604,-35633.32982460616,-27513.231636671026,-14082.604835343938,-35291.012858273134,0.0,0.0,0.0,193.0,0.0,193.0,0.0,0.0,0.0,179.0,193.0,0.0,179.0,1744420560.1001763,0.0,2025-04-11 21:16:00.100,FORWARD,33
150.0,19390.674756845805,25117.63872118458,-31814.1096012723,-21063.367553158707,-35632.79338273923,-27514.416279127156,-14013.87322114387,-35350.312036313066,0.0,0.0,0.0,193.0,0.0,194.0,0.0,0.0,0.0,180.0,194.0,0.0,180.0,1744420560.1002212,0.0,2025-04-11 21:16:00.100,FORWARD,33
151.0,19367.272480401098,25121.63968344208,-31807.96287154709,-21050.671762308095,-35621.79632446722,-27494.232653884013,-14358.134789244508,-35334.218780305244,0.0,0.0,0.0,193.0,0.0,194.0,0.0,0.0,0.0,180.0,194.0,0.0,180.0,1744420560.100263,0.0,2025-04-11 21:16:00.100,FORWARD,33
152.0,19355.895442473346,25130.06629110173,-31799.022173764966,-21039.16061391361,-35609.77108595027,-27478.3852670652,-14566.922434201531,-35309.85537884896,0.0,0.0,0.0,193.0,0.0,193.0,0.0,0.0,0.0,179.0,193.0,0.0,179.0,1744420560.1003191,0.0,2025-04-11 21:16:00.100,FORWARD,33
153.0,19380.348250907453,25131.675616702512,-31806.219435479576,-21038.132433668667,-35621.99749016732,-27493.003307938972,-14192.664825041871,-35277.44534938876,0.0,0.0,0.0,193.0,0.0,194.0,0.0,0.0,0.0,180.0,194.0,0.0,180.0,1744420560.1003616,0.0,2025-04-11 21:16:00.100,FORWARD,33
154.0,19385.84678004346,25118.465735729427,-31820.882179842258,-21059.74657055695,-35639.54360956474,-27508.604825568775,-13983.519552173562,-35331.04483259259,0.0,0.0,0.0,193.0,0.0,194.0,0.0,0.0,0.0,180.0,194.0,0.0,180.0,1744420560.1004033,0.0,2025-04-11 21:16:00.100,FORWARD,33
155.0,19366.400762367342,25113.995386838364,-31815.182485006153,-21047.721332039993,-35629.664138515494,-27488.64471777019,-14291.034852389677,-35322.66292842185,0.0,0.0,0.0,193.0,0.0,193.0,0.0,0.0,0.0,179.0,193.0,0.0,179.0,1744420560.100445,0.0,2025-04-11 21:16:00.100,FORWARD,33
156.0,19358.421189596796,25129.127517834608,-31802.82197032237,-21034.31028536681,-35615.3590220641,-27478.16174962065,-14565.670736512035,-35321.768858643634,0.0,0.0,0.0,193.0,0.0,194.0,0.0,0.0,0.0,180.0,194.0,0.0,180.0,1744420560.100487,0.0,2025-04-11 21:16:00.100,FORWARD,33
157.0,19379.923567762802,25132.659093458547,-31802.37493543326,-21033.796195244337,-35613.9061586745,-27490.566967793344,-14270.11361957951,-35283.2791546916,0.0,0.0,0.0,193.0,0.0,193.0,0.0,0.0,0.0,179.0,193.0,0.0,179.0,1744420560.1005292,0.0,2025-04-11 21:16:00.100,FORWARD,33
158.0,19390.451239401253,25124.25483754335,-31815.24954023952,-21058.31605891181,-35624.03149891275,-27509.96828198055,-13924.913278211747,-35303.239262490184,0.0,0.0,0.0,193.0,0.0,193.0,0.0,0.0,0.0,179.0,193.0,0.0,179.0,1744420560.1005838,0.0,2025-04-11 21:16:00.100,FORWARD,33
159.0,19374.581500837983,25118.599846196157,-31810.712136115093,-21052.035218719866,-35617.43773429844,-27495.57375855133,-14204.131269947442,-35318.81842837553,0.0,0.0,0.0,193.0,0.0,194.0,0.0,0.0,0.0,180.0,194.0,0.0,180.0,1744420560.1006262,0.0,2025-04-11 21:16:00.100,FORWARD,33
160.0,19354.666096528304,25126.02062535532,-31803.313708700385,-21042.02163720389,-35607.44650452692,-27480.732200233007,-14520.408453990038,-35300.601756644464,0.0,0.0,0.0,193.0,0.0,193.0,0.0,0.0,0.0,179.0,193.0,0.0,179.0,1744420560.1006677,0.0,2025-04-11 21:16:00.100,FORWARD,33
161.0,19373.329803148485,25131.519154491325,-31802.330231944354,-21039.428834847073,-35610.1063621171,-27487.415371825144,-14358.760638089258,-35283.50267213615,0.0,0.0,0.0,193.0,0.0,193.0,0.0,0.0,0.0,179.0,193.0,0.0,179.0,1744420560.100723,0.0,2025-04-11 21:16:00.100,FORWARD,33
162.0,19388.149009722354,25120.11976481912,-31823.72085138808,-21063.993402003456,-35633.95567345091,-27515.31034890537,-13944.493406354595,-35300.93703281129,0.0,0.0,0.0,193.0,0.0,193.0,0.0,0.0,0.0,180.0,193.0,0.0,180.0,1744420560.100765,0.0,2025-04-11 21:16:00.100,FORWARD,33
163.0,19369.708820546726,25106.909883846034,-31820.368089719785,-21060.081846723777,-35626.937225691945,-27499.753534764473,-14155.113894356955,-35318.37139348643,0.0,0.0,0.0,193.0,0.0,194.0,0.0,0.0,0.0,180.0,194.0,0.0,180.0,1744420560.1008067,0.0,2025-04-11 21:16:00.100,FORWARD,33
164.0,19354.68844827276,25119.650378185557,-31806.57706339086,-21044.12270118269,-35613.32501331866,-27484.196720623582,-14486.880837307077,-35297.69602986527,0.0,0.0,0.0,193.0,0.0,193.0,0.0,0.0,0.0,179.0,193.0,0.0,179.0,1744420560.1008487,0.0,2025-04-11 21:16:00.100,FORWARD,33
165.0,19363.606794310428,25124.92538987701,-31798.619842364773,-21038.0653784353,-35609.99460339482,-27491.05870617136,-14444.792502497734,-35301.428771189305,0.0,0.0,0.0,193.0,0.0,194.0,0.0,0.0,0.0,179.0,194.0,0.0,179.0,1744420560.10089,0.0,2025-04-11 21:16:00.100,FORWARD,33
166.0,19381.152913707843,25124.992445110376,-31816.747107118026,-21057.086712966768,-35629.99941468232,-27516.047956472394,-13972.589549134917,-35291.012858273134,0.0,0.0,0.0,193.0,0.0,194.0,0.0,0.0,0.0,180.0,194.0,0.0,180.0,1744420560.1009316,0.0,2025-04-11 21:16:00.100,FORWARD,33
167.0,19376.146122949856,25118.465735729427,-31813.886083827747,-21059.41129439012,-35627.42896406996,-27500.98288070952,-14105.537725155084,-35322.50646621066,0.0,0.0,0.0,193.0,0.0,193.0,0.0,0.0,0.0,179.0,193.0,0.0,179.0,1744420560.1009908,0.0,2025-04-11 21:16:00.100,FORWARD,33
168.0,19357.05773318502,25127.629950956103,-31806.48765641304,-21045.17323317209,-35618.398859310015,-27487.035392169404,-14461.176331183475,-35304.714477624235,0.0,0.0,0.0,193.0,0.0,193.0,0.0,0.0,0.0,179.0,193.0,0.0,179.0,1744420560.101033,0.0,2025-04-11 21:16:00.101,FORWARD,33
169.0,19357.169491907298,25127.853468400655,-31808.253444225007,-21046.939020984057,-35622.600987267615,-27499.28414813091,-14519.424977234004,-35318.147876041876,0.0,0.0,0.0,193.0,0.0,194.0,0.0,0.0,0.0,179.0,194.0,0.0,179.0,1744420560.1010747,0.0,2025-04-11 21:16:00.101,FORWARD,33
170.0,19386.964367266224,25126.7805846668,-31820.032813552956,-21058.673686823095,-35631.49698156083,-27521.92646526414,-14039.845948200937,-35301.07114327802,0.0,0.0,0.0,193.0,0.0,193.0,0.0,0.0,0.0,179.0,193.0,0.0,179.0,1744420560.101117,0.0,2025-04-11 21:16:00.101,FORWARD,33
171.0,19391.568826624018,25110.68732865898,-31819.026985052467,-21064.21691944801,-35629.68649025995,-27508.001328468483,-14058.73317226567,-35340.49962049718,0.0,0.0,0.0,193.0,0.0,194.0,0.0,0.0,0.0,180.0,194.0,0.0,180.0,1744420560.1011586,0.0,2025-04-11 21:16:00.101,FORWARD,33
172.0,19370.26761415811,25117.9292938625,-31810.801543092915,-21045.240288405454,-35621.975138422866,-27480.553386277366,-14407.912124146478,-35302.52400666762,0.0,0.0,0.0,193.0,0.0,194.0,0.0,0.0,0.0,180.0,194.0,0.0,180.0,1744420560.1012,0.0,2025-04-11 21:16:00.101,FORWARD,33
173.0,19364.59027106646,25132.033244613798,-31802.307880199896,-21035.427872589575,-35615.78370520875,-27474.80898795235,-14560.015745164841,-35293.44919841876,0.0,0.0,0.0,193.0,0.0,193.0,0.0,0.0,0.0,179.0,193.0,0.0,179.0,1744420560.1012547,0.0,2025-04-11 21:16:00.101,FORWARD,33
174.0,19385.198579454252,25132.100299847163,-31814.73545011705,-21044.21210816051,-35632.07812691666,-27500.379383609223,-14109.225762990209,-35269.130500451385,0.0,0.0,0.0,193.0,0.0,193.0,0.0,0.0,0.0,179.0,193.0,0.0,179.0,1744420560.1013007,0.0,2025-04-11 21:16:00.101,FORWARD,33
175.0,19382.449314886253,25115.11297406113,-31820.703365886617,-21065.155692715132,-35636.72728976337,-27510.325909891835,-13996.572970935462,-35325.74746915668,0.0,0.0,0.0,193.0,0.0,194.0,0.0,0.0,0.0,179.0,194.0,0.0,179.0,1744420560.1013432,0.0,2025-04-11 21:16:00.101,FORWARD,33
176.0,19363.271518143596,25118.06340432923,-31813.707269872102,-21055.27622166589,-35628.546551292726,-27497.093677174293,-14336.833576778601,-35321.05360282107,0.0,0.0,0.0,193.0,0.0,194.0,0.0,0.0,0.0,179.0,194.0,0.0,179.0,1744420560.5760517,0.0,2025-04-11 21:16:00.576,FORWARD,33
177.0,19360.030515197577,25134.380177781604,-31795.8035225634,-21038.333599368765,-35609.36875455007,-27478.049990898373,-14588.558922834269,-35316.00210857417,0.0,0.0,0.0,193.0,0.0,193.0,0.0,0.0,0.0,179.0,193.0,0.0,179.0,1744420560.576177,0.0,2025-04-11 21:16:00.576,FORWARD,33
178.0,19380.817637541015,25133.039073114287,-31805.72769710156,-21041.8651749927,-35619.78466746624,-27493.696212017087,-14209.67450257236,-35263.56491608202,0.0,0.0,0.0,193.0,0.0,193.0,0.0,0.0,0.0,179.0,193.0,0.0,179.0,1744420560.576239,0.0,2025-04-11 21:16:00.576,FORWARD,33
179.0,19400.062489517033,25124.433651498992,-31817.417659451683,-21066.18387296008,-35628.70301350392,-27507.53194183492,-13964.297051941998,-35304.60271890196,0.0,0.0,0.0,193.0,0.0,194.0,0.0,0.0,0.0,179.0,194.0,0.0,179.0,1744420560.5762956,0.0,2025-04-11 21:16:00.576,FORWARD,33
180.0,19382.56107360853,25126.26649454433,-31815.987147806543,-21059.41129439012,-35622.869208201075,-27493.673860272633,-14291.794811701157,-35319.42192547583,0.0,0.0,0.0,193.0,0.0,193.0,0.0,0.0,0.0,178.0,193.0,0.0,178.0,1744420560.5763752,0.0,2025-04-11 21:16:00.576,FORWARD,33
181.0,19346.619468524394,25123.092546831675,-31808.231092480553,-21047.676628551082,-35614.57671100816,-27482.20741536706,-14567.972966190931,-35308.916605581835,0.0,0.0,0.0,193.0,0.0,193.0,0.0,0.0,0.0,179.0,193.0,0.0,179.0,1744420560.5765984,0.0,2025-04-11 21:16:00.576,FORWARD,33
182.0,19350.26280287061,25116.63289268409,-31806.621766879773,-21044.994419216448,-35616.87894068706,-27497.339546363302,-14302.121317639509,-35291.862224562436,0.0,0.0,0.0,193.0,0.0,193.0,0.0,0.0,0.0,180.0,193.0,0.0,180.0,1744420560.57665,0.0,2025-04-11 21:16:00.576,FORWARD,33
183.0,19369.485303102174,25108.094526302164,-31819.831647852858,-21070.386000917675,-35632.4134030835,-27520.54065710791,-13967.180426976733,-35333.68233843832,0.0,0.0,0.0,193.0,0.0,193.0,0.0,0.0,0.0,179.0,193.0,0.0,179.0,1744420560.5767212,0.0,2025-04-11 21:16:00.576,FORWARD,33
184.0,19355.716628517705,25102.841866355167,-31809.527493658963,-21061.35589615773,-35619.04705989922,-27496.937214963105,-14234.283773217652,-35322.77468714413,0.0,0.0,0.0,193.0,0.0,194.0,0.0,0.0,0.0,179.0,194.0,0.0,179.0,1744420560.5767665,0.0,2025-04-11 21:16:00.576,FORWARD,33
185.0,19334.840099196448,25112.900151360056,-31798.619842364773,-21049.48711985196,-35602.77498993576,-27486.074267157826,-14533.037189607287,-35299.90885256635,0.0,0.0,0.0,193.0,0.0,194.0,0.0,0.0,0.0,179.0,194.0,0.0,179.0,1744420560.5768187,0.0,2025-04-11 21:16:00.576,FORWARD,33
186.0,19350.799244737536,25117.50461071785,-31797.636365608738,-21047.766035528904,-35606.37362079306,-27501.005232453972,-14386.521504702749,-35301.56288165604,0.0,0.0,0.0,193.0,0.0,193.0,0.0,0.0,0.0,179.0,193.0,0.0,179.0,1744420560.5768633,0.0,2025-04-11 21:16:00.576,FORWARD,33
187.0,19368.524178090596,25114.59888393866,-31802.665508111182,-21056.706733311028,-35618.22004535438,-27514.639796571708,-13959.62553735084,-35304.46860843523,0.0,0.0,0.0,193.0,0.0,193.0,0.0,0.0,0.0,179.0,193.0,0.0,179.0,1744420560.5769055,0.0,2025-04-11 21:16:00.576,FORWARD,33
188.0,19348.608773780918,25092.180084249983,-31799.871540054268,-21055.902070510634,-35615.157856364,-27503.553331321877,-14157.438475780305,-35328.74260291369,0.0,0.0,0.0,193.0,0.0,194.0,0.0,0.0,0.0,180.0,194.0,0.0,180.0,1744420560.5769913,0.0,2025-04-11 21:16:00.576,FORWARD,33
189.0,19323.619523479883,25097.835075597177,-31795.95998477459,-21044.77090177189,-35611.00043189531,-27489.181159637115,-14500.940084569465,-35308.71543988174,0.0,0.0,0.0,193.0,0.0,193.0,0.0,0.0,0.0,179.0,193.0,0.0,179.0,1744420560.577035,0.0,2025-04-11 21:16:00.577,FORWARD,33
190.0,19343.82550046748,25113.324834504707,-31786.259327680986,-21030.063453920302,-35611.44746678442,-27479.39109556569,-14485.226808217385,-35286.900137293356,0.0,0.0,0.0,193.0,0.0,193.0,0.0,0.0,0.0,179.0,193.0,0.0,179.0,1744420560.5770793,0.0,2025-04-11 21:16:00.577,FORWARD,33
191.0,19367.9206809903,25115.58236069469,-31801.21264472159,-21044.189756416054,-35631.18405713845,-27501.653433043175,-14008.53115421905,-35270.40454988534,0.0,0.0,0.0,193.0,0.0,194.0,0.0,0.0,0.0,180.0,194.0,0.0,180.0,1744420560.5771894,0.0,2025-04-11 21:16:00.577,FORWARD,33
192.0,19362.511558832117,25106.574607679202,-31790.886138783237,-21043.3180383823,-35611.536873762234,-27491.662203271655,-14110.611571146437,-35315.21979751823,0.0,0.0,0.0,193.0,0.0,193.0,0.0,0.0,0.0,179.0,193.0,0.0,179.0,1744420560.5772345,0.0,2025-04-11 21:16:00.577,FORWARD,33
193.0,19340.495090543638,25112.564875193224,-31781.408999134186,-21028.1635556416,-35598.416399766975,-27475.81481645284,-14444.568985053182,-35298.52304441012,0.0,0.0,0.0,193.0,0.0,193.0,0.0,0.0,0.0,179.0,193.0,0.0,179.0,1744420560.5772772,0.0,2025-04-11 21:16:00.577,FORWARD,33
194.0,19335.24243059664,25113.39188973807,-31782.928917757145,-21025.347235840232,-35604.965460892374,-27481.67097350013,-14513.76998588681,-35292.46572166273,0.0,0.0,0.0,193.0,0.0,194.0,0.0,0.0,0.0,179.0,194.0,0.0,179.0,1744420560.577322,0.0,2025-04-11 21:16:00.577,FORWARD,33
195.0,19365.126712933386,25116.789354895278,-31793.59069986233,-21030.57754404277,-35621.259882600294,-27496.40077309618,-14047.311430849008,-35262.11205269242,0.0,0.0,0.0,193.0,0.0,193.0,0.0,0.0,0.0,179.0,193.0,0.0,179.0,1744420560.577365,0.0,2025-04-11 21:16:00.577,FORWARD,33
196.0,19364.947898977745,25104.831171611688,-31794.23890045153,-21043.3180383823,-35619.941129677434,-27492.71273526105,-14041.857605201914,-35305.340326468984,0.0,0.0,0.0,193.0,0.0,193.0,0.0,0.0,0.0,179.0,193.0,0.0,179.0,1744420560.5774472,0.0,2025-04-11 21:16:00.577,FORWARD,33
197.0,19342.529099289073,25111.223770525907,-31788.270984681963,-21032.388035343654,-35614.062620885685,-27481.15688337766,-14391.37183324955,-35299.79709384407,0.0,0.0,0.0,193.0,0.0,194.0,0.0,0.0,0.0,180.0,194.0,0.0,180.0,1744420560.577492,0.0,2025-04-11 21:16:00.577,FORWARD,33
198.0,19342.931430689267,25116.45407872845,-31777.497443854507,-21022.10623289421,-35604.8537021701,-27470.29393557238,-14566.475399312425,-35292.488073407185,0.0,0.0,0.0,193.0,0.0,193.0,0.0,0.0,0.0,179.0,193.0,0.0,179.0,1744420560.5775409,0.0,2025-04-11 21:16:00.577,FORWARD,33
199.0,19369.55235833554,25117.05757582874,-31787.44397013712,-21027.49300330794,-35612.8556266851,-27487.99651718098,-14130.906955111857,-35257.12761367889,0.0,0.0,0.0,193.0,0.0,193.0,0.0,0.0,0.0,178.0,193.0,0.0,178.0,1744420560.577588,0.0,2025-04-11 21:16:00.577,FORWARD,33
200.0,19368.457122857228,25099.757325620336,-31800.09505749882,-21050.805872774825,-35622.26571110079,-27502.994537710496,-14004.083157072444,-35321.05360282107,0.0,0.0,0.0,193.0,0.0,193.0,0.0,0.0,0.0,179.0,193.0,0.0,179.0,1744420560.5776389,0.0,2025-04-11 21:16:00.577,FORWARD,33
201.0,19340.673904499283,25100.003194809342,-31798.35162143131,-21044.033294204866,-35618.73413547684,-27488.421200325633,-14347.182434461409,-35321.70180341027,0.0,0.0,0.0,193.0,0.0,193.0,0.0,0.0,0.0,179.0,193.0,0.0,179.0,1744420560.5776868,0.0,2025-04-11 21:16:00.577,FORWARD,33
202.0,19329.11805261589,25110.30734900324,-31784.940574758122,-21031.002227187422,-35597.85760615559,-27471.791502450884,-14572.666832526545,-35293.829178074506,0.0,0.0,0.0,193.0,0.0,193.0,0.0,0.0,0.0,179.0,193.0,0.0,179.0,1744420560.5777388,0.0,2025-04-11 21:16:00.577,FORWARD,33
203.0,19346.10537840192,25102.417183210517,-31795.647060352214,-21039.339427869254,-35607.6029667381,-27497.741877763496,-14217.631723598448,-35276.84185228847,0.0,0.0,0.0,193.0,0.0,193.0,0.0,0.0,0.0,179.0,193.0,0.0,179.0,1744420560.577802,0.0,2025-04-11 21:16:00.577,FORWARD,33
204.0,19356.141311662355,25091.35306970514,-31812.25440648251,-21066.60855610473,-35624.344423335126,-27516.316177405857,-13972.05310726799,-35326.97681510172,0.0,0.0,0.0,193.0,0.0,194.0,0.0,0.0,0.0,180.0,194.0,0.0,180.0,1744420560.5778427,0.0,2025-04-11 21:16:00.577,FORWARD,33
205.0,19336.717645730692,25095.599901151647,-31801.77143833297,-21052.370494886698,-35606.37362079306,-27493.673860272633,-14272.751125425235,-35317.81259987505,0.0,0.0,0.0,193.0,0.0,194.0,0.0,0.0,0.0,180.0,194.0,0.0,180.0,1744420560.5778828,0.0,2025-04-11 21:16:00.577,FORWARD,33
206.0,19327.844003181937,25114.95651184994,-31792.09313298382,-21043.608611060215,-35596.91883288846,-27482.07330490033,-14553.153759617062,-35301.36171595594,0.0,0.0,0.0,193.0,0.0,193.0,0.0,0.0,0.0,179.0,193.0,0.0,179.0,1744420560.5779405,0.0,2025-04-11 21:16:00.577,FORWARD,33
207.0,19347.625297024882,25114.554180449748,-31793.72481032906,-21041.239326147956,-35605.680716714945,-27496.512531818455,-14326.417663862429,-35294.14210249688,0.0,0.0,0.0,193.0,0.0,193.0,0.0,0.0,0.0,179.0,193.0,0.0,179.0,1744420560.5779805,0.0,2025-04-11 21:16:00.577,FORWARD,33
208.0,19365.350230377942,25104.898226845056,-31804.274833711963,-21055.63384957717,-35615.56018776419,-27508.73893603551,-13962.643022852306,-35311.017669560635,0.0,0.0,0.0,193.0,0.0,193.0,0.0,0.0,0.0,179.0,193.0,0.0,179.0,1744420560.5780206,0.0,2025-04-11 21:16:00.578,FORWARD,33
209.0,19346.463006313206,25096.471619185402,-31799.75978133199,-21049.218898918498,-35609.5028650168,-27493.450342828077,-14210.277999672653,-35318.349041741974,0.0,0.0,0.0,193.0,0.0,193.0,0.0,0.0,0.0,179.0,193.0,0.0,179.0,1744420560.578061,0.0,2025-04-11 21:16:00.578,FORWARD,33
210.0,19324.290075813544,25112.36370949313,-31791.869615539268,-21037.327770868276,-35604.004335880796,-27478.29586008738,-14525.974038359409,-35299.66298337734,0.0,0.0,0.0,193.0,0.0,194.0,0.0,0.0,0.0,179.0,194.0,0.0,179.0,1744420560.5781012,0.0,2025-04-11 21:16:00.578,FORWARD,33
211.0,19346.53006154657,25120.8797241306,-31784.29237416892,-21029.102328908724,-35599.95867013439,-27485.49312180199,-14403.866458400067,-35294.00799203014,0.0,0.0,0.0,193.0,0.0,194.0,0.0,0.0,0.0,180.0,194.0,0.0,180.0,1744420560.5781567,0.0,2025-04-11 21:16:00.578,FORWARD,33
212.0,19367.719515290202,25111.648453670558,-31803.358412189296,-21049.174195429587,-35624.52323729077,-27512.225808170537,-13954.350525659387,-35291.54930014006,0.0,0.0,0.0,193.0,0.0,193.0,0.0,0.0,0.0,179.0,193.0,0.0,179.0,1744420560.5781977,0.0,2025-04-11 21:16:00.578,FORWARD,33
213.0,19344.719570245692,25088.514398159314,-31810.130990759255,-21057.60080308924,-35632.81573448369,-27507.91192149066,-14147.916632642346,-35327.312091268555,0.0,0.0,0.0,193.0,0.0,193.0,0.0,0.0,0.0,179.0,193.0,0.0,179.0,1744420560.578237,0.0,2025-04-11 21:16:00.578,FORWARD,33
214.0,19331.30852357251,25111.53669494828,-31790.327345171852,-21034.131471411165,-35610.48634177284,-27481.559214777855,-14505.209267760429,-35300.64646013337,0.0,0.0,0.0,193.0,0.0,193.0,0.0,0.0,0.0,179.0,193.0,0.0,179.0,1744420560.578276,0.0,2025-04-11 21:16:00.578,FORWARD,33
215.0,19343.40081732283,25121.438517741983,-31778.32445839935,-21024.117889895188,-35596.09181834362,-27478.653487998665,-14469.826456287678,-35281.04398024607,0.0,0.0,0.0,193.0,0.0,193.0,0.0,0.0,0.0,179.0,193.0,0.0,179.0,1744420560.5783153,0.0,2025-04-11 21:16:00.578,FORWARD,33
216.0,19370.379372880387,25117.705776417944,-31790.461455638586,-21036.388997601152,-35613.302661574206,-27499.328851619823,-13983.38544170683,-35264.7719102826,0.0,0.0,0.0,193.0,0.0,194.0,0.0,0.0,0.0,179.0,194.0,0.0,179.0,1744420560.5783548,0.0,2025-04-11 21:16:00.578,FORWARD,33
217.0,19353.660268027816,25096.73984011887,-31797.837531308836,-21049.956506485523,-35617.32597557616,-27503.843903999797,-14069.506713093127,-35315.17509402932,0.0,0.0,0.0,193.0,0.0,193.0,0.0,0.0,0.0,179.0,193.0,0.0,179.0,1744420560.578395,0.0,2025-04-11 21:16:00.578,FORWARD,33
218.0,19337.67877074227,25111.581398437193,-31784.96292650258,-21030.666951020594,-35604.54077774772,-27481.00042116647,-14436.56706053818,-35300.84762583347,0.0,0.0,0.0,193.0,0.0,193.0,0.0,0.0,0.0,179.0,193.0,0.0,179.0,1744420560.5785503,0.0,2025-04-11 21:16:00.578,FORWARD,33
219.0,19334.68363698526,25119.762136907833,-31778.9503072441,-21025.2131253735,-35600.18218757894,-27479.480502543513,-14522.01777959082,-35290.14114023938,0.0,0.0,0.0,193.0,0.0,193.0,0.0,0.0,0.0,179.0,193.0,0.0,179.0,1744420560.5785952,0.0,2025-04-11 21:16:00.578,FORWARD,33
220.0,19354.241413383654,25117.839886884678,-31795.82587430786,-21040.166442414098,-35619.739963977336,-27503.508627832965,-14056.699163520238,-35266.29182890557,0.0,0.0,0.0,193.0,0.0,193.0,0.0,0.0,0.0,179.0,193.0,0.0,179.0,1744420560.5786347,0.0,2025-04-11 21:16:00.578,FORWARD,33
221.0,19350.50867205962,25094.102334273142,-31806.1076767573,-21061.735875813472,-35627.02663266977,-27511.354090136778,-14029.742959707137,-35320.1371812984,0.0,0.0,0.0,193.0,0.0,194.0,0.0,0.0,0.0,180.0,194.0,0.0,180.0,1744420560.5786903,0.0,2025-04-11 21:16:00.578,FORWARD,33
222.0,19334.795395707537,25100.427877953993,-31793.545996373417,-21049.442416363054,-35611.51452201778,-27496.289014373902,-14392.288254772218,-35325.72511741223,0.0,0.0,0.0,193.0,0.0,194.0,0.0,0.0,0.0,179.0,194.0,0.0,179.0,1744420560.57873,0.0,2025-04-11 21:16:00.578,FORWARD,33
223.0,19329.408625293807,25113.146020549062,-31784.09120846882,-21039.182965658067,-35601.99267887982,-27486.76717123594,-14560.865111454143,-35309.58715791549,0.0,0.0,0.0,193.0,0.0,193.0,0.0,0.0,0.0,179.0,193.0,0.0,179.0,1744420560.5787692,0.0,2025-04-11 21:16:00.578,FORWARD,33
224.0,19348.474663314184,25114.330663005196,-31796.8540545528,-21044.860308749714,-35616.789533709234,-27503.86625574425,-14134.885565624902,-35264.36957888241,0.0,0.0,0.0,193.0,0.0,193.0,0.0,0.0,0.0,179.0,193.0,0.0,179.0,1744420560.5788083,0.0,2025-04-11 21:16:00.578,FORWARD,33
225.0,19346.798282480035,25091.665994127514,-31815.741278617537,-21073.69405909706,-35634.827391484665,-27525.748613565996,-14004.574895450462,-35335.44812625028,0.0,0.0,0.0,193.0,0.0,193.0,0.0,0.0,0.0,179.0,193.0,0.0,179.0,1744420560.5788472,0.0,2025-04-11 21:16:00.578,FORWARD,33
226.0,19330.190936349743,25092.291842972263,-31803.604281378306,-21056.818492033304,-35615.33667031964,-27507.219017412546,-14341.974478003322,-35335.403422761374,0.0,0.0,0.0,193.0,0.0,193.0,0.0,0.0,0.0,179.0,193.0,0.0,179.0,1744420560.578899,0.0,2025-04-11 21:16:00.578,FORWARD,33
227.0,19333.051959640023,25114.710642660935,-31788.04746723741,-21037.372474357187,-35601.769161435266,-27490.47756081552,-14579.17119016304,-35322.59587318848,0.0,0.0,0.0,193.0,0.0,193.0,0.0,0.0,0.0,179.0,193.0,0.0,179.0,1744420560.5789385,0.0,2025-04-11 21:16:00.578,FORWARD,33
228.0,19360.9692884647,25123.383119509595,-31791.400228905706,-21033.147994655134,-35609.905196417,-27492.891549216696,-14247.314840235096,-35268.07996846199,0.0,0.0,0.0,193.0,0.0,193.0,0.0,0.0,0.0,179.0,193.0,0.0,179.0,1744420560.5789776,0.0,2025-04-11 21:16:00.578,FORWARD,33
229.0,19364.21029141072,25100.986671565377,-31804.0066127785,-21057.10906471122,-35616.74483022033,-27506.12378193424,-13947.197967433689,-35288.3306489385,0.0,0.0,0.0,193.0,0.0,194.0,0.0,0.0,0.0,180.0,194.0,0.0,180.0,1744420560.5790172,0.0,2025-04-11 21:16:00.579,FORWARD,33
230.0,19348.295849358543,25095.48814242937,-31799.24569120952,-21049.911802996612,-35610.441638283926,-27491.662203271655,-14246.085494290053,-35307.19552125878,0.0,0.0,0.0,193.0,0.0,193.0,0.0,0.0,0.0,179.0,193.0,0.0,179.0,1744420560.5790563,0.0,2025-04-11 21:16:00.579,FORWARD,33
231.0,19332.40375905082,25105.993462323364,-31797.636365608738,-21044.100349438235,-35610.5533970062,-27487.77299973643,-14551.902061927565,-35308.87190209293,0.0,0.0,0.0,193.0,0.0,193.0,0.0,0.0,0.0,178.0,193.0,0.0,178.0,1744420560.5790956,0.0,2025-04-11 21:16:00.579,FORWARD,33
232.0,19344.227831867676,25107.289863501774,-31803.157246489198,-21047.430759362076,-35618.264748843285,-27505.587340067308,-14341.750960558767,-35301.04879153357,0.0,0.0,0.0,193.0,0.0,193.0,0.0,0.0,0.0,179.0,193.0,0.0,179.0,1744420560.5791347,0.0,2025-04-11 21:16:00.579,FORWARD,33
233.0,19358.600003552438,25103.378308222094,-31816.456534440105,-21066.720314827005,-35632.68162401696,-27525.25687518798,-13961.883063540825,-35322.39470748838,0.0,0.0,0.0,193.0,0.0,193.0,0.0,0.0,0.0,179.0,193.0,0.0,179.0,1744420560.579255,0.0,2025-04-11 21:16:00.579,FORWARD,33
234.0,19347.290020858054,25098.30446223074,-31813.371993705274,-21060.752399057437,-35628.546551292726,-27506.012023211963,-14218.72695907676,-35341.147821086386,0.0,0.0,0.0,193.0,0.0,194.0,0.0,0.0,0.0,180.0,194.0,0.0,180.0,1744420560.5792952,0.0,2025-04-11 21:16:00.579,FORWARD,33
235.0,19338.68459924276,25110.910846103532,-31797.85988305329,-21042.960410471012,-35608.87701617205,-27487.124799147226,-14546.425884536015,-35320.04777432058,0.0,0.0,0.0,193.0,0.0,194.0,0.0,0.0,0.0,179.0,194.0,0.0,179.0,1744420560.5793345,0.0,2025-04-11 21:16:00.579,FORWARD,33
236.0,19356.722457018193,25113.97303509391,-31790.573214360862,-21033.550326055327,-35603.35613529159,-27487.236557869503,-14420.920839419467,-35285.69314309277,0.0,0.0,0.0,193.0,0.0,193.0,0.0,0.0,0.0,179.0,193.0,0.0,179.0,1744420560.5793877,0.0,2025-04-11 21:16:00.579,FORWARD,33
237.0,19373.73213454868,25109.033299569288,-31809.080458769855,-21055.298573410342,-35621.88573144504,-27512.136401192714,-13946.23684242211,-35274.517270865115,0.0,0.0,0.0,193.0,0.0,193.0,0.0,0.0,0.0,179.0,193.0,0.0,179.0,1744420560.5794268,0.0,2025-04-11 21:16:00.579,FORWARD,33
238.0,19350.93335520427,25094.906997073533,-31811.20387449311,-21061.132378713177,-35624.18796112394,-27508.627177313232,-14124.335542241997,-35323.71346041125,0.0,0.0,0.0,193.0,0.0,193.0,0.0,0.0,0.0,179.0,193.0,0.0,179.0,1744420560.579466,0.0,2025-04-11 21:16:00.579,FORWARD,33
239.0,19329.408625293807,25105.613482667624,-31804.610109878795,-21048.771864029393,-35622.33276633415,-27494.34441260629,-14494.391023444061,-35321.299472010076,0.0,0.0,0.0,193.0,0.0,194.0,0.0,0.0,0.0,179.0,194.0,0.0,179.0,1744420560.5795052,0.0,2025-04-11 21:16:00.579,FORWARD,33
240.0,19348.005276680622,25118.86806712962,-31785.09703696931,-21029.079977164267,-35602.596175980114,-27481.91684268914,-14507.869125350611,-35306.36850671393,0.0,0.0,0.0,193.0,0.0,194.0,0.0,0.0,0.0,180.0,194.0,0.0,180.0,1744420560.5795443,0.0,2025-04-11 21:16:00.579,FORWARD,33
241.0,19371.049925214043,25121.840849142176,-31795.714115585582,-21039.27237263589,-35610.933376661946,-27501.63108129872,-13992.639063911327,-35266.35888413893,0.0,0.0,0.0,193.0,0.0,194.0,0.0,0.0,0.0,179.0,194.0,0.0,179.0,1744420560.5795956,0.0,2025-04-11 21:16:00.579,FORWARD,33
242.0,19358.600003552438,25101.321947732205,-31799.648022609716,-21050.291782652355,-35611.6039289956,-27491.617499782744,-14061.504788578128,-35302.94868981227,0.0,0.0,0.0,193.0,0.0,193.0,0.0,0.0,0.0,179.0,193.0,0.0,179.0,1744420560.579635,0.0,2025-04-11 21:16:00.579,FORWARD,33
243.0,19339.15398587632,25106.17227627901,-31796.138798730233,-21038.82533774678,-35607.26769057127,-27476.261851341947,-14423.178365609452,-35290.2305472172,0.0,0.0,0.0,193.0,0.0,193.0,0.0,0.0,0.0,179.0,193.0,0.0,179.0,1744420560.5796745,0.0,2025-04-11 21:16:00.579,FORWARD,33
244.0,19346.038323168556,25125.0818520882,-31785.789941047424,-21030.73400625396,-35602.462065513384,-27474.361953063246,-14531.584326217691,-35293.829178074506,0.0,0.0,0.0,193.0,0.0,193.0,0.0,0.0,0.0,179.0,193.0,0.0,179.0,1744420560.5797136,0.0,2025-04-11 21:16:00.579,FORWARD,33
245.0,19374.469742115707,25128.881648645598,-31792.71898182857,-21034.042064433346,-35613.369716807574,-27491.68455501611,-14071.74188753866,-35261.530907336586,0.0,0.0,0.0,193.0,0.0,193.0,0.0,0.0,0.0,179.0,193.0,0.0,179.0,1744420560.5797524,0.0,2025-04-11 21:16:00.579,FORWARD,33
246.0,19367.428942612285,25102.05955529923,-31799.804484820903,-21053.286916409364,-35621.32693783366,-27501.72048827654,-14040.628259256871,-35323.35583249996,0.0,0.0,0.0,193.0,0.0,194.0,0.0,0.0,0.0,179.0,194.0,0.0,179.0,1744420560.5797913,0.0,2025-04-11 21:16:00.579,FORWARD,33
247.0,19330.16858460529,25089.788447593266,-31806.442952924128,-21057.48904436696,-35617.66125174299,-27507.509590090467,-14375.792667364201,-35323.0876115665,0.0,0.0,0.0,193.0,0.0,193.0,0.0,0.0,0.0,179.0,193.0,0.0,179.0,1744420560.5799093,0.0,2025-04-11 21:16:00.579,FORWARD,33
248.0,19324.379482791363,25101.232540754383,-31791.266118438976,-21043.228631404476,-35598.3046410447,-27491.215168382547,-14551.79030320529,-35306.83789334749,0.0,0.0,0.0,193.0,0.0,193.0,0.0,0.0,0.0,179.0,193.0,0.0,179.0,1744420560.5799499,0.0,2025-04-11 21:16:00.579,FORWARD,33
249.0,19361.058695442523,25111.69315715947,-31792.29429868392,-21040.054683691822,-35605.79247543722,-27499.217092897547,-14154.353935045474,-35268.88463126238,0.0,0.0,0.0,193.0,0.0,193.0,0.0,0.0,0.0,179.0,193.0,0.0,179.0,1744420560.579989,0.0,2025-04-11 21:16:00.579,FORWARD,33
250.0,19361.997468709644,25092.068325527707,-31805.235958723544,-21062.0711519803,-35614.844931941625,-27508.560122079867,-13970.667299111761,-35301.98756480069,0.0,0.0,0.0,193.0,0.0,193.0,0.0,0.0,0.0,179.0,193.0,0.0,179.0,1744420560.580028,0.0,2025-04-11 21:16:00.580,FORWARD,33
251.0,19342.2161748667,25092.381249950082,-31800.76560983248,-21051.141148941657,-35610.374583050565,-27493.070363172337,-14295.9745879143,-35305.51914042463,0.0,0.0,0.0,193.0,0.0,194.0,0.0,0.0,0.0,179.0,194.0,0.0,179.0,1744420560.5800817,0.0,2025-04-11 21:16:00.580,FORWARD,33
252.0,19334.68363698526,25113.660110671535,-31785.94640325861,-21036.612515045705,-35595.30950728768,-27480.218110110538,-14558.607585264157,-35302.211082245245,0.0,0.0,0.0,193.0,0.0,193.0,0.0,0.0,0.0,179.0,193.0,0.0,179.0,1744420560.5801215,0.0,2025-04-11 21:16:00.580,FORWARD,33
253.0,19351.648611026838,25118.421032240516,-31788.136874215234,-21033.349160355232,-35599.444580011914,-27487.258909613956,-14243.626802399971,-35258.46871834621,0.0,0.0,0.0,193.0,0.0,193.0,0.0,0.0,0.0,179.0,193.0,0.0,179.0,1744420560.5801604,0.0,2025-04-11 21:16:00.580,FORWARD,33
254.0,19362.422151854294,25104.406488467037,-31803.58192963385,-21056.1702914441,-35615.18020810845,-27507.15196217918,-13936.46913009514,-35291.52694839561,0.0,0.0,0.0,193.0,0.0,193.0,0.0,0.0,0.0,179.0,193.0,0.0,179.0,1744420560.5801995,0.0,2025-04-11 21:16:00.580,FORWARD,33
255.0,19350.64278252635,25099.757325620336,-31790.349696916306,-21040.21114590301,-35599.64574571201,-27487.57183403633,-14241.883366332457,-35303.57453865702,0.0,0.0,0.0,193.0,0.0,194.0,0.0,0.0,0.0,180.0,194.0,0.0,180.0,1744420560.5802386,0.0,2025-04-11 21:16:00.580,FORWARD,33
0.0,19327.329913059464,25105.7252413899,-31784.985278247033,-21029.571715542283,-35595.66713519897,-27482.25211885597,-14540.860300166643,-35301.719343867226,0.0,0.0,0.0,193.0,0.0,194.0,0.0,0.0,0.0,179.0,194.0,0.0,179.0,1744420560.5802894,0.0,2025-04-11 21:16:00.580,FORWARD,33
1.0,19343.423169067286,25108.072174557707,-31788.695667826614,-21028.454128319518,-35604.630184725545,-27498.948871964083,-14326.261201651241,-35295.03617227509,0.0,0.0,0.0,193.0,0.0,193.0,0.0,0.0,0.0,179.0,193.0,0.0,179.0,1744420560.5803285,0.0,2025-04-11 21:16:00.580,FORWARD,33
2.0,19367.29483214555,25104.54059893377,-31797.792827819925,-21041.06051219231,-35618.93530117694,-27505.833209256318,-13943.778150532025,-35295.55026239756,0.0,0.0,0.0,193.0,0.0,193.0,0.0,0.0,0.0,179.0,193.0,0.0,179.0,1744420560.5803678,0.0,2025-04-11 21:16:00.580,FORWARD,33
3.0,19348.20644238072,25093.744706361857,-31793.43423765114,-21035.83020398977,-35608.49703651632,-27487.102447402773,-14176.079830656032,-35296.44433217577,0.0,0.0,0.0,193.0,0.0,193.0,0.0,0.0,0.0,179.0,193.0,0.0,179.0,1744420560.580407,0.0,2025-04-11 21:16:00.580,FORWARD,33
4.0,19325.430014780763,25103.423011711006,-31789.81325504938,-21027.425948074575,-35600.11513234558,-27477.15592112016,-14499.509572924326,-35282.6756575913,0.0,0.0,0.0,193.0,0.0,194.0,0.0,0.0,0.0,180.0,194.0,0.0,180.0,1744420560.5804455,0.0,2025-04-11 21:16:00.580,FORWARD,33
5.0,19333.901325929324,25106.35109023465,-31791.310821927887,-21026.48717480745,-35606.57478649316,-27482.185063622605,-14423.603048754103,-35281.80393955755,0.0,0.0,0.0,193.0,0.0,194.0,0.0,0.0,0.0,180.0,194.0,0.0,180.0,1744420560.5804844,0.0,2025-04-11 21:16:00.580,FORWARD,33
6.0,19358.957631463723,25106.999290823853,-31800.028002265455,-21038.490061579952,-35617.30362383171,-27499.239444642004,-13977.976319548647,-35278.69704707826,0.0,0.0,0.0,193.0,0.0,193.0,0.0,0.0,0.0,179.0,193.0,0.0,179.0,1744420560.5806189,0.0,2025-04-11 21:16:00.580,FORWARD,33
7.0,19339.690427743248,25085.83218882468,-31800.58679587684,-21046.044951205844,-35609.525216761256,-27497.317194618845,-14117.227687505208,-35316.672660907825,0.0,0.0,0.0,193.0,0.0,193.0,0.0,0.0,0.0,179.0,193.0,0.0,179.0,1744420560.5806725,0.0,2025-04-11 21:16:00.580,FORWARD,33
8.0,19321.406700778807,25097.030412796787,-31790.349696916306,-21029.102328908724,-35600.38335327904,-27476.708886231052,-14462.29391840624,-35294.56678564153,0.0,0.0,0.0,193.0,0.0,194.0,0.0,0.0,0.0,179.0,194.0,0.0,179.0,1744420560.580711,0.0,2025-04-11 21:16:00.580,FORWARD,33
9.0,19327.464023526194,25107.53573269078,-31784.15826370219,-21020.96629392699,-35600.76333293478,-27475.658354241652,-14480.823514559688,-35280.41813140132,0.0,0.0,0.0,193.0,0.0,194.0,0.0,0.0,0.0,180.0,194.0,0.0,180.0,1744420560.5807483,0.0,2025-04-11 21:16:00.580,FORWARD,33
10.0,19349.569898792495,25109.368575736116,-31798.329269686852,-21035.517279567397,-35615.67194648647,-27501.429915598623,-14004.619598939373,-35269.68929406277,0.0,0.0,0.0,193.0,0.0,194.0,0.0,0.0,0.0,180.0,194.0,0.0,180.0,1744420560.5807996,0.0,2025-04-11 21:16:00.580,FORWARD,33
11.0,19349.03345692557,25100.897264587555,-31794.37301091826,-21043.36274187121,-35610.218120839374,-27496.82545624083,-14074.960538740223,-35321.791210388095,0.0,0.0,0.0,193.0,0.0,193.0,0.0,0.0,0.0,179.0,193.0,0.0,179.0,1744420560.5808384,0.0,2025-04-11 21:16:00.580,FORWARD,33
12.0,19326.0111601366,25096.829247096688,-31793.702458584605,-21037.17130865709,-35612.185074351444,-27492.15394164967,-14433.080188403153,-35322.52881795511,0.0,0.0,0.0,193.0,0.0,193.0,0.0,0.0,0.0,179.0,193.0,0.0,179.0,1744420560.580876,0.0,2025-04-11 21:16:00.580,FORWARD,33
13.0,19329.63214273836,25107.133401290586,-31778.19034793262,-21023.939075939546,-35593.85664389809,-27479.52520603242,-14549.108093870653,-35308.69308813728,0.0,0.0,0.0,193.0,0.0,193.0,0.0,0.0,0.0,179.0,193.0,0.0,179.0,1744420560.5809145,0.0,2025-04-11 21:16:00.580,FORWARD,33
14.0,19354.82255873949,25107.73689839088,-31790.997897505513,-21030.175212642578,-35607.53591150474,-27488.264738114445,-14069.126733437388,-35247.337549607466,0.0,0.0,0.0,193.0,0.0,194.0,0.0,0.0,0.0,180.0,194.0,0.0,180.0,1744420560.5809524,0.0,2025-04-11 21:16:00.580,FORWARD,33
15.0,19350.08398891497,25087.597976636647,-31802.53139764445,-21048.436587862565,-35617.28127208725,-27486.878929958217,-13992.370842977864,-35276.28305867709,0.0,0.0,0.0,193.0,0.0,194.0,0.0,0.0,0.0,179.0,194.0,0.0,179.0,1744420560.5810015,0.0,2025-04-11 21:16:00.581,FORWARD,33
16.0,19333.186070106756,25097.63390989708,-31795.937633030135,-21034.243230133445,-35611.44746678442,-27474.42900829661,-14350.043457751688,-35280.686352334786,0.0,0.0,0.0,193.0,0.0,194.0,0.0,0.0,0.0,179.0,194.0,0.0,179.0,1744420560.58104,0.0,2025-04-11 21:16:00.581,FORWARD,33
17.0,19328.24633458213,25108.899189102554,-31785.409961391684,-21024.140241639645,-35595.51067298778,-27471.59033675079,-14559.009916664352,-35289.1800152278,0.0,0.0,0.0,193.0,0.0,193.0,0.0,0.0,0.0,179.0,193.0,0.0,179.0,1744420560.5810783,0.0,2025-04-11 21:16:00.581,FORWARD,33
18.0,19348.698180758736,25113.39188973807,-31794.44006615163,-21031.1139859097,-35604.004335880796,-27493.897377717185,-14154.778618190125,-35259.496898591155,0.0,0.0,0.0,193.0,0.0,193.0,0.0,0.0,0.0,179.0,193.0,0.0,179.0,1744420560.581117,0.0,2025-04-11 21:16:00.581,FORWARD,33
19.0,19354.35317210593,25101.768982621314,-31810.086287270344,-21054.35980014322,-35622.24335935633,-27509.5435988359,-13965.794618820504,-35307.95548057026,0.0,0.0,0.0,193.0,0.0,193.0,0.0,0.0,0.0,179.0,193.0,0.0,179.0,1744420560.5811548,0.0,2025-04-11 21:16:00.581,FORWARD,33
20.0,19336.29296258604,25103.378308222094,-31800.922072043668,-21041.418140103597,-35609.14523710552,-27487.035392169404,-14300.914323438923,-35309.29658523758,0.0,0.0,0.0,193.0,0.0,194.0,0.0,0.0,0.0,179.0,194.0,0.0,179.0,1744420560.5811925,0.0,2025-04-11 21:16:00.581,FORWARD,33
21.0,19327.575782248474,25114.263607771827,-31790.975545761055,-21030.286971364854,-35599.82455966766,-27472.596165251278,-14562.45208531047,-35291.39283792888,0.0,0.0,0.0,193.0,0.0,194.0,0.0,0.0,0.0,179.0,194.0,0.0,179.0,1744420560.581316,0.0,2025-04-11 21:16:00.581,FORWARD,33
22.0,19353.72732326118,25117.68342467349,-31796.04939175241,-21030.175212642578,-35608.80996093869,-27482.05095315587,-14250.891119347945,-35251.42791884278,0.0,0.0,0.0,193.0,0.0,193.0,0.0,0.0,0.0,179.0,193.0,0.0,179.0,1744420560.5813591,0.0,2025-04-11 21:16:00.581,FORWARD,33
23.0,19367.585404823472,25109.234465269383,-31806.979394791055,-21049.621230318695,-35619.65055699951,-27498.43478184161,-13947.197967433689,-35282.54154712457,0.0,0.0,0.0,193.0,0.0,194.0,0.0,0.0,0.0,179.0,194.0,0.0,179.0,1744420560.5813975,0.0,2025-04-11 21:16:00.581,FORWARD,33
24.0,19344.49605280114,25099.220883753405,-31807.024098279966,-21047.92249774009,-35618.22004535438,-27490.72343000453,-14238.999991297722,-35299.30535546605,0.0,0.0,0.0,193.0,0.0,194.0,0.0,0.0,0.0,179.0,194.0,0.0,179.0,1744420560.5814354,0.0,2025-04-11 21:16:00.581,FORWARD,33
25.0,19323.172488590775,25102.88656984408,-31803.38076393375,-21040.904049981124,-35616.655423242504,-27484.330831090312,-14559.16637887554,-35301.27230897812,0.0,0.0,0.0,193.0,0.0,193.0,0.0,0.0,0.0,179.0,193.0,0.0,179.0,1744420560.581539,0.0,2025-04-11 21:16:00.581,FORWARD,33
26.0,19333.83427069596,25103.892398344567,-31803.67133661167,-21039.138262169155,-35619.67290874397,-27494.29970911738,-14376.776144120235,-35284.28498319209,0.0,0.0,0.0,193.0,0.0,193.0,0.0,0.0,0.0,179.0,193.0,0.0,179.0,1744420560.5815775,0.0,2025-04-11 21:16:00.581,FORWARD,33
27.0,19357.705933774225,25105.322909989707,-31809.102810514312,-21053.622192576193,-35621.7069174894,-27507.10725869027,-13961.391325162807,-35283.90500353635,0.0,0.0,0.0,193.0,0.0,194.0,0.0,0.0,0.0,180.0,194.0,0.0,180.0,1744420560.5816157,0.0,2025-04-11 21:16:00.581,FORWARD,33
28.0,19342.327933588975,25087.843845825657,-31809.99688029252,-21057.377285644685,-35621.125772133564,-27503.173351666137,-14173.397621321395,-35317.097344052476,0.0,0.0,0.0,193.0,0.0,193.0,0.0,0.0,0.0,179.0,193.0,0.0,179.0,1744420560.5816538,0.0,2025-04-11 21:16:00.581,FORWARD,33
29.0,19319.149174588823,25093.476485428393,-31806.71117385759,-21048.168366929098,-35617.32597557616,-27498.747706263985,-14516.139270799074,-35321.3888789879,0.0,0.0,0.0,193.0,0.0,193.0,0.0,0.0,0.0,179.0,193.0,0.0,179.0,1744420560.5816917,0.0,2025-04-11 21:16:00.581,FORWARD,33
30.0,19333.096663128934,25104.048860555755,-31798.642194109227,-21034.0644161778,-35606.68654521544,-27489.58349103731,-14436.8576332161,-35287.14600648237,0.0,0.0,0.0,193.0,0.0,194.0,0.0,0.0,0.0,179.0,194.0,0.0,179.0,1744420560.581742,0.0,2025-04-11 21:16:00.581,FORWARD,33
31.0,19357.97415470769,25102.7748111218,-31810.86859832628,-21046.02259946139,-35621.841027956136,-27504.82738075583,-13967.225130465644,-35274.718436565214,0.0,0.0,0.0,193.0,0.0,193.0,0.0,0.0,0.0,179.0,193.0,0.0,179.0,1744420560.5817804,0.0,2025-04-11 21:16:00.581,FORWARD,33
32.0,19350.575727292984,25092.493008672358,-31805.01244127899,-21044.323866882787,-35617.23656859834,-27491.796313738385,-14128.783539388603,-35322.32765225502,0.0,0.0,0.0,193.0,0.0,193.0,0.0,0.0,0.0,179.0,193.0,0.0,179.0,1744420560.5818183,0.0,2025-04-11 21:16:00.581,FORWARD,33
33.0,19320.82555542297,25093.96822380641,-31806.018269779477,-21038.512413324406,-35616.029574397755,-27482.609746767255,-14492.58053214318,-35315.01863181814,0.0,0.0,0.0,193.0,0.0,194.0,0.0,0.0,0.0,180.0,194.0,0.0,180.0,1744420560.5818563,0.0,2025-04-11 21:16:00.581,FORWARD,33
34.0,19325.34060780294,25100.226712253894,-31802.039659266433,-21032.790366743848,-35612.609757496095,-27482.07330490033,-14526.39872150406,-35299.0818380215,0.0,0.0,0.0,193.0,0.0,193.0,0.0,0.0,0.0,179.0,193.0,0.0,179.0,1744420560.581894,0.0,2025-04-11 21:16:00.581,FORWARD,33
35.0,19350.978058693177,25101.768982621314,-31808.745182603026,-21038.15478541312,-35614.9566906639,-27494.5902817953,-14009.358168763896,-35246.2199623847,0.0,0.0,0.0,193.0,0.0,193.0,0.0,0.0,0.0,179.0,193.0,0.0,179.0,1744420560.581932,0.0,2025-04-11 21:16:00.581,FORWARD,33
36.0,19345.74775049064,25082.792351578755,-31812.992014049534,-21052.705771053526,-35617.214216853885,-27497.67482253013,-14025.809052683004,-35284.26263144763,0.0,0.0,0.0,193.0,0.0,193.0,0.0,0.0,0.0,179.0,193.0,0.0,179.0,1744420560.5820675,0.0,2025-04-11 21:16:00.582,FORWARD,33
37.0,19321.160831589797,25083.10527600113,-31810.779191348458,-21046.536689583863,-35617.03540289824,-27488.935290448106,-14380.933568588922,-35276.752445310645,0.0,0.0,0.0,193.0,0.0,194.0,0.0,0.0,0.0,179.0,194.0,0.0,179.0,1744420560.5821087,0.0,2025-04-11 21:16:00.582,FORWARD,33
38.0,19323.239543824144,25095.68930812947,-31797.77047607547,-21034.69026502255,-35610.218120839374,-27476.038333897395,-14544.30246881276,-35279.345247667465,0.0,0.0,0.0,193.0,0.0,193.0,0.0,0.0,0.0,179.0,193.0,0.0,179.0,1744420560.582147,0.0,2025-04-11 21:16:00.582,FORWARD,33
39.0,19350.195747637244,25100.182008764987,-31804.34188894533,-21037.417177846095,-35622.109248889596,-27496.534883562912,-14087.902198779846,-35246.10820366242,0.0,0.0,0.0,193.0,0.0,193.0,0.0,0.0,0.0,179.0,193.0,0.0,179.0,1744420560.5821848,0.0,2025-04-11 21:16:00.582,FORWARD,33
40.0,19347.513538302606,25085.943947546955,-31811.24857798202,-21054.158634443123,-35631.29581586073,-27508.15779067967,-14004.284322772543,-35313.118733539435,0.0,0.0,0.0,193.0,0.0,194.0,0.0,0.0,0.0,179.0,194.0,0.0,179.0,1744420560.5822935,0.0,2025-04-11 21:16:00.582,FORWARD,33
41.0,19332.694331728737,25096.605729652136,-31801.63732786624,-21034.220878388987,-35620.432868055446,-27484.86727295724,-14362.426324179927,-35301.33936421148,0.0,0.0,0.0,193.0,0.0,193.0,0.0,0.0,0.0,179.0,193.0,0.0,179.0,1744420561.0560963,0.0,2025-04-11 21:16:01.056,FORWARD,33
42.0,19329.430977038264,25113.369537993618,-31789.545034115916,-21020.96629392699,-35604.831350425644,-27468.66225822714,-14556.886500941098,-35274.83019528749,0.0,0.0,0.0,193.0,0.0,193.0,0.0,0.0,0.0,179.0,193.0,0.0,179.0,1744420561.0562496,0.0,2025-04-11 21:16:01.056,FORWARD,33
43.0,19361.036343698066,25117.750479906856,-31793.993031262522,-21019.580485770763,-35612.05096388471,-27484.30847934586,-14182.874760970446,-35252.38904385436,0.0,0.0,0.0,193.0,0.0,193.0,0.0,0.0,0.0,179.0,193.0,0.0,179.0,1744420561.0562997,0.0,2025-04-11 21:16:01.056,FORWARD,33
44.0,19369.619413568904,25106.35109023465,-31806.599415135315,-21040.859346492212,-35623.85268495711,-27497.272491129937,-13973.304804957486,-35299.41711418833,0.0,0.0,0.0,193.0,0.0,194.0,0.0,0.0,0.0,179.0,194.0,0.0,179.0,1744420561.0563488,0.0,2025-04-11 21:16:01.056,FORWARD,33
45.0,19344.3172388455,25097.63390989708,-31803.023136022468,-21031.695131265536,-35615.71664997538,-27481.223938611027,-14286.586855243071,-35291.41518967333,0.0,0.0,0.0,193.0,0.0,193.0,0.0,0.0,0.0,179.0,193.0,0.0,179.0,1744420561.056438,0.0,2025-04-11 21:16:01.056,FORWARD,33
46.0,19331.643799739337,25108.072174557707,-31789.500330627005,-21015.60187525772,-35598.70697244489,-27469.19870009407,-14552.036172394297,-35281.155738968344,0.0,0.0,0.0,193.0,0.0,193.0,0.0,0.0,0.0,179.0,193.0,0.0,179.0,1744420561.0564868,0.0,2025-04-11 21:16:01.056,FORWARD,33
47.0,19349.324029603486,25114.95651184994,-31794.82004580737,-21014.908971179604,-35604.786646936736,-27484.129665390214,-14257.306070006618,-35255.31712237801,0.0,0.0,0.0,193.0,0.0,193.0,0.0,0.0,0.0,179.0,193.0,0.0,179.0,1744420561.056534,0.0,2025-04-11 21:16:01.056,FORWARD,33
48.0,19352.72149476069,25094.527017417793,-31817.730583874058,-21047.27429715089,-35627.361908836596,-27511.599959325787,-13940.112464441356,-35293.605660629946,0.0,0.0,0.0,193.0,0.0,193.0,0.0,0.0,0.0,179.0,193.0,0.0,179.0,1744420561.0565803,0.0,2025-04-11 21:16:01.056,FORWARD,33
49.0,19338.081102142467,25090.794276093755,-31806.91233955769,-21034.667913278096,-35611.38041155105,-27484.688459001598,-14226.348903936017,-35282.60860235794,0.0,0.0,0.0,193.0,0.0,193.0,0.0,0.0,0.0,179.0,193.0,0.0,179.0,1744420561.0566275,0.0,2025-04-11 21:16:01.056,FORWARD,33
50.0,19323.15013684632,25105.479372200894,-31794.663583596182,-21022.195639872032,-35596.248280554806,-27474.25019434097,-14524.58823020318,-35271.90211676385,0.0,0.0,0.0,193.0,0.0,194.0,0.0,0.0,0.0,180.0,194.0,0.0,180.0,1744420561.056675,0.0,2025-04-11 21:16:01.056,FORWARD,33
51.0,19340.673904499283,25108.698023402456,-31795.311784185385,-21022.285046849855,-35606.64184172652,-27488.62236602573,-14361.599309635081,-35275.94778251026,0.0,0.0,0.0,193.0,0.0,193.0,0.0,0.0,0.0,179.0,193.0,0.0,179.0,1744420561.0568535,0.0,2025-04-11 21:16:01.056,FORWARD,33
52.0,19366.400762367342,25107.558084435237,-31802.419638922172,-21034.757320255914,-35615.873112186564,-27491.997479438483,-13955.892796026803,-35262.96141898172,0.0,0.0,0.0,193.0,0.0,193.0,0.0,0.0,0.0,178.0,193.0,0.0,178.0,1744420561.0569024,0.0,2025-04-11 21:16:01.056,FORWARD,33
53.0,19345.144253390343,25088.894377815053,-31805.392420934728,-21039.048855191333,-35609.48051327235,-27487.415371825144,-14144.161539573854,-35279.30054417855,0.0,0.0,0.0,193.0,0.0,194.0,0.0,0.0,0.0,179.0,194.0,0.0,179.0,1744420561.05695,0.0,2025-04-11 21:16:01.056,FORWARD,33
54.0,19319.01506412209,25092.314194716717,-31802.53139764445,-21032.298628365832,-35605.680716714945,-27478.7875984654,-14487.14905824054,-35276.618334843915,0.0,0.0,0.0,193.0,0.0,194.0,0.0,0.0,0.0,180.0,194.0,0.0,180.0,1744420561.056998,0.0,2025-04-11 21:16:01.056,FORWARD,33
55.0,19335.39889280783,25096.96335756342,-31795.155321974198,-21021.189811371543,-35601.00920212379,-27477.044162397884,-14458.918804993487,-35269.063445218024,0.0,0.0,0.0,193.0,0.0,193.0,0.0,0.0,0.0,179.0,193.0,0.0,179.0,1744420561.0570674,0.0,2025-04-11 21:16:01.057,FORWARD,33
56.0,19359.091741930457,25093.141209261565,-31808.052278524912,-21033.170346399587,-35615.56018776419,-27497.652470785677,-13973.125991001843,-35248.41043334132,0.0,0.0,0.0,193.0,0.0,193.0,0.0,1.0,0.0,179.0,193.0,1.0,179.0,1744420561.0571153,0.0,2025-04-11 21:16:01.057,FORWARD,33
57.0,19344.339590589952,25077.9196712875,-31808.29814771392,-21040.03233194737,-35610.82161793967,-27493.003307938972,-14082.202503943743,-35296.37727694241,0.0,0.0,0.0,193.0,0.0,193.0,0.0,3.0,0.0,180.0,193.0,3.0,180.0,1744420561.0571647,0.0,2025-04-11 21:16:01.057,FORWARD,33
58.0,19317.875125154867,25087.68738361447,-31807.24761572452,-21032.343331854743,-35607.781780693746,-27483.839092712296,-14443.361990852594,-35294.99146878618,0.0,0.0,0.0,193.0,0.0,194.0,0.0,4.0,0.0,180.0,194.0,4.0,180.0,1744420561.0572128,0.0,2025-04-11 21:16:01.057,FORWARD,33
59.0,19324.044206624534,25096.270453485307,-31797.23403420854,-21022.97795092797,-35597.164702077476,-27478.832301954306,-14510.618389918613,-35284.93318378129,0.0,0.0,0.0,193.0,0.0,193.0,0.0,5.0,0.0,179.0,193.0,5.0,179.0,1744420561.0572615,0.0,2025-04-11 21:16:01.057,FORWARD,33
60.0,19351.648611026838,25097.008061052333,-31807.605243635804,-21030.711654509505,-35613.54853076321,-27494.567930050842,-14022.277477059064,-35243.38129083887,0.0,0.0,0.0,193.0,0.0,194.0,0.0,6.0,0.0,180.0,194.0,6.0,180.0,1744420561.0573256,0.0,2025-04-11 21:16:01.057,FORWARD,33
61.0,19348.20644238072,25087.910901059022,-31806.06297326839,-21039.63000054717,-35611.00043189531,-27491.4386858271,-14027.86541317289,-35286.92248903781,0.0,0.0,0.0,193.0,0.0,194.0,0.0,7.0,0.0,180.0,194.0,7.0,180.0,1744420561.0573757,0.0,2025-04-11 21:16:01.057,FORWARD,33
62.0,19319.797375178026,25086.413334180517,-31803.604281378306,-21032.052759176822,-35605.14427484802,-27486.856578213763,-14376.932606331422,-35290.69993385076,0.0,0.0,0.0,193.0,0.0,193.0,0.0,8.0,0.0,179.0,193.0,8.0,179.0,1744420561.0574255,0.0,2025-04-11 21:16:01.057,FORWARD,33
63.0,19324.603000235915,25091.643642383056,-31797.971641775566,-21026.48717480745,-35606.35126904861,-27484.017906667937,-14531.561974473236,-35295.57261414202,0.0,0.0,0.0,193.0,0.0,193.0,0.0,9.0,0.0,179.0,193.0,9.0,179.0,1744420561.0574749,0.0,2025-04-11 21:16:01.057,FORWARD,33
64.0,19354.59904129494,25103.66888090001,-31804.140723245233,-21026.10719515171,-35621.125772133564,-27489.650546270677,-14103.324902454007,-35244.1188984059,0.0,0.0,0.0,193.0,0.0,194.0,0.0,9.0,0.0,179.0,194.0,9.0,179.0,1744420561.0575461,0.0,2025-04-11 21:16:01.057,FORWARD,33
65.0,19358.130616918876,25092.314194716717,-31807.404077935706,-21040.725236025482,-35619.71761223288,-27494.120895161737,-14001.19978203771,-35287.74950358266,0.0,0.0,0.0,193.0,0.0,193.0,0.0,10.0,0.0,179.0,193.0,10.0,179.0,1744420561.0575945,0.0,2025-04-11 21:16:01.057,FORWARD,33
66.0,19335.801224208026,25094.750534862345,-31801.81614182188,-21028.610590530705,-35605.14427484802,-27481.603918266766,-14335.537175600193,-35291.79516932907,0.0,0.0,0.0,193.0,0.0,194.0,0.0,11.0,0.0,180.0,194.0,11.0,180.0,1744420561.0579035,0.0,2025-04-11 21:16:01.057,FORWARD,33
67.0,19331.688503228248,25108.49685770236,-31788.494502126516,-21012.31616882279,-35592.02380085275,-27466.80706343735,-14561.893291699087,-35283.03328550259,0.0,0.0,0.0,193.0,0.0,193.0,0.0,11.0,0.0,179.0,193.0,11.0,179.0,1744420561.057949,0.0,2025-04-11 21:16:01.057,FORWARD,33
68.0,19356.58834655146,25109.569741436215,-31794.44006615163,-21012.852610689715,-35601.85856841309,-27478.76524672094,-14193.0001012087,-35238.39685182534,0.0,0.0,0.0,193.0,0.0,193.0,0.0,12.0,0.0,179.0,193.0,12.0,179.0,1744420561.0579925,0.0,2025-04-11 21:16:01.057,FORWARD,33
69.0,19361.863358242914,25097.11981977461,-31806.130028501753,-21034.712616767003,-35613.4591237854,-27491.4386858271,-13944.985144732613,-35267.521174850604,0.0,0.0,0.0,193.0,0.0,194.0,0.0,12.0,0.0,180.0,194.0,12.0,180.0,1744420561.0580359,0.0,2025-04-11 21:16:01.058,FORWARD,33
70.0,19339.690427743248,25096.29280522976,-31802.754915089004,-21027.560058541305,-35609.167588849974,-27478.027639153916,-14268.43723874536,-35277.55710811104,0.0,0.0,0.0,193.0,0.0,194.0,0.0,12.0,0.0,179.0,194.0,12.0,179.0,1744420561.0580986,0.0,2025-04-11 21:16:01.058,FORWARD,33
71.0,19323.083081612956,25099.869084342612,-31798.3069179424,-21020.765128226893,-35603.82552192516,-27470.875080928217,-14545.375352546616,-35270.98569524118,0.0,0.0,0.0,193.0,0.0,193.0,0.0,13.0,0.0,179.0,193.0,13.0,179.0,1744420561.058142,0.0,2025-04-11 21:16:01.058,FORWARD,33
72.0,19346.038323168556,25104.29472974476,-31795.781170818947,-21015.57952351326,-35604.920757403466,-27476.038333897395,-14287.726794210292,-35246.19761064024,0.0,0.0,0.0,193.0,0.0,193.0,0.0,13.0,0.0,179.0,193.0,13.0,179.0,1744420561.0581849,0.0,2025-04-11 21:16:01.058,FORWARD,33
73.0,19364.1208844329,25095.845770340657,-31804.945386045623,-21031.136337654156,-35615.09080113063,-27487.884758458706,-13940.0901126969,-35261.866183503415,0.0,0.0,0.0,193.0,0.0,193.0,0.0,13.0,0.0,179.0,193.0,13.0,179.0,1744420561.058228,0.0,2025-04-11 21:16:01.058,FORWARD,33
74.0,19353.995544194644,25096.024584296298,-31790.573214360862,-21014.260770590397,-35599.310469545184,-27464.460130269545,-14190.161429662876,-35269.39872138485,0.0,0.0,0.0,193.0,0.0,194.0,0.0,13.0,0.0,180.0,194.0,13.0,180.0,1744420561.0582712,0.0,2025-04-11 21:16:01.058,FORWARD,33
75.0,19333.051959640023,25113.615407182624,-31784.493539869018,-21005.29772106382,-35593.99075436482,-27449.596220206764,-14519.044997578265,-35256.72528227869,0.0,0.0,0.0,193.0,0.0,194.0,0.0,14.0,0.0,180.0,194.0,14.0,180.0,1744420561.0583296,0.0,2025-04-11 21:16:01.058,FORWARD,33
76.0,19344.272535356587,25115.96234035043,-31790.684973083138,-21009.45514553251,-35600.53981549023,-27467.768188448932,-14362.158103246464,-35241.07906115998,0.0,0.0,0.0,193.0,0.0,193.0,0.0,14.0,0.0,180.0,193.0,14.0,180.0,1744420561.0583737,0.0,2025-04-11 21:16:01.058,FORWARD,33
77.0,19359.87405298639,25097.49979943035,-31810.712136115093,-21037.953619713026,-35622.39982156752,-27501.83224699882,-13938.793711518492,-35269.73399755168,0.0,0.0,0.0,193.0,0.0,194.0,0.0,14.0,0.0,180.0,194.0,14.0,180.0,1744420561.0584168,0.0,2025-04-11 21:16:01.058,FORWARD,33
78.0,19342.551451033527,25083.038220767765,-31808.38755469174,-21038.73593076896,-35616.40955405349,-27496.289014373902,-14163.473446783239,-35318.86313186445,0.0,0.0,0.0,193.0,0.0,194.0,0.0,14.0,0.0,180.0,194.0,14.0,180.0,1744420561.0584605,0.0,2025-04-11 21:16:01.058,FORWARD,33
79.0,19316.39991002082,25088.022659781298,-31809.236920981042,-21034.645561533638,-35612.453295284904,-27484.979031679515,-14500.805974102734,-35295.97494554221,0.0,0.0,0.0,193.0,0.0,193.0,0.0,14.0,0.0,180.0,193.0,14.0,180.0,1744420561.0585034,0.0,2025-04-11 21:16:01.058,FORWARD,33
80.0,19325.720587458683,25091.800104594244,-31799.402153420706,-21024.319055595286,-35599.33282128964,-27478.474674043024,-14452.794427012734,-35252.94783746575,0.0,0.0,0.0,193.0,0.0,193.0,0.0,15.0,0.0,179.0,193.0,15.0,179.0,1744420561.0585465,0.0,2025-04-11 21:16:01.058,FORWARD,33
81.0,19350.68748601526,25088.804970837235,-31810.756839604004,-21038.311247624308,-35609.61462373908,-27497.29484287439,-13954.059952981468,-35227.73506972016,0.0,0.0,0.0,193.0,0.0,194.0,0.0,15.0,0.0,180.0,194.0,15.0,180.0,1744420561.0586052,0.0,2025-04-11 21:16:01.058,FORWARD,33
82.0,19346.0159714241,25070.856520039622,-31812.276758226963,-21048.25777390692,-35611.492170273326,-27494.702040517575,-14069.171436926299,-35282.27332619111,0.0,0.0,0.0,193.0,0.0,194.0,0.0,15.0,0.0,179.0,194.0,15.0,179.0,1744420561.0586503,0.0,2025-04-11 21:16:01.058,FORWARD,33
83.0,19326.81582293699,25084.871063813098,-31803.537226144937,-21035.427872589575,-35598.19288232242,-27480.39692406618,-14430.42033081297,-35274.673733076306,0.0,0.0,0.0,193.0,0.0,193.0,0.0,15.0,0.0,179.0,193.0,15.0,179.0,1744420561.0586936,0.0,2025-04-11 21:16:01.058,FORWARD,33
84.0,19329.341570060442,25094.72818311789,-31792.026077750455,-21022.30739859431,-35589.16277756247,-27473.691400729585,-14507.556200928237,-35264.50368934914,0.0,0.0,0.0,193.0,0.0,193.0,0.0,15.0,0.0,179.0,193.0,15.0,179.0,1744420561.058751,0.0,2025-04-11 21:16:01.058,FORWARD,33
85.0,19353.459102327717,25095.219921495907,-31804.49835115652,-21031.516317309895,-35605.43484752594,-27496.803104496375,-14032.671038230783,-35241.01200592661,0.0,0.0,0.0,193.0,0.0,193.0,0.0,15.0,0.0,180.0,193.0,15.0,180.0,1744420561.0587955,0.0,2025-04-11 21:16:01.058,FORWARD,33
86.0,19343.78079697857,25078.992555021356,-31813.550807660915,-21048.21307041801,-35611.78274295125,-27499.887645231207,-14020.399930524818,-35291.45989316224,0.0,0.0,0.0,193.0,0.0,194.0,0.0,15.0,0.0,180.0,194.0,15.0,180.0,1744420561.0588386,0.0,2025-04-11 21:16:01.058,FORWARD,33
87.0,19323.373654290874,25087.173293491996,-31810.041583781433,-21039.540593569352,-35611.00043189531,-27489.739953248496,-14379.167780776952,-35288.37535242741,0.0,0.0,0.0,193.0,0.0,193.0,0.0,15.0,0.0,179.0,193.0,15.0,179.0,1744420561.0588815,0.0,2025-04-11 21:16:01.058,FORWARD,33
88.0,19328.469852026683,25101.25489249884,-31791.10965622779,-21019.804003215315,-35591.37560026355,-27475.05485714136,-14556.93120443001,-35283.88265179189,0.0,0.0,0.0,193.0,0.0,193.0,0.0,15.0,0.0,179.0,193.0,15.0,179.0,1744420561.058925,0.0,2025-04-11 21:16:01.058,FORWARD,33
89.0,19356.186015151266,25100.62904365409,-31800.407981921195,-21020.29574159333,-35601.88092015754,-27491.34927884928,-14104.442489676774,-35238.68742450326,0.0,0.0,0.0,193.0,0.0,194.0,0.0,15.0,0.0,180.0,194.0,15.0,180.0,1744420561.0589676,0.0,2025-04-11 21:16:01.058,FORWARD,33
90.0,19365.819617011504,25091.97891854989,-31804.699516856614,-21033.460919077508,-35608.09470511612,-27488.64471777019,-13969.326194444442,-35279.81463430102,0.0,0.0,0.0,193.0,0.0,194.0,0.0,15.0,0.0,180.0,194.0,15.0,180.0,1744420561.0590367,0.0,2025-04-11 21:16:01.059,FORWARD,33
91.0,19348.20644238072,25098.885607586577,-31793.81421730688,-21011.220933344477,-35598.19288232242,-27458.20164182206,-14309.743262498769,-35257.462889845716,0.0,0.0,0.0,193.0,0.0,193.0,0.0,16.0,0.0,179.0,193.0,16.0,179.0,1744420561.0590842,0.0,2025-04-11 21:16:01.059,FORWARD,33
92.0,19324.558296747007,25102.037203554777,-31794.507121384995,-21007.97993039846,-35602.66323121348,-27456.078226098805,-14545.978849646908,-35258.021683457104,0.0,0.0,0.0,193.0,0.0,194.0,0.0,16.0,0.0,180.0,194.0,16.0,180.0,1744420561.05913,0.0,2025-04-11 21:16:01.059,FORWARD,33
93.0,19344.67486675678,25105.837000112177,-31798.91041504269,-21007.35408155371,-35611.78274295125,-27473.24436584048,-14212.446118884816,-35243.49304956115,0.0,0.0,0.0,193.0,0.0,194.0,0.0,16.0,0.0,180.0,194.0,16.0,180.0,1744420561.0591764,0.0,2025-04-11 21:16:01.059,FORWARD,33
94.0,19354.755503506127,25095.39873545155,-31808.856941325303,-21027.604762030216,-35614.844931941625,-27479.994592665982,-13945.655697066271,-35270.0245702296,0.0,0.0,0.0,193.0,0.0,193.0,0.0,16.0,0.0,179.0,193.0,16.0,179.0,1744420561.0592272,0.0,2025-04-11 21:16:01.059,FORWARD,33
95.0,19336.583535263962,25088.8720260706,-31805.370069190274,-21020.96629392699,-35606.57478649316,-27466.00240063696,-14247.091322790542,-35269.51048010713,0.0,0.0,0.0,193.0,0.0,194.0,0.0,16.0,0.0,180.0,194.0,16.0,180.0,1744420561.0592818,0.0,2025-04-11 21:16:01.059,FORWARD,33
96.0,19322.613694979394,25098.997366308853,-31798.686897598138,-21011.24328508893,-35599.35517303409,-27459.542746489376,-14548.281079325805,-35271.097453963455,0.0,0.0,0.0,193.0,0.0,194.0,0.0,16.0,0.0,180.0,194.0,16.0,180.0,1744420561.0593853,0.0,2025-04-11 21:16:01.059,FORWARD,33
97.0,19345.837157468457,25107.78160187979,-31797.01051676399,-21002.123773351166,-35598.550510233705,-27461.509700001443,-14301.8754484505,-35226.88570343086,0.0,0.0,0.0,193.0,0.0,194.0,0.0,16.0,0.0,179.0,194.0,16.0,179.0,1744420561.0594385,0.0,2025-04-11 21:16:01.059,FORWARD,33
98.0,19354.10730291692,25093.320023217206,-31817.842342596334,-21027.090671907747,-35613.861455185586,-27483.190892123093,-13915.145565884777,-35246.287017618066,0.0,0.0,0.0,193.0,0.0,193.0,0.0,16.0,0.0,179.0,193.0,16.0,179.0,1744420561.059483,0.0,2025-04-11 21:16:01.059,FORWARD,33
99.0,19327.285209570553,25077.38322942057,-31820.613958908794,-21029.079977164267,-35615.24726334182,-27477.96058392055,-14178.247949868197,-35282.765064569125,0.0,0.0,0.0,193.0,0.0,194.0,0.0,16.0,0.0,179.0,194.0,16.0,179.0,1744420561.0595553,0.0,2025-04-11 21:16:01.059,FORWARD,33
100.0,19313.58359021945,25095.331680218183,-31805.034793023446,-21011.578561255763,-35600.785684679235,-27458.469862755523,-14513.97115158691,-35261.32974163649,0.0,0.0,0.0,193.0,0.0,194.0,0.0,16.0,0.0,180.0,194.0,16.0,180.0,1744420561.0596051,0.0,2025-04-11 21:16:01.059,FORWARD,33
101.0,19327.061692126,25101.97014832141,-31795.82587430786,-21004.001319885414,-35595.91300438798,-27460.325057545313,-14388.08612681462,-35237.88276170287,0.0,0.0,0.0,193.0,0.0,193.0,0.0,16.0,0.0,179.0,193.0,16.0,179.0,1744420561.0596573,0.0,2025-04-11 21:16:01.059,FORWARD,33
102.0,19348.9664016922,25099.869084342612,-31810.689784370636,-21025.59310502924,-35611.559225506695,-27489.315270103845,-13940.917127241746,-35250.042110686554,0.0,0.0,0.0,193.0,0.0,193.0,0.0,16.0,0.0,179.0,193.0,16.0,179.0,1744420561.0597084,0.0,2025-04-11 21:16:01.059,FORWARD,33
103.0,19343.557279534016,25083.10527600113,-31806.33119420185,-21027.671817263585,-35607.24533882682,-27478.809950209852,-14127.017751576634,-35287.12365473791,0.0,0.0,0.0,193.0,0.0,194.0,0.0,16.0,0.0,180.0,194.0,16.0,180.0,1744420561.059757,0.0,2025-04-11 21:16:01.059,FORWARD,33
104.0,19324.379482791363,25095.890473829568,-31795.58000511885,-21013.34434906773,-35595.84594915461,-27456.458205754545,-14468.328889409173,-35250.73501476467,0.0,0.0,0.0,193.0,0.0,194.0,0.0,16.0,0.0,180.0,194.0,16.0,180.0,1744420561.0598795,0.0,2025-04-11 21:16:01.059,FORWARD,33
105.0,19327.68754097075,25103.780639622288,-31794.9541562741,-21014.35017756822,-35594.840120654124,-27467.589374493287,-14464.730258551868,-35250.623256042396,0.0,0.0,0.0,193.0,0.0,193.0,0.0,16.0,0.0,179.0,193.0,16.0,179.0,1744420561.059932,0.0,2025-04-11 21:16:01.059,FORWARD,33
106.0,19353.637916283362,25102.595997166158,-31805.9065110572,-21024.654331762118,-35608.47468477186,-27490.164636393147,-13988.503991187095,-35241.235523371164,0.0,0.0,0.0,193.0,0.0,194.0,0.0,16.0,0.0,180.0,194.0,16.0,180.0,1744420561.0599813,0.0,2025-04-11 21:16:01.059,FORWARD,33
107.0,19343.937259189755,25081.272432955797,-31810.15334250371,-21034.556154555816,-35613.83910344113,-27488.734124748007,-14075.54168409606,-35294.432675174794,0.0,0.0,0.0,193.0,0.0,194.0,0.0,16.0,0.0,180.0,194.0,16.0,180.0,1744420561.0600297,0.0,2025-04-11 21:16:01.060,FORWARD,33
108.0,19321.160831589797,25086.59214813616,-31803.604281378306,-21020.407500315607,-35604.13844634753,-27471.903261173164,-14439.025752428264,-35276.953611010744,0.0,0.0,0.0,193.0,0.0,193.0,0.0,16.0,0.0,179.0,193.0,16.0,179.0,1744420561.060077,0.0,2025-04-11 21:16:01.060,FORWARD,33
109.0,19328.358093304407,25098.52797967529,-31789.366220160275,-21005.05185187481,-35593.27549854225,-27462.470825013024,-14514.574648687203,-35255.00419795563,0.0,0.0,0.0,193.0,0.0,193.0,0.0,16.0,0.0,180.0,193.0,16.0,180.0,1744420561.0601287,0.0,2025-04-11 21:16:01.060,FORWARD,33
110.0,19359.896404730847,25104.16061927803,-31794.752990574005,-21009.097517621223,-35605.32308880366,-27482.319174089334,-14051.670021017793,-35235.75934597961,0.0,0.0,0.0,193.0,0.0,194.0,0.0,16.0,0.0,180.0,194.0,16.0,180.0,1744420561.0601788,0.0,2025-04-11 21:16:01.060,FORWARD,33
111.0,19353.459102327717,25088.62615688159,-31801.659679610693,-21026.151898640623,-35612.8556266851,-27490.00817418196,-14020.198764824721,-35297.67367812082,0.0,0.0,0.0,193.0,0.0,193.0,0.0,16.0,0.0,179.0,193.0,16.0,179.0,1744420561.060263,0.0,2025-04-11 21:16:01.060,FORWARD,33
112.0,19334.68363698526,25094.281148228783,-31793.00955450649,-21012.91966592308,-35601.076257357156,-27476.820644953328,-14370.51765567275,-35294.67854436381,0.0,0.0,0.0,193.0,0.0,193.0,0.0,17.0,0.0,179.0,193.0,17.0,179.0,1744420561.060314,0.0,2025-04-11 21:16:01.060,FORWARD,33
113.0,19331.442634039242,25102.05955529923,-31783.24184217952,-21003.73309895195,-35597.11999858856,-27462.426121524113,-14554.226643350918,-35274.98665749868,0.0,0.0,0.0,193.0,0.0,194.0,0.0,17.0,0.0,180.0,194.0,17.0,180.0,1744420561.0603602,0.0,2025-04-11 21:16:01.060,FORWARD,33
114.0,19358.30943087452,25110.799087381256,-31789.410923649186,-21004.135430352144,-35605.546606248216,-27473.15495886266,-14148.698943698282,-35228.517380776095,0.0,0.0,0.0,193.0,0.0,193.0,0.0,16.0,0.0,179.0,193.0,16.0,179.0,1744420561.0604432,0.0,2025-04-11 21:16:01.060,FORWARD,33
115.0,19358.93527971927,25098.05859304173,-31793.836569051335,-21020.049872404325,-35598.28228930024,-27478.5864327653,-13966.71104034317,-35259.295732891056,0.0,0.0,0.0,193.0,0.0,193.0,0.0,16.0,0.0,179.0,193.0,16.0,179.0,1744420561.0604923,0.0,2025-04-11 21:16:01.060,FORWARD,33
116.0,19336.516480030594,25095.01875579581,-31789.612089349284,-21010.349215310718,-35589.43099849594,-27461.733217446,-14263.676317176381,-35240.02852917058,0.0,0.0,0.0,193.0,0.0,193.0,0.0,17.0,0.0,179.0,193.0,17.0,179.0,1744420561.060541,0.0,2025-04-11 21:16:01.060,FORWARD,33
117.0,19323.97715139117,25099.645566898056,-31781.543109600916,-21001.185000084042,-35582.546661203705,-27448.702150428555,-14521.794262146266,-35229.59026450995,0.0,0.0,0.0,193.0,0.0,194.0,0.0,17.0,0.0,180.0,194.0,17.0,180.0,1744420561.0605888,0.0,2025-04-11 21:16:01.060,FORWARD,33
118.0,19348.318201102997,25102.86421809962,-31786.035810236433,-20999.53097099435,-35591.12973107454,-27461.375589534713,-14192.262493641674,-35202.43289499675,0.0,0.0,0.0,193.0,0.0,193.0,0.0,17.0,0.0,179.0,193.0,17.0,179.0,1744420561.0606363,0.0,2025-04-11 21:16:01.060,FORWARD,33
119.0,19361.55043382054,25092.493008672358,-31794.842397551824,-21018.038215403347,-35595.62243171006,-27474.00432515196,-13927.57313580193,-35249.1703926528,0.0,0.0,0.0,193.0,0.0,193.0,0.0,17.0,0.0,179.0,193.0,17.0,179.0,1744420561.0607584,0.0,2025-04-11 21:16:01.060,FORWARD,33
120.0,19340.383331821362,25084.379325435082,-31787.62278409276,-21008.78459319885,-35585.63120193854,-27458.916897644627,-14221.118595733476,-35246.82345948499,0.0,0.0,0.0,193.0,0.0,194.0,0.0,17.0,0.0,180.0,194.0,17.0,180.0,1744420561.0608027,0.0,2025-04-11 21:16:01.060,FORWARD,33
121.0,19321.518459501083,25095.085811029174,-31781.498406112005,-21003.44252627403,-35582.63606818153,-27451.585525463288,-14503.354072970638,-35238.77683148108,0.0,0.0,0.0,193.0,0.0,193.0,0.0,17.0,0.0,179.0,193.0,17.0,179.0,1744420561.0608456,0.0,2025-04-11 21:16:01.060,FORWARD,33
122.0,19342.81967196699,25101.366651221117,-31777.318629898862,-21000.693261706027,-35584.17833854894,-27459.520394744923,-14295.013462902722,-35223.44353478474,0.0,0.0,0.0,193.0,0.0,193.0,0.0,17.0,0.0,179.0,193.0,17.0,179.0,1744420561.0608888,0.0,2025-04-11 21:16:01.060,FORWARD,33
123.0,19352.140349404854,25091.39777319405,-31797.077571997354,-21027.403596330118,-35602.50676900229,-27482.967374678537,-13910.295237337976,-35236.67576750228,0.0,0.0,0.0,193.0,0.0,194.0,0.0,17.0,0.0,180.0,194.0,17.0,180.0,1744420561.0609317,0.0,2025-04-11 21:16:01.060,FORWARD,33
124.0,19338.639895753848,25086.100409758143,-31790.774380060957,-21020.385148571153,-35591.73322817484,-27463.186080835592,-14167.18383636282,-35250.57855255348,0.0,0.0,0.0,193.0,0.0,193.0,0.0,17.0,0.0,179.0,193.0,17.0,179.0,1744420561.0609748,0.0,2025-04-11 21:16:01.060,FORWARD,33
125.0,19323.15013684632,25098.192703508463,-31792.562519617382,-21018.798174714826,-35594.773065420755,-27458.156938333148,-14506.550372427748,-35248.00810194112,0.0,0.0,0.0,193.0,0.0,193.0,0.0,17.0,0.0,179.0,193.0,17.0,179.0,1744420561.0610347,0.0,2025-04-11 21:16:01.061,FORWARD,33
126.0,19337.365846319895,25107.20045652395,-31795.8035225634,-21021.72625323847,-35601.94797539091,-27472.931441418106,-14416.383435295038,-35253.23841014366,0.0,0.0,0.0,193.0,0.0,194.0,0.0,17.0,0.0,180.0,194.0,17.0,180.0,1744420561.0610778,0.0,2025-04-11 21:16:01.061,FORWARD,33
127.0,19352.45327382723,25101.858389599132,-31796.33996443033,-21022.95559918351,-35603.28908005823,-27481.313345588846,-13951.556557602473,-35234.06061340101,0.0,0.0,0.0,193.0,0.0,193.0,0.0,17.0,0.0,179.0,193.0,17.0,179.0,1744420561.061121,0.0,2025-04-11 21:16:01.061,FORWARD,33
128.0,19336.360017819406,25080.24425271085,-31793.657755095694,-21026.86715446319,-35597.365867777575,-27476.820644953328,-14111.304475224553,-35277.02066624411,0.0,0.0,0.0,193.0,0.0,194.0,0.0,17.0,0.0,180.0,194.0,17.0,180.0,1744420561.0611637,0.0,2025-04-11 21:16:01.061,FORWARD,33
129.0,19328.62631423787,25098.72914537539,-31780.29141191142,-21008.87400017667,-35584.33480076013,-27455.273563298415,-14475.190874956952,-35254.735977022174,0.0,0.0,0.0,193.0,0.0,194.0,0.0,17.0,0.0,180.0,194.0,17.0,180.0,1744420561.0612197,0.0,2025-04-11 21:16:01.061,FORWARD,33
130.0,19330.325046816477,25108.340395491174,-31776.11163569828,-21000.82737217276,-35582.72547515935,-27454.91593538713,-14473.134514467063,-35229.67967148777,0.0,0.0,0.0,193.0,0.0,193.0,0.0,17.0,0.0,179.0,193.0,17.0,179.0,1744420561.0612628,0.0,2025-04-11 21:16:01.061,FORWARD,33
131.0,19357.39300935185,25115.515305461326,-31785.164092202678,-21009.656311232604,-35592.76140841978,-27476.574775764322,-13985.508857430084,-35212.982918379654,0.0,0.0,0.0,193.0,0.0,193.0,0.0,17.0,0.0,179.0,193.0,17.0,179.0,1744420561.0613053,0.0,2025-04-11 21:16:01.061,FORWARD,33
132.0,19349.614602281406,25094.25879648433,-31789.23210969354,-21023.514392794896,-35598.7516759338,-27480.553386277366,-14051.960593695712,-35275.16547145432,0.0,0.0,0.0,193.0,0.0,194.0,0.0,17.0,0.0,180.0,194.0,17.0,180.0,1744420561.061348,0.0,2025-04-11 21:16:01.061,FORWARD,33
133.0,19322.747805446124,25097.946834319453,-31790.036772493935,-21017.83704970325,-35600.651574212505,-27474.786636207897,-14406.347502034605,-35267.85645101743,0.0,0.0,0.0,193.0,0.0,193.0,0.0,17.0,0.0,179.0,193.0,17.0,179.0,1744420561.0613909,0.0,2025-04-11 21:16:01.061,FORWARD,33
134.0,19327.464023526194,25113.749517649358,-31777.251574665497,-21002.01201462889,-35588.04519033971,-27461.844976168275,-14526.845756393166,-35239.96147393721,0.0,0.0,0.0,193.0,0.0,193.0,0.0,17.0,0.0,179.0,193.0,17.0,179.0,1744420561.0614479,0.0,2025-04-11 21:16:01.061,FORWARD,33
135.0,19356.65540178483,25121.371462508618,-31785.454664880595,-21004.31424430779,-35595.08598984313,-27478.407618809655,-14049.703067505727,-35193.693362914724,0.0,0.0,0.0,193.0,0.0,194.0,0.0,17.0,0.0,180.0,194.0,17.0,180.0,1744420561.0614908,0.0,2025-04-11 21:16:01.061,FORWARD,33
136.0,19354.53198606157,25105.859351856634,-31790.550862616405,-21017.077090391766,-35600.80803642369,-27483.52616828992,-14007.145346062822,-35265.1742416828,0.0,0.0,0.0,193.0,0.0,193.0,0.0,17.0,0.0,179.0,193.0,17.0,179.0,1744420561.0615337,0.0,2025-04-11 21:16:01.061,FORWARD,33
137.0,19330.12388111638,25105.948758834453,-31785.544071858418,-21004.761279196893,-35589.20748105139,-27466.069455870325,-14346.087198983098,-35243.44834607224,0.0,0.0,0.0,193.0,0.0,193.0,0.0,17.0,0.0,179.0,193.0,17.0,179.0,1744420561.0615764,0.0,2025-04-11 21:16:01.061,FORWARD,33
138.0,19332.314352072997,25118.979825851897,-31769.227298406044,-20992.668985446573,-35573.15892853247,-27453.373665019713,-14542.961364145443,-35235.69229074625,0.0,0.0,0.0,193.0,0.0,194.0,0.0,17.0,0.0,180.0,194.0,17.0,180.0,1744420561.061619,0.0,2025-04-11 21:16:01.061,FORWARD,33
139.0,19356.9683262072,25121.818497397722,-31775.73165604254,-20993.786572669338,-35583.84306238211,-27470.09276987228,-14143.736856429203,-35207.909072388306,0.0,0.0,0.0,193.0,0.0,193.0,0.0,17.0,0.0,179.0,193.0,17.0,179.0,1744420561.0616615,0.0,2025-04-11 21:16:01.061,FORWARD,33
140.0,19363.115055932412,25110.82143912571,-31785.52172011396,-21013.97019791248,-35593.34255377562,-27478.497025787477,-13955.848092537892,-35253.86425898841,0.0,0.0,0.0,193.0,0.0,193.0,0.0,17.0,0.0,179.0,193.0,17.0,179.0,1744420561.0617187,0.0,2025-04-11 21:16:01.061,FORWARD,33
141.0,19340.986828921657,25109.45798271394,-31779.53145259994,-21004.403651285607,-35582.881937370534,-27461.442644768078,-14276.305052793628,-35248.18691589677,0.0,0.0,0.0,193.0,0.0,194.0,0.0,17.0,0.0,180.0,194.0,17.0,180.0,1744420561.0617623,0.0,2025-04-11 21:16:01.061,FORWARD,33
142.0,19330.325046816477,25119.851543885656,-31770.009609461977,-20991.640805201627,-35578.88097511303,-27449.75268241795,-14542.693143211978,-35240.56497103751,0.0,0.0,0.0,193.0,0.0,193.0,0.0,17.0,0.0,179.0,193.0,17.0,179.0,1744420561.061805,0.0,2025-04-11 21:16:01.061,FORWARD,33
143.0,19358.756465763625,25129.820421912722,-31768.33322862783,-20984.130619064646,-35585.92177461646,-27453.574830719812,-14258.691878162846,-35208.84784565542,0.0,0.0,0.0,193.0,0.0,193.0,0.0,17.0,0.0,179.0,193.0,17.0,179.0,1744420561.0618522,0.0,2025-04-11 21:16:01.061,FORWARD,33
144.0,19362.2209861542,25119.024529340808,-31779.464397366573,-21006.191790842033,-35589.4980537293,-27471.053894883862,-13930.52356607003,-35228.33856682045,0.0,0.0,0.0,193.0,0.0,194.0,0.0,17.0,0.0,180.0,194.0,17.0,180.0,1744420561.0619085,0.0,2025-04-11 21:16:01.061,FORWARD,33
145.0,19341.59032602195,25110.284997258783,-31775.28462115343,-21001.185000084042,-35580.937335602925,-27459.565098233834,-14205.13709844793,-35251.31616012051,0.0,0.0,0.0,193.0,0.0,194.0,0.0,17.0,0.0,180.0,194.0,17.0,180.0,1744420561.0619516,0.0,2025-04-11 21:16:01.061,FORWARD,33
146.0,19325.430014780763,25117.05757582874,-31771.37306587375,-20995.977043625957,-35577.42811172344,-27450.914973129627,-14524.498823225358,-35245.236485628666,0.0,0.0,0.0,193.0,0.0,193.0,0.0,17.0,0.0,179.0,193.0,17.0,179.0,1744420561.0619943,0.0,2025-04-11 21:16:01.061,FORWARD,33
147.0,19351.156872648822,25115.805878139243,-31773.541185085916,-20998.636901216138,-35583.55248970419,-27467.67878147111,-14333.41375987694,-35235.78169772407,0.0,0.0,0.0,193.0,0.0,193.0,0.0,17.0,0.0,179.0,193.0,17.0,179.0,1744420561.062037,0.0,2025-04-11 21:16:01.062,FORWARD,33
148.0,19372.771009537104,25110.374404236605,-31785.633478836236,-21019.200506115023,-35595.51067298778,-27486.431895069112,-13929.18246140271,-35246.35407285143,0.0,0.0,0.0,193.0,0.0,194.0,0.0,17.0,0.0,180.0,194.0,17.0,180.0,1744420561.0620804,0.0,2025-04-11 21:16:01.062,FORWARD,33
149.0,19349.413436581308,25098.639738397567,-31785.901699769704,-21018.284084592353,-35592.42613225295,-27473.847862940773,-14162.154693860377,-35264.45898586023,0.0,0.0,0.0,193.0,0.0,194.0,0.0,17.0,0.0,179.0,194.0,17.0,179.0,1744420561.062137,0.0,2025-04-11 21:16:01.062,FORWARD,33
150.0,19325.988808392147,25107.06634605722,-31781.140778200723,-21009.477497276963,-35586.122940316556,-27458.80513892235,-14505.142212527064,-35251.02558744259,0.0,0.0,0.0,193.0,0.0,193.0,0.0,17.0,0.0,179.0,193.0,17.0,179.0,1744420561.0621803,0.0,2025-04-11 21:16:01.062,FORWARD,33
151.0,19338.863413198404,25117.86223862913,-31770.81427226237,-20997.49696224892,-35577.80809137918,-27453.574830719812,-14419.691493474424,-35210.81479916749,0.0,0.0,0.0,193.0,0.0,194.0,0.0,17.0,0.0,180.0,194.0,17.0,180.0,1744420561.0622227,0.0,2025-04-11 21:16:01.062,FORWARD,33
152.0,19362.466855343206,25121.013834597332,-31788.0027637485,-21015.490116535442,-35602.79734168021,-27478.251156598468,-13955.468112882152,-35212.69234570174,0.0,0.0,0.0,193.0,0.0,193.0,0.0,17.0,0.0,179.0,193.0,17.0,179.0,1744420561.0622652,0.0,2025-04-11 21:16:01.062,FORWARD,33
153.0,19345.412474323806,25103.221846010907,-31790.997897505513,-21023.290875350343,-35599.533986989736,-27474.473711785522,-14097.73696634018,-35252.81372699901,0.0,0.0,0.0,193.0,0.0,193.0,0.0,17.0,0.0,180.0,193.0,17.0,180.0,1744420561.062308,0.0,2025-04-11 21:16:01.062,FORWARD,33
154.0,19333.76721546259,25116.38702349508,-31776.15633918719,-21004.62716873016,-35582.412550736975,-27454.71476968703,-14452.950889223921,-35236.9663401802,0.0,0.0,0.0,193.0,0.0,194.0,0.0,17.0,0.0,180.0,194.0,17.0,180.0,1744420561.0623507,0.0,2025-04-11 21:16:01.062,FORWARD,33
155.0,19348.184090636267,25129.507497490347,-31761.8959262247,-20988.377450511154,-35574.7459023888,-27448.679798684097,-14501.588285158668,-35232.1160116334,0.0,0.0,0.0,193.0,0.0,193.0,0.0,17.0,0.0,179.0,193.0,17.0,179.0,1744420561.0624073,0.0,2025-04-11 21:16:01.062,FORWARD,33
156.0,19370.2229106692,25126.49001198888,-31782.213661934577,-21006.705880964506,-35597.47762649985,-27481.67097350013,-14003.0549768275,-35223.53294176256,0.0,0.0,0.0,193.0,0.0,193.0,0.0,17.0,0.0,179.0,193.0,17.0,179.0,1744420561.0624504,0.0,2025-04-11 21:16:01.062,FORWARD,33
157.0,19362.042172198555,25112.609578682135,-31786.974583503557,-21016.920628180582,-35600.450408512406,-27475.188967608094,-14053.1675878963,-35274.874898776405,0.0,0.0,0.0,193.0,0.0,194.0,0.0,17.0,0.0,180.0,194.0,17.0,180.0,1744420561.062493,0.0,2025-04-11 21:16:01.062,FORWARD,33
158.0,19338.483433542664,25117.146982806564,-31779.732618300037,-21000.715613450484,-35590.034495596236,-27450.266772540424,-14401.050138598697,-35227.042165642044,0.0,0.0,0.0,193.0,0.0,194.0,0.0,17.0,0.0,180.0,194.0,17.0,180.0,1744420561.0625498,0.0,2025-04-11 21:16:01.062,FORWARD,33
159.0,19338.483433542664,25129.39573876807,-31770.18842341762,-20991.439639501532,-35583.77600714874,-27448.366874261723,-14526.510480226336,-35224.71758421869,0.0,0.0,0.0,193.0,0.0,193.0,0.0,17.0,0.0,179.0,193.0,17.0,179.0,1744420561.062593,0.0,2025-04-11 21:16:01.062,FORWARD,33
160.0,19365.93137573378,25132.614389969636,-31779.978487489047,-20995.86528490368,-35597.432923010936,-27471.322115817326,-14075.653442818339,-35205.316270031486,0.0,0.0,0.0,193.0,0.0,194.0,0.0,17.0,0.0,180.0,194.0,17.0,180.0,1744420561.062636,0.0,2025-04-11 21:16:01.062,FORWARD,33
161.0,19355.716628517705,25105.658186156536,-31795.468246396573,-21024.38611082865,-35608.42998128295,-27486.186025880103,-13982.558427161985,-35262.24616315915,0.0,0.0,0.0,193.0,0.0,194.0,0.0,17.0,0.0,180.0,194.0,17.0,180.0,1744420561.538545,0.0,2025-04-11 21:16:01.538,FORWARD,33
162.0,19337.92463993128,25108.83213386919,-31784.694705569116,-21010.01393914389,-35594.348382276105,-27465.57771749231,-14341.12511171402,-35260.59213406946,0.0,0.0,0.0,193.0,0.0,194.0,0.0,17.0,0.0,179.0,194.0,17.0,179.0,1744420561.5387397,0.0,2025-04-11 21:16:01.538,FORWARD,33
163.0,19330.369750305385,25117.526962462303,-31774.61406881977,-21000.58150298375,-35586.9499548614,-27453.597182464266,-14547.141140358584,-35241.235523371164,0.0,0.0,0.0,193.0,0.0,193.0,0.0,17.0,0.0,179.0,193.0,17.0,179.0,1744420561.5388398,0.0,2025-04-11 21:16:01.538,FORWARD,33
164.0,19357.39300935185,25122.287884031284,-31776.938650243123,-20998.323976793763,-35588.51457697327,-27461.71086570154,-14166.535635773616,-35200.06361008449,0.0,0.0,0.0,193.0,0.0,194.0,0.0,17.0,0.0,179.0,194.0,17.0,179.0,1744420561.538888,0.0,2025-04-11 21:16:01.538,FORWARD,33
165.0,19359.404666352828,25104.562950678224,-31791.869615539268,-21022.53091603886,-35602.14914109101,-27476.15009261967,-13954.797560548492,-35243.80597398352,0.0,0.0,0.0,193.0,0.0,194.0,0.0,17.0,0.0,180.0,194.0,17.0,180.0,1744420561.5389338,0.0,2025-04-11 21:16:01.538,FORWARD,33
166.0,19337.835232953457,25100.651395398545,-31785.611127091783,-21012.472631033976,-35588.71574267337,-27458.022827866418,-14277.221474316297,-35239.69325300375,0.0,0.0,0.0,193.0,0.0,193.0,0.0,17.0,0.0,179.0,193.0,17.0,179.0,1744420561.5389798,0.0,2025-04-11 21:16:01.538,FORWARD,33
167.0,19319.64091296684,25105.7252413899,-31777.76566478797,-21004.06837511878,-35575.483509955826,-27450.3785312627,-14537.820462920721,-35234.88762794586,0.0,0.0,0.0,193.0,0.0,194.0,0.0,17.0,0.0,180.0,194.0,17.0,180.0,1744420561.5390253,0.0,2025-04-11 21:16:01.539,FORWARD,33
168.0,19347.40177958033,25112.698985659958,-31776.71513279857,-20997.11698259318,-35575.52821344474,-27458.3804557777,-14255.92026185039,-35213.854636413416,0.0,0.0,0.0,193.0,0.0,193.0,0.0,17.0,0.0,179.0,193.0,17.0,179.0,1744420561.539071,0.0,2025-04-11 21:16:01.539,FORWARD,33
169.0,19357.907099474323,25104.093564044662,-31795.06591499638,-21021.279218349366,-35597.365867777575,-27479.18992986559,-13926.14262415679,-35241.86137221591,0.0,0.0,0.0,193.0,0.0,193.0,0.0,17.0,0.0,179.0,193.0,17.0,179.0,1744420561.5391164,0.0,2025-04-11 21:16:01.539,FORWARD,33
170.0,19329.788604949546,25094.236444739872,-31800.76560983248,-21024.766090484394,-35603.33378354714,-27474.25019434097,-14208.847488027513,-35260.36861662491,0.0,0.0,0.0,193.0,0.0,194.0,0.0,17.0,0.0,180.0,194.0,17.0,180.0,1744420561.5391808,0.0,2025-04-11 21:16:01.539,FORWARD,33
171.0,19322.54663974603,25113.59305543817,-31781.207833434088,-21005.387128041642,-35578.076312312645,-27453.820699908818,-14526.44342499297,-35244.14125015036,0.0,0.0,0.0,193.0,0.0,193.0,0.0,17.0,0.0,179.0,193.0,17.0,179.0,1744420561.5392268,0.0,2025-04-11 21:16:01.539,FORWARD,33
172.0,19343.601983022927,25128.12168933412,-31772.468301352063,-20993.33953778023,-35573.40479772149,-27451.6302289522,-14331.759730787246,-35202.25408104111,0.0,0.0,0.0,193.0,0.0,193.0,0.0,17.0,0.0,179.0,193.0,17.0,179.0,1744420561.5392728,0.0,2025-04-11 21:16:01.539,FORWARD,33
173.0,19362.064523943012,25121.17029680852,-31789.9026620272,-21015.892447935636,-35595.6000799656,-27476.6865344866,-13915.95022868517,-35222.59416849544,0.0,0.0,0.0,193.0,0.0,194.0,0.0,17.0,0.0,180.0,194.0,17.0,180.0,1744420561.5393364,0.0,2025-04-11 21:16:01.539,FORWARD,33
174.0,19345.233660368165,25105.054689056244,-31789.67914458265,-21017.81469795879,-35592.962574119876,-27469.891604172186,-14140.048818594078,-35259.005160213135,0.0,0.0,0.0,193.0,0.0,193.0,0.0,17.0,0.0,179.0,193.0,17.0,179.0,1744420561.5393822,0.0,2025-04-11 21:16:01.539,FORWARD,33
175.0,19327.329913059464,25116.319968261716,-31786.326382914354,-21011.556209511305,-35589.6992194294,-27461.219127323526,-14487.86431406311,-35250.51149732012,0.0,0.0,0.0,193.0,0.0,194.0,0.0,17.0,0.0,180.0,194.0,17.0,180.0,1744420561.5394273,0.0,2025-04-11 21:16:01.539,FORWARD,33
176.0,19342.46204405571,25119.73978516338,-31780.023190977958,-21004.358947796696,-35584.53596646023,-27463.901336658164,-14454.314345635696,-35241.45904081572,0.0,0.0,0.0,193.0,0.0,193.0,0.0,17.0,0.0,179.0,193.0,17.0,179.0,1744420561.5394723,0.0,2025-04-11 21:16:01.539,FORWARD,33
177.0,19364.232643155177,25111.24612227036,-31792.227243450554,-21019.222857859477,-35593.163739819975,-27485.96250843555,-13971.494313656607,-35225.81281969701,0.0,0.0,0.0,193.0,0.0,193.0,0.0,17.0,0.0,179.0,193.0,17.0,179.0,1744420561.5395176,0.0,2025-04-11 21:16:01.539,FORWARD,33
178.0,19348.02762842508,25091.867159827612,-31797.166978975176,-21030.622247531683,-35593.454312497895,-27484.44258981259,-14093.043100004566,-35275.67956157679,0.0,0.0,0.0,193.0,0.0,193.0,0.0,17.0,0.0,179.0,193.0,17.0,179.0,1744420561.5395758,0.0,2025-04-11 21:16:01.539,FORWARD,33
179.0,19318.322160043976,25105.524075689802,-31795.602356863306,-21020.385148571153,-35590.593289207616,-27468.66225822714,-14455.297822391729,-35261.48620384767,0.0,0.0,0.0,193.0,0.0,194.0,0.0,17.0,0.0,180.0,194.0,17.0,180.0,1744420561.5396214,0.0,2025-04-11 21:16:01.539,FORWARD,33
180.0,19321.697273456728,25114.241256027373,-31786.99693524801,-21011.86913393368,-35580.937335602925,-27461.889679657186,-14505.097509038153,-35231.75838372212,0.0,0.0,0.0,193.0,0.0,193.0,0.0,17.0,0.0,179.0,193.0,17.0,179.0,1744420561.5396671,0.0,2025-04-11 21:16:01.539,FORWARD,33
181.0,19349.68165751477,25114.285959516284,-31801.413810421684,-21023.06735790579,-35601.23271956834,-27485.850749713274,-14020.399930524818,-35213.54171199104,0.0,0.0,0.0,193.0,0.0,193.0,0.0,17.0,0.0,179.0,193.0,17.0,179.0,1744420561.5397124,0.0,2025-04-11 21:16:01.539,FORWARD,33
182.0,19350.799244737536,25099.131476775587,-31801.659679610693,-21031.359855098708,-35605.971289392866,-27484.91197644615,-14063.73996302366,-35280.820462801516,0.0,0.0,0.0,193.0,0.0,194.0,0.0,17.0,0.0,180.0,194.0,17.0,180.0,1744420561.5397575,0.0,2025-04-11 21:16:01.539,FORWARD,33
183.0,19336.06944514149,25110.955549592443,-31790.394400405217,-21011.377395555664,-35594.86247239858,-27461.599106979265,-14412.896563160011,-35251.807898498526,0.0,0.0,0.0,193.0,0.0,193.0,0.0,17.0,0.0,179.0,193.0,17.0,179.0,1744420561.5398028,0.0,2025-04-11 21:16:01.539,FORWARD,33
184.0,19336.002389908124,25126.69117768898,-31777.788016532424,-20998.659252960595,-35584.53596646023,-27453.373665019713,-14557.132370130108,-35244.70004376174,0.0,0.0,0.0,193.0,0.0,193.0,0.0,17.0,0.0,179.0,193.0,17.0,179.0,1744420561.539848,0.0,2025-04-11 21:16:01.539,FORWARD,33
185.0,19357.571823307495,25122.936084620487,-31785.499368369507,-21002.280235562353,-35591.5991177081,-27471.120950117227,-14102.587294886982,-35212.20060732372,0.0,0.0,0.0,193.0,0.0,194.0,0.0,17.0,0.0,180.0,194.0,17.0,180.0,1744420561.5399065,0.0,2025-04-11 21:16:01.539,FORWARD,33
186.0,19357.147140162844,25104.227674511396,-31790.819083549868,-21018.50760203691,-35593.722533431355,-27475.546595519376,-13986.24646499711,-35256.39000611186,0.0,0.0,0.0,193.0,0.0,194.0,0.0,17.0,0.0,180.0,194.0,17.0,180.0,1744420561.5399525,0.0,2025-04-11 21:16:01.539,FORWARD,33
187.0,19335.39889280783,25108.094526302164,-31786.728714314548,-21009.34338681023,-35589.609812451585,-27464.840109925284,-14331.245640664774,-35257.61935205691,0.0,0.0,0.0,193.0,0.0,193.0,0.0,17.0,0.0,179.0,193.0,17.0,179.0,1744420561.5399988,0.0,2025-04-11 21:16:01.539,FORWARD,33
188.0,19326.122918858877,25118.93512236299,-31772.24478390751,-20994.412421514087,-35573.78477737722,-27442.66717942562,-14551.253861338362,-35225.49989527463,0.0,0.0,0.0,193.0,0.0,194.0,0.0,17.0,0.0,180.0,194.0,17.0,180.0,1744420561.5400603,0.0,2025-04-11 21:16:01.540,FORWARD,33
189.0,19342.976134178178,25116.96816885092,-31785.208795691586,-21002.794325684827,-35587.017010094765,-27465.5330140034,-14176.750382989692,-35195.14622630432,0.0,0.0,0.0,193.0,0.0,194.0,0.0,17.0,0.0,180.0,194.0,17.0,180.0,1744420561.540106,0.0,2025-04-11 21:16:01.540,FORWARD,33
190.0,19355.850738984434,25104.942930333964,-31799.379801676252,-21025.660160262607,-35598.058771855685,-27485.20254912407,-13943.554633087473,-35247.29284611855,0.0,0.0,0.0,193.0,0.0,193.0,0.0,17.0,0.0,179.0,193.0,17.0,179.0,1744420561.5401511,0.0,2025-04-11 21:16:01.540,FORWARD,33
191.0,19334.0130846516,25102.30542448824,-31792.495464384017,-21013.09847987872,-35589.29688802921,-27463.38724653569,-14253.081590304566,-35244.27536061709,0.0,0.0,0.0,193.0,0.0,194.0,0.0,17.0,0.0,180.0,194.0,17.0,180.0,1744420561.540197,0.0,2025-04-11 21:16:01.540,FORWARD,33
192.0,19323.820689179982,25117.68342467349,-31783.934746257633,-21003.26371231839,-35583.39602749301,-27451.38435976319,-14548.21402409244,-35239.24621811464,0.0,0.0,0.0,193.0,0.0,193.0,0.0,17.0,0.0,179.0,193.0,17.0,179.0,1744420561.5402436,0.0,2025-04-11 21:16:01.540,FORWARD,33
193.0,19348.809939481012,25125.05950034374,-31785.879348025246,-20999.463915760985,-35592.06850434167,-27458.402807522158,-14289.604340744538,-35206.836188654444,0.0,0.0,0.0,193.0,0.0,193.0,0.0,17.0,0.0,179.0,193.0,17.0,179.0,1744420561.5403092,0.0,2025-04-11 21:16:01.540,FORWARD,33
194.0,19366.087837944968,25111.760212392834,-31789.567385860373,-21013.277293834366,-35591.196786307904,-27467.47761577101,-13932.37876085982,-35216.67095621478,0.0,0.0,0.0,193.0,0.0,194.0,0.0,17.0,0.0,180.0,194.0,17.0,180.0,1744420561.5403562,0.0,2025-04-11 21:16:01.540,FORWARD,33
195.0,19341.344456832943,25096.516322674313,-31789.790903304925,-21012.763203711893,-35587.53110021724,-27459.76626393393,-14188.37329010645,-35236.02756691308,0.0,0.0,0.0,193.0,0.0,193.0,0.0,17.0,0.0,179.0,193.0,17.0,179.0,1744420561.5404024,0.0,2025-04-11 21:16:01.540,FORWARD,33
196.0,19326.45819502571,25106.95458733494,-31784.33707765783,-21005.834162930747,-35585.36298100507,-27451.697284185564,-14523.358884258138,-35229.567912765495,0.0,0.0,0.0,193.0,0.0,194.0,0.0,17.0,0.0,180.0,194.0,17.0,180.0,1744420561.5404494,0.0,2025-04-11 21:16:01.540,FORWARD,33
197.0,19339.913945187804,25107.803953624243,-31781.587813089827,-21000.40268902811,-35584.26774552676,-27459.81096742284,-14365.220292236841,-35208.62432821087,0.0,0.0,0.0,193.0,0.0,194.0,0.0,17.0,0.0,180.0,194.0,17.0,180.0,1744420561.5404956,0.0,2025-04-11 21:16:01.540,FORWARD,33
198.0,19355.694276773247,25100.58434016518,-31796.0046882635,-21017.367663069686,-35600.27159455676,-27483.146188634182,-13930.009475947558,-35236.273436102085,0.0,0.0,0.0,193.0,0.0,193.0,0.0,17.0,0.0,179.0,193.0,17.0,179.0,1744420561.5405383,0.0,2025-04-11 21:16:01.540,FORWARD,33
199.0,19340.02570391008,25091.621290638603,-31791.73550507254,-21015.981854913458,-35595.197748565406,-27472.350296062268,-14147.223728564231,-35276.28305867709,0.0,0.0,0.0,193.0,0.0,194.0,0.0,17.0,0.0,180.0,194.0,17.0,180.0,1744420561.5405967,0.0,2025-04-11 21:16:01.540,FORWARD,33
200.0,19324.558296747007,25111.134363548084,-31780.649039822703,-20995.06062210329,-35583.105454815086,-27440.90139161365,-14480.711755837412,-35216.089810858946,0.0,0.0,0.0,193.0,0.0,194.0,0.0,17.0,0.0,179.0,194.0,17.0,179.0,1744420561.5406377,0.0,2025-04-11 21:16:01.540,FORWARD,33
201.0,19341.657381255314,25132.100299847163,-31769.182594917133,-20981.58252019674,-35577.42811172344,-27436.85572586724,-14444.121950164075,-35199.14718856182,0.0,0.0,0.0,193.0,0.0,193.0,0.0,17.0,0.0,179.0,193.0,17.0,179.0,1744420561.5406785,0.0,2025-04-11 21:16:01.540,FORWARD,33
202.0,19371.49696010315,25128.479317245405,-31787.1533974592,-21003.509581507395,-35603.89257715852,-27470.226880339014,-13976.299938714497,-35205.58449096495,0.0,0.0,0.0,193.0,0.0,194.0,0.0,17.0,0.0,180.0,194.0,17.0,180.0,1744420561.5407188,0.0,2025-04-11 21:16:01.540,FORWARD,33
203.0,19364.724381533193,25109.97207283641,-31788.24863293751,-21012.45027928952,-35601.88092015754,-27466.918822159627,-14091.679643592794,-35249.68448277527,0.0,0.0,0.0,193.0,0.0,194.0,0.0,17.0,0.0,180.0,194.0,17.0,180.0,1744420561.5407724,0.0,2025-04-11 21:16:01.540,FORWARD,33
204.0,19338.796357965035,25118.68925317398,-31782.81715903487,-21001.87790416216,-35590.727399674346,-27457.039351110383,-14421.837260942133,-35230.4172790548,0.0,0.0,0.0,193.0,0.0,193.0,0.0,17.0,0.0,179.0,193.0,17.0,179.0,1744420561.5408132,0.0,2025-04-11 21:16:01.540,FORWARD,33
205.0,19349.01110518111,25128.702834689957,-31767.43915884962,-20989.62914820065,-35579.21625127986,-27450.602048707253,-14511.378349230094,-35226.88570343086,0.0,0.0,0.0,193.0,0.0,194.0,0.0,17.0,0.0,180.0,194.0,17.0,180.0,1744420561.540854,0.0,2025-04-11 21:16:01.540,FORWARD,33
206.0,19375.16264619382,25127.36173002264,-31776.446911865107,-20997.04992735981,-35594.057809598184,-27470.696266972576,-14042.326991835474,-35205.69624968723,0.0,0.0,0.0,193.0,0.0,194.0,0.0,17.0,0.0,180.0,194.0,17.0,180.0,1744420561.5408945,0.0,2025-04-11 21:16:01.540,FORWARD,33
207.0,19364.724381533193,25100.360822720628,-31785.454664880595,-21014.841915946236,-35595.93535613243,-27476.06068564185,-14032.179299852765,-35254.959494466726,0.0,0.0,0.0,193.0,0.0,193.0,0.0,17.0,0.0,179.0,193.0,17.0,179.0,1744420561.540935,0.0,2025-04-11 21:16:01.540,FORWARD,33
208.0,19334.43776779625,25101.858389599132,-31784.828816035846,-21005.96827339748,-35590.5485857187,-27462.873156413218,-14365.443809681394,-35243.895380961345,0.0,0.0,0.0,193.0,0.0,194.0,0.0,17.0,0.0,180.0,194.0,17.0,180.0,1744420561.5409884,0.0,2025-04-11 21:16:01.540,FORWARD,33
209.0,19332.001427650623,25123.45017474296,-31770.411940862174,-20989.830313900748,-35575.66232391147,-27444.835298637787,-14531.11493958413,-35228.15975286481,0.0,0.0,0.0,193.0,0.0,194.0,0.0,17.0,0.0,180.0,194.0,17.0,180.0,1744420561.5410292,0.0,2025-04-11 21:16:01.541,FORWARD,33
210.0,19357.996506452146,25121.55027646426,-31776.268097909466,-20993.25013080241,-35581.71964665886,-27454.066569097828,-14090.0256145031,-35172.794481849014,0.0,0.0,0.0,193.0,0.0,193.0,0.0,17.0,0.0,179.0,193.0,17.0,179.0,1744420561.5410695,0.0,2025-04-11 21:16:01.541,FORWARD,33
211.0,19362.60096580994,25109.078003058195,-31782.86186252378,-21011.779726955858,-35587.62050719506,-27462.09084535728,-13959.290261184009,-35227.824476697984,0.0,0.0,0.0,193.0,0.0,194.0,0.0,17.0,0.0,180.0,194.0,17.0,180.0,1744420561.5411096,0.0,2025-04-11 21:16:01.541,FORWARD,33
212.0,19344.049017912035,25118.197514795964,-31778.279754910443,-20999.240398316433,-35581.94316410341,-27445.28233352689,-14293.270026835207,-35219.59903473843,0.0,0.0,0.0,193.0,0.0,194.0,0.0,17.0,0.0,179.0,194.0,17.0,179.0,1744420561.54115,0.0,2025-04-11 21:16:01.541,FORWARD,33
213.0,19330.459157283207,25116.8787618731,-31772.714170541072,-20995.909988392592,-35574.72355064435,-27446.08699632728,-14535.78645417529,-35227.44449704224,0.0,0.0,0.0,193.0,0.0,194.0,0.0,17.0,0.0,180.0,194.0,17.0,180.0,1744420561.5411904,0.0,2025-04-11 21:16:01.541,FORWARD,33
214.0,19350.44161682625,25115.06827057222,-31778.279754910443,-20997.429907015554,-35582.77017864826,-27463.834281424795,-14191.256665141185,-35206.500912487616,0.0,0.0,0.0,193.0,0.0,194.0,0.0,17.0,0.0,180.0,194.0,17.0,180.0,1744420561.5412436,0.0,2025-04-11 21:16:01.541,FORWARD,33
215.0,19361.326916375987,25104.451191955948,-31784.851167780304,-21015.57952351326,-35585.78766414972,-27471.16565360614,-13930.188289903199,-35228.00329065362,0.0,0.0,0.0,193.0,0.0,194.0,0.0,17.0,0.0,179.0,194.0,17.0,179.0,1744420561.541284,0.0,2025-04-11 21:16:01.541,FORWARD,33
216.0,19344.943087690244,25103.959453577932,-31774.994048475513,-21002.593159984728,-35569.80616686418,-27452.837223152786,-14239.871709331479,-35230.73020347717,0.0,0.0,0.0,193.0,0.0,194.0,0.0,17.0,0.0,179.0,194.0,17.0,179.0,1744420561.5413246,0.0,2025-04-11 21:16:01.541,FORWARD,33
217.0,19326.726415959172,25115.738822905878,-31764.779301259437,-20988.712726677983,-35560.32902721513,-27439.53793520188,-14537.68635245399,-35226.32690981947,0.0,0.0,0.0,193.0,0.0,194.0,0.0,17.0,0.0,180.0,194.0,17.0,180.0,1744420561.5413716,0.0,2025-04-11 21:16:01.541,FORWARD,33
218.0,19341.45621555522,25120.72326191941,-31768.847318750304,-20988.712726677983,-35566.96749531836,-27455.787653420884,-14293.91822742441,-35213.988746880146,0.0,0.0,0.0,193.0,0.0,193.0,0.0,17.0,0.0,179.0,193.0,17.0,179.0,1744420561.541427,0.0,2025-04-11 21:16:01.541,FORWARD,33
219.0,19361.841006498456,25111.648453670558,-31782.258365423488,-21009.499849021417,-35582.16668154796,-27473.02084839593,-13908.12711812581,-35217.274453315076,0.0,0.0,0.0,193.0,0.0,194.0,0.0,17.0,0.0,180.0,194.0,17.0,180.0,1744420561.5414677,0.0,2025-04-11 21:16:01.541,FORWARD,33
220.0,19352.229756382676,25104.16061927803,-31773.0494467079,-21000.045061116823,-35573.8965360995,-27456.637019710186,-14178.605577779483,-35244.99061643966,0.0,0.0,0.0,193.0,0.0,194.0,0.0,17.0,0.0,180.0,194.0,17.0,180.0,1744420561.541508,0.0,2025-04-11 21:16:01.541,FORWARD,33
221.0,19337.835232953457,25121.7290904199,-31763.1476239142,-20984.018860342367,-35566.90044008499,-27439.96261834653,-14512.741805641868,-35229.47850578767,0.0,0.0,0.0,193.0,0.0,193.0,0.0,17.0,0.0,179.0,193.0,17.0,179.0,1744420561.5415485,0.0,2025-04-11 21:16:01.541,FORWARD,33
222.0,19352.67679127178,25127.205267811452,-31759.52664131244,-20975.882825360637,-35569.85087035309,-27442.33190325879,-14386.61091168057,-35213.51936024659,0.0,0.0,0.0,193.0,0.0,194.0,0.0,17.0,0.0,180.0,194.0,17.0,180.0,1744420561.5415888,0.0,2025-04-11 21:16:01.541,FORWARD,33
223.0,19372.189864181266,25122.64551194257,-31774.65877230868,-20996.133505837144,-35588.983963606835,-27463.834281424795,-13961.838360051914,-35211.530054990064,0.0,0.0,0.0,193.0,0.0,194.0,0.0,17.0,0.0,180.0,194.0,17.0,180.0,1744420561.5416424,0.0,2025-04-11 21:16:01.541,FORWARD,33
224.0,19352.72149476069,25104.048860555755,-31773.29531589691,-21001.319110550776,-35574.075350055144,-27462.269659312926,-14116.110100282443,-35229.567912765495,0.0,0.0,0.0,193.0,0.0,193.0,0.0,17.0,0.0,179.0,193.0,17.0,179.0,1744420561.541683,0.0,2025-04-11 21:16:01.541,FORWARD,33
225.0,19329.855660182915,25114.509476960837,-31768.355580372285,-20994.457125002995,-35566.34164647361,-27453.731292931,-14434.175423881463,-35224.806991196514,0.0,0.0,0.0,193.0,0.0,194.0,0.0,17.0,0.0,180.0,194.0,17.0,180.0,1744420561.5417242,0.0,2025-04-11 21:16:01.541,FORWARD,33
226.0,19341.83619521096,25123.964264865434,-31763.885231481225,-20988.48920923343,-35569.91792558646,-27453.932458631094,-14433.817795970179,-35220.78367719456,0.0,0.0,0.0,193.0,0.0,194.0,0.0,17.0,0.0,180.0,194.0,17.0,180.0,1744420561.5417643,0.0,2025-04-11 21:16:01.541,FORWARD,33
227.0,19368.077143201488,25123.718395676424,-31774.502310097494,-20999.06158436079,-35585.00535309379,-27470.495101272478,-13968.096848499401,-35194.52037745957,0.0,0.0,0.0,193.0,0.0,193.0,0.0,17.0,0.0,179.0,193.0,17.0,179.0,1744420561.5418043,0.0,2025-04-11 21:16:01.541,FORWARD,33
228.0,19355.001372695133,25101.43370645448,-31776.603374076294,-21009.723366465973,-35584.40185599349,-27463.431950024602,-14046.752637237625,-35231.22194185519,0.0,0.0,0.0,193.0,0.0,193.0,0.0,17.0,0.0,179.0,193.0,17.0,179.0,1744420561.5418444,0.0,2025-04-11 21:16:01.541,FORWARD,33
229.0,19334.81774745199,25113.436593226983,-31767.03682744942,-20994.613587214182,-35573.740073888315,-27447.361045761234,-14414.550592249703,-35233.25595060062,0.0,0.0,0.0,193.0,0.0,194.0,0.0,17.0,0.0,180.0,194.0,17.0,180.0,1744420561.5418975,0.0,2025-04-11 21:16:01.541,FORWARD,33
230.0,19340.182166121267,25128.389910267582,-31756.15152789969,-20981.470761474462,-35557.82563183613,-27437.68274041209,-14499.598979902146,-35216.06745911449,0.0,0.0,0.0,193.0,0.0,193.0,0.0,17.0,0.0,179.0,193.0,17.0,179.0,1744420561.5419524,0.0,2025-04-11 21:16:01.541,FORWARD,33
231.0,19361.617489053904,25122.042014842275,-31771.52952808494,-20989.204465056,-35570.70023664239,-27458.045179610872,-14014.029683355056,-35174.426159194256,0.0,0.0,0.0,193.0,0.0,193.0,0.0,17.0,0.0,179.0,193.0,17.0,179.0,1744420561.541994,0.0,2025-04-11 21:16:01.541,FORWARD,33
232.0,19353.77202675009,25100.0255465538,-31781.833682278837,-21009.902180421614,-35581.0490943252,-27470.316287316837,-13994.404851723297,-35241.57079953799,0.0,0.0,0.0,193.0,0.0,193.0,0.0,17.0,0.0,179.0,193.0,17.0,179.0,1744420561.5420482,0.0,2025-04-11 21:16:01.542,FORWARD,33
233.0,19329.07334912698,25101.411354710028,-31779.732618300037,-21003.464878018487,-35579.64093442451,-27461.66616221263,-14352.993888019788,-35244.74474725065,0.0,0.0,0.0,193.0,0.0,194.0,0.0,17.0,0.0,180.0,194.0,17.0,180.0,1744420561.542089,0.0,2025-04-11 21:16:01.542,FORWARD,33
234.0,19328.53690726005,25113.436593226983,-31769.0484844504,-20992.33370927974,-35570.78964362021,-27456.368798776723,-14552.483207283403,-35254.31129387752,0.0,0.0,0.0,193.0,0.0,193.0,0.0,17.0,0.0,179.0,193.0,17.0,179.0,1744420561.5421293,0.0,2025-04-11 21:16:01.542,FORWARD,33
235.0,19356.811863996016,25118.532790962792,-31775.53049034244,-20991.327880779252,-35581.831405381134,-27466.270621570424,-14147.536652986606,-35213.899339902324,0.0,0.0,0.0,193.0,0.0,193.0,0.0,17.0,0.0,179.0,193.0,17.0,179.0,1744420561.54217,0.0,2025-04-11 21:16:01.542,FORWARD,33
236.0,19356.923622718292,25103.087735544173,-31782.973621246056,-21009.2092763435,-35586.61467869457,-27466.44943552607,-13979.406831193786,-35231.065479644,0.0,0.0,0.0,193.0,0.0,194.0,0.0,17.0,0.0,180.0,194.0,17.0,180.0,1744420561.5422103,0.0,2025-04-11 21:16:01.542,FORWARD,33
237.0,19341.97030567769,25104.49589544486,-31775.686952553628,-20999.82154367227,-35579.08214081313,-27452.636057452688,-14307.865715964523,-35227.77977320907,0.0,0.0,0.0,193.0,0.0,193.0,0.0,17.0,0.0,179.0,193.0,17.0,179.0,1744420561.542267,0.0,2025-04-11 21:16:01.542,FORWARD,33
238.0,19332.761386962102,25117.281093273294,-31767.23799314952,-20990.277348789856,-35569.046207552696,-27446.28816202738,-14543.274288567816,-35222.48240977316,0.0,0.0,0.0,193.0,0.0,194.0,0.0,17.0,0.0,180.0,194.0,17.0,180.0,1744420561.5423083,0.0,2025-04-11 21:16:01.542,FORWARD,33
239.0,19354.129654661378,25124.679520688,-31766.0980541823,-20981.738982407926,-35566.60986740707,-27452.323133030313,-14200.599694323504,-35185.37851397735,0.0,0.0,0.0,193.0,0.0,193.0,0.0,17.0,0.0,179.0,193.0,17.0,179.0,1744420561.5423486,0.0,2025-04-11 21:16:01.542,FORWARD,33
240.0,19357.482416329673,25117.526962462303,-31784.068856724367,-21007.19761934252,-35585.74296066081,-27465.82358668132,-13910.56345827144,-35216.715659703696,0.0,0.0,0.0,193.0,0.0,193.0,0.0,17.0,0.0,179.0,193.0,17.0,179.0,1744420561.5423892,0.0,2025-04-11 21:16:01.542,FORWARD,33
241.0,19344.943087690244,25118.532790962792,-31777.273926409955,-20993.183075569043,-35579.104492557584,-27446.53403121639,-14229.031113270656,-35232.80891571152,0.0,0.0,0.0,193.0,0.0,194.0,0.0,17.0,0.0,180.0,194.0,17.0,180.0,1744420561.5424292,0.0,2025-04-11 21:16:01.542,FORWARD,33
242.0,19329.63214273836,25121.863200886633,-31770.747217029002,-20984.309433020288,-35576.4446349674,-27438.06272006783,-14540.547375744269,-35223.80116269603,0.0,0.0,0.0,193.0,0.0,194.0,0.0,17.0,0.0,179.0,194.0,17.0,179.0,1744420561.5424728,0.0,2025-04-11 21:16:01.542,FORWARD,33
243.0,19341.232698110663,25121.483221230894,-31769.00378096149,-20980.934319607535,-35577.13753904552,-27452.457243497043,-14326.976457473811,-35204.24338629763,0.0,0.0,0.0,193.0,0.0,193.0,0.0,17.0,0.0,179.0,193.0,17.0,179.0,1744420561.5425148,0.0,2025-04-11 21:16:01.542,FORWARD,33
244.0,19363.003297210133,25115.470601972414,-31778.793845032913,-20999.35215703871,-35582.189033292416,-27470.696266972576,-13931.261173637055,-35219.62138648288,0.0,0.0,0.0,193.0,0.0,193.0,0.0,17.0,0.0,180.0,193.0,17.0,180.0,1744420561.5425727,0.0,2025-04-11 21:16:01.542,FORWARD,33
245.0,19352.565032549504,25107.267511757316,-31773.988219975025,-20993.76422092488,-35574.85766111108,-27450.780862662898,-14158.623118236437,-35223.890569673844,0.0,0.0,0.0,193.0,0.0,194.0,0.0,17.0,0.0,180.0,194.0,17.0,180.0,1744420561.5426157,0.0,2025-04-11 21:16:01.542,FORWARD,33
246.0,19338.841061453946,25118.331625262694,-31762.38766460272,-20978.72149690646,-35563.12299527204,-27427.892676340663,-14488.803087330234,-35197.67197342777,0.0,0.0,0.0,193.0,0.0,194.0,0.0,17.0,0.0,179.0,194.0,17.0,179.0,1744420561.5426605,0.0,2025-04-11 21:16:01.542,FORWARD,33
247.0,19354.2190616392,25125.50653523285,-31757.738501756015,-20971.658345658583,-35562.050111538185,-27431.379548475692,-14392.869400128056,-35184.21622326568,0.0,0.0,0.0,193.0,0.0,193.0,0.0,17.0,0.0,179.0,193.0,17.0,179.0,1744420561.5427485,0.0,2025-04-11 21:16:01.542,FORWARD,33
248.0,19369.462951357717,25123.919561376522,-31779.19617643311,-20993.58540696924,-35587.151120561495,-27461.599106979265,-13936.357371372864,-35195.928537360254,0.0,0.0,0.0,193.0,0.0,193.0,0.0,17.0,0.0,179.0,193.0,17.0,179.0,1744420561.5427935,0.0,2025-04-11 21:16:01.542,FORWARD,33
249.0,19348.40760808082,25106.73106989039,-31785.275850924954,-21003.91191290759,-35591.844986897115,-27462.828452924306,-14121.519222440627,-35255.60769505593,0.0,0.0,0.0,193.0,0.0,193.0,0.0,17.0,0.0,179.0,193.0,17.0,179.0,1744420561.5428433,0.0,2025-04-11 21:16:01.542,FORWARD,33
250.0,19327.955761904213,25116.07409907271,-31777.38568513223,-20990.210293556487,-35583.12780655954,-27443.114214314726,-14471.368726655093,-35228.29386333154,0.0,0.0,0.0,193.0,0.0,194.0,0.0,17.0,0.0,179.0,194.0,17.0,179.0,1744420561.5428896,0.0,2025-04-11 21:16:01.542,FORWARD,33
251.0,19329.386273549353,25118.93512236299,-31776.938650243123,-20988.958595866992,-35581.87610887005,-27446.511679471932,-14466.67486031948,-35214.882816658355,0.0,0.0,0.0,193.0,0.0,194.0,0.0,17.0,0.0,179.0,194.0,17.0,179.0,1744420561.5429356,0.0,2025-04-11 21:16:01.542,FORWARD,33
252.0,19352.095645915942,25115.15767755004,-31788.67331608216,-21002.414346029087,-35591.01797235227,-27469.86925242773,-13984.838305096426,-35204.93629037575,0.0,0.0,0.0,193.0,0.0,193.0,0.0,17.0,0.0,179.0,193.0,17.0,179.0,1744420561.5430129,0.0,2025-04-11 21:16:01.543,FORWARD,33
253.0,19347.02179992459,25102.998328566355,-31786.728714314548,-21010.01393914389,-35590.68269618544,-27467.410560537646,-14067.271538647597,-35258.11109043492,0.0,0.0,0.0,193.0,0.0,194.0,0.0,17.0,0.0,179.0,194.0,17.0,179.0,1744420561.5430558,0.0,2025-04-11 21:16:01.543,FORWARD,33
254.0,19326.97228514818,25110.195590280964,-31779.352638644297,-20995.351194781208,-35581.11614955856,-27449.506813228945,-14424.027731898754,-35232.987729667155,0.0,0.0,0.0,193.0,0.0,193.0,0.0,17.0,0.0,180.0,193.0,17.0,180.0,1744420561.5431,0.0,2025-04-11 21:16:01.543,FORWARD,33
255.0,19332.426110795273,25117.415203740027,-31767.05917919388,-20982.565996952773,-35565.98401856232,-27437.079243311793,-14522.464814479927,-35207.260871799095,0.0,0.0,0.0,193.0,0.0,193.0,0.0,17.0,0.0,179.0,193.0,17.0,179.0,1744420561.5431435,0.0,2025-04-11 21:16:01.543,FORWARD,33
0.0,19361.25986114262,25123.53958172078,-31775.552842086894,-20989.159761567087,-35574.88001285553,-27457.15110983266,-14046.484416304162,-35176.19194700622,0.0,0.0,0.0,193.0,0.0,193.0,0.0,18.0,0.0,180.0,193.0,18.0,180.0,1744420561.5431893,0.0,2025-04-11 21:16:01.543,FORWARD,33
1.0,19362.466855343206,25109.905017603043,-31780.514929355973,-21004.515410007883,-35575.975248333845,-27461.48734825699,-13991.856752855392,-35232.94302617825,0.0,0.0,0.0,193.0,0.0,193.0,0.0,17.0,0.0,179.0,193.0,17.0,179.0,1744420561.5432353,0.0,2025-04-11 21:16:01.543,FORWARD,33
2.0,19335.24243059664,25108.63096816909,-31784.493539869018,-20999.59802622772,-35578.85862336858,-27454.692417942577,-14332.519690098727,-35223.46588652919,0.0,0.0,0.0,193.0,0.0,193.0,0.0,17.0,0.0,179.0,193.0,17.0,179.0,1744420561.5432856,0.0,2025-04-11 21:16:01.543,FORWARD,33
