Sample Index,EXG Channel 0,EXG Channel 1,EXG Channel 2,EXG Channel 3,EXG Channel 4,EXG Channel 5,EXG Channel 6,EXG Channel 7,Accel Channel 0,Accel Channel 1,Accel Channel 2,Not Used,Digital Channel 0 (D11),Digital Channel 1 (D12),Digital Channel 2 (D13),Digital Channel 3 (D17),Not Used,Digital Channel 4 (D18),Analog Channel 0,Analog Channel 1,Analog Channel 2,Timestamp,Marker Channel,Timestamp (Formatted),Stimulus_Direction,Stimulus_Number
57.0,13090.992044328696,1684.2933516852083,-61001.08456624563,-58063.908882607095,-34946.68423493913,-32300.975298997797,-20479.04824960807,-21649.027961376665,0.0,0.0,0.0,193.0,1.0,154.0,0.0,10.0,3.0,249.0,410.0,10.0,1017.0,1744252765.7483013,0.0,2025-04-09 22:39:25.748,FORWARD,24
58.0,13203.309560216614,1693.792843078714,-61015.27792397475,-58056.912786592584,-34983.34109584583,-32329.473773178313,-20361.656887728797,-21671.983202932264,0.0,0.0,0.0,193.0,1.0,154.0,0.0,9.0,3.0,251.0,410.0,9.0,1019.0,1744252765.7483096,0.0,2025-04-09 22:39:25.748,FORWARD,24
59.0,13193.85477231202,1714.7587793777918,-60965.008850694765,-58058.231539515444,-34895.47638839202,-32236.624626710967,-20725.744453161296,-21594.42264967235,0.0,0.0,0.0,193.0,1.0,154.0,0.0,9.0,3.0,249.0,410.0,9.0,1017.0,1744252765.7483184,0.0,2025-04-09 22:39:25.748,FORWARD,24
60.0,13138.64596350741,1721.7101719033924,-60985.10306896008,-58046.854501587695,-34909.870911821235,-32257.612914754503,-20446.682923636785,-21609.08539403503,0.0,0.0,0.0,193.0,1.0,154.0,0.0,8.0,3.0,252.0,410.0,8.0,1020.0,1744252765.7483268,0.0,2025-04-09 22:39:25.748,FORWARD,24
61.0,13080.285558734604,1680.5159068722614,-61015.0991100191,-58087.24410381843,-34952.29452279741,-32301.936424009375,-20541.700189316296,-21664.070685395087,0.0,0.0,0.0,193.0,1.0,153.0,0.0,7.0,3.0,249.0,409.0,7.0,1017.0,1744252765.7483354,0.0,2025-04-09 22:39:25.748,FORWARD,24
62.0,13191.463135655302,1696.7432733468145,-61014.83088908564,-58042.31709746327,-34990.8065784939,-32339.30854073865,-20327.63753266782,-21696.7712875332,0.0,0.0,0.0,193.0,1.0,155.0,0.0,7.0,3.0,252.0,411.0,7.0,1020.0,1744252765.748344,0.0,2025-04-09 22:39:25.748,FORWARD,24
63.0,13200.247371226236,1715.5634421781829,-60979.202208423885,-58080.65033920412,-34912.48606592251,-32255.19892635333,-20739.11079634557,-21620.7530046407,0.0,0.0,0.0,193.0,1.0,153.0,0.0,7.0,3.0,249.0,409.0,7.0,1017.0,1744252765.7483523,0.0,2025-04-09 22:39:25.748,FORWARD,24
64.0,13146.580832789045,1720.0561428136998,-60980.07392645764,-58046.496873676406,-34910.3402984548,-32265.011342169208,-20460.38454298789,-21612.996949314707,0.0,0.0,0.0,193.0,1.0,155.0,0.0,6.0,3.0,253.0,411.0,6.0,1021.0,1744252765.7483609,0.0,2025-04-09 22:39:25.748,FORWARD,24
65.0,13088.846276860986,1699.0007995368005,-60999.676406344945,-58092.96615039899,-34927.01469981846,-32278.981182453776,-20545.365875406966,-21635.795728659123,0.0,0.0,0.0,193.0,1.0,154.0,0.0,6.0,3.0,249.0,410.0,6.0,1017.0,1744252765.7483745,0.0,2025-04-09 22:39:25.748,FORWARD,24
66.0,13180.354318661013,1705.013418795278,-60991.51801961876,-58026.26854494435,-34969.706531728094,-32326.478639421304,-20308.415032436256,-21679.53809255816,0.0,0.0,0.0,193.0,1.0,155.0,0.0,6.0,3.0,251.0,411.0,6.0,1019.0,1744252765.7483828,0.0,2025-04-09 22:39:25.748,FORWARD,24
67.0,13219.447519713345,1723.2524422708086,-60972.72020253184,-58079.68921419254,-34910.228539732525,-32247.57698149407,-20691.032194022202,-21620.775356385155,0.0,0.0,0.0,193.0,1.0,154.0,0.0,5.0,3.0,249.0,410.0,5.0,1017.0,1744252765.7483914,0.0,2025-04-09 22:39:25.748,FORWARD,24
68.0,13163.054068452606,1723.0959800596215,-60965.411182094955,-58028.749588578896,-34901.44430416159,-32248.47105127228,-20493.554531759564,-21617.355539483495,0.0,0.0,0.0,193.0,1.0,155.0,0.0,5.0,3.0,252.0,411.0,5.0,1020.0,1744252765.7484,0.0,2025-04-09 22:39:25.748,FORWARD,24
69.0,13090.142678039394,1699.0231512812557,-61003.74442383581,-58095.17897310007,-34923.75134512798,-32277.170691152896,-20543.533032361633,-21650.10084511052,0.0,0.0,0.0,193.0,1.0,154.0,0.0,5.0,3.0,248.0,410.0,5.0,1016.0,1744252765.7484083,0.0,2025-04-09 22:39:25.748,FORWARD,24
70.0,13146.6031845335,1683.7345580738256,-61000.101089489595,-58029.42014091255,-34973.37221781877,-32322.63413937499,-20344.08841658693,-21676.00651693422,0.0,0.0,0.0,193.0,1.0,155.0,0.0,5.0,3.0,252.0,411.0,5.0,1020.0,1744252765.748417,0.0,2025-04-09 22:39:25.748,FORWARD,24
71.0,13218.687560401864,1709.2602502417865,-60996.7483278213,-58088.96518814149,-34937.96705460156,-32270.57692653858,-20617.65141697543,-21634.991065858732,0.0,0.0,0.0,193.0,1.0,154.0,0.0,5.0,3.0,250.0,410.0,5.0,1018.0,1744252765.7484255,0.0,2025-04-09 22:39:25.748,FORWARD,24
72.0,13170.94423424533,1724.3923812380292,-60958.39273433599,-58027.564946122766,-34891.02839124541,-32236.66933019988,-20555.424160411854,-21600.65878637538,0.0,0.0,0.0,193.0,1.0,154.0,0.0,4.0,3.0,251.0,410.0,4.0,1019.0,1744252765.9958007,0.0,2025-04-09 22:39:25.995,FORWARD,24
73.0,13100.312721766559,1704.5887356506273,-61006.046653514706,-58096.92240916758,-34924.421897461645,-32270.152243393928,-20517.269732626646,-21644.356446785503,0.0,0.0,0.0,193.0,1.0,154.0,0.0,4.0,3.0,252.0,410.0,4.0,1020.0,1744252765.9958415,0.0,2025-04-09 22:39:25.995,FORWARD,24
74.0,13118.238820819715,1677.6325318375268,-61006.73955759282,-58051.883644090136,-34973.975714919055,-32319.77311608471,-20420.531382624078,-21686.19891240584,0.0,0.0,0.0,193.0,1.0,154.0,0.0,4.0,3.0,249.0,410.0,4.0,1017.0,1744252765.9958615,0.0,2025-04-09 22:39:25.995,FORWARD,24
75.0,13220.587458680566,1708.0085525522893,-61004.12440349155,-58087.26645556289,-34954.417938520666,-32300.595319342057,-20541.074340471547,-21680.186293147362,0.0,0.0,0.0,193.0,1.0,155.0,0.0,4.0,3.0,252.0,411.0,4.0,1020.0,1744252765.9958813,0.0,2025-04-09 22:39:25.995,FORWARD,24
76.0,13185.584626863556,1727.4769219728616,-60944.86992894053,-58029.35308567919,-34875.67274280462,-32229.069737085076,-20634.996370672747,-21600.23410323073,0.0,0.0,0.0,193.0,1.0,154.0,0.0,4.0,3.0,251.0,410.0,4.0,1019.0,1744252765.9958904,0.0,2025-04-09 22:39:25.995,FORWARD,24
77.0,13113.254381806182,1711.3389624761298,-60993.864952786564,-58077.8563711472,-34910.94379555509,-32265.078397402576,-20477.14835132937,-21624.23987677573,0.0,0.0,0.0,193.0,1.0,155.0,0.0,4.0,3.0,250.0,411.0,4.0,1018.0,1744252765.9958997,0.0,2025-04-09 22:39:25.995,FORWARD,24
78.0,13090.097974550483,1669.4741451113398,-61012.14867975101,-58068.088658820234,-34965.28088632594,-32318.901398050955,-20472.208615804746,-21672.85492096602,0.0,0.0,0.0,193.0,1.0,154.0,0.0,4.0,3.0,250.0,410.0,4.0,1018.0,1744252765.9959087,0.0,2025-04-09 22:39:25.995,FORWARD,24
79.0,13213.144327776949,1699.559593148183,-61013.579191396144,-58073.29661527832,-34971.51702302897,-32322.00829053024,-20436.982266543182,-21682.846150737543,0.0,0.0,0.0,193.0,1.0,155.0,0.0,4.0,3.0,252.0,411.0,4.0,1020.0,1744252765.9959178,0.0,2025-04-09 22:39:25.995,FORWARD,24
80.0,13192.42426066688,1724.6382504270377,-60954.101199400575,-58049.53671092233,-34884.009943486446,-32237.8092691671,-20696.262502224745,-21608.32543472355,0.0,0.0,0.0,193.0,1.0,154.0,0.0,4.0,3.0,249.0,410.0,4.0,1017.0,1744252765.9959588,0.0,2025-04-09 22:39:25.995,FORWARD,24
81.0,13138.6012600185,1729.3991719960181,-60977.391717123,-58058.812684871285,-34898.136245982205,-32254.327208319573,-20455.42245571881,-21617.713167394777,0.0,0.0,0.0,193.0,1.0,155.0,0.0,4.0,3.0,252.0,411.0,4.0,1020.0,1744252765.995968,0.0,2025-04-09 22:39:25.995,FORWARD,24
82.0,13091.550837940078,1678.1689737044542,-61003.252685457795,-58080.38211827065,-34944.20319130459,-32301.48938912027,-20508.932531944818,-21661.00849640471,0.0,0.0,0.0,193.0,1.0,154.0,0.0,4.0,3.0,249.0,410.0,4.0,1017.0,1744252765.9959772,0.0,2025-04-09 22:39:25.995,FORWARD,24
83.0,13205.745900362243,1693.3234564451525,-61007.87949656004,-58059.68440290504,-34974.02041840797,-32330.43489818989,-20350.21279456768,-21686.4671333393,0.0,0.0,0.0,193.0,1.0,155.0,0.0,3.0,3.0,252.0,411.0,3.0,1020.0,1744252765.995986,0.0,2025-04-09 22:39:25.995,FORWARD,24
84.0,13201.744938104743,1711.7636456207808,-60962.68426927141,-58074.12362982317,-34892.414199401646,-32242.458432013806,-20729.05251134068,-21612.639321403425,0.0,0.0,0.0,193.0,1.0,154.0,0.0,3.0,3.0,249.0,410.0,3.0,1017.0,1744252765.9959953,0.0,2025-04-09 22:39:25.995,FORWARD,24
85.0,13145.083265910538,1718.9385555909344,-60975.64828105549,-58052.934176079536,-34899.611461116256,-32254.81894669759,-20444.98419105818,-21608.347786468006,0.0,0.0,0.0,193.0,1.0,155.0,0.0,3.0,3.0,252.0,411.0,3.0,1020.0,1744252765.996004,0.0,2025-04-09 22:39:25.996,FORWARD,24
86.0,13075.68109937681,1674.8385637806134,-61009.77939483874,-58098.68819697955,-34939.33051101333,-32292.68280180488,-20541.16374744937,-21651.106673611008,0.0,0.0,0.0,193.0,1.0,154.0,0.0,3.0,3.0,250.0,410.0,3.0,1018.0,1744252765.9960127,0.0,2025-04-09 22:39:25.996,FORWARD,24
87.0,13183.37180416248,1685.9920842638116,-61014.4509094299,-58050.341373722724,-34991.4100755942,-32342.281322751205,-20323.703625643688,-21699.67701431239,0.0,0.0,0.0,193.0,1.0,155.0,0.0,3.0,3.0,252.0,411.0,3.0,1020.0,1744252765.9960215,0.0,2025-04-09 22:39:25.996,FORWARD,24
88.0,13216.273572000691,1716.5692706786717,-60981.97382473634,-58093.94962715502,-34919.99625205949,-32263.24555435724,-20749.526709261743,-21642.32243804007,0.0,0.0,0.0,193.0,1.0,154.0,0.0,3.0,3.0,250.0,410.0,3.0,1018.0,1744252765.9960306,0.0,2025-04-09 22:39:25.996,FORWARD,24
89.0,13157.332021872047,1717.7762648792584,-60982.2420456698,-58051.749533623406,-34917.0905252803,-32268.38645558196,-20485.083220611003,-21628.28554252214,0.0,0.0,0.0,193.0,1.0,155.0,0.0,3.0,3.0,251.0,411.0,3.0,1019.0,1744252765.9960392,0.0,2025-04-09 22:39:25.996,FORWARD,24
90.0,13088.443945460791,1689.434252909929,-61002.06804300166,-58096.09539462273,-34932.22265627654,-32276.835414986064,-20559.291012202622,-21637.025074604164,0.0,0.0,0.0,193.0,1.0,154.0,0.0,3.0,3.0,250.0,410.0,3.0,1018.0,1744252765.996048,0.0,2025-04-09 22:39:25.996,FORWARD,24
91.0,13170.251330167215,1691.2000407218982,-60996.323644676646,-58027.36378042267,-34979.34013358833,-32325.137534753983,-20327.302256500992,-21685.081325183073,0.0,0.0,0.0,193.0,1.0,155.0,0.0,3.0,3.0,253.0,411.0,3.0,1021.0,1744252765.9960568,0.0,2025-04-09 22:39:25.996,FORWARD,24
92.0,13217.167641778904,1710.6013549091049,-60989.30519691768,-58092.58617074325,-34931.44034522061,-32267.112406148008,-20701.626920894018,-21663.735409228255,0.0,0.0,0.0,193.0,1.0,154.0,0.0,3.0,3.0,249.0,410.0,3.0,1017.0,1744252765.9960656,0.0,2025-04-09 22:39:25.996,FORWARD,24
93.0,13166.116257442984,1721.8666341145795,-60962.95249020487,-58030.135396735124,-34906.11581875275,-32242.05610061361,-20542.3483899055,-21629.358426255993,0.0,0.0,0.0,193.0,1.0,154.0,0.0,3.0,3.0,252.0,410.0,3.0,1020.0,1744252765.9960744,0.0,2025-04-09 22:39:25.996,FORWARD,24
94.0,13095.30593100857,1699.1572617479876,-61003.74442383581,-58100.20811560251,-34931.28388300942,-32265.27956310267,-20554.127759233448,-21637.360350770992,0.0,0.0,0.0,193.0,1.0,154.0,0.0,3.0,3.0,249.0,410.0,3.0,1017.0,1744252765.9960835,0.0,2025-04-09 22:39:25.996,FORWARD,24
95.0,13140.545861786111,1679.957113260879,-61000.5481243787,-58042.54061490782,-34975.13800563073,-32316.710927094333,-20357.722980704664,-21670.463284309302,0.0,0.0,0.0,193.0,1.0,154.0,0.0,3.0,3.0,251.0,410.0,3.0,1019.0,1744252765.9961004,0.0,2025-04-09 22:39:25.996,FORWARD,24
96.0,13220.14042379146,1698.7996338367027,-60998.558819122176,-58099.35874931321,-34947.24302855051,-32278.802368498134,-20595.2102655423,-21647.753911942713,0.0,0.0,0.0,193.0,1.0,154.0,0.0,3.0,3.0,250.0,410.0,3.0,1018.0,1744252765.9961092,0.0,2025-04-09 22:39:25.996,FORWARD,24
97.0,13176.643929081432,1715.2505177558087,-60950.2343476098,-58034.78455958183,-34891.207205201055,-32234.6576731989,-20582.5591781806,-21603.139830009917,0.0,0.0,0.0,193.0,1.0,154.0,0.0,3.0,3.0,250.0,410.0,3.0,1018.0,1744252765.996118,0.0,2025-04-09 22:39:25.996,FORWARD,24
98.0,13101.095032822495,1698.4867094143283,-60998.38000516654,-58099.82813594677,-34921.06913579335,-32277.19304289735,-20498.695432984285,-21650.257307321706,0.0,0.0,0.0,193.0,1.0,154.0,0.0,3.0,3.0,252.0,410.0,3.0,1020.0,1744252765.996127,0.0,2025-04-09 22:39:25.996,FORWARD,24
99.0,13104.224277046238,1662.723918285837,-61009.667636116465,-58067.66397567558,-34975.42857830865,-32334.704081380856,-20419.14557446785,-21696.10073519954,0.0,0.0,0.0,193.0,1.0,154.0,0.0,3.0,3.0,249.0,410.0,3.0,1017.0,1744252765.9961357,0.0,2025-04-09 22:39:25.996,FORWARD,24
100.0,13212.630237654477,1695.6480378685044,-61006.538391892725,-58087.22175207398,-34966.085549126336,-32309.267796190717,-20499.991834162694,-21670.887967453953,0.0,0.0,0.0,193.0,1.0,155.0,0.0,3.0,3.0,252.0,411.0,3.0,1020.0,1744252765.99615,0.0,2025-04-09 22:39:25.996,FORWARD,24
101.0,13182.410679150902,1718.1338927905433,-60951.866024955045,-58041.4006759406,-34890.42489414512,-32239.776222679167,-20655.694086038362,-21606.716109122768,0.0,0.0,0.0,193.0,1.0,154.0,0.0,3.0,3.0,250.0,410.0,3.0,1018.0,1744252765.9961588,0.0,2025-04-09 22:39:25.996,FORWARD,24
102.0,13120.138719098417,1710.8248723536578,-60992.56855160816,-58081.58911247124,-34915.21297874606,-32273.594412040045,-20478.57886297451,-21642.747121184722,0.0,0.0,0.0,193.0,1.0,154.0,0.0,3.0,3.0,252.0,410.0,3.0,1020.0,1744252765.9961677,0.0,2025-04-09 22:39:25.996,FORWARD,24
103.0,13092.82488737403,1666.143735187499,-61009.175897738445,-58077.99048161394,-34963.693912469615,-32323.7293748533,-20489.106534612958,-21688.612900807013,0.0,0.0,0.0,193.0,1.0,153.0,0.0,3.0,3.0,249.0,409.0,3.0,1017.0,1744252765.9961765,0.0,2025-04-09 22:39:25.996,FORWARD,24
104.0,13212.04909229864,1690.0377500102222,-61014.07092977416,-58078.795144414325,-34985.19629063562,-32333.96647381383,-20422.297170436046,-21696.458363110825,0.0,0.0,0.0,193.0,1.0,154.0,0.0,3.0,3.0,251.0,410.0,3.0,1019.0,1744252765.9961853,0.0,2025-04-09 22:39:25.996,FORWARD,24
105.0,13200.180315992871,1717.888023601535,-60951.441341810394,-58059.01385057138,-34893.06239999085,-32241.6090657245,-20723.688092671408,-21614.673330148857,0.0,0.0,0.0,193.0,1.0,154.0,0.0,3.0,3.0,250.0,410.0,3.0,1018.0,1744252765.996194,0.0,2025-04-09 22:39:25.996,FORWARD,24
106.0,13134.309725083082,1718.1338927905433,-60982.86789451455,-58068.088658820234,-34915.48119967952,-32271.023961427687,-20456.182415030293,-21636.488632737237,0.0,0.0,0.0,193.0,1.0,154.0,0.0,3.0,3.0,252.0,410.0,3.0,1020.0,1744252765.9962027,0.0,2025-04-09 22:39:25.996,FORWARD,24
107.0,13078.832695345009,1671.686967812415,-61012.59571464011,-58098.2635138349,-34960.38585429023,-32317.426182916905,-20536.380474135934,-21688.747011273743,0.0,0.0,0.0,193.0,1.0,154.0,0.0,3.0,3.0,249.0,410.0,3.0,1017.0,1744252765.9962113,0.0,2025-04-09 22:39:25.996,FORWARD,24
108.0,13207.109356774015,1699.4701861703618,-61004.437327913925,-58053.627080157654,-34985.933898202646,-32339.219133760827,-20358.974678394163,-21711.456383640336,0.0,0.0,0.0,193.0,1.0,155.0,0.0,3.0,3.0,251.0,411.0,3.0,1019.0,1744252765.99622,0.0,2025-04-09 22:39:25.996,FORWARD,24
109.0,13211.087967287061,1715.921070089468,-60961.41021983746,-58074.34714726772,-34902.29367045089,-32252.248496085227,-20747.090369116115,-21634.164051313885,0.0,0.0,0.0,193.0,1.0,154.0,0.0,3.0,3.0,250.0,410.0,3.0,1018.0,1744252765.9962285,0.0,2025-04-09 22:39:25.996,FORWARD,24
110.0,13146.022039177662,1710.757817120292,-60985.30423466018,-58060.22084477197,-34922.49964743849,-32278.400037097937,-20464.94429885677,-21642.09892059552,0.0,0.0,0.0,193.0,1.0,154.0,0.0,3.0,3.0,250.0,410.0,3.0,1018.0,1744252765.9962428,0.0,2025-04-09 22:39:25.996,FORWARD,24
111.0,13081.7384221242,1673.8774387690353,-61016.28375247524,-58109.349979084735,-34959.17886008965,-32305.803275800143,-20580.726335135263,-21675.738296000756,0.0,0.0,0.0,193.0,1.0,154.0,0.0,3.0,3.0,249.0,410.0,3.0,1017.0,1744252765.9962513,0.0,2025-04-09 22:39:25.996,FORWARD,24
112.0,13186.165772219394,1686.2156017083648,-61008.058310515684,-58045.55810040928,-34993.60054655082,-32343.22009601833,-20339.72982641814,-21700.168752690406,0.0,0.0,0.0,193.0,1.0,155.0,0.0,3.0,3.0,251.0,411.0,3.0,1019.0,1744252765.99626,0.0,2025-04-09 22:39:25.996,FORWARD,24
113.0,13208.226943996782,1697.8385088251246,-60988.16525795046,-58102.17506911458,-34922.49964743849,-32273.594412040045,-20723.553982204674,-21648.49151950974,0.0,0.0,0.0,193.0,1.0,154.0,0.0,2.0,3.0,249.0,410.0,2.0,1017.0,1744252765.9962687,0.0,2025-04-09 22:39:25.996,FORWARD,24
114.0,13148.056047923095,1699.9172210594681,-60984.25370267078,-58056.353992981196,-34917.358746213766,-32270.956906194322,-20484.30090955507,-21630.81128964559,0.0,0.0,0.0,193.0,1.0,155.0,0.0,3.0,3.0,252.0,411.0,3.0,1020.0,1744252765.9962773,0.0,2025-04-09 22:39:25.996,FORWARD,24
115.0,13079.883227334409,1679.2865609272196,-61017.66956063147,-58117.64247627765,-34945.745461672006,-32291.073476204096,-20563.381381437943,-21655.018228890687,0.0,0.0,0.0,193.0,1.0,154.0,0.0,3.0,3.0,250.0,410.0,3.0,1018.0,1744252765.9962864,0.0,2025-04-09 22:39:25.996,FORWARD,24
116.0,13164.350469631014,1685.7462150748033,-61005.93489479243,-58046.58628065423,-34987.766741247986,-32339.12972678301,-20354.213756825182,-21702.11335445802,0.0,0.0,0.0,193.0,1.0,155.0,0.0,2.0,3.0,251.0,411.0,2.0,1019.0,1744252765.9962952,0.0,2025-04-09 22:39:25.996,FORWARD,24
117.0,13237.66419144442,1721.240785269831,-60978.6434148125,-58089.32281605278,-34922.52199918294,-32264.072568902087,-20671.541472857174,-21634.387568758437,0.0,0.0,0.0,193.0,1.0,154.0,0.0,2.0,3.0,252.0,410.0,2.0,1020.0,1744252765.9963038,0.0,2025-04-09 22:39:25.996,FORWARD,24
118.0,13180.46607738329,1724.6829539159482,-60952.24600461078,-58029.30838219028,-34895.49874013648,-32245.118289603986,-20528.892639743404,-21611.365271969473,0.0,0.0,0.0,193.0,1.0,155.0,0.0,2.0,3.0,249.0,411.0,2.0,1017.0,1744252765.9963124,0.0,2025-04-09 22:39:25.996,FORWARD,24
119.0,13106.92883812533,1703.1358722610323,-61000.21284821187,-58103.80674645981,-34930.94860684259,-32283.7197522783,-20539.442663126312,-21661.679048738366,0.0,0.0,0.0,193.0,1.0,155.0,0.0,2.0,3.0,252.0,411.0,2.0,1020.0,1744252765.9963207,0.0,2025-04-09 22:39:25.996,FORWARD,24
120.0,13144.03273392114,1684.7403865743145,-60996.43540339892,-58045.446341687006,-34975.13800563073,-32333.29592148017,-20388.07664967497,-21693.999671220743,0.0,0.0,0.0,193.0,1.0,154.0,0.0,2.0,3.0,249.0,410.0,2.0,1017.0,1744252765.9963295,0.0,2025-04-09 22:39:25.996,FORWARD,24
121.0,13220.386292980469,1697.9279158029458,-61009.08649076063,-58103.85144994873,-34962.7551392025,-32305.266833933216,-20572.925576320362,-21668.026944163674,0.0,0.0,0.0,193.0,1.0,155.0,0.0,2.0,3.0,252.0,411.0,2.0,1020.0,1744252765.9963381,0.0,2025-04-09 22:39:25.996,FORWARD,24
122.0,13179.013213993694,1716.301049745208,-60961.45492332637,-58042.60767014119,-34900.997269272484,-32245.364158792992,-20604.977977869272,-21612.125231280952,0.0,0.0,0.0,193.0,1.0,154.0,0.0,2.0,3.0,250.0,410.0,2.0,1018.0,1744252765.9963467,0.0,2025-04-09 22:39:25.996,FORWARD,24
123.0,13109.11930908195,1698.9113925589793,-61009.600580883096,-58100.3645778137,-34933.63081617723,-32279.24940338724,-20502.025842908126,-21652.38072304496,0.0,0.0,0.0,193.0,1.0,155.0,0.0,2.0,3.0,251.0,411.0,2.0,1019.0,1744252765.9963555,0.0,2025-04-09 22:39:25.996,FORWARD,24
124.0,13107.509983481168,1667.5071915992728,-61018.67538913195,-58073.564836211786,-34987.27500286997,-32332.267741235228,-20462.820883133518,-21698.090040456063,0.0,0.0,0.0,193.0,1.0,154.0,0.0,2.0,3.0,250.0,410.0,2.0,1018.0,1744252765.996364,0.0,2025-04-09 22:39:25.996,FORWARD,24
125.0,13223.940220348863,1700.3642559485743,-61012.14867975101,-58086.17122008458,-34981.86588071178,-32317.53794163918,-20496.19203760529,-21686.936519972864,0.0,0.0,0.0,193.0,1.0,154.0,0.0,2.0,3.0,250.0,410.0,2.0,1018.0,1744252765.9963772,0.0,2025-04-09 22:39:25.996,FORWARD,24
126.0,13193.117164744994,1718.8267968686578,-60954.25766161176,-58047.56975741026,-34899.85733030526,-32236.66933019988,-20681.465647395333,-21611.61114115848,0.0,0.0,0.0,193.0,1.0,154.0,0.0,2.0,3.0,250.0,410.0,2.0,1018.0,1744252765.996386,0.0,2025-04-09 22:39:25.996,FORWARD,24
127.0,13133.013323904674,1724.235919026842,-60985.1924759379,-58068.91567336508,-34919.01277530346,-32250.14743210643,-20471.135732070892,-21612.28169349214,0.0,0.0,0.0,193.0,1.0,155.0,0.0,2.0,3.0,252.0,411.0,2.0,1020.0,1744252765.9963944,0.0,2025-04-09 22:39:25.996,FORWARD,24
128.0,13103.441965990301,1686.0814912416329,-60997.93297027743,-58070.30148152131,-34958.73182520054,-32295.521473350702,-20495.54383701609,-21658.169824858884,0.0,0.0,0.0,193.0,1.0,154.0,0.0,2.0,3.0,250.0,410.0,2.0,1018.0,1744252765.9964032,0.0,2025-04-09 22:39:25.996,FORWARD,24
129.0,13221.481528458778,1707.3603519630853,-61001.66571160147,-58062.34426049522,-34981.798825478414,-32320.287206207184,-20381.996975183127,-21693.06089795362,0.0,0.0,0.0,193.0,1.0,155.0,0.0,2.0,3.0,252.0,411.0,2.0,1020.0,1744252765.996412,0.0,2025-04-09 22:39:25.996,FORWARD,24
130.0,13210.529173675677,1732.371954008574,-60945.62988825201,-58054.43174295804,-34890.69311507858,-32227.23689403974,-20716.11085130106,-21617.020263316663,0.0,0.0,0.0,193.0,1.0,154.0,0.0,2.0,3.0,249.0,410.0,2.0,1017.0,1744252765.9964206,0.0,2025-04-09 22:39:25.996,FORWARD,24
131.0,13144.07743741005,1720.950212591912,-60978.62106306804,-58061.56194943929,-34914.81064734586,-32256.22710659827,-20443.844252090963,-21634.007589102697,0.0,0.0,0.0,193.0,1.0,154.0,0.0,2.0,3.0,251.0,410.0,2.0,1019.0,1744252765.996429,0.0,2025-04-09 22:39:25.996,FORWARD,24
132.0,13087.214599515748,1676.6714068259487,-61001.151621478995,-58093.189667843544,-34950.37227277426,-32297.264909418216,-20540.068511971058,-21678.979298946775,0.0,0.0,0.0,193.0,1.0,153.0,0.0,2.0,3.0,250.0,409.0,2.0,1018.0,1744252766.4653964,0.0,2025-04-09 22:39:26.465,FORWARD,24
133.0,13196.22405722428,1688.8084040651804,-61008.66180761598,-58058.29859474881,-34996.93095647466,-32338.86150584954,-20340.623896196354,-21713.691558085866,0.0,0.0,0.0,193.0,1.0,154.0,0.0,2.0,3.0,251.0,410.0,2.0,1019.0,1744252766.4654317,0.0,2025-04-09 22:39:26.465,FORWARD,24
134.0,13211.914981831907,1715.2505177558087,-60964.360650105555,-58083.39960377212,-34910.63087113272,-32242.10080410252,-20747.380941794032,-21627.771452399666,0.0,0.0,0.0,193.0,1.0,154.0,0.0,2.0,3.0,250.0,410.0,2.0,1018.0,1744252766.4654512,0.0,2025-04-09 22:39:26.465,FORWARD,24
135.0,13166.540940587634,1731.3884772525403,-60957.99040293579,-58038.025562527844,-34902.1372082397,-32242.6595977139,-20462.06092382204,-21623.94930409781,0.0,0.0,0.0,193.0,1.0,154.0,0.0,2.0,3.0,251.0,410.0,2.0,1019.0,1744252766.4654715,0.0,2025-04-09 22:39:26.465,FORWARD,24
136.0,13093.629550174423,1688.2496104537977,-60998.22354295535,-58099.87283943568,-34945.2984267829,-32282.132778421972,-20562.196738981813,-21668.80925521961,0.0,0.0,0.0,193.0,1.0,155.0,0.0,2.0,3.0,252.0,411.0,2.0,1020.0,1744252766.465489,0.0,2025-04-09 22:39:26.465,FORWARD,24
137.0,13192.021929266684,1693.0552355116888,-60992.79206905271,-58037.84674857221,-34985.28569761344,-32328.02090978872,-20320.44027095321,-21695.832514266076,0.0,0.0,0.0,193.0,1.0,154.0,0.0,2.0,3.0,250.0,410.0,2.0,1018.0,1744252766.4655068,0.0,2025-04-09 22:39:26.465,FORWARD,24
138.0,13236.077217588094,1718.916203846479,-60965.05355418367,-58086.752365440414,-34913.44719093409,-32246.504097760215,-20704.57735116212,-21628.821984389066,0.0,0.0,0.0,193.0,1.0,154.0,0.0,2.0,3.0,249.0,410.0,2.0,1017.0,1744252766.4655268,0.0,2025-04-09 22:39:26.465,FORWARD,24
139.0,13180.555484361112,1727.5439772062275,-60954.61528952304,-58038.450245672495,-34901.73487683951,-32251.15326060692,-20489.218293335234,-21630.207792545294,0.0,0.0,0.0,193.0,1.0,155.0,0.0,2.0,3.0,250.0,411.0,2.0,1018.0,1744252766.4655447,0.0,2025-04-09 22:39:26.465,FORWARD,24
140.0,13107.867611392452,1699.7384071038257,-60991.31685391866,-58104.05261564883,-34927.10410679628,-32272.208603883817,-20542.728369561242,-21647.820967176078,0.0,0.0,0.0,193.0,1.0,154.0,0.0,2.0,3.0,252.0,410.0,2.0,1020.0,1744252766.4655902,0.0,2025-04-09 22:39:26.465,FORWARD,24
141.0,13173.358222646502,1692.3846831780295,-60986.13124920503,-58038.740818350416,-34973.46162479659,-32320.64483411847,-20336.332361260935,-21679.806313491623,0.0,0.0,0.0,193.0,1.0,155.0,0.0,2.0,3.0,252.0,411.0,2.0,1020.0,1744252766.4655995,0.0,2025-04-09 22:39:26.465,FORWARD,24
142.0,13251.209348584336,1729.4438754849286,-60968.40631585197,-58090.70862420901,-34923.61723466125,-32263.960810179808,-20633.27528634969,-21643.596487474024,0.0,0.0,0.0,193.0,1.0,154.0,0.0,2.0,3.0,252.0,410.0,2.0,1020.0,1744252766.4656086,0.0,2025-04-09 22:39:26.465,FORWARD,24
143.0,13190.345548432535,1731.1202563190766,-60938.61144049304,-58035.87979506014,-34889.24025168899,-32243.33015004756,-20542.907183516883,-21623.99400758672,0.0,0.0,0.0,193.0,1.0,155.0,0.0,2.0,3.0,251.0,411.0,2.0,1019.0,1744252766.4656177,0.0,2025-04-09 22:39:26.465,FORWARD,24
144.0,13110.438062004812,1701.2583257267866,-60991.18274345193,-58114.0661971648,-34925.02539456193,-32286.379609868483,-20519.281389627624,-21675.738296000756,0.0,0.0,0.0,193.0,1.0,155.0,0.0,2.0,3.0,251.0,411.0,2.0,1019.0,1744252766.4656265,0.0,2025-04-09 22:39:26.465,FORWARD,24
145.0,13147.072571167062,1687.7355203313257,-60983.20317068138,-58053.67178364656,-34966.80080494891,-32317.694403850368,-20398.291396891047,-21683.42729609338,0.0,0.0,0.0,193.0,1.0,155.0,0.0,2.0,3.0,252.0,411.0,2.0,1020.0,1744252766.4656353,0.0,2025-04-09 22:39:26.465,FORWARD,24
146.0,13245.487302003778,1715.9434218339231,-60983.516095103754,-58094.21784808849,-34949.70172044059,-32292.25811866023,-20542.750721305696,-21662.796635961135,0.0,0.0,0.0,193.0,1.0,154.0,0.0,2.0,3.0,249.0,410.0,2.0,1017.0,1744252766.465644,0.0,2025-04-09 22:39:26.465,FORWARD,24
147.0,13196.581685135567,1719.273831757764,-60943.05943763965,-58049.6037661557,-34892.79417905738,-32244.671254714878,-20627.240315346757,-21622.787013386132,0.0,0.0,0.0,193.0,1.0,154.0,0.0,2.0,3.0,252.0,410.0,2.0,1020.0,1744252766.4656532,0.0,2025-04-09 22:39:26.465,FORWARD,24
148.0,13127.224222090748,1708.4779391858506,-60990.33337716263,-58100.92337142508,-34922.05261254938,-32275.918993463398,-20493.53218001511,-21654.772359701677,0.0,0.0,0.0,193.0,1.0,154.0,0.0,2.0,3.0,249.0,410.0,2.0,1017.0,1744252766.4656625,0.0,2025-04-09 22:39:26.465,FORWARD,24
149.0,13116.115405096461,1672.0892992126107,-60996.23423769882,-58076.3588042687,-34967.35959856029,-32315.7274503383,-20457.56822318652,-21678.28639486866,0.0,0.0,0.0,193.0,1.0,155.0,0.0,2.0,3.0,251.0,411.0,2.0,1019.0,1744252766.4656713,0.0,2025-04-09 22:39:26.465,FORWARD,24
150.0,13230.824557641097,1696.6762181134486,-61000.302255189694,-58088.47344976348,-34978.11078764329,-32316.30859569414,-20453.947240584763,-21689.77519151869,0.0,0.0,0.0,193.0,1.0,154.0,0.0,2.0,3.0,249.0,410.0,2.0,1017.0,1744252766.46568,0.0,2025-04-09 22:39:26.465,FORWARD,24
151.0,13191.75370833322,1711.6295351540489,-60952.760094733254,-58070.16737105458,-34902.07015300634,-32246.81702218259,-20696.731888858307,-21630.274847778663,0.0,0.0,0.0,193.0,1.0,155.0,0.0,2.0,3.0,252.0,411.0,2.0,1020.0,1744252766.4656887,0.0,2025-04-09 22:39:26.465,FORWARD,24
152.0,13129.079416880539,1706.041599040222,-60984.79014453771,-58091.42388003157,-34920.57739741533,-32271.202775383328,-20462.776179644607,-21649.65381022141,0.0,0.0,0.0,193.0,1.0,154.0,0.0,2.0,3.0,251.0,410.0,2.0,1019.0,1744252766.4656975,0.0,2025-04-09 22:39:26.465,FORWARD,24
153.0,13087.080489049016,1657.7394792723037,-61007.723034348855,-58105.93016218307,-34969.88534568374,-32317.24736896126,-20507.993758677694,-21693.262063653718,0.0,0.0,0.0,193.0,1.0,154.0,0.0,2.0,3.0,251.0,410.0,2.0,1019.0,1744252766.4657097,0.0,2025-04-09 22:39:26.465,FORWARD,24
154.0,13221.459176714323,1693.949305289901,-60996.79303131021,-58072.44724898902,-34987.38676159224,-32328.467944677825,-20368.384762809845,-21699.989938734765,0.0,0.0,0.0,193.0,1.0,155.0,0.0,2.0,3.0,251.0,411.0,2.0,1019.0,1744252766.4657183,0.0,2025-04-09 22:39:26.465,FORWARD,24
155.0,13215.446557455845,1713.9094130884903,-60941.383056805505,-58073.18485655604,-34895.1858157141,-32236.445812755326,-20722.168174048446,-21621.535315696638,0.0,0.0,0.0,193.0,1.0,154.0,0.0,2.0,3.0,249.0,410.0,2.0,1017.0,1744252766.4657328,0.0,2025-04-09 22:39:26.465,FORWARD,24
156.0,13152.79461774762,1715.921070089468,-60960.49379831479,-58061.76311513938,-34905.71348735255,-32256.85295544302,-20437.026970032093,-21635.974542614764,0.0,0.0,0.0,193.0,1.0,155.0,0.0,2.0,3.0,252.0,411.0,2.0,1020.0,1744252766.4657469,0.0,2025-04-09 22:39:26.465,FORWARD,24
157.0,13089.136849538905,1674.6150463360605,-60995.25076094279,-58104.00791215991,-34952.13806058622,-32299.63419433048,-20535.888735757915,-21683.695517026845,0.0,0.0,0.0,193.0,1.0,154.0,0.0,2.0,3.0,250.0,410.0,2.0,1018.0,1744252766.4657557,0.0,2025-04-09 22:39:26.465,FORWARD,24
158.0,13198.459231669813,1685.4109389079738,-60996.61421735457,-58056.10812379219,-34996.282755885455,-32338.07919479361,-20319.501497686088,-21706.986034749276,0.0,0.0,0.0,193.0,1.0,155.0,0.0,2.0,3.0,252.0,411.0,2.0,1020.0,1744252766.4657643,0.0,2025-04-09 22:39:26.465,FORWARD,24
159.0,13215.155984777926,1707.5391659187278,-60958.05745816916,-58092.429708532065,-34911.01085078846,-32249.253362328218,-20728.270200284744,-21632.62178094647,0.0,0.0,0.0,193.0,1.0,154.0,0.0,2.0,3.0,249.0,410.0,2.0,1017.0,1744252766.465773,0.0,2025-04-09 22:39:26.465,FORWARD,24
160.0,13159.500141084212,1708.0309042967444,-60956.31402210165,-58050.22961500045,-34905.86994956374,-32258.32817057707,-20448.4263597043,-21632.130042568453,0.0,0.0,0.0,193.0,1.0,154.0,0.0,2.0,3.0,250.0,410.0,2.0,1018.0,1744252766.465782,0.0,2025-04-09 22:39:26.465,FORWARD,24
161.0,13083.59361691399,1670.859953267569,-60996.3459964211,-58114.9155634541,-34945.58899946082,-32295.05208671714,-20541.677837571842,-21669.25629010872,0.0,0.0,0.0,193.0,1.0,155.0,0.0,2.0,3.0,251.0,411.0,2.0,1019.0,1744252766.4657907,0.0,2025-04-09 22:39:26.465,FORWARD,24
162.0,13183.08123148456,1690.9094680439794,-60979.24691191279,-58036.3491816937,-34979.228374866056,-32330.144325511974,-20312.304235971482,-21692.926787486886,0.0,0.0,0.0,193.0,1.0,154.0,0.0,2.0,3.0,250.0,410.0,2.0,1018.0,1744252766.4657996,0.0,2025-04-09 22:39:26.465,FORWARD,24
163.0,13234.33378152058,1722.112503303588,-60955.710525001356,-58088.07111836328,-34912.08373452231,-32254.8636501865,-20674.62601359201,-21639.528469983157,0.0,0.0,0.0,193.0,1.0,154.0,0.0,2.0,3.0,249.0,410.0,2.0,1017.0,1744252766.4658084,0.0,2025-04-09 22:39:26.465,FORWARD,24
164.0,13180.823705294575,1726.2475760278198,-60934.69988521337,-58029.196623468,-34886.91567026564,-32241.72082444678,-20474.95788037275,-21617.46729820577,0.0,0.0,0.0,193.0,1.0,155.0,0.0,2.0,3.0,252.0,411.0,2.0,1020.0,1744252766.4658167,0.0,2025-04-09 22:39:26.465,FORWARD,24
165.0,13109.923971882341,1702.1970989939093,-60978.01756596775,-58100.3645778137,-34919.102182281276,-32270.42046432739,-20513.604046535977,-21658.639211492446,0.0,0.0,0.0,193.0,1.0,154.0,0.0,2.0,3.0,250.0,410.0,2.0,1018.0,1744252766.4658256,0.0,2025-04-09 22:39:26.465,FORWARD,24
166.0,13160.327155629058,1690.1718604769542,-60977.83875201211,-58039.74664685091,-34973.61808700777,-32319.370784684514,-20336.757044405585,-21691.67508979739,0.0,0.0,0.0,193.0,1.0,155.0,0.0,2.0,3.0,251.0,411.0,2.0,1019.0,1744252766.4658344,0.0,2025-04-09 22:39:26.465,FORWARD,24
167.0,13231.606868697032,1707.4050554519958,-60980.11862994655,-58103.22560110398,-34943.1973628041,-32280.881080732477,-20588.4600387168,-21658.77332195918,0.0,0.0,0.0,193.0,1.0,154.0,0.0,2.0,3.0,250.0,410.0,2.0,1018.0,1744252766.4658432,0.0,2025-04-09 22:39:26.465,FORWARD,24
168.0,13183.975301262773,1718.1785962794538,-60942.00890565025,-58044.08288527524,-34898.04683900438,-32241.921990146875,-20550.551480120597,-21617.713167394777,0.0,0.0,0.0,193.0,1.0,155.0,0.0,2.0,3.0,252.0,411.0,2.0,1020.0,1744252766.465852,0.0,2025-04-09 22:39:26.465,FORWARD,24
169.0,13115.131928340428,1707.6509246410042,-60983.20317068138,-58103.046787148334,-34923.30431023888,-32268.229993370773,-20492.2357788367,-21652.00074338922,0.0,0.0,0.0,193.0,1.0,155.0,0.0,2.0,3.0,251.0,411.0,2.0,1019.0,1744252766.4658656,0.0,2025-04-09 22:39:26.465,FORWARD,24
170.0,13130.800501203597,1681.6781975839374,-60983.65020557049,-58054.83407435824,-34969.17008986117,-32311.570025869612,-20393.75399276662,-21683.00261294873,0.0,0.0,0.0,193.0,1.0,154.0,0.0,2.0,3.0,250.0,410.0,2.0,1018.0,1744252766.4658747,0.0,2025-04-09 22:39:26.465,FORWARD,24
171.0,13239.519386234211,1710.4895961868283,-60978.777525279234,-58079.711565936996,-34953.92620014265,-32284.837339501068,-20490.20177009127,-21667.62461276348,0.0,0.0,0.0,193.0,1.0,155.0,0.0,2.0,3.0,251.0,411.0,2.0,1019.0,1744252766.4658835,0.0,2025-04-09 22:39:26.465,FORWARD,24
172.0,13195.665263612898,1721.2184335253758,-60929.5813357331,-58035.99155378241,-34885.976896998516,-32218.162085790886,-20617.159678597414,-21602.826905587543,0.0,0.0,0.0,193.0,1.0,154.0,0.0,2.0,3.0,250.0,410.0,2.0,1018.0,1744252766.465892,0.0,2025-04-09 22:39:26.465,FORWARD,24
173.0,13120.585753987521,1705.4604536843842,-60977.70464154537,-58086.908827651605,-34916.308214224366,-32252.606123996513,-20450.326257983,-21627.99496984422,0.0,0.0,0.0,193.0,1.0,155.0,0.0,2.0,3.0,252.0,411.0,2.0,1020.0,1744252766.465901,0.0,2025-04-09 22:39:26.465,FORWARD,24
174.0,13099.6421694329,1670.9717119898453,-60987.897037017,-58074.54831296782,-34960.989351390526,-32300.72942980879,-20453.343743484467,-21675.179502389372,0.0,0.0,0.0,193.0,1.0,154.0,0.0,2.0,3.0,250.0,410.0,2.0,1018.0,1744252766.4659095,0.0,2025-04-09 22:39:26.465,FORWARD,24
175.0,13215.6700749004,1691.691779099915,-60992.680310330434,-58080.605635715205,-34976.47911029805,-32315.973319527307,-20404.12520219388,-21704.907322514933,0.0,0.0,0.0,193.0,1.0,155.0,0.0,2.0,3.0,252.0,411.0,2.0,1020.0,1744252766.4659183,0.0,2025-04-09 22:39:26.465,FORWARD,24
176.0,13192.93835078935,1700.9230495599568,-60941.49481552778,-58063.93123435155,-34895.878719792214,-32230.232027796752,-20689.75814458825,-21628.50905996669,0.0,0.0,0.0,193.0,1.0,154.0,0.0,2.0,3.0,250.0,410.0,2.0,1018.0,1744252766.4659271,0.0,2025-04-09 22:39:26.465,FORWARD,24
177.0,13122.128024354939,1692.1388139890212,-60980.69977530239,-58082.55023748282,-34922.38788871621,-32255.981237409265,-20446.03472304758,-21633.538202469135,0.0,0.0,0.0,193.0,1.0,155.0,0.0,2.0,3.0,252.0,411.0,2.0,1020.0,1744252766.465936,0.0,2025-04-09 22:39:26.465,FORWARD,24
178.0,13082.006643057663,1655.7948775046918,-60988.768755050754,-58092.58617074325,-34947.60065646179,-32290.38057212598,-20506.317377843545,-21665.34473482904,0.0,0.0,0.0,193.0,1.0,154.0,0.0,2.0,3.0,250.0,410.0,2.0,1018.0,1744252766.4659445,0.0,2025-04-09 22:39:26.465,FORWARD,24
179.0,13198.436879925357,1672.1563544459766,-60987.45000212789,-58062.992461084425,-34977.86491845428,-32323.081174264098,-20319.79207036401,-21695.229017165784,0.0,0.0,0.0,193.0,1.0,154.0,0.0,2.0,3.0,250.0,410.0,2.0,1018.0,1744252766.4659536,0.0,2025-04-09 22:39:26.465,FORWARD,24
180.0,13181.002519250218,1668.8035927776807,-60952.290708099696,-58091.17801084257,-34906.29463270839,-32244.71595820379,-20712.489868699296,-21630.632475689945,0.0,0.0,0.0,193.0,1.0,155.0,0.0,2.0,3.0,251.0,411.0,2.0,1019.0,1744252766.465962,0.0,2025-04-09 22:39:26.465,FORWARD,24
181.0,13111.622704460944,1663.6850432974152,-60972.608443809564,-58078.526923480866,-34918.63279564772,-32268.677028259877,-20433.4730426637,-21642.501251995713,0.0,0.0,0.0,193.0,1.0,154.0,0.0,2.0,3.0,250.0,410.0,2.0,1018.0,1744252766.4659708,0.0,2025-04-09 22:39:26.465,FORWARD,24
182.0,13051.161235709338,1623.98834514479,-60993.5967318531,-58119.005932689426,-34942.70562442608,-32294.448589616848,-20527.417424609357,-21674.061915166607,0.0,0.0,0.0,193.0,1.0,154.0,0.0,2.0,3.0,251.0,410.0,2.0,1019.0,1744252766.465979,0.0,2025-04-09 22:39:26.465,FORWARD,24
183.0,13150.402981090901,1628.861025436047,-60992.52384811924,-58061.53959769483,-34987.27500286997,-32331.9324650684,-20299.764907332054,-21701.353395146536,0.0,0.0,0.0,193.0,1.0,154.0,0.0,2.0,3.0,249.0,410.0,2.0,1017.0,1744252766.465988,0.0,2025-04-09 22:39:26.465,FORWARD,24
184.0,13156.415600349379,1632.7055254823597,-60977.27995840072,-58117.68717976656,-34926.56766492935,-32260.09395838904,-20717.58606643511,-21654.526490512668,0.0,0.0,0.0,193.0,1.0,154.0,0.0,2.0,3.0,251.0,410.0,2.0,1019.0,1744252766.4660015,0.0,2025-04-09 22:39:26.466,FORWARD,24
185.0,13091.729651895721,1625.731781212304,-60974.575397321634,-58070.94968211051,-34918.1410572697,-32259.848089200033,-20468.60998494744,-21647.79861543162,0.0,0.0,0.0,193.0,1.0,154.0,0.0,2.0,3.0,252.0,410.0,2.0,1020.0,1744252766.4660103,0.0,2025-04-09 22:39:26.466,FORWARD,24
186.0,13006.368339820903,1578.8378213450696,-61014.428557685445,-58136.529700342384,-34949.63466520723,-32291.18523492637,-20538.5485933481,-21674.061915166607,0.0,0.0,0.0,193.0,1.0,154.0,0.0,2.0,3.0,249.0,410.0,2.0,1017.0,1744252766.466019,0.0,2025-04-09 22:39:26.466,FORWARD,24
187.0,13078.20684650026,1567.952521795335,-61009.84645007211,-58067.97690009796,-34998.652040797715,-32339.12972678301,-20309.55497140348,-21707.276607427193,0.0,0.0,0.0,193.0,1.0,154.0,0.0,2.0,3.0,252.0,410.0,2.0,1020.0,1744252766.4660275,0.0,2025-04-09 22:39:26.466,FORWARD,24
188.0,13132.163957615372,1590.572487184106,-60992.00975799677,-58122.202232146534,-34942.48210698153,-32272.47682481728,-20661.639650063473,-21662.684877238855,0.0,0.0,0.0,193.0,1.0,154.0,0.0,2.0,3.0,250.0,410.0,2.0,1018.0,1744252766.466036,0.0,2025-04-09 22:39:26.466,FORWARD,24
189.0,13074.54116040959,1589.5443069391617,-60963.37717334952,-58057.51628369287,-34911.32377521083,-32248.85103092802,-20512.978197691227,-21627.23501053274,0.0,0.0,0.0,193.0,1.0,154.0,0.0,2.0,3.0,250.0,410.0,2.0,1018.0,1744252766.466045,0.0,2025-04-09 22:39:26.466,FORWARD,24
190.0,12993.404328036826,1561.3587571810197,-61007.432461670935,-58129.10892118322,-34941.9456651146,-32275.24844112974,-20518.052043682583,-21649.743217199233,0.0,0.0,0.0,193.0,1.0,154.0,0.0,2.0,3.0,249.0,410.0,2.0,1017.0,1744252766.4660532,0.0,2025-04-09 22:39:26.466,FORWARD,24
191.0,13035.559718079534,1540.1022482040225,-61004.52673489175,-58072.69311817803,-34992.438255839144,-32326.232770232295,-20361.74629470662,-21693.53028458718,0.0,0.0,0.0,193.0,1.0,154.0,0.0,2.0,3.0,251.0,410.0,2.0,1019.0,1744252766.466062,0.0,2025-04-09 22:39:26.466,FORWARD,24
192.0,13124.273791822648,1558.542437379651,-61003.655016857985,-58124.83973799226,-34966.68904622663,-32293.331002394083,-20580.972204324273,-21678.04052567965,0.0,0.0,0.0,193.0,1.0,154.0,0.0,2.0,3.0,248.0,410.0,2.0,1016.0,1744252766.4660704,0.0,2025-04-09 22:39:26.466,FORWARD,24
193.0,13074.943491809785,1566.11967875,-60961.61138553756,-58068.3568797537,-34910.27324322143,-32251.53324026266,-20582.69328864733,-21635.99689435922,0.0,0.0,0.0,193.0,1.0,154.0,0.0,2.0,3.0,251.0,410.0,2.0,1019.0,1744252766.4660788,0.0,2025-04-09 22:39:26.466,FORWARD,24
194.0,13002.322674074492,1554.7426408222486,-60999.676406344945,-58121.241107134956,-34931.21682777606,-32274.466130073804,-20485.19497933328,-21654.682952723855,0.0,0.0,0.0,193.0,1.0,154.0,0.0,2.0,3.0,250.0,410.0,2.0,1018.0,1744252766.4660876,0.0,2025-04-09 22:39:26.466,FORWARD,24
195.0,13000.780403707076,1515.090646158534,-61015.344979208116,-58097.324740567776,-34988.817273237386,-32331.7312993683,-20414.60817034342,-21697.240674166762,0.0,0.0,0.0,193.0,1.0,154.0,0.0,2.0,3.0,251.0,410.0,2.0,1019.0,1744252766.4660964,0.0,2025-04-09 22:39:26.466,FORWARD,24
196.0,13116.763605685665,1544.058506972612,-61015.38968269702,-58119.274153622886,-34982.73759874554,-32316.91209279443,-20473.39325826088,-21685.126028671984,0.0,0.0,0.0,193.0,1.0,154.0,0.0,2.0,3.0,252.0,410.0,2.0,1020.0,1744252766.4661052,0.0,2025-04-09 22:39:26.466,FORWARD,24
197.0,13078.720936622733,1565.3820711829749,-60964.092429172095,-58081.455002004506,-34908.73097285402,-32248.024016383177,-20649.122673168502,-21629.38077800045,0.0,0.0,0.0,193.0,1.0,155.0,0.0,2.0,3.0,251.0,411.0,2.0,1019.0,1744252766.4661136,0.0,2025-04-09 22:39:26.466,FORWARD,24
198.0,13020.516994061112,1574.6133416430166,-60990.243970184805,-58101.660978992106,-34923.55017942788,-32261.077435145075,-20452.874356850905,-21637.38270251545,0.0,0.0,0.0,193.0,1.0,154.0,0.0,2.0,3.0,249.0,410.0,2.0,1017.0,1744252766.4661222,0.0,2025-04-09 22:39:26.466,FORWARD,24
199.0,12997.628807738878,1538.8952540034359,-61004.7502523363,-58098.084699879255,-34973.34986607431,-32306.40677290044,-20474.130865827905,-21682.287357126163,0.0,0.0,0.0,193.0,1.0,155.0,0.0,2.0,3.0,252.0,411.0,2.0,1020.0,1744252766.4661353,0.0,2025-04-09 22:39:26.466,FORWARD,24
200.0,13129.258230836182,1568.9359985513686,-61003.20798196888,-58086.417089273586,-34990.895985471725,-32312.262929947727,-20388.791905497543,-21692.63621480897,0.0,0.0,0.0,193.0,1.0,154.0,0.0,2.0,3.0,250.0,410.0,2.0,1018.0,1744252766.466144,0.0,2025-04-09 22:39:26.466,FORWARD,24
201.0,13119.602277231488,1595.5569261976393,-60942.12066437253,-58069.18389429854,-34897.018658759436,-32212.46239095478,-20701.89514182748,-21608.638359145923,0.0,0.0,0.0,193.0,1.0,153.0,0.0,2.0,3.0,249.0,409.0,2.0,1017.0,1744252766.4661524,0.0,2025-04-09 22:39:26.466,FORWARD,24
202.0,13060.996003269674,1603.5141472237287,-60971.423801353434,-58071.57553095526,-34918.20811250307,-32242.078452358062,-20432.89189730786,-21634.342865269526,0.0,0.0,0.0,193.0,1.0,154.0,0.0,2.0,3.0,252.0,410.0,2.0,1020.0,1744252766.4661608,0.0,2025-04-09 22:39:26.466,FORWARD,24
203.0,13012.179793379282,1562.4763444037849,-60999.810516811674,-58104.34318832674,-34961.458738024085,-32287.519548835702,-20522.85766874047,-21675.514778556204,0.0,0.0,0.0,193.0,1.0,154.0,0.0,2.0,3.0,249.0,410.0,2.0,1017.0,1744252766.4661696,0.0,2025-04-09 22:39:26.466,FORWARD,24
204.0,13127.850070935498,1582.1011760355445,-61001.01751101226,-58066.88166461965,-34998.07089544188,-32322.187104485885,-20330.811480380475,-21700.168752690406,0.0,0.0,0.0,193.0,1.0,154.0,0.0,2.0,3.0,249.0,410.0,2.0,1017.0,1744252766.4661787,0.0,2025-04-09 22:39:26.466,FORWARD,24
205.0,13133.683876238332,1602.4859669787845,-60961.74549600429,-58097.07887137877,-34914.78829560141,-32239.99974012372,-20736.741511433305,-21630.699530923313,0.0,0.0,0.0,193.0,1.0,154.0,0.0,2.0,3.0,251.0,410.0,2.0,1019.0,1744252766.4661872,0.0,2025-04-09 22:39:26.466,FORWARD,24
206.0,13077.089259277494,1610.9125746384352,-60973.70367928788,-58073.16250481159,-34921.33735672681,-32259.356350822018,-20450.61683066092,-21639.349656027516,0.0,0.0,0.0,193.0,1.0,155.0,0.0,2.0,3.0,252.0,411.0,2.0,1020.0,1744252766.4661956,0.0,2025-04-09 22:39:26.466,FORWARD,24
207.0,13021.522822561601,1582.6823213913824,-60995.6977958319,-58117.530717555375,-34944.694929682606,-32281.171653410394,-20555.804140067594,-21668.608089519512,0.0,0.0,0.0,193.0,1.0,154.0,0.0,2.0,3.0,249.0,410.0,2.0,1017.0,1744252766.4662046,0.0,2025-04-09 22:39:26.466,FORWARD,24
208.0,13111.242724805204,1577.9437515668574,-61002.35861567958,-58066.88166461965,-35000.52958733196,-32338.6826918939,-20312.080718526926,-21712.551619118647,0.0,0.0,0.0,193.0,1.0,155.0,0.0,2.0,3.0,252.0,411.0,2.0,1020.0,1744252766.4662132,0.0,2025-04-09 22:39:26.466,FORWARD,24
209.0,13153.46517008128,1607.2915920366756,-60972.25081589828,-58115.67552276558,-34927.417031218654,-32258.171708365884,-20715.775575134227,-21651.66546722239,0.0,0.0,0.0,193.0,1.0,154.0,0.0,2.0,3.0,249.0,410.0,2.0,1017.0,1744252766.466222,0.0,2025-04-09 22:39:26.466,FORWARD,24
210.0,13104.291332279603,1624.927118411913,-60958.16921689144,-58060.6008244277,-34909.71444961005,-32254.37191180848,-20473.549720472067,-21636.868612392977,0.0,0.0,0.0,193.0,1.0,154.0,0.0,2.0,3.0,252.0,410.0,2.0,1020.0,1744252766.4662304,0.0,2025-04-09 22:39:26.466,FORWARD,24
211.0,13027.468386586714,1590.952466839846,-61002.626836613046,-58135.83679626427,-34938.07881332384,-32294.828569272588,-20528.535011832122,-21681.594453048045,0.0,0.0,0.0,193.0,1.0,153.0,0.0,2.0,3.0,249.0,409.0,2.0,1017.0,1744252766.4662387,0.0,2025-04-09 22:39:26.466,FORWARD,24
212.0,13096.535276953611,1580.5142021792178,-61004.88436280303,-58075.66590019059,-34992.52766281697,-32348.763328643243,-20318.36155871887,-21720.553543633647,0.0,0.0,0.0,193.0,1.0,155.0,0.0,2.0,3.0,252.0,411.0,2.0,1020.0,1744252766.466247,0.0,2025-04-09 22:39:26.466,FORWARD,24
213.0,13169.22314992227,1616.344048541075,-60993.5967318531,-58128.10309268274,-34948.114746584266,-32279.741141765255,-20638.147966640947,-21658.840377192544,0.0,0.0,0.0,193.0,1.0,154.0,0.0,2.0,3.0,249.0,410.0,2.0,1017.0,1744252766.466256,0.0,2025-04-09 22:39:26.466,FORWARD,24
214.0,13119.244649320204,1632.0349731487006,-60962.840731482596,-58063.551254695805,-34909.602690887776,-32249.14160360594,-20529.58554382152,-21622.38468198594,0.0,0.0,0.0,193.0,1.0,154.0,0.0,2.0,3.0,252.0,410.0,2.0,1020.0,1744252766.4662693,0.0,2025-04-09 22:39:26.466,FORWARD,24
215.0,13051.094180475973,1616.8804904080023,-61009.108842505084,-58134.294525896854,-34937.81059239037,-32281.931612721877,-20516.196848892792,-21665.456493551315,0.0,0.0,0.0,193.0,1.0,154.0,0.0,2.0,3.0,249.0,410.0,2.0,1017.0,1744252766.4662776,0.0,2025-04-09 22:39:26.466,FORWARD,24
216.0,13088.488648949702,1601.4354349893852,-61006.672502359455,-58081.790278171335,-34986.78326449195,-32331.86540983503,-20384.925053706775,-21705.24259868176,0.0,0.0,0.0,193.0,1.0,155.0,0.0,2.0,3.0,252.0,411.0,2.0,1020.0,1744252766.4662864,0.0,2025-04-09 22:39:26.466,FORWARD,24
217.0,13185.271702441181,1632.8172842046363,-61004.3479209361,-58128.19249966055,-34966.17495610416,-32307.524360123203,-20557.525224390654,-21696.458363110825,0.0,0.0,0.0,193.0,1.0,154.0,0.0,2.0,3.0,249.0,410.0,2.0,1017.0,1744252766.4662948,0.0,2025-04-09 22:39:26.466,FORWARD,24
218.0,13146.804350233597,1654.5878833041054,-60949.54144353169,-58067.99925184241,-34897.24217620399,-32250.57211525108,-20605.827344158573,-21638.768510671678,0.0,0.0,0.0,193.0,1.0,154.0,0.0,2.0,3.0,250.0,410.0,2.0,1018.0,1744252766.466303,0.0,2025-04-09 22:39:26.466,FORWARD,24
219.0,13082.431326202313,1645.8483512220803,-60990.84746728509,-58117.44131057755,-34925.98651957351,-32274.264964373706,-20479.495284497178,-21654.28062132366,0.0,0.0,0.0,193.0,1.0,154.0,0.0,2.0,3.0,251.0,410.0,2.0,1019.0,1744252766.4663117,0.0,2025-04-09 22:39:26.466,FORWARD,24
220.0,13082.498381435678,1620.4344177763962,-60995.74249932081,-58089.434574775056,-34975.383874819745,-32323.908188808942,-20453.56726092902,-21702.314520158117,0.0,0.0,0.0,193.0,1.0,154.0,0.0,2.0,3.0,249.0,410.0,2.0,1017.0,1744252766.4663205,0.0,2025-04-09 22:39:26.466,FORWARD,24
221.0,13195.218228723792,1646.8765314670243,-61002.13509823503,-58108.74648198444,-34985.55391854691,-32324.399927186958,-20467.648859935864,-21705.86844752651,0.0,0.0,0.0,193.0,1.0,154.0,0.0,2.0,3.0,252.0,410.0,2.0,1020.0,1744252766.4663289,0.0,2025-04-09 22:39:26.466,FORWARD,24
222.0,13161.645908551922,1657.8735897390354,-60951.2848795992,-58082.147906082624,-34906.04876351938,-32248.761623950202,-20677.062353737638,-21628.9560948558,0.0,0.0,0.0,193.0,1.0,154.0,0.0,2.0,3.0,250.0,410.0,2.0,1018.0,1744252766.4663374,0.0,2025-04-09 22:39:26.466,FORWARD,24
223.0,13105.811250902565,1661.9639589743567,-60977.57053107864,-58096.45302253402,-34919.325699725836,-32265.123100891484,-20449.72276088271,-21642.210679317795,0.0,0.0,0.0,193.0,1.0,155.0,0.0,2.0,3.0,252.0,411.0,2.0,1020.0,1744252766.466346,0.0,2025-04-09 22:39:26.466,FORWARD,24
224.0,13077.782163355609,1631.4538277928625,-60989.84163878461,-58094.73193821096,-34961.123461857256,-32302.204644942838,-20491.498171269675,-21675.693592511845,0.0,0.0,0.0,193.0,1.0,154.0,0.0,2.0,3.0,250.0,410.0,2.0,1018.0,1744252766.4663544,0.0,2025-04-09 22:39:26.466,FORWARD,24
225.0,13202.259028227214,1660.5781508181276,-60990.534542862726,-58076.694080435525,-34983.631668523754,-32322.05299401915,-20366.171940108772,-21694.357299132025,0.0,0.0,0.0,193.0,1.0,155.0,0.0,2.0,3.0,251.0,411.0,2.0,1019.0,1744252766.4663627,0.0,2025-04-09 22:39:26.466,FORWARD,24
226.0,13190.323196688081,1680.8288312946358,-60943.01473415074,-58081.946740382526,-34899.92438553862,-32239.530353490158,-20715.395595478487,-21632.599429202015,0.0,0.0,0.0,193.0,1.0,154.0,0.0,2.0,3.0,252.0,410.0,2.0,1020.0,1744252766.4663713,0.0,2025-04-09 22:39:26.466,FORWARD,24
227.0,13138.534204785134,1697.6373431250267,-60956.71635350184,-58067.14988555311,-34908.95449029857,-32257.009417654208,-20446.682923636785,-21647.888022409443,0.0,0.0,0.0,193.0,1.0,154.0,0.0,2.0,3.0,252.0,410.0,2.0,1020.0,1744252766.46638,0.0,2025-04-09 22:39:26.466,FORWARD,24
228.0,13088.376890227424,1661.8745519965355,-60974.75421127728,-58092.854391676716,-34939.57638020234,-32285.57494706809,-20528.423253109846,-21673.52547329968,0.0,0.0,0.0,193.0,1.0,155.0,0.0,2.0,3.0,252.0,411.0,2.0,1020.0,1744252766.4663887,0.0,2025-04-09 22:39:26.466,FORWARD,24
229.0,13198.056900269617,1675.0173777362559,-60975.93885373341,-58048.530882421845,-34982.06704641188,-32325.137534753983,-20312.63951213831,-21699.87818001249,0.0,0.0,0.0,193.0,1.0,154.0,0.0,2.0,3.0,249.0,410.0,2.0,1017.0,1744252766.4664018,0.0,2025-04-09 22:39:26.466,FORWARD,24
230.0,13206.952894562828,1691.6694273554597,-60941.40540854996,-58085.992406128935,-34907.09929550878,-32244.626551225967,-20726.794985150693,-21645.496385752725,0.0,0.0,0.0,193.0,1.0,155.0,0.0,2.0,3.0,251.0,411.0,2.0,1019.0,1744252766.4664104,0.0,2025-04-09 22:39:26.466,FORWARD,24
231.0,13150.335925857536,1697.078549513644,-60947.0827516416,-58052.42008595706,-34910.67557462163,-32253.701359474824,-20455.578917929997,-21647.753911942713,0.0,0.0,0.0,193.0,1.0,155.0,0.0,2.0,3.0,251.0,411.0,2.0,1019.0,1744252766.4664187,0.0,2025-04-09 22:39:26.466,FORWARD,24
232.0,13079.324433723026,1660.7122612848596,-60979.26926365725,-58109.88642095166,-34937.31885401235,-32285.217319156807,-20545.92466901835,-21670.016249420198,0.0,0.0,0.0,193.0,1.0,154.0,0.0,2.0,3.0,250.0,410.0,2.0,1018.0,1744252766.4664273,0.0,2025-04-09 22:39:26.466,FORWARD,24
233.0,13172.5088563572,1665.2049619203763,-60976.38588862251,-58046.34041146522,-34984.59279353533,-32335.7322616258,-20312.795974349498,-21715.25618019774,0.0,0.0,0.0,193.0,1.0,155.0,0.0,2.0,3.0,251.0,411.0,2.0,1019.0,1744252766.466436,0.0,2025-04-09 22:39:26.466,FORWARD,24
234.0,13218.844022613051,1694.0387122677223,-60950.12258888753,-58096.631836489665,-34918.02929854742,-32250.438004784348,-20702.833915094605,-21642.72476944027,0.0,0.0,0.0,193.0,1.0,154.0,0.0,2.0,3.0,249.0,410.0,2.0,1017.0,1744252766.4664445,0.0,2025-04-09 22:39:26.466,FORWARD,24
235.0,13164.12695218646,1703.269982727764,-60934.07403636862,-58038.89728056161,-34898.60563261576,-32236.825792411066,-20488.59244449049,-21614.785088871133,0.0,0.0,0.0,193.0,1.0,155.0,0.0,2.0,3.0,251.0,411.0,2.0,1019.0,1744252766.4664528,0.0,2025-04-09 22:39:26.466,FORWARD,24
236.0,13091.707300151265,1676.4925928703062,-60977.48112410082,-58110.467566307496,-34928.19934227459,-32270.331057349573,-20535.26288691317,-21655.800539946624,0.0,0.0,0.0,193.0,1.0,154.0,0.0,2.0,3.0,252.0,410.0,2.0,1020.0,1744252766.4664612,0.0,2025-04-09 22:39:26.466,FORWARD,24
237.0,13145.93263219984,1661.7404415298035,-60979.67159505744,-58051.21309175648,-34986.09036041384,-32326.568046399123,-20351.911527146283,-21706.606055093536,0.0,0.0,0.0,193.0,1.0,154.0,0.0,2.0,3.0,250.0,410.0,2.0,1018.0,1744252766.4664695,0.0,2025-04-09 22:39:26.466,FORWARD,24
238.0,13223.783758137675,1691.557668633183,-60969.00981295226,-58102.59975225923,-34943.085604081825,-32272.320362606093,-20644.22764113279,-21670.083304653563,0.0,0.0,0.0,193.0,1.0,154.0,0.0,2.0,3.0,251.0,410.0,2.0,1019.0,1744252766.466478,0.0,2025-04-09 22:39:26.466,FORWARD,24
239.0,13180.980167505762,1709.2602502417865,-60926.832071165096,-58030.91770779106,-34888.279126677415,-32233.025995853663,-20555.133587733937,-21616.439117960825,0.0,0.0,0.0,193.0,1.0,154.0,0.0,2.0,3.0,250.0,410.0,2.0,1018.0,1744252766.4664867,0.0,2025-04-09 22:39:26.466,FORWARD,24
240.0,13106.481803236224,1686.305008686186,-60977.81640026765,-58098.17410685708,-34921.38206021572,-32269.749911993735,-20502.227008608224,-21649.542051499135,0.0,0.0,0.0,193.0,1.0,154.0,0.0,2.0,3.0,252.0,410.0,2.0,1020.0,1744252766.4664953,0.0,2025-04-09 22:39:26.466,FORWARD,24
241.0,13129.437044791825,1665.7861072762141,-60978.10697294557,-58045.200472498,-34971.181746862145,-32315.48158114929,-20400.79479227004,-21681.95208095933,0.0,0.0,0.0,193.0,1.0,154.0,0.0,2.0,3.0,251.0,410.0,2.0,1019.0,1744252766.466504,0.0,2025-04-09 22:39:26.466,FORWARD,24
242.0,13229.796377396153,1694.2398779678201,-60976.89997874499,-58075.934121124046,-34952.69685419761,-32287.452493602337,-20539.040331726115,-21662.05902839411,0.0,0.0,0.0,193.0,1.0,154.0,0.0,2.0,3.0,251.0,410.0,2.0,1019.0,1744252766.4665127,0.0,2025-04-09 22:39:26.466,FORWARD,24
243.0,13184.310577429604,1707.047427540711,-60929.08959735509,-58023.072245487245,-34883.60761208625,-32227.773335906666,-20622.61350424451,-21599.004757285686,0.0,0.0,0.0,193.0,1.0,155.0,0.0,2.0,3.0,252.0,411.0,2.0,1020.0,1744252766.4665213,0.0,2025-04-09 22:39:26.466,FORWARD,24
244.0,13110.192192815804,1696.6762181134486,-60977.50347584528,-58072.53665596684,-34908.19453098709,-32262.99968516823,-20471.649822193365,-21625.916257609875,0.0,0.0,0.0,193.0,1.0,154.0,0.0,2.0,3.0,249.0,410.0,2.0,1017.0,1744252766.4665344,0.0,2025-04-09 22:39:26.466,FORWARD,24
245.0,13098.21165778776,1663.0591944526666,-60985.7959730382,-58051.324850478755,-34951.31104604138,-32307.591415356568,-20458.23877552018,-21661.880214438464,0.0,0.0,0.0,193.0,1.0,155.0,0.0,2.0,3.0,252.0,411.0,2.0,1020.0,1744252766.4665427,0.0,2025-04-09 22:39:26.466,FORWARD,24
246.0,13218.844022613051,1688.6966453429038,-60989.7969352957,-58055.63873715863,-34962.73278745804,-32311.59237761407,-20433.2718769636,-21674.62070877799,0.0,0.0,0.0,193.0,1.0,155.0,0.0,2.0,3.0,250.0,411.0,2.0,1018.0,1744252766.4665513,0.0,2025-04-09 22:39:26.466,FORWARD,24
247.0,13195.307635701614,1705.0581222841886,-60938.499681770765,-58027.60964961167,-34879.13726319519,-32229.650882440914,-20680.99626076177,-21600.502324164194,0.0,0.0,0.0,193.0,1.0,155.0,0.0,2.0,3.0,251.0,411.0,2.0,1019.0,1744252766.46656,0.0,2025-04-09 22:39:26.466,FORWARD,24
248.0,13131.538108770623,1705.013418795278,-60970.1944554084,-58036.572699138254,-34896.2363477035,-32244.693606459336,-20440.826766589496,-21600.479972419736,0.0,0.0,0.0,193.0,1.0,154.0,0.0,2.0,3.0,249.0,410.0,2.0,1017.0,1744252766.4665685,0.0,2025-04-09 22:39:26.466,FORWARD,24
249.0,13087.236951260204,1662.3886421190075,-60992.59090335261,-58049.02262079986,-34939.48697322452,-32293.219243671807,-20492.951034659272,-21648.066836365088,0.0,0.0,0.0,193.0,1.0,154.0,0.0,2.0,3.0,251.0,410.0,2.0,1019.0,1744252766.4665768,0.0,2025-04-09 22:39:26.466,FORWARD,24
250.0,13200.85086832653,1676.0232062367447,-61000.41401391197,-58024.94979202149,-34972.9028311852,-32317.06855500562,-20342.45673924169,-21663.154263872417,0.0,0.0,0.0,193.0,1.0,155.0,0.0,2.0,3.0,251.0,411.0,2.0,1019.0,1744252766.4665854,0.0,2025-04-09 22:39:26.466,FORWARD,24
251.0,13192.580722878067,1696.4527006688954,-60950.882548199006,-58030.29185894631,-34884.81460628684,-32221.29133001463,-20710.76878437624,-21580.31869892105,0.0,0.0,0.0,193.0,1.0,154.0,0.0,2.0,3.0,251.0,410.0,2.0,1019.0,1744252766.466594,0.0,2025-04-09 22:39:26.466,FORWARD,24
252.0,13133.415655304869,1701.1689187489653,-60970.28386238621,-58019.585373352216,-34898.24800470448,-32246.928780904866,-20439.396254944357,-21605.106783521984,0.0,0.0,0.0,193.0,1.0,154.0,0.0,2.0,3.0,250.0,410.0,2.0,1018.0,1744252766.9458213,0.0,2025-04-09 22:39:26.945,FORWARD,24
253.0,13081.716070379744,1667.2389706658091,-60991.89799927449,-58054.20822551349,-34927.908769596674,-32273.39324633995,-20538.5485933481,-21633.85112689151,0.0,0.0,0.0,193.0,1.0,155.0,0.0,2.0,3.0,251.0,411.0,2.0,1019.0,1744252766.945858,0.0,2025-04-09 22:39:26.945,FORWARD,24
254.0,13196.536981646655,1685.0533109966889,-60985.01366198226,-57996.27250388533,-34965.035017136935,-32303.38928739897,-20305.151677745784,-21651.732522455757,0.0,0.0,0.0,193.0,1.0,154.0,0.0,2.0,3.0,250.0,410.0,2.0,1018.0,1744252766.9458783,0.0,2025-04-09 22:39:26.945,FORWARD,24
255.0,13218.6205051685,1707.2709449852641,-60948.781484220206,-58032.81760606976,-34886.5356906099,-32219.123210802463,-20709.89706634248,-21582.375059410937,0.0,0.0,0.0,193.0,1.0,155.0,0.0,2.0,3.0,252.0,411.0,2.0,1020.0,1744252766.9458985,0.0,2025-04-09 22:39:26.945,FORWARD,24
0.0,13158.471960839268,1712.4565496988953,-60950.949603432375,-57990.081070671215,-34889.0837894778,-32225.582864950047,-20444.738321869176,-21575.624832585436,0.0,0.0,0.0,193.0,1.0,154.0,0.0,2.0,3.0,249.0,410.0,2.0,1017.0,1744252766.945916,0.0,2025-04-09 22:39:26.945,FORWARD,24
1.0,13089.136849538905,1681.14175571701,-60982.59967358109,-58048.64264114412,-34916.039993290906,-32255.087167631053,-20533.16182293437,-21614.51686793767,0.0,0.0,0.0,193.0,1.0,155.0,0.0,2.0,3.0,252.0,411.0,2.0,1020.0,1744252766.9459336,0.0,2025-04-09 22:39:26.945,FORWARD,24
2.0,13169.804295278109,1674.5703428471497,-60982.756135792275,-57986.48243981391,-34967.136081115736,-32312.866427048022,-20300.189590476704,-21664.584775517556,0.0,0.0,0.0,193.0,1.0,155.0,0.0,2.0,3.0,251.0,411.0,2.0,1019.0,1744252766.9459512,0.0,2025-04-09 22:39:26.945,FORWARD,24
3.0,13220.296886002647,1702.8005960942025,-60965.74645826179,-58042.942946308016,-34912.62017638924,-32243.643074469936,-20669.46276062283,-21615.410937715882,0.0,0.0,0.0,193.0,1.0,154.0,0.0,2.0,3.0,250.0,410.0,2.0,1018.0,1744252766.9459944,0.0,2025-04-09 22:39:26.945,FORWARD,24
4.0,13165.110428942495,1707.852090341102,-60947.57449001962,-57986.28127411381,-34895.72225758103,-32230.030862096653,-20500.10359288497,-21594.400297927892,0.0,0.0,0.0,193.0,1.0,155.0,0.0,2.0,3.0,252.0,411.0,2.0,1020.0,1744252766.9460032,0.0,2025-04-09 22:39:26.946,FORWARD,24
5.0,13097.11642230945,1684.405110407485,-60981.68325205842,-58050.54253942282,-34918.275167736436,-32251.130908862462,-20540.4484916268,-21625.960961098786,0.0,0.0,0.0,193.0,1.0,154.0,0.0,2.0,3.0,250.0,410.0,2.0,1018.0,1744252766.946012,0.0,2025-04-09 22:39:26.946,FORWARD,24
6.0,13141.775207731154,1665.9649212318566,-60980.45390611338,-57996.093689929694,-34964.16329910318,-32312.687613092377,-20345.36246602088,-21676.63236577897,0.0,0.0,0.0,193.0,1.0,154.0,0.0,2.0,3.0,250.0,410.0,2.0,1018.0,1744252766.9460208,0.0,2025-04-09 22:39:26.946,FORWARD,24
7.0,13221.034493569672,1694.4857471568284,-60978.285786901215,-58052.77771386835,-34930.5462754424,-32269.168766637897,-20594.02562308617,-21639.461414749792,0.0,0.0,0.0,193.0,1.0,154.0,0.0,2.0,3.0,251.0,410.0,2.0,1019.0,1744252766.9460294,0.0,2025-04-09 22:39:26.946,FORWARD,24
8.0,13180.89076052794,1712.2553839987975,-60924.328675786106,-57978.99460542138,-34867.13437642269,-32209.891940342422,-20551.24438419871,-21567.175873181328,0.0,0.0,0.0,193.0,1.0,154.0,0.0,2.0,3.0,252.0,410.0,2.0,1020.0,1744252766.94606,0.0,2025-04-09 22:39:26.946,FORWARD,24
9.0,13106.861782891963,1695.692741357415,-60972.29551938719,-58044.596975397704,-34898.22565296002,-32249.745100706234,-20481.551644987067,-21616.84144936102,0.0,0.0,0.0,193.0,1.0,155.0,0.0,2.0,3.0,252.0,411.0,2.0,1020.0,1744252766.9460692,0.0,2025-04-09 22:39:26.946,FORWARD,24
10.0,13116.964771385763,1663.595636319594,-60976.72116478934,-58006.86723075715,-34950.43932800762,-32299.88006351949,-20400.19129516975,-21664.9647551733,0.0,0.0,0.0,193.0,1.0,154.0,0.0,2.0,3.0,250.0,410.0,2.0,1018.0,1744252766.946078,0.0,2025-04-09 22:39:26.946,FORWARD,24
11.0,13223.202612781837,1687.9143342869681,-60981.66090031397,-58040.75247535139,-34946.81834540586,-32280.881080732477,-20497.756659717164,-21651.5090050112,0.0,0.0,0.0,193.0,1.0,154.0,0.0,2.0,3.0,250.0,410.0,2.0,1018.0,1744252766.946087,0.0,2025-04-09 22:39:26.946,FORWARD,24
12.0,13190.166734476894,1706.4215786959624,-60929.7825014332,-57994.93139921802,-34875.35981838225,-32214.71991714477,-20637.678580007385,-21587.158332724375,0.0,0.0,0.0,193.0,1.0,154.0,0.0,2.0,3.0,251.0,410.0,2.0,1019.0,1744252766.946096,0.0,2025-04-09 22:39:26.946,FORWARD,24
13.0,13124.184384844826,1700.5654216486719,-60972.69785078739,-58038.182024739035,-34901.44430416159,-32244.447737270326,-20466.28540352409,-21605.173838755352,0.0,0.0,0.0,193.0,1.0,154.0,0.0,2.0,3.0,250.0,410.0,2.0,1018.0,1744252766.9461052,0.0,2025-04-09 22:39:26.946,FORWARD,24
14.0,13107.889963136908,1666.1660869319544,-60982.063231714164,-58025.62034435515,-34943.13030757073,-32287.67601104689,-20464.96665060123,-21642.501251995713,0.0,0.0,0.0,193.0,1.0,154.0,0.0,2.0,3.0,252.0,410.0,2.0,1020.0,1744252766.946114,0.0,2025-04-09 22:39:26.946,FORWARD,24
15.0,13217.502917945734,1681.5217353727503,-60998.0447289997,-58037.15384449409,-34970.287677083936,-32307.479656634292,-20412.909437764818,-21669.524511042182,0.0,0.0,0.0,193.0,1.0,154.0,0.0,2.0,3.0,250.0,410.0,2.0,1018.0,1744252766.946123,0.0,2025-04-09 22:39:26.946,FORWARD,24
16.0,13190.233789710259,1698.4867094143283,-60945.33931557409,-58023.47457688744,-34881.95358299656,-32224.107649815996,-20704.175019761922,-21597.775411340644,0.0,0.0,0.0,193.0,1.0,155.0,0.0,2.0,3.0,251.0,411.0,2.0,1019.0,1744252766.9461317,0.0,2025-04-09 22:39:26.946,FORWARD,24
17.0,13119.915201653863,1689.6577703544822,-60981.45973461387,-58043.05470503029,-34907.65808912016,-32258.52933627717,-20458.037609820083,-21632.331208268548,0.0,0.0,0.0,193.0,1.0,154.0,0.0,2.0,3.0,250.0,410.0,2.0,1018.0,1744252766.9461412,0.0,2025-04-09 22:39:26.946,FORWARD,24
18.0,13086.029957059618,1655.370194360041,-60994.24493244231,-58057.56098718179,-34938.83877263532,-32290.24646165925,-20535.30759040208,-21659.57798475957,0.0,0.0,0.0,193.0,1.0,154.0,0.0,2.0,3.0,252.0,410.0,2.0,1020.0,1744252766.9461567,0.0,2025-04-09 22:39:26.946,FORWARD,24
19.0,13207.690502129853,1677.3196074151526,-60990.84746728509,-58021.79819605329,-34964.63268573674,-32312.262929947727,-20350.682181201242,-21672.877272710477,0.0,0.0,0.0,193.0,1.0,155.0,0.0,2.0,3.0,252.0,411.0,2.0,1020.0,1744252766.9461656,0.0,2025-04-09 22:39:26.946,FORWARD,24
20.0,13206.595266651544,1697.3020669581972,-60945.02639115172,-58037.73498984993,-34880.83599577379,-32223.101821315508,-20740.094273101604,-21598.378908440936,0.0,0.0,0.0,193.0,1.0,154.0,0.0,2.0,3.0,249.0,410.0,2.0,1017.0,1744252766.9461749,0.0,2025-04-09 22:39:26.946,FORWARD,24
21.0,13139.897661196908,1697.2573634692865,-60968.003984451774,-58026.17913796654,-34897.935080282106,-32255.958885664808,-20457.52351969761,-21627.302065766107,0.0,0.0,0.0,193.0,1.0,155.0,0.0,2.0,3.0,250.0,411.0,2.0,1018.0,1744252766.9461837,0.0,2025-04-09 22:39:26.946,FORWARD,24
22.0,13081.604311657467,1665.2273136648314,-60986.93591200542,-58064.1547517961,-34919.34805147029,-32276.723656263788,-20553.16663422187,-21645.161109585897,0.0,0.0,0.0,193.0,1.0,154.0,0.0,2.0,3.0,251.0,410.0,2.0,1019.0,1744252766.9461951,0.0,2025-04-09 22:39:26.946,FORWARD,24
23.0,13185.31640593009,1674.2127149358648,-60982.80083928119,-58004.52029758934,-34964.252706081,-32314.743973582266,-20313.801802849986,-21661.99197316074,0.0,0.0,0.0,193.0,1.0,155.0,0.0,2.0,3.0,251.0,411.0,2.0,1019.0,1744252766.946204,0.0,2025-04-09 22:39:26.946,FORWARD,24
24.0,13208.785737608165,1694.7316163458368,-60954.4364755674,-58052.82241735726,-34894.44820814708,-32236.28935054414,-20729.365435763055,-21608.41484170137,0.0,0.0,0.0,193.0,1.0,155.0,0.0,2.0,3.0,252.0,411.0,2.0,1020.0,1744252766.9462128,0.0,2025-04-09 22:39:26.946,FORWARD,24
25.0,13160.997707962717,1709.953154319901,-60941.986553905794,-57996.451317840976,-34879.673705062116,-32235.32822553256,-20472.90151988286,-21602.111649764975,0.0,0.0,0.0,193.0,1.0,155.0,0.0,2.0,3.0,250.0,411.0,2.0,1018.0,1744252766.9462216,0.0,2025-04-09 22:39:26.946,FORWARD,24
26.0,13097.831678132019,1686.7520435752922,-60973.10018218758,-58056.219882514466,-34904.66295536315,-32263.9161066909,-20551.222032454258,-21643.305914796107,0.0,0.0,0.0,193.0,1.0,154.0,0.0,2.0,3.0,250.0,410.0,2.0,1018.0,1744252766.9462304,0.0,2025-04-09 22:39:26.946,FORWARD,24
27.0,13163.925786486363,1673.5198108577504,-60977.03408921172,-57999.33469287571,-34961.16816534617,-32325.405755687447,-20322.004893065085,-21689.8198950076,0.0,0.0,0.0,193.0,1.0,155.0,0.0,2.0,3.0,252.0,411.0,2.0,1020.0,1744252766.9462392,0.0,2025-04-09 22:39:26.946,FORWARD,24
28.0,13211.780871365176,1687.5790581201386,-60969.16627516345,-58062.54542619532,-34913.42483918963,-32260.071606644586,-20664.925356498403,-21628.53141171115,0.0,0.0,0.0,193.0,1.0,154.0,0.0,2.0,3.0,251.0,410.0,2.0,1019.0,1744252766.946248,0.0,2025-04-09 22:39:26.946,FORWARD,24
29.0,13157.734353272243,1695.5586308906832,-60943.52882427321,-58001.03342545431,-34886.178062698615,-32238.74804243422,-20524.265828641157,-21603.765678854666,0.0,0.0,0.0,193.0,1.0,154.0,0.0,2.0,3.0,249.0,410.0,2.0,1017.0,1744252766.946257,0.0,2025-04-09 22:39:26.946,FORWARD,24
30.0,13093.383680985413,1682.5275638732392,-60977.83875201211,-58060.57847268325,-34906.316984452846,-32259.13283337746,-20537.386302636423,-21630.8559931345,0.0,0.0,0.0,193.0,1.0,154.0,0.0,2.0,3.0,251.0,410.0,2.0,1019.0,1744252766.9462657,0.0,2025-04-09 22:39:26.946,FORWARD,24
31.0,13149.106579912494,1678.9065812714794,-60958.97387969183,-57984.78370723531,-34943.75615641548,-32291.364048882017,-20371.3575448224,-21649.497348010227,0.0,0.0,0.0,193.0,1.0,154.0,0.0,2.0,3.0,249.0,410.0,2.0,1017.0,1744252766.9462745,0.0,2025-04-09 22:39:26.946,FORWARD,24
32.0,13227.225926783793,1688.5848866206275,-60969.769772263746,-58048.68734463303,-34929.47339170854,-32271.582755039068,-20586.82836137156,-21650.838452677544,0.0,0.0,0.0,193.0,1.0,154.0,0.0,2.0,3.0,252.0,410.0,2.0,1020.0,1744252766.946283,0.0,2025-04-09 22:39:26.946,FORWARD,24
33.0,13182.075402984072,1704.3428664616188,-60924.306324041645,-57988.29293111479,-34868.54253632337,-32215.99396657872,-20597.400736498923,-21594.6461671169,0.0,0.0,0.0,193.0,1.0,154.0,0.0,2.0,3.0,250.0,410.0,2.0,1018.0,1744252766.9462967,0.0,2025-04-09 22:39:26.946,FORWARD,24
34.0,13113.612009717466,1697.9949710363117,-60964.83003673912,-58038.2490799724,-34894.3364494248,-32236.46816449978,-20497.57784576152,-21607.27490273415,0.0,0.0,0.0,193.0,1.0,154.0,0.0,2.0,3.0,252.0,410.0,2.0,1020.0,1744252766.9463058,0.0,2025-04-09 22:39:26.946,FORWARD,24
35.0,13114.84135566251,1662.9921392193007,-60974.41893511044,-58007.78365227982,-34948.78529891793,-32290.492330848258,-20432.4225106743,-21651.866632922487,0.0,0.0,0.0,193.0,1.0,154.0,0.0,2.0,3.0,250.0,410.0,2.0,1018.0,1744252766.9463143,0.0,2025-04-09 22:39:26.946,FORWARD,24
36.0,13218.441691212856,1686.7967470642027,-60979.67159505744,-58036.93032704954,-34946.639531450215,-32283.473883089293,-20477.14835132937,-21652.33601955605,0.0,0.0,0.0,193.0,1.0,155.0,0.0,2.0,3.0,252.0,411.0,2.0,1020.0,1744252766.9463232,0.0,2025-04-09 22:39:26.946,FORWARD,24
37.0,13180.17550470537,1697.1456047470099,-60927.36851303202,-58003.38035862212,-34872.92347823662,-32212.70826014379,-20649.413245846423,-21578.575262853537,0.0,0.0,0.0,193.0,1.0,154.0,0.0,2.0,3.0,249.0,410.0,2.0,1017.0,1744252766.9463317,0.0,2025-04-09 22:39:26.946,FORWARD,24
38.0,13110.885096893919,1689.14368023201,-60969.25568214127,-58041.49008291842,-34902.42778091762,-32246.504097760215,-20456.51769119712,-21611.879362091942,0.0,0.0,0.0,193.0,1.0,155.0,0.0,2.0,3.0,252.0,411.0,2.0,1020.0,1744252766.9463403,0.0,2025-04-09 22:39:26.946,FORWARD,24
39.0,13088.242779760692,1650.855141980069,-60978.62106306804,-58037.17619623854,-34941.56568545887,-32287.228976157785,-20490.984081147206,-21655.86759517999,0.0,0.0,0.0,193.0,1.0,154.0,0.0,2.0,3.0,250.0,410.0,2.0,1018.0,1744252766.9463491,0.0,2025-04-09 22:39:26.946,FORWARD,24
40.0,13214.753653377731,1682.1028807285884,-60976.58705432261,-58026.73793157792,-34957.144851344216,-32299.745953052756,-20400.83949575895,-21680.275700125185,0.0,0.0,0.0,193.0,1.0,155.0,0.0,2.0,3.0,251.0,411.0,2.0,1019.0,1744252766.946358,0.0,2025-04-09 22:39:26.946,FORWARD,24
41.0,13194.36886243449,1699.4925379148171,-60926.65325720946,-58020.88177453063,-34874.488100348484,-32211.23304500974,-20724.269238027246,-21604.346824210505,0.0,0.0,0.0,193.0,1.0,155.0,0.0,4.0,3.0,252.0,411.0,4.0,1020.0,1744252766.9463663,0.0,2025-04-09 22:39:26.946,FORWARD,24
42.0,13132.298068082104,1701.2583257267866,-60952.849501711076,-58021.90995477557,-34889.70963832255,-32233.00364410921,-20452.76259812863,-21611.834658603035,0.0,0.0,0.0,193.0,1.0,154.0,0.0,13.0,3.0,250.0,410.0,13.0,1018.0,1744252766.9463751,0.0,2025-04-09 22:39:26.946,FORWARD,24
43.0,13076.530465666112,1660.0417089512002,-60983.58315033712,-58057.91861509307,-34933.228484777035,-32281.551633066138,-20532.33480838952,-21661.522586527182,0.0,0.0,0.0,193.0,1.0,155.0,0.0,24.0,3.0,250.0,411.0,24.0,1018.0,1744252766.946384,0.0,2025-04-09 22:39:26.946,FORWARD,24
44.0,13196.447574668835,1679.2865609272196,-60981.10210670258,-58014.48917561641,-34968.72305497206,-32308.30667117914,-20340.98152410764,-21680.678031525378,0.0,0.0,0.0,193.0,1.0,154.0,0.0,34.0,3.0,250.0,410.0,34.0,1018.0,1744252766.9463928,0.0,2025-04-09 22:39:26.946,FORWARD,24
45.0,13201.789641593652,1696.0503692687,-60942.79121670619,-58040.03721952882,-34888.4355888886,-32212.305928743594,-20737.30030504469,-21590.421687414848,0.0,0.0,0.0,193.0,1.0,155.0,0.0,39.0,3.0,251.0,411.0,39.0,1019.0,1744252766.9464011,0.0,2025-04-09 22:39:26.946,FORWARD,24
46.0,13141.84226296452,1699.2690204702642,-60956.604594779565,-58016.076149472734,-34898.24800470448,-32232.355443520006,-20449.029856804595,-21599.451792174794,0.0,0.0,0.0,193.0,1.0,154.0,0.0,39.0,3.0,249.0,410.0,39.0,1017.0,1744252766.94641,0.0,2025-04-09 22:39:26.946,FORWARD,24
47.0,13073.848256331476,1660.1981711623873,-60988.23231318383,-58071.77669665536,-34932.26735976546,-32270.375760838484,-20560.408599425387,-21650.749045699722,0.0,0.0,0.0,193.0,1.0,155.0,0.0,39.0,3.0,252.0,411.0,39.0,1020.0,1744252766.9464185,0.0,2025-04-09 22:39:26.946,FORWARD,24
48.0,13171.860655767996,1669.6753108114376,-60979.31396714616,-58007.71659704645,-34968.49953752751,-32307.30084267865,-20316.081680784428,-21670.887967453953,0.0,0.0,0.0,193.0,1.0,154.0,0.0,39.0,3.0,249.0,410.0,39.0,1017.0,1744252766.946485,0.0,2025-04-09 22:39:26.946,FORWARD,24
49.0,13201.633179382467,1688.7413488318145,-60960.247929125784,-58065.093525063225,-34904.39473442969,-32237.675158700367,-20712.780441377217,-21620.149507540405,0.0,0.0,0.0,193.0,1.0,155.0,0.0,38.0,3.0,252.0,411.0,38.0,1020.0,1744252766.9464939,0.0,2025-04-09 22:39:26.946,FORWARD,24
50.0,13143.988030432229,1692.3846831780295,-60953.40829532246,-58014.77974829433,-34896.70573433706,-32240.446775012828,-20489.19594159078,-21611.722899880755,0.0,0.0,0.0,193.0,1.0,154.0,0.0,38.0,3.0,251.0,410.0,38.0,1019.0,1744252766.9465024,0.0,2025-04-09 22:39:26.946,FORWARD,24
51.0,13071.881302819409,1667.3954328769962,-60990.17691495144,-58078.63868220314,-34926.88058935173,-32265.05604565812,-20562.755532593197,-21645.42933051936,0.0,0.0,0.0,193.0,1.0,154.0,0.0,39.0,3.0,250.0,410.0,39.0,1018.0,1744252766.9465113,0.0,2025-04-09 22:39:26.946,FORWARD,24
52.0,13146.290260111125,1665.2720171537421,-60979.09044970161,-58006.84487901269,-34970.46649103957,-32307.837284545578,-20354.88430915884,-21674.643060522445,0.0,0.0,0.0,193.0,1.0,154.0,0.0,39.0,3.0,249.0,410.0,39.0,1017.0,1744252766.94652,0.0,2025-04-09 22:39:26.946,FORWARD,24
53.0,13222.017970325705,1698.0396745252222,-60960.22557738132,-58055.102295291705,-34911.32377521083,-32243.95599889231,-20651.670772036407,-21625.29040876513,0.0,0.0,0.0,193.0,1.0,154.0,0.0,39.0,3.0,250.0,410.0,39.0,1018.0,1744252766.9465284,0.0,2025-04-09 22:39:26.946,FORWARD,24
54.0,13173.648795324421,1707.0921310296217,-60923.38990251898,-57986.88477121411,-34870.95652472455,-32209.668422897867,-20536.4475293693,-21587.672422846845,0.0,0.0,0.0,193.0,1.0,154.0,0.0,39.0,3.0,251.0,410.0,39.0,1019.0,1744252766.9465373,0.0,2025-04-09 22:39:26.946,FORWARD,24
55.0,13095.39533798639,1678.4818981268286,-60975.08948744411,-58060.6008244277,-34909.245062976486,-32248.515754761193,-20521.516564073154,-21629.112557066986,0.0,0.0,0.0,193.0,1.0,154.0,0.0,40.0,3.0,250.0,410.0,40.0,1018.0,1744252766.946546,0.0,2025-04-09 22:39:26.946,FORWARD,24
56.0,13136.276678595148,1672.6480928239935,-60969.41214435246,-58005.36966387864,-34954.44029026512,-32299.701249563845,-20388.993071197638,-21669.368048830995,0.0,0.0,0.0,193.0,1.0,155.0,0.0,40.0,3.0,251.0,411.0,40.0,1019.0,1744252766.946555,0.0,2025-04-09 22:39:26.946,FORWARD,24
57.0,13235.496072232256,1705.3933984510184,-60969.65801354146,-58051.25779524539,-34938.05646157938,-32272.968563195296,-20558.44164591332,-21653.8112346901,0.0,0.0,0.0,193.0,1.0,155.0,0.0,40.0,3.0,252.0,411.0,40.0,1020.0,1744252766.9465635,0.0,2025-04-09 22:39:26.946,FORWARD,24
58.0,13185.338757674546,1711.71894213187,-60921.55705947364,-57996.093689929694,-34877.215013172034,-32223.124173059965,-20625.720396723795,-21617.24378076122,0.0,0.0,0.0,193.0,1.0,155.0,0.0,40.0,3.0,252.0,411.0,40.0,1020.0,1744252766.9465723,0.0,2025-04-09 22:39:26.946,FORWARD,24
59.0,13110.594524216,1690.7083023438815,-60962.88543497151,-58045.89337657612,-34900.90786229466,-32248.202830338818,-20501.66821499684,-21637.270943793174,0.0,0.0,0.0,193.0,1.0,154.0,0.0,41.0,3.0,249.0,410.0,41.0,1017.0,1744252766.946581,0.0,2025-04-09 22:39:26.946,FORWARD,24
60.0,13105.364216013459,1656.3313193716192,-60969.00981295226,-58017.484309373416,-34946.997159361505,-32284.7702842677,-20459.870452865416,-21649.67616196587,0.0,0.0,0.0,193.0,1.0,155.0,0.0,41.0,3.0,251.0,411.0,41.0,1019.0,1744252766.94659,0.0,2025-04-09 22:39:26.946,FORWARD,24
61.0,13215.04422605565,1680.0241684942448,-60975.44711535539,-58037.01973402736,-34951.66867395266,-32284.34560112305,-20463.71495291173,-21651.039618377643,0.0,0.0,0.0,193.0,1.0,154.0,0.0,41.0,3.0,250.0,410.0,41.0,1018.0,1744252766.9465985,0.0,2025-04-09 22:39:26.946,FORWARD,24
62.0,13185.361109419002,1697.1232530025547,-60913.19750704736,-58000.206410909464,-34863.51339382093,-32199.721896615258,-20678.917548527428,-21579.022297742642,0.0,0.0,0.0,193.0,1.0,154.0,0.0,41.0,3.0,249.0,410.0,41.0,1017.0,1744252766.946607,0.0,2025-04-09 22:39:26.946,FORWARD,24
63.0,13127.246573835204,1703.761721105781,-60939.77373120472,-58018.57954485173,-34877.99732422797,-32222.654786426403,-20453.90253709585,-21597.93187355183,0.0,0.0,0.0,193.0,1.0,155.0,0.0,41.0,3.0,252.0,411.0,41.0,1020.0,1744252766.9466212,0.0,2025-04-09 22:39:26.946,FORWARD,24
64.0,13086.901675093375,1659.594674062094,-60959.59972853658,-58029.5989548682,-34923.796048616896,-32273.34854285104,-20493.2863108261,-21651.240784077738,0.0,0.0,0.0,193.0,1.0,154.0,0.0,42.0,3.0,250.0,410.0,42.0,1018.0,1744252766.94663,0.0,2025-04-09 22:39:26.946,FORWARD,24
65.0,13201.543772404644,1676.0679097256555,-60966.55112106218,-58016.00909423937,-34953.68033095364,-32294.20272042784,-20369.56940526598,-21668.38457207496,0.0,0.0,0.0,193.0,1.0,155.0,0.0,42.0,3.0,252.0,411.0,42.0,1020.0,1744252766.9466388,0.0,2025-04-09 22:39:26.946,FORWARD,24
66.0,13183.237693695748,1686.528526130739,-60926.765015931735,-58025.597992610696,-34877.88556550569,-32215.211655522784,-20732.181755564423,-21602.826905587543,0.0,0.0,0.0,193.0,1.0,155.0,0.0,42.0,3.0,251.0,411.0,42.0,1019.0,1744252766.9466472,0.0,2025-04-09 22:39:26.946,FORWARD,24
67.0,13126.106634867983,1687.7355203313257,-60944.378190562515,-58015.2938384168,-34888.92732726662,-32235.976426121764,-20458.059961564537,-21618.964865084276,0.0,0.0,0.0,193.0,1.0,156.0,0.0,42.0,3.0,251.0,412.0,42.0,1019.0,1744252766.946656,0.0,2025-04-09 22:39:26.946,FORWARD,24
68.0,13068.081506262006,1646.1836273889098,-60972.899016487485,-58054.051763302305,-34928.19934227459,-32280.590508054556,-20545.902317273896,-21663.53424352816,0.0,0.0,0.0,193.0,1.0,154.0,0.0,42.0,3.0,249.0,410.0,42.0,1017.0,1744252766.9466648,0.0,2025-04-09 22:39:26.946,FORWARD,24
69.0,13179.817876794086,1659.6393775510046,-60973.457810098866,-58010.17528893653,-34969.3042003279,-32317.15796198344,-20328.5986576794,-21685.8189327501,0.0,0.0,0.0,193.0,1.0,155.0,0.0,42.0,3.0,252.0,411.0,42.0,1020.0,1744252766.9466736,0.0,2025-04-09 22:39:26.946,FORWARD,24
70.0,13188.020967009184,1677.6325318375268,-60939.281992826705,-58046.18394925403,-34892.01186800145,-32229.784992907644,-20739.557831234673,-21611.52173418066,0.0,0.0,0.0,193.0,1.0,154.0,0.0,42.0,3.0,249.0,410.0,42.0,1017.0,1744252766.9466822,0.0,2025-04-09 22:39:26.946,FORWARD,24
71.0,13136.813120462075,1687.0202645087559,-60939.23728933779,-58007.850707513186,-34891.16250171215,-32240.312664546094,-20471.53806347109,-21615.410937715882,0.0,0.0,0.0,193.0,1.0,155.0,0.0,42.0,3.0,252.0,411.0,42.0,1020.0,1744252766.9466908,0.0,2025-04-09 22:39:26.946,FORWARD,24
72.0,13072.01541328614,1652.7103367698596,-60971.13322867551,-58063.43949597353,-34922.52199918294,-32272.700342261833,-20558.26283195768,-21655.66642947989,0.0,0.0,0.0,193.0,1.0,154.0,0.0,42.0,3.0,249.0,410.0,42.0,1017.0,1744252766.9466994,0.0,2025-04-09 22:39:26.946,FORWARD,24
73.0,13169.401963877914,1666.7248805433371,-60960.672612270435,-57991.064547427246,-34963.425691536155,-32308.23961594577,-20321.73667213162,-21683.136723415464,0.0,0.0,0.0,193.0,1.0,155.0,0.0,43.0,3.0,252.0,411.0,43.0,1020.0,1744252766.9467087,0.0,2025-04-09 22:39:26.946,FORWARD,24
74.0,13209.366882964003,1689.8812877990351,-60943.193548106385,-58048.28501323283,-34902.450132662074,-32235.551742977113,-20696.217798735834,-21624.776318642656,0.0,0.0,0.0,193.0,1.0,155.0,0.0,43.0,3.0,251.0,411.0,43.0,1019.0,1744252766.9467173,0.0,2025-04-09 22:39:26.946,FORWARD,24
75.0,13140.679972252843,1682.438156895418,-60939.99724864928,-58005.54847783429,-34892.6377168462,-32237.71986218928,-20487.072525867527,-21609.711242879777,0.0,0.0,0.0,193.0,1.0,155.0,0.0,43.0,3.0,251.0,411.0,43.0,1019.0,1744252766.946726,0.0,2025-04-09 22:39:26.946,FORWARD,24
76.0,13064.952262038263,1650.4751623243287,-60982.2420456698,-58076.559969968795,-34919.99625205949,-32269.973429438287,-20538.012151481173,-21653.00657188971,0.0,0.0,0.0,193.0,1.0,154.0,0.0,43.0,3.0,250.0,410.0,43.0,1018.0,1744252766.9467344,0.0,2025-04-09 22:39:26.946,FORWARD,24
77.0,13127.380684301936,1642.9426244428903,-60974.79891476619,-58010.085881958716,-34965.25853458149,-32314.140476481974,-20346.211832310182,-21691.116296186006,0.0,0.0,0.0,193.0,1.0,155.0,0.0,43.0,3.0,252.0,411.0,43.0,1020.0,1744252766.946748,0.0,2025-04-09 22:39:26.946,FORWARD,24
78.0,13205.65649338442,1677.9231045154459,-60962.50545531577,-58063.77477214036,-34919.05747879237,-32261.94915317883,-20624.04401588965,-21654.347676557027,0.0,0.0,0.0,193.0,1.0,154.0,0.0,43.0,3.0,249.0,410.0,43.0,1017.0,1744252766.9467568,0.0,2025-04-09 22:39:26.946,FORWARD,24
79.0,13160.304803884603,1694.9104303014792,-60921.177079817906,-57999.22293415343,-34870.66595204663,-32225.04642308312,-20555.088884245026,-21612.28169349214,0.0,0.0,0.0,193.0,1.0,155.0,0.0,43.0,3.0,252.0,411.0,43.0,1020.0,1744252766.9467657,0.0,2025-04-09 22:39:26.946,FORWARD,24
80.0,13094.791840886099,1682.080528984133,-60961.723144259835,-58062.54542619532,-34898.44917040458,-32248.403996038916,-20507.43496506631,-21630.543068712126,0.0,0.0,0.0,193.0,1.0,154.0,0.0,43.0,3.0,249.0,410.0,43.0,1017.0,1744252766.9467742,0.0,2025-04-09 22:39:26.946,FORWARD,24
81.0,13116.383626029925,1650.7657350022478,-60962.25958612676,-58021.73114081993,-34947.48889773952,-32301.48938912027,-20396.95029222373,-21672.072609910087,0.0,0.0,0.0,193.0,1.0,155.0,0.0,43.0,3.0,251.0,411.0,43.0,1019.0,1744252766.9467828,0.0,2025-04-09 22:39:26.946,FORWARD,24
82.0,13215.647723155944,1677.9007527709905,-60967.60165305158,-58065.361745996684,-34941.00689184748,-32286.848996502045,-20527.1939071648,-21675.358316345017,0.0,0.0,0.0,193.0,1.0,154.0,0.0,43.0,3.0,251.0,410.0,43.0,1019.0,1744252766.9467914,0.0,2025-04-09 22:39:26.946,FORWARD,24
83.0,13171.234806923248,1691.043578510711,-60921.66881819592,-58018.82541404074,-34878.37730388371,-32230.8578766415,-20638.103263152036,-21628.15143205541,0.0,0.0,0.0,193.0,1.0,155.0,0.0,43.0,3.0,252.0,411.0,43.0,1020.0,1744252766.9468,0.0,2025-04-09 22:39:26.946,FORWARD,24
84.0,13113.83552716202,1694.1281192455435,-60954.90586220096,-58051.3024987343,-34896.34810642578,-32243.263094814196,-20483.093915354482,-21628.57611520006,0.0,0.0,0.0,193.0,1.0,154.0,0.0,43.0,3.0,250.0,410.0,43.0,1018.0,1744252766.9468088,0.0,2025-04-09 22:39:26.946,FORWARD,24
85.0,13104.581904957522,1663.2827118972198,-60960.82907448162,-58027.72140833395,-34940.33633951382,-32281.305763877128,-20471.53806347109,-21664.942403428842,0.0,0.0,0.0,193.0,1.0,155.0,0.0,43.0,3.0,252.0,411.0,43.0,1020.0,1744252766.9468172,0.0,2025-04-09 22:39:26.946,FORWARD,24
86.0,13227.672961672899,1693.2340494673313,-60958.437437824905,-58028.57077462325,-34944.896095382705,-32278.44474058685,-20438.390426443868,-21673.033734921664,0.0,0.0,0.0,193.0,1.0,154.0,0.0,43.0,3.0,250.0,410.0,43.0,1018.0,1744252766.9468257,0.0,2025-04-09 22:39:26.946,FORWARD,24
87.0,13195.978188035273,1700.7665873487697,-60912.079919824595,-58014.4444721275,-34870.95652472455,-32207.813228108076,-20699.324691215123,-21612.37110046996,0.0,0.0,0.0,193.0,1.0,154.0,0.0,43.0,3.0,251.0,410.0,43.0,1019.0,1744252766.9468343,0.0,2025-04-09 22:39:26.946,FORWARD,24
88.0,13121.099844109995,1688.3837209205296,-60954.57058603413,-58043.32292596375,-34903.724182096026,-32251.555592007113,-20466.82184539102,-21648.826795676567,0.0,0.0,0.0,193.0,1.0,154.0,0.0,43.0,3.0,250.0,410.0,43.0,1018.0,1744252766.946843,0.0,2025-04-09 22:39:26.946,FORWARD,24
89.0,13072.149523752872,1644.1049151545662,-60976.49764734479,-58060.06438256078,-34947.93593262863,-32291.945194237855,-20529.764357777163,-21688.277624640185,0.0,0.0,0.0,193.0,1.0,154.0,0.0,43.0,3.0,250.0,410.0,43.0,1018.0,1744252766.9468517,0.0,2025-04-09 22:39:26.946,FORWARD,24
90.0,13202.639007882955,1677.2302004373314,-60965.65705128397,-58021.03823674181,-34966.554935759894,-32301.802313542645,-20370.307012833004,-21694.469057854305,0.0,0.0,0.0,193.0,1.0,154.0,0.0,44.0,3.0,249.0,410.0,44.0,1017.0,1744252766.9468603,0.0,2025-04-09 22:39:26.946,FORWARD,24
91.0,13196.22405722428,1695.2457064683088,-60917.86902163852,-58031.878832802635,-34879.69605680658,-32212.84237061052,-20735.087482343613,-21615.723862138257,0.0,0.0,0.0,193.0,1.0,154.0,0.0,43.0,3.0,251.0,410.0,43.0,1019.0,1744252766.9468691,0.0,2025-04-09 22:39:26.946,FORWARD,24
92.0,13133.438007049324,1695.8045000796915,-60938.38792304849,-58021.753492564385,-34893.017696501935,-32239.19507732333,-20448.806339360042,-21632.442966990828,0.0,0.0,0.0,193.0,1.0,155.0,0.0,43.0,3.0,250.0,411.0,43.0,1018.0,1744252766.9468822,0.0,2025-04-09 22:39:26.946,FORWARD,24
93.0,13071.881302819409,1655.7501740157813,-60963.26541462725,-58061.383135483644,-34926.70177539608,-32269.705208504824,-20548.808044053083,-21658.75097021472,0.0,0.0,0.0,193.0,1.0,154.0,0.0,44.0,3.0,249.0,410.0,44.0,1017.0,1744252766.9468908,0.0,2025-04-09 22:39:26.946,FORWARD,24
94.0,13176.196894192326,1667.462488110362,-60963.84655998309,-58009.99647498089,-34972.63461025174,-32310.96652876932,-20319.076814541437,-21693.15030493144,0.0,0.0,0.0,193.0,1.0,155.0,0.0,44.0,3.0,252.0,411.0,44.0,1020.0,1744252766.9468997,0.0,2025-04-09 22:39:26.946,FORWARD,24
95.0,13200.023853781684,1690.6412471105157,-60928.10612059905,-58051.92834757905,-34890.71546682304,-32231.036690597142,-20733.053473598182,-21641.182499072853,0.0,0.0,0.0,193.0,1.0,154.0,0.0,44.0,3.0,249.0,410.0,44.0,1017.0,1744252766.9469085,0.0,2025-04-09 22:39:26.946,FORWARD,24
96.0,13148.816007234574,1699.4925379148171,-60921.98174261829,-58004.67675980053,-34881.32773415181,-32231.975463864266,-20465.748961657162,-21628.71022566679,0.0,0.0,0.0,193.0,1.0,154.0,0.0,43.0,3.0,251.0,410.0,43.0,1019.0,1744252766.946917,0.0,2025-04-09 22:39:26.946,FORWARD,24
97.0,13076.351651710469,1666.9931014768008,-60956.604594779565,-58066.859312875196,-34912.21784498905,-32257.23293509876,-20552.987820266226,-21642.858879907,0.0,0.0,0.0,193.0,1.0,154.0,0.0,43.0,3.0,251.0,410.0,43.0,1019.0,1744252766.946926,0.0,2025-04-09 22:39:26.946,FORWARD,24
98.0,13163.858731252996,1673.9891974913119,-60941.941850416886,-57992.20448639447,-34948.00298786199,-32296.415543128915,-20313.73474761662,-21665.300031340128,0.0,0.0,0.0,193.0,1.0,154.0,0.0,44.0,3.0,249.0,410.0,44.0,1017.0,1744252766.9469347,0.0,2025-04-09 22:39:26.946,FORWARD,24
99.0,13219.559278435621,1699.0902065146217,-60922.987571118785,-58047.92738532155,-34887.42976038811,-32228.734460918244,-20659.337420384578,-21623.055234319596,0.0,0.0,0.0,193.0,1.0,154.0,0.0,44.0,3.0,252.0,410.0,44.0,1020.0,1744252766.9469435,0.0,2025-04-09 22:39:26.946,FORWARD,24
100.0,13163.009364963695,1702.9347065609345,-60904.68149240989,-57989.723442759925,-34865.36858861072,-32212.641204910426,-20487.787781690095,-21594.824981072543,0.0,0.0,0.0,193.0,1.0,154.0,0.0,43.0,3.0,250.0,410.0,43.0,1018.0,1744252766.946952,0.0,2025-04-09 22:39:26.946,FORWARD,24
101.0,13095.060061819562,1682.95224701789,-60945.33931557409,-58055.01288831388,-34889.41906564463,-32238.971559878777,-20514.43106108082,-21630.23014428975,0.0,0.0,0.0,193.0,1.0,155.0,0.0,44.0,3.0,252.0,411.0,44.0,1020.0,1744252766.946961,0.0,2025-04-09 22:39:26.946,FORWARD,24
102.0,13143.74216124322,1669.2953311556973,-60943.55117601767,-57993.52323931733,-34942.3479965148,-32294.71681055031,-20345.161300320782,-21673.234900621763,0.0,0.0,0.0,193.0,1.0,154.0,0.0,44.0,3.0,249.0,410.0,44.0,1017.0,1744252766.9469697,0.0,2025-04-09 22:39:26.946,FORWARD,24
103.0,13217.033531312172,1685.3215319301526,-60945.24990859627,-58052.97887956845,-34912.86604557825,-32253.723711219278,-20577.150056022412,-21632.17474605736,0.0,0.0,0.0,193.0,1.0,155.0,0.0,44.0,3.0,252.0,411.0,44.0,1020.0,1744252766.9469783,0.0,2025-04-09 22:39:26.946,FORWARD,24
104.0,13169.670184811377,1696.3409419466188,-60902.73689064228,-57992.40565209457,-34862.14993740916,-32206.874454840956,-20555.6029743675,-21584.49847513419,0.0,0.0,0.0,193.0,1.0,155.0,0.0,44.0,3.0,250.0,411.0,44.0,1018.0,1744252766.9469872,0.0,2025-04-09 22:39:26.946,FORWARD,24
105.0,13101.385605500414,1682.8628400400687,-60949.273222598225,-58055.12464703616,-34894.47055989153,-32237.228123811263,-20486.759601445152,-21621.244743018717,0.0,0.0,0.0,193.0,1.0,155.0,0.0,44.0,3.0,251.0,411.0,44.0,1019.0,1744252766.946996,0.0,2025-04-09 22:39:26.946,FORWARD,24
106.0,13126.196041845804,1667.0601567101667,-60939.63962073799,-58005.97316097894,-34930.43451672012,-32276.298973119137,-20406.114507450406,-21646.36810378648,0.0,0.0,0.0,193.0,1.0,154.0,0.0,44.0,3.0,250.0,410.0,44.0,1018.0,1744252766.9470043,0.0,2025-04-09 22:39:26.947,FORWARD,24
107.0,13224.47666221579,1686.0814912416329,-60947.932117930904,-58045.42398994255,-34932.84850512129,-32274.91316496291,-20480.09878159747,-21655.86759517999,0.0,0.0,0.0,193.0,1.0,154.0,0.0,44.0,3.0,250.0,410.0,44.0,1018.0,1744252766.9470184,0.0,2025-04-09 22:39:26.947,FORWARD,24
108.0,13182.455382639811,1695.9609622908788,-60899.60764641853,-58010.57762033673,-34863.22282114301,-32212.41768746587,-20635.398702072944,-21601.37404219795,0.0,0.0,0.0,193.0,1.0,155.0,0.0,44.0,3.0,252.0,411.0,44.0,1020.0,1744252766.9470267,0.0,2025-04-09 22:39:26.947,FORWARD,24
109.0,13123.312666811069,1692.8764215560464,-60935.146920102474,-58042.808835841286,-34885.30634466485,-32241.29614130213,-20457.367057486423,-21633.18057455785,0.0,0.0,0.0,193.0,1.0,154.0,0.0,44.0,3.0,248.0,410.0,44.0,1016.0,1744252766.9470356,0.0,2025-04-09 22:39:26.947,FORWARD,24
110.0,13093.093108307494,1647.144752400488,-60955.17408313443,-58038.83022532824,-34939.82224939135,-32288.838301758566,-20479.204711819257,-21677.593490790547,0.0,0.0,0.0,193.0,1.0,154.0,0.0,44.0,3.0,250.0,410.0,44.0,1018.0,1744252766.9470503,0.0,2025-04-09 22:39:26.947,FORWARD,24
111.0,13214.641894655455,1677.0066829927782,-60953.65416451146,-58031.945888036,-34952.808612919885,-32287.854825002534,-20406.270969661593,-21665.009458662207,0.0,0.0,0.0,193.0,1.0,155.0,0.0,44.0,3.0,251.0,411.0,44.0,1019.0,1744252766.9470592,0.0,2025-04-09 22:39:26.947,FORWARD,24
112.0,13199.599170637033,1701.14656700451,-60895.56198067212,-58017.059626228765,-34865.23447814399,-32201.84531233851,-20701.202237749367,-21590.734611837222,0.0,0.0,0.0,193.0,1.0,155.0,0.0,44.0,3.0,252.0,411.0,44.0,1020.0,1744252766.947068,0.0,2025-04-09 22:39:26.947,FORWARD,24
113.0,13135.650829750399,1694.664561112471,-60930.65421946695,-58031.23063221343,-34889.86610053374,-32233.09305108703,-20441.4749671787,-21613.55574292609,0.0,0.0,0.0,193.0,1.0,154.0,0.0,44.0,3.0,249.0,410.0,44.0,1017.0,1744252766.9470766,0.0,2025-04-09 22:39:26.947,FORWARD,24
114.0,13080.933759323807,1649.245816379287,-60957.00692617976,-58058.36564998217,-34934.52488595544,-32271.605106783525,-20530.09963394399,-21653.833586434554,0.0,0.0,0.0,193.0,1.0,155.0,0.0,44.0,3.0,252.0,411.0,44.0,1020.0,1744252766.9470856,0.0,2025-04-09 22:39:26.947,FORWARD,24
115.0,13207.288170729658,1683.2204679513536,-60950.41316156545,-58017.417254140055,-34960.274095567955,-32298.874235019,-20343.753140420096,-21676.744124501245,0.0,0.0,0.0,193.0,1.0,155.0,0.0,44.0,3.0,250.0,411.0,44.0,1018.0,1744252766.947094,0.0,2025-04-09 22:39:26.947,FORWARD,24
116.0,13217.547621434644,1709.6402298975265,-60897.23836150627,-58030.87300430215,-34865.078015932806,-32202.22529199425,-20722.168174048446,-21593.97561478324,0.0,0.0,0.0,193.0,1.0,154.0,0.0,44.0,3.0,249.0,410.0,44.0,1017.0,1744252767.432398,0.0,2025-04-09 22:39:27.432,FORWARD,24
117.0,13145.530300799644,1697.5702878916609,-60917.24317279377,-58013.013960482356,-34877.930268994605,-32225.739327161235,-20428.93563853927,-21607.856048089987,0.0,0.0,0.0,193.0,1.0,155.0,0.0,44.0,3.0,252.0,411.0,44.0,1020.0,1744252767.4324374,0.0,2025-04-09 22:39:27.432,FORWARD,24
118.0,13075.122305765428,1650.341051857597,-60953.318888344635,-58066.993423341926,-34915.123571768236,-32261.256249100716,-20536.224011924747,-21646.56926948658,0.0,0.0,0.0,193.0,1.0,154.0,0.0,44.0,3.0,250.0,410.0,44.0,1018.0,1744252767.4324574,0.0,2025-04-09 22:39:27.432,FORWARD,24
119.0,13181.740126817242,1660.3769851180298,-60953.676516255924,-58010.73408254792,-34964.319761314364,-32309.714831079822,-20314.293541228002,-21687.852941495534,0.0,0.0,0.0,193.0,1.0,155.0,0.0,44.0,3.0,252.0,411.0,44.0,1020.0,1744252767.4324777,0.0,2025-04-09 22:39:27.432,FORWARD,24
120.0,13207.511688174212,1682.1028807285884,-60924.306324041645,-58054.27528074686,-34887.921498766125,-32226.543989961625,-20717.80958387966,-21631.504193723704,0.0,0.0,0.0,193.0,1.0,154.0,0.0,44.0,3.0,249.0,410.0,44.0,1017.0,1744252767.432495,0.0,2025-04-09 22:39:27.432,FORWARD,24
121.0,13146.916108955875,1687.3555406755854,-60915.075053581604,-58000.072300442735,-34873.0799404478,-32220.643129425425,-20462.932641855794,-21608.37013821246,0.0,0.0,0.0,193.0,1.0,155.0,0.0,44.0,3.0,252.0,411.0,44.0,1020.0,1744252767.4325128,0.0,2025-04-09 22:39:27.432,FORWARD,24
122.0,13071.456619674758,1656.890112983002,-60956.80576047966,-58069.18389429854,-34907.03224027542,-32252.404958296414,-20535.598163079998,-21638.969676371777,0.0,0.0,0.0,193.0,1.0,154.0,0.0,44.0,3.0,249.0,410.0,44.0,1017.0,1744252767.4325638,0.0,2025-04-09 22:39:27.432,FORWARD,24
123.0,13138.780073974141,1652.464467580851,-60956.44813256838,-58007.38132087962,-34961.27992406845,-32308.82076130161,-20318.4956691856,-21678.62167103549,0.0,0.0,0.0,193.0,1.0,155.0,0.0,44.0,3.0,251.0,411.0,44.0,1019.0,1744252767.4325764,0.0,2025-04-09 22:39:27.432,FORWARD,24
124.0,13203.644836383444,1676.4702411258509,-60942.23242309481,-58067.44045823103,-34910.161484499156,-32249.8121559396,-20659.315068640124,-21639.43906300534,0.0,0.0,0.0,193.0,1.0,155.0,0.0,44.0,3.0,252.0,411.0,44.0,1020.0,1744252767.4325852,0.0,2025-04-09 22:39:27.432,FORWARD,24
125.0,13158.404905605901,1685.6344563525267,-60909.88944886797,-58003.20154466648,-34873.661085803644,-32220.7548881477,-20528.535011832122,-21604.27976897714,0.0,0.0,0.0,193.0,1.0,154.0,0.0,44.0,3.0,249.0,410.0,44.0,1017.0,1744252767.432594,0.0,2025-04-09 22:39:27.432,FORWARD,24
126.0,13082.565436669045,1664.176781675432,-60953.02831566672,-58072.11197282219,-34904.2382722185,-32250.57211525108,-20524.82462225254,-21637.539164726637,0.0,0.0,0.0,193.0,1.0,155.0,0.0,44.0,3.0,252.0,411.0,44.0,1020.0,1744252767.4326031,0.0,2025-04-09 22:39:27.432,FORWARD,24
127.0,13111.35448352748,1638.8522552075692,-60957.43160932441,-58021.70878907547,-34958.24008682252,-32306.920863022908,-20377.951309436718,-21683.33788911556,0.0,0.0,0.0,193.0,1.0,154.0,0.0,44.0,3.0,250.0,410.0,44.0,1018.0,1744252767.4326124,0.0,2025-04-09 22:39:27.432,FORWARD,24
128.0,13201.968455549295,1661.8745519965355,-60956.15755989046,-58066.81460938628,-34930.90390335368,-32264.81017646911,-20573.864349587482,-21651.799577689122,0.0,0.0,0.0,193.0,1.0,155.0,0.0,44.0,3.0,252.0,411.0,44.0,1020.0,1744252767.4326212,0.0,2025-04-09 22:39:27.432,FORWARD,24
129.0,13157.488484083235,1678.3477876600966,-60913.890411125474,-58011.538745348305,-34877.147957938665,-32216.508056701194,-20598.630082443964,-21602.245760231704,0.0,0.0,0.0,193.0,1.0,154.0,0.0,44.0,3.0,249.0,410.0,44.0,1017.0,1744252767.4326298,0.0,2025-04-09 22:39:27.432,FORWARD,24
130.0,13098.50223046568,1676.179668447932,-60945.20520510736,-58057.136304037136,-34890.89428077868,-32238.457469756304,-20490.268825324634,-21621.8035366301,0.0,0.0,0.0,193.0,1.0,155.0,0.0,44.0,3.0,252.0,411.0,44.0,1020.0,1744252767.4326394,0.0,2025-04-09 22:39:27.432,FORWARD,24
131.0,13102.816117145554,1651.3245286136305,-60943.97585916232,-58022.15582396458,-34934.03314757742,-32284.792636012156,-20425.29230419306,-21662.796635961135,0.0,0.0,0.0,193.0,1.0,154.0,0.0,44.0,3.0,249.0,410.0,44.0,1017.0,1744252767.4326482,0.0,2025-04-09 22:39:27.432,FORWARD,24
132.0,13205.634141639966,1669.720014300348,-60957.945699446886,-58054.29763249131,-34946.75129017249,-32288.72654303629,-20466.419513990822,-21675.179502389372,0.0,0.0,0.0,193.0,1.0,154.0,0.0,44.0,3.0,252.0,410.0,44.0,1020.0,1744252767.4326577,0.0,2025-04-09 22:39:27.432,FORWARD,24
133.0,13174.520513358179,1681.7005493283928,-60905.03912032118,-58020.59120185271,-34867.939039223085,-32211.635376409937,-20668.591042589076,-21599.429440430336,0.0,0.0,0.0,193.0,1.0,154.0,0.0,44.0,3.0,250.0,410.0,44.0,1018.0,1744252767.432667,0.0,2025-04-09 22:39:27.432,FORWARD,24
134.0,13116.137756840917,1678.9065812714794,-60936.06334162514,-58047.59210915472,-34884.971068498024,-32237.89867614492,-20462.932641855794,-21623.23404827524,0.0,0.0,0.0,193.0,1.0,154.0,0.0,44.0,3.0,249.0,410.0,44.0,1017.0,1744252767.4326763,0.0,2025-04-09 22:39:27.432,FORWARD,24
135.0,13090.433250717313,1646.4518483223735,-60943.193548106385,-58040.908937562584,-34920.8903218377,-32271.225127127786,-20488.52538925712,-21649.832624177056,0.0,0.0,0.0,193.0,1.0,155.0,0.0,44.0,3.0,252.0,411.0,44.0,1020.0,1744252767.4326851,0.0,2025-04-09 22:39:27.432,FORWARD,24
136.0,13210.104490531026,1668.0212817217448,-60950.167292376434,-58031.81177756927,-34948.673540195654,-32292.101656449042,-20377.146646636327,-21673.301955855128,0.0,0.0,0.0,193.0,1.0,154.0,0.0,44.0,3.0,249.0,410.0,44.0,1017.0,1744252767.4326937,0.0,2025-04-09 22:39:27.432,FORWARD,24
137.0,13189.674996098876,1679.3983196494962,-60902.848649364554,-58031.700018847,-34865.59210605527,-32204.348707717505,-20707.013691307748,-21597.686004362822,0.0,0.0,0.0,193.0,1.0,154.0,0.0,44.0,3.0,251.0,410.0,44.0,1019.0,1744252767.4327092,0.0,2025-04-09 22:39:27.432,FORWARD,24
138.0,13125.413730789869,1680.6500173389934,-60930.00601887775,-58030.91770779106,-34881.52889985191,-32228.801516151612,-20436.535231654078,-21615.94737958281,0.0,0.0,0.0,193.0,1.0,154.0,0.0,44.0,3.0,252.0,410.0,44.0,1020.0,1744252767.432718,0.0,2025-04-09 22:39:27.432,FORWARD,24
139.0,13068.01445102864,1640.439229063896,-60952.760094733254,-58060.37730698315,-34913.98363280101,-32266.24068811425,-20523.461165840767,-21652.447778278325,0.0,0.0,0.0,193.0,1.0,154.0,0.0,44.0,3.0,248.0,410.0,44.0,1016.0,1744252767.432727,0.0,2025-04-09 22:39:27.432,FORWARD,24
140.0,13190.569065877089,1664.3332438866191,-60948.49091154229,-58010.30939940327,-34947.66771169516,-32294.225072172296,-20316.10403252888,-21668.42927556387,0.0,0.0,0.0,193.0,1.0,155.0,0.0,44.0,3.0,252.0,411.0,44.0,1020.0,1744252767.432736,0.0,2025-04-09 22:39:27.432,FORWARD,24
141.0,13195.777022335174,1682.8628400400687,-60916.706730926846,-58047.21212949898,-34877.03619921639,-32214.675213655857,-20729.879525885528,-21612.169934769863,0.0,0.0,0.0,193.0,1.0,154.0,0.0,44.0,3.0,250.0,410.0,44.0,1018.0,1744252767.4327445,0.0,2025-04-09 22:39:27.432,FORWARD,24
142.0,13141.596393775511,1690.596543621605,-60924.37337927501,-58018.400730896086,-34880.99245798498,-32234.09887958752,-20456.249470263658,-21626.13977505443,0.0,0.0,0.0,193.0,1.0,154.0,0.0,44.0,3.0,250.0,410.0,44.0,1018.0,1744252767.4327533,0.0,2025-04-09 22:39:27.432,FORWARD,24
143.0,13074.116477264939,1653.604406548072,-60958.996231436286,-58077.6552054471,-34916.84465609129,-32266.732426492268,-20559.983916280737,-21661.902566182922,0.0,0.0,0.0,193.0,1.0,155.0,0.0,44.0,3.0,252.0,411.0,44.0,1020.0,1744252767.4327621,0.0,2025-04-09 22:39:27.432,FORWARD,24
144.0,13165.646870809422,1654.6102350485605,-60956.55989129066,-58016.94786750649,-34965.370293303764,-32308.887816534978,-20324.843564610906,-21688.81406650711,0.0,0.0,0.0,193.0,1.0,154.0,0.0,44.0,3.0,249.0,410.0,44.0,1017.0,1744252767.4327707,0.0,2025-04-09 22:39:27.432,FORWARD,24
145.0,13204.538906161655,1675.6655783254598,-60934.14109160198,-58070.16737105458,-34895.92342328113,-32233.09305108703,-20708.46655469734,-21627.637341932936,0.0,0.0,0.0,193.0,1.0,155.0,0.0,44.0,3.0,252.0,411.0,44.0,1020.0,1744252767.4327796,0.0,2025-04-09 22:39:27.432,FORWARD,24
146.0,13143.138664142927,1679.018339993756,-60924.932172886394,-58017.32784716223,-34882.84765277477,-32231.79664990862,-20487.027822378615,-21614.919199337866,0.0,0.0,0.0,193.0,1.0,155.0,0.0,44.0,3.0,249.0,411.0,44.0,1017.0,1744252767.4327881,0.0,2025-04-09 22:39:27.432,FORWARD,24
147.0,13073.512980164645,1658.499438583784,-60964.96414720585,-58082.438478760545,-34913.69306012309,-32253.880173430465,-20549.143320219915,-21642.501251995713,0.0,0.0,0.0,193.0,1.0,154.0,0.0,44.0,3.0,251.0,410.0,44.0,1019.0,1744252767.4327967,0.0,2025-04-09 22:39:27.432,FORWARD,24
148.0,13147.609013033989,1660.0193572067449,-60952.91655694444,-58009.12475694714,-34958.70947345608,-32296.169673939905,-20350.570422478966,-21677.369973345994,0.0,0.0,0.0,193.0,1.0,155.0,0.0,44.0,3.0,252.0,411.0,44.0,1020.0,1744252767.4328058,0.0,2025-04-09 22:39:27.432,FORWARD,24
149.0,13218.732263890775,1686.0591394971777,-60944.936984173895,-58064.82530412976,-34916.375269457734,-32244.425385525872,-20636.851565462537,-21644.33409504105,0.0,0.0,0.0,193.0,1.0,154.0,0.0,44.0,3.0,250.0,410.0,44.0,1018.0,1744252767.4328144,0.0,2025-04-09 22:39:27.432,FORWARD,24
150.0,13169.670184811377,1696.8103285801803,-60907.52016395571,-57998.0382916973,-34871.94000148058,-32207.165027518873,-20546.48346262973,-21603.162181754375,0.0,0.0,0.0,193.0,1.0,155.0,0.0,44.0,3.0,252.0,411.0,44.0,1020.0,1744252767.4328227,0.0,2025-04-09 22:39:27.432,FORWARD,24
151.0,13105.475974735735,1684.695683085404,-60945.428722551915,-58058.34329823772,-34896.728086081515,-32234.836487154545,-20520.130755916925,-21641.204850817307,0.0,0.0,0.0,193.0,1.0,154.0,0.0,44.0,3.0,252.0,410.0,44.0,1020.0,1744252767.4328368,0.0,2025-04-09 22:39:27.432,FORWARD,24
152.0,13126.799538946098,1659.7064327843707,-60948.133283631,-58012.924553504534,-34950.551086729894,-32289.240633158763,-20399.74426028064,-21683.069668182095,0.0,0.0,0.0,193.0,1.0,155.0,0.0,44.0,3.0,251.0,411.0,44.0,1019.0,1744252767.4328456,0.0,2025-04-09 22:39:27.432,FORWARD,24
153.0,13223.515537204212,1685.1650697189655,-60950.77078947673,-58057.91861509307,-34935.28484526692,-32260.250420600227,-20547.869270785963,-21655.9122986689,0.0,0.0,0.0,193.0,1.0,155.0,0.0,44.0,3.0,252.0,411.0,44.0,1020.0,1744252767.4328544,0.0,2025-04-09 22:39:27.432,FORWARD,24
154.0,13175.74985930322,1690.1942122214095,-60906.02259707721,-58012.81279478226,-34873.035236958895,-32205.75686761819,-20621.898248421938,-21593.12624849394,0.0,0.0,0.0,193.0,1.0,154.0,0.0,44.0,3.0,249.0,410.0,44.0,1017.0,1744252767.4328632,0.0,2025-04-09 22:39:27.432,FORWARD,24
155.0,13103.978407857228,1676.3361306591191,-60955.93404244591,-58072.357842011195,-34907.09929550878,-32251.868516429487,-20489.82179043553,-21642.456548506805,0.0,0.0,0.0,193.0,1.0,155.0,0.0,44.0,3.0,251.0,411.0,44.0,1019.0,1744252767.432872,0.0,2025-04-09 22:39:27.432,FORWARD,24
156.0,13095.127117052927,1639.3439935855858,-60959.37621109202,-58051.63777490113,-34948.36061577328,-32299.790656541667,-20470.934566370794,-21689.037583951664,0.0,0.0,0.0,193.0,1.0,155.0,0.0,44.0,3.0,251.0,411.0,44.0,1019.0,1744252767.4328809,0.0,2025-04-09 22:39:27.432,FORWARD,24
157.0,13209.970380064295,1664.668520053449,-60961.83490298211,-58061.27137676137,-34953.79208967592,-32297.063743718118,-20456.96472608623,-21690.669261296902,0.0,0.0,0.0,193.0,1.0,155.0,0.0,44.0,3.0,250.0,411.0,44.0,1018.0,1744252767.4328892,0.0,2025-04-09 22:39:27.432,FORWARD,24
158.0,13183.260045440204,1685.5226976302504,-60906.402576732944,-58032.70584734748,-34871.068283446824,-32217.715050901777,-20693.66969986793,-21614.226295259752,0.0,0.0,0.0,193.0,1.0,154.0,0.0,44.0,3.0,250.0,410.0,44.0,1018.0,1744252767.4328983,0.0,2025-04-09 22:39:27.432,FORWARD,24
159.0,13118.082358608528,1681.3876249060186,-60939.79608294918,-58051.54836792331,-34893.732952324506,-32242.03374886915,-20457.232947019693,-21629.13490881144,0.0,0.0,0.0,193.0,1.0,155.0,0.0,44.0,3.0,252.0,411.0,44.0,1020.0,1744252767.4329069,0.0,2025-04-09 22:39:27.432,FORWARD,24
160.0,13086.588750671,1647.8376564786026,-60950.8378447101,-58054.811722613784,-34929.27222600844,-32273.8179294846,-20509.938360445307,-21660.33794407105,0.0,0.0,0.0,193.0,1.0,154.0,0.0,44.0,3.0,251.0,410.0,44.0,1019.0,1744252767.4329157,0.0,2025-04-09 22:39:27.432,FORWARD,24
161.0,13207.444632940846,1668.75888928877,-60954.05649591166,-58035.38805668212,-34958.038921122425,-32299.902415263943,-20368.340059320934,-21680.90154896993,0.0,0.0,0.0,193.0,1.0,155.0,0.0,44.0,3.0,252.0,411.0,44.0,1020.0,1744252767.4329243,0.0,2025-04-09 22:39:27.432,FORWARD,24
162.0,13193.765365334197,1684.7180348298593,-60904.7261958988,-58040.417199184565,-34868.0284462009,-32209.221388008762,-20721.09529031459,-21603.60921664348,0.0,0.0,0.0,193.0,1.0,155.0,0.0,44.0,3.0,249.0,411.0,44.0,1017.0,1744252767.4329329,0.0,2025-04-09 22:39:27.432,FORWARD,24
163.0,13138.55655652959,1690.9988750218006,-60917.01965534922,-58020.92647801954,-34872.27527764741,-32220.061984069587,-20434.545926397554,-21602.04459453161,0.0,0.0,0.0,193.0,1.0,154.0,0.0,44.0,3.0,249.0,410.0,44.0,1017.0,1744252767.432942,0.0,2025-04-09 22:39:27.432,FORWARD,24
164.0,13074.742326109688,1645.9154064554461,-60950.97195517683,-58067.462809975485,-34913.87187407874,-32263.558478779614,-20529.6973025438,-21646.345752042027,0.0,0.0,0.0,193.0,1.0,155.0,0.0,44.0,3.0,252.0,411.0,44.0,1020.0,1744252767.4329505,0.0,2025-04-09 22:39:27.432,FORWARD,24
165.0,13180.533132616656,1655.3254908711303,-60957.11868490204,-58025.26271644387,-34962.509270013485,-32311.7264880808,-20319.300331985993,-21693.262063653718,0.0,0.0,0.0,193.0,1.0,154.0,0.0,44.0,3.0,249.0,410.0,44.0,1017.0,1744252767.4329593,0.0,2025-04-09 22:39:27.432,FORWARD,24
166.0,13202.817821838597,1676.693758570404,-60920.66298969543,-58062.81364712878,-34884.233460931,-32225.448754483314,-20737.85909865607,-21627.9055628664,0.0,0.0,0.0,193.0,1.0,155.0,0.0,44.0,3.0,252.0,411.0,44.0,1020.0,1744252767.4329727,0.0,2025-04-09 22:39:27.432,FORWARD,24
167.0,13154.068667181573,1691.110633744077,-60911.454070979846,-58011.58344883722,-34875.67274280462,-32225.649920183412,-20459.915156354327,-21618.853106362,0.0,0.0,0.0,193.0,1.0,154.0,0.0,44.0,3.0,250.0,410.0,44.0,1018.0,1744252767.4329813,0.0,2025-04-09 22:39:27.432,FORWARD,24
168.0,13084.241817503193,1652.7103367698596,-60946.143978374486,-58073.45307748951,-34910.161484499156,-32261.09978688953,-20554.97712552275,-21657.387513802947,0.0,0.0,0.0,193.0,1.0,155.0,0.0,44.0,3.0,252.0,411.0,44.0,1020.0,1744252767.43299,0.0,2025-04-09 22:39:27.432,FORWARD,24
169.0,13170.832475523053,1658.9017699839796,-60934.61047823555,-58002.106309188166,-34953.568572231365,-32303.411639143425,-20324.575343677443,-21691.33981363056,0.0,0.0,0.0,193.0,1.0,154.0,0.0,45.0,3.0,250.0,410.0,45.0,1018.0,1744252767.4329987,0.0,2025-04-09 22:39:27.432,FORWARD,24
170.0,13218.844022613051,1684.7627383187698,-60912.43754773588,-58054.811722613784,-34892.324792423824,-32230.09791733002,-20696.061336524646,-21642.210679317795,0.0,0.0,0.0,193.0,1.0,155.0,0.0,44.0,3.0,252.0,411.0,44.0,1020.0,1744252767.4330072,0.0,2025-04-09 22:39:27.433,FORWARD,24
171.0,13162.405867863401,1686.7967470642027,-60897.30541673964,-57999.4911550869,-34875.73979803798,-32222.09599281502,-20510.76537499015,-21621.222391274263,0.0,0.0,0.0,193.0,1.0,154.0,0.0,44.0,3.0,250.0,410.0,44.0,1018.0,1744252767.433016,0.0,2025-04-09 22:39:27.433,FORWARD,24
172.0,13092.40020422938,1669.0941654555995,-60938.76790270423,-58068.98272859845,-34902.114856495245,-32250.52741176217,-20552.563137121575,-21650.90550791091,0.0,0.0,0.0,193.0,1.0,154.0,0.0,44.0,3.0,249.0,410.0,44.0,1017.0,1744252767.433025,0.0,2025-04-09 22:39:27.433,FORWARD,24
173.0,13146.156149644394,1651.6151012915495,-60936.86800442553,-58009.035349969316,-34950.68519719663,-32306.227958944793,-20361.478073773156,-21697.10656370003,0.0,0.0,0.0,193.0,1.0,154.0,0.0,44.0,3.0,248.0,410.0,44.0,1016.0,1744252767.4330332,0.0,2025-04-09 22:39:27.433,FORWARD,24
174.0,13217.324103990091,1670.9940637343007,-60941.62892599451,-58073.36367051169,-34922.07496429384,-32272.05214167263,-20617.517306508696,-21679.828665236077,0.0,0.0,0.0,193.0,1.0,155.0,0.0,44.0,3.0,252.0,411.0,44.0,1020.0,1744252767.4330423,0.0,2025-04-09 22:39:27.433,FORWARD,24
175.0,13160.684783540342,1675.2855986697195,-60907.72132965581,-58018.69130357401,-34879.89722250667,-32230.053213841107,-20578.64762290092,-21627.74910065521,0.0,0.0,0.0,193.0,1.0,154.0,0.0,44.0,3.0,252.0,410.0,44.0,1020.0,1744252767.433051,0.0,2025-04-09 22:39:27.433,FORWARD,24
176.0,13100.312721766559,1673.5198108577504,-60939.88548992699,-58070.63675768814,-34897.018658759436,-32245.252400070716,-20521.53891581761,-21646.122234597475,0.0,0.0,0.0,193.0,1.0,154.0,0.0,44.0,3.0,249.0,410.0,44.0,1017.0,1744252767.4330597,0.0,2025-04-09 22:39:27.433,FORWARD,24
177.0,13112.650884705889,1645.9377581999015,-60944.221728351324,-58029.44249265701,-34946.639531450215,-32297.33196465158,-20418.385615156367,-21693.753802031733,0.0,0.0,0.0,193.0,1.0,154.0,0.0,44.0,3.0,249.0,410.0,44.0,1017.0,1744252767.4330685,0.0,2025-04-09 22:39:27.433,FORWARD,24
178.0,13213.367845221503,1671.7093195568705,-60953.00596392226,-58068.42393498706,-34940.135173813724,-32280.92578422139,-20521.650674539887,-21682.220301892794,0.0,0.0,0.0,193.0,1.0,154.0,0.0,45.0,3.0,248.0,410.0,45.0,1016.0,1744252767.4330833,0.0,2025-04-09 22:39:27.433,FORWARD,24
179.0,13173.090001713039,1685.656808096982,-60905.73202439929,-58025.26271644387,-34873.795196270374,-32219.48083871375,-20652.676600536895,-21619.590713929025,0.0,0.0,0.0,193.0,1.0,154.0,0.0,44.0,3.0,251.0,410.0,44.0,1019.0,1744252767.433092,0.0,2025-04-09 22:39:27.433,FORWARD,24
180.0,13099.418651988346,1673.8327352801248,-60952.58128077761,-58073.006042600406,-34906.96518504205,-32257.881135687967,-20490.224121835723,-21650.10084511052,0.0,0.0,0.0,193.0,1.0,154.0,0.0,44.0,3.0,249.0,410.0,44.0,1017.0,1744252767.4331007,0.0,2025-04-09 22:39:27.433,FORWARD,24
181.0,13086.789916371097,1639.3886970744966,-60954.659993011956,-58053.18004526854,-34941.36451975877,-32294.806217528134,-20487.206636334256,-21676.654717523423,0.0,0.0,0.0,193.0,1.0,154.0,0.0,44.0,3.0,251.0,410.0,44.0,1019.0,1744252767.4331143,0.0,2025-04-09 22:39:27.433,FORWARD,24
182.0,13210.305656231125,1669.272979411242,-60952.9389086889,-58049.91669057807,-34950.30521754089,-32299.611842586022,-20424.934676281773,-21685.081325183073,0.0,0.0,0.0,193.0,1.0,154.0,0.0,44.0,3.0,249.0,410.0,44.0,1017.0,1744252767.433123,0.0,2025-04-09 22:39:27.433,FORWARD,24
183.0,13180.756650061208,1681.7229010728481,-60903.98858833178,-58035.90214680459,-34868.81075725684,-32217.156257290397,-20706.365490718545,-21608.504248679194,0.0,0.0,0.0,193.0,1.0,154.0,0.0,44.0,3.0,251.0,410.0,44.0,1019.0,1744252767.433132,0.0,2025-04-09 22:39:27.433,FORWARD,24
184.0,13112.539125983612,1675.4867643698174,-60941.49481552778,-58053.31415573528,-34891.72129532353,-32247.778147194167,-20453.90253709585,-21628.37494949996,0.0,0.0,0.0,193.0,1.0,154.0,0.0,44.0,3.0,250.0,410.0,44.0,1018.0,1744252767.4331408,0.0,2025-04-09 22:39:27.433,FORWARD,24
185.0,13074.719974365233,1641.6685750089378,-60951.97778367732,-58062.81364712878,-34922.65610964967,-32274.10850216252,-20521.20363965078,-21654.124159112474,0.0,0.0,0.0,193.0,1.0,154.0,0.0,44.0,3.0,249.0,410.0,44.0,1017.0,1744252767.4331493,0.0,2025-04-09 22:39:27.433,FORWARD,24
186.0,13192.245446711237,1656.6218920495382,-60960.09146691459,-58040.908937562584,-34964.85620318129,-32314.095772993063,-20354.97371613666,-21694.24554040975,0.0,0.0,0.0,193.0,1.0,154.0,0.0,44.0,3.0,252.0,410.0,44.0,1020.0,1744252767.433158,0.0,2025-04-09 22:39:27.433,FORWARD,24
187.0,13193.318330445092,1678.4818981268286,-60913.93511461438,-58054.38703946913,-34878.80198702836,-32223.101821315508,-20747.224479582845,-21623.99400758672,0.0,0.0,0.0,193.0,1.0,154.0,0.0,44.0,3.0,249.0,410.0,44.0,1017.0,1744252767.4331667,0.0,2025-04-09 22:39:27.433,FORWARD,24
188.0,13123.223259833248,1671.6199125790492,-60939.125530615514,-58040.75247535139,-34890.42489414512,-32244.783013437154,-20452.6284876619,-21623.882248864444,0.0,0.0,0.0,193.0,1.0,154.0,0.0,44.0,3.0,251.0,410.0,44.0,1019.0,1744252767.4331756,0.0,2025-04-09 22:39:27.433,FORWARD,24
189.0,13062.046535259073,1643.3226040986306,-60963.958318705365,-58080.3597665262,-34916.375269457734,-32273.259135873217,-20550.506776631686,-21650.57023174408,0.0,0.0,0.0,193.0,1.0,154.0,0.0,44.0,3.0,251.0,410.0,44.0,1019.0,1744252767.433184,0.0,2025-04-09 22:39:27.433,FORWARD,24
190.0,13166.250367909715,1651.5927495470942,-60966.34995536208,-58026.93909727802,-34965.63851423723,-32320.376613185002,-20328.531602446034,-21689.48461884077,0.0,0.0,0.0,193.0,1.0,154.0,0.0,44.0,3.0,252.0,410.0,44.0,1020.0,1744252767.4331927,0.0,2025-04-09 22:39:27.433,FORWARD,24
191.0,13189.473830398778,1669.7870695337142,-60939.617268993534,-58072.089621077736,-34894.58231861381,-32243.888943658945,-20740.72012194635,-21626.989141343733,0.0,0.0,0.0,193.0,1.0,155.0,0.0,44.0,3.0,252.0,411.0,44.0,1020.0,1744252767.4332013,0.0,2025-04-09 22:39:27.433,FORWARD,24
192.0,13132.208661104281,1675.307950414175,-60934.36460904653,-58020.45709138598,-34886.62509758772,-32248.269885572183,-20486.200807833768,-21616.439117960825,0.0,0.0,0.0,193.0,1.0,155.0,0.0,44.0,3.0,249.0,411.0,44.0,1017.0,1744252767.43321,0.0,2025-04-09 22:39:27.433,FORWARD,24
193.0,13070.473142918723,1654.4537728373734,-60960.71731575934,-58071.70964142199,-34904.975879785525,-32265.458377058316,-20567.762323351184,-21636.890964137434,0.0,0.0,0.0,193.0,1.0,154.0,0.0,44.0,3.0,249.0,410.0,44.0,1017.0,1744252767.4332187,0.0,2025-04-09 22:39:27.433,FORWARD,24
194.0,13147.586661289533,1651.0563076801668,-60958.705658758365,-58005.07909120072,-34957.547182744405,-32315.68274684939,-20345.54127997652,-21677.079400668074,0.0,0.0,0.0,193.0,1.0,154.0,0.0,44.0,3.0,252.0,410.0,44.0,1020.0,1744252767.4332273,0.0,2025-04-09 22:39:27.433,FORWARD,24
195.0,13204.091871272549,1674.6821015694263,-60947.19451036388,-58062.29955700631,-34906.85342631977,-32253.589600752548,-20695.726060357818,-21629.961923356288,0.0,0.0,0.0,193.0,1.0,154.0,0.0,44.0,3.0,250.0,410.0,44.0,1018.0,1744252767.433236,0.0,2025-04-09 22:39:27.433,FORWARD,24
196.0,13158.65077479491,1689.724825587848,-60913.264562280725,-57985.96834969144,-34865.52505082191,-32223.593559693523,-20537.900392758893,-21588.007699013677,0.0,0.0,0.0,193.0,1.0,155.0,0.0,44.0,3.0,252.0,411.0,44.0,1020.0,1744252767.4332492,0.0,2025-04-09 22:39:27.433,FORWARD,24
197.0,13080.01733780114,1662.4556973523734,-60960.806722737165,-58054.63290865814,-34894.24704244698,-32255.80242345362,-20541.40961663838,-21624.642208175923,0.0,0.0,0.0,193.0,1.0,154.0,0.0,44.0,3.0,250.0,410.0,44.0,1018.0,1744252767.433258,0.0,2025-04-09 22:39:27.433,FORWARD,24
198.0,13114.349617284492,1639.7016214968708,-60964.56181580565,-58000.3405213762,-34947.08656633933,-32314.118124737517,-20380.03002167106,-21678.06287742411,0.0,0.0,0.0,193.0,1.0,155.0,0.0,44.0,3.0,251.0,411.0,44.0,1019.0,1744252767.4332666,0.0,2025-04-09 22:39:27.433,FORWARD,24
199.0,13202.683711371865,1665.115554942555,-60962.19253089339,-58048.08384753273,-34920.59974915979,-32274.77905449618,-20598.898303377428,-21645.8093101751,0.0,0.0,0.0,193.0,1.0,154.0,0.0,45.0,3.0,249.0,410.0,45.0,1017.0,1744252767.4332752,0.0,2025-04-09 22:39:27.433,FORWARD,24
200.0,13154.672164281865,1676.2914271702084,-60914.449204736855,-57981.74386998938,-34862.3287513648,-32216.57511193456,-20595.813762642596,-21570.215710427252,0.0,0.0,0.0,193.0,1.0,154.0,0.0,44.0,3.0,252.0,410.0,44.0,1020.0,1744252767.433284,0.0,2025-04-09 22:39:27.433,FORWARD,24
201.0,13094.25539901917,1673.631569580027,-60950.793141221184,-58028.7942920678,-34881.640658574186,-32235.48468774375,-20501.556456274564,-21586.063097246064,0.0,0.0,0.0,193.0,1.0,154.0,0.0,44.0,3.0,250.0,410.0,44.0,1018.0,1744252767.4332926,0.0,2025-04-09 22:39:27.433,FORWARD,24
202.0,13104.537201468613,1650.9669007023456,-60950.36845807653,-57988.3376346037,-34927.3946794742,-32281.48457783277,-20426.164022226814,-21630.498365223215,0.0,0.0,0.0,193.0,1.0,155.0,0.0,44.0,3.0,251.0,411.0,44.0,1019.0,1744252767.4333012,0.0,2025-04-09 22:39:27.433,FORWARD,24
203.0,13213.971342321795,1677.8336975376246,-60956.20226337937,-58017.1937366955,-34929.89807485319,-32278.221223142296,-20486.781953189606,-21637.13683332644,0.0,0.0,0.0,193.0,1.0,154.0,0.0,45.0,3.0,249.0,410.0,45.0,1017.0,1744252767.43331,0.0,2025-04-09 22:39:27.433,FORWARD,24
204.0,13185.204647207815,1697.592639636116,-60901.82046911961,-57974.09957338567,-34856.4278908286,-32204.438114695327,-20663.360734386533,-21570.573338338538,0.0,0.0,0.0,193.0,1.0,154.0,0.0,44.0,3.0,251.0,410.0,44.0,1019.0,1744252767.4333189,0.0,2025-04-09 22:39:27.433,FORWARD,24
205.0,13118.998780131196,1689.434252909929,-60943.97585916232,-58011.2928761593,-34885.9321935096,-32236.602274966514,-20475.80724666205,-21596.188437484318,0.0,0.0,0.0,193.0,1.0,154.0,0.0,44.0,3.0,252.0,410.0,44.0,1020.0,1744252767.4333274,0.0,2025-04-09 22:39:27.433,FORWARD,24
206.0,13087.236951260204,1648.239987878798,-60961.499626815275,-58010.2423441699,-34932.98261558803,-32284.14443542295,-20499.611854506955,-21641.540126984135,0.0,0.0,0.0,193.0,1.0,154.0,0.0,45.0,3.0,250.0,410.0,45.0,1018.0,1744252767.433336,0.0,2025-04-09 22:39:27.433,FORWARD,24
207.0,13207.891667829952,1675.3526539030856,-60963.51128381625,-58000.74285277639,-34948.62883670674,-32295.09679020605,-20412.194181942246,-21656.158167857906,0.0,0.0,0.0,193.0,1.0,154.0,0.0,44.0,3.0,252.0,410.0,44.0,1020.0,1744252767.4333448,0.0,2025-04-09 22:39:27.433,FORWARD,24
208.0,13191.664301355398,1692.7199593448593,-60911.454070979846,-57992.807983494764,-34858.975989696504,-32207.76852461917,-20719.62007518054,-21579.692850076302,0.0,0.0,0.0,193.0,1.0,154.0,0.0,44.0,3.0,249.0,410.0,44.0,1017.0,1744252767.4333537,0.0,2025-04-09 22:39:27.433,FORWARD,24
209.0,13147.966640945273,1711.406017709496,-60924.01575136373,-57981.900332200574,-34861.38997809768,-32218.363251490984,-20449.208670760236,-21587.158332724375,0.0,0.0,0.0,193.0,1.0,154.0,0.0,44.0,3.0,250.0,410.0,44.0,1018.0,1744252767.433362,0.0,2025-04-09 22:39:27.433,FORWARD,24
210.0,13099.128079310427,1673.1621829464655,-60941.517167272235,-58003.26859989984,-34895.20816745856,-32248.359292550005,-20515.369834347945,-21611.499382436203,0.0,0.0,0.0,193.0,1.0,154.0,0.0,44.0,3.0,249.0,410.0,44.0,1017.0,1744252767.4333708,0.0,2025-04-09 22:39:27.433,FORWARD,24
211.0,13208.003426552228,1682.751081317792,-60947.306269086155,-57973.20550360746,-34939.308159268876,-32290.268813403705,-20321.2449337536,-21647.19511833133,0.0,0.0,0.0,193.0,1.0,155.0,0.0,44.0,3.0,251.0,411.0,44.0,1019.0,1744252767.4333837,0.0,2025-04-09 22:39:27.433,FORWARD,24
212.0,13208.405757952423,1694.9998372793004,-60911.54347795767,-58004.967332478445,-34863.736911265485,-32209.17668451985,-20722.950485104382,-21581.257472188172,0.0,0.0,0.0,193.0,1.0,154.0,0.0,44.0,3.0,250.0,410.0,44.0,1018.0,1744252767.4333923,0.0,2025-04-09 22:39:27.433,FORWARD,24
213.0,13147.586661289533,1698.3525989475966,-60922.40642576294,-57976.04417515328,-34869.95069622406,-32223.99589109372,-20446.48175793669,-21591.025184515143,0.0,0.0,0.0,193.0,1.0,154.0,0.0,44.0,3.0,250.0,410.0,44.0,1018.0,1744252767.433401,0.0,2025-04-09 22:39:27.433,FORWARD,24
214.0,13085.180590770316,1668.2000956773873,-60949.16146387595,-58023.47457688744,-34898.42681866012,-32250.683873973358,-20553.3007446886,-21628.442004733326,0.0,0.0,0.0,193.0,1.0,155.0,0.0,44.0,3.0,252.0,411.0,44.0,1020.0,1744252767.4334097,0.0,2025-04-09 22:39:27.433,FORWARD,24
215.0,13179.884932027451,1668.110688699566,-60947.0827516416,-57965.5835587482,-34944.471412238054,-32297.086095462575,-20315.858163339875,-21663.824816206077,0.0,0.0,0.0,193.0,1.0,154.0,0.0,45.0,3.0,249.0,410.0,45.0,1017.0,1744252767.4334185,0.0,2025-04-09 22:39:27.433,FORWARD,24
216.0,13206.729377118276,1680.0241684942448,-60927.43556826539,-58022.312286175766,-34881.01480972944,-32224.219408538273,-20718.34602574659,-21609.957112068787,0.0,0.0,0.0,193.0,1.0,155.0,0.0,44.0,3.0,252.0,411.0,44.0,1020.0,1744252767.433427,0.0,2025-04-09 22:39:27.433,FORWARD,24
217.0,13147.854882222997,1683.0416539957112,-60922.16055657394,-57975.99947166437,-34872.09646369177,-32225.76167890569,-20491.498171269675,-21598.021280529654,0.0,0.0,0.0,193.0,1.0,154.0,0.0,44.0,3.0,249.0,410.0,44.0,1017.0,1744252767.433436,0.0,2025-04-09 22:39:27.433,FORWARD,24
218.0,13084.577093670023,1662.8356770081136,-60952.849501711076,-58033.75637933688,-34893.35297266876,-32242.749004691723,-20561.459131414787,-21621.267094763174,0.0,0.0,0.0,193.0,1.0,154.0,0.0,44.0,3.0,250.0,410.0,44.0,1018.0,1744252767.4334445,0.0,2025-04-09 22:39:27.433,FORWARD,24
219.0,13166.831513265553,1670.7034910563816,-60932.352952045556,-57949.84793065166,-34927.975824830035,-32277.707133019823,-20341.40620725229,-21637.539164726637,0.0,0.0,0.0,193.0,1.0,154.0,0.0,45.0,3.0,249.0,410.0,45.0,1017.0,1744252767.433453,0.0,2025-04-09 22:39:27.433,FORWARD,24
220.0,13222.688522659366,1686.7743953197476,-60929.000190377265,-58017.01492273986,-34888.65910633315,-32231.014338852685,-20648.85445223504,-21604.771507355155,0.0,0.0,0.0,193.0,1.0,155.0,0.0,45.0,3.0,251.0,411.0,45.0,1019.0,1744252767.433462,0.0,2025-04-09 22:39:27.433,FORWARD,24
221.0,13167.36795513248,1692.5187936447614,-60898.60181791805,-57958.207483077946,-34853.320998349314,-32209.400201964403,-20539.375607892944,-21581.816265799556,0.0,0.0,0.0,193.0,1.0,154.0,0.0,44.0,3.0,249.0,410.0,44.0,1017.0,1744252767.4334705,0.0,2025-04-09 22:39:27.433,FORWARD,24
222.0,13099.552762455078,1680.4488516388956,-60936.5327282587,-58020.23357394142,-34875.02454221541,-32235.23881855474,-20520.06370068356,-21609.04069054612,0.0,0.0,0.0,193.0,1.0,155.0,0.0,44.0,3.0,252.0,411.0,44.0,1020.0,1744252767.4334795,0.0,2025-04-09 22:39:27.433,FORWARD,24
223.0,13124.40790228938,1650.631624535516,-60941.31600157214,-57973.719593729926,-34930.05453706438,-32288.793598269654,-20380.253539115613,-21652.604240489512,0.0,0.0,0.0,193.0,1.0,154.0,0.0,44.0,3.0,250.0,410.0,44.0,1018.0,1744252767.4334881,0.0,2025-04-09 22:39:27.433,FORWARD,24
224.0,13213.859583599518,1672.75985154627,-60946.188681863394,-58021.30645767528,-34915.123571768236,-32256.651789742922,-20557.726390090753,-21623.681083164345,0.0,0.0,0.0,193.0,1.0,154.0,0.0,44.0,3.0,253.0,410.0,44.0,1021.0,1744252767.4334967,0.0,2025-04-09 22:39:27.433,FORWARD,24
225.0,13170.787772034142,1688.2496104537977,-60897.126602783996,-57963.90717791405,-34849.87882970319,-32196.972632047255,-20610.610617472008,-21558.726913777224,0.0,0.0,0.0,193.0,1.0,154.0,0.0,44.0,3.0,250.0,410.0,44.0,1018.0,1744252767.4335103,0.0,2025-04-09 22:39:27.433,FORWARD,24
