Sample Index,EXG Channel 0,EXG Channel 1,EXG Channel 2,EXG Channel 3,EXG Channel 4,EXG Channel 5,EXG Channel 6,EXG Channel 7,Accel Channel 0,Accel Channel 1,Accel Channel 2,Not Used,Digital Channel 0 (D11),Digital Channel 1 (D12),Digital Channel 2 (D13),Digital Channel 3 (D17),Not Used,Digital Channel 4 (D18),Analog Channel 0,Analog Channel 1,Analog Channel 2,Timestamp,Marker Channel,Timestamp (Formatted),Stimulus_Direction,Stimulus_Number
245.0,26711.42985957025,29577.839920263283,-31933.35615794136,-28436.470441397483,-36579.88149879951,-32070.327647963484,-8171.596607160164,-38366.36702613438,0.0,0.0,0.0,193.0,0.0,194.0,0.0,1.0,0.0,179.0,194.0,1.0,179.0,1744420367.5580325,0.0,2025-04-11 21:12:47.558,FORWARD,9
246.0,26724.99736845462,29587.987612245994,-31926.248303204575,-28427.060356981798,-36571.8795742845,-32069.947668307745,-8183.063052065737,-38361.784918521036,0.0,0.0,0.0,193.0,0.0,194.0,0.0,1.0,0.0,179.0,194.0,1.0,179.0,1744420367.5583675,0.0,2025-04-11 21:12:47.558,FORWARD,9
247.0,26758.212060715206,29586.75826630095,-31945.761376114056,-28442.34895018923,-36591.28088847171,-32095.07102907551,-7700.555944509023,-38361.226124909655,0.0,0.0,0.0,193.0,0.0,194.0,0.0,1.0,0.0,179.0,194.0,1.0,179.0,1744420367.5584157,0.0,2025-04-11 21:12:47.558,FORWARD,9
248.0,26743.214040185696,29562.014885188924,-31947.03542554801,-28450.373226448683,-36585.22356572432,-32085.370371981906,-7770.293387209581,-38384.47193914318,0.0,0.0,0.0,193.0,0.0,193.0,0.0,1.0,0.0,179.0,193.0,1.0,179.0,1744420367.5584614,0.0,2025-04-11 21:12:47.558,FORWARD,9
249.0,26711.698080503713,29570.843824248772,-31939.547591155482,-28438.81737456529,-36574.74059757478,-32066.68431361727,-8106.240106372847,-38356.956941718694,0.0,0.0,0.0,193.0,0.0,194.0,0.0,1.0,0.0,179.0,194.0,1.0,179.0,1744420367.5585065,0.0,2025-04-11 21:12:47.558,FORWARD,9
250.0,26715.788449739033,29579.762170286438,-31933.9373032972,-28434.279970440864,-36573.086568485094,-32067.421921184294,-8226.045456653292,-38367.506965101595,0.0,0.0,0.0,193.0,0.0,193.0,0.0,1.0,0.0,179.0,193.0,1.0,179.0,1744420367.558554,0.0,2025-04-11 21:12:47.558,FORWARD,9
251.0,26752.177089712273,29582.71260055454,-31949.047082548987,-28447.780424091867,-36590.67739137142,-32092.411171485328,-7792.041634564595,-38373.743101804626,0.0,0.0,0.0,193.0,0.0,193.0,0.0,1.0,0.0,179.0,193.0,1.0,179.0,1744420367.5586,0.0,2025-04-11 21:12:47.558,FORWARD,9
252.0,26737.804918027512,29555.644638019163,-31958.41246347576,-28468.72400864649,-36596.24297574079,-32097.21679654322,-7728.987363456174,-38397.27948871607,0.0,0.0,0.0,193.0,0.0,193.0,0.0,1.0,0.0,179.0,193.0,1.0,179.0,1744420367.5586667,0.0,2025-04-11 21:12:47.558,FORWARD,9
253.0,26707.38419382384,29560.539670054874,-31951.505774439072,-28452.742511360946,-36581.46847265583,-32078.754255623135,-8054.026431325249,-38370.77031979207,0.0,0.0,0.0,193.0,0.0,193.0,0.0,1.0,0.0,179.0,193.0,1.0,179.0,1744420367.5587125,0.0,2025-04-11 21:12:47.558,FORWARD,9
254.0,26712.52509504856,29578.42106561912,-31937.334768454406,-28436.58220011976,-36563.788242791685,-32065.05263627203,-8244.753866762385,-38358.74508127512,0.0,0.0,0.0,193.0,0.0,193.0,0.0,1.0,0.0,178.0,193.0,1.0,178.0,1744420367.5587573,0.0,2025-04-11 21:12:47.558,FORWARD,9
255.0,26752.33355192346,29584.52309185542,-31944.59908540238,-28437.87860129817,-36573.95828651885,-32075.49090093266,-7838.533263031633,-38332.995871662606,0.0,0.0,0.0,193.0,0.0,193.0,0.0,1.0,0.0,179.0,193.0,1.0,179.0,1744420367.558802,0.0,2025-04-11 21:12:47.558,FORWARD,9
0.0,26748.28788617705,29553.431815318087,-31962.52518445554,-28464.29836324434,-36589.939783804395,-32092.411171485328,-7666.357775492404,-38382.81791005348,0.0,0.0,0.0,193.0,0.0,193.0,0.0,1.0,0.0,179.0,193.0,1.0,179.0,1744420367.5588474,0.0,2025-04-11 21:12:47.558,FORWARD,9
1.0,26725.645569043827,29558.975047943004,-31952.08691979491,-28449.34504620374,-36577.489862142786,-32076.854357344433,-7996.314227141646,-38380.247459441125,0.0,0.0,0.0,193.0,0.0,194.0,0.0,1.0,0.0,179.0,194.0,1.0,179.0,1744420367.5588915,0.0,2025-04-11 21:12:47.558,FORWARD,9
2.0,26722.918656220278,29584.76896104443,-31934.116117252845,-28428.312054671296,-36560.12255670101,-32056.737787334656,-8255.929738990038,-38362.94720923271,0.0,0.0,0.0,193.0,0.0,193.0,0.0,1.0,0.0,180.0,193.0,1.0,180.0,1744420367.5590003,0.0,2025-04-11 21:12:47.559,FORWARD,9
3.0,26736.441461615737,29573.123702183213,-31960.22295477664,-28446.975761291476,-36589.47039717083,-32093.953441852744,-7937.059752590627,-38365.137680189335,0.0,0.0,0.0,193.0,0.0,194.0,0.0,1.0,0.0,179.0,194.0,1.0,179.0,1744420367.5590727,0.0,2025-04-11 21:12:47.559,FORWARD,9
4.0,26755.775720569578,29564.60768754574,-31968.51545196956,-28468.20991852402,-36598.612260653055,-32101.68714543428,-7654.176074764261,-38388.60701186741,0.0,0.0,0.0,193.0,0.0,193.0,0.0,1.0,0.0,179.0,193.0,1.0,179.0,1744420367.5591495,0.0,2025-04-11 21:12:47.559,FORWARD,9
5.0,26742.90111576332,29572.073170193813,-31947.437756948206,-28444.181793234566,-36577.914545287436,-32072.562822409014,-7946.581595728589,-38366.814061023484,0.0,0.0,0.0,193.0,0.0,193.0,0.0,1.0,0.0,179.0,193.0,1.0,179.0,1744420367.559341,0.0,2025-04-11 21:12:47.559,FORWARD,9
6.0,26715.207304383195,29578.935155741594,-31945.873134836333,-28437.655083853613,-36576.305219686656,-32071.936973564265,-8246.139674918613,-38363.9083342443,0.0,0.0,0.0,193.0,0.0,193.0,0.0,1.0,0.0,179.0,193.0,1.0,179.0,1744420367.5594196,0.0,2025-04-11 21:12:47.559,FORWARD,9
7.0,26732.127574935865,29579.918632497625,-31954.836184362914,-28444.137089745655,-36592.91256581695,-32093.796979641556,-8057.267434271269,-38368.356331390896,0.0,0.0,0.0,193.0,0.0,193.0,0.0,1.0,0.0,179.0,193.0,1.0,179.0,1744420367.5594943,0.0,2025-04-11 21:12:47.559,FORWARD,9
8.0,26761.00602877212,29578.71163829704,-31963.016922833554,-28458.732778874968,-36604.758990378265,-32109.9796426272,-7671.319862761482,-38397.90533756081,0.0,0.0,0.0,193.0,0.0,193.0,0.0,1.0,0.0,179.0,193.0,1.0,179.0,1744420367.559568,0.0,2025-04-11 21:12:47.559,FORWARD,9
9.0,26741.560011096004,29559.980876443493,-31954.813832618456,-28448.71919735899,-36598.85812984206,-32086.91264234932,-7900.291132961647,-38395.759570093105,0.0,0.0,0.0,193.0,0.0,193.0,0.0,1.0,0.0,179.0,193.0,1.0,179.0,1744420367.5596416,0.0,2025-04-11 21:12:47.559,FORWARD,9
10.0,26722.650435286814,29575.671801051118,-31940.866344078346,-28432.58123786226,-36582.29548720068,-32065.16439499431,-8228.615907265652,-38369.94330524722,0.0,0.0,0.0,193.0,0.0,193.0,0.0,1.0,0.0,179.0,193.0,1.0,179.0,1744420367.5597172,0.0,2025-04-11 21:12:47.559,FORWARD,9
11.0,26734.966246481687,29579.80687377535,-31933.55732364146,-28424.847534280725,-36572.460719640345,-32069.59004039646,-8127.340153138656,-38353.805345750494,0.0,0.0,0.0,193.0,0.0,193.0,0.0,1.0,0.0,179.0,193.0,1.0,179.0,1744420367.559821,0.0,2025-04-11 21:12:47.559,FORWARD,9
12.0,26763.844700317946,29573.727199283505,-31956.311399496964,-28449.38974969265,-36600.981545565315,-32103.29647103506,-7668.637653426845,-38379.487500129646,0.0,0.0,0.0,193.0,0.0,193.0,0.0,1.0,0.0,179.0,193.0,1.0,179.0,1744420367.5598953,0.0,2025-04-11 21:12:47.559,FORWARD,9
13.0,26745.739787309147,29554.79527172986,-31956.221992519142,-28449.63561888166,-36600.40040020948,-32095.07102907551,-7831.492463528212,-38399.49231141714,0.0,0.0,0.0,193.0,0.0,194.0,0.0,1.0,0.0,179.0,194.0,1.0,179.0,1744420367.5599792,0.0,2025-04-11 21:12:47.559,FORWARD,9
14.0,26715.453173572205,29565.45705383504,-31948.264771493054,-28434.414080907594,-36589.135121004,-32078.64249690086,-8163.460572178433,-38368.80336628001,0.0,0.0,0.0,193.0,0.0,194.0,0.0,1.0,0.0,179.0,194.0,1.0,179.0,1744420367.560084,0.0,2025-04-11 21:12:47.560,FORWARD,9
15.0,26733.66984530328,29585.86419652274,-31936.08307076491,-28420.265426667385,-36581.08849300009,-32067.801900840033,-8202.844345908683,-38358.96859871967,0.0,0.0,0.0,193.0,0.0,193.0,0.0,1.0,0.0,179.0,193.0,1.0,179.0,1744420367.5601687,0.0,2025-04-11 21:12:47.560,FORWARD,9
16.0,26763.91175555131,29590.401600647165,-31953.830355862425,-28437.87860129817,-36601.51798743224,-32093.662869174826,-7738.889186249875,-38369.49627035812,0.0,0.0,0.0,193.0,0.0,194.0,0.0,1.0,0.0,180.0,194.0,1.0,180.0,1744420367.5602376,0.0,2025-04-11 21:12:47.560,FORWARD,9
17.0,26753.00410425712,29567.42400734711,-31953.293913995498,-28448.54038340335,-36594.07485652863,-32088.521967950102,-7780.01639604764,-38393.680857858766,0.0,0.0,0.0,193.0,0.0,193.0,0.0,0.0,0.0,179.0,193.0,0.0,179.0,1744420367.5603297,0.0,2025-04-11 21:12:47.560,FORWARD,9
18.0,26721.018757941576,29574.37539987271,-31947.661274392758,-28434.16821171859,-36585.5364901467,-32071.758159608624,-8107.111824406604,-38371.12794770336,0.0,0.0,0.0,193.0,0.0,193.0,0.0,1.0,0.0,179.0,193.0,1.0,179.0,1744420367.5603967,0.0,2025-04-11 21:12:47.560,FORWARD,9
19.0,26724.706795776703,29586.80296978986,-31934.853724819866,-28419.997205733922,-36572.41601615143,-32058.369464679894,-8252.688736044018,-38364.578886577954,0.0,0.0,0.0,193.0,0.0,193.0,0.0,1.0,0.0,179.0,193.0,1.0,179.0,1744420367.5604644,0.0,2025-04-11 21:12:47.560,FORWARD,9
20.0,26760.268421205095,29586.780618045406,-31944.107347024365,-28425.987473247944,-36583.2342604678,-32078.709552134223,-7807.598448705488,-38350.474935826656,0.0,0.0,0.0,193.0,0.0,193.0,0.0,1.0,0.0,178.0,193.0,1.0,178.0,1744420367.5606632,0.0,2025-04-11 21:12:47.560,FORWARD,9
21.0,26760.134310738365,29568.072207936315,-31945.02376854703,-28439.73379608796,-36580.88732729999,-32079.82713935699,-7720.963087196718,-38388.74112233414,0.0,0.0,0.0,193.0,0.0,193.0,0.0,1.0,0.0,179.0,193.0,1.0,179.0,1744420367.560734,0.0,2025-04-11 21:12:47.560,FORWARD,9
22.0,26734.116880192385,29574.174234172613,-31936.328939953917,-28425.205162192007,-36572.70658882935,-32065.186746738764,-8043.2081870088805,-38368.33397964644,0.0,0.0,0.0,193.0,0.0,193.0,0.0,0.0,0.0,178.0,193.0,0.0,178.0,1744420367.5608022,0.0,2025-04-11 21:12:47.560,FORWARD,9
23.0,26728.014853956087,29585.037181977892,-31925.711861337648,-28415.929188243055,-36569.3314754166,-32058.637685613357,-8243.949203961993,-38363.77422377756,0.0,0.0,0.0,193.0,0.0,193.0,0.0,1.0,0.0,179.0,193.0,1.0,179.0,1744420367.5608659,0.0,2025-04-11 21:12:47.560,FORWARD,9
24.0,26747.751444310124,29583.450208121565,-31942.632131890314,-28428.446165138026,-36592.97962105031,-32081.659982402325,-7867.724641290265,-38346.09399391341,0.0,0.0,0.0,193.0,0.0,193.0,0.0,0.0,0.0,179.0,193.0,0.0,179.0,1744420367.5609336,0.0,2025-04-11 21:12:47.560,FORWARD,9
25.0,26751.14890946733,29565.792330001874,-31955.909068096767,-28453.189546250054,-36603.82021711114,-32100.50250297815,-7687.457822258213,-38398.24061372765,0.0,0.0,0.0,193.0,0.0,194.0,0.0,0.0,0.0,179.0,194.0,0.0,179.0,1744420367.561003,0.0,2025-04-11 21:12:47.561,FORWARD,9
26.0,26729.802993512512,29567.84869049176,-31942.118041767844,-28435.01757800789,-36585.93882154689,-32078.709552134223,-8010.239363937303,-38387.82470081147,0.0,0.0,0.0,193.0,0.0,193.0,0.0,0.0,0.0,180.0,193.0,0.0,180.0,1744420367.561097,0.0,2025-04-11 21:12:47.561,FORWARD,9
27.0,26719.968225952176,29583.874891266216,-31929.332843939406,-28419.617226078182,-36572.14779521797,-32063.152737993332,-8273.92289327656,-38368.17751743526,0.0,0.0,0.0,193.0,0.0,193.0,0.0,0.0,0.0,179.0,193.0,0.0,179.0,1744420367.5611682,0.0,2025-04-11 21:12:47.561,FORWARD,9
28.0,26744.62220008638,29581.259737164946,-31942.922704568235,-28428.20029594902,-36589.5374524042,-32083.269308003106,-7982.612607790543,-38355.839354495925,0.0,0.0,0.0,193.0,0.0,193.0,0.0,0.0,0.0,179.0,193.0,0.0,179.0,1744420367.561269,0.0,2025-04-11 21:12:47.561,FORWARD,9
29.0,26762.280078206073,29569.033332947893,-31964.581544945428,-28458.911592830613,-36608.871711358035,-32100.480151233693,-7680.953464621719,-38386.12596823287,0.0,0.0,0.0,193.0,0.0,193.0,0.0,0.0,0.0,179.0,193.0,0.0,179.0,1744420367.5613492,0.0,2025-04-11 21:12:47.561,FORWARD,9
30.0,26740.040092473042,29560.405559588144,-31960.33471349892,-28450.35087470423,-36603.641403155496,-32084.67746790379,-7964.865322693029,-38393.16676773629,0.0,0.0,0.0,193.0,0.0,193.0,0.0,0.0,0.0,178.0,193.0,0.0,178.0,1744420367.5614295,0.0,2025-04-11 21:12:47.561,FORWARD,9
31.0,26711.966301437176,29562.774844500407,-31946.52133542554,-28435.509316385906,-36590.3868186935,-32069.701799118735,-8267.485590873432,-38373.72075006017,0.0,0.0,0.0,193.0,0.0,193.0,0.0,0.0,0.0,179.0,193.0,0.0,179.0,1744420367.5615091,0.0,2025-04-11 21:12:47.561,FORWARD,9
32.0,26730.875877246366,29567.71458002503,-31942.676835379225,-28426.72508081497,-36585.469434913335,-32077.502557933636,-8074.992367624327,-38362.18724992123,0.0,0.0,0.0,193.0,0.0,193.0,0.0,0.0,0.0,179.0,193.0,0.0,179.0,1744420367.5616128,0.0,2025-04-11 21:12:47.561,FORWARD,9
33.0,26752.735883323658,29564.09359742327,-31961.251135021586,-28445.25467696842,-36610.5927956811,-32100.569558211515,-7673.599740695923,-38394.61963112588,0.0,0.0,0.0,193.0,0.0,194.0,0.0,0.0,0.0,180.0,194.0,0.0,180.0,1744420367.5616927,0.0,2025-04-11 21:12:47.561,FORWARD,9
34.0,26734.228638914665,29551.28604785038,-31952.46689945065,-28437.140993731144,-36605.943632834395,-32080.095360290452,-7895.954894537318,-38389.92576479027,0.0,0.0,0.0,193.0,0.0,193.0,0.0,0.0,0.0,179.0,193.0,0.0,179.0,1744420367.5617735,0.0,2025-04-11 21:12:47.561,FORWARD,9
35.0,26716.056670672497,29567.491062580477,-31930.51748639554,-28411.86117075219,-36579.099187743566,-32052.043920999044,-8214.847232681184,-38349.73732825963,0.0,0.0,0.0,193.0,0.0,193.0,0.0,0.0,0.0,180.0,193.0,0.0,180.0,1744420367.5618775,0.0,2025-04-11 21:12:47.561,FORWARD,9
36.0,26730.071214445976,29576.208242918045,-31924.862495048346,-28405.088592182234,-36568.884440527494,-32058.77179608009,-8137.644307332553,-38345.75871774658,0.0,0.0,0.0,193.0,0.0,194.0,0.0,0.0,0.0,180.0,194.0,0.0,180.0,1744420367.5619626,0.0,2025-04-11 21:12:47.561,FORWARD,9
37.0,26758.14500548184,29568.51924282542,-31952.17632677273,-28433.34119717374,-36602.05442929917,-32095.8756918759,-7682.182810566761,-38372.53610760404,0.0,0.0,0.0,193.0,0.0,194.0,0.0,0.0,0.0,180.0,194.0,0.0,180.0,1744420367.562044,0.0,2025-04-11 21:12:47.562,FORWARD,9
38.0,26743.035226230055,29556.315190352823,-31952.17632677273,-28439.331464687762,-36605.5413014342,-32095.383953497883,-7837.281565342137,-38413.14922727933,0.0,0.0,0.0,193.0,0.0,194.0,0.0,0.0,0.0,179.0,194.0,0.0,179.0,1744420367.5621245,0.0,2025-04-11 21:12:47.562,FORWARD,9
39.0,26709.79818222501,29564.317114867823,-31945.26963773604,-28430.25665643891,-36597.49467343029,-32085.370371981906,-8187.801621890262,-38397.05597127151,0.0,0.0,0.0,193.0,0.0,194.0,0.0,0.0,0.0,179.0,194.0,0.0,179.0,1744420367.5622048,0.0,2025-04-11 21:12:47.562,FORWARD,9
40.0,26716.838981728433,29569.36860911472,-31931.098631751378,-28420.421888878573,-36579.94855403287,-32073.34513346495,-8225.19609036399,-38368.579848835456,0.0,0.0,0.0,193.0,0.0,194.0,0.0,0.0,0.0,179.0,194.0,0.0,179.0,1744420367.5622969,0.0,2025-04-11 21:12:47.562,FORWARD,9
41.0,26749.29371467754,29569.972106215017,-31949.628227904825,-28438.347987931727,-36602.12148453254,-32096.233319787185,-7739.895014750364,-38363.41659586628,0.0,0.0,0.0,193.0,0.0,193.0,0.0,0.0,0.0,179.0,193.0,0.0,179.0,1744420367.5624435,0.0,2025-04-11 21:12:47.562,FORWARD,9
42.0,26743.90694426381,29556.00226593045,-31946.27546623653,-28440.560810632804,-36599.46162694236,-32078.597793411947,-7776.283654723604,-38389.03169501206,0.0,0.0,0.0,193.0,0.0,193.0,0.0,0.0,0.0,179.0,193.0,0.0,179.0,1744420367.5625114,0.0,2025-04-11 21:12:47.562,FORWARD,9
43.0,26714.71556600518,29563.55715555634,-31941.872172578835,-28428.40146164912,-36589.89508031548,-32061.945743792745,-8117.192461155947,-38366.97052323467,0.0,0.0,0.0,193.0,0.0,193.0,0.0,0.0,0.0,179.0,193.0,0.0,179.0,1744420367.562579,0.0,2025-04-11 21:12:47.562,FORWARD,9
44.0,26717.509534062094,29578.37636213021,-31928.036442761,-28415.14687718712,-36571.61135335104,-32054.34615067794,-8244.82092199575,-38360.667331298275,0.0,0.0,0.0,193.0,0.0,193.0,0.0,0.0,0.0,179.0,193.0,0.0,179.0,1744420367.562648,0.0,2025-04-11 21:12:47.562,FORWARD,9
45.0,26748.19847919923,29578.532824341397,-31946.52133542554,-28426.859191281703,-36594.544243162185,-32085.45977895973,-7805.385626004413,-38365.36119763389,0.0,0.0,0.0,193.0,0.0,193.0,0.0,0.0,0.0,179.0,193.0,0.0,179.0,1744420367.5627148,0.0,2025-04-11 21:12:47.562,FORWARD,9
46.0,26749.24901118863,29561.38903634418,-31949.22589650463,-28440.62786586617,-36603.12731303302,-32087.06910456051,-7738.598613571956,-38408.65652664382,0.0,0.0,0.0,193.0,0.0,193.0,0.0,0.0,0.0,179.0,193.0,0.0,179.0,1744420367.562784,0.0,2025-04-11 21:12:47.562,FORWARD,9
47.0,26720.683481774748,29564.00419044545,-31939.03350103301,-28425.026348236366,-36589.3362867041,-32074.01568579861,-8070.298501288713,-38396.00543928211,0.0,0.0,0.0,193.0,0.0,194.0,0.0,0.0,0.0,180.0,194.0,0.0,180.0,1744420367.5628848,0.0,2025-04-11 21:12:47.562,FORWARD,9
48.0,26711.832190970446,29575.492987095477,-31928.684643350203,-28413.33638588624,-36577.26634469823,-32060.492880403148,-8282.394204425122,-38375.44183438323,0.0,0.0,0.0,193.0,0.0,193.0,0.0,0.0,0.0,178.0,193.0,0.0,178.0,1744420367.5629635,0.0,2025-04-11 21:12:47.562,FORWARD,9
49.0,26741.023569229077,29575.783559773394,-31938.675873121727,-28415.459801609493,-36589.448045426376,-32073.792168354055,-7904.113281263505,-38334.89576994131,0.0,0.0,0.0,193.0,0.0,193.0,0.0,0.0,0.0,180.0,193.0,0.0,180.0,1744420367.5630424,0.0,2025-04-11 21:12:47.563,FORWARD,9
50.0,26747.63968558785,29552.202469373045,-31950.254076749574,-28439.28676119885,-36602.25559499927,-32089.661906917325,-7696.420871784791,-38389.03169501206,0.0,0.0,0.0,193.0,0.0,194.0,0.0,0.0,0.0,179.0,194.0,0.0,179.0,1744420367.5631464,0.0,2025-04-11 21:12:47.563,FORWARD,9
51.0,26722.851600986913,29547.75447222644,-31943.727367368625,-28426.456859881506,-36595.6394786405,-32077.45785444473,-8004.740834801297,-38384.24842169863,0.0,0.0,0.0,193.0,0.0,194.0,0.0,0.0,0.0,179.0,194.0,0.0,179.0,1744420367.563225,0.0,2025-04-11 21:12:47.563,FORWARD,9
52.0,26713.217999126675,29571.782597515896,-31926.18124797121,-28406.742621271926,-36579.94855403287,-32057.9671332797,-8275.599274110707,-38376.64882858382,0.0,0.0,0.0,193.0,0.0,194.0,0.0,0.0,0.0,180.0,194.0,0.0,180.0,1744420367.5633035,0.0,2025-04-11 21:12:47.563,FORWARD,9
53.0,26740.688293062245,29580.745647042473,-31927.1870764717,-28400.126504913154,-36585.82706282462,-32060.62699086988,-8006.864250524552,-38344.797592735005,0.0,0.0,0.0,193.0,0.0,193.0,0.0,0.0,0.0,179.0,193.0,0.0,179.0,1744420367.5634048,0.0,2025-04-11 21:12:47.563,FORWARD,9
54.0,26751.52888912307,29556.18107988609,-31949.36000697136,-28432.357720417705,-36608.40232472448,-32087.404380727337,-7675.320825018982,-38372.625514581865,0.0,0.0,0.0,193.0,0.0,193.0,0.0,0.0,0.0,179.0,193.0,0.0,179.0,1744420367.5634878,0.0,2025-04-11 21:12:47.563,FORWARD,9
55.0,26737.38023488286,29552.13541413968,-31936.351291698375,-28418.54434234433,-36591.8396820831,-32066.170223494795,-7937.0821043350825,-38375.3077239165,0.0,0.0,0.0,193.0,0.0,193.0,0.0,0.0,0.0,179.0,193.0,0.0,179.0,1744420367.5635629,0.0,2025-04-11 21:12:47.563,FORWARD,9
56.0,26718.358900351395,29569.61447830373,-31923.02965200301,-28399.99239444642,-36575.4335016529,-32044.377272650872,-8241.132884160625,-38349.58086604844,0.0,0.0,0.0,193.0,0.0,193.0,0.0,0.0,0.0,179.0,193.0,0.0,179.0,1744420367.56366,0.0,2025-04-11 21:12:47.563,FORWARD,9
57.0,26737.33553139395,29573.99542021697,-31926.471820649127,-28401.735830513935,-36578.94272553238,-32058.05654025752,-8082.4131467834895,-38340.796630477504,0.0,0.0,0.0,193.0,0.0,193.0,0.0,0.0,0.0,179.0,193.0,0.0,179.0,1744420367.5637355,0.0,2025-04-11 21:12:47.563,FORWARD,9
58.0,26761.274249705584,29565.077074179302,-31945.671969136238,-28431.709519828502,-36598.99224030879,-32087.06910456051,-7675.589045952445,-38373.69839831572,0.0,0.0,0.0,193.0,0.0,193.0,0.0,0.0,0.0,179.0,193.0,0.0,179.0,1744420367.5638108,0.0,2025-04-11 21:12:47.563,FORWARD,9
59.0,26745.873897775877,29550.123757138703,-31939.189963244196,-28426.680377326058,-36586.98935353629,-32071.82521484199,-7881.336853663547,-38381.34269491943,0.0,0.0,0.0,193.0,0.0,193.0,0.0,0.0,0.0,179.0,193.0,0.0,179.0,1744420367.5638852,0.0,2025-04-11 21:12:47.563,FORWARD,9
60.0,26716.906036961802,29557.924515953604,-31936.395995187286,-28418.119659199678,-36582.67546685642,-32060.135252491866,-8202.173793575024,-38354.07356668396,0.0,0.0,0.0,193.0,0.0,193.0,0.0,0.0,0.0,178.0,193.0,0.0,178.0,1744420367.563974,0.0,2025-04-11 21:12:47.563,FORWARD,9
61.0,26730.58530456845,29565.591164301775,-31932.864419563346,-28415.2586359094,-36578.56274587664,-32064.560897894014,-8164.466400678922,-38351.234895138135,0.0,0.0,0.0,193.0,0.0,193.0,0.0,0.0,0.0,179.0,193.0,0.0,179.0,1744420367.5640619,0.0,2025-04-11 21:12:47.564,FORWARD,9
62.0,26761.58717412796,29565.367646857223,-31950.41053896076,-28430.793098305836,-36593.7395803618,-32085.348020237452,-7700.2877235755595,-38360.91320048728,0.0,0.0,0.0,193.0,0.0,193.0,0.0,0.0,0.0,178.0,193.0,0.0,178.0,1744420367.5641725,0.0,2025-04-11 21:12:47.564,FORWARD,9
63.0,26743.459909374706,29543.597047757754,-31953.428024462228,-28436.80571756431,-36595.4383129404,-32079.469511445706,-7822.529414001634,-38394.016134025595,0.0,0.0,0.0,193.0,0.0,193.0,0.0,0.0,0.0,179.0,193.0,0.0,179.0,1744420367.5642612,0.0,2025-04-11 21:12:47.564,FORWARD,9
64.0,26714.67086251627,29558.684475265083,-31948.93532382671,-28424.758127302903,-36591.549109405176,-32064.49384266065,-8172.557732171743,-38373.16195644879,0.0,0.0,0.0,193.0,0.0,193.0,0.0,0.0,0.0,179.0,193.0,0.0,179.0,1744420367.56435,0.0,2025-04-11 21:12:47.564,FORWARD,9
65.0,26726.62904579986,29569.435664348086,-31933.222047474632,-28408.44135385053,-36574.29356268568,-32051.507479132117,-8237.422494581044,-38348.239761381126,0.0,0.0,0.0,193.0,0.0,193.0,0.0,0.0,0.0,179.0,193.0,0.0,179.0,1744420367.5644712,0.0,2025-04-11 21:12:47.564,FORWARD,9
66.0,26760.022552016086,29569.301553881356,-31948.532992426517,-28418.09730745522,-36592.2867169722,-32077.234337000173,-7766.91827379683,-38350.027900937544,0.0,0.0,0.0,193.0,0.0,193.0,0.0,0.0,0.0,178.0,193.0,0.0,178.0,1744420367.5645592,0.0,2025-04-11 21:12:47.564,FORWARD,9
67.0,26746.522098365083,29548.737948982474,-31955.014998318555,-28432.849458795725,-36599.171054264436,-32085.705648148734,-7792.756890387165,-38403.582680652464,0.0,0.0,0.0,193.0,0.0,193.0,0.0,0.0,0.0,180.0,193.0,0.0,180.0,1744420367.5646484,0.0,2025-04-11 21:12:47.564,FORWARD,9
68.0,26715.43082182775,29559.198565387556,-31947.057777292466,-28416.756202787903,-36582.89898430097,-32070.8193863415,-8123.428597858978,-38381.34269491943,0.0,0.0,0.0,193.0,0.0,194.0,0.0,0.0,0.0,179.0,194.0,0.0,179.0,1744420367.5647244,0.0,2025-04-11 21:12:47.564,FORWARD,9
69.0,26714.894379960824,29573.973068472515,-31932.08210850741,-28398.695993268015,-36568.9291440164,-32046.031301740564,-8260.221273925457,-38345.46814506866,0.0,0.0,0.0,193.0,0.0,193.0,0.0,0.0,0.0,179.0,193.0,0.0,179.0,1744420367.5647988,0.0,2025-04-11 21:12:47.564,FORWARD,9
70.0,26738.743691294636,29565.52410906841,-31955.99847507459,-28416.979720232455,-36594.7901123512,-32081.369409724404,-7822.216489579259,-38349.08912767043,0.0,0.0,0.0,193.0,0.0,194.0,0.0,0.0,0.0,179.0,194.0,0.0,179.0,1744420367.5648737,0.0,2025-04-11 21:12:47.564,FORWARD,9
71.0,26740.084795961953,29545.22872510299,-31965.40855949027,-28440.33729318825,-36606.211853767854,-32095.96509885372,-7733.860043747431,-38411.40579121182,0.0,0.0,0.0,193.0,0.0,194.0,0.0,0.0,0.0,180.0,194.0,0.0,180.0,1744420367.5649705,0.0,2025-04-11 21:12:47.564,FORWARD,9
72.0,26718.62712128486,29551.956600184036,-31950.209373260663,-28420.77951678986,-36589.783321593204,-32070.43940668576,-8066.699870431408,-38385.38836066584,0.0,0.0,0.0,193.0,0.0,194.0,0.0,0.0,0.0,179.0,194.0,0.0,179.0,1744420367.565045,0.0,2025-04-11 21:12:47.565,FORWARD,9
73.0,26709.217036869173,29565.792330001874,-31937.0888992654,-28409.91656898458,-36574.695894085875,-32059.39764492484,-8285.992835282426,-38376.62647683937,0.0,0.0,0.0,193.0,0.0,193.0,0.0,0.0,0.0,179.0,193.0,0.0,179.0,1744420367.565122,0.0,2025-04-11 21:12:47.565,FORWARD,9
74.0,26728.86422024539,29565.121777668213,-31955.03735006301,-28424.020519735877,-36595.304202473664,-32086.532662693582,-7938.266746791214,-38365.003569722605,0.0,0.0,0.0,193.0,0.0,193.0,0.0,0.0,0.0,179.0,193.0,0.0,179.0,1744420367.5652096,0.0,2025-04-11 21:12:47.565,FORWARD,9
75.0,26738.25195291662,29548.84970770475,-31964.112158311866,-28447.579258391772,-36606.81535086815,-32098.423790743804,-7714.950467938241,-38393.34558169193,0.0,0.0,0.0,193.0,0.0,194.0,0.0,0.0,0.0,179.0,194.0,0.0,179.0,1744420367.5652976,0.0,2025-04-11 21:12:47.565,FORWARD,9
76.0,26717.91186546229,29547.530954781887,-31948.823565104434,-28427.753261059912,-36587.52579540322,-32074.06038928752,-8013.189794205403,-38364.80240402251,0.0,0.0,0.0,193.0,0.0,193.0,0.0,0.0,0.0,179.0,193.0,0.0,179.0,1744420367.5653863,0.0,2025-04-11 21:12:47.565,FORWARD,9
77.0,26703.8526181999,29561.836071233283,-31941.00045454508,-28415.86213300969,-36578.20511796536,-32064.940877549754,-8279.287311945835,-38360.22029640917,0.0,0.0,0.0,193.0,0.0,193.0,0.0,0.0,0.0,179.0,193.0,0.0,179.0,1744420367.5655053,0.0,2025-04-11 21:12:47.565,FORWARD,9
78.0,26726.941970222233,29564.942963712572,-31945.336692969406,-28417.270292910376,-36586.89994655847,-32081.883499846877,-8031.071189769649,-38361.6061045654,0.0,0.0,0.0,193.0,0.0,193.0,0.0,0.0,0.0,179.0,193.0,0.0,179.0,1744420367.565594,0.0,2025-04-11 21:12:47.565,FORWARD,9
79.0,26736.240295915642,29548.313265837824,-31966.213222290662,-28446.506374657914,-36611.732734648314,-32107.20802631474,-7695.52680200658,-38402.66625912979,0.0,0.0,0.0,193.0,0.0,193.0,0.0,0.0,0.0,179.0,193.0,0.0,179.0,1744420367.5656822,0.0,2025-04-11 21:12:47.565,FORWARD,9
80.0,26712.793315982024,29538.433794788576,-31958.725387898136,-28434.16821171859,-36604.64723165599,-32083.984563825677,-7952.236587075781,-38391.40097992432,0.0,0.0,0.0,193.0,0.0,194.0,0.0,0.0,0.0,179.0,194.0,0.0,179.0,1744420367.565796,0.0,2025-04-11 21:12:47.565,FORWARD,9
81.0,26698.197626852707,29557.544536297864,-31942.85564933487,-28411.95057773001,-36588.95630704836,-32058.01183676861,-8272.022994997858,-38363.57305807746,0.0,0.0,0.0,193.0,0.0,193.0,0.0,0.0,0.0,179.0,193.0,0.0,179.0,1744420367.5658789,0.0,2025-04-11 21:12:47.565,FORWARD,9
82.0,26716.347243350418,29563.490100322975,-31939.771108600034,-28406.966138716478,-36585.670600613426,-32063.73388334917,-8131.94461249645,-38348.79855499251,0.0,0.0,0.0,193.0,0.0,193.0,0.0,0.0,0.0,178.0,193.0,0.0,178.0,1744420367.5659535,0.0,2025-04-11 21:12:47.565,FORWARD,9
83.0,26735.033301715055,29555.62228627471,-31960.46882396565,-28433.92234252958,-36608.737600891305,-32091.897081362855,-7705.629790500378,-38371.82085178147,0.0,0.0,0.0,193.0,0.0,193.0,0.0,0.0,0.0,179.0,193.0,0.0,179.0,1744420367.566034,0.0,2025-04-11 21:12:47.566,FORWARD,9
84.0,26716.43665032824,29539.484326777976,-31956.780786130523,-28433.05062449582,-36604.401362466975,-32080.430636457284,-7913.679827890376,-38395.02196252608,0.0,0.0,0.0,193.0,0.0,193.0,0.0,0.0,0.0,179.0,193.0,0.0,179.0,1744420367.56611,0.0,2025-04-11 21:12:47.566,FORWARD,9
85.0,26691.581510493936,29552.738911239972,-31945.806079602968,-28418.700804555516,-36585.69295235789,-32062.43748217076,-8233.086256156714,-38359.63915105333,0.0,0.0,0.0,193.0,0.0,193.0,0.0,0.0,0.0,179.0,193.0,0.0,179.0,1744420367.566186,0.0,2025-04-11 21:12:47.566,FORWARD,9
86.0,26704.992557167123,29560.09263516577,-31936.708919609657,-28411.682356796548,-36577.86984179853,-32064.583249638472,-8200.095081340682,-38355.72759577365,0.0,0.0,0.0,193.0,0.0,193.0,0.0,0.0,0.0,178.0,193.0,0.0,178.0,1744420367.5662837,0.0,2025-04-11 21:12:47.566,FORWARD,9
87.0,26726.874914988868,29551.353103083744,-31963.486309467116,-28438.035063509356,-36607.37414447953,-32103.58704371298,-7734.418837358813,-38383.91314553179,0.0,0.0,0.0,193.0,0.0,193.0,0.0,0.0,0.0,178.0,193.0,0.0,178.0,1744420367.5663688,0.0,2025-04-11 21:12:47.566,FORWARD,9
88.0,26717.308368361995,29533.047024374846,-31955.193812274196,-28436.7610140754,-36597.80759785266,-32090.77949414009,-7871.345623892024,-38417.46311395921,0.0,0.0,0.0,193.0,0.0,193.0,0.0,0.0,0.0,179.0,193.0,0.0,179.0,1744420367.5664568,0.0,2025-04-11 21:12:47.566,FORWARD,9
89.0,26692.296766316507,29544.46876579151,-31942.922704568235,-28419.617226078182,-36580.46264415534,-32066.90783106182,-8207.180584333013,-38375.03950298304,0.0,0.0,0.0,193.0,0.0,193.0,0.0,0.0,0.0,179.0,193.0,0.0,179.0,1744420367.5665448,0.0,2025-04-11 21:12:47.566,FORWARD,9
90.0,26688.340507547917,29548.80500421584,-31942.296855723485,-28420.28777841184,-36581.64728661147,-32069.500633418636,-8268.424364140554,-38367.90929650179,0.0,0.0,0.0,193.0,0.0,193.0,0.0,0.0,0.0,179.0,193.0,0.0,179.0,1744420367.5666335,0.0,2025-04-11 21:12:47.566,FORWARD,9
91.0,26715.58728403894,29552.649504262154,-31962.301667010986,-28439.19735422103,-36605.42954271192,-32100.01076460013,-7808.537221972611,-38366.88111625685,0.0,0.0,0.0,193.0,0.0,194.0,0.0,0.0,0.0,180.0,194.0,0.0,180.0,1744420367.5667224,0.0,2025-04-11 21:12:47.566,FORWARD,9
92.0,26702.958548421688,29520.686509691062,-31970.683571181726,-28463.24783125494,-36611.68803115941,-32110.98547112769,-7807.732559172221,-38411.85282610093,0.0,0.0,0.0,193.0,0.0,193.0,0.0,0.0,0.0,179.0,193.0,0.0,179.0,1744420367.5668352,0.0,2025-04-11 21:12:47.566,FORWARD,9
93.0,26683.356068534384,29533.047024374846,-31954.210335518164,-28442.863040311702,-36595.41596119594,-32088.052581316544,-8154.274005207301,-38388.94228803424,0.0,0.0,0.0,193.0,0.0,194.0,0.0,0.0,0.0,179.0,194.0,0.0,179.0,1744420367.5669236,0.0,2025-04-11 21:12:47.566,FORWARD,9
94.0,26680.51739698856,29547.19567861506,-31940.776937100523,-28432.201258206518,-36581.24495521128,-32079.73773237917,-8323.387303756155,-38381.700322830715,0.0,0.0,0.0,193.0,0.0,194.0,0.0,0.0,0.0,179.0,194.0,0.0,179.0,1744420367.5670118,0.0,2025-04-11 21:12:47.567,FORWARD,9
95.0,26715.05084217201,29550.593143772265,-31952.377492472828,-28438.0127117649,-36595.77358910723,-32099.809598900036,-7907.935429565362,-38373.16195644879,0.0,0.0,0.0,193.0,0.0,194.0,0.0,0.0,0.0,179.0,194.0,0.0,179.0,1744420367.567092,0.0,2025-04-11 21:12:47.567,FORWARD,9
96.0,26713.32975784895,29526.27444580489,-31966.146167057297,-28461.50439518743,-36609.07287705813,-32110.471381005216,-7775.881323323408,-38413.819779613,0.0,0.0,0.0,193.0,0.0,194.0,0.0,0.0,0.0,180.0,194.0,0.0,180.0,1744420367.5671902,0.0,2025-04-11 21:12:47.567,FORWARD,9
97.0,26688.116990103365,29531.527105751888,-31954.389149473805,-28444.986456034956,-36592.95726930586,-32089.706610406236,-8083.329568306157,-38383.242593198134,0.0,0.0,0.0,193.0,0.0,194.0,0.0,0.0,0.0,179.0,194.0,0.0,179.0,1744420367.5672657,0.0,2025-04-11 21:12:47.567,FORWARD,9
98.0,26671.710809673168,29541.40657680113,-31945.448451691682,-28435.57637161927,-36587.65990586995,-32084.856281859433,-8324.59429795674,-38388.47290140067,0.0,0.0,0.0,193.0,0.0,194.0,0.0,0.0,0.0,179.0,194.0,0.0,179.0,1744420367.5673401,0.0,2025-04-11 21:12:47.567,FORWARD,9
99.0,26703.271472844062,29549.252039104944,-31950.18702151621,-28434.30232218532,-36598.3887432085,-32099.675488433302,-8001.522183599733,-38371.91025875929,0.0,0.0,0.0,193.0,0.0,194.0,0.0,0.0,0.0,179.0,194.0,0.0,179.0,1744420367.5674157,0.0,2025-04-11 21:12:47.567,FORWARD,9
100.0,26714.693214260726,29531.258884818424,-31960.960562343666,-28454.68711312856,-36610.48103695882,-32112.55009323956,-7749.662727077333,-38401.30280271802,0.0,0.0,0.0,193.0,0.0,193.0,0.0,0.0,0.0,179.0,193.0,0.0,179.0,1744420368.0377474,0.0,2025-04-11 21:12:48.037,FORWARD,9
101.0,26685.99357438011,29521.871152147192,-31959.015960576056,-28447.623961880683,-36610.413981725455,-32102.894139634867,-8051.523035946255,-38402.93448006326,0.0,0.0,0.0,193.0,0.0,194.0,0.0,0.0,0.0,179.0,194.0,0.0,179.0,1744420368.0379295,0.0,2025-04-11 21:12:48.037,FORWARD,9
102.0,26669.118007316352,29543.440585546567,-31941.7380621121,-28431.798926806325,-36588.64338262599,-32084.141026036865,-8333.825568416783,-38376.961753006195,0.0,0.0,0.0,193.0,0.0,193.0,0.0,0.0,0.0,178.0,193.0,0.0,178.0,1744420368.038012,0.0,2025-04-11 21:12:48.038,FORWARD,9
103.0,26696.543597763015,29552.358931584233,-31942.81094584596,-28429.83197329426,-36589.448045426376,-32095.585119197982,-8088.202248597414,-38362.6566365548,0.0,0.0,0.0,193.0,0.0,193.0,0.0,0.0,0.0,179.0,193.0,0.0,179.0,1744420368.0380783,0.0,2025-04-11 21:12:48.038,FORWARD,9
104.0,26713.48622006014,29538.389091299665,-31965.699132168193,-28455.692941629048,-36614.37024049404,-32120.283796821095,-7731.311944879526,-38405.79550335354,0.0,0.0,0.0,193.0,0.0,193.0,0.0,0.0,0.0,179.0,193.0,0.0,179.0,1744420368.038148,0.0,2025-04-11 21:12:48.038,FORWARD,9
105.0,26682.90903364528,29517.669024189596,-31968.358989758373,-28456.54230791835,-36610.43633346991,-32115.0311368741,-7989.3181311271355,-38420.68176516077,0.0,0.0,0.0,193.0,0.0,193.0,0.0,0.0,0.0,178.0,193.0,0.0,178.0,1744420368.038222,0.0,2025-04-11 21:12:48.038,FORWARD,9
106.0,26667.531033460025,29540.311341322824,-31951.08109129442,-28434.794060563334,-36592.42082743893,-32089.30427900604,-8299.11330927769,-38383.108482731404,0.0,0.0,0.0,193.0,0.0,193.0,0.0,0.0,0.0,179.0,193.0,0.0,179.0,1744420368.0382972,0.0,2025-04-11 21:12:48.038,FORWARD,9
107.0,26689.748667448603,29552.94007694007,-31943.079166779422,-28423.282912168852,-36587.65990586995,-32091.40534298484,-8170.210799003935,-38359.125060930855,0.0,0.0,0.0,193.0,0.0,193.0,0.0,0.0,0.0,179.0,193.0,0.0,179.0,1744420368.0385008,0.0,2025-04-11 21:12:48.038,FORWARD,9
108.0,26709.82053396947,29538.36673955521,-31967.062588579967,-28451.62492413818,-36612.380935237525,-32124.50827652315,-7741.504340351145,-38389.65754385681,0.0,0.0,0.0,193.0,0.0,193.0,0.0,0.0,0.0,179.0,193.0,0.0,179.0,1744420368.038568,0.0,2025-04-11 21:12:48.038,FORWARD,9
109.0,26697.392964052317,29526.386204527167,-31950.343483727396,-28440.62786586617,-36595.25949898476,-32098.490845977172,-7940.725438681297,-38405.08024753097,0.0,0.0,0.0,193.0,0.0,194.0,0.0,0.0,0.0,179.0,194.0,0.0,179.0,1744420368.0386384,0.0,2025-04-11 21:12:48.038,FORWARD,9
110.0,26667.32986775993,29537.13739361017,-31939.234666733108,-28426.032176736855,-36583.10015000107,-32084.610412670427,-8256.756753534884,-38373.63134308235,0.0,0.0,0.0,193.0,0.0,194.0,0.0,0.0,0.0,180.0,194.0,0.0,180.0,1744420368.0387392,0.0,2025-04-11 21:12:48.038,FORWARD,9
111.0,26671.353181761886,29539.238457588966,-31938.251189977076,-28423.841705780236,-36581.44612091138,-32087.96317433872,-8221.731569973417,-38359.326226630954,0.0,0.0,0.0,193.0,0.0,194.0,0.0,0.0,0.0,180.0,194.0,0.0,180.0,1744420368.0388057,0.0,2025-04-11 21:12:48.038,FORWARD,9
112.0,26703.025603655053,29542.054777390338,-31952.779823873025,-28440.069072254788,-36601.473283943335,-32107.990337370677,-7759.96688127123,-38366.29997090101,0.0,0.0,0.0,193.0,0.0,194.0,0.0,0.0,0.0,180.0,194.0,0.0,180.0,1744420368.0388708,0.0,2025-04-11 21:12:48.038,FORWARD,9
113.0,26696.051859385,29527.45908826102,-31946.476631936628,-28439.04089200984,-36599.21575775334,-32101.284814034083,-7860.549731320111,-38399.7158288617,0.0,0.0,0.0,193.0,0.0,194.0,0.0,0.0,0.0,179.0,194.0,0.0,179.0,1744420368.038937,0.0,2025-04-11 21:12:48.038,FORWARD,9
114.0,26674.437722496717,29542.345350068255,-31941.55924815646,-28422.522952857373,-36597.04763854118,-32089.14781679485,-8196.809374905752,-38389.679895601264,0.0,0.0,0.0,193.0,0.0,194.0,0.0,0.0,0.0,180.0,194.0,0.0,180.0,1744420368.0390005,0.0,2025-04-11 21:12:48.039,FORWARD,9
115.0,26685.211263324174,29566.88756548018,-31925.68950959319,-28404.842722993224,-36582.161376733944,-32076.116749777408,-8309.842146616238,-38378.88400302935,0.0,0.0,0.0,193.0,0.0,194.0,0.0,0.0,0.0,179.0,194.0,0.0,179.0,1744420368.0390618,0.0,2025-04-11 21:12:48.039,FORWARD,9
116.0,26711.541618292526,29559.3773793432,-31944.487326680104,-28422.277083668363,-36600.80273160967,-32102.827084401502,-7846.736353246732,-38368.19986917971,0.0,0.0,0.0,193.0,0.0,194.0,0.0,0.0,0.0,179.0,194.0,0.0,179.0,1744420368.039154,0.0,2025-04-11 21:12:48.039,FORWARD,9
117.0,26711.608673525894,29536.332730809776,-31944.84495459139,-28432.223609950976,-36600.02042055374,-32098.423790743804,-7810.459471995769,-38398.061799772004,0.0,0.0,0.0,193.0,0.0,194.0,0.0,0.0,0.0,180.0,194.0,0.0,180.0,1744420368.039225,0.0,2025-04-11 21:12:48.039,FORWARD,9
118.0,26678.215167309663,29533.40465228613,-31944.241457491098,-28423.61818833568,-36597.36056296356,-32088.834892372477,-8136.951403254438,-38376.7605873061,0.0,0.0,0.0,193.0,0.0,193.0,0.0,0.0,0.0,179.0,193.0,0.0,179.0,1744420368.0392892,0.0,2025-04-11 21:12:48.039,FORWARD,9
119.0,26667.620440437848,29542.434757046078,-31934.049062019476,-28415.593912076227,-36586.34115294709,-32080.765912624112,-8309.842146616238,-38373.944267504725,0.0,0.0,0.0,193.0,0.0,193.0,0.0,0.0,0.0,179.0,193.0,0.0,179.0,1744420368.0393548,0.0,2025-04-11 21:12:48.039,FORWARD,9
120.0,26706.28895834553,29549.02852166039,-31939.45818417766,-28416.42092662107,-36593.44900768388,-32096.635651187382,-7909.701217377332,-38361.53904933203,0.0,0.0,0.0,193.0,0.0,193.0,0.0,0.0,0.0,179.0,193.0,0.0,179.0,1744420368.0394251,0.0,2025-04-11 21:12:48.039,FORWARD,9
121.0,26702.891493188323,29525.22391381549,-31954.120928540342,-28441.879563555667,-36607.77647587973,-32107.8785786484,-7755.474180635712,-38401.39220969584,0.0,0.0,0.0,193.0,0.0,193.0,0.0,0.0,0.0,179.0,193.0,0.0,179.0,1744420368.0395024,0.0,2025-04-11 21:12:48.039,FORWARD,9
122.0,26674.03539109652,29524.50865799292,-31941.715710367647,-28426.05452848131,-36593.20313849487,-32086.30914524903,-8082.748422950319,-38378.21345069569,0.0,0.0,0.0,193.0,0.0,193.0,0.0,0.0,0.0,179.0,193.0,0.0,179.0,1744420368.03967,0.0,2025-04-11 21:12:48.039,FORWARD,9
123.0,26674.795350408003,29546.3239605813,-31924.437811903696,-28411.28002539635,-36583.2342604678,-32069.098302018443,-8339.905242908626,-38368.46809011318,0.0,0.0,0.0,193.0,0.0,193.0,0.0,0.0,0.0,178.0,193.0,0.0,178.0,1744420368.0397375,0.0,2025-04-11 21:12:48.039,FORWARD,9
124.0,26707.51830429057,29552.962428684525,-31928.2376084611,-28409.53658932884,-36587.61520238104,-32082.039962058065,-8026.556137389677,-38352.79951725001,0.0,0.0,0.0,193.0,0.0,193.0,0.0,0.0,0.0,179.0,193.0,0.0,179.0,1744420368.0398023,0.0,2025-04-11 21:12:48.039,FORWARD,9
125.0,26717.129554406354,29539.350216311243,-31937.871210321333,-28427.306226170807,-36589.448045426376,-32091.0253633291,-7726.416912843813,-38372.625514581865,0.0,0.0,0.0,193.0,0.0,193.0,0.0,0.0,0.0,178.0,193.0,0.0,178.0,1744420368.0398972,0.0,2025-04-11 21:12:48.039,FORWARD,9
126.0,26689.972184893155,29532.644692974653,-31933.75848934156,-28419.19254293353,-36584.59771687957,-32075.312086977017,-8000.449299865878,-38365.919991245275,0.0,0.0,0.0,193.0,0.0,193.0,0.0,0.0,0.0,179.0,193.0,0.0,179.0,1744420368.0399663,0.0,2025-04-11 21:12:48.039,FORWARD,9
127.0,26669.9450218612,29546.055739647836,-31924.50486713706,-28408.687223039535,-36574.204155707856,-32067.39956943984,-8292.92187606357,-38368.17751743526,0.0,0.0,0.0,193.0,0.0,193.0,0.0,0.0,0.0,179.0,193.0,0.0,179.0,1744420368.0400405,0.0,2025-04-11 21:12:48.040,FORWARD,9
128.0,26689.122818603853,29550.548440283354,-31926.963559027146,-28405.245054393417,-36576.84166155358,-32077.927241078287,-8100.518059792288,-38362.94720923271,0.0,0.0,0.0,193.0,0.0,194.0,0.0,0.0,0.0,180.0,194.0,0.0,180.0,1744420368.0401077,0.0,2025-04-11 21:12:48.040,FORWARD,9
129.0,26713.061536915488,29540.713672723017,-31942.587428401403,-28424.847534280725,-36595.4383129404,-32091.986488340677,-7722.974744197696,-38358.78978476403,0.0,0.0,0.0,193.0,0.0,194.0,0.0,0.0,0.0,180.0,194.0,0.0,180.0,1744420368.0401907,0.0,2025-04-11 21:12:48.040,FORWARD,9
130.0,26684.94304239071,29524.262788803913,-31942.587428401403,-28421.740641801436,-36595.08068502911,-32083.761046381125,-7952.2812905646915,-38370.16682269178,0.0,0.0,0.0,193.0,0.0,194.0,0.0,0.0,0.0,179.0,194.0,0.0,179.0,1744420368.040256,0.0,2025-04-11 21:12:48.040,FORWARD,9
131.0,26661.630172923826,29541.384225056678,-31930.51748639554,-28406.13912417163,-36578.07100749863,-32066.259630472618,-8282.595370125218,-38360.08618594243,0.0,0.0,0.0,193.0,0.0,194.0,0.0,0.0,0.0,179.0,194.0,0.0,179.0,1744420368.0403843,0.0,2025-04-11 21:12:48.040,FORWARD,9
132.0,26677.879891142835,29550.637847261176,-31927.03061426051,-28399.791228746326,-36578.22746970981,-32072.272249731097,-8190.506182969354,-38359.1027091864,0.0,0.0,0.0,193.0,0.0,193.0,0.0,0.0,0.0,179.0,193.0,0.0,179.0,1744420368.040448,0.0,2025-04-11 21:12:48.040,FORWARD,9
133.0,26702.913844932777,29540.55721051183,-31948.667102893247,-28426.47921162596,-36602.85909209956,-32104.34700302446,-7738.978593227696,-38383.44375889823,0.0,0.0,0.0,193.0,0.0,193.0,0.0,0.0,0.0,179.0,193.0,0.0,179.0,1744420368.04051,0.0,2025-04-11 21:12:48.040,FORWARD,9
134.0,26694.688402973225,29528.64373071715,-31933.646730619283,-28418.231417921954,-36584.57536513512,-32083.82810161449,-7918.418397714901,-38390.01517176809,0.0,0.0,0.0,193.0,0.0,193.0,0.0,0.0,0.0,179.0,193.0,0.0,179.0,1744420368.0405755,0.0,2025-04-11 21:12:48.040,FORWARD,9
135.0,26667.396922993295,29539.149050611148,-31926.762393327048,-28404.820371248767,-36570.00202775026,-32069.81355784101,-8236.841349225206,-38360.42146210927,0.0,0.0,0.0,193.0,0.0,193.0,0.0,0.0,0.0,179.0,193.0,0.0,179.0,1744420368.0406423,0.0,2025-04-11 21:12:48.040,FORWARD,9
136.0,26674.102446329885,29548.022693159903,-31921.308567679953,-28400.394725846618,-36574.31591443013,-32071.31112471952,-8247.436076097021,-38363.72952028865,0.0,0.0,0.0,193.0,0.0,193.0,0.0,0.0,0.0,179.0,193.0,0.0,179.0,1744420368.0407035,0.0,2025-04-11 21:12:48.040,FORWARD,9
137.0,26707.0042141681,29550.257867605433,-31931.299797451473,-28415.124525442665,-36590.073894271125,-32097.01563084312,-7790.409957219358,-38370.21152618069,0.0,0.0,0.0,193.0,0.0,193.0,0.0,0.0,0.0,179.0,193.0,0.0,179.0,1744420368.041037,0.0,2025-04-11 21:12:48.041,FORWARD,9
138.0,26696.320080318463,29534.432832531078,-31930.65159686227,-28422.0088627349,-36588.397513436976,-32088.611374927925,-7849.642080025921,-38393.949078792226,0.0,0.0,0.0,193.0,0.0,193.0,0.0,0.0,0.0,179.0,193.0,0.0,179.0,1744420368.0411112,0.0,2025-04-11 21:12:48.041,FORWARD,9
139.0,26667.776902649035,29538.411443044122,-31923.342576425384,-28406.697917783014,-36577.422806909424,-32068.24893572914,-8174.85996185064,-38356.42049985177,0.0,0.0,0.0,193.0,0.0,194.0,0.0,0.0,0.0,179.0,194.0,0.0,179.0,1744420368.0411787,0.0,2025-04-11 21:12:48.041,FORWARD,9
140.0,26673.208376551676,29546.36866407021,-31911.160875697242,-28393.06335366528,-36563.14004220248,-32060.716397847704,-8288.697396361518,-38361.986084221135,0.0,0.0,0.0,193.0,0.0,193.0,0.0,0.0,0.0,179.0,193.0,0.0,179.0,1744420368.0413022,0.0,2025-04-11 21:12:48.041,FORWARD,9
141.0,26702.489161788126,29544.021730902405,-31932.573846885425,-28405.62503404916,-36586.363504691544,-32089.505444706137,-7836.45455079729,-38363.23778191063,0.0,0.0,0.0,193.0,0.0,193.0,0.0,0.0,0.0,179.0,193.0,0.0,179.0,1744420368.041365,0.0,2025-04-11 21:12:48.041,FORWARD,9
142.0,26696.163618107275,29515.053870088326,-31947.169536014742,-28428.803793049312,-36600.33334497611,-32099.25080528865,-7795.640265421899,-38402.37568645188,0.0,0.0,0.0,193.0,0.0,193.0,0.0,0.0,0.0,178.0,193.0,0.0,178.0,1744420368.0414279,0.0,2025-04-11 21:12:48.041,FORWARD,9
143.0,26668.827434638435,29520.485343990964,-31936.932437054213,-28410.497714340418,-36589.5374524042,-32077.703723633735,-8118.421807100989,-38357.71690103017,0.0,0.0,0.0,193.0,0.0,193.0,0.0,0.0,0.0,179.0,193.0,0.0,179.0,1744420368.041511,0.0,2025-04-11 21:12:48.041,FORWARD,9
144.0,26673.767170163057,29544.2228966025,-31912.278462920007,-28384.972022172456,-36565.48697537029,-32057.229525712675,-8314.468957718487,-38342.58477003393,0.0,0.0,0.0,193.0,0.0,193.0,0.0,0.0,0.0,178.0,193.0,0.0,178.0,1744420368.0415735,0.0,2025-04-11 21:12:48.041,FORWARD,9
145.0,26702.265644343574,29549.18498387158,-31925.577750870914,-28394.22564437695,-36579.68033309941,-32083.939860336766,-7925.23567977377,-38347.97154044766,0.0,0.0,0.0,193.0,0.0,193.0,0.0,0.0,0.0,179.0,193.0,0.0,179.0,1744420368.0416393,0.0,2025-04-11 21:12:48.041,FORWARD,9
146.0,26708.56883627997,29534.097556364246,-31934.74196609759,-28416.264464409887,-36590.498577415776,-32095.629822686893,-7749.43920963278,-38396.09484625993,0.0,0.0,0.0,193.0,0.0,193.0,0.0,0.0,0.0,178.0,193.0,0.0,178.0,1744420368.041774,0.0,2025-04-11 21:12:48.041,FORWARD,9
147.0,26677.477559742638,29526.27444580489,-31934.630207375314,-28410.318900384773,-36591.750275105274,-32079.24599400115,-8057.602710438098,-38367.931648246245,0.0,0.0,0.0,193.0,0.0,193.0,0.0,0.0,0.0,179.0,193.0,0.0,179.0,1744420368.0418391,0.0,2025-04-11 21:12:48.041,FORWARD,9
148.0,26673.02956259603,29550.146108883157,-31910.624433830315,-28386.42488556205,-36568.392702149475,-32051.373368665383,-8316.905297864116,-38338.87438045435,0.0,0.0,0.0,193.0,0.0,193.0,0.0,0.0,0.0,179.0,193.0,0.0,179.0,1744420368.0419044,0.0,2025-04-11 21:12:48.041,FORWARD,9
149.0,26692.922615161257,29550.526088538896,-31919.207503701153,-28388.90592919659,-36577.51221388724,-32070.86408983041,-8009.34529415909,-38330.42542105024,0.0,0.0,0.0,193.0,0.0,193.0,0.0,0.0,0.0,179.0,193.0,0.0,179.0,1744420368.0419683,0.0,2025-04-11 21:12:48.041,FORWARD,9
150.0,26700.85748444289,29529.671910962097,-31943.45914643516,-28422.925284257566,-36603.14966477748,-32096.233319787185,-7712.782348726077,-38381.722674575176,0.0,0.0,0.0,193.0,0.0,193.0,0.0,0.0,0.0,179.0,193.0,0.0,179.0,1744420368.0420368,0.0,2025-04-11 21:12:48.042,FORWARD,9
151.0,26682.730219689634,29528.12964059468,-31931.433907918206,-28408.731926528446,-36592.4878826723,-32072.9204503203,-8014.687361083908,-38375.01715123858,0.0,0.0,0.0,193.0,0.0,193.0,0.0,0.0,0.0,179.0,193.0,0.0,179.0,1744420368.0421083,0.0,2025-04-11 21:12:48.042,FORWARD,9
152.0,26670.213242794664,29549.944943183058,-31908.992756485077,-28384.659097750082,-36570.67258008392,-32049.205249453218,-8324.326077023277,-38350.027900937544,0.0,0.0,0.0,193.0,0.0,193.0,0.0,0.0,0.0,180.0,193.0,0.0,180.0,1744420368.0422795,0.0,2025-04-11 21:12:48.042,FORWARD,9
153.0,26696.61065299638,29557.365722342223,-31907.986927984588,-28378.937051169523,-36569.39853064997,-32054.234391955662,-8119.0476559457375,-38330.40306930579,0.0,0.0,0.0,193.0,0.0,194.0,0.0,0.0,0.0,179.0,194.0,0.0,179.0,1744420368.042348,0.0,2025-04-11 21:12:48.042,FORWARD,9
154.0,26712.9050747043,29544.289951835868,-31929.399899172775,-28407.748449772414,-36586.296449458176,-32082.285831247074,-7716.7833109835765,-38359.97442722016,0.0,0.0,0.0,193.0,0.0,194.0,0.0,0.0,0.0,179.0,194.0,0.0,179.0,1744420368.042416,0.0,2025-04-11 21:12:48.042,FORWARD,9
155.0,26695.71658321817,29534.119908108703,-31919.78864905699,-28400.081801424243,-36575.09822548607,-32065.1196915054,-7943.921738138407,-38371.73144480365,0.0,0.0,0.0,193.0,0.0,194.0,0.0,0.0,0.0,179.0,194.0,0.0,179.0,1744420368.0425093,0.0,2025-04-11 21:12:48.042,FORWARD,9
156.0,26665.251155525584,29545.295780336357,-31916.36883215533,-28388.302432096298,-36572.95245801836,-32051.194554709742,-8269.966634507971,-38346.56338054698,0.0,0.0,0.0,193.0,0.0,193.0,0.0,0.0,0.0,179.0,193.0,0.0,179.0,1744420368.0425816,0.0,2025-04-11 21:12:48.042,FORWARD,9
157.0,26684.80893192398,29553.342408340268,-31913.619567587328,-28386.022554161857,-36573.019513251726,-32058.324761190983,-8192.942523114983,-38346.339863102425,0.0,0.0,0.0,193.0,0.0,193.0,0.0,0.0,0.0,179.0,193.0,0.0,179.0,1744420368.042653,0.0,2025-04-11 21:12:48.042,FORWARD,9
158.0,26717.62129278437,29557.589239786776,-31926.60593111586,-28400.126504913154,-36587.704609358865,-32075.245031743652,-7746.0193927311175,-38354.028863195046,0.0,0.0,0.0,193.0,0.0,193.0,0.0,0.0,0.0,179.0,193.0,0.0,179.0,1744420368.0427248,0.0,2025-04-11 21:12:48.042,FORWARD,9
159.0,26695.493065773615,29532.84585867475,-31926.11419273784,-28401.66877528057,-36584.64242036849,-32069.63474388537,-7901.140499250949,-38379.331037918455,0.0,0.0,0.0,193.0,0.0,193.0,0.0,0.0,0.0,179.0,193.0,0.0,179.0,1744420368.0427964,0.0,2025-04-11 21:12:48.042,FORWARD,9
160.0,26674.66123994127,29546.18985011457,-31920.258035690553,-28389.33061234124,-36579.36740867703,-32059.643514113846,-8243.613927795164,-38368.66925581327,0.0,0.0,0.0,193.0,0.0,193.0,0.0,0.0,0.0,179.0,193.0,0.0,179.0,1744420368.0428896,0.0,2025-04-11 21:12:48.042,FORWARD,9
161.0,26684.80893192398,29561.880774722194,-31911.339689652887,-28380.389914559117,-36575.8358330531,-32058.078892001977,-8280.248436957412,-38370.05506396951,0.0,0.0,0.0,193.0,0.0,193.0,0.0,0.0,0.0,181.0,193.0,0.0,181.0,1744420368.0429568,0.0,2025-04-11 21:12:48.042,FORWARD,9
162.0,26711.742783992624,29554.728216496496,-31925.644806104283,-28392.683374009535,-36589.649211126474,-32077.480206189182,-7802.5916579475,-38359.9520754757,0.0,0.0,0.0,193.0,0.0,194.0,0.0,0.0,0.0,181.0,194.0,0.0,181.0,1744420368.0430236,0.0,2025-04-11 21:12:48.043,FORWARD,9
163.0,26705.28312984504,29540.311341322824,-31921.129753724308,-28398.20425489,-36584.2847924572,-32066.72901710618,-7842.154245633394,-38378.146395462325,0.0,0.0,0.0,193.0,0.0,194.0,0.0,0.0,0.0,180.0,194.0,0.0,180.0,1744420368.0430954,0.0,2025-04-11 21:12:48.043,FORWARD,9
164.0,26676.94111787571,29546.413367559122,-31912.300814664464,-28381.798074459803,-36575.4335016529,-32047.730034319167,-8186.706386411952,-38351.793688749516,0.0,0.0,0.0,193.0,0.0,194.0,0.0,0.0,0.0,180.0,194.0,0.0,180.0,1744420368.043167,0.0,2025-04-11 21:12:48.043,FORWARD,9
165.0,26672.98485910712,29553.051835662347,-31904.231834916096,-28374.421998789552,-36570.918449272925,-32040.599827837927,-8309.439815216043,-38341.10955489988,0.0,0.0,0.0,193.0,0.0,193.0,0.0,0.0,0.0,179.0,193.0,0.0,179.0,1744420368.0432384,0.0,2025-04-11 21:12:48.043,FORWARD,9
166.0,26705.08196414494,29554.772919985407,-31916.12296296632,-28386.558996028783,-36585.96117329135,-32064.583249638472,-7872.664376814888,-38329.82192394995,0.0,0.0,0.0,193.0,0.0,193.0,0.0,0.0,0.0,179.0,193.0,0.0,179.0,1744420368.043311,0.0,2025-04-11 21:12:48.043,FORWARD,9
167.0,26704.94785367821,29537.09269012126,-31918.335785667397,-28404.52979857085,-36582.47430115632,-32070.975848552687,-7796.780204389121,-38365.51765984508,0.0,0.0,0.0,193.0,0.0,193.0,0.0,0.0,0.0,179.0,193.0,0.0,179.0,1744420368.0434885,0.0,2025-04-11 21:12:48.043,FORWARD,9
168.0,26671.241423039606,29534.432832531078,-31920.883884535302,-28402.51814156987,-36579.41211216594,-32068.360694451418,-8125.46260660441,-38361.04731095402,0.0,0.0,0.0,193.0,0.0,193.0,0.0,0.0,0.0,179.0,193.0,0.0,179.0,1744420368.043559,0.0,2025-04-11 21:12:48.043,FORWARD,9
169.0,26661.07137931244,29543.172364613103,-31918.31343392294,-28400.86411248018,-36575.8358330531,-32069.43357818527,-8324.08020783427,-38364.847107511414,0.0,0.0,0.0,193.0,0.0,193.0,0.0,0.0,0.0,179.0,193.0,0.0,179.0,1744420368.043631,0.0,2025-04-11 21:12:48.043,FORWARD,9
170.0,26694.710754717682,29546.770995470408,-31927.924684038724,-28406.876731738656,-36590.3868186935,-32091.897081362855,-7963.166590114426,-38364.712997044684,0.0,0.0,0.0,193.0,0.0,194.0,0.0,0.0,0.0,179.0,194.0,0.0,179.0,1744420368.0437324,0.0,2025-04-11 21:12:48.043,FORWARD,9
171.0,26704.366708322374,29533.091727863757,-31933.579675385914,-28423.14880170212,-36596.153568762966,-32096.79211339857,-7779.7705268586315,-38399.112331761404,0.0,0.0,0.0,193.0,0.0,193.0,0.0,0.0,0.0,178.0,193.0,0.0,178.0,1744420368.043779,0.0,2025-04-11 21:12:48.043,FORWARD,9
172.0,26682.931385389733,29532.711748208018,-31921.196808957677,-28405.312109626786,-36579.61327786604,-32078.30722073403,-8083.866010173084,-38381.67797108626,0.0,0.0,0.0,193.0,0.0,193.0,0.0,0.0,0.0,179.0,193.0,0.0,179.0,1744420368.0438204,0.0,2025-04-11 21:12:48.043,FORWARD,9
173.0,26666.726370659635,29544.71463498052,-31915.31830016593,-28393.398629832107,-36570.784338806196,-32063.309200204516,-8334.853748661728,-38359.66150279778,0.0,0.0,0.0,193.0,0.0,193.0,0.0,0.0,0.0,179.0,193.0,0.0,179.0,1744420368.0438616,0.0,2025-04-11 21:12:48.043,FORWARD,9
174.0,26698.622309997358,29554.75056824095,-31915.206541443655,-28387.073086151253,-36575.92524003091,-32070.19353749675,-8074.902960646506,-38342.83063922294,0.0,0.0,0.0,193.0,0.0,193.0,0.0,0.0,0.0,179.0,193.0,0.0,179.0,1744420368.0439026,0.0,2025-04-11 21:12:48.043,FORWARD,9
175.0,26711.116935147875,29539.216105844513,-31932.618550374336,-28413.82812426426,-36592.37612395002,-32096.747409909658,-7753.216654445727,-38382.92966877576,0.0,0.0,0.0,193.0,0.0,194.0,0.0,0.0,0.0,179.0,194.0,0.0,179.0,1744420368.043964,0.0,2025-04-11 21:12:48.043,FORWARD,9
176.0,26687.580548236438,29530.297759806846,-31924.37075667033,-28401.601720047205,-36581.42376916692,-32078.284868989573,-8025.326791444635,-38383.39905540932,0.0,0.0,0.0,193.0,0.0,194.0,0.0,0.0,0.0,180.0,194.0,0.0,180.0,1744420368.0440056,0.0,2025-04-11 21:12:48.044,FORWARD,9
177.0,26660.445530467696,29544.781690213884,-31920.436849646194,-28393.130408898644,-36574.51708013023,-32065.030284527576,-8323.476710733976,-38365.6070668229,0.0,0.0,0.0,193.0,0.0,194.0,0.0,0.0,0.0,179.0,194.0,0.0,179.0,1744420368.0440469,0.0,2025-04-11 21:12:48.044,FORWARD,9
178.0,26684.6971732017,29553.074187406804,-31919.632186845804,-28390.157626886088,-36576.014647008735,-32070.8193863415,-8159.191388987469,-38359.57209581997,0.0,0.0,0.0,193.0,0.0,194.0,0.0,0.0,0.0,180.0,194.0,0.0,180.0,1744420368.0440876,0.0,2025-04-11 21:12:48.044,FORWARD,9
179.0,26707.33949033493,29543.529992524385,-31941.268675478543,-28418.365528388684,-36597.94170831939,-32095.383953497883,-7758.53636962609,-38381.76737806408,0.0,0.0,0.0,193.0,0.0,194.0,0.0,0.0,0.0,180.0,194.0,0.0,180.0,1744420368.044129,0.0,2025-04-11 21:12:48.044,FORWARD,9
180.0,26691.983841894133,29527.88377140567,-31934.294931208486,-28412.442316108027,-36586.72113260283,-32078.977773067687,-7969.201561117359,-38387.89175604484,0.0,0.0,0.0,193.0,0.0,194.0,0.0,0.0,0.0,179.0,194.0,0.0,179.0,1744420368.0441697,0.0,2025-04-11 21:12:48.044,FORWARD,9
181.0,26661.22784152363,29532.532934252376,-31930.495134651082,-28405.62503404916,-36578.31687668763,-32068.62891538488,-8282.885942803137,-38370.21152618069,0.0,0.0,0.0,193.0,0.0,193.0,0.0,0.0,0.0,179.0,193.0,0.0,179.0,1744420368.0442104,0.0,2025-04-11 21:12:48.044,FORWARD,9
182.0,26673.588356207416,29540.55721051183,-31924.393108414784,-28398.964214201478,-36573.75712081875,-32065.767892094602,-8249.559491820275,-38362.88015399935,0.0,0.0,0.0,193.0,0.0,193.0,0.0,0.0,0.0,179.0,193.0,0.0,179.0,1744420368.044269,0.0,2025-04-11 21:12:48.044,FORWARD,9
183.0,26695.336603562428,29528.017881872405,-31955.529088441028,-28430.167249461087,-36606.94946133488,-32100.323689022505,-7791.393433975391,-38381.94619201973,0.0,0.0,0.0,193.0,0.0,193.0,0.0,0.0,0.0,179.0,193.0,0.0,179.0,1744420368.0443108,0.0,2025-04-11 21:12:48.044,FORWARD,9
184.0,26693.19083609472,29524.910989393116,-31938.22883823262,-28417.91849349958,-36585.5364901467,-32072.406360197827,-7915.289153491159,-38386.12596823287,0.0,0.0,0.0,193.0,0.0,193.0,0.0,0.0,0.0,179.0,193.0,0.0,179.0,1744420368.0443516,0.0,2025-04-11 21:12:48.044,FORWARD,9
185.0,26666.167577048254,29545.0722628918,-31927.254131705064,-28398.472475823462,-36572.63953359598,-32052.133327976866,-8239.367096348655,-38352.553648060995,0.0,0.0,0.0,193.0,0.0,193.0,0.0,0.0,0.0,179.0,193.0,0.0,179.0,1744420368.0444102,0.0,2025-04-11 21:12:48.044,FORWARD,9
186.0,26663.37360899134,29534.946922653548,-31926.94120728269,-28397.645461278615,-36575.70172258636,-32064.11386300491,-8296.274637731867,-38365.4059011228,0.0,0.0,0.0,193.0,0.0,193.0,0.0,0.0,0.0,179.0,193.0,0.0,179.0,1744420368.044452,0.0,2025-04-11 21:12:48.044,FORWARD,9
187.0,26693.36965005036,29530.767146440405,-31943.70501562417,-28413.8057725198,-36595.90769957396,-32093.662869174826,-7830.754855961187,-38369.92095350277,0.0,0.0,0.0,193.0,0.0,193.0,0.0,0.0,0.0,178.0,193.0,0.0,178.0,1744420368.0444932,0.0,2025-04-11 21:12:48.044,FORWARD,9
188.0,26686.395905780308,29513.109268320713,-31937.84885857688,-28418.253769666408,-36592.4878826723,-32088.477264461195,-7865.109487188994,-38404.05206728602,0.0,0.0,0.0,193.0,0.0,193.0,0.0,0.0,0.0,179.0,193.0,0.0,179.0,1744420368.0445344,0.0,2025-04-11 21:12:48.044,FORWARD,9
189.0,26661.18313803472,29527.570846983297,-31925.89067529329,-28397.421943834062,-36583.2342604678,-32069.500633418636,-8194.104813826658,-38378.50402337361,0.0,0.0,0.0,193.0,0.0,193.0,0.0,0.0,0.0,179.0,193.0,0.0,179.0,1744420368.044576,0.0,2025-04-11 21:12:48.044,FORWARD,9
190.0,26664.446492725194,29543.21706810201,-31913.865436776334,-28381.596908759704,-36572.86305104054,-32056.469566401192,-8340.978126642482,-38368.713959302186,0.0,0.0,0.0,193.0,0.0,193.0,0.0,0.0,0.0,179.0,193.0,0.0,179.0,1744420368.0446324,0.0,2025-04-11 21:12:48.044,FORWARD,9
191.0,26697.23650184113,29543.239419846468,-31933.400861430273,-28390.38114433064,-36595.326554218125,-32076.295563733052,-7917.032589558672,-38355.74994751811,0.0,0.0,0.0,193.0,0.0,193.0,0.0,0.0,0.0,179.0,193.0,0.0,179.0,1744420368.0446737,0.0,2025-04-11 21:12:48.044,FORWARD,9
192.0,26691.670917471758,29519.904198635126,-31944.71084412466,-28413.090516697233,-36602.322650232636,-32083.693991147757,-7820.853033167486,-38394.016134025595,0.0,0.0,0.0,193.0,0.0,194.0,0.0,0.0,0.0,180.0,194.0,0.0,180.0,1744420368.0447147,0.0,2025-04-11 21:12:48.044,FORWARD,9
193.0,26663.03833282451,29524.955692882028,-31934.764317842048,-28397.041964178323,-36588.97865879282,-32065.074988016488,-8140.281813178279,-38371.016188981084,0.0,0.0,0.0,193.0,0.0,194.0,0.0,0.0,0.0,179.0,194.0,0.0,179.0,1744420368.0447557,0.0,2025-04-11 21:12:48.044,FORWARD,9
194.0,26658.299762999985,29543.50764077993,-31917.9334542672,-28379.29467908081,-36573.019513251726,-32046.455984885215,-8362.726373997495,-38356.39814810731,0.0,0.0,0.0,193.0,0.0,193.0,0.0,0.0,0.0,179.0,193.0,0.0,179.0,1744420368.0447967,0.0,2025-04-11 21:12:48.044,FORWARD,9
195.0,26685.61359472437,29547.41919605961,-31930.495134651082,-28386.201368117498,-36586.363504691544,-32063.577421137983,-7998.191773675892,-38337.62268276485,0.0,0.0,0.0,193.0,0.0,193.0,0.0,0.0,0.0,179.0,193.0,0.0,179.0,1744420368.044838,0.0,2025-04-11 21:12:48.044,FORWARD,9
196.0,26693.123780861355,29533.78463194187,-31941.89452432329,-28409.380127117653,-36596.24297574079,-32076.921412577798,-7779.234084991705,-38380.20275595221,0.0,0.0,0.0,193.0,0.0,193.0,0.0,0.0,0.0,178.0,193.0,0.0,178.0,1744420368.0448792,0.0,2025-04-11 21:12:48.044,FORWARD,9
197.0,26669.006248594076,29527.436736516567,-31936.977140543124,-28400.23826363543,-36592.15260650547,-32065.656133372326,-8074.478277501855,-38380.3592181634,0.0,0.0,0.0,193.0,0.0,193.0,0.0,0.0,0.0,179.0,193.0,0.0,179.0,1744420368.0449347,0.0,2025-04-11 21:12:48.044,FORWARD,9
198.0,26652.533012930515,29539.70784422253,-31927.432945660705,-28391.342269342218,-36581.893155800484,-32058.14594723534,-8353.070420392802,-38380.26981118558,0.0,0.0,0.0,193.0,0.0,193.0,0.0,0.0,0.0,179.0,193.0,0.0,179.0,1744420368.0449765,0.0,2025-04-11 21:12:48.044,FORWARD,9
199.0,26681.545577233504,29551.643675761665,-31929.288140450495,-28387.184844873533,-36589.313934959646,-32068.114825262408,-8114.286734376757,-38364.60123832241,0.0,0.0,0.0,193.0,0.0,193.0,0.0,0.0,0.0,178.0,193.0,0.0,178.0,1744420368.0450177,0.0,2025-04-11 21:12:48.045,FORWARD,9
200.0,26701.170408865262,29544.736986724973,-31942.296855723485,-28407.61433930568,-36604.4907694448,-32081.16824402431,-7772.39445118838,-38372.51375585959,0.0,0.0,0.0,193.0,0.0,193.0,0.0,0.0,0.0,180.0,193.0,0.0,180.0,1744420368.0450723,0.0,2025-04-11 21:12:48.045,FORWARD,9
201.0,26677.008173109076,29530.476573762488,-31938.60881788836,-28401.66877528057,-36597.3382112191,-32069.83590958547,-8018.06247449666,-38372.916087259786,0.0,0.0,0.0,193.0,0.0,193.0,0.0,0.0,0.0,180.0,193.0,0.0,180.0,1744420368.045114,0.0,2025-04-11 21:12:48.045,FORWARD,9
202.0,26653.427082708728,29547.12862338169,-31931.433907918206,-28389.487074552428,-36587.16816749194,-32057.564801879504,-8324.482539234465,-38366.36702613438,0.0,0.0,0.0,193.0,0.0,194.0,0.0,0.0,0.0,179.0,194.0,0.0,179.0,1744420368.0451553,0.0,2025-04-11 21:12:48.045,FORWARD,9
203.0,26672.738989918114,29547.3744925707,-31929.84693406188,-28385.642574506113,-36586.5870221361,-32066.371389194894,-8206.085348854704,-38368.80336628001,0.0,0.0,0.0,193.0,0.0,193.0,0.0,0.0,0.0,179.0,193.0,0.0,179.0,1744420368.0451963,0.0,2025-04-11 21:12:48.045,FORWARD,9
204.0,26697.90705417479,29540.490155278465,-31946.09665228089,-28404.23922589293,-36605.809522367665,-32084.16337778132,-7778.094146024484,-38373.944267504725,0.0,0.0,0.0,193.0,0.0,194.0,0.0,0.0,0.0,179.0,194.0,0.0,179.0,1744420368.0452378,0.0,2025-04-11 21:12:48.045,FORWARD,9
205.0,26679.17629232124,29533.98579764197,-31939.92757081122,-28401.355850858195,-36595.10303677357,-32073.993334054154,-7960.976119157805,-38389.43402641225,0.0,0.0,0.0,193.0,0.0,193.0,0.0,0.0,0.0,179.0,193.0,0.0,179.0,1744420368.0452936,0.0,2025-04-11 21:12:48.045,FORWARD,9
206.0,26654.94700133169,29545.452242547544,-31927.008262516054,-28382.423923304552,-36580.10501624406,-32051.082795987466,-8282.036576513836,-38349.08912767043,0.0,0.0,0.0,193.0,0.0,193.0,0.0,0.0,0.0,179.0,193.0,0.0,179.0,1744420368.0453413,0.0,2025-04-11 21:12:48.045,FORWARD,9
207.0,26658.27741125553,29540.37839655619,-31930.338672439895,-28382.28981283782,-36586.72113260283,-32054.077929744475,-8252.219349410458,-38341.15425838879,0.0,0.0,0.0,193.0,0.0,193.0,0.0,0.0,0.0,178.0,193.0,0.0,178.0,1744420368.0453825,0.0,2025-04-11 21:12:48.045,FORWARD,9
208.0,26689.27928081504,29541.138355867668,-31946.9907220591,-28403.34515611472,-36606.34596423459,-32079.134235278874,-7803.9551143592735,-38365.11532844488,0.0,0.0,0.0,193.0,0.0,193.0,0.0,0.0,0.0,179.0,193.0,0.0,179.0,1744420368.0454235,0.0,2025-04-11 21:12:48.045,FORWARD,9
209.0,26677.61167020937,29525.492134748954,-31944.621437146838,-28408.933092228544,-36598.589908908594,-32073.032209042576,-7928.230813530781,-38403.89560507484,0.0,0.0,0.0,193.0,0.0,193.0,0.0,0.0,0.0,179.0,193.0,0.0,179.0,1744420368.0454645,0.0,2025-04-11 21:12:48.045,FORWARD,9
210.0,26654.74583563159,29536.69035872106,-31940.866344078346,-28392.593967031717,-36585.93882154689,-32052.379197165872,-8255.438000612021,-38368.132813946344,0.0,0.0,0.0,193.0,0.0,194.0,0.0,0.0,0.0,180.0,194.0,0.0,180.0,1744420368.045509,0.0,2025-04-11 21:12:48.045,FORWARD,9
211.0,26658.120949044343,29541.384225056678,-31937.42417543223,-28388.257728607387,-36580.216774966335,-32046.746557563136,-8309.842146616238,-38349.133831159335,0.0,0.0,0.0,193.0,0.0,194.0,0.0,0.0,0.0,179.0,194.0,0.0,179.0,1744420368.04555,0.0,2025-04-11 21:12:48.045,FORWARD,9
212.0,26687.66995521426,29541.2724663344,-31952.80217561748,-28401.512313069383,-36600.847435098585,-32072.562822409014,-7862.382574365446,-38351.503116071595,0.0,0.0,0.0,193.0,0.0,194.0,0.0,0.0,0.0,180.0,194.0,0.0,180.0,1744420368.045607,0.0,2025-04-11 21:12:48.045,FORWARD,9
213.0,26675.89058588631,29520.395937013145,-31958.680684409224,-28414.364566131186,-36601.92031883244,-32075.78147361058,-7856.727583018253,-38384.06960774298,0.0,0.0,0.0,193.0,0.0,194.0,0.0,0.0,0.0,179.0,194.0,0.0,179.0,1744420368.0456483,0.0,2025-04-11 21:12:48.045,FORWARD,9
214.0,26654.164690275753,29532.667044719106,-31946.32016972544,-28394.22564437695,-36589.157472748455,-32056.335455934463,-8182.236037520891,-38360.935552231735,0.0,0.0,0.0,193.0,0.0,194.0,0.0,1.0,0.0,180.0,194.0,1.0,180.0,1744420368.045689,0.0,2025-04-11 21:12:48.045,FORWARD,9
215.0,26657.36098973286,29548.6261902602,-31931.791535829492,-28381.932184926532,-36580.73086508881,-32050.635761098358,-8352.757495970429,-38369.69743605822,0.0,0.0,0.0,193.0,0.0,193.0,0.0,2.0,0.0,179.0,193.0,2.0,179.0,1744420368.0457444,0.0,2025-04-11 21:12:48.045,FORWARD,9
216.0,26678.908071387777,29543.79821345785,-31951.952809328177,-28400.43942933553,-36601.406228709966,-32082.844624858455,-7952.415401031423,-38367.57402033496,0.0,0.0,0.0,193.0,0.0,193.0,0.0,3.0,0.0,179.0,193.0,3.0,179.0,1744420368.0457869,0.0,2025-04-11 21:12:48.045,FORWARD,9
217.0,26678.95277487669,29519.3677567682,-31958.054835564475,-28421.025385978865,-36608.37997298002,-32090.488921462173,-7824.585774491522,-38404.07441903048,0.0,0.0,0.0,193.0,0.0,193.0,0.0,4.0,0.0,179.0,193.0,4.0,179.0,1744420368.0458283,0.0,2025-04-11 21:12:48.045,FORWARD,9
218.0,26665.18410029222,29530.588332484764,-31938.07237602143,-28395.76791474437,-36591.683219871906,-32062.526889148583,-8148.417848160011,-38377.34173266193,0.0,0.0,0.0,193.0,0.0,193.0,0.0,5.0,0.0,179.0,193.0,5.0,179.0,1744420368.04587,0.0,2025-04-11 21:12:48.045,FORWARD,9
219.0,26652.980047819623,29542.188887857068,-31929.712823595146,-28387.408362318085,-36584.91064130195,-32053.474432644183,-8380.808935261839,-38370.099767458414,0.0,0.0,0.0,193.0,0.0,193.0,0.0,6.0,0.0,179.0,193.0,6.0,179.0,1744420368.0459118,0.0,2025-04-11 21:12:48.045,FORWARD,9
220.0,26676.002344608587,29540.490155278465,-31942.699187123682,-28397.13137115614,-36596.57825190762,-32074.59683115445,-8039.967184062861,-38355.63818879583,0.0,0.0,0.0,193.0,0.0,194.0,0.0,7.0,0.0,180.0,194.0,7.0,180.0,1744420368.1675477,0.0,2025-04-11 21:12:48.167,FORWARD,9
221.0,26684.80893192398,29521.290006791358,-31956.736082641615,-28424.24403718043,-36607.66471715745,-32090.44421797326,-7781.402204203869,-38391.5127386466,0.0,0.0,0.0,193.0,0.0,194.0,0.0,8.0,0.0,179.0,194.0,8.0,179.0,1744420368.1676188,0.0,2025-04-11 21:12:48.167,FORWARD,9
222.0,26663.93240260272,29522.228780058478,-31947.70597788167,-28409.67069979557,-36597.18174900791,-32067.041941528554,-8082.435498527944,-38382.28146818656,0.0,0.0,0.0,193.0,0.0,193.0,0.0,9.0,0.0,179.0,193.0,9.0,179.0,1744420368.1676688,0.0,2025-04-11 21:12:48.167,FORWARD,9
223.0,26653.538841431004,29545.787518714373,-31933.333806196908,-28390.0011646749,-36582.27313545622,-32045.114880217898,-8373.99165320297,-38366.188212178735,0.0,0.0,0.0,193.0,0.0,193.0,0.0,10.0,0.0,179.0,193.0,10.0,179.0,1744420368.1677177,0.0,2025-04-11 21:12:48.167,FORWARD,9
224.0,26674.95181261919,29542.65827449063,-31942.922704568235,-28395.34323159972,-36592.465530927846,-32066.796072339544,-8132.793978785751,-38362.20960166569,0.0,0.0,0.0,193.0,0.0,193.0,0.0,10.0,0.0,179.0,193.0,10.0,179.0,1744420368.167766,0.0,2025-04-11 21:12:48.167,FORWARD,9
225.0,26691.96149014968,29530.431870273576,-31957.116062297355,-28417.158534188096,-36606.32361249013,-32087.31497374952,-7773.422631433325,-38389.27756420107,0.0,0.0,0.0,193.0,0.0,193.0,0.0,11.0,0.0,179.0,193.0,11.0,179.0,1744420368.1678133,0.0,2025-04-11 21:12:48.167,FORWARD,9
226.0,26669.453283483184,29526.050928360335,-31947.50481218157,-28403.076935181256,-36594.14191176199,-32064.67265661629,-8010.552288359677,-38379.66631408528,0.0,0.0,0.0,193.0,0.0,194.0,0.0,11.0,0.0,180.0,194.0,11.0,180.0,1744420368.1678612,0.0,2025-04-11 21:12:48.167,FORWARD,9
227.0,26643.972294804134,29535.03632963137,-31936.66421612075,-28389.308260596787,-36583.12250174552,-32045.405452895815,-8324.639001445652,-38360.19794466471,0.0,0.0,0.0,193.0,0.0,194.0,0.0,12.0,0.0,180.0,194.0,12.0,180.0,1744420368.1679513,0.0,2025-04-11 21:12:48.167,FORWARD,9
228.0,26660.33377174542,29541.56303901232,-31930.919817795733,-28380.032286647835,-36581.3343621891,-32049.138194219853,-8209.058130867259,-38352.66540678327,0.0,0.0,0.0,193.0,0.0,194.0,0.0,12.0,0.0,180.0,194.0,12.0,180.0,1744420368.1680005,0.0,2025-04-11 21:12:48.168,FORWARD,9
229.0,26681.366763277863,29529.627207473186,-31953.048044806488,-28403.166342159075,-36602.68027814392,-32077.234337000173,-7773.9590733002515,-38369.71978780267,0.0,0.0,0.0,193.0,0.0,194.0,0.0,12.0,0.0,179.0,194.0,12.0,179.0,1744420368.1680477,0.0,2025-04-11 21:12:48.168,FORWARD,9
230.0,26666.011114837067,29511.119963064193,-31947.50481218157,-28403.188693903532,-36593.29254547269,-32063.555069393526,-7958.76329645673,-38387.22120371118,0.0,0.0,0.0,193.0,0.0,193.0,0.0,13.0,0.0,179.0,193.0,13.0,179.0,1744420368.1681137,0.0,2025-04-11 21:12:48.168,FORWARD,9
231.0,26645.335751215905,29528.64373071715,-31936.127774253822,-28386.46958905096,-36580.82027206663,-32044.757252306612,-8295.02294004237,-38358.74508127512,0.0,0.0,0.0,193.0,0.0,193.0,0.0,13.0,0.0,179.0,193.0,13.0,179.0,1744420368.1681612,0.0,2025-04-11 21:12:48.168,FORWARD,9
232.0,26649.493175684594,29532.22000983,-31937.0888992654,-28385.44140880602,-36582.83192906761,-32051.082795987466,-8274.54874212131,-38355.61583705137,0.0,0.0,0.0,193.0,0.0,194.0,0.0,13.0,0.0,179.0,194.0,13.0,179.0,1744420368.1682093,0.0,2025-04-11 21:12:48.168,FORWARD,9
233.0,26684.38424877933,29533.80698368633,-31947.728329626127,-28397.57840604525,-36591.2361849828,-32072.473415431192,-7808.157242316872,-38354.855877739894,0.0,0.0,0.0,193.0,0.0,194.0,0.0,14.0,0.0,180.0,194.0,14.0,180.0,1744420368.1682525,0.0,2025-04-11 21:12:48.168,FORWARD,9
234.0,26678.215167309663,29520.70886143552,-31938.675873121727,-28395.745562999913,-36583.12250174552,-32058.30240944653,-7896.1113567485045,-38371.083244214446,0.0,0.0,0.0,193.0,0.0,194.0,0.0,14.0,0.0,180.0,194.0,14.0,180.0,1744420368.1682944,0.0,2025-04-11 21:12:48.168,FORWARD,9
235.0,26643.905239570766,29529.0684138618,-31942.050986534476,-28391.230510619942,-36587.72696110332,-32051.57453436548,-8227.878299698628,-38358.074528941455,0.0,0.0,0.0,193.0,0.0,194.0,0.0,14.0,0.0,179.0,194.0,14.0,179.0,1744420368.1683545,0.0,2025-04-11 21:12:48.168,FORWARD,9
236.0,26648.93438207321,29542.881791935182,-31936.194829487187,-28388.213025118475,-36583.636591867995,-32051.641589598847,-8324.057856089814,-38362.09784294341,0.0,0.0,0.0,193.0,0.0,193.0,0.0,14.0,0.0,179.0,193.0,14.0,179.0,1744420368.1683967,0.0,2025-04-11 21:12:48.168,FORWARD,9
237.0,26690.419219782263,29542.546515768354,-31944.397919702285,-28391.968118186967,-36589.55980414865,-32066.90783106182,-7871.032699469651,-38348.93266545924,0.0,0.0,0.0,193.0,0.0,193.0,0.0,14.0,0.0,179.0,193.0,14.0,179.0,1744420368.168439,0.0,2025-04-11 21:12:48.168,FORWARD,9
238.0,26686.284147058028,29514.3162625213,-31949.404710460272,-28407.077897438754,-36592.55493790566,-32071.53464216407,-7853.0842486720385,-38392.22799446917,0.0,0.0,0.0,193.0,0.0,193.0,0.0,14.0,0.0,179.0,193.0,14.0,179.0,1744420368.168481,0.0,2025-04-11 21:12:48.168,FORWARD,9
239.0,26653.31532398645,29516.909064878117,-31944.50967842456,-28397.220778133964,-36589.29158321519,-32063.309200204516,-8189.053319579759,-38379.822776296474,0.0,0.0,0.0,193.0,0.0,193.0,0.0,15.0,0.0,179.0,193.0,15.0,179.0,1744420368.1685233,0.0,2025-04-11 21:12:48.168,FORWARD,9
240.0,26646.65450413877,29529.403690028634,-31932.685605607705,-28385.41905706156,-36572.728940573805,-32055.351979178427,-8369.409545589631,-38380.22510769667,0.0,0.0,0.0,193.0,0.0,194.0,0.0,15.0,0.0,180.0,194.0,15.0,180.0,1744420368.1685653,0.0,2025-04-11 21:12:48.168,FORWARD,9
241.0,26672.515472473562,29527.682605705573,-31948.734158126616,-28392.705725753993,-36588.397513436976,-32072.7192846202,-7962.272520336213,-38355.414671351275,0.0,0.0,0.0,193.0,0.0,194.0,0.0,15.0,0.0,180.0,194.0,15.0,180.0,1744420368.1686225,0.0,2025-04-11 21:12:48.168,FORWARD,9
242.0,26662.345428746397,29497.440695457542,-31969.118949069853,-28422.902932513112,-36609.229339269325,-32093.68522091928,-7814.63924820891,-38405.2143579977,0.0,0.0,0.0,193.0,0.0,193.0,0.0,15.0,0.0,179.0,193.0,15.0,179.0,1744420368.168665,0.0,2025-04-11 21:12:48.168,FORWARD,9
243.0,26640.686588369204,29503.565073438298,-31952.243382006098,-28398.09249616772,-36593.60546989506,-32062.906868804323,-8135.94557475395,-38376.29120067253,0.0,0.0,0.0,193.0,0.0,193.0,0.0,15.0,0.0,179.0,193.0,15.0,179.0,1744420368.168707,0.0,2025-04-11 21:12:48.168,FORWARD,9
244.0,26635.45628016666,29527.07910860528,-31934.294931208486,-28382.066295393266,-36579.14389123248,-32041.762118549603,-8380.384252117188,-38357.6051423079,0.0,0.0,0.0,193.0,0.0,193.0,0.0,15.0,0.0,179.0,193.0,15.0,179.0,1744420368.168749,0.0,2025-04-11 21:12:48.168,FORWARD,9
245.0,26665.877004370333,29532.532934252376,-31938.742928355092,-28381.306336081787,-36583.52483314572,-32054.86024080041,-8054.853445870095,-38340.90838919978,0.0,0.0,0.0,193.0,0.0,193.0,0.0,15.0,0.0,179.0,193.0,15.0,179.0,1744420368.1688042,0.0,2025-04-11 21:12:48.168,FORWARD,9
246.0,26682.41729526726,29517.758431167418,-31953.249210506587,-28405.75914451589,-36598.34403971959,-32071.53464216407,-7787.370119973436,-38381.25328794161,0.0,0.0,0.0,193.0,0.0,193.0,0.0,15.0,0.0,179.0,193.0,15.0,179.0,1744420368.1688464,0.0,2025-04-11 21:12:48.168,FORWARD,9
247.0,26657.04806531049,29513.198675298536,-31952.13162328382,-28400.37237410216,-36601.741504876794,-32062.370426937396,-8076.132306591548,-38381.38739840835,0.0,0.0,0.0,193.0,0.0,193.0,0.0,15.0,0.0,180.0,193.0,15.0,180.0,1744420368.1688883,0.0,2025-04-11 21:12:48.168,FORWARD,9
248.0,26646.967428561144,29535.393957542656,-31935.680739364714,-28383.720324482958,-36585.96117329135,-32046.947723263234,-8365.855618221238,-38368.982180235646,0.0,0.0,0.0,193.0,0.0,193.0,0.0,15.0,0.0,180.0,193.0,15.0,180.0,1744420368.1689303,0.0,2025-04-11 21:12:48.168,FORWARD,9
249.0,26672.873100384844,29543.90997218013,-31940.50871616706,-28387.028382662345,-36590.40917043795,-32062.884517059865,-8152.128237739592,-38360.7567382761,0.0,0.0,0.0,193.0,0.0,194.0,0.0,16.0,0.0,180.0,194.0,16.0,180.0,1744420368.6336968,0.0,2025-04-11 21:12:48.633,FORWARD,9
250.0,26689.48044651514,29533.56111449732,-31951.975161072634,-28403.27810088135,-36601.71915313234,-32077.413150955817,-7780.418727447835,-38385.81304381049,0.0,0.0,0.0,193.0,0.0,194.0,0.0,16.0,0.0,180.0,194.0,16.0,180.0,1744420368.633824,0.0,2025-04-11 21:12:48.633,FORWARD,9
251.0,26665.206452036677,29526.40855627162,-31940.70988186716,-28386.62605126215,-36589.55980414865,-32056.9166012903,-8018.218936707847,-38384.226069954166,0.0,0.0,0.0,193.0,0.0,194.0,0.0,16.0,0.0,179.0,194.0,16.0,179.0,1744420368.6338704,0.0,2025-04-11 21:12:48.633,FORWARD,9
252.0,26645.179289004718,29547.598010015252,-31935.524277153527,-28377.104208124187,-36585.111807002046,-32044.39962439533,-8322.3144200223,-38368.19986917971,0.0,0.0,0.0,193.0,0.0,193.0,0.0,16.0,0.0,179.0,193.0,16.0,179.0,1744420368.6339147,0.0,2025-04-11 21:12:48.633,FORWARD,9
253.0,26657.450396710683,29548.38032107119,-31934.898428308778,-28375.293716823307,-36584.44125466839,-32051.261609943107,-8229.4429218105,-38362.56722957698,0.0,0.0,0.0,193.0,0.0,193.0,0.0,16.0,0.0,179.0,193.0,16.0,179.0,1744420368.6339583,0.0,2025-04-11 21:12:48.633,FORWARD,9
254.0,26673.878928885333,29533.158783097126,-31956.445509963694,-28400.215911890977,-36602.926147332924,-32081.659982402325,-7795.215582277248,-38383.73433157615,0.0,0.0,0.0,193.0,0.0,193.0,0.0,16.0,0.0,179.0,193.0,16.0,179.0,1744420368.6340013,0.0,2025-04-11 21:12:48.634,FORWARD,9
255.0,26659.90908860077,29516.014995099904,-31948.823565104434,-28397.57840604525,-36594.29837397318,-32068.606563640424,-7964.954729670851,-38398.03944802755,0.0,0.0,0.0,193.0,0.0,193.0,0.0,16.0,0.0,179.0,193.0,16.0,179.0,1744420368.6340444,0.0,2025-04-11 21:12:48.634,FORWARD,9
0.0,26640.686588369204,29533.829335430783,-31935.546628897984,-28379.495844780904,-36576.774606320214,-32048.221772697187,-8282.841239314228,-38374.61481983839,0.0,0.0,0.0,193.0,0.0,193.0,0.0,16.0,0.0,179.0,193.0,16.0,179.0,1744420368.6341088,0.0,2025-04-11 21:12:48.634,FORWARD,9
1.0,26647.727387872626,29539.149050611148,-31932.17151548523,-28371.493920265904,-36574.51708013023,-32045.092528473444,-8289.770280095372,-38359.86266849788,0.0,0.0,0.0,193.0,0.0,194.0,0.0,16.0,0.0,180.0,194.0,16.0,180.0,1744420368.634152,0.0,2025-04-11 21:12:48.634,FORWARD,9
2.0,26683.199606323196,29543.351178568744,-31946.52133542554,-28385.731981483936,-36590.00683903776,-32063.26449671561,-7821.858861667974,-38349.08912767043,0.0,0.0,0.0,193.0,0.0,193.0,0.0,16.0,0.0,179.0,193.0,16.0,179.0,1744420368.634195,0.0,2025-04-11 21:12:48.634,FORWARD,9
3.0,26662.904222357778,29515.70207067753,-31957.674855908735,-28406.407345105094,-36597.5393769192,-32066.52785140608,-7901.542830651145,-38390.43985491274,0.0,0.0,0.0,193.0,0.0,194.0,0.0,16.0,0.0,179.0,194.0,16.0,179.0,1744420368.6342385,0.0,2025-04-11 21:12:48.634,FORWARD,9
4.0,26631.611780120347,29516.730250922472,-31953.428024462228,-28398.80775199029,-36587.50344365877,-32055.039054756053,-8237.15427364758,-38371.79850003702,0.0,0.0,0.0,193.0,0.0,193.0,0.0,16.0,0.0,179.0,193.0,16.0,179.0,1744420368.6342971,0.0,2025-04-11 21:12:48.634,FORWARD,9
5.0,26629.331902185906,29518.78661141236,-31949.248248249085,-28393.778609487847,-36583.74835059027,-32052.937990777256,-8342.98978364346,-38363.57305807746,0.0,0.0,0.0,193.0,0.0,193.0,0.0,16.0,0.0,179.0,193.0,16.0,179.0,1744420368.634346,0.0,2025-04-11 21:12:48.634,FORWARD,9
6.0,26665.094693314397,29518.384280012167,-31962.234611777618,-28403.389859603627,-36595.77358910723,-32073.434540442773,-7904.828537086075,-38353.62653179485,0.0,0.0,0.0,193.0,0.0,193.0,0.0,16.0,0.0,179.0,193.0,16.0,179.0,1744420368.634389,0.0,2025-04-11 21:12:48.634,FORWARD,9
7.0,26657.89743159979,29496.010183812403,-31969.454225236685,-28421.315958656785,-36598.23228099731,-32077.524909678094,-7852.972489949762,-38392.1609392358,0.0,0.0,0.0,193.0,0.0,193.0,0.0,16.0,0.0,179.0,193.0,16.0,179.0,1744420368.634432,0.0,2025-04-11 21:12:48.634,FORWARD,9
8.0,26625.55445737296,29497.41834371309,-31964.08980656741,-28404.060411937287,-36593.985449550804,-32059.48705190266,-8185.253523022357,-38371.843203525925,0.0,0.0,0.0,193.0,0.0,194.0,0.0,16.0,0.0,180.0,194.0,16.0,180.0,1744420368.6344752,0.0,2025-04-11 21:12:48.634,FORWARD,9
9.0,26628.996626019078,29520.328881779777,-31944.867306335847,-28383.38504831613,-36577.44515865388,-32045.53956336255,-8370.728298512495,-38358.47686034165,0.0,0.0,0.0,193.0,0.0,193.0,0.0,16.0,0.0,179.0,193.0,16.0,179.0,1744420368.6345303,0.0,2025-04-11 21:12:48.634,FORWARD,9
10.0,26663.79829213599,29525.715652193507,-31953.51743144005,-28388.123618140653,-36592.97962105031,-32067.44427292875,-7967.972215172317,-38354.18532540624,0.0,0.0,0.0,193.0,0.0,194.0,0.0,16.0,0.0,180.0,194.0,16.0,180.0,1744420368.6345737,0.0,2025-04-11 21:12:48.634,FORWARD,9
11.0,26667.620440437848,29504.45914321651,-31955.104405296377,-28399.47830432395,-36598.63461239751,-32065.700836861237,-7808.06783533905,-38392.965602036194,0.0,0.0,0.0,193.0,0.0,194.0,0.0,16.0,0.0,180.0,194.0,16.0,180.0,1744420368.6346164,0.0,2025-04-11 21:12:48.634,FORWARD,9
12.0,26647.816794850445,29508.773029896383,-31939.88286732231,-28377.9982779024,-36583.12250174552,-32041.337435404952,-8130.670563062497,-38368.44573836872,0.0,0.0,0.0,193.0,0.0,193.0,0.0,16.0,0.0,179.0,193.0,16.0,179.0,1744420368.6346595,0.0,2025-04-11 21:12:48.634,FORWARD,9
13.0,26638.429062179217,29532.532934252376,-31927.276483449517,-28366.598888230194,-36573.60065860757,-32032.039109711543,-8382.597074818263,-38364.847107511414,0.0,0.0,0.0,193.0,0.0,193.0,0.0,16.0,0.0,179.0,193.0,16.0,179.0,1744420368.6347027,0.0,2025-04-11 21:12:48.634,FORWARD,9
14.0,26661.13843454581,29524.218085315002,-31940.37460570033,-28376.76893195736,-36591.50440591627,-32058.77179608009,-8080.401489782512,-38361.67315979876,0.0,0.0,0.0,193.0,0.0,193.0,0.0,16.0,0.0,179.0,193.0,16.0,179.0,1744420368.6347454,0.0,2025-04-11 21:12:48.634,FORWARD,9
15.0,26671.75551316208,29501.195788526034,-31951.952809328177,-28400.148856657608,-36601.22741475432,-32076.899060833344,-7788.979445574218,-38396.74304684914,0.0,0.0,0.0,193.0,0.0,193.0,0.0,16.0,0.0,179.0,193.0,16.0,179.0,1744420368.6348014,0.0,2025-04-11 21:12:48.634,FORWARD,9
16.0,26652.577716419426,29502.35807923771,-31935.881905064813,-28383.34034482722,-36587.45874016985,-32055.77666232308,-8067.660995442987,-38388.58466012295,0.0,0.0,0.0,193.0,0.0,193.0,0.0,17.0,0.0,179.0,193.0,17.0,179.0,1744420368.6348448,0.0,2025-04-11 21:12:48.634,FORWARD,9
17.0,26636.976198789624,29520.530047479875,-31923.431983403207,-28367.694123708505,-36578.383931921,-32047.081833729964,-8369.253083378444,-38383.33200017596,0.0,0.0,0.0,193.0,0.0,193.0,0.0,17.0,0.0,179.0,193.0,17.0,179.0,1744420368.634888,0.0,2025-04-11 21:12:48.634,FORWARD,9
18.0,26664.535899703016,29531.3706435407,-31921.442678146683,-28360.116882338156,-36580.23912671079,-32053.273266944085,-8174.345871728167,-38369.31745640248,0.0,0.0,0.0,193.0,0.0,193.0,0.0,17.0,0.0,179.0,193.0,17.0,179.0,1744420368.6349308,0.0,2025-04-11 21:12:48.634,FORWARD,9
19.0,26680.405638266282,29516.573788711285,-31946.56603891445,-28388.9506326855,-36607.977641579826,-32079.15658702333,-7780.128154769916,-38386.37183742188,0.0,0.0,0.0,193.0,0.0,193.0,0.0,17.0,0.0,180.0,193.0,17.0,180.0,1744420368.6349862,0.0,2025-04-11 21:12:48.634,FORWARD,9
20.0,26661.630172923826,29505.17439903908,-31937.13360275431,-28381.261632592876,-36599.238109497805,-32062.415130426307,-8027.293744956702,-38396.5642328935,0.0,0.0,0.0,193.0,0.0,194.0,0.0,17.0,0.0,179.0,194.0,17.0,179.0,1744420368.6350296,0.0,2025-04-11 21:12:48.635,FORWARD,9
21.0,26645.0898820269,29528.28610280587,-31920.638015346292,-28362.441463761505,-36578.98742902129,-32039.683406315256,-8338.228862074478,-38360.33205513145,0.0,0.0,0.0,193.0,0.0,194.0,0.0,17.0,0.0,180.0,194.0,17.0,180.0,1744420368.6350722,0.0,2025-04-11 21:12:48.635,FORWARD,9
22.0,26665.631135181327,29538.165573855113,-31914.156009454255,-28355.37831251363,-36573.10892022955,-32040.353958648917,-8242.25047138339,-38348.575037547955,0.0,0.0,0.0,193.0,0.0,193.0,0.0,17.0,0.0,179.0,193.0,17.0,179.0,1744420368.6351154,0.0,2025-04-11 21:12:48.635,FORWARD,9
23.0,26694.710754717682,29533.94109415306,-31934.965483542146,-28378.154740113587,-36594.14191176199,-32064.96322929421,-7787.638340906899,-38360.1532411758,0.0,0.0,0.0,193.0,0.0,193.0,0.0,17.0,0.0,179.0,193.0,17.0,179.0,1744420368.6351585,0.0,2025-04-11 21:12:48.635,FORWARD,9
24.0,26679.958603377177,29518.719556178996,-31928.37171892783,-28376.18778660152,-36587.81636808114,-32050.72516807618,-7957.131619111493,-38382.57204086448,0.0,0.0,0.0,193.0,0.0,193.0,0.0,17.0,0.0,179.0,193.0,17.0,179.0,1744420368.63528,0.0,2025-04-11 21:12:48.635,FORWARD,9
25.0,26648.710864628658,29527.727309194484,-31921.532085124505,-28364.22960331793,-36577.7357313318,-32038.476412114673,-8284.07058525927,-38356.91223822978,0.0,0.0,0.0,193.0,0.0,193.0,0.0,17.0,0.0,179.0,193.0,17.0,179.0,1744420368.6353197,0.0,2025-04-11 21:12:48.635,FORWARD,9
26.0,26652.980047819623,29534.768108697906,-31912.881960020302,-28356.89823113659,-36567.342170160075,-32040.935104004755,-8305.774129125373,-38360.935552231735,0.0,0.0,0.0,193.0,0.0,193.0,0.0,17.0,0.0,179.0,193.0,17.0,179.0,1744420368.6353576,0.0,2025-04-11 21:12:48.635,FORWARD,9
27.0,26675.868234141857,29523.99456787045,-31939.793460344492,-28382.401571560094,-36596.98058330781,-32073.05456078703,-7836.365143819469,-38361.11436618738,0.0,0.0,0.0,193.0,0.0,193.0,0.0,17.0,0.0,179.0,193.0,17.0,179.0,1744420368.635396,0.0,2025-04-11 21:12:48.635,FORWARD,9
28.0,26670.347353261397,29505.688489161552,-31936.105422509365,-28386.558996028783,-36591.0350192827,-32060.939915292256,-7899.285304461158,-38382.125005975366,0.0,0.0,0.0,193.0,0.0,193.0,0.0,17.0,0.0,179.0,193.0,17.0,179.0,1744420368.6354344,0.0,2025-04-11 21:12:48.635,FORWARD,9
29.0,26644.486384926604,29523.905160892627,-31919.98981475709,-28362.106187594676,-36572.01368475124,-32026.540580575536,-8227.610078765163,-38339.299063599,0.0,0.0,0.0,193.0,0.0,194.0,0.0,17.0,0.0,180.0,194.0,17.0,180.0,1744420368.6354723,0.0,2025-04-11 21:12:48.635,FORWARD,9
30.0,26639.211373235154,29530.856553418227,-31916.301776921962,-28359.647495704594,-36566.582210848595,-32022.38315610685,-8352.981013414981,-38339.81315372147,0.0,0.0,0.0,193.0,0.0,193.0,0.0,17.0,0.0,180.0,193.0,17.0,180.0,1744420368.6355247,0.0,2025-04-11 21:12:48.635,FORWARD,9
31.0,26668.290992771508,29530.610684229217,-31934.7866695865,-28375.56193775677,-36586.363504691544,-32051.999217510132,-7911.444653444845,-38338.91908394326,0.0,0.0,0.0,193.0,0.0,194.0,0.0,17.0,0.0,180.0,194.0,17.0,180.0,1744420368.6355631,0.0,2025-04-11 21:12:48.635,FORWARD,9
32.0,26665.161748547765,29508.79538164084,-31937.155954498765,-28391.409324575583,-36588.464568670344,-32056.9166012903,-7844.478827056745,-38383.242593198134,0.0,0.0,0.0,193.0,0.0,194.0,0.0,17.0,0.0,180.0,194.0,17.0,180.0,1744420368.6356013,0.0,2025-04-11 21:12:48.635,FORWARD,9
33.0,26645.291047726998,29516.93141662257,-31917.776992056013,-28364.67663820704,-36567.05159748216,-32029.803935266013,-8187.108717812147,-38357.06870044097,0.0,0.0,0.0,193.0,0.0,194.0,0.0,17.0,0.0,180.0,194.0,17.0,180.0,1744420368.6356397,0.0,2025-04-11 21:12:48.635,FORWARD,9
34.0,26627.8343353074,29528.84489641725,-31913.619567587328,-28358.798129415292,-36560.90486775695,-32023.299577629517,-8377.791449760372,-38344.28350261253,0.0,0.0,0.0,193.0,0.0,194.0,0.0,17.0,0.0,179.0,194.0,17.0,179.0,1744420368.6356895,0.0,2025-04-11 21:12:48.635,FORWARD,9
35.0,26654.07528329793,29532.644692974653,-31929.109326494854,-28370.890423165612,-36581.64728661147,-32046.076005229475,-8006.39486389099,-38341.578941533444,0.0,0.0,0.0,193.0,0.0,193.0,0.0,17.0,0.0,179.0,193.0,17.0,179.0,1744420368.635728,0.0,2025-04-11 21:12:48.635,FORWARD,9
36.0,26663.239498524606,29515.32209102179,-31936.530105654016,-28391.94576644251,-36587.05640876966,-32056.178993723275,-7812.493480741201,-38380.26981118558,0.0,0.0,0.0,193.0,0.0,193.0,0.0,17.0,0.0,179.0,193.0,17.0,179.0,1744420368.6357663,0.0,2025-04-11 21:12:48.635,FORWARD,9
37.0,26639.56900114644,29513.578654954275,-31931.992701529587,-28383.407400060583,-36582.51900464523,-32047.975903508177,-8123.339190881156,-38377.94522976223,0.0,0.0,0.0,193.0,0.0,193.0,0.0,17.0,0.0,179.0,193.0,17.0,179.0,1744420368.6358044,0.0,2025-04-11 21:12:48.635,FORWARD,9
38.0,26628.59429461888,29529.627207473186,-31915.02772748801,-28366.95651614148,-36569.89026902799,-32031.52501958907,-8391.694234811574,-38364.89181100033,0.0,0.0,0.0,193.0,0.0,193.0,0.0,17.0,0.0,179.0,193.0,17.0,179.0,1744420368.6358428,0.0,2025-04-11 21:12:48.635,FORWARD,9
39.0,26655.595201920893,29527.347329538745,-31920.727422324115,-28370.1975190875,-36578.383931921,-32045.9642465072,-8106.4636238174,-38343.54589504551,0.0,0.0,0.0,193.0,0.0,193.0,0.0,17.0,0.0,179.0,193.0,17.0,179.0,1744420368.635952,0.0,2025-04-11 21:12:48.635,FORWARD,9
40.0,26665.139396803308,29499.921739092082,-31940.106384766867,-28399.344193857218,-36600.26628974274,-32070.975848552687,-7802.636361436411,-38391.22216596868,0.0,0.0,0.0,193.0,0.0,194.0,0.0,17.0,0.0,180.0,194.0,17.0,180.0,1744420368.6359897,0.0,2025-04-11 21:12:48.635,FORWARD,9
41.0,26639.32313195743,29491.182207010057,-31930.919817795733,-28382.893309938114,-36591.616164638544,-32051.57453436548,-8087.1740683524695,-38389.4116746678,0.0,0.0,0.0,193.0,0.0,194.0,0.0,17.0,0.0,180.0,194.0,17.0,180.0,1744420368.6360266,0.0,2025-04-11 21:12:48.636,FORWARD,9
42.0,26628.549591129973,29516.730250922472,-31914.02189898752,-28363.648457962092,-36578.71920808783,-32032.709662045203,-8387.268589409423,-38373.27371517107,0.0,0.0,0.0,193.0,0.0,194.0,0.0,17.0,0.0,180.0,194.0,17.0,180.0,1744420368.6360636,0.0,2025-04-11 21:12:48.636,FORWARD,9
43.0,26650.36489371835,29530.387166784665,-31913.865436776334,-28360.966248627457,-36578.71920808783,-32044.82430753998,-8225.888994442104,-38371.284409914544,0.0,0.0,0.0,193.0,0.0,194.0,0.0,17.0,0.0,180.0,194.0,17.0,180.0,1744420368.6361005,0.0,2025-04-11 21:12:48.636,FORWARD,9
44.0,26664.75941714757,29515.79147765535,-31937.89356206579,-28390.738772241926,-36601.51798743224,-32074.507424176627,-7818.014361621662,-38392.49621540263,0.0,0.0,0.0,193.0,0.0,194.0,0.0,17.0,0.0,179.0,194.0,17.0,179.0,1744420368.6361377,0.0,2025-04-11 21:12:48.636,FORWARD,9
45.0,26641.021864536033,29496.74779137943,-31937.13360275431,-28390.179978630542,-36598.07581878613,-32059.308237947018,-8031.2947072142015,-38393.099712502924,0.0,0.0,0.0,193.0,0.0,193.0,0.0,17.0,0.0,179.0,193.0,17.0,179.0,1744420368.6361868,0.0,2025-04-11 21:12:48.636,FORWARD,9
46.0,26621.88877128229,29514.830352643774,-31922.9849485141,-28374.779626700834,-36581.46847265583,-32042.969112750186,-8363.240464119966,-38373.89956401582,0.0,0.0,0.0,193.0,0.0,193.0,0.0,17.0,0.0,179.0,193.0,17.0,179.0,1744420368.6362245,0.0,2025-04-11 21:12:48.636,FORWARD,9
47.0,26639.546649401982,29525.827410915783,-31912.61373908684,-28363.08966435071,-36574.31591443013,-32041.605656338415,-8306.444681459032,-38363.57305807746,0.0,0.0,0.0,193.0,0.0,193.0,0.0,17.0,0.0,179.0,193.0,17.0,179.0,1744420368.6362615,0.0,2025-04-11 21:12:48.636,FORWARD,9
48.0,26670.1461875613,29522.27348354739,-31933.154992241263,-28383.94384192751,-36595.6394786405,-32068.293639218053,-7839.2261671097485,-38366.00939822309,0.0,0.0,0.0,193.0,0.0,193.0,0.0,17.0,0.0,180.0,193.0,17.0,180.0,1744420368.63631,0.0,2025-04-11 21:12:48.636,FORWARD,9
49.0,26651.169556518744,29497.284233246355,-31933.691434108194,-28395.34323159972,-36590.52092916023,-32071.892270075357,-7986.077128181116,-38408.812988855,0.0,0.0,0.0,193.0,0.0,194.0,0.0,17.0,0.0,180.0,194.0,17.0,180.0,1744420368.636351,0.0,2025-04-11 21:12:48.636,FORWARD,9
50.0,26620.61472184834,29503.430962971564,-31923.677852592213,-28380.434618048028,-36578.272173198726,-32055.374330922885,-8291.469012673977,-38366.59054357893,0.0,0.0,0.0,193.0,0.0,193.0,0.0,17.0,0.0,179.0,193.0,17.0,179.0,1744420368.636388,0.0,2025-04-11 21:12:48.636,FORWARD,9
51.0,26632.863477809846,29518.22781780098,-31904.32124189392,-28359.222812559943,-36564.81642303663,-32041.024510982577,-8328.818777658795,-38341.1989618777,0.0,0.0,0.0,193.0,0.0,193.0,0.0,17.0,0.0,179.0,193.0,17.0,179.0,1744420368.636425,0.0,2025-04-11 21:12:48.636,FORWARD,9
52.0,26660.579640934426,29521.334710280265,-31924.638977603794,-28376.210138345974,-36588.50927215925,-32073.68040963178,-7875.905379760908,-38362.88015399935,0.0,0.0,0.0,193.0,0.0,193.0,0.0,17.0,0.0,180.0,193.0,17.0,180.0,1744420368.636462,0.0,2025-04-11 21:12:48.636,FORWARD,9
53.0,26647.101539027877,29495.585500667752,-31930.85276256237,-28392.57161528726,-36593.516062917246,-32073.814520098513,-7919.737150637764,-38407.3154219765,0.0,0.0,0.0,193.0,0.0,194.0,0.0,17.0,0.0,180.0,194.0,17.0,180.0,1744420368.6364992,0.0,2025-04-11 21:12:48.636,FORWARD,9
54.0,26620.391204403782,29507.3648699957,-31920.481553135105,-28375.696048223504,-36578.65215285446,-32049.093490730942,-8242.451637083488,-38364.847107511414,0.0,0.0,0.0,193.0,0.0,194.0,0.0,17.0,0.0,180.0,194.0,17.0,180.0,1744420368.6366007,0.0,2025-04-11 21:12:48.636,FORWARD,9
55.0,26623.431041649706,29520.910027135615,-31907.808114028947,-28363.290830050806,-36564.25762942524,-32039.10226095942,-8374.818667747817,-38353.82769749495,0.0,0.0,0.0,193.0,0.0,194.0,0.0,17.0,0.0,180.0,194.0,17.0,180.0,1744420368.6366384,0.0,2025-04-11 21:12:48.636,FORWARD,9
56.0,26650.36489371835,29518.049003845335,-31927.768221827537,-28379.585251758726,-36583.61424012354,-32067.757197351122,-7942.446523004356,-38349.625569537355,0.0,0.0,0.0,193.0,0.0,193.0,0.0,17.0,0.0,179.0,193.0,17.0,179.0,1744420368.6366756,0.0,2025-04-11 21:12:48.636,FORWARD,9
57.0,26643.637018637302,29496.703087890517,-31937.26771322104,-28399.61241479068,-36590.25270822677,-32072.987505553665,-7871.837362270041,-38396.43012242676,0.0,0.0,0.0,193.0,0.0,194.0,0.0,17.0,0.0,179.0,194.0,17.0,179.0,1744420368.6367128,0.0,2025-04-11 21:12:48.636,FORWARD,9
58.0,26621.01705324853,29503.095686804736,-31924.571922370425,-28377.886519180123,-36577.19928946487,-32043.10322321692,-8197.189354561491,-38354.43119459524,0.0,0.0,0.0,193.0,0.0,193.0,0.0,17.0,0.0,179.0,193.0,17.0,179.0,1744420368.6367495,0.0,2025-04-11 21:12:48.636,FORWARD,9
59.0,26615.02678573451,29519.74773642394,-31912.144352453277,-28364.341362040206,-36562.13421370199,-32034.207228923708,-8403.674769839618,-38344.68583401273,0.0,0.0,0.0,193.0,0.0,193.0,0.0,17.0,0.0,179.0,193.0,17.0,179.0,1744420368.6367867,0.0,2025-04-11 21:12:48.636,FORWARD,9
60.0,26647.839146594903,29532.823506930294,-31920.45920139065,-28364.073141106743,-36574.964115019335,-32054.21204021121,-8044.996326565305,-38348.440927081225,0.0,0.0,0.0,193.0,0.0,194.0,0.0,17.0,0.0,180.0,194.0,17.0,180.0,1744420368.6368363,0.0,2025-04-11 21:12:48.636,FORWARD,9
61.0,26650.163728018255,29509.51063746341,-31934.093765508387,-28385.307298339285,-36589.04571402618,-32067.421921184294,-7834.286431585126,-38386.684761844255,0.0,0.0,0.0,193.0,0.0,194.0,0.0,17.0,0.0,180.0,194.0,17.0,180.0,1744420368.6368735,0.0,2025-04-11 21:12:48.636,FORWARD,9
62.0,26628.147259729776,29497.351288479724,-31926.494172393584,-28372.387990044117,-36581.691990100386,-32050.144022720342,-8129.865900262106,-38368.289276157535,0.0,0.0,0.0,193.0,0.0,194.0,0.0,17.0,0.0,180.0,194.0,17.0,180.0,1744420368.6369102,0.0,2025-04-11 21:12:48.636,FORWARD,9
63.0,26620.145335214776,29516.394974755643,-31910.17739894121,-28353.836042146213,-36564.414091636434,-32036.464755113695,-8402.668941339129,-38363.08131969945,0.0,0.0,0.0,193.0,0.0,193.0,0.0,17.0,0.0,179.0,193.0,17.0,179.0,1744420368.636974,0.0,2025-04-11 21:12:48.636,FORWARD,9
64.0,26640.641884880293,29516.819657900294,-31918.291082178486,-28358.060521848267,-36574.964115019335,-32055.91077278981,-8137.867824777106,-38362.142546432326,0.0,0.0,0.0,193.0,0.0,193.0,0.0,17.0,0.0,180.0,193.0,17.0,180.0,1744420368.6370125,0.0,2025-04-11 21:12:48.637,FORWARD,9
65.0,26652.08597804141,29500.860512359206,-31933.154992241263,-28379.71936222546,-36586.96700179184,-32070.238240985662,-7795.103823554972,-38373.050197726516,0.0,0.0,0.0,193.0,0.0,193.0,0.0,17.0,0.0,179.0,193.0,17.0,179.0,1744420368.6370506,0.0,2025-04-11 21:12:48.637,FORWARD,9
66.0,26631.052986508967,29495.071410545283,-31926.65063460477,-28371.940955155012,-36580.75321683326,-32055.91077278981,-8067.973919865361,-38383.91314553179,0.0,0.0,0.0,193.0,0.0,193.0,0.0,17.0,0.0,180.0,193.0,17.0,180.0,1744420368.6370888,0.0,2025-04-11 21:12:48.637,FORWARD,9
67.0,26609.729422298602,29509.287120018857,-31920.280387435007,-28363.491995750905,-36582.09432150058,-32045.71837731819,-8399.584400604297,-38381.09682573043,0.0,0.0,0.0,193.0,0.0,193.0,0.0,17.0,0.0,179.0,193.0,17.0,179.0,1744420368.6371267,0.0,2025-04-11 21:12:48.637,FORWARD,9
68.0,26627.40965216275,29518.518390478897,-31922.761431069546,-28363.112016095165,-36587.57049889213,-32053.25091519963,-8249.090105186713,-38357.53808707453,0.0,0.0,0.0,193.0,0.0,193.0,0.0,17.0,0.0,179.0,193.0,17.0,179.0,1744420368.6371768,0.0,2025-04-11 21:12:48.637,FORWARD,9
69.0,26658.85855661137,29521.804096913827,-31928.61758811684,-28375.38312380113,-36586.27409771372,-32065.90200256133,-7810.839451651508,-38364.42242436676,0.0,0.0,0.0,193.0,0.0,193.0,0.0,17.0,0.0,179.0,193.0,17.0,179.0,1744420368.637215,0.0,2025-04-11 21:12:48.637,FORWARD,9
70.0,26636.976198789624,29500.905215848117,-31931.568018384936,-28378.28885058032,-36587.59285063659,-32056.849546056936,-8004.24909642328,-38383.175537964766,0.0,0.0,0.0,193.0,0.0,193.0,0.0,17.0,0.0,179.0,193.0,17.0,179.0,1744420368.6372533,0.0,2025-04-11 21:12:48.637,FORWARD,9
71.0,26616.524352613014,29513.779820654374,-31922.40380315826,-28363.8943271511,-36578.898022043475,-32039.303426659517,-8347.929519168081,-38370.99383723662,0.0,0.0,0.0,193.0,0.0,193.0,0.0,17.0,0.0,179.0,193.0,17.0,179.0,1744420368.6372912,0.0,2025-04-11 21:12:48.637,FORWARD,9
72.0,26634.204582477163,29522.45229750303,-31914.535989109994,-28354.17131831304,-36573.75712081875,-32041.315083660495,-8316.704132164017,-38362.902505743805,0.0,0.0,0.0,193.0,0.0,193.0,0.0,17.0,0.0,179.0,193.0,17.0,179.0,1744420368.637329,0.0,2025-04-11 21:12:48.637,FORWARD,9
73.0,26660.669047912248,29524.73217543747,-31934.339634697397,-28375.047847634298,-36594.20896699536,-32071.19936599724,-7854.604167295,-38369.31745640248,0.0,0.0,0.0,193.0,0.0,193.0,0.0,17.0,0.0,179.0,193.0,17.0,179.0,1744420368.6373672,0.0,2025-04-11 21:12:48.637,FORWARD,9
74.0,26640.12779475782,29499.40764896961,-31933.043233518987,-28381.1498738706,-36590.34211520459,-32063.510365904614,-7962.71955522532,-38387.04238975554,0.0,0.0,0.0,193.0,0.0,193.0,0.0,17.0,0.0,179.0,193.0,17.0,179.0,1744420368.6374052,0.0,2025-04-11 21:12:48.637,FORWARD,9
75.0,26609.46120136514,29503.140390293647,-31929.89163755079,-28371.359809799174,-36584.46360641284,-32052.893287288345,-8295.78289935385,-38366.99287497913,0.0,0.0,0.0,193.0,0.0,194.0,0.0,17.0,0.0,180.0,194.0,17.0,180.0,1744420368.6374552,0.0,2025-04-11 21:12:48.637,FORWARD,9
76.0,26617.26196018004,29519.61362595721,-31917.598178100372,-28360.18393757152,-36572.50542312925,-32046.232467440663,-8372.449382835553,-38367.104633701405,0.0,0.0,0.0,193.0,0.0,194.0,0.0,17.0,0.0,180.0,194.0,17.0,180.0,1744420368.6374934,0.0,2025-04-11 21:12:48.637,FORWARD,9
77.0,26643.547611659484,29514.89740787714,-31942.632131890314,-28383.60856576068,-36596.26532748524,-32080.9223748353,-7913.94804882384,-38383.5108141316,0.0,0.0,0.0,193.0,0.0,193.0,0.0,17.0,0.0,179.0,193.0,17.0,179.0,1744420368.6375315,0.0,2025-04-11 21:12:48.637,FORWARD,9
78.0,26635.344521444385,29491.763352365895,-31944.46497493565,-28393.130408898644,-36591.97379254983,-32075.893232332855,-7928.5213862087,-38414.4679802022,0.0,0.0,0.0,193.0,0.0,193.0,0.0,17.0,0.0,179.0,193.0,17.0,179.0,1744420368.637582,0.0,2025-04-11 21:12:48.637,FORWARD,9
79.0,26606.331957141396,29498.558282680307,-31939.88286732231,-28376.411304046072,-36586.385856436,-32052.33449367696,-8241.356401605177,-38363.1036714439,0.0,0.0,0.0,193.0,0.0,193.0,0.0,17.0,0.0,179.0,193.0,17.0,179.0,1744420368.6376207,0.0,2025-04-11 21:12:48.637,FORWARD,9
80.0,26610.10940195434,29519.099535834735,-31922.783782814004,-28358.75342592638,-36570.27024868372,-32039.0128539816,-8400.344359915776,-38360.44381385372,0.0,0.0,0.0,193.0,0.0,193.0,0.0,17.0,0.0,179.0,193.0,17.0,179.0,1744420368.6376593,0.0,2025-04-11 21:12:48.637,FORWARD,9
81.0,26644.151108759776,29524.73217543747,-31932.864419563346,-28360.474510249438,-36581.51317614474,-32057.72126409069,-7982.858476979552,-38349.02207243706,0.0,0.0,0.0,193.0,0.0,193.0,0.0,17.0,0.0,179.0,193.0,17.0,179.0,1744420368.6376972,0.0,2025-04-11 21:12:48.637,FORWARD,9
82.0,26640.46307092465,29504.772067638885,-31944.688492380203,-28381.932184926532,-36593.60546989506,-32065.276153716586,-7871.032699469651,-38391.62449736887,0.0,0.0,0.0,193.0,0.0,194.0,0.0,17.0,0.0,180.0,194.0,17.0,180.0,1744420368.6377356,0.0,2025-04-11 21:12:48.637,FORWARD,9
83.0,26610.154105443253,29510.203541541523,-31937.491230665593,-28368.90111790909,-36587.81636808114,-32048.646455841837,-8199.916267385039,-38375.128909960855,0.0,0.0,0.0,193.0,0.0,194.0,0.0,17.0,0.0,180.0,194.0,17.0,180.0,1744420368.6377864,0.0,2025-04-11 21:12:48.637,FORWARD,9
84.0,26596.74305877007,29513.332785765266,-31926.293006693486,-28362.41911201705,-36579.166242976935,-32046.232467440663,-8420.550336903374,-38376.537069861544,0.0,0.0,0.0,193.0,0.0,194.0,0.0,17.0,0.0,180.0,194.0,17.0,180.0,1744420368.637825,0.0,2025-04-11 21:12:48.637,FORWARD,9
85.0,26627.02967250701,29510.114134563704,-31934.920780053235,-28367.291792308308,-36584.77653083522,-32066.68431361727,-8057.379192993545,-38360.533220831545,0.0,0.0,0.0,193.0,0.0,194.0,0.0,17.0,0.0,180.0,194.0,17.0,180.0,1744420368.6378648,0.0,2025-04-11 21:12:48.637,FORWARD,9
86.0,26641.670065125236,29493.88676808915,-31941.80511734547,-28384.055600649786,-36597.986411808306,-32069.500633418636,-7832.386533306424,-38390.059875257,0.0,0.0,0.0,193.0,0.0,194.0,0.0,17.0,0.0,180.0,194.0,17.0,180.0,1744420368.6379035,0.0,2025-04-11 21:12:48.637,FORWARD,9
87.0,26619.1842102032,29493.775009366873,-31930.964521284644,-28368.051751619787,-36589.448045426376,-32047.81944129699,-8132.905737508027,-38373.29606691552,0.0,0.0,0.0,193.0,0.0,194.0,0.0,17.0,0.0,180.0,194.0,17.0,180.0,1744420368.637957,0.0,2025-04-11 21:12:48.637,FORWARD,9
88.0,26603.336823384387,29515.88088463317,-31917.642881589283,-28355.0430363468,-36574.695894085875,-32032.24027541164,-8395.292865668878,-38351.659578282786,0.0,0.0,0.0,193.0,0.0,193.0,0.0,17.0,0.0,179.0,193.0,17.0,179.0,1744420368.6379948,0.0,2025-04-11 21:12:48.637,FORWARD,9
89.0,26622.581675360405,29522.13937308066,-31925.60010261537,-28359.736902682413,-36584.01657152374,-32052.021569254586,-8157.984394786882,-38349.133831159335,0.0,0.0,0.0,193.0,0.0,194.0,0.0,17.0,0.0,180.0,194.0,17.0,180.0,1744420368.6380332,0.0,2025-04-11 21:12:48.638,FORWARD,9
90.0,26644.441681437696,29509.957672352517,-31939.100556266378,-28382.893309938114,-36597.204100752366,-32070.327647963484,-7822.037675623617,-38384.62840135436,0.0,0.0,0.0,193.0,0.0,194.0,0.0,17.0,0.0,180.0,194.0,17.0,180.0,1744420368.6380944,0.0,2025-04-11 21:12:48.638,FORWARD,9
91.0,26623.922780027722,29498.64768965813,-31930.964521284644,-28372.70091446649,-36588.106940759055,-32054.614371611402,-8085.832963685151,-38387.82470081147,0.0,0.0,0.0,193.0,0.0,193.0,0.0,17.0,0.0,179.0,193.0,17.0,179.0,1744420368.6381323,0.0,2025-04-11 21:12:48.638,FORWARD,9
92.0,26598.55355007095,29512.237550286958,-31925.488343893096,-28362.821443417248,-36582.586059878595,-32050.836926798456,-8391.046034222369,-38383.55551762051,0.0,0.0,0.0,193.0,0.0,193.0,0.0,17.0,0.0,179.0,193.0,17.0,179.0,1744420368.638172,0.0,2025-04-11 21:12:48.638,FORWARD,9
93.0,26620.882942781802,29519.41246025711,-31920.79447755748,-28357.121748581143,-36577.489862142786,-32049.696987831237,-8248.285442386323,-38357.35927311889,0.0,0.0,0.0,193.0,0.0,193.0,0.0,17.0,0.0,179.0,193.0,17.0,179.0,1744420368.6382267,0.0,2025-04-11 21:12:48.638,FORWARD,9
94.0,26645.64867563828,29509.689451419054,-31940.8886958228,-28381.820426204256,-36598.56755716414,-32072.518118920103,-7822.574117490544,-38368.132813946344,0.0,0.0,0.0,193.0,0.0,193.0,0.0,17.0,0.0,179.0,193.0,17.0,179.0,1744420368.6382658,0.0,2025-04-11 21:12:48.638,FORWARD,9
95.0,26628.437832407693,29495.876073345673,-31934.294931208486,-28377.931222669034,-36590.54328090468,-32058.637685613357,-8010.082901726116,-38378.34756116242,0.0,0.0,0.0,193.0,0.0,193.0,0.0,17.0,0.0,179.0,193.0,17.0,179.0,1744420368.6383035,0.0,2025-04-11 21:12:48.638,FORWARD,9
96.0,26607.02486121951,29516.12675382218,-31926.672986349226,-28367.13533009712,-36582.384894178496,-32046.67950232977,-8341.872196420694,-38371.66438957029,0.0,0.0,0.0,193.0,0.0,193.0,0.0,17.0,0.0,179.0,193.0,17.0,179.0,1744420368.6383452,0.0,2025-04-11 21:12:48.638,FORWARD,9
97.0,26614.26682642303,29517.825486400783,-31925.98008227111,-28365.146024840597,-36584.30714420166,-32051.619237854393,-8331.143359082145,-38372.93843900424,0.0,0.0,0.0,193.0,0.0,193.0,0.0,17.0,0.0,179.0,193.0,17.0,179.0,1744420368.6383832,0.0,2025-04-11 21:12:48.638,FORWARD,9
98.0,26650.18607976271,29516.394974755643,-31939.167611499743,-28378.333554069228,-36602.14383627699,-32072.361656708916,-7878.878161773463,-38369.25040116911,0.0,0.0,0.0,193.0,0.0,193.0,0.0,17.0,0.0,179.0,193.0,17.0,179.0,1744420368.6384356,0.0,2025-04-11 21:12:48.638,FORWARD,9
99.0,26634.428099921715,29493.395029711133,-31942.18509700121,-28389.978812930443,-36604.64723165599,-32074.686238132268,-7972.57667453011,-38394.35141019242,0.0,0.0,0.0,193.0,0.0,193.0,0.0,17.0,0.0,179.0,193.0,17.0,179.0,1744420368.6384735,0.0,2025-04-11 21:12:48.638,FORWARD,9
100.0,26607.047212963967,29508.236588029456,-31928.55053288347,-28372.0974173662,-36590.52092916023,-32058.90590654682,-8307.696379148529,-38376.64882858382,0.0,0.0,0.0,193.0,0.0,193.0,0.0,17.0,0.0,179.0,193.0,17.0,179.0,1744420368.6385112,0.0,2025-04-11 21:12:48.638,FORWARD,9
101.0,26618.51365786954,29526.073280104793,-31909.50684660755,-28354.819518902248,-36571.79016730668,-32049.42876689777,-8393.95176100156,-38372.84903202642,0.0,0.0,0.0,193.0,0.0,193.0,0.0,17.0,0.0,180.0,193.0,17.0,180.0,1744420368.6385484,0.0,2025-04-11 21:12:48.638,FORWARD,9
102.0,26641.960637803157,29516.059698588815,-31931.992701529587,-28375.33842031222,-36592.2867169722,-32081.637630657868,-7920.385351226968,-38374.12308146037,0.0,0.0,0.0,193.0,0.0,193.0,0.0,17.0,0.0,179.0,193.0,17.0,179.0,1744420368.6385863,0.0,2025-04-11 21:12:48.638,FORWARD,9
103.0,26639.725463357623,29497.55245417982,-31929.489306150594,-28382.848606449203,-36589.20217623737,-32073.143967764852,-7911.198784255837,-38403.78384635256,0.0,0.0,0.0,193.0,0.0,194.0,0.0,17.0,0.0,180.0,194.0,17.0,180.0,1744420368.6386237,0.0,2025-04-11 21:12:48.638,FORWARD,9
104.0,26611.875189766313,29508.482457218466,-31923.253169447562,-28367.492958008406,-36581.44612091138,-32054.457909400215,-8244.910328973572,-38373.050197726516,0.0,0.0,0.0,193.0,0.0,193.0,0.0,17.0,0.0,179.0,193.0,17.0,179.0,1744420368.6386607,0.0,2025-04-11 21:12:48.638,FORWARD,9
105.0,26606.153143185755,29528.755489439427,-31914.357175154353,-28356.786472414315,-36572.0807399846,-32054.793185567047,-8416.169394990135,-38382.50498563111,0.0,0.0,0.0,193.0,0.0,194.0,0.0,17.0,0.0,180.0,194.0,17.0,180.0,1744420368.6387112,0.0,2025-04-11 21:12:48.638,FORWARD,9
106.0,26641.446547680684,29529.64955921764,-31923.722556081124,-28359.222812559943,-36588.66573437044,-32071.10995901942,-8001.790404533197,-38363.796575522014,0.0,0.0,0.0,193.0,0.0,194.0,0.0,17.0,0.0,180.0,194.0,17.0,180.0,1744420368.6387491,0.0,2025-04-11 21:12:48.638,FORWARD,9
107.0,26649.448472195683,29508.057774073815,-31921.88971303579,-28367.93999289751,-36588.91160355945,-32066.05846477252,-7876.374766394469,-38389.746950834626,0.0,0.0,0.0,193.0,0.0,194.0,0.0,17.0,0.0,180.0,194.0,17.0,180.0,1744420368.6387868,0.0,2025-04-11 21:12:48.638,FORWARD,9
108.0,26616.971387502123,29503.78859088285,-31918.045212989477,-28355.62418170264,-36581.44612091138,-32054.43555765576,-8189.723871913418,-38375.57594484997,0.0,0.0,0.0,193.0,0.0,194.0,0.0,17.0,0.0,180.0,194.0,17.0,180.0,1744420368.6388369,0.0,2025-04-11 21:12:48.638,FORWARD,9
109.0,26601.660442550237,29516.260864288914,-31908.0316314735,-28341.02849257332,-36571.00785625075,-32041.315083660495,-8424.528947416418,-38364.98121797815,0.0,0.0,0.0,193.0,0.0,194.0,0.0,17.0,0.0,179.0,194.0,17.0,179.0,1744420368.6388745,0.0,2025-04-11 21:12:48.638,FORWARD,9
110.0,26638.540820901493,29528.196695828046,-31913.396050142772,-28339.642684417093,-36577.60162086506,-32052.75917682161,-8090.07979513166,-38344.998758435104,0.0,0.0,0.0,193.0,0.0,193.0,0.0,17.0,0.0,179.0,193.0,17.0,179.0,1744420368.638912,0.0,2025-04-11 21:12:48.638,FORWARD,9
111.0,26653.203565264175,29507.186056040056,-31928.058794505454,-28365.838928918714,-36590.967964049334,-32070.68527587477,-7829.637268738422,-38389.50108164562,0.0,0.0,0.0,193.0,0.0,193.0,0.0,17.0,0.0,179.0,193.0,17.0,179.0,1744420368.6389723,0.0,2025-04-11 21:12:48.638,FORWARD,9
112.0,26622.782841060503,29496.45721870151,-31925.60010261537,-28357.881707892622,-36591.50440591627,-32060.58228738097,-8134.872691020095,-38392.1609392358,0.0,0.0,0.0,193.0,0.0,193.0,0.0,17.0,0.0,179.0,193.0,17.0,179.0,1744420368.6390111,0.0,2025-04-11 21:12:48.639,FORWARD,9
113.0,26599.760544271536,29507.901311862628,-31921.912064780245,-28350.863260133658,-36589.85037682657,-32049.07113898649,-8414.51536590044,-38372.625514581865,0.0,0.0,0.0,193.0,0.0,193.0,0.0,17.0,0.0,179.0,193.0,17.0,179.0,1744420369.1130683,0.0,2025-04-11 21:12:49.113,FORWARD,9
114.0,26632.997588276576,29527.123812094193,-31913.79838154297,-28338.681559405515,-36581.960211033846,-32048.065310486,-8190.930866114005,-38350.40788059329,0.0,0.0,0.0,193.0,0.0,193.0,0.0,17.0,0.0,179.0,193.0,17.0,179.0,1744420369.113217,0.0,2025-04-11 21:12:49.113,FORWARD,9
115.0,26657.40569322177,29522.720518436498,-31925.9353787822,-28359.982771871422,-36591.4373506829,-32069.9700200522,-7830.173710605349,-38384.159014720804,0.0,0.0,0.0,193.0,0.0,193.0,0.0,17.0,0.0,179.0,193.0,17.0,179.0,1744420369.1132672,0.0,2025-04-11 21:12:49.113,FORWARD,9
116.0,26631.231800464608,29505.50967520591,-31927.209428216152,-28363.559050984273,-36590.92326056043,-32064.49384266065,-8085.989425896339,-38408.12008477689,0.0,0.0,0.0,193.0,0.0,193.0,0.0,17.0,0.0,179.0,193.0,17.0,179.0,1744420369.1133156,0.0,2025-04-11 21:12:49.113,FORWARD,9
117.0,26595.848988991856,29513.668061932098,-31927.209428216152,-28363.38023702863,-36587.32462970312,-32057.408339668316,-8392.2306766785,-38385.54482287703,0.0,0.0,0.0,193.0,0.0,193.0,0.0,17.0,0.0,179.0,193.0,17.0,179.0,1744420369.1133633,0.0,2025-04-11 21:12:49.113,FORWARD,9
118.0,26618.31249216944,29515.27738753288,-31924.191942714686,-28359.312219537762,-36586.788187836195,-32062.660999615313,-8290.418480684577,-38375.3077239165,0.0,0.0,0.0,193.0,0.0,193.0,0.0,17.0,0.0,179.0,193.0,17.0,179.0,1744420369.1134117,0.0,2025-04-11 21:12:49.113,FORWARD,9
119.0,26649.269658240042,29513.01986134289,-31941.671006878736,-28381.10517038169,-36606.32361249013,-32087.225566771696,-7879.727528062765,-38403.582680652464,0.0,0.0,0.0,193.0,0.0,193.0,0.0,17.0,0.0,179.0,193.0,17.0,179.0,1744420369.1135032,0.0,2025-04-11 21:12:49.113,FORWARD,9
120.0,26626.69439634018,29495.071410545283,-31936.261884720552,-28378.601775002695,-36588.106940759055,-32073.92627882079,-8039.006059051283,-38406.399000453835,0.0,0.0,0.0,193.0,0.0,193.0,0.0,17.0,0.0,179.0,193.0,17.0,179.0,1744420369.1135519,0.0,2025-04-11 21:12:49.113,FORWARD,9
121.0,26593.770276757514,29504.36973623869,-31932.618550374336,-28366.777702185835,-36580.99908602227,-32058.54827863554,-8343.70503946603,-38381.02977049706,0.0,0.0,0.0,193.0,0.0,193.0,0.0,17.0,0.0,179.0,193.0,17.0,179.0,1744420369.1135995,0.0,2025-04-11 21:12:49.113,FORWARD,9
122.0,26603.515637340028,29512.528122964875,-31925.7342130821,-28359.982771871422,-36580.216774966335,-32060.805804825523,-8342.78861794336,-38379.15222396281,0.0,0.0,0.0,193.0,0.0,193.0,0.0,17.0,0.0,179.0,193.0,17.0,179.0,1744420369.1136472,0.0,2025-04-11 21:12:49.113,FORWARD,9
123.0,26633.399919676773,29511.03055608637,-31940.70988186716,-28376.23249009043,-36596.10886527406,-32083.604584169938,-7882.99088275324,-38375.3077239165,0.0,0.0,0.0,193.0,0.0,193.0,0.0,17.0,0.0,179.0,193.0,17.0,179.0,1744420369.1137135,0.0,2025-04-11 21:12:49.113,FORWARD,9
124.0,26617.239608435586,29480.07339001577,-31947.03542554801,-28390.045868163812,-36600.93684207641,-32088.052581316544,-7969.827409962108,-38417.17254128129,0.0,0.0,0.0,193.0,0.0,193.0,0.0,17.0,0.0,180.0,193.0,17.0,180.0,1744420369.1137612,0.0,2025-04-11 21:12:49.113,FORWARD,9
125.0,26593.435000590685,29490.869282587682,-31937.781803343514,-28372.14212085511,-36591.32559196062,-32067.868956073402,-8316.212393786001,-38400.34167770644,0.0,0.0,0.0,193.0,0.0,193.0,0.0,17.0,0.0,180.0,193.0,17.0,180.0,1744420369.1138084,0.0,2025-04-11 21:12:49.113,FORWARD,9
126.0,26604.007375718043,29510.270596774888,-31919.498076379074,-28353.61252470166,-36573.69006558538,-32051.552182621028,-8419.499804913976,-38384.89662228783,0.0,0.0,0.0,193.0,0.0,194.0,0.0,17.0,0.0,180.0,194.0,17.0,180.0,1744420369.113856,0.0,2025-04-11 21:12:49.113,FORWARD,9
127.0,26627.968445774135,29511.65640493112,-31942.43096619022,-28373.729094711438,-36598.65696414196,-32082.419941713804,-7958.159799356437,-38390.28339270155,0.0,0.0,0.0,193.0,0.0,194.0,0.0,17.0,0.0,180.0,194.0,17.0,180.0,1744420369.1139038,0.0,2025-04-11 21:12:49.113,FORWARD,9
128.0,26623.632207349805,29487.06948603028,-31945.291989480498,-28385.553167528295,-36602.21089151036,-32079.8718428459,-7924.386313484468,-38413.90918659081,0.0,0.0,0.0,193.0,0.0,194.0,0.0,17.0,0.0,180.0,194.0,17.0,180.0,1744420369.113968,0.0,2025-04-11 21:12:49.113,FORWARD,9
129.0,26596.586596558882,29490.288137231844,-31932.573846885425,-28365.57070798525,-36590.29741171568,-32060.291714703053,-8266.54681760631,-38393.32322994748,0.0,0.0,0.0,193.0,0.0,194.0,0.0,17.0,0.0,180.0,194.0,17.0,180.0,1744420369.114015,0.0,2025-04-11 21:12:49.114,FORWARD,9
130.0,26598.7770675155,29505.59908218373,-31912.390221642283,-28343.50953620786,-36571.45489113985,-32041.315083660495,-8447.439485483108,-38377.4087878953,0.0,0.0,0.0,193.0,0.0,193.0,0.0,17.0,0.0,179.0,193.0,17.0,179.0,1744420369.114063,0.0,2025-04-11 21:12:49.114,FORWARD,9
131.0,26632.30468419846,29503.877997860673,-31925.868323548835,-28349.18687929951,-36586.8328913251,-32057.140118734853,-8029.461864168867,-38347.591560791916,0.0,0.0,0.0,193.0,0.0,194.0,0.0,17.0,0.0,180.0,194.0,17.0,180.0,1744420369.1141107,0.0,2025-04-11 21:12:49.114,FORWARD,9
132.0,26631.07533825342,29485.594270896232,-31938.362948699352,-28373.371466800152,-36600.73567637631,-32068.293639218053,-7879.682824573854,-38394.53022414807,0.0,0.0,0.0,193.0,0.0,194.0,0.0,17.0,0.0,179.0,194.0,17.0,179.0,1744420369.114158,0.0,2025-04-11 21:12:49.114,FORWARD,9
133.0,26598.88882623778,29487.5612244083,-31931.12098349583,-28357.85935614817,-36585.670600613426,-32051.082795987466,-8189.14272655758,-38386.70711358871,0.0,0.0,0.0,193.0,0.0,193.0,0.0,17.0,0.0,179.0,193.0,17.0,179.0,1744420369.1142056,0.0,2025-04-11 21:12:49.114,FORWARD,9
134.0,26588.137637154778,29506.560207195307,-31916.726460066613,-28338.636855916604,-36567.81155679364,-32032.888476000844,-8440.890424357704,-38380.33686641895,0.0,0.0,0.0,193.0,0.0,193.0,0.0,17.0,0.0,179.0,193.0,17.0,179.0,1744420369.1142673,0.0,2025-04-11 21:12:49.114,FORWARD,9
135.0,26609.617663576326,29509.73415490796,-31923.36492816984,-28336.64755066008,-36579.47916739931,-32044.936066262257,-8127.921298494494,-38348.373871847856,0.0,0.0,0.0,193.0,0.0,193.0,0.0,17.0,0.0,179.0,193.0,17.0,179.0,1744420369.1143155,0.0,2025-04-11 21:12:49.114,FORWARD,9
136.0,26622.112288726843,29498.5135791914,-31935.278407964517,-28358.52990848183,-36591.99614429428,-32058.794147824545,-7841.573100277556,-38379.7110175742,0.0,0.0,0.0,193.0,0.0,193.0,0.0,17.0,0.0,179.0,193.0,17.0,179.0,1744420369.1143632,0.0,2025-04-11 21:12:49.114,FORWARD,9
137.0,26602.55451232845,29495.630204156663,-31925.30952993745,-28346.32585600923,-36580.19442322188,-32040.48806911565,-8128.368333383601,-38374.34659890492,0.0,0.0,0.0,193.0,0.0,193.0,0.0,18.0,0.0,179.0,193.0,18.0,179.0,1744420369.1144104,0.0,2025-04-11 21:12:49.114,FORWARD,9
138.0,26584.963689442124,29516.059698588815,-31914.89361702128,-28332.914809336045,-36570.27024868372,-32029.37925212136,-8422.941973560093,-38370.70326455871,0.0,0.0,0.0,193.0,0.0,194.0,0.0,17.0,0.0,180.0,194.0,17.0,180.0,1744420369.1144724,0.0,2025-04-11 21:12:49.114,FORWARD,9
139.0,26605.41553561873,29517.17728581158,-31922.806134558457,-28336.625198915626,-36582.22843196731,-32043.706720317212,-8209.57222098973,-38353.179496905745,0.0,0.0,0.0,193.0,0.0,194.0,0.0,17.0,0.0,180.0,194.0,17.0,180.0,1744420369.1145203,0.0,2025-04-11 21:12:49.114,FORWARD,9
140.0,26623.811021305446,29503.632128671663,-31940.50871616706,-28361.212117816463,-36602.70262988837,-32064.583249638472,-7832.6547542398885,-38378.03463674005,0.0,0.0,0.0,193.0,0.0,194.0,0.0,17.0,0.0,180.0,194.0,17.0,180.0,1744420369.114568,0.0,2025-04-11 21:12:49.114,FORWARD,9
141.0,26598.01710820402,29487.941204064038,-31939.726405111123,-28360.76508292736,-36600.556862420664,-32055.82136581199,-8073.673614701464,-38398.10650326091,0.0,0.0,0.0,193.0,0.0,194.0,0.0,17.0,0.0,180.0,194.0,17.0,180.0,1744420369.1146157,0.0,2025-04-11 21:12:49.114,FORWARD,9
142.0,26578.05700040543,29505.822599628285,-31926.65063460477,-28345.1412135531,-36585.64824886897,-32032.754365534114,-8405.932296029603,-38374.41365413829,0.0,0.0,0.0,193.0,0.0,194.0,0.0,17.0,0.0,180.0,194.0,17.0,180.0,1744420369.114663,0.0,2025-04-11 21:12:49.114,FORWARD,9
143.0,26597.100686681355,29515.769125910894,-31922.537913624994,-28341.27436176233,-36583.793054079186,-32035.838906268946,-8307.226992514967,-38359.57209581997,0.0,0.0,0.0,193.0,0.0,194.0,0.0,17.0,0.0,180.0,194.0,17.0,180.0,1744420369.1147244,0.0,2025-04-11 21:12:49.114,FORWARD,9
144.0,26624.92860852821,29510.091782819247,-31942.699187123682,-28364.721341695946,-36606.27890900122,-32065.410264183316,-7860.348565620014,-38375.37477914987,0.0,0.0,0.0,193.0,0.0,194.0,0.0,17.0,0.0,180.0,194.0,17.0,180.0,1744420369.114772,0.0,2025-04-11 21:12:49.114,FORWARD,9
145.0,26604.275596651507,29486.68950637454,-31944.375567957828,-28372.56680399976,-36604.11078978906,-32067.10899676192,-8031.048838025194,-38417.284300003565,0.0,0.0,0.0,193.0,0.0,194.0,0.0,17.0,0.0,180.0,194.0,17.0,180.0,1744420369.1148248,0.0,2025-04-11 21:12:49.114,FORWARD,9
146.0,26587.087105165378,29508.79538164084,-31924.8848467928,-28345.789414142302,-36583.793054079186,-32038.744633048136,-8366.548522299352,-38380.04629374103,0.0,0.0,0.0,193.0,0.0,194.0,0.0,17.0,0.0,180.0,194.0,17.0,180.0,1744420369.1148725,0.0,2025-04-11 21:12:49.114,FORWARD,9
147.0,26595.647823291758,29515.567960210796,-31919.54277986798,-28338.480393705417,-36579.76974007723,-32039.683406315256,-8372.851714235749,-38369.98800873614,0.0,0.0,0.0,193.0,0.0,194.0,0.0,17.0,0.0,180.0,194.0,17.0,180.0,1744420369.11492,0.0,2025-04-11 21:12:49.114,FORWARD,9
148.0,26621.195867204176,29509.018899085393,-31943.101518523876,-28359.915716638057,-36604.91545258945,-32070.931145063776,-7905.007351041717,-38379.1075204739,0.0,0.0,0.0,193.0,0.0,194.0,0.0,17.0,0.0,180.0,194.0,17.0,180.0,1744420369.1149676,0.0,2025-04-11 21:12:49.114,FORWARD,9
149.0,26611.830486277402,29492.143332021635,-31939.99462604459,-28365.414245774064,-36602.032077554715,-32064.851470571935,-7982.612607790543,-38412.121047034394,0.0,0.0,0.0,193.0,0.0,194.0,0.0,17.0,0.0,180.0,194.0,17.0,180.0,1744420369.115029,0.0,2025-04-11 21:12:49.115,FORWARD,9
150.0,26586.014221431524,29503.140390293647,-31930.048099761978,-28344.157736797064,-36589.06806577064,-32041.829173782968,-8322.627344444674,-38377.94522976223,0.0,0.0,0.0,193.0,0.0,194.0,0.0,17.0,0.0,180.0,194.0,17.0,180.0,1744420369.1150768,0.0,2025-04-11 21:12:49.115,FORWARD,9
151.0,26585.20955863113,29511.052907830825,-31924.571922370425,-28338.279228005318,-36583.45777791236,-32041.42684238277,-8429.222813752034,-38373.27371517107,0.0,0.0,0.0,193.0,0.0,194.0,0.0,17.0,0.0,179.0,194.0,17.0,179.0,1744420369.1151252,0.0,2025-04-11 21:12:49.115,FORWARD,9
152.0,26617.038442735487,29512.79634389834,-31942.498021423584,-28352.651399690083,-36606.03303981222,-32071.355828208427,-7990.614532305543,-38381.76737806408,0.0,0.0,0.0,193.0,0.0,194.0,0.0,17.0,0.0,180.0,194.0,17.0,180.0,1744420369.115188,0.0,2025-04-11 21:12:49.115,FORWARD,9
153.0,26614.69150956768,29495.473741945476,-31944.28616098001,-28364.363713784664,-36603.93197583342,-32068.360694451418,-7940.144293325459,-38408.92474757728,0.0,0.0,0.0,193.0,0.0,194.0,0.0,17.0,0.0,180.0,194.0,17.0,180.0,1744420369.115236,0.0,2025-04-11 21:12:49.115,FORWARD,9
154.0,26590.059887177933,29496.2113495125,-31930.003396273067,-28344.627123430626,-36587.25757446975,-32046.277170929574,-8258.142561691113,-38375.5088896166,0.0,0.0,0.0,193.0,0.0,194.0,0.0,17.0,0.0,180.0,194.0,17.0,180.0,1744420369.1152835,0.0,2025-04-11 21:12:49.115,FORWARD,9
155.0,26583.890805708266,29508.281291518368,-31913.016070487032,-28326.164582510544,-36574.42767315241,-32026.965263720187,-8443.751447647983,-38357.78395626354,0.0,0.0,0.0,193.0,0.0,194.0,0.0,17.0,0.0,180.0,194.0,17.0,180.0,1744420369.1153312,0.0,2025-04-11 21:12:49.115,FORWARD,9
156.0,26607.158971686244,29498.82650361377,-31935.680739364714,-28341.9896175849,-36602.00972581026,-32060.492880403148,-8069.806762910696,-38364.33301738895,0.0,0.0,0.0,193.0,0.0,194.0,0.0,17.0,0.0,180.0,194.0,17.0,180.0,1744420369.1153786,0.0,2025-04-11 21:12:49.115,FORWARD,9
157.0,26625.35329167286,29488.4105906976,-31940.17344000023,-28354.104263079676,-36609.69872590288,-32066.505499661627,-7903.196859740837,-38419.742991893654,0.0,0.0,0.0,193.0,0.0,193.0,0.0,17.0,0.0,179.0,193.0,17.0,179.0,1744420369.115426,0.0,2025-04-11 21:12:49.115,FORWARD,9
158.0,26601.12400068331,29490.3104889763,-31930.89746605128,-28338.592152427693,-36594.29837397318,-32042.969112750186,-8211.561526246252,-38383.533165876055,0.0,0.0,0.0,193.0,0.0,194.0,0.0,17.0,0.0,180.0,194.0,17.0,180.0,1744420369.1154866,0.0,2025-04-11 21:12:49.115,FORWARD,9
159.0,26590.41751508922,29509.287120018857,-31913.440753631683,-28320.487239418893,-36572.01368475124,-32021.7573072621,-8441.33745924681,-38343.5011915566,0.0,0.0,0.0,193.0,0.0,194.0,0.0,17.0,0.0,180.0,194.0,17.0,180.0,1744420369.115534,0.0,2025-04-11 21:12:49.115,FORWARD,9
160.0,26619.78770730349,29513.109268320713,-31924.013128759045,-28325.85165808817,-36586.60937388055,-32043.10322321692,-8130.424693873489,-38344.931703201735,0.0,0.0,0.0,193.0,0.0,194.0,0.0,17.0,0.0,180.0,194.0,17.0,180.0,1744420369.1155815,0.0,2025-04-11 21:12:49.115,FORWARD,9
161.0,26634.249285966074,29498.915910591593,-31939.905219066768,-28353.23254504592,-36606.927109590426,-32064.11386300491,-7862.360222620991,-38400.98987829565,0.0,0.0,0.0,193.0,0.0,194.0,0.0,17.0,0.0,180.0,194.0,17.0,180.0,1744420369.1156287,0.0,2025-04-11 21:12:49.115,FORWARD,9
