Sample Index,EXG Channel 0,EXG Channel 1,EXG Channel 2,EXG Channel 3,EXG Channel 4,EXG Channel 5,EXG Channel 6,EXG Channel 7,Accel Channel 0,Accel Channel 1,Accel Channel 2,Not Used,Digital Channel 0 (D11),Digital Channel 1 (D12),Digital Channel 2 (D13),Digital Channel 3 (D17),Not Used,Digital Channel 4 (D18),Analog Channel 0,Analog Channel 1,Analog Channel 2,Timestamp,Marker Channel,Timestamp (Formatted),Stimulus_Direction,Stimulus_Number
231.0,7377.483830152015,-10200.486803112843,-21103.779507133902,-23695.196055793294,14933.20047059065,13368.198379063413,32248.694568716834,52000.86408863832,0.0,0.0,0.0,193.0,0.0,192.0,0.0,1.0,0.0,178.0,192.0,1.0,178.0,1744418853.9426537,0.0,2025-04-11 20:47:33.942,FORWARD,41
232.0,7356.160265941652,-10222.637381868051,-21146.51604253245,-23741.106538904496,14912.838031391864,13138.333039085037,32444.31703618968,51879.20354356808,0.0,0.0,0.0,193.0,0.0,193.0,0.0,1.0,0.0,179.0,193.0,1.0,179.0,1744418853.942683,0.0,2025-04-11 20:47:33.942,FORWARD,41
233.0,7357.926053753621,-10201.760852546795,-21183.798752283903,-23699.800515151088,14786.55067521938,13241.24047055727,32263.24555435724,51851.26386299895,0.0,0.0,0.0,193.0,0.0,193.0,0.0,1.0,0.0,179.0,193.0,1.0,179.0,1744418853.9427123,0.0,2025-04-11 20:47:33.942,FORWARD,41
234.0,7364.4751148790265,-10173.955282444393,-21175.95328998009,-23667.703410113267,14740.05904675234,13451.70449634844,32030.8097637665,51973.17027725819,0.0,0.0,0.0,193.0,0.0,193.0,0.0,1.0,0.0,178.0,193.0,1.0,178.0,1744418853.9427412,0.0,2025-04-11 20:47:33.942,FORWARD,41
235.0,7344.425600102616,-10203.817213036682,-21134.51315575995,-23693.385564492415,14892.006205559517,13398.015606166793,32192.412876178372,52022.07589412641,0.0,0.0,0.0,193.0,0.0,192.0,0.0,1.0,0.0,178.0,192.0,1.0,178.0,1744418853.9427705,0.0,2025-04-11 20:47:33.942,FORWARD,41
236.0,7327.237108616485,-10239.781169865271,-21169.96302246607,-23745.778053495655,14908.747662156542,13163.389344619436,32450.7096351039,51918.49791032051,0.0,0.0,0.0,193.0,0.0,193.0,0.0,1.0,0.0,179.0,193.0,1.0,179.0,1744418853.9427996,0.0,2025-04-11 20:47:33.942,FORWARD,41
237.0,7360.094172965786,-10207.169974704979,-21215.649988132714,-23727.248457342204,14773.698422157577,13189.786754821152,32284.47971158978,51833.27070871243,0.0,0.0,0.0,193.0,0.0,193.0,0.0,1.0,0.0,179.0,193.0,1.0,179.0,1744418854.4179156,0.0,2025-04-11 20:47:34.417,FORWARD,41
238.0,7386.98332154552,-10157.571453758652,-21208.475078162563,-23678.946337574285,14709.52656382639,13435.722999062897,32036.800031280523,51949.45507639111,0.0,0.0,0.0,193.0,0.0,193.0,0.0,1.0,0.0,179.0,193.0,1.0,179.0,1744418854.418106,0.0,2025-04-11 20:47:34.418,FORWARD,41
239.0,7375.114545239752,-10170.602520776096,-21141.79982445238,-23667.59165139099,14849.22496667206,13429.79978678224,32104.54816872456,52003.16631831721,0.0,0.0,0.0,193.0,0.0,192.0,0.0,1.0,0.0,178.0,192.0,1.0,178.0,1744418854.4181435,0.0,2025-04-11 20:47:34.418,FORWARD,41
240.0,7332.623879030214,-10231.086341272157,-21157.647211271193,-23724.990931152217,14957.25094762456,13219.156947035426,32438.79615530922,51936.424009373666,0.0,0.0,0.0,193.0,0.0,193.0,0.0,1.0,0.0,178.0,193.0,1.0,178.0,1744418854.4182189,0.0,2025-04-11 20:47:34.418,FORWARD,41
241.0,7339.97760295601,-10211.707378829406,-21211.06788051938,-23713.144506590907,14842.765312524476,13169.066687711083,32340.82845936161,51822.81009230734,0.0,0.0,0.0,193.0,0.0,193.0,0.0,1.0,0.0,179.0,193.0,1.0,179.0,1744418854.4182553,0.0,2025-04-11 20:47:34.418,FORWARD,41
242.0,7355.333251396805,-10178.49268656882,-21232.972590085577,-23679.50513118567,14736.907450784141,13427.56461233671,32106.135142580886,51943.978898999565,0.0,0.0,0.0,193.0,0.0,192.0,0.0,1.0,0.0,178.0,192.0,1.0,178.0,1744418854.4182913,0.0,2025-04-11 20:47:34.418,FORWARD,41
243.0,7359.557731098858,-10177.956244701893,-21184.58106333984,-23680.82388410853,14813.238658099015,13446.89887129055,32073.59100265396,52010.028303864994,0.0,0.0,0.0,193.0,0.0,192.0,0.0,1.0,0.0,178.0,192.0,1.0,178.0,1744418854.4184332,0.0,2025-04-11 20:47:34.418,FORWARD,41
244.0,7326.052466160353,-10211.2603439403,-21177.204987669586,-23730.26594284367,14931.14411010076,13262.318165578625,32427.620283081567,51969.839867334354,0.0,0.0,0.0,193.0,0.0,193.0,0.0,1.0,0.0,179.0,193.0,1.0,179.0,1744418854.4184697,0.0,2025-04-11 20:47:34.418,FORWARD,41
245.0,7305.019474627909,-10226.995972036835,-21232.100872051822,-23736.569134780068,14828.773120495454,13141.954021686795,32383.7438087158,51827.74982783197,0.0,0.0,0.0,193.0,0.0,192.0,0.0,1.0,0.0,178.0,192.0,1.0,178.0,1744418854.4185054,0.0,2025-04-11 20:47:34.418,FORWARD,41
246.0,7318.318762578817,-10207.125271216068,-21248.39529375974,-23691.39625923589,14725.306895411837,13399.781393978763,32153.722006526234,51920.353105110305,0.0,0.0,0.0,193.0,0.0,192.0,0.0,1.0,0.0,178.0,192.0,1.0,178.0,1744418854.4185407,0.0,2025-04-11 20:47:34.418,FORWARD,41
247.0,7339.664678533635,-10183.387718604532,-21196.561598367884,-23676.95703231776,14774.145457046683,13471.977528569405,32033.62608356787,51999.0759490819,0.0,0.0,0.0,193.0,0.0,193.0,0.0,1.0,0.0,179.0,193.0,1.0,179.0,1744418854.4185753,0.0,2025-04-11 20:47:34.418,FORWARD,41
248.0,7313.40137879865,-10224.000838279824,-21178.52374059245,-23732.79168996712,14905.529010954979,13288.62616880252,32348.249238520773,51973.43849819166,0.0,0.0,0.0,193.0,0.0,193.0,0.0,1.0,0.0,179.0,193.0,1.0,179.0,1744418854.4186103,0.0,2025-04-11 20:47:34.418,FORWARD,41
249.0,7314.183689854585,-10222.391512679043,-21215.82880208836,-23740.25717261519,14820.212402369072,13104.291332279603,32363.11314858355,51823.368885918724,0.0,0.0,0.0,193.0,0.0,192.0,0.0,1.0,0.0,178.0,192.0,1.0,178.0,1744418854.4186447,0.0,2025-04-11 20:47:34.418,FORWARD,41
250.0,7306.986428139977,-10205.06891072618,-21244.930773369168,-23712.56336123507,14715.00274121794,13343.075018295649,32167.289515410605,51894.40272979769,0.0,0.0,0.0,193.0,0.0,192.0,0.0,1.0,0.0,178.0,192.0,1.0,178.0,1744418854.4186919,0.0,2025-04-11 20:47:34.418,FORWARD,41
251.0,7331.796864485367,-10183.141849415524,-21207.268083961975,-23694.279634270628,14742.20481422005,13467.685993633986,32007.876873955356,51999.411225248725,0.0,0.0,0.0,193.0,0.0,193.0,0.0,1.0,0.0,179.0,193.0,1.0,179.0,1744418854.4187346,0.0,2025-04-11 20:47:34.418,FORWARD,41
252.0,7346.280794892406,-10202.87843976956,-21148.594754766793,-23701.521599474145,14925.824394920397,13340.616326405565,32298.360144896527,52002.78633866148,0.0,0.0,0.0,193.0,0.0,193.0,0.0,1.0,0.0,178.0,193.0,1.0,178.0,1744418854.4187727,0.0,2025-04-11 20:47:34.418,FORWARD,41
253.0,7308.148718851652,-10237.858919842116,-21223.428395203162,-23749.689608775334,14849.090856205328,13109.87926839343,32402.005183935784,51845.11713327374,0.0,0.0,0.0,193.0,0.0,192.0,0.0,1.0,0.0,178.0,192.0,1.0,178.0,1744418854.418805,0.0,2025-04-11 20:47:34.418,FORWARD,41
254.0,7313.133157865186,-10218.457605654909,-21246.182471058666,-23709.188247822316,14739.991991518975,13270.945938938374,32190.93766104432,51850.25803449846,0.0,0.0,0.0,193.0,0.0,192.0,0.0,1.0,0.0,178.0,192.0,1.0,178.0,1744418854.418836,0.0,2025-04-11 20:47:34.418,FORWARD,41
255.0,7343.486826835493,-10190.182648918944,-21216.320540466375,-23690.658651668866,14718.891944753164,13464.3779354546,31986.19568183371,51977.79708836044,0.0,0.0,0.0,193.0,0.0,193.0,0.0,1.0,0.0,179.0,193.0,1.0,179.0,1744418854.4188848,0.0,2025-04-11 20:47:34.418,FORWARD,41
0.0,7325.739541737979,-10221.385684178555,-21179.484865604027,-23733.998684167706,14887.04411829044,13360.844655137618,32195.206844235283,52001.4228822497,0.0,0.0,0.0,193.0,0.0,193.0,0.0,1.0,0.0,179.0,193.0,1.0,179.0,1744418854.4189165,0.0,2025-04-11 20:47:34.418,FORWARD,41
1.0,7315.480091032993,-10240.138797776557,-21207.424546173163,-23762.51951009268,14893.23555150456,13132.275716337648,32400.999355435295,51885.61849422676,0.0,0.0,0.0,193.0,0.0,193.0,0.0,1.0,0.0,179.0,193.0,1.0,179.0,1744418854.4189472,0.0,2025-04-11 20:47:34.418,FORWARD,41
2.0,7327.840605716778,-10211.975599762869,-21238.761691899505,-23719.93943690532,14767.30582324336,13235.272554787703,32227.840391140035,51848.80517110886,0.0,0.0,0.0,193.0,0.0,192.0,0.0,1.0,0.0,178.0,192.0,1.0,178.0,1744418854.4189782,0.0,2025-04-11 20:47:34.418,FORWARD,41
3.0,7348.292451893384,-10172.63652952153,-21222.243752747032,-23687.50705570067,14709.168935915106,13455.213720227925,31994.063495881976,51974.444326692144,0.0,0.0,0.0,193.0,0.0,193.0,0.0,1.0,0.0,179.0,193.0,1.0,179.0,1744418854.4191074,0.0,2025-04-11 20:47:34.419,FORWARD,41
4.0,7340.849320989767,-10203.839564781138,-21185.51983660696,-23720.74409970571,14844.307582891892,13387.666748483987,32105.866921647423,52000.037074093474,0.0,0.0,0.0,193.0,0.0,193.0,0.0,1.0,0.0,178.0,193.0,1.0,178.0,1744418854.4191396,0.0,2025-04-11 20:47:34.419,FORWARD,41
5.0,7326.678315005102,-10227.420655181486,-21211.00082528601,-23774.36593465399,14889.301644480425,13157.287318383136,32386.068390139153,51912.150014895204,0.0,0.0,0.0,193.0,0.0,193.0,0.0,1.0,0.0,179.0,193.0,1.0,179.0,1744418854.419171,0.0,2025-04-11 20:47:34.419,FORWARD,41
6.0,7322.029152158399,-10215.797748064728,-21266.455503279627,-23757.110387934496,14767.551692432367,13170.340737145036,32255.087167631053,51834.20948197955,0.0,0.0,0.0,193.0,0.0,193.0,0.0,1.0,0.0,179.0,193.0,1.0,179.0,1744418854.419202,0.0,2025-04-11 20:47:34.419,FORWARD,41
7.0,7346.414905359138,-10177.82213423516,-21273.183378360674,-23714.575018236046,14696.33903459776,13424.569478579699,32028.552237576514,51964.9671870431,0.0,0.0,0.0,193.0,0.0,193.0,0.0,1.0,0.0,178.0,193.0,1.0,178.0,1744418854.419233,0.0,2025-04-11 20:47:34.419,FORWARD,41
8.0,7362.910492767155,-10173.821171977661,-21216.991092800035,-23714.7985356806,14809.818841197353,13397.054481155215,32050.278133187072,52002.92044912821,0.0,0.0,0.0,193.0,0.0,193.0,0.0,1.0,0.0,179.0,193.0,1.0,179.0,1744418854.4192648,0.0,2025-04-11 20:47:34.419,FORWARD,41
9.0,7345.856111747756,-10209.941591017436,-21209.0562235184,-23756.93157397885,14906.624246433288,13198.66039736991,32388.97411691834,51942.011945487495,0.0,0.0,0.0,193.0,0.0,193.0,0.0,1.0,0.0,179.0,193.0,1.0,179.0,1744418854.419296,0.0,2025-04-11 20:47:34.419,FORWARD,41
10.0,7341.050486689865,-10202.006721735803,-21249.423474004685,-23740.994780182216,14794.35143403428,13140.5011582972,32298.114275707518,51813.91409801413,0.0,0.0,0.0,193.0,0.0,193.0,0.0,1.0,0.0,178.0,193.0,1.0,178.0,1744418854.4193275,0.0,2025-04-11 20:47:34.419,FORWARD,41
11.0,7347.778361770912,-10183.946512215914,-21276.893767940255,-23713.859762413475,14701.81521198931,13399.155545134014,32062.660999615313,51916.016866685975,0.0,0.0,0.0,193.0,0.0,192.0,0.0,1.0,0.0,178.0,192.0,1.0,178.0,1744418854.4193585,0.0,2025-04-11 20:47:34.419,FORWARD,41
12.0,7345.722001281024,-10192.596637320119,-21232.68201740766,-23722.04050088412,14775.553616947367,13431.65498157203,32019.969167705676,51987.877725109785,0.0,0.0,0.0,193.0,0.0,193.0,0.0,1.0,0.0,179.0,193.0,1.0,179.0,1744418854.4193897,0.0,2025-04-11 20:47:34.419,FORWARD,41
13.0,7345.431428603105,-10210.723902073372,-21201.81425831488,-23751.433044842845,14911.943961613651,13239.586441467578,32367.49409049679,51952.09258223684,0.0,0.0,0.0,193.0,0.0,193.0,0.0,1.0,0.0,179.0,193.0,1.0,179.0,1744418854.4194212,0.0,2025-04-11 20:47:34.419,FORWARD,41
14.0,7339.9328994671,-10206.298256671222,-21250.317543782898,-23743.386416838937,14804.588532994812,13093.987178085707,32331.9324650684,51798.849022251256,0.0,0.0,0.0,193.0,0.0,193.0,0.0,1.0,0.0,178.0,193.0,1.0,178.0,1744418854.4194665,0.0,2025-04-11 20:47:34.419,FORWARD,41
15.0,7340.5811000563035,-10191.926084986459,-21282.816980220912,-23714.195038580303,14694.327377596783,13347.88064335354,32118.383898542394,51890.20060184009,0.0,0.0,0.0,193.0,0.0,193.0,0.0,1.0,0.0,178.0,193.0,1.0,178.0,1744418854.419498,0.0,2025-04-11 20:47:34.419,FORWARD,41
16.0,7367.537303869403,-10177.330395857143,-21250.183433316164,-23704.852009397986,14744.30587819885,13442.80850205523,31991.403638291795,51974.64549239224,0.0,0.0,0.0,193.0,0.0,193.0,0.0,0.0,0.0,179.0,193.0,0.0,179.0,1744418854.4195292,0.0,2025-04-11 20:47:34.419,FORWARD,41
17.0,7328.757027239446,-10225.364294691599,-21244.126110568777,-23762.005419970206,14906.847763877842,13282.39003209949,32319.706060851346,51963.22375097558,0.0,0.0,0.0,193.0,0.0,192.0,0.0,1.0,0.0,178.0,192.0,1.0,178.0,1744418854.41956,0.0,2025-04-11 20:47:34.419,FORWARD,41
18.0,7332.489768563482,-10219.754006833316,-21260.73345669907,-23765.648754316422,14845.693391048122,13105.230105546727,32386.56012851717,51832.71191510105,0.0,0.0,0.0,193.0,0.0,192.0,0.0,0.0,0.0,178.0,192.0,0.0,178.0,1744418854.4196775,0.0,2025-04-11 20:47:34.419,FORWARD,41
19.0,7340.625803545214,-10190.987311719337,-21287.10851515633,-23721.481707272735,14730.067816980818,13319.426872661934,32182.80162606259,51890.60293324029,0.0,0.0,0.0,193.0,0.0,193.0,0.0,0.0,0.0,179.0,193.0,0.0,179.0,1744418854.419709,0.0,2025-04-11 20:47:34.419,FORWARD,41
20.0,7382.8929523102,-10153.034049634225,-21246.271878036485,-23691.59742493599,14735.588697861278,13459.28173771879,32004.30059484251,51989.91173385522,0.0,0.0,0.0,193.0,0.0,193.0,0.0,0.0,0.0,179.0,193.0,0.0,179.0,1744418854.41974,0.0,2025-04-11 20:47:34.419,FORWARD,41
21.0,7376.545056884892,-10172.01068067678,-21195.801639056404,-23708.383585021926,14919.454147750635,13362.40927724949,32293.331002394083,52001.84756539435,0.0,0.0,0.0,193.0,0.0,192.0,0.0,0.0,0.0,178.0,192.0,0.0,178.0,1744418854.4197707,0.0,2025-04-11 20:47:34.419,FORWARD,41
22.0,7346.034925703398,-10223.665562112996,-21265.986116646065,-23766.78869328364,14862.99364125653,13128.654733735888,32423.32874814615,51854.03547931141,0.0,0.0,0.0,193.0,0.0,193.0,0.0,0.0,0.0,179.0,193.0,0.0,179.0,1744418854.4198017,0.0,2025-04-11 20:47:34.419,FORWARD,41
23.0,7338.390629099683,-10215.30600968671,-21313.21535268013,-23740.592448782023,14739.053218251851,13260.373563811012,32216.217484023273,51845.94414781858,0.0,0.0,0.0,193.0,0.0,193.0,0.0,0.0,0.0,179.0,193.0,0.0,179.0,1744418854.4198327,0.0,2025-04-11 20:47:34.419,FORWARD,41
24.0,7360.5412078548925,-10175.028166178246,-21295.91510247172,-23706.148410576396,14718.556668586334,13454.967851038917,32003.38417331984,51969.32577721188,0.0,0.0,0.0,193.0,0.0,192.0,0.0,0.0,0.0,178.0,192.0,0.0,178.0,1744418854.4198647,0.0,2025-04-11 20:47:34.419,FORWARD,41
25.0,7372.700556838579,-10177.084526668135,-21235.520688953482,-23710.484649000722,14894.241380005049,13384.090469371138,32220.866646869978,52004.88740264028,0.0,0.0,0.0,193.0,0.0,193.0,0.0,0.0,0.0,179.0,193.0,0.0,179.0,1744418854.4198954,0.0,2025-04-11 20:47:34.419,FORWARD,41
26.0,7367.827876547322,-10200.084471712646,-21258.833558420367,-23744.101672661505,14900.656330663722,13149.285393868136,32445.74754783482,51879.13648833472,0.0,0.0,0.0,193.0,0.0,193.0,0.0,0.0,0.0,178.0,193.0,0.0,178.0,1744418854.4199266,0.0,2025-04-11 20:47:34.419,FORWARD,41
27.0,7364.9445015125875,-10191.747271030818,-21308.052099710956,-23719.537105505122,14765.96471857604,13221.325066247591,32274.309667862617,51827.41455166514,0.0,0.0,0.0,193.0,0.0,193.0,0.0,0.0,0.0,178.0,193.0,0.0,178.0,1744418854.4199572,0.0,2025-04-11 20:47:34.419,FORWARD,41
28.0,7370.174809715129,-10172.547122543709,-21308.588541577883,-23691.17274179134,14705.167973657606,13459.304089463245,32038.96815049269,51956.987614272555,0.0,0.0,0.0,193.0,0.0,192.0,0.0,0.0,0.0,178.0,192.0,0.0,178.0,1744418854.4199884,0.0,2025-04-11 20:47:34.419,FORWARD,41
29.0,7373.035833005409,-10184.102974427102,-21252.038628105955,-23707.02012861015,14842.765312524476,13415.494670330843,32150.59276230249,52001.646399694255,0.0,0.0,0.0,193.0,0.0,193.0,0.0,0.0,0.0,179.0,193.0,0.0,179.0,1744418854.4200325,0.0,2025-04-11 20:47:34.420,FORWARD,41
30.0,7348.940652482588,-10221.87742255657,-21268.847139936344,-23760.485501347244,14902.913856853707,13187.03749025315,32443.33355943365,51915.27925911895,0.0,0.0,0.0,193.0,0.0,193.0,0.0,0.0,0.0,179.0,193.0,0.0,179.0,1744418854.4200635,0.0,2025-04-11 20:47:34.420,FORWARD,41
31.0,7341.11754192323,-10206.365311904587,-21308.767355533524,-23735.920934190865,14787.064765341851,13184.958778018807,32313.78284857069,51822.87714754071,0.0,0.0,0.0,193.0,0.0,193.0,0.0,0.0,0.0,178.0,193.0,0.0,178.0,1744418854.420094,0.0,2025-04-11 20:47:34.420,FORWARD,41
32.0,7372.052356249375,-10161.103029382592,-21305.12402118731,-23695.50898021567,14705.95028471354,13436.61706884111,32072.04873228654,51936.66987856268,0.0,0.0,0.0,193.0,0.0,192.0,0.0,0.0,0.0,178.0,192.0,0.0,178.0,1744418854.420125,0.0,2025-04-11 20:47:34.420,FORWARD,41
33.0,7389.576123902336,-10156.63268049153,-21244.081407079866,-23691.999756336183,14812.098719131794,13447.077685246193,32089.997183084153,51998.159527559226,0.0,0.0,0.0,193.0,0.0,193.0,0.0,0.0,0.0,179.0,193.0,0.0,179.0,1744418854.420223,0.0,2025-04-11 20:47:34.420,FORWARD,41
34.0,7359.736545054501,-10206.454718882409,-21243.567316957393,-23739.69837900381,14917.509545983023,13246.448427015357,32429.229608682348,51944.247119933025,0.0,0.0,0.0,193.0,0.0,193.0,0.0,0.0,0.0,178.0,193.0,0.0,178.0,1744418854.4202592,0.0,2025-04-11 20:47:34.420,FORWARD,41
35.0,7359.758896798957,-10198.273980411766,-21282.369945331808,-23725.795593952607,14801.682806215622,13159.902472484408,32360.721511926833,51825.604060364254,0.0,0.0,0.0,193.0,0.0,192.0,0.0,0.0,0.0,178.0,192.0,0.0,178.0,1744418854.4202905,0.0,2025-04-11 20:47:34.420,FORWARD,41
36.0,7364.497466623482,-10175.989291189826,-21298.21733215062,-23692.40208773638,14696.204924131027,13412.857164485118,32131.616131259936,51936.60282332931,0.0,0.0,0.0,193.0,0.0,193.0,0.0,0.0,0.0,179.0,193.0,0.0,179.0,1744418854.4203217,0.0,2025-04-11 20:47:34.420,FORWARD,41
37.0,7385.485754667015,-10152.095276367101,-21239.745168655536,-23676.062962539552,14766.59056742079,13451.033944014782,32046.67950232977,52001.66875143871,0.0,0.0,0.0,193.0,0.0,193.0,0.0,0.0,0.0,179.0,193.0,0.0,179.0,1744418854.4203522,0.0,2025-04-11 20:47:34.420,FORWARD,41
38.0,7373.326405683328,-10187.209866906389,-21209.279740962953,-23719.93943690532,14919.700016939643,13274.72338375132,32387.878881440032,51968.38700394476,0.0,0.0,0.0,193.0,0.0,192.0,0.0,0.0,0.0,178.0,192.0,0.0,178.0,1744418854.420383,0.0,2025-04-11 20:47:34.420,FORWARD,41
39.0,7352.069896706331,-10197.245800166822,-21264.622660234294,-23740.726559248753,14820.525326791445,13116.182460329826,32380.45810228087,51819.12205447222,0.0,0.0,0.0,193.0,0.0,193.0,0.0,0.0,0.0,179.0,193.0,0.0,179.0,1744418854.4204135,0.0,2025-04-11 20:47:34.420,FORWARD,41
40.0,7362.530513111415,-10165.707488740383,-21285.476837811093,-23694.771372648644,14722.334113399282,13362.476332482855,32171.51399511266,51905.13156713624,0.0,0.0,0.0,193.0,0.0,193.0,0.0,0.0,0.0,179.0,193.0,0.0,179.0,1744418854.420444,0.0,2025-04-11 20:47:34.420,FORWARD,41
41.0,7392.817126848356,-10140.539424483708,-21241.935639612155,-23674.654802638866,14750.67612536861,13466.724868622408,32047.39475815234,52003.188670061674,0.0,0.0,0.0,193.0,0.0,192.0,0.0,0.0,0.0,178.0,192.0,0.0,178.0,1744418854.4204748,0.0,2025-04-11 20:47:34.420,FORWARD,41
42.0,7392.906533826177,-10162.041802649714,-21193.477057633052,-23697.453581983278,14906.244266777549,13315.068282493148,32354.015988590243,51978.69115813865,0.0,0.0,0.0,193.0,0.0,192.0,0.0,0.0,0.0,178.0,192.0,0.0,178.0,1744418854.4205055,0.0,2025-04-11 20:47:34.420,FORWARD,41
43.0,7370.644196348691,-10195.882343755049,-21246.338933269853,-23733.46224230078,14834.830443242841,13121.725692954744,32433.69995757341,51833.91890930163,0.0,0.0,0.0,193.0,0.0,193.0,0.0,0.0,0.0,179.0,193.0,0.0,179.0,1744418854.4205363,0.0,2025-04-11 20:47:34.420,FORWARD,41
44.0,7368.811353303356,-10178.000948190804,-21285.70035525565,-23697.900616872386,14715.472127851503,13321.125605240537,32242.19021108034,51880.32113079085,0.0,0.0,0.0,193.0,0.0,193.0,0.0,0.0,0.0,179.0,193.0,0.0,179.0,1744418854.420581,0.0,2025-04-11 20:47:34.420,FORWARD,41
45.0,7370.331271926317,-10154.263395579266,-21262.20867183312,-23674.7889131056,14704.676235279589,13471.485790191387,32051.619237854393,51988.83885012136,0.0,0.0,0.0,193.0,0.0,192.0,0.0,0.0,0.0,178.0,192.0,0.0,178.0,1744418854.4206126,0.0,2025-04-11 20:47:34.420,FORWARD,41
46.0,7360.943539255088,-10180.191419147422,-21206.664586861683,-23708.45064025529,14873.208388472605,13347.21009101988,32300.05887747513,51987.09541405385,0.0,0.0,0.0,193.0,0.0,192.0,0.0,0.0,0.0,178.0,192.0,0.0,178.0,1744418854.420643,0.0,2025-04-11 20:47:34.420,FORWARD,41
47.0,7350.326460638817,-10202.923143258471,-21243.12028206829,-23746.6050680405,14831.477681574546,13103.352559012481,32432.89529477302,51825.1793772196,0.0,0.0,0.0,193.0,0.0,193.0,0.0,0.0,0.0,179.0,193.0,0.0,179.0,1744418854.420674,0.0,2025-04-11 20:47:34.420,FORWARD,41
48.0,7361.748202055479,-10174.782296989239,-21262.990982889056,-23692.78206739212,14735.745160072465,13261.155874866949,32257.836432199056,51825.3805429197,0.0,0.0,0.0,193.0,0.0,193.0,0.0,0.0,0.0,179.0,193.0,0.0,179.0,1744418854.4207532,0.0,2025-04-11 20:47:34.420,FORWARD,41
49.0,7383.027062776931,-10145.210939074866,-21252.172738572688,-23672.531386915613,14716.254438907437,13478.86186586164,32061.63281937037,51960.94387304114,0.0,0.0,0.0,193.0,0.0,192.0,0.0,0.0,0.0,178.0,192.0,0.0,178.0,1744418854.4207888,0.0,2025-04-11 20:47:34.420,FORWARD,41
50.0,7384.524629655437,-10157.3479363141,-21208.13980199573,-23702.996814608196,14863.507731379,13392.025338652771,32243.419557025383,51994.89617286875,0.0,0.0,0.0,193.0,0.0,193.0,0.0,0.0,0.0,179.0,193.0,0.0,179.0,1744418854.42082,0.0,2025-04-11 20:47:34.420,FORWARD,41
51.0,7365.659757335157,-10184.617064549573,-21229.239848761543,-23739.69837900381,14878.058717019407,13159.164864917382,32477.509376705813,51878.30947378987,0.0,0.0,0.0,193.0,0.0,193.0,0.0,0.0,0.0,179.0,193.0,0.0,179.0,1744418854.4208508,0.0,2025-04-11 20:47:34.420,FORWARD,41
52.0,7350.415867616638,-10186.11463142808,-21265.047343378945,-23705.768430920652,14759.572119661823,13222.554412192632,32316.35329918305,51815.45636838155,0.0,0.0,0.0,193.0,0.0,193.0,0.0,0.0,0.0,179.0,193.0,0.0,179.0,1744418854.4208815,0.0,2025-04-11 20:47:34.420,FORWARD,41
53.0,7347.420733859627,-10174.424669077955,-21284.962747688623,-23694.749020904186,14683.531485024869,13453.604394627142,32082.934031836277,51934.92644249516,0.0,0.0,0.0,193.0,0.0,193.0,0.0,0.0,0.0,179.0,193.0,0.0,179.0,1744418854.4209125,0.0,2025-04-11 20:47:34.420,FORWARD,41
54.0,7350.751143783467,-10178.671500524462,-21224.411871959197,-23695.911311615862,14818.916001190664,13413.37125460759,32159.958143229265,51975.31604472591,0.0,0.0,0.0,193.0,0.0,193.0,0.0,0.0,0.0,179.0,193.0,0.0,179.0,1744418854.4209433,0.0,2025-04-11 20:47:34.420,FORWARD,41
55.0,7343.799751257868,-10198.072814711668,-21215.873505577267,-23725.572076508055,14905.886638866263,13212.429071954379,32483.81256864221,51907.09852064831,0.0,0.0,0.0,193.0,0.0,193.0,0.0,0.0,0.0,179.0,193.0,0.0,179.0,1744418854.4209752,0.0,2025-04-11 20:47:34.420,FORWARD,41
56.0,7342.972736713021,-10188.416861106976,-21257.49245375305,-23712.4963060017,14783.935521118108,13197.207533980314,32373.59611673309,51811.142481701674,0.0,0.0,0.0,193.0,0.0,193.0,0.0,0.0,0.0,178.0,193.0,0.0,178.0,1744418854.421006,0.0,2025-04-11 20:47:34.421,FORWARD,41
57.0,7351.935786239599,-10164.746363728806,-21270.67998298168,-23686.970613833742,14688.962958927508,13449.938708536472,32125.11177362344,51924.73404702354,0.0,0.0,0.0,193.0,0.0,193.0,0.0,0.0,0.0,179.0,193.0,0.0,179.0,1744418854.42104,0.0,2025-04-11 20:47:34.421,FORWARD,41
58.0,7351.220530417029,-10178.604445291096,-21212.945427053623,-23690.636299924412,14794.574951478835,13454.163188238525,32120.507314265647,51984.25674250803,0.0,0.0,0.0,193.0,0.0,193.0,0.0,0.0,0.0,178.0,193.0,0.0,178.0,1744418854.4210758,0.0,2025-04-11 20:47:34.421,FORWARD,41
59.0,7325.873652204711,-10225.520756902786,-21211.91724680868,-23748.482614574747,14902.869153364796,13230.265764029715,32451.693111859935,51919.9060702212,0.0,0.0,0.0,193.0,0.0,193.0,0.0,0.0,0.0,179.0,193.0,0.0,179.0,1744418854.4211397,0.0,2025-04-11 20:47:34.421,FORWARD,41
60.0,7316.195346855563,-10233.612088395606,-21258.72179969809,-23745.64394302892,14793.032681111417,13124.094977867006,32388.258861095772,51784.163926144116,0.0,0.0,0.0,193.0,0.0,193.0,0.0,0.0,0.0,179.0,193.0,0.0,179.0,1744418854.421173,0.0,2025-04-11 20:47:34.421,FORWARD,41
61.0,7309.266306074418,-10211.975599762869,-21286.817942478414,-23708.540047233113,14691.488706050957,13388.60552175111,32177.236041693217,51904.349256080306,0.0,0.0,0.0,193.0,0.0,193.0,0.0,0.0,0.0,178.0,193.0,0.0,178.0,1744418854.421208,0.0,2025-04-11 20:47:34.421,FORWARD,41
62.0,7351.712268795046,-10167.272110852255,-21228.16696502769,-23688.02114582314,14756.219357993527,13454.163188238525,32096.68035467629,51989.79997513294,0.0,0.0,0.0,193.0,0.0,193.0,0.0,0.0,0.0,179.0,193.0,0.0,179.0,1744418854.4212444,0.0,2025-04-11 20:47:34.421,FORWARD,41
63.0,7337.697725021569,-10202.721977558373,-21200.2049327141,-23731.294123088614,14909.127641812283,13274.499866306767,32445.099347245618,51955.579454371866,0.0,0.0,0.0,193.0,0.0,193.0,0.0,0.0,0.0,179.0,193.0,0.0,179.0,1744418854.4213712,0.0,2025-04-11 20:47:34.421,FORWARD,41
64.0,7350.438219361094,-10186.762832017283,-21235.58774418685,-23728.54485852061,14820.502975046991,13113.969637628752,32480.839786629655,51803.878164753696,0.0,0.0,0.0,193.0,0.0,193.0,0.0,0.0,0.0,178.0,193.0,0.0,178.0,1744418854.4214053,0.0,2025-04-11 20:47:34.421,FORWARD,41
65.0,7342.324536123817,-10178.962073202381,-21273.9209859277,-23700.20284655128,14694.170915385595,13346.561890430678,32276.656601030423,51863.17734279363,0.0,0.0,0.0,193.0,0.0,193.0,0.0,0.0,0.0,179.0,193.0,0.0,179.0,1744418854.4214373,0.0,2025-04-11 20:47:34.421,FORWARD,41
66.0,7345.140855925186,-10170.244892864812,-21241.466252978596,-23696.268939527148,14704.00568294593,13447.90469979104,32129.20214285876,51959.44630616264,0.0,0.0,0.0,193.0,0.0,193.0,0.0,0.0,0.0,179.0,193.0,0.0,179.0,1744418854.4214685,0.0,2025-04-11 20:47:34.421,FORWARD,41
67.0,7326.454797560549,-10187.478087839852,-21187.24092093002,-23719.581808994033,14881.970272299084,13323.606648875077,32447.24511471333,51965.8165533324,0.0,0.0,0.0,193.0,0.0,192.0,0.0,0.0,0.0,179.0,192.0,0.0,179.0,1744418854.4215007,0.0,2025-04-11 20:47:34.421,FORWARD,41
68.0,7334.255556375451,-10191.546105330719,-21223.741319625537,-23735.54095453512,14825.688579760621,13129.280582580637,32543.178801915506,51821.75956031794,0.0,0.0,0.0,193.0,0.0,193.0,0.0,0.0,0.0,178.0,193.0,0.0,178.0,1744418854.4215333,0.0,2025-04-11 20:47:34.421,FORWARD,41
69.0,7339.5305680669035,-10176.168105145467,-21259.817035176402,-23704.4943814867,14716.165031929617,13322.489061652312,32362.241430549795,51858.79640088039,0.0,0.0,0.0,193.0,0.0,193.0,0.0,0.0,0.0,179.0,193.0,0.0,179.0,1744418854.421566,0.0,2025-04-11 20:47:34.421,FORWARD,41
70.0,7355.713231052546,-10150.642412977508,-21241.421549489685,-23682.030878309117,14697.657787520622,13481.924054852016,32170.50816661217,51979.495820939046,0.0,0.0,0.0,193.0,0.0,192.0,0.0,0.0,0.0,178.0,192.0,0.0,178.0,1744418854.4215984,0.0,2025-04-11 20:47:34.421,FORWARD,41
71.0,7355.3779548857165,-10171.988328932326,-21175.126275435243,-23691.083334813517,14875.443562918135,13368.198379063413,32399.211215878873,51988.10124255434,0.0,0.0,0.0,193.0,0.0,192.0,0.0,0.0,0.0,178.0,192.0,0.0,178.0,1744418854.421631,0.0,2025-04-11 20:47:34.421,FORWARD,41
72.0,7338.815312244334,-10204.82304153717,-21209.793831085426,-23730.98119866624,14858.567995854379,13140.165882130372,32569.375046417124,51846.033554796406,0.0,0.0,0.0,193.0,0.0,193.0,0.0,0.0,0.0,178.0,193.0,0.0,178.0,1744418854.4216647,0.0,2025-04-11 20:47:34.421,FORWARD,41
73.0,7323.727884737002,-10197.804593778204,-21257.850081664335,-23706.662500698865,14725.731578556488,13260.86530218903,32402.072239169152,51838.6351273817,0.0,0.0,0.0,193.0,0.0,193.0,0.0,0.0,0.0,179.0,193.0,0.0,179.0,1744418854.4217024,0.0,2025-04-11 20:47:34.421,FORWARD,41
74.0,7349.052411204864,-10155.62685199104,-21236.571220942882,-23667.792817091085,14686.347804826237,13466.300185477756,32165.903707254376,51949.8127043024,0.0,0.0,0.0,193.0,0.0,192.0,0.0,0.0,0.0,178.0,192.0,0.0,178.0,1744418854.4217389,0.0,2025-04-11 20:47:34.421,FORWARD,41
75.0,7360.0718212213305,-10167.2497591078,-21172.265252144964,-23682.34380273149,14849.336725394336,13412.253667384824,32325.517514409727,51980.07696629489,0.0,0.0,0.0,193.0,0.0,192.0,0.0,0.0,0.0,178.0,192.0,0.0,178.0,1744418854.4217927,0.0,2025-04-11 20:47:34.421,FORWARD,41
76.0,7338.614146544236,-10204.510117114796,-21201.099002492312,-23739.139585392426,14864.602966857312,13192.625426366976,32588.150511759584,51881.1481453357,0.0,0.0,0.0,193.0,0.0,193.0,0.0,0.0,0.0,178.0,193.0,0.0,178.0,1744418854.4218264,0.0,2025-04-11 20:47:34.421,FORWARD,41
77.0,7335.462550576038,-10192.417823364476,-21246.92007862569,-23724.4991927742,14719.897773253653,13211.087967287061,32424.692204557923,51804.079330453795,0.0,0.0,0.0,193.0,0.0,193.0,0.0,0.0,0.0,179.0,193.0,0.0,179.0,1744418854.42186,0.0,2025-04-11 20:47:34.421,FORWARD,41
78.0,7365.12331546823,-10144.316869296656,-21227.96579932759,-23666.608174634956,14670.254548818417,13464.66850813252,32190.04359126611,51930.679611048654,0.0,0.0,0.0,193.0,0.0,193.0,0.0,0.0,0.0,179.0,193.0,0.0,179.0,1744418854.4219332,0.0,2025-04-11 20:47:34.421,FORWARD,41
79.0,7365.682109079613,-10150.888282166516,-21161.71522876206,-23661.10964549895,14810.489393531012,13456.510121406332,32272.320362606093,51995.09733856885,0.0,0.0,0.0,193.0,0.0,193.0,0.0,0.0,0.0,178.0,193.0,0.0,178.0,1744418854.421972,0.0,2025-04-11 20:47:34.421,FORWARD,41
80.0,7338.301222121861,-10189.06506169618,-21161.268193872955,-23708.964730377764,14900.477516708079,13230.086950074072,32591.011535049864,51915.41336958568,0.0,0.0,0.0,193.0,0.0,193.0,0.0,0.0,0.0,179.0,193.0,0.0,179.0,1744418854.422004,0.0,2025-04-11 20:47:34.422,FORWARD,41
81.0,7340.73756226749,-10173.150619644,-21207.513953150985,-23696.604215693977,14779.062840826851,13182.23186519526,32483.00790584182,51793.86458323772,0.0,0.0,0.0,193.0,0.0,193.0,0.0,0.0,0.0,179.0,193.0,0.0,179.0,1744418854.4220357,0.0,2025-04-11 20:47:34.422,FORWARD,41
82.0,7342.190425657085,-10143.802779174182,-21229.999808073022,-23673.716029371742,14676.513037265902,13432.79492053925,32247.66638847189,51902.62817175724,0.0,0.0,0.0,193.0,0.0,193.0,0.0,0.0,0.0,178.0,193.0,0.0,178.0,1744418854.422068,0.0,2025-04-11 20:47:34.422,FORWARD,41
83.0,7354.21566417404,-10143.221633818344,-21175.215682413065,-23677.918157329343,14770.435067467102,13432.750217050341,32220.732536403244,51955.80297181642,0.0,0.0,0.0,193.0,0.0,192.0,0.0,0.0,0.0,178.0,192.0,0.0,178.0,1744418854.4221003,0.0,2025-04-11 20:47:34.422,FORWARD,41
84.0,7348.672431549125,-10172.077735910147,-21153.400379824685,-23713.904465902386,14894.37549047178,13243.676810702898,32561.73074981341,51907.545555537414,0.0,0.0,0.0,193.0,0.0,193.0,0.0,0.0,0.0,179.0,193.0,0.0,179.0,1744418854.4221315,0.0,2025-04-11 20:47:34.422,FORWARD,41
85.0,7351.7346205395015,-10165.39456431801,-21183.508179605982,-23699.375832006437,14797.055995113373,13154.560405559589,32518.793048714764,51779.73828074196,0.0,0.0,0.0,193.0,0.0,193.0,0.0,0.0,0.0,179.0,193.0,0.0,179.0,1744418854.4221728,0.0,2025-04-11 20:47:34.422,FORWARD,41
86.0,7344.8055797583565,-10152.877587423038,-21202.797735070915,-23668.038686280095,14696.607255531224,13415.94170521995,32300.68472631988,51881.3940145247,0.0,0.0,0.0,193.0,0.0,193.0,0.0,0.0,0.0,178.0,193.0,0.0,178.0,1744418854.4222095,0.0,2025-04-11 20:47:34.422,FORWARD,41
87.0,7357.993108986987,-10147.177892586935,-21157.356638593275,-23664.26124146715,14743.970602032019,13476.783153627295,32191.630565122436,51964.20722773162,0.0,0.0,0.0,193.0,0.0,193.0,0.0,0.0,0.0,179.0,193.0,0.0,179.0,1744418854.422243,0.0,2025-04-11 20:47:34.422,FORWARD,41
88.0,7340.73756226749,-10175.050517922702,-21119.761004419448,-23690.748058646688,14911.988665102563,13309.815622546152,32528.516057552824,51943.93419551065,0.0,0.0,0.0,193.0,0.0,193.0,0.0,0.0,0.0,179.0,193.0,0.0,179.0,1744418854.4222884,0.0,2025-04-11 20:47:34.422,FORWARD,41
89.0,7339.999954700465,-10179.274997624756,-21165.738542764015,-23705.20963730927,14828.951934451097,13143.250422865203,32570.760854573353,51803.96757173152,0.0,0.0,0.0,193.0,0.0,193.0,0.0,0.0,0.0,178.0,193.0,0.0,178.0,1744418854.4223542,0.0,2025-04-11 20:47:34.422,FORWARD,41
90.0,7339.552919811359,-10176.570436545664,-21208.408022929198,-23687.149427789383,14704.452717835036,13362.78925690523,32360.69916018238,51869.033499840916,0.0,0.0,0.0,193.0,0.0,193.0,0.0,0.0,0.0,179.0,193.0,0.0,179.0,1744418854.4224868,0.0,2025-04-11 20:47:34.422,FORWARD,41
91.0,7366.21855094654,-10158.085543881125,-21175.394496368706,-23671.92788981532,14717.416729619114,13473.072764047714,32192.792855834112,51966.37534694378,0.0,0.0,0.0,193.0,0.0,193.0,0.0,0.0,0.0,179.0,193.0,0.0,179.0,1744418854.4225492,0.0,2025-04-11 20:47:34.422,FORWARD,41
92.0,7362.351699155772,-10177.039823179224,-21128.299370801375,-23702.88505588592,14876.628205374267,13323.986628530816,32468.43456845696,51962.910826553205,0.0,0.0,0.0,193.0,0.0,193.0,0.0,0.0,0.0,178.0,193.0,0.0,178.0,1744418854.4226117,0.0,2025-04-11 20:47:34.422,FORWARD,41
93.0,7342.16807391263,-10186.002872705803,-21166.43144684213,-23727.919009675865,14814.669169744155,13104.02311134614,32560.389645146093,51810.27076366792,0.0,0.0,0.0,193.0,0.0,193.0,0.0,0.0,0.0,178.0,193.0,0.0,178.0,1744418854.4226627,0.0,2025-04-11 20:47:34.422,FORWARD,41
94.0,7343.062143690842,-10160.812456704673,-21190.05724073139,-23687.372945233936,14702.91044746762,13295.286988650203,32363.448424750382,51832.64485986768,0.0,0.0,0.0,193.0,0.0,193.0,0.0,0.0,0.0,179.0,193.0,0.0,179.0,1744418854.4228046,0.0,2025-04-11 20:47:34.422,FORWARD,41
95.0,7366.8220480468335,-10128.313020266654,-21160.262365372466,-23659.947354787273,14698.998892187941,13491.20002880097,32165.702541554278,51949.52213162448,0.0,0.0,0.0,193.0,0.0,193.0,0.0,0.0,0.0,179.0,193.0,0.0,179.0,1744418854.4228642,0.0,2025-04-11 20:47:34.422,FORWARD,41
96.0,7360.429449132615,-10153.481084523331,-21110.909713615147,-23687.484703956212,14864.51355987949,13402.84358296914,32387.141273873007,51960.5638933854,0.0,0.0,0.0,193.0,0.0,193.0,0.0,0.0,0.0,179.0,193.0,0.0,179.0,1744418854.422926,0.0,2025-04-11 20:47:34.422,FORWARD,41
97.0,7331.841567974278,-10192.551933831208,-21161.37995259523,-23746.09097791803,14836.059789187884,13159.477789339757,32571.476110395924,51824.82174930832,0.0,0.0,0.0,193.0,0.0,192.0,0.0,0.0,0.0,178.0,192.0,0.0,178.0,1744418854.4229724,0.0,2025-04-11 20:47:34.422,FORWARD,41
98.0,7345.990222214487,-10152.251738578288,-21188.358508152785,-23705.053175098084,14716.455604607536,13261.468799289323,32392.46098905337,51797.865545495224,0.0,0.0,0.0,193.0,0.0,192.0,0.0,0.0,0.0,178.0,192.0,0.0,178.0,1744418854.42302,0.0,2025-04-11 20:47:34.423,FORWARD,41
99.0,7367.202027702574,-10121.786310885705,-21178.903720248192,-23671.25733748166,14678.18941810005,13494.888066636095,32173.816224791557,51936.46871286258,0.0,0.0,0.0,193.0,0.0,193.0,0.0,0.0,0.0,179.0,193.0,0.0,179.0,1744418854.4230704,0.0,2025-04-11 20:47:34.423,FORWARD,41
100.0,7371.493562637993,-10152.67642172294,-21134.22258308203,-23699.085259328516,14824.705103004588,13416.679312786975,32307.45730488984,51965.14600099874,0.0,0.0,0.0,193.0,0.0,192.0,0.0,0.0,0.0,178.0,192.0,0.0,178.0,1744418854.423113,0.0,2025-04-11 20:47:34.423,FORWARD,41
101.0,7345.587890814292,-10189.512096585286,-21155.680257759126,-23744.392245339426,14859.573824354868,13172.575911590566,32574.046561008283,51856.807095623866,0.0,0.0,0.0,193.0,0.0,192.0,0.0,0.0,0.0,178.0,192.0,0.0,178.0,1744418854.898527,0.0,2025-04-11 20:47:34.898,FORWARD,41
102.0,7332.579175541303,-10184.77352676076,-21191.219531443065,-23718.531277004633,14739.612011863233,13201.90140031593,32445.881658301554,51785.72854825599,0.0,0.0,0.0,193.0,0.0,193.0,0.0,0.0,0.0,179.0,193.0,0.0,179.0,1744418854.898634,0.0,2025-04-11 20:47:34.898,FORWARD,41
103.0,7343.486826835493,-10151.424724033443,-21201.233112959042,-23690.12220980194,14659.413952757592,13452.799731826752,32222.74419340422,51929.494968592524,0.0,0.0,0.0,193.0,0.0,193.0,0.0,0.0,0.0,179.0,193.0,0.0,179.0,1744418854.8986704,0.0,2025-04-11 20:47:34.898,FORWARD,41
104.0,7353.522760095926,-10149.502474010287,-21145.107882631768,-23696.671270927345,14773.117276801739,13434.717170562408,32261.747987478735,51978.48999243856,0.0,0.0,0.0,193.0,0.0,193.0,0.0,0.0,0.0,179.0,193.0,0.0,179.0,1744418854.898702,0.0,2025-04-11 20:47:34.898,FORWARD,41
105.0,7333.7191145085235,-10194.429480365454,-21138.178841850622,-23734.13279463444,14869.27448144847,13229.349342507046,32587.54701465929,51918.02852368695,0.0,0.0,0.0,193.0,0.0,193.0,0.0,0.0,0.0,178.0,193.0,0.0,178.0,1744418854.8987756,0.0,2025-04-11 20:47:34.898,FORWARD,41
106.0,7327.550033038859,-10193.267189653778,-21168.53251082093,-23714.329149047036,14766.009422064952,13168.150266188415,32495.815455414708,51798.24552515096,0.0,0.0,0.0,193.0,0.0,192.0,0.0,0.0,0.0,178.0,192.0,0.0,178.0,1744418854.8988063,0.0,2025-04-11 20:47:34.898,FORWARD,41
107.0,7323.437312059083,-10172.368308588066,-21193.85703728879,-23688.088201056507,14668.533464495358,13410.957266206417,32256.651789742922,51898.33663682183,0.0,0.0,0.0,193.0,0.0,193.0,0.0,0.0,0.0,179.0,193.0,0.0,179.0,1744418854.8988364,0.0,2025-04-11 20:47:34.898,FORWARD,41
108.0,7345.543187325381,-10158.48787528132,-21143.319743075343,-23685.78597137761,14758.879215583709,13450.341039936668,32228.220370795774,51976.99242556005,0.0,0.0,0.0,193.0,0.0,193.0,0.0,0.0,0.0,178.0,193.0,0.0,178.0,1744418854.8988664,0.0,2025-04-11 20:47:34.898,FORWARD,41
109.0,7330.969849940521,-10200.844431024127,-21129.41695802414,-23736.03269291314,14885.300682222925,13261.28998533368,32570.71615108444,51937.65335531871,0.0,0.0,0.0,193.0,0.0,192.0,0.0,0.0,0.0,178.0,192.0,0.0,178.0,1744418854.898924,0.0,2025-04-11 20:47:34.898,FORWARD,41
110.0,7324.4431405595715,-10203.392529892031,-21169.0466009434,-23732.232896355737,14772.960814590553,13135.963754172773,32524.738612739875,51796.79266176136,0.0,0.0,0.0,193.0,0.0,193.0,0.0,0.0,0.0,178.0,193.0,0.0,178.0,1744418854.8989546,0.0,2025-04-11 20:47:34.898,FORWARD,41
111.0,7335.104922664753,-10168.300291097199,-21182.569406338862,-23686.098895799983,14672.065040119296,13383.956358904405,32286.737237779766,51872.185095809116,0.0,0.0,0.0,193.0,0.0,193.0,0.0,0.0,0.0,179.0,193.0,0.0,179.0,1744418854.898985,0.0,2025-04-11 20:47:34.898,FORWARD,41
112.0,7337.250690132462,-10156.029183391236,-21145.398455309685,-23684.422514965834,14716.34384588526,13465.696688377464,32185.685001097325,51966.88943706625,0.0,0.0,0.0,193.0,0.0,192.0,0.0,0.0,0.0,178.0,192.0,0.0,178.0,1744418854.8990145,0.0,2025-04-11 20:47:34.899,FORWARD,41
113.0,7329.092303406275,-10187.031052950746,-21107.55695194685,-23718.620683982455,14863.999469757018,13298.975026485328,32506.00785088633,51944.18006469966,0.0,0.0,0.0,193.0,0.0,192.0,0.0,0.0,0.0,178.0,192.0,0.0,178.0,1744418854.8990445,0.0,2025-04-11 20:47:34.899,FORWARD,41
114.0,7329.204062128551,-10198.519849600774,-21146.47133904354,-23728.54485852061,14780.336890260804,13113.634361461922,32537.926141968506,51788.79073724637,0.0,0.0,0.0,193.0,0.0,193.0,0.0,0.0,0.0,179.0,193.0,0.0,179.0,1744418854.8990743,0.0,2025-04-11 20:47:34.899,FORWARD,41
115.0,7333.428541830604,-10176.838657479128,-21172.958156223078,-23684.82484636603,14676.848313432733,13338.671724637954,32338.347415727072,51852.09087754379,0.0,0.0,0.0,193.0,0.0,193.0,0.0,0.0,0.0,179.0,193.0,0.0,179.0,1744418854.8991048,0.0,2025-04-11 20:47:34.899,FORWARD,41
116.0,7339.865844233733,-10162.533541027731,-21152.372199579742,-23685.003660321672,14673.227330830972,13461.226339486402,32150.682169280313,51946.32583216737,0.0,0.0,0.0,193.0,0.0,193.0,0.0,0.0,0.0,179.0,193.0,0.0,179.0,1744418854.8991344,0.0,2025-04-11 20:47:34.899,FORWARD,41
117.0,7336.267213376429,-10166.735668985328,-21099.622082665217,-23705.679023942834,14853.98588824104,13341.64450665051,32421.294739400717,51940.60378558681,0.0,0.0,0.0,193.0,0.0,193.0,0.0,0.0,0.0,178.0,193.0,0.0,178.0,1744418854.8991642,0.0,2025-04-11 20:47:34.899,FORWARD,41
118.0,7342.883329735199,-10170.960148687382,-21138.9388011621,-23730.154184121395,14805.862582428765,13127.246573835204,32550.085490952195,51797.95495247304,0.0,0.0,0.0,193.0,0.0,192.0,0.0,0.0,0.0,178.0,192.0,0.0,178.0,1744418854.899194,0.0,2025-04-11 20:47:34.899,FORWARD,41
119.0,7351.68991705059,-10156.655032235985,-21180.088362704322,-23697.341823261002,14677.071830877285,13281.205389643359,32345.07529080812,51796.63619955018,0.0,0.0,0.0,193.0,0.0,193.0,0.0,0.0,0.0,179.0,193.0,0.0,179.0,1744418854.899224,0.0,2025-04-11 20:47:34.899,FORWARD,41
120.0,7348.7394867824905,-10151.357668800078,-21162.47518807354,-23675.235947994704,14656.150598067117,13478.705403650452,32149.385768101904,51932.33364013835,0.0,0.0,0.0,193.0,0.0,193.0,0.0,0.0,0.0,179.0,193.0,0.0,179.0,1744418854.8993306,0.0,2025-04-11 20:47:34.899,FORWARD,41
121.0,7337.585966299292,-10175.497552811808,-21087.216864492522,-23683.34963123198,14839.524309578457,13406.50926905981,32379.83225343612,51973.43849819166,0.0,0.0,0.0,193.0,0.0,193.0,0.0,0.0,0.0,178.0,193.0,0.0,178.0,1744418854.8993614,0.0,2025-04-11 20:47:34.899,FORWARD,41
122.0,7334.367315097727,-10188.238047151333,-21104.56181818984,-23712.004567623684,14848.88969050523,13185.763440819197,32607.12714280214,51861.053927070374,0.0,0.0,0.0,193.0,0.0,193.0,0.0,0.0,0.0,179.0,193.0,0.0,179.0,1744418854.8993912,0.0,2025-04-11 20:47:34.899,FORWARD,41
123.0,7337.07187617682,-10169.39552657551,-21145.0408273984,-23682.321450987038,14721.238877920972,13256.05967713114,32429.095498215618,51803.654647309144,0.0,0.0,0.0,193.0,0.0,193.0,0.0,0.0,0.0,179.0,193.0,0.0,179.0,1744418854.899421,0.0,2025-04-11 20:47:34.899,FORWARD,41
124.0,7335.037867431387,-10156.520921769254,-21155.56849903685,-23668.798645591574,14652.931946865554,13473.162171025537,32199.65484138189,51929.11498893678,0.0,0.0,0.0,193.0,0.0,192.0,0.0,0.0,0.0,178.0,192.0,0.0,178.0,1744418854.899466,0.0,2025-04-11 20:47:34.899,FORWARD,41
125.0,7333.294431363873,-10167.897959697004,-21105.433536223598,-23690.815113880053,14788.87525664273,13414.42178659699,32310.519493880212,51968.1187830113,0.0,0.0,0.0,193.0,0.0,192.0,0.0,0.0,0.0,178.0,192.0,0.0,178.0,1744418854.8994963,0.0,2025-04-11 20:47:34.899,FORWARD,41
126.0,7331.171015640619,-10179.900846469503,-21111.043824081877,-23731.003550410696,14847.727399793554,13179.549655860623,32579.96977328894,51869.30172077438,0.0,0.0,0.0,193.0,0.0,193.0,0.0,0.0,0.0,179.0,193.0,0.0,179.0,1744418854.899526,0.0,2025-04-11 20:47:34.899,FORWARD,41
127.0,7339.374105855716,-10161.304195082688,-21144.32557157583,-23693.765544148155,14739.29908744086,13194.36886243449,32442.52889663326,51778.575990030295,0.0,0.0,0.0,193.0,0.0,193.0,0.0,0.0,0.0,179.0,193.0,0.0,179.0,1744418854.8995557,0.0,2025-04-11 20:47:34.899,FORWARD,41
128.0,7337.9435942105765,-10147.803741431682,-21170.99120271101,-23676.01825905064,14639.699714148011,13451.749199837352,32216.441001467825,51912.32882885085,0.0,0.0,0.0,193.0,0.0,192.0,0.0,0.0,0.0,178.0,192.0,0.0,178.0,1744418854.8995852,0.0,2025-04-11 20:47:34.899,FORWARD,41
129.0,7358.328385153817,-10141.00881111727,-21113.0331293384,-23677.20290150677,14745.244651465971,13434.56070835122,32237.295179044628,51962.97788178657,0.0,0.0,0.0,193.0,0.0,193.0,0.0,0.0,0.0,179.0,193.0,0.0,179.0,1744418854.899621,0.0,2025-04-11 20:47:34.899,FORWARD,41
130.0,7342.682164035102,-10180.571398803164,-21102.527809444407,-23720.006492138684,14852.689487062633,13232.746807664253,32572.437235407502,51904.77393922496,0.0,0.0,0.0,193.0,0.0,193.0,0.0,0.0,0.0,179.0,193.0,0.0,179.0,1744418854.8996513,0.0,2025-04-11 20:47:34.899,FORWARD,41
131.0,7349.767667027434,-10168.501456797298,-21141.41984479664,-23704.852009397986,14746.295183455371,13159.991879462228,32480.48215871837,51769.72469922599,0.0,0.0,0.0,193.0,0.0,193.0,0.0,0.0,0.0,178.0,193.0,0.0,178.0,1744418854.899681,0.0,2025-04-11 20:47:34.899,FORWARD,41
132.0,7356.02615547492,-10136.38200001502,-21154.696781003095,-23665.334125201003,14651.479083475959,13418.601562810132,32250.639170484446,51873.95088362109,0.0,0.0,0.0,193.0,0.0,193.0,0.0,0.0,0.0,179.0,193.0,0.0,179.0,1744418854.899711,0.0,2025-04-11 20:47:34.899,FORWARD,41
133.0,7372.298225438384,-10123.976781842326,-21097.051632052855,-23654.20295646226,14720.38951163167,13454.543167894266,32180.968783017255,51933.339468638835,0.0,0.0,0.0,193.0,0.0,193.0,0.0,0.0,0.0,179.0,193.0,0.0,179.0,1744418854.899741,0.0,2025-04-11 20:47:34.899,FORWARD,41
134.0,7339.8211407448225,-10164.835770706626,-21078.097352754754,-23699.040555839605,14855.326992908358,13286.39099435699,32534.48397332239,51910.78655848343,0.0,0.0,0.0,193.0,0.0,193.0,0.0,0.0,0.0,178.0,193.0,0.0,178.0,1744418854.8997712,0.0,2025-04-11 20:47:34.899,FORWARD,41
135.0,7333.964983697532,-10168.63556726403,-21127.718225445537,-23708.093012344005,14743.881195054199,13133.572117516056,32498.05062986024,51755.352527541225,0.0,0.0,0.0,193.0,0.0,193.0,0.0,0.0,0.0,178.0,193.0,0.0,178.0,1744418854.8998165,0.0,2025-04-11 20:47:34.899,FORWARD,41
136.0,7350.16999842763,-10138.572470971641,-21149.712341989558,-23672.754904360165,14646.181720040051,13371.595844220621,32273.929688206877,51832.68956335659,0.0,0.0,0.0,193.0,0.0,193.0,0.0,0.0,0.0,179.0,193.0,0.0,179.0,1744418854.8998468,0.0,2025-04-11 20:47:34.899,FORWARD,41
137.0,7350.125294938719,-10134.593860458597,-21114.910675872645,-23675.12418927243,14690.214656617005,13465.00378429935,32161.790986274602,51936.69223030713,0.0,0.0,0.0,193.0,0.0,193.0,0.0,0.0,0.0,178.0,193.0,0.0,178.0,1744418854.8998768,0.0,2025-04-11 20:47:34.899,FORWARD,41
138.0,7322.8561667032445,-10185.511134327786,-21082.74651560146,-23722.04050088412,14845.31341139238,13309.927381268428,32490.115760578607,51941.00611698701,0.0,0.0,0.0,193.0,0.0,193.0,0.0,0.0,0.0,178.0,193.0,0.0,178.0,1744418854.8999066,0.0,2025-04-11 20:47:34.899,FORWARD,41
139.0,7343.330364624306,-10171.518942298764,-21104.27124551192,-23715.737308947722,14784.851942640775,13120.809271432076,32543.96111297144,51789.90832446913,0.0,0.0,0.0,193.0,0.0,193.0,0.0,0.0,0.0,179.0,193.0,0.0,179.0,1744418854.8999505,0.0,2025-04-11 20:47:34.899,FORWARD,41
140.0,7352.226358917518,-10143.825130918638,-21138.871745928736,-23677.851102095974,14676.513037265902,13341.73391362833,32350.193840288382,51839.77506634892,0.0,0.0,0.0,193.0,0.0,193.0,0.0,0.0,0.0,178.0,193.0,0.0,178.0,1744418854.8999808,0.0,2025-04-11 20:47:34.899,FORWARD,41
141.0,7354.528588596415,-10145.277994308233,-21121.727957931515,-23668.15044500237,14666.298290049826,13493.882238135606,32174.352666658484,51955.75826832751,0.0,0.0,0.0,193.0,0.0,192.0,0.0,0.0,0.0,178.0,192.0,0.0,178.0,1744418854.9000118,0.0,2025-04-11 20:47:34.900,FORWARD,41
142.0,7342.480998335004,-10176.235160378834,-21069.626041606196,-23693.83259938152,14832.058826930384,13375.663861711486,32437.231533197348,51965.637739376754,0.0,0.0,0.0,193.0,0.0,193.0,0.0,0.0,0.0,179.0,193.0,0.0,179.0,1744418854.9000423,0.0,2025-04-11 20:47:34.900,FORWARD,41
143.0,7337.8318354883,-10184.572361060664,-21101.477277455007,-23720.78880319462,14804.543829505901,13148.279565367648,32585.73652335841,51822.49716788497,0.0,0.0,0.0,193.0,0.0,193.0,0.0,0.0,0.0,179.0,193.0,0.0,179.0,1744418854.9000728,0.0,2025-04-11 20:47:34.900,FORWARD,41
144.0,7344.8055797583565,-10158.443171792409,-21143.27503958643,-23684.288404499104,14689.00766241642,13293.543552582689,32409.336556117127,51826.98986852049,0.0,0.0,0.0,193.0,0.0,193.0,0.0,0.0,0.0,178.0,193.0,0.0,178.0,1744418854.900103,0.0,2025-04-11 20:47:34.900,FORWARD,41
145.0,7353.098076951275,-10135.309116281167,-21132.814423181346,-23662.45075016627,14649.310964263794,13478.213665272435,32186.959050531277,51941.27433792047,0.0,0.0,0.0,193.0,0.0,193.0,0.0,0.0,0.0,179.0,193.0,0.0,179.0,1744418854.900133,0.0,2025-04-11 20:47:34.900,FORWARD,41
146.0,7339.374105855716,-10152.743476956306,-21070.341297428764,-23675.839445094996,14809.997655152996,13393.925236931473,32363.15785207246,51951.98082351456,0.0,0.0,0.0,193.0,0.0,193.0,0.0,0.0,0.0,178.0,193.0,0.0,178.0,1744418854.9001627,0.0,2025-04-11 20:47:34.900,FORWARD,41
147.0,7315.25657358844,-10187.299273884211,-21109.836829881293,-23726.622608497455,14816.703178489588,13174.699327313821,32614.994956850405,51855.73421189001,0.0,0.0,0.0,193.0,0.0,192.0,0.0,0.0,0.0,178.0,192.0,0.0,178.0,1744418854.9001932,0.0,2025-04-11 20:47:34.900,FORWARD,41
148.0,7327.192405127574,-10168.501456797298,-21158.742446749504,-23700.471067484745,14686.012528659408,13240.61462171252,32453.81652758319,51812.483586368995,0.0,0.0,0.0,193.0,0.0,193.0,0.0,0.0,0.0,178.0,193.0,0.0,178.0,1744418854.900224,0.0,2025-04-11 20:47:34.900,FORWARD,41
149.0,7336.557786054348,-10145.277994308233,-21165.22445264154,-23678.119323029438,14615.313960947271,13465.361412210634,32202.717030372267,51930.769018026476,0.0,0.0,0.0,193.0,0.0,193.0,0.0,0.0,0.0,179.0,193.0,0.0,179.0,1744418854.9002593,0.0,2025-04-11 20:47:34.900,FORWARD,41
150.0,7336.937765710088,-10153.212863589868,-21108.048690324867,-23692.044459825094,14757.605166149757,13420.121481433092,32286.29020289066,51962.88847480875,0.0,0.0,0.0,193.0,0.0,192.0,0.0,0.0,0.0,178.0,192.0,0.0,178.0,1744418854.9003065,0.0,2025-04-11 20:47:34.900,FORWARD,41
151.0,7324.532547537393,-10174.983462689337,-21117.190553807086,-23734.55747777909,14828.035512928429,13203.220153238792,32585.669468125045,51875.537857477415,0.0,0.0,0.0,193.0,0.0,193.0,0.0,0.0,0.0,179.0,193.0,0.0,179.0,1744418854.9003377,0.0,2025-04-11 20:47:34.900,FORWARD,41
152.0,7320.173957368607,-10172.144791143512,-21167.370220109253,-23718.397166537903,14708.09605218125,13193.050109511627,32474.916574348998,51789.39423434666,0.0,0.0,0.0,193.0,0.0,193.0,0.0,0.0,0.0,179.0,193.0,0.0,179.0,1744418854.9003675,0.0,2025-04-11 20:47:34.900,FORWARD,41
153.0,7342.860977990745,-10144.830959419127,-21167.57138580935,-23675.057134039063,14623.002961039898,13445.490711389866,32227.683928928847,51902.29289559041,0.0,0.0,0.0,193.0,0.0,193.0,0.0,0.0,0.0,178.0,193.0,0.0,178.0,1744418854.9003975,0.0,2025-04-11 20:47:34.900,FORWARD,41
154.0,7342.279832634907,-10156.364459558066,-21115.737690417493,-23681.69560214229,14726.156261701139,13456.621880128609,32242.257266313707,51966.17418124368,0.0,0.0,0.0,193.0,0.0,192.0,0.0,0.0,0.0,178.0,192.0,0.0,178.0,1744418854.9004416,0.0,2025-04-11 20:47:34.900,FORWARD,41
155.0,7324.9125271931325,-10192.596637320119,-21116.832925895804,-23737.709073747286,14830.784777496432,13249.28709856118,32569.12917722812,51908.93136369364,0.0,0.0,0.0,193.0,0.0,193.0,0.0,0.0,0.0,179.0,193.0,0.0,179.0,1744418854.9004717,0.0,2025-04-11 20:47:34.900,FORWARD,41
156.0,7323.6831812480905,-10190.54027683023,-21168.197234654097,-23732.83639345603,14706.978464958485,13148.212510134283,32484.639583187054,51776.00553941793,0.0,0.0,0.0,193.0,0.0,192.0,0.0,0.0,0.0,178.0,192.0,0.0,178.0,1744418854.900502,0.0,2025-04-11 20:47:34.900,FORWARD,41
157.0,7328.868785961722,-10170.714279498372,-21187.084458718833,-23697.274768027637,14604.383957908627,13390.55012351872,32236.9599028778,51870.30754927487,0.0,0.0,0.0,193.0,0.0,193.0,0.0,0.0,0.0,178.0,193.0,0.0,178.0,1744418854.9005325,0.0,2025-04-11 20:47:34.900,FORWARD,41
158.0,7350.527626338915,-10155.828017691138,-21127.450004512073,-23681.382677719914,14680.916330923597,13457.337135951178,32168.205936933275,51957.45700090611,0.0,0.0,0.0,193.0,0.0,193.0,0.0,0.0,0.0,179.0,193.0,0.0,179.0,1744418854.9005623,0.0,2025-04-11 20:47:34.900,FORWARD,41
159.0,7340.670507034124,-10178.91736971347,-21083.66293712413,-23708.62945421093,14835.880975232241,13288.62616880252,32514.836789946177,51934.16648318368,0.0,0.0,0.0,193.0,0.0,192.0,0.0,0.0,0.0,178.0,192.0,0.0,178.0,1744418854.9005938,0.0,2025-04-11 20:47:34.900,FORWARD,41
160.0,7337.8318354883,-10172.949453943904,-21128.79110917939,-23720.274713072147,14741.556613630846,13134.756759972188,32522.48108654989,51797.15028967265,0.0,0.0,0.0,193.0,0.0,192.0,0.0,0.0,0.0,178.0,192.0,0.0,178.0,1744418854.9006264,0.0,2025-04-11 20:47:34.900,FORWARD,41
161.0,7340.02230644492,-10140.807645417171,-21157.401342082187,-23683.707259143266,14635.94462107952,13366.432591251445,32299.723601308302,51866.798325395386,0.0,0.0,0.0,193.0,0.0,193.0,0.0,0.0,0.0,179.0,193.0,0.0,179.0,1744418854.90066,0.0,2025-04-11 20:47:34.900,FORWARD,41
162.0,7350.5052745944595,-10128.111854566558,-21127.42765276762,-23677.15819801786,14668.064077861796,13480.29237750678,32165.859003765465,51970.48806792356,0.0,0.0,0.0,193.0,0.0,192.0,0.0,0.0,0.0,178.0,192.0,0.0,178.0,1744418854.900693,0.0,2025-04-11 20:47:34.900,FORWARD,41
163.0,7337.720076766023,-10159.426648548442,-21085.249910980452,-23708.62945421093,14824.638047771223,13333.284954224224,32482.270298274794,51969.86221907881,0.0,0.0,0.0,193.0,0.0,193.0,0.0,0.0,0.0,178.0,193.0,0.0,178.0,1744418854.9007237,0.0,2025-04-11 20:47:34.900,FORWARD,41
164.0,7334.501425564459,-10163.271148594755,-21116.74351891798,-23721.705224717287,14754.207700992549,13129.302934325093,32554.91346775454,51812.41653113563,0.0,0.0,0.0,193.0,0.0,193.0,0.0,0.0,0.0,178.0,193.0,0.0,178.0,1744418854.900754,0.0,2025-04-11 20:47:34.900,FORWARD,41
165.0,7320.9786201689985,-10162.019450905258,-21155.76966473695,-23694.994890093196,14633.08359778924,13329.172233244448,32372.50088125478,51865.23370328351,0.0,0.0,0.0,193.0,0.0,192.0,0.0,0.0,0.0,178.0,192.0,0.0,178.0,1744418854.9008057,0.0,2025-04-11 20:47:34.900,FORWARD,41
166.0,7341.5869285567915,-10143.15457858498,-21132.836774925803,-23679.08044804102,14611.625923112146,13463.014479042826,32167.93771599981,51976.38892845976,0.0,0.0,0.0,193.0,0.0,193.0,0.0,0.0,0.0,179.0,193.0,0.0,179.0,1744418854.900838,0.0,2025-04-11 20:47:34.900,FORWARD,41
167.0,7352.248710661974,-10162.712354983372,-21069.938966028567,-23698.749983161688,14795.312559045859,13342.851500851095,32397.713649000365,51975.87483833729,0.0,0.0,0.0,193.0,0.0,193.0,0.0,0.0,0.0,179.0,193.0,0.0,179.0,1744418854.9008703,0.0,2025-04-11 20:47:34.900,FORWARD,41
168.0,7342.257480890451,-10181.420765092465,-21109.74742290347,-23736.99381792472,14767.931672088109,13122.440948777314,32561.90956376905,51838.29985121487,0.0,0.0,0.0,193.0,0.0,192.0,0.0,0.0,0.0,178.0,192.0,0.0,178.0,1744418854.9009075,0.0,2025-04-11 20:47:34.900,FORWARD,41
169.0,7342.101018679264,-10161.77358171625,-21144.057350642368,-23701.186323307316,14647.120493307173,13247.275441560203,32376.16656734545,51818.764426560934,0.0,0.0,0.0,193.0,0.0,193.0,0.0,0.0,0.0,178.0,193.0,0.0,178.0,1744418854.9009564,0.0,2025-04-11 20:47:34.900,FORWARD,41
170.0,7354.573292085325,-10137.410180259965,-21136.636571483206,-23674.766561361143,14610.351873678193,13452.978545782393,32158.013541461652,51946.72816356757,0.0,0.0,0.0,193.0,0.0,193.0,0.0,0.0,0.0,179.0,193.0,0.0,179.0,1744418854.9009876,0.0,2025-04-11 20:47:34.900,FORWARD,41
171.0,7350.572329827825,-10156.945604913904,-21084.489951668973,-23696.31364301606,14761.96375631854,13384.492800771333,32332.759479613243,51983.474431452094,0.0,0.0,0.0,193.0,0.0,193.0,0.0,0.0,0.0,178.0,193.0,0.0,178.0,1744418854.901018,0.0,2025-04-11 20:47:34.901,FORWARD,41
172.0,7349.097114693775,-10177.86683772407,-21094.972919818512,-23724.946227663306,14788.718794431543,13161.847074252019,32577.287563954305,51876.45427900008,0.0,0.0,0.0,193.0,0.0,193.0,0.0,0.0,0.0,179.0,193.0,0.0,179.0,1744418854.9010484,0.0,2025-04-11 20:47:34.901,FORWARD,41
173.0,7325.516024293426,-10168.300291097199,-21124.32076028833,-23678.00756430716,14684.179685614072,13226.4212639834,32432.47061162837,51826.676944098115,0.0,0.0,0.0,193.0,0.0,192.0,0.0,0.0,0.0,178.0,192.0,0.0,178.0,1744418854.9010792,0.0,2025-04-11 20:47:34.901,FORWARD,41
174.0,7314.6977799770575,-10157.72791596984,-21134.893135415692,-23656.25931695215,14603.869867786154,13464.512045921332,32204.527521673146,51966.196532988135,0.0,0.0,0.0,193.0,0.0,192.0,0.0,0.0,0.0,178.0,192.0,0.0,178.0,1744418854.9011092,0.0,2025-04-11 20:47:34.901,FORWARD,41
175.0,7333.920280208622,-10161.147732871501,-21076.666841109614,-23672.50903517116,14719.00370347544,13420.300295388735,32265.167804380395,52004.730940429086,0.0,0.0,0.0,193.0,0.0,193.0,0.0,0.0,0.0,178.0,193.0,0.0,178.0,1744418854.9011395,0.0,2025-04-11 20:47:34.901,FORWARD,41
176.0,7330.567518540325,-10182.895980226514,-21071.056553251336,-23706.41663150986,14797.078346857828,13208.293999230147,32565.73171207091,51917.201509142105,0.0,0.0,0.0,193.0,0.0,192.0,0.0,0.0,0.0,178.0,192.0,0.0,178.0,1744418854.9011693,0.0,2025-04-11 20:47:34.901,FORWARD,41
177.0,7326.410094071638,-10172.189494632423,-21121.482088742505,-23695.68779417131,14681.363365812704,13185.584626863556,32463.29366723224,51822.27365044042,0.0,0.0,0.0,193.0,0.0,192.0,0.0,0.0,0.0,178.0,192.0,0.0,178.0,1744418854.9011993,0.0,2025-04-11 20:47:34.901,FORWARD,41
178.0,7341.743390767979,-10137.164311070957,-21133.730844704016,-23659.209747220248,14597.119640960651,13445.490711389866,32221.13486780344,51944.42593388867,0.0,0.0,0.0,193.0,0.0,193.0,0.0,0.0,0.0,179.0,193.0,0.0,179.0,1744418854.9012296,0.0,2025-04-11 20:47:34.901,FORWARD,41
179.0,7349.499446093971,-10144.093351852101,-21074.275204452897,-23657.82393906402,14703.424537590092,13460.04169703027,32210.920120587365,52011.54822248796,0.0,0.0,0.0,193.0,0.0,193.0,0.0,0.0,0.0,179.0,193.0,0.0,179.0,1744418854.9012594,0.0,2025-04-11 20:47:34.901,FORWARD,41
180.0,7338.569443055326,-10179.140887158024,-21057.466692622507,-23702.952111119284,14831.276515874448,13264.329822579602,32556.6345520776,51966.15182949923,0.0,0.0,0.0,193.0,0.0,193.0,0.0,0.0,0.0,179.0,193.0,0.0,179.0,1744418854.9013035,0.0,2025-04-11 20:47:34.901,FORWARD,41
181.0,7343.419771602127,-10169.462581808875,-21097.74453613097,-23695.196055793294,14728.793767546866,13156.996745705217,32497.178911826482,51830.58849937779,0.0,0.0,0.0,193.0,0.0,193.0,0.0,0.0,0.0,179.0,193.0,0.0,179.0,1744418854.901334,0.0,2025-04-11 20:47:34.901,FORWARD,41
182.0,7332.467416819027,-10153.81636069016,-21130.825117924825,-23673.11253227145,14620.343103449715,13409.102071416626,32275.82958648558,51934.92644249516,0.0,0.0,0.0,193.0,0.0,193.0,0.0,0.0,0.0,179.0,193.0,0.0,179.0,1744418854.901364,0.0,2025-04-11 20:47:34.901,FORWARD,41
183.0,7342.078666934809,-10140.047686105692,-21086.143980758665,-23666.339953701492,14681.72099372399,13460.466380174921,32180.968783017255,52008.12840558629,0.0,0.0,0.0,193.0,0.0,193.0,0.0,0.0,0.0,179.0,193.0,0.0,179.0,1744418854.901394,0.0,2025-04-11 20:47:34.901,FORWARD,41
184.0,7319.548108523859,-10180.705509269896,-21064.909823526123,-23713.099803101995,14831.075350174351,13285.96631121234,32525.185647628983,51985.150812286236,0.0,0.0,0.0,193.0,0.0,193.0,0.0,0.0,0.0,178.0,193.0,0.0,178.0,1744418854.9014378,0.0,2025-04-11 20:47:34.901,FORWARD,41
185.0,7318.944611423566,-10182.471297081864,-21111.781431648902,-23717.480745015237,14735.588697861278,13113.612009717466,32537.05442393475,51839.26097622645,0.0,0.0,0.0,193.0,0.0,193.0,0.0,0.0,0.0,179.0,193.0,0.0,179.0,1744418854.9014685,0.0,2025-04-11 20:47:34.901,FORWARD,41
186.0,7322.230317858496,-10166.333337585133,-21131.808594680857,-23673.425456693825,14628.926173320553,13347.701829397898,32321.918883552422,51908.64079101572,0.0,0.0,0.0,193.0,0.0,193.0,0.0,0.0,0.0,179.0,193.0,0.0,179.0,1744418854.9014986,0.0,2025-04-11 20:47:34.901,FORWARD,41
187.0,7339.865844233733,-10158.398468303498,-21099.42091696512,-23662.696619355276,14663.481970248458,13470.43525820199,32177.70542832678,52015.05744636744,0.0,0.0,0.0,193.0,0.0,193.0,0.0,0.0,0.0,179.0,193.0,0.0,179.0,1744418854.9015293,0.0,2025-04-11 20:47:34.901,FORWARD,41
188.0,7320.553937024348,-10185.935817472437,-21063.725181069993,-23698.5935209505,14832.595268797311,13336.950640314895,32480.124530807083,52013.69398995567,0.0,0.0,0.0,193.0,0.0,193.0,0.0,0.0,0.0,178.0,193.0,0.0,178.0,1744418854.9015596,0.0,2025-04-11 20:47:34.901,FORWARD,41
189.0,7310.227431085996,-10194.988273976836,-21105.567646690328,-23728.433099798334,14768.758686632955,13136.79076871762,32578.7404273439,51871.22397079754,0.0,0.0,0.0,193.0,0.0,193.0,0.0,0.0,0.0,179.0,193.0,0.0,179.0,1744418854.90159,0.0,2025-04-11 20:47:34.901,FORWARD,41
190.0,7319.525756779404,-10165.171046873456,-21134.84843192678,-23685.182474277317,14655.90472887811,13320.25388720678,32380.279288325226,51898.87307868875,0.0,0.0,0.0,193.0,0.0,193.0,0.0,0.0,0.0,179.0,193.0,0.0,179.0,1744418854.9016204,0.0,2025-04-11 20:47:34.901,FORWARD,41
191.0,7339.26234713344,-10141.902880895483,-21111.84848688227,-23656.8851657969,14634.178833267551,13485.701499664963,32170.776387545633,52016.24208882357,0.0,0.0,0.0,193.0,0.0,193.0,0.0,0.0,0.0,178.0,193.0,0.0,178.0,1744418854.901651,0.0,2025-04-11 20:47:34.901,FORWARD,41
192.0,7337.608318043747,-10162.757058472283,-21054.046875720844,-23679.92981433032,14802.822745182842,13389.901922929517,32399.971175190352,52045.00878393755,0.0,0.0,0.0,193.0,0.0,193.0,0.0,0.0,0.0,178.0,193.0,0.0,178.0,1744418854.9016807,0.0,2025-04-11 20:47:34.901,FORWARD,41
193.0,7334.300259864362,-10176.458677823386,-21086.300442969852,-23714.77618393614,14785.857771141264,13159.008402706195,32580.34975294468,51922.63298304474,0.0,0.0,0.0,193.0,0.0,193.0,0.0,0.0,0.0,179.0,193.0,0.0,179.0,1744418854.9017107,0.0,2025-04-11 20:47:34.901,FORWARD,41
194.0,7328.622916772714,-10163.785238717228,-21126.51123124495,-23685.338936488504,14665.560682482801,13267.86139820354,32402.83219848063,51905.84682295881,0.0,0.0,0.0,193.0,0.0,193.0,0.0,0.0,0.0,178.0,193.0,0.0,178.0,1744418854.9017406,0.0,2025-04-11 20:47:34.901,FORWARD,41
195.0,7333.853224975255,-10152.318793811655,-21128.165260334645,-23671.905538070863,14601.567638107257,13470.479961690899,32165.635486320913,52033.028248909504,0.0,0.0,0.0,193.0,0.0,192.0,0.0,0.0,0.0,178.0,192.0,0.0,178.0,1744418854.9017706,0.0,2025-04-11 20:47:34.901,FORWARD,41
196.0,7335.529605809404,-10162.48883753882,-21070.542463128862,-23688.579939434523,14748.418599178625,13399.446117811933,32300.930595508886,52060.83381901191,0.0,0.0,0.0,193.0,0.0,193.0,0.0,1.0,0.0,179.0,193.0,1.0,179.0,1744418854.901814,0.0,2025-04-11 20:47:34.901,FORWARD,41
197.0,7322.006800413943,-10182.158372659489,-21091.79897210586,-23730.64592249941,14787.645910697689,13169.22314992227,32567.25163069387,51962.016756774996,0.0,0.0,0.0,193.0,0.0,193.0,0.0,3.0,0.0,178.0,193.0,3.0,178.0,1744418854.9018455,0.0,2025-04-11 20:47:34.901,FORWARD,41
198.0,7326.767721982923,-10172.211846376878,-21135.518984260438,-23705.813134409564,14667.32647029477,13207.355225963025,32427.26265517028,51899.878907189246,0.0,0.0,0.0,193.0,0.0,192.0,0.0,4.0,0.0,178.0,192.0,4.0,178.0,1744418854.901876,0.0,2025-04-11 20:47:34.901,FORWARD,41
199.0,7333.003858685954,-10159.91838692646,-21148.95238267808,-23683.841369609996,14586.927245489032,13454.699630105451,32189.909480799375,52031.03894365299,0.0,0.0,0.0,193.0,0.0,193.0,0.0,5.0,0.0,178.0,193.0,5.0,178.0,1744418854.901919,0.0,2025-04-11 20:47:34.901,FORWARD,41
200.0,7337.608318043747,-10164.992232917813,-21093.31889072882,-23689.29519525709,14712.208773161028,13432.526699605787,32240.357368035005,52081.86681054435,0.0,0.0,0.0,193.0,0.0,193.0,0.0,6.0,0.0,179.0,193.0,6.0,179.0,1744418854.9019496,0.0,2025-04-11 20:47:34.901,FORWARD,41
201.0,7321.805634713845,-10183.208904648889,-21089.519094171417,-23726.287332330627,14795.178448579127,13214.999522566739,32553.25943866485,52007.83783290838,0.0,0.0,0.0,193.0,0.0,193.0,0.0,7.0,0.0,179.0,193.0,7.0,179.0,1744418854.9019804,0.0,2025-04-11 20:47:34.901,FORWARD,41
202.0,7322.319724836318,-10167.070945152158,-21118.241085796486,-23700.26990178465,14680.491647778947,13173.693498813333,32457.32575146267,51895.34150306482,0.0,0.0,0.0,193.0,0.0,193.0,0.0,8.0,0.0,179.0,193.0,8.0,179.0,1744418854.902011,0.0,2025-04-11 20:47:34.902,FORWARD,41
203.0,7333.45089357506,-10149.793046688204,-21135.988370894,-23664.373000189426,14581.205198908472,13425.642362313552,32227.974501606765,52011.25764981004,0.0,0.0,0.0,193.0,0.0,193.0,0.0,9.0,0.0,179.0,193.0,9.0,179.0,1744418854.9020417,0.0,2025-04-11 20:47:34.902,FORWARD,41
204.0,7350.281757149906,-10140.181796572424,-21092.491876183973,-23654.672343095823,14665.09129584924,13455.414885928021,32204.46046643978,52082.604418111376,0.0,0.0,0.0,193.0,0.0,193.0,0.0,10.0,0.0,179.0,193.0,10.0,179.0,1744418854.9020796,0.0,2025-04-11 20:47:34.902,FORWARD,41
205.0,7332.109788907742,-10173.642358022018,-21101.253760010455,-23704.293215786605,14781.11920131674,13279.86428497604,32556.522793355325,52046.6851647717,0.0,0.0,0.0,193.0,0.0,193.0,0.0,10.0,0.0,178.0,193.0,10.0,178.0,1744418854.9021215,0.0,2025-04-11 20:47:34.902,FORWARD,41
206.0,7334.635536031192,-10161.885340438526,-21185.296319162408,-23693.810247637066,14680.513999523402,13166.22801616526,32508.91357766552,51901.71175023458,0.0,0.0,0.0,193.0,0.0,193.0,0.0,11.0,0.0,179.0,193.0,11.0,179.0,1744418854.9021747,0.0,2025-04-11 20:47:34.902,FORWARD,41
207.0,7325.985410926987,-10143.422799518443,-21285.610948277827,-23659.25445070916,14574.454972082971,13422.446062856445,32288.078342447086,51996.617257191814,0.0,0.0,0.0,193.0,0.0,193.0,0.0,11.0,0.0,179.0,193.0,11.0,179.0,1744418854.9022183,0.0,2025-04-11 20:47:34.902,FORWARD,41
208.0,7337.317745365828,-10134.43739824741,-21291.802381491947,-23643.407063890347,14620.588972638723,13498.799621915774,32177.817187049055,52078.71521457616,0.0,0.0,0.0,193.0,0.0,193.0,0.0,12.0,0.0,179.0,193.0,12.0,179.0,1744418854.9022713,0.0,2025-04-11 20:47:34.902,FORWARD,41
209.0,7331.059256918342,-10166.959186429882,-21288.49432331256,-23675.280651483616,14766.076477298318,13339.11875952706,32505.985499141872,52046.327536860415,0.0,0.0,0.0,193.0,0.0,193.0,0.0,12.0,0.0,179.0,193.0,12.0,179.0,1744418854.9023256,0.0,2025-04-11 20:47:34.902,FORWARD,41
210.0,7327.751198738957,-10170.602520776096,-21359.818739869446,-23694.88313137092,14657.402295756614,13163.590510319533,32539.379005358103,51885.394976782205,0.0,0.0,0.0,193.0,0.0,193.0,0.0,12.0,0.0,179.0,193.0,12.0,179.0,1744418854.9023783,0.0,2025-04-11 20:47:34.902,FORWARD,41
211.0,7326.700666749557,-10160.991270660314,-21419.944932454222,-23671.614965392946,14492.960511798921,13374.4568675109,32327.618578388523,51934.61351807279,0.0,0.0,0.0,193.0,0.0,193.0,0.0,13.0,0.0,179.0,193.0,13.0,179.0,1744418854.9024804,0.0,2025-04-11 20:47:34.902,FORWARD,41
212.0,7344.582062313803,-10137.43253200442,-21397.70494672119,-23649.30792442655,14275.299224293141,13489.434240989,32141.719119753736,52020.53362375899,0.0,0.0,0.0,193.0,0.0,193.0,0.0,13.0,0.0,178.0,193.0,13.0,178.0,1744418854.9025302,0.0,2025-04-11 20:47:34.902,FORWARD,41
213.0,7335.864881976233,-10143.19928207389,-21347.212355996653,-23662.45075016627,14072.50184685014,13365.69498368442,32416.243245153815,52005.80382416294,0.0,0.0,0.0,193.0,0.0,193.0,0.0,13.0,0.0,179.0,193.0,13.0,179.0,1744418854.9025683,0.0,2025-04-11 20:47:34.902,FORWARD,41
214.0,7331.685105763091,-10150.754171699784,-21389.70302220619,-23682.902596342876,13737.67271490964,13158.31549862808,32531.645301776567,51855.24247351199,0.0,0.0,0.0,193.0,0.0,193.0,0.0,14.0,0.0,179.0,193.0,14.0,179.0,1744418854.902644,0.0,2025-04-11 20:47:34.902,FORWARD,41
215.0,7334.568480797825,-10143.758075685273,-21434.585325072447,-23648.615020348432,13419.853260499629,13318.085767994615,32334.748784869767,51864.339633505304,0.0,0.0,0.0,193.0,0.0,193.0,0.0,14.0,0.0,178.0,193.0,14.0,178.0,1744418854.9026816,0.0,2025-04-11 20:47:34.902,FORWARD,41
216.0,7359.557731098858,-10113.292647992688,-21418.46971732017,-23619.982435701186,13288.492058335789,13496.609150959153,32126.92226492432,51975.87483833729,0.0,0.0,0.0,193.0,0.0,193.0,0.0,14.0,0.0,179.0,193.0,14.0,179.0,1744418854.9027212,0.0,2025-04-11 20:47:34.902,FORWARD,41
217.0,7356.204969430562,-10129.274145278234,-21379.62238545685,-23650.269049438128,13365.046783095215,13405.101109159126,32349.076253065617,51995.499669969045,0.0,0.0,0.0,193.0,0.0,193.0,0.0,14.0,0.0,179.0,193.0,14.0,179.0,1744418854.9027612,0.0,2025-04-11 20:47:34.902,FORWARD,41
218.0,7346.258443147951,-10150.44124727741,-21415.899266707813,-23690.36807899095,13241.642801957465,13178.633234337954,32555.181688688004,51875.40374701068,0.0,0.0,0.0,193.0,0.0,193.0,0.0,14.0,0.0,179.0,193.0,14.0,179.0,1744418854.902815,0.0,2025-04-11 20:47:34.902,FORWARD,41
219.0,7327.214756872029,-10160.544235771207,-21461.742694585646,-23668.418665935835,12997.338235060959,13274.969252940327,32386.895404683997,51838.70218261507,0.0,0.0,0.0,193.0,0.0,193.0,0.0,14.0,0.0,179.0,193.0,14.0,179.0,1744418854.90285,0.0,2025-04-11 20:47:34.902,FORWARD,41
220.0,7337.7647802549345,-10131.2410987903,-21454.791302060046,-23637.796776032064,12832.985858081087,13494.441031746988,32147.195297145285,51960.49683815204,0.0,0.0,0.0,193.0,0.0,193.0,0.0,15.0,0.0,179.0,193.0,15.0,179.0,1744418854.902898,0.0,2025-04-11 20:47:34.902,FORWARD,41
221.0,7337.8318354883,-10143.132226840524,-21401.392984556318,-23655.097026240473,12907.908905495276,13450.229281214391,32273.661467273414,52005.89323114076,0.0,0.0,0.0,193.0,0.0,193.0,0.0,15.0,0.0,179.0,193.0,15.0,179.0,1744418855.3784096,0.0,2025-04-11 20:47:35.378,FORWARD,41
222.0,7325.896003949167,-10164.72401198435,-21424.459984834193,-23703.399146008393,12897.627103045834,13222.599115681543,32539.28959838028,51913.55817479589,0.0,0.0,0.0,193.0,0.0,193.0,0.0,15.0,0.0,179.0,193.0,15.0,179.0,1744418855.3785431,0.0,2025-04-11 20:47:35.378,FORWARD,41
223.0,7325.650134760158,-10146.507340253274,-21466.637726621357,-23677.515825929146,12762.130828157762,13243.967383380817,32387.96828841785,51835.66234536914,0.0,0.0,0.0,193.0,0.0,193.0,0.0,15.0,0.0,179.0,193.0,15.0,179.0,1744418855.378649,0.0,2025-04-11 20:47:35.378,FORWARD,41
224.0,7327.080646405298,-10139.623002961041,-21484.63088090788,-23654.7841018181,12665.88421653321,13494.57514221372,32111.030174616597,51963.894303309244,0.0,0.0,0.0,193.0,0.0,193.0,0.0,15.0,0.0,179.0,193.0,15.0,179.0,1744418855.3786824,0.0,2025-04-11 20:47:35.378,FORWARD,41
225.0,7330.8357394737895,-10144.428628018932,-21425.398758101317,-23655.097026240473,12784.057889468419,13478.370127483622,32104.97285186921,52012.30818179944,0.0,0.0,0.0,193.0,0.0,193.0,0.0,15.0,0.0,179.0,193.0,15.0,179.0,1744418855.3787146,0.0,2025-04-11 20:47:35.378,FORWARD,41
226.0,7313.893117176666,-10182.53835231523,-21421.062519676987,-23699.487590728713,12900.733995525123,13270.09657264907,32415.595044564612,51945.029430988965,0.0,0.0,0.0,193.0,0.0,193.0,0.0,15.0,0.0,179.0,193.0,15.0,179.0,1744418855.378791,0.0,2025-04-11 20:47:35.378,FORWARD,41
227.0,7304.594791483259,-10183.54418081572,-21476.15956975932,-23690.435134224314,12790.942226760653,13205.924714317885,32318.901398050955,51836.511711658444,0.0,0.0,0.0,193.0,0.0,193.0,0.0,15.0,0.0,179.0,193.0,15.0,179.0,1744418855.378827,0.0,2025-04-11 20:47:35.378,FORWARD,41
228.0,7311.836756686778,-10157.280881080733,-21501.215875293718,-23660.260279209648,12690.113507522763,13453.000897526848,32058.615333868904,51934.97114598408,0.0,0.0,0.0,193.0,0.0,193.0,0.0,15.0,0.0,179.0,193.0,15.0,179.0,1744418855.378862,0.0,2025-04-11 20:47:35.378,FORWARD,41
229.0,7324.934878937588,-10144.741552441306,-21450.075083979977,-23656.572241374524,12773.105534685319,13492.42937474601,32000.679612240747,52003.9262776287,0.0,0.0,0.0,193.0,0.0,193.0,0.0,15.0,0.0,178.0,193.0,15.0,178.0,1744418855.3789415,0.0,2025-04-11 20:47:35.378,FORWARD,41
230.0,7310.9426869085655,-10185.645244794518,-21432.953647727212,-23703.846180897497,12890.116916908852,13311.089671980104,32340.806107617154,51969.54929465643,0.0,0.0,0.0,193.0,0.0,193.0,0.0,15.0,0.0,179.0,193.0,15.0,179.0,1744418855.378975,0.0,2025-04-11 20:47:35.378,FORWARD,41
231.0,7320.375123068706,-10180.01260519178,-21474.72905811418,-23703.89088438641,12765.215368892596,13173.738202302242,32306.853807789543,51821.692505084575,0.0,0.0,0.0,193.0,0.0,193.0,0.0,16.0,0.0,179.0,193.0,16.0,179.0,1744418855.3790083,0.0,2025-04-11 20:47:35.379,FORWARD,41
232.0,7312.663771231624,-10154.48691302382,-21510.335387031482,-23669.20097699177,12625.785186980389,13419.786205266262,32093.372296496906,51916.39684634171,0.0,0.0,0.0,193.0,0.0,193.0,0.0,16.0,0.0,179.0,193.0,16.0,179.0,1744418855.379042,0.0,2025-04-11 20:47:35.379,FORWARD,41
233.0,7329.829910973301,-10138.997154116292,-21474.34907845844,-23654.672343095823,12618.54322177687,13506.801546430774,31974.215146805665,52010.877670154296,0.0,0.0,0.0,193.0,0.0,192.0,0.0,16.0,0.0,179.0,192.0,16.0,179.0,1744418855.3790762,0.0,2025-04-11 20:47:35.379,FORWARD,41
234.0,7322.051503902853,-10166.82507596315,-21428.595057558425,-23683.662555654355,12714.65572293469,13350.384038732534,32289.285336647674,51992.705701912135,0.0,0.0,0.0,193.0,0.0,193.0,0.0,16.0,0.0,179.0,193.0,16.0,179.0,1744418855.379178,0.0,2025-04-11 20:47:35.379,FORWARD,41
235.0,7315.547146266359,-10177.553913301697,-21467.598851632938,-23699.934625617818,12602.382910535684,13160.997707962717,32336.112241281542,51835.84115932479,0.0,0.0,0.0,193.0,0.0,193.0,0.0,16.0,0.0,179.0,193.0,16.0,179.0,1744418855.3792107,0.0,2025-04-11 20:47:35.379,FORWARD,41
236.0,7313.4684340320155,-10155.336279313122,-21506.669700940813,-23669.424494436324,12461.857493145168,13366.74551567382,32124.26240733414,51886.289046560414,0.0,0.0,0.0,193.0,0.0,193.0,0.0,16.0,0.0,179.0,193.0,16.0,179.0,1744418855.3792446,0.0,2025-04-11 20:47:35.379,FORWARD,41
237.0,7328.935841195088,-10131.397561001488,-21481.72515412869,-23652.995962261673,12439.930431834511,13509.081424365215,31932.775012585524,51993.599771690344,0.0,0.0,0.0,193.0,0.0,193.0,0.0,16.0,0.0,178.0,193.0,16.0,178.0,1744418855.3792777,0.0,2025-04-11 20:47:35.379,FORWARD,41
238.0,7316.865899189223,-10164.232273606334,-21427.008083702098,-23678.722820129733,12585.954378361033,13393.053518897716,32198.380791947937,52001.4228822497,0.0,0.0,0.0,193.0,0.0,193.0,0.0,16.0,0.0,179.0,193.0,16.0,179.0,1744418855.3793097,0.0,2025-04-11 20:47:35.379,FORWARD,41
239.0,7316.932954422588,-10176.324567356654,-21461.67563935228,-23701.70041342979,12529.33740965574,13178.23090293776,32329.16084875594,51858.4387729691,0.0,0.0,0.0,193.0,0.0,193.0,0.0,16.0,0.0,179.0,193.0,16.0,179.0,1744418855.3793423,0.0,2025-04-11 20:47:35.379,FORWARD,41
240.0,7309.936858408077,-10156.878549680538,-21508.97193061971,-23676.286479984105,12403.74295756137,13324.478366908834,32138.344006340983,51857.567054935345,0.0,0.0,0.0,193.0,0.0,193.0,0.0,16.0,0.0,179.0,193.0,16.0,179.0,1744418855.3793764,0.0,2025-04-11 20:47:35.379,FORWARD,41
241.0,7322.476187047504,-10126.569584199142,-21501.86407588292,-23659.29915419807,12367.44372456595,13497.033834103804,31913.261939676042,51970.8680475793,0.0,0.0,0.0,193.0,0.0,193.0,0.0,16.0,0.0,179.0,193.0,16.0,179.0,1744418855.3794284,0.0,2025-04-11 20:47:35.379,FORWARD,41
242.0,7321.515062035926,-10156.520921769254,-21440.776758286567,-23674.96772706124,12526.945772999023,13408.632684783064,32111.72307869471,51996.01376009152,0.0,0.0,0.0,193.0,0.0,193.0,0.0,16.0,0.0,180.0,193.0,16.0,180.0,1744418855.3794615,0.0,2025-04-11 20:47:35.379,FORWARD,41
243.0,7308.193422340563,-10191.143773930524,-21473.67852612478,-23717.436041526325,12542.81551156229,13191.194914721837,32357.078177580617,51897.57667751035,0.0,0.0,0.0,193.0,0.0,193.0,0.0,16.0,0.0,178.0,193.0,16.0,178.0,1744418855.379495,0.0,2025-04-11 20:47:35.379,FORWARD,41
244.0,7304.30421880534,-10188.014529706781,-21520.572485992016,-23697.028898838627,12414.248277455365,13259.323031821614,32199.31956521506,51854.72838338952,0.0,0.0,0.0,193.0,0.0,193.0,0.0,16.0,0.0,179.0,193.0,16.0,179.0,1744418855.3795445,0.0,2025-04-11 20:47:35.379,FORWARD,41
245.0,7327.997067927965,-10147.066133864659,-21512.369395776917,-23666.67522986832,12338.744084685337,13471.374031469111,31942.833297590412,51961.23444571906,0.0,0.0,0.0,193.0,0.0,193.0,0.0,16.0,0.0,179.0,193.0,16.0,179.0,1744418855.379577,0.0,2025-04-11 20:47:35.379,FORWARD,41
246.0,7330.388704584683,-10139.846520405594,-21449.404531646316,-23673.961898560752,12479.336557309218,13444.395475911555,32054.59201986695,52001.1770130607,0.0,0.0,0.0,193.0,0.0,193.0,0.0,16.0,0.0,179.0,193.0,16.0,179.0,1744418855.37961,0.0,2025-04-11 20:47:35.379,FORWARD,41
247.0,7312.909640420633,-10172.457715565886,-21464.62606962038,-23716.83254442603,12506.538630311326,13216.81001386762,32344.292979752183,51909.1995846271,0.0,0.0,0.0,193.0,0.0,193.0,0.0,16.0,0.0,179.0,193.0,16.0,179.0,1744418855.3796425,0.0,2025-04-11 20:47:35.379,FORWARD,41
248.0,7315.748311966457,-10163.360555572577,-21494.845628123956,-23685.115419043952,12359.0171169063,13210.6185806535,32210.450733953803,51817.848005038264,0.0,0.0,0.0,193.0,0.0,193.0,0.0,16.0,0.0,179.0,193.0,16.0,179.0,1744418855.3796756,0.0,2025-04-11 20:47:35.379,FORWARD,41
249.0,7313.513137520927,-10146.44028501991,-21519.0302156246,-23662.696619355276,12219.1846035939,13463.61797614312,31965.520318212548,51944.00125074402,0.0,0.0,0.0,193.0,0.0,193.0,0.0,16.0,0.0,178.0,193.0,16.0,178.0,1744418855.379709,0.0,2025-04-11 20:47:35.379,FORWARD,41
250.0,7327.63944001668,-10136.24788954829,-21464.313145198008,-23664.708276356254,12271.018298985757,13453.13500799358,31958.546573942494,51988.48122221008,0.0,0.0,0.0,193.0,0.0,193.0,0.0,16.0,0.0,179.0,193.0,16.0,179.0,1744418855.3797424,0.0,2025-04-11 20:47:35.379,FORWARD,41
251.0,7320.285716090884,-10171.58599753213,-21450.253897935618,-23702.907407630373,12356.893701183046,13258.585424254588,32297.8237030296,51935.12760819526,0.0,0.0,0.0,193.0,0.0,193.0,0.0,16.0,0.0,179.0,193.0,16.0,179.0,1744418855.3797743,0.0,2025-04-11 20:47:35.379,FORWARD,41
252.0,7316.396512555661,-10171.58599753213,-21496.54436070256,-23700.02403259564,12240.955202693369,13186.925731530873,32237.697510444825,51820.57491786181,0.0,0.0,0.0,193.0,0.0,193.0,0.0,16.0,0.0,179.0,193.0,16.0,179.0,1744418855.379807,0.0,2025-04-11 20:47:35.379,FORWARD,41
253.0,7304.30421880534,-10159.113724126068,-21533.9835326652,-23680.39920096388,12123.407378602908,13435.164205451514,32010.402621078807,51930.56785232638,0.0,0.0,0.0,193.0,0.0,193.0,0.0,17.0,0.0,178.0,193.0,17.0,178.0,1744418855.3798387,0.0,2025-04-11 20:47:35.379,FORWARD,41
254.0,7325.426617315605,-10136.650220948484,-21480.808732606023,-23665.91527055684,12180.851361853047,13477.677223405508,31920.034518246,51992.45983272312,0.0,0.0,0.0,193.0,0.0,192.0,0.0,16.0,0.0,178.0,192.0,16.0,178.0,1744418855.3798711,0.0,2025-04-11 20:47:35.379,FORWARD,41
255.0,7314.049579387854,-10164.813418962172,-21456.355924171916,-23706.908369887875,12322.203793788409,13316.454090649378,32269.302877104627,51963.46962016459,0.0,0.0,0.0,193.0,0.0,193.0,0.0,16.0,0.0,179.0,193.0,16.0,179.0,1744418855.3799028,0.0,2025-04-11 20:47:35.379,FORWARD,41
0.0,7309.713340963524,-10178.649148780007,-21502.98166310569,-23712.138678090418,12207.695806943872,13170.743068545231,32274.15320565143,51825.51465338644,0.0,0.0,0.0,193.0,0.0,193.0,0.0,17.0,0.0,179.0,193.0,17.0,179.0,1744418855.3799477,0.0,2025-04-11 20:47:35.379,FORWARD,41
1.0,7319.704570735046,-10148.116665854057,-21530.11668087443,-23671.749075859676,12073.317119278565,13399.5131730453,32054.949647778234,51906.40561657019,0.0,0.0,0.0,193.0,0.0,193.0,0.0,17.0,0.0,179.0,193.0,17.0,179.0,1744418855.3799791,0.0,2025-04-11 20:47:35.379,FORWARD,41
2.0,7339.843492489278,-10126.547232454686,-21499.807715393035,-23660.796721076575,12077.854523402993,13490.305959022757,31904.902387249756,51989.64351292176,0.0,0.0,0.0,193.0,0.0,192.0,0.0,17.0,0.0,178.0,192.0,17.0,178.0,1744418855.3800113,0.0,2025-04-11 20:47:35.380,FORWARD,41
3.0,7314.787186954879,-10169.86491320907,-21463.955517286722,-23698.682927928323,12228.885260687503,13351.12164629956,32222.878303870955,51981.306312239925,0.0,0.0,0.0,193.0,0.0,193.0,0.0,17.0,0.0,179.0,193.0,17.0,179.0,1744418855.3800576,0.0,2025-04-11 20:47:35.380,FORWARD,41
4.0,7309.981561896988,-10168.926139941948,-21507.8766951414,-23717.816021182065,12148.620146348494,13156.326193371558,32286.29020289066,51825.134673730696,0.0,0.0,0.0,193.0,0.0,193.0,0.0,17.0,0.0,179.0,193.0,17.0,179.0,1744418855.3800907,0.0,2025-04-11 20:47:35.380,FORWARD,41
5.0,7317.6929137340685,-10145.590918730608,-21528.999093651666,-23672.754904360165,12037.822549083538,13361.939890615928,32078.06135154502,51856.851799112774,0.0,0.0,0.0,193.0,0.0,192.0,0.0,17.0,0.0,178.0,192.0,17.0,178.0,1744418855.3801246,0.0,2025-04-11 20:47:35.380,FORWARD,41
6.0,7329.829910973301,-10129.497662722786,-21504.859209639933,-23653.5324041286,12024.009171010157,13521.397235560089,31893.860625488836,51969.48223942307,0.0,0.0,0.0,193.0,0.0,193.0,0.0,17.0,0.0,179.0,193.0,17.0,179.0,1744418855.380182,0.0,2025-04-11 20:47:35.380,FORWARD,41
7.0,7311.8814601756885,-10167.383869574533,-21460.736866085157,-23686.970613833742,12170.435448936874,13406.352806848623,32155.532497827116,51981.88745759577,0.0,0.0,0.0,193.0,0.0,193.0,0.0,17.0,0.0,179.0,193.0,17.0,179.0,1744418855.3802233,0.0,2025-04-11 20:47:35.380,FORWARD,41
8.0,7310.003913641443,-10172.413012076977,-21487.626014664893,-23711.6469397124,12123.407378602908,13170.161923189393,32289.665316303413,51832.01901102293,0.0,0.0,0.0,193.0,0.0,192.0,0.0,17.0,0.0,178.0,192.0,17.0,178.0,1744418855.3802617,0.0,2025-04-11 20:47:35.380,FORWARD,41
9.0,7313.244916587462,-10155.537445013219,-21521.44420402577,-23668.284555469105,12011.112214459446,13313.615419103555,32101.597738456458,51821.35722891775,0.0,0.0,0.0,193.0,0.0,193.0,0.0,17.0,0.0,179.0,193.0,17.0,179.0,1744418855.3803024,0.0,2025-04-11 20:47:35.380,FORWARD,41
10.0,7314.809538699334,-10140.181796572424,-21521.31009355904,-23649.285572682093,11959.949071401248,13527.231040862924,31906.89169250628,51962.776716086475,0.0,0.0,0.0,193.0,0.0,193.0,0.0,17.0,0.0,179.0,193.0,17.0,179.0,1744418855.3803413,0.0,2025-04-11 20:47:35.380,FORWARD,41
11.0,7327.862957461233,-10142.81930241815,-21465.855415565424,-23668.686886869298,12107.559991784095,13433.644286828552,32083.224604514195,51983.63089366328,0.0,0.0,0.0,193.0,0.0,193.0,0.0,17.0,0.0,178.0,193.0,17.0,178.0,1744418855.38038,0.0,2025-04-11 20:47:35.380,FORWARD,41
12.0,7328.645268517169,-10164.768715473261,-21487.089572797966,-23710.708166445278,12134.091512452545,13205.500031173235,32328.82557258911,51880.20937206857,0.0,0.0,0.0,193.0,0.0,192.0,0.0,17.0,0.0,179.0,192.0,17.0,179.0,1744418855.3804183,0.0,2025-04-11 20:47:35.380,FORWARD,41
13.0,7295.274114045395,-10171.697756254407,-21548.55687005006,-23708.182419321827,11992.247342139166,13268.286081348191,32196.145617502407,51858.684642158114,0.0,0.0,0.0,193.0,0.0,193.0,0.0,17.0,0.0,179.0,193.0,17.0,179.0,1744418855.3804555,0.0,2025-04-11 20:47:35.380,FORWARD,41
14.0,7303.857183916233,-10143.288689051711,-21551.529652062614,-23681.896767842387,11910.283495221556,13482.415793230033,31944.17440225773,51982.89328609625,0.0,0.0,0.0,193.0,0.0,193.0,0.0,17.0,0.0,179.0,193.0,17.0,179.0,1744418855.3804939,0.0,2025-04-11 20:47:35.380,FORWARD,41
15.0,7319.5704602683145,-10153.52578801224,-21478.10417152693,-23684.266052754647,12042.80698809707,13443.411999155522,32018.784525249546,52016.19738533466,0.0,0.0,0.0,193.0,0.0,193.0,0.0,17.0,0.0,179.0,193.0,17.0,179.0,1744418855.3805788,0.0,2025-04-11 20:47:35.380,FORWARD,41
16.0,7304.058349616332,-10178.671500524462,-21481.09930528394,-23723.35925380698,12102.866125448481,13228.947011106851,32317.627348617003,51930.61255581529,0.0,0.0,0.0,193.0,0.0,193.0,0.0,17.0,0.0,179.0,193.0,17.0,179.0,1744418855.3806262,0.0,2025-04-11 20:47:35.380,FORWARD,41
17.0,7303.745425193957,-10162.757058472283,-21519.611360980434,-23697.140657560907,11990.168629904823,13220.609810425021,32195.94445180231,51826.49813014247,0.0,0.0,0.0,193.0,0.0,193.0,0.0,17.0,0.0,179.0,193.0,17.0,179.0,1744418855.3806667,0.0,2025-04-11 20:47:35.380,FORWARD,41
18.0,7316.061236388831,-10138.483063993819,-21532.061282642044,-23661.802549577063,11903.756785840606,13476.090249549181,31950.61170466086,51939.285032663945,0.0,0.0,0.0,193.0,0.0,193.0,0.0,17.0,0.0,180.0,193.0,17.0,180.0,1744418855.3807063,0.0,2025-04-11 20:47:35.380,FORWARD,41
19.0,7333.45089357506,-10130.279973778723,-21468.783494089068,-23656.371075674426,12012.073339471024,13487.243770032379,31948.57769591543,51998.40539674824,0.0,0.0,0.0,193.0,0.0,193.0,0.0,17.0,0.0,179.0,193.0,17.0,179.0,1744418855.38079,0.0,2025-04-11 20:47:35.380,FORWARD,41
20.0,7313.669599732113,-10163.517017783764,-21467.57649988848,-23707.467163499256,12124.457910592308,13294.05764270516,32295.007383228232,51950.17033221368,0.0,0.0,0.0,193.0,0.0,193.0,0.0,17.0,0.0,179.0,193.0,17.0,179.0,1744418855.3808374,0.0,2025-04-11 20:47:35.380,FORWARD,41
21.0,7317.469396289515,-10150.620061233052,-21516.280951056597,-23704.673195442345,12017.52716511812,13196.022891524184,32232.84718189802,51815.0316852369,0.0,0.0,0.0,193.0,0.0,193.0,0.0,17.0,0.0,179.0,193.0,17.0,179.0,1744418855.3808744,0.0,2025-04-11 20:47:35.380,FORWARD,41
22.0,7318.408169556638,-10128.871813878039,-21543.326561847516,-23672.665497382342,11912.853945833916,13448.396438169055,32005.887568698832,51918.83318648734,0.0,0.0,0.0,193.0,0.0,193.0,0.0,17.0,0.0,179.0,193.0,17.0,179.0,1744418855.3809135,0.0,2025-04-11 20:47:35.380,FORWARD,41
23.0,7334.456722075549,-10124.803796387172,-21489.39180247686,-23662.562508888546,11970.588501761975,13495.960950369948,31908.433962873696,51988.34711174335,0.0,0.0,0.0,193.0,0.0,193.0,0.0,17.0,0.0,178.0,193.0,17.0,178.0,1744418855.3809571,0.0,2025-04-11 20:47:35.380,FORWARD,41
24.0,7312.172032853608,-10160.879511938037,-21465.7660085876,-23704.06969834205,12107.694102250827,13330.714503611864,32253.410786796903,51965.2130562321,0.0,0.0,0.0,193.0,0.0,192.0,0.0,17.0,0.0,179.0,192.0,17.0,179.0,1744418855.380994,0.0,2025-04-11 20:47:35.380,FORWARD,41
25.0,7313.893117176666,-10145.81443617516,-21511.34121553197,-23700.22519829574,12024.635019854906,13174.364051146991,32260.451586300325,51815.85869978174,0.0,0.0,0.0,193.0,0.0,193.0,0.0,17.0,0.0,179.0,193.0,17.0,179.0,1744418855.3810453,0.0,2025-04-11 20:47:35.381,FORWARD,41
26.0,7309.154547352141,-10124.602630687074,-21555.709428275757,-23670.296212470083,11923.515727939097,13409.03501618326,32051.73099657667,51891.09467161831,0.0,0.0,0.0,193.0,0.0,193.0,0.0,17.0,0.0,179.0,193.0,17.0,179.0,1744418855.3810964,0.0,2025-04-11 20:47:35.381,FORWARD,41
27.0,7318.989314912476,-10122.635677175007,-21530.228439596707,-23667.815168835543,11929.818919875494,13518.871488436638,31898.308622635443,51983.9214663412,0.0,0.0,0.0,193.0,0.0,193.0,0.0,17.0,0.0,178.0,193.0,17.0,178.0,1744418855.3811376,0.0,2025-04-11 20:47:35.381,FORWARD,41
28.0,7294.558858222826,-10171.161314387478,-21496.991395591664,-23714.507963002678,12083.308349050087,13382.570550748176,32207.656765896892,51988.34711174335,0.0,0.0,0.0,193.0,0.0,192.0,0.0,17.0,0.0,179.0,192.0,17.0,179.0,1744418855.3811789,0.0,2025-04-11 20:47:35.381,FORWARD,41
29.0,7295.184707067574,-10169.909616697982,-21529.580239007504,-23730.556515521588,12024.567964621541,13174.162885446893,32287.67601104689,51841.09381927179,0.0,0.0,0.0,193.0,0.0,193.0,0.0,17.0,0.0,179.0,193.0,17.0,179.0,1744418855.3812246,0.0,2025-04-11 20:47:35.381,FORWARD,41
30.0,7292.256628543929,-10154.196340345901,-21562.817283012544,-23696.671270927345,11911.535192911053,13350.249928265803,32079.6706771458,51866.35129050628,0.0,0.0,0.0,193.0,0.0,193.0,0.0,17.0,0.0,179.0,193.0,17.0,179.0,1744418855.3813436,0.0,2025-04-11 20:47:35.381,FORWARD,41
31.0,7302.001989126443,-10133.185700557911,-21540.957276935253,-23676.845273595485,11893.87731479136,13497.816145159739,31869.676037988193,51970.64453013474,0.0,0.0,0.0,193.0,0.0,192.0,0.0,17.0,0.0,179.0,192.0,17.0,179.0,1744418855.3814013,0.0,2025-04-11 20:47:35.381,FORWARD,41
32.0,7304.7736054389015,-10146.507340253274,-21479.847607594445,-23693.854951125973,12067.125686064444,13402.262437613303,32106.246901303162,51987.162469287214,0.0,0.0,0.0,193.0,0.0,193.0,0.0,17.0,0.0,178.0,193.0,17.0,178.0,1744418855.381477,0.0,2025-04-11 20:47:35.381,FORWARD,41
33.0,7291.787241910368,-10164.656956750985,-21510.380090520393,-23721.995797395208,12053.71463939126,13182.880065784462,32285.57494706809,51861.9927003375,0.0,0.0,0.0,193.0,0.0,193.0,0.0,17.0,0.0,179.0,193.0,17.0,179.0,1744418855.3815317,0.0,2025-04-11 20:47:35.381,FORWARD,41
34.0,7300.325608292295,-10137.76780817125,-21532.910648931345,-23673.000773549174,11947.476797995187,13302.439546875901,32110.31491879403,51840.46797042704,0.0,0.0,0.0,193.0,0.0,193.0,0.0,17.0,0.0,179.0,193.0,17.0,179.0,1744418855.3816764,0.0,2025-04-11 20:47:35.381,FORWARD,41
35.0,7313.5801927542925,-10122.680380663918,-21527.92620991781,-23654.7841018181,11898.012387515591,13514.781119201318,31895.224081900607,51967.180009744174,0.0,0.0,0.0,193.0,0.0,192.0,0.0,17.0,0.0,178.0,192.0,17.0,178.0,1744418855.3817496,0.0,2025-04-11 20:47:35.381,FORWARD,41
36.0,7310.227431085996,-10142.908709395972,-21474.080857524976,-23673.000773549174,12049.221938755743,13450.385743425579,32057.944781535243,52004.61918170681,0.0,0.0,0.0,193.0,0.0,193.0,0.0,17.0,0.0,179.0,193.0,17.0,179.0,1744418855.381827,0.0,2025-04-11 20:47:35.381,FORWARD,41
37.0,7303.946590894055,-10154.86689267956,-21486.083744297477,-23706.12605883194,12084.492991506218,13217.94995283484,32304.372764155003,51891.92168616315,0.0,0.0,0.0,193.0,0.0,193.0,0.0,17.0,0.0,179.0,193.0,17.0,179.0,1744418855.381915,0.0,2025-04-11 20:47:35.381,FORWARD,41
38.0,7304.214811827518,-10124.312058009154,-21521.667721470323,-23676.17472126183,11965.738173215172,13254.785627697185,32145.340102355494,51812.86356602473,0.0,0.0,0.0,193.0,0.0,193.0,0.0,17.0,0.0,179.0,193.0,17.0,179.0,1744418855.3820093,0.0,2025-04-11 20:47:35.382,FORWARD,41
39.0,7308.908678163133,-10109.67166539093,-21532.284800086596,-23650.559622116045,11891.508029879098,13501.414776017044,31921.88971303579,51951.80200955892,0.0,0.0,0.0,193.0,0.0,193.0,0.0,17.0,0.0,179.0,193.0,17.0,179.0,1744418855.3820844,0.0,2025-04-11 20:47:35.382,FORWARD,41
40.0,7321.045675402364,-10126.994267343793,-21472.806808091023,-23648.39150290388,12015.739025561694,13480.471191462422,31985.078094610944,51997.8242513924,0.0,0.0,0.0,193.0,0.0,193.0,0.0,17.0,0.0,179.0,193.0,17.0,179.0,1744418855.3821769,0.0,2025-04-11 20:47:35.382,FORWARD,41
41.0,7294.402396011638,-10163.137038128023,-21491.805790878036,-23699.889922128907,12085.565875240074,13276.444468074378,32311.234749702784,51936.424009373666,0.0,0.0,0.0,193.0,0.0,193.0,0.0,17.0,0.0,180.0,193.0,17.0,180.0,1744418855.3822775,0.0,2025-04-11 20:47:35.382,FORWARD,41
42.0,7295.318817534307,-10151.827055433638,-21535.302285588063,-23682.142637031393,11968.107458127435,13230.489281474267,32210.56249267608,51835.885862813695,0.0,0.0,0.0,193.0,0.0,193.0,0.0,17.0,0.0,178.0,193.0,17.0,178.0,1744418855.3823547,0.0,2025-04-11 20:47:35.382,FORWARD,41
43.0,7299.431538514083,-10129.967049356348,-21543.59478278098,-23642.378883645404,11878.2534454171,13478.481886205898,31962.50283271108,51941.69902106512,0.0,0.0,0.0,193.0,0.0,193.0,0.0,17.0,0.0,179.0,193.0,17.0,179.0,1744418855.3824203,0.0,2025-04-11 20:47:35.382,FORWARD,41
44.0,7309.311009563328,-10126.368418499043,-21482.127485528887,-23635.896877753363,11972.466048296219,13493.05522359076,31936.46305042065,51995.231449035586,0.0,0.0,0.0,193.0,0.0,193.0,0.0,17.0,0.0,179.0,193.0,17.0,179.0,1744418855.3824897,0.0,2025-04-11 20:47:35.382,FORWARD,41
45.0,7287.652169186136,-10170.244892864812,-21471.890386568357,-23685.473046955234,12090.237389831233,13307.178116700426,32296.10261870654,51952.919596781685,0.0,0.0,0.0,193.0,0.0,193.0,0.0,17.0,0.0,179.0,193.0,17.0,179.0,1744418855.3826644,0.0,2025-04-11 20:47:35.382,FORWARD,41
46.0,7289.194439553552,-10164.72401198435,-21515.029253367098,-23682.50026494268,11984.804211235549,13191.239618210748,32250.460356528805,51815.277554425906,0.0,0.0,0.0,193.0,0.0,193.0,0.0,17.0,0.0,178.0,193.0,17.0,178.0,1744418855.3827226,0.0,2025-04-11 20:47:35.382,FORWARD,41
47.0,7305.622971728203,-10124.222651031334,-21525.646331983367,-23632.097081195963,11877.627596572353,13446.317725934712,32011.631967023848,51912.90997420669,0.0,0.0,0.0,193.0,0.0,193.0,0.0,17.0,0.0,179.0,193.0,17.0,179.0,1744418855.3827896,0.0,2025-04-11 20:47:35.382,FORWARD,41
48.0,7325.225451615507,-10106.832993845104,-21481.032250050575,-23621.9270374688,11934.736303655662,13519.363226814656,31910.93735825269,51994.49384146856,0.0,0.0,0.0,193.0,0.0,193.0,0.0,17.0,0.0,179.0,193.0,17.0,179.0,1744418855.3828385,0.0,2025-04-11 20:47:35.382,FORWARD,41
49.0,7293.553029722337,-10151.983517644825,-21465.564842887503,-23678.96868931874,12078.569779225563,13355.591995190622,32267.738254992757,51986.15664078673,0.0,0.0,0.0,193.0,0.0,193.0,0.0,17.0,0.0,179.0,193.0,17.0,179.0,1744418855.3829467,0.0,2025-04-11 20:47:35.382,FORWARD,41
50.0,7287.562762208315,-10139.57829947213,-21509.709538186737,-23687.08237255602,11989.94511246027,13168.664356310888,32281.95396446633,51826.78870282039,0.0,0.0,0.0,193.0,0.0,193.0,0.0,17.0,0.0,180.0,193.0,17.0,180.0,1744418855.38301,0.0,2025-04-11 20:47:35.383,FORWARD,41
51.0,7291.429613999083,-10114.05260730417,-21533.60355300946,-23643.652933079356,11880.153343695802,13394.372271820579,32059.19647922474,51877.95184587859,0.0,0.0,0.0,193.0,0.0,193.0,0.0,17.0,0.0,179.0,193.0,17.0,179.0,1744418855.3830628,0.0,2025-04-11 20:47:35.383,FORWARD,41
52.0,7317.759968967434,-10115.505470693764,-21499.606549692937,-23632.43235736279,11897.006559015103,13525.778177473328,31897.88393949079,51979.29465523895,0.0,0.0,0.0,193.0,0.0,193.0,0.0,17.0,0.0,179.0,193.0,17.0,179.0,1744418855.3831089,0.0,2025-04-11 20:47:35.383,FORWARD,41
53.0,7299.029207113887,-10154.53161651273,-21458.501691639627,-23674.699506127778,12066.835113386525,13396.719204988385,32194.98332679073,51986.894248353754,0.0,0.0,0.0,193.0,0.0,193.0,0.0,17.0,0.0,179.0,193.0,17.0,179.0,1744418855.383147,0.0,2025-04-11 20:47:35.383,FORWARD,41
54.0,7292.100166332742,-10163.494666039309,-21498.511314214626,-23698.101782572485,12020.656409341862,13179.907283771907,32298.069572218606,51839.37273494872,0.0,0.0,0.0,193.0,0.0,193.0,0.0,17.0,0.0,178.0,193.0,17.0,178.0,1744418855.383186,0.0,2025-04-11 20:47:35.383,FORWARD,41
55.0,7289.797936653846,-10145.143883841502,-21542.991285680688,-23669.64801188088,11902.326274195466,13348.014753820271,32110.180808327295,51866.03836608391,0.0,0.0,0.0,193.0,0.0,193.0,0.0,17.0,0.0,179.0,193.0,17.0,179.0,1744418855.3832235,0.0,2025-04-11 20:47:35.383,FORWARD,41
56.0,7306.986428139977,-10117.695941650385,-21528.574410507015,-23652.884203539397,11873.49252384812,13515.921058168538,31906.17643668371,51982.17803027368,0.0,0.0,0.0,193.0,0.0,193.0,0.0,17.0,0.0,179.0,193.0,17.0,179.0,1744418855.3832626,0.0,2025-04-11 20:47:35.383,FORWARD,41
57.0,7304.997122883454,-10145.501511752786,-21478.975889560686,-23684.690735899298,12041.801159596582,13414.354731363623,32131.70553823776,51996.01376009152,0.0,0.0,0.0,193.0,0.0,193.0,0.0,17.0,0.0,179.0,193.0,17.0,179.0,1744418855.3833115,0.0,2025-04-11 20:47:35.383,FORWARD,41
58.0,7290.177916309585,-10172.703584754896,-21523.232343582196,-23728.74602422071,12032.033447269612,13188.378594920468,32330.971340056818,51871.98393010902,0.0,0.0,0.0,193.0,0.0,193.0,0.0,17.0,0.0,180.0,193.0,17.0,180.0,1744418855.383358,0.0,2025-04-11 20:47:35.383,FORWARD,41
59.0,7292.726015177491,-10141.344087284098,-21556.849367242976,-23685.853026610974,11903.712082351694,13288.313244380146,32147.642332034393,51831.147292989175,0.0,0.0,0.0,193.0,0.0,193.0,0.0,17.0,0.0,179.0,193.0,17.0,179.0,1744418855.383396,0.0,2025-04-11 20:47:35.383,FORWARD,41
60.0,7313.848413687756,-10106.609476400552,-21540.040855412586,-23652.4818721392,11850.58198578143,13505.57220048573,31908.925701251712,51943.7106780661,0.0,0.0,0.0,193.0,0.0,193.0,0.0,17.0,0.0,178.0,193.0,17.0,178.0,1744418855.3834925,0.0,2025-04-11 20:47:35.383,FORWARD,41
61.0,7308.439291529571,-10125.742569654294,-21481.121657028398,-23668.77629384712,12010.106385958958,13459.639365630075,32055.933124534266,51984.27909425248,0.0,0.0,0.0,193.0,0.0,193.0,0.0,17.0,0.0,178.0,193.0,17.0,178.0,1744418855.3835292,0.0,2025-04-11 20:47:35.383,FORWARD,41
62.0,7286.10989881872,-10162.48883753882,-21502.31111077203,-23715.245570569703,12071.596034955506,13231.964496608318,32337.45334594886,51895.00622689799,0.0,0.0,0.0,193.0,0.0,193.0,0.0,17.0,0.0,179.0,193.0,17.0,179.0,1744418855.383563,0.0,2025-04-11 20:47:35.383,FORWARD,41
63.0,7298.246896057952,-10146.44028501991,-21540.085558901497,-23688.87051211244,11982.211408878733,13248.974174138806,32192.56933838956,51812.77415904691,0.0,0.0,0.0,193.0,0.0,193.0,0.0,17.0,0.0,179.0,193.0,17.0,179.0,1744418855.3835964,0.0,2025-04-11 20:47:35.383,FORWARD,41
64.0,7312.596715998258,-10116.980685827815,-21548.55687005006,-23661.7354943437,11908.540059154042,13491.445897989977,31943.682663879714,51932.06541920488,0.0,0.0,0.0,193.0,0.0,192.0,0.0,17.0,0.0,178.0,192.0,17.0,178.0,1744418855.3836527,0.0,2025-04-11 20:47:35.383,FORWARD,41
65.0,7308.4169397851165,-10137.43253200442,-21498.533665959083,-23676.688811384298,12051.747685879194,13478.079554805703,31992.454170281195,51979.78639361697,0.0,0.0,0.0,193.0,0.0,192.0,0.0,17.0,0.0,179.0,192.0,17.0,179.0,1744418855.3836856,0.0,2025-04-11 20:47:35.383,FORWARD,41
66.0,7283.852372628734,-10177.643320279518,-21501.10411657144,-23727.673140486855,12159.706611598327,13270.521255793723,32327.417412688425,51920.08488417684,0.0,0.0,0.0,193.0,0.0,193.0,0.0,17.0,0.0,179.0,193.0,17.0,179.0,1744418855.383718,0.0,2025-04-11 20:47:35.383,FORWARD,41
67.0,7286.735747663468,-10155.62685199104,-21536.64339025538,-23704.583788464523,12070.366689010465,13215.938295833863,32229.829696396555,51805.19691767656,0.0,0.0,0.0,193.0,0.0,193.0,0.0,17.0,0.0,179.0,193.0,17.0,179.0,1744418855.3837495,0.0,2025-04-11 20:47:35.383,FORWARD,41
68.0,7294.7376721784685,-10130.369380756543,-21559.799797511077,-23669.06686652504,11983.060775168035,13479.644176917574,31991.604803991893,51922.90120397821,0.0,0.0,0.0,193.0,0.0,192.0,0.0,17.0,0.0,178.0,192.0,17.0,178.0,1744418855.3837807,0.0,2025-04-11 20:47:35.383,FORWARD,41
69.0,7313.356675309739,-10120.713427151852,-21504.523933473105,-23660.416741420835,12065.136380807922,13517.083348880215,31945.202582502676,51990.6716931667,0.0,0.0,0.0,193.0,0.0,193.0,0.0,17.0,0.0,178.0,193.0,17.0,178.0,1744418855.3838127,0.0,2025-04-11 20:47:35.383,FORWARD,41
70.0,7294.760023922923,-10160.454828793387,-21493.236302523175,-23704.40497450888,12188.763879390226,13339.319925227157,32306.38442115598,51961.748535841536,0.0,0.0,0.0,193.0,0.0,192.0,0.0,17.0,0.0,179.0,192.0,17.0,179.0,1744418855.3838449,0.0,2025-04-11 20:47:35.383,FORWARD,41
71.0,7299.096262347253,-10144.786255930216,-21535.79402396608,-23702.88505588592,12086.370538040464,13202.817821838597,32274.130853906972,51821.87131904022,0.0,0.0,0.0,193.0,0.0,192.0,0.0,17.0,0.0,178.0,192.0,17.0,178.0,1744418855.3838763,0.0,2025-04-11 20:47:35.383,FORWARD,41
72.0,7311.724997964501,-10117.293610250188,-21560.626812055925,-23668.686886869298,11980.713842000228,13437.824063041695,32042.700891816723,51900.43770080063,0.0,0.0,0.0,193.0,0.0,193.0,0.0,17.0,0.0,179.0,193.0,17.0,179.0,1744418855.383908,0.0,2025-04-11 20:47:35.383,FORWARD,41
73.0,7319.5704602683145,-10121.853366119072,-21526.003959894653,-23669.625660136422,12018.37653140742,13507.114470853146,31925.17541947072,51983.18385877417,0.0,0.0,0.0,193.0,0.0,193.0,0.0,17.0,0.0,179.0,193.0,17.0,179.0,1744418855.3839397,0.0,2025-04-11 20:47:35.383,FORWARD,41
74.0,7298.984503624976,-10156.923253169449,-21486.77664837559,-23707.4448117548,12175.88927458397,13356.240195779825,32251.175612351373,51969.415184189704,0.0,0.0,0.0,193.0,0.0,193.0,0.0,17.0,0.0,179.0,193.0,17.0,179.0,1744418855.383972,0.0,2025-04-11 20:47:35.383,FORWARD,41
75.0,7295.140003578664,-10146.708505953373,-21529.602590751958,-23719.73827120522,12111.113919152489,13183.125934973472,32290.045295959153,51823.167720218626,0.0,0.0,0.0,193.0,0.0,193.0,0.0,17.0,0.0,179.0,193.0,17.0,179.0,1744418855.3840182,0.0,2025-04-11 20:47:35.384,FORWARD,41
76.0,7290.379082009684,-10133.275107535734,-21565.320678391538,-23685.562453933057,12001.053929454558,13396.361577077101,32082.218776013706,51879.02472961244,0.0,0.0,0.0,193.0,0.0,193.0,0.0,17.0,0.0,179.0,193.0,17.0,179.0,1744418855.3840504,0.0,2025-04-11 20:47:35.384,FORWARD,41
77.0,7308.327532807295,-10123.708560908863,-21533.469442542726,-23669.223328736225,12009.771109792127,13518.804433203273,31901.996660470566,51974.57843715888,0.0,0.0,0.0,193.0,0.0,193.0,0.0,17.0,0.0,178.0,193.0,17.0,178.0,1744418855.384082,0.0,2025-04-11 20:47:35.384,FORWARD,41
78.0,7295.8552594012335,-10165.931006184937,-21487.71542164271,-23701.096916329494,12180.73960313077,13400.608408523609,32181.393466161906,51975.60661740382,0.0,0.0,0.0,193.0,0.0,192.0,0.0,17.0,0.0,179.0,192.0,17.0,179.0,1744418855.3841136,0.0,2025-04-11 20:47:35.384,FORWARD,41
79.0,7287.853334886234,-10172.860046966081,-21521.086576114485,-23727.807250953585,12142.026381734178,13184.958778018807,32307.233787445282,51831.61667962273,0.0,0.0,0.0,193.0,0.0,193.0,0.0,17.0,0.0,179.0,193.0,17.0,179.0,1744418855.384162,0.0,2025-04-11 20:47:35.384,FORWARD,41
80.0,7292.614256455214,-10136.538462226208,-21554.055399186065,-23686.188302777806,12026.914897789347,13343.902032840495,32108.9291106378,51835.72940060251,0.0,0.0,0.0,193.0,0.0,193.0,0.0,17.0,0.0,179.0,193.0,17.0,179.0,1744418855.3841944,0.0,2025-04-11 20:47:35.384,FORWARD,41
81.0,7295.698797190046,-10125.429645231921,-21548.69098051679,-23671.190282248295,11990.012167693636,13536.305849111779,31904.678869805204,51966.50945741051,0.0,0.0,0.0,193.0,0.0,193.0,0.0,17.0,0.0,179.0,193.0,17.0,179.0,1744418855.3842258,0.0,2025-04-11 20:47:35.384,FORWARD,41
82.0,7290.937875621066,-10149.033087376725,-21493.191599034264,-23691.664480169355,12145.289736424655,13443.300240433246,32109.01851761562,51993.80093739044,0.0,0.0,0.0,193.0,0.0,193.0,0.0,17.0,0.0,179.0,193.0,17.0,179.0,1744418855.3842576,0.0,2025-04-11 20:47:35.384,FORWARD,41
83.0,7284.187648795563,-10164.366384073066,-21511.96706437672,-23720.766451450167,12155.571538874095,13219.089891802061,32321.717717852323,51870.19579055259,0.0,0.0,0.0,193.0,0.0,193.0,0.0,17.0,0.0,179.0,193.0,17.0,179.0,1744418855.3842893,0.0,2025-04-11 20:47:35.384,FORWARD,41
84.0,7285.439346485061,-10147.826093176138,-21552.580184052014,-23692.871474369942,12034.402732181876,13313.771881314742,32159.578163573526,51836.01997328043,0.0,0.0,0.0,193.0,0.0,193.0,0.0,17.0,0.0,179.0,193.0,17.0,179.0,1744418855.3843207,0.0,2025-04-11 20:47:35.384,FORWARD,41
85.0,7304.170108338608,-10113.292647992688,-21549.02625668362,-23662.003715277162,11978.2775018546,13535.523538055842,31919.833352545902,51958.28401545096,0.0,0.0,0.0,193.0,0.0,193.0,0.0,17.0,0.0,179.0,193.0,17.0,179.0,1744418855.8587973,0.0,2025-04-11 20:47:35.858,FORWARD,41
86.0,7309.266306074418,-10127.709523166362,-21492.096363555953,-23678.00756430716,12131.096378695534,13484.494505464376,32045.360749406907,51997.600733947846,0.0,0.0,0.0,193.0,0.0,193.0,0.0,17.0,0.0,178.0,193.0,17.0,178.0,1744418855.8589466,0.0,2025-04-11 20:47:35.858,FORWARD,41
87.0,7299.073910602798,-10157.3479363141,-21519.58900923598,-23734.669236501366,12180.292568241664,13262.564034767633,32342.661302406945,51916.08392191934,0.0,0.0,0.0,193.0,0.0,192.0,0.0,17.0,0.0,179.0,192.0,17.0,179.0,1744418855.858987,0.0,2025-04-11 20:47:35.858,FORWARD,41
88.0,7298.336303035772,-10138.505415738275,-21567.913480748353,-23711.445774012303,12050.943023078802,13266.743810980775,32210.160161275886,51835.99762153598,0.0,0.0,0.0,193.0,0.0,193.0,0.0,17.0,0.0,179.0,193.0,17.0,179.0,1744418855.859028,0.0,2025-04-11 20:47:35.859,FORWARD,41
89.0,7297.486936746471,-10112.309171236655,-21574.619004084947,-23672.26316598215,11961.670155724307,13512.233020333413,31957.049007063986,51953.00900375951,0.0,0.0,0.0,193.0,0.0,193.0,0.0,17.0,0.0,179.0,193.0,17.0,179.0,1744418855.859079,0.0,2025-04-11 20:47:35.859,FORWARD,41
90.0,7300.5491257368485,-10120.489909707298,-21517.242076068174,-23676.912328828854,12064.1976075408,13500.319540538734,31975.824472406446,52000.9758473606,0.0,0.0,0.0,193.0,0.0,193.0,0.0,17.0,0.0,179.0,193.0,17.0,179.0,1744418855.859228,0.0,2025-04-11 20:47:35.859,FORWARD,41
91.0,7290.602599454236,-10159.761924715272,-21507.228494552197,-23712.004567623684,12168.356736702532,13302.216029431347,32301.332926909083,51929.74083778153,0.0,0.0,0.0,193.0,0.0,193.0,0.0,17.0,0.0,179.0,193.0,17.0,179.0,1744418855.859271,0.0,2025-04-11 20:47:35.859,FORWARD,41
92.0,7298.135137335675,-10155.224520590846,-21552.043742185087,-23697.99002385021,12064.085848818524,13234.199671053848,32220.620777680968,51806.2250979215,0.0,0.0,0.0,193.0,0.0,192.0,0.0,17.0,0.0,178.0,192.0,17.0,178.0,1744418855.8593152,0.0,2025-04-11 20:47:35.859,FORWARD,41
93.0,7306.181765339586,-10124.356761498066,-21574.70841106277,-23666.45171242377,11976.08703089798,13477.833685616695,31981.23359456463,51904.59512526931,0.0,0.0,0.0,193.0,0.0,192.0,0.0,17.0,0.0,178.0,192.0,17.0,178.0,1744418855.8593907,0.0,2025-04-11 20:47:35.859,FORWARD,41
94.0,7309.601582241247,-10113.85144160407,-21520.63954122538,-23659.72383734272,12055.323964992043,13519.63144774812,31918.469896134127,51978.71350988311,0.0,0.0,0.0,193.0,0.0,193.0,0.0,17.0,0.0,179.0,193.0,17.0,179.0,1744418855.8594582,0.0,2025-04-11 20:47:35.859,FORWARD,41
95.0,7283.382985995172,-10157.705564225384,-21498.667776425813,-23708.428288510837,12202.778423163703,13358.341259758623,32285.642002301458,51963.268454464494,0.0,0.0,0.0,193.0,0.0,193.0,0.0,17.0,0.0,179.0,193.0,17.0,179.0,1744418855.8595018,0.0,2025-04-11 20:47:35.859,FORWARD,41
96.0,7302.449024015549,-10145.121532097046,-21535.816375710532,-23701.990986107707,12108.543468540129,13209.813917853107,32256.49532753174,51809.64491482317,0.0,0.0,0.0,193.0,0.0,193.0,0.0,17.0,0.0,179.0,193.0,17.0,179.0,1744418855.859537,0.0,2025-04-11 20:47:35.859,FORWARD,41
97.0,7305.108881605731,-10125.273183020734,-21561.722047534233,-23664.752979845165,12006.284237657099,13449.402266669544,32030.00510096611,51883.159802336675,0.0,0.0,0.0,193.0,0.0,193.0,0.0,17.0,0.0,179.0,193.0,17.0,179.0,1744418855.8595808,0.0,2025-04-11 20:47:35.859,FORWARD,41
98.0,7311.21090784203,-10108.397615956977,-21534.385864065393,-23664.842386822987,12033.262793214655,13530.092064153203,31894.575881311404,51969.48223942307,0.0,0.0,0.0,193.0,0.0,193.0,0.0,17.0,0.0,179.0,193.0,17.0,179.0,1744418855.8596363,0.0,2025-04-11 20:47:35.859,FORWARD,41
99.0,7306.092358361764,-10139.354782027576,-21503.048718339054,-23700.247550040192,12200.923228373913,13389.499591529322,32225.649920183412,51971.158620257214,0.0,0.0,0.0,193.0,0.0,193.0,0.0,17.0,0.0,179.0,193.0,17.0,179.0,1744418855.8596776,0.0,2025-04-11 20:47:35.859,FORWARD,41
100.0,7307.7687391959125,-10136.404351759476,-21537.716273989234,-23703.868532641955,12143.143968956945,13208.651627141433,32280.031714443176,51820.41845565062,0.0,0.0,0.0,193.0,0.0,193.0,0.0,17.0,0.0,179.0,193.0,17.0,179.0,1744418855.8597133,0.0,2025-04-11 20:47:35.859,FORWARD,41
101.0,7289.552067464837,-10114.946677082382,-21563.107855690465,-23665.49058741219,12039.208357239766,13414.958228463916,32076.720246877703,51864.5407992054,0.0,0.0,0.0,193.0,0.0,193.0,0.0,17.0,0.0,179.0,193.0,17.0,179.0,1744418855.8597517,0.0,2025-04-11 20:47:35.859,FORWARD,41
102.0,7305.757082194935,-10102.362644954044,-21530.362550063437,-23645.552831358058,12039.52128166214,13558.724648800451,31894.799398755957,51972.72324236909,0.0,0.0,0.0,193.0,0.0,192.0,0.0,17.0,0.0,178.0,192.0,17.0,178.0,1744418855.859789,0.0,2025-04-11 20:47:35.859,FORWARD,41
103.0,7295.542334978859,-10135.979668614826,-21479.847607594445,-23676.241776495193,12210.333312789597,13444.574289867198,32171.31282941256,51987.028358820484,0.0,0.0,0.0,193.0,0.0,193.0,0.0,17.0,0.0,179.0,193.0,17.0,179.0,1744418855.8598287,0.0,2025-04-11 20:47:35.859,FORWARD,41
104.0,7284.63468368467,-10158.53257877023,-21517.085613856987,-23712.205733323783,12172.357698960031,13221.52623194769,32328.847924333564,51853.25316825547,0.0,0.0,0.0,193.0,0.0,193.0,0.0,17.0,0.0,179.0,193.0,17.0,179.0,1744418855.85988,0.0,2025-04-11 20:47:35.859,FORWARD,41
105.0,7280.410203982617,-10142.707543695873,-21552.758998007655,-23678.96868931874,12051.747685879194,13355.703753912898,32140.288608108596,51854.616624667244,0.0,0.0,0.0,193.0,0.0,193.0,0.0,17.0,0.0,179.0,193.0,17.0,179.0,1744418855.860264,0.0,2025-04-11 20:47:35.860,FORWARD,41
106.0,7294.804727411834,-10111.392749713988,-21541.11373914644,-23657.86864255293,12021.371665164432,13539.323334613246,31908.948052996166,51972.47737318008,0.0,0.0,0.0,193.0,0.0,192.0,0.0,17.0,0.0,178.0,192.0,17.0,178.0,1744418855.8603525,0.0,2025-04-11 20:47:35.860,FORWARD,41
107.0,7290.53554422087,-10132.559851713164,-21487.089572797966,-23685.137770788406,12179.152629274444,13459.23703422988,32092.83585462998,51997.734844414575,0.0,0.0,0.0,193.0,0.0,192.0,0.0,17.0,0.0,179.0,192.0,17.0,179.0,1744418855.8604343,0.0,2025-04-11 20:47:35.860,FORWARD,41
108.0,7280.589017938259,-10159.449000292898,-21511.184753320784,-23723.426309040347,12188.920341601413,13225.61660118301,32320.95775854084,51883.74094769251,0.0,0.0,0.0,193.0,0.0,193.0,0.0,17.0,0.0,179.0,193.0,17.0,179.0,1744418855.8605084,0.0,2025-04-11 20:47:35.860,FORWARD,41
109.0,7289.39560525365,-10134.10212208058,-21542.723064747224,-23680.10862828596,12073.987671612225,13294.079994449616,32160.44988160728,51831.37081043373,0.0,0.0,0.0,193.0,0.0,193.0,0.0,17.0,0.0,179.0,193.0,17.0,179.0,1744418855.8607135,0.0,2025-04-11 20:47:35.860,FORWARD,41
110.0,7305.868840917211,-10112.733854381306,-21552.200204396275,-23657.846290808477,12005.323112645521,13519.877316937127,31926.74004158259,51955.60180611632,0.0,0.0,0.0,193.0,0.0,193.0,0.0,17.0,0.0,178.0,193.0,17.0,178.0,1744418855.860783,0.0,2025-04-11 20:47:35.860,FORWARD,41
111.0,7303.007817626932,-10118.567659684142,-21490.554093188537,-23665.557642645555,12146.519082369696,13483.108697308147,32026.786449764546,52002.6745799392,0.0,0.0,0.0,193.0,0.0,193.0,0.0,17.0,0.0,179.0,193.0,17.0,179.0,1744418855.8608372,0.0,2025-04-11 20:47:35.860,FORWARD,41
112.0,7296.525811734893,-10132.425741246432,-21491.00112807764,-23696.11247731596,12218.067016371133,13272.667023261432,32323.327043453104,51913.93815445163,0.0,0.0,0.0,193.0,0.0,193.0,0.0,17.0,0.0,179.0,193.0,17.0,179.0,1744418855.860904,0.0,2025-04-11 20:47:35.860,FORWARD,41
113.0,7298.224544313496,-10117.293610250188,-21538.67739900081,-23679.415724207847,12100.228619602754,13267.347308081069,32199.856007081988,51815.612830592734,0.0,0.0,0.0,193.0,0.0,192.0,0.0,17.0,0.0,179.0,192.0,17.0,179.0,1744418855.8609807,0.0,2025-04-11 20:47:35.860,FORWARD,41
114.0,7302.851355415744,-10099.501621663765,-21557.7881405101,-23653.934735528797,12012.006284237657,13512.098909866681,31957.026655319532,51929.293802892425,0.0,0.0,0.0,193.0,0.0,193.0,0.0,17.0,0.0,178.0,193.0,17.0,178.0,1744418855.8610654,0.0,2025-04-11 20:47:35.861,FORWARD,41
115.0,7313.803710198845,-10110.968066569338,-21501.50644797164,-23649.799662804566,12114.310218609598,13513.507069767365,31958.83714662041,51978.28882673846,0.0,0.0,0.0,193.0,0.0,193.0,0.0,17.0,0.0,179.0,193.0,17.0,179.0,1744418855.8611195,0.0,2025-04-11 20:47:35.861,FORWARD,41
116.0,7304.9524193945435,-10138.058380849168,-21489.794133877058,-23692.22327378074,12228.907612431958,13325.3947884315,32303.232825187784,51925.91868947967,0.0,0.0,0.0,193.0,0.0,193.0,0.0,17.0,0.0,179.0,193.0,17.0,179.0,1744418855.8611846,0.0,2025-04-11 20:47:35.861,FORWARD,41
117.0,7301.622009470703,-10127.754226655272,-21539.772634479123,-23685.83067486652,12113.103224409011,13238.29004028917,32232.355443520006,51792.88110648169,0.0,0.0,0.0,193.0,0.0,192.0,0.0,17.0,0.0,179.0,192.0,17.0,179.0,1744418855.8612576,0.0,2025-04-11 20:47:35.861,FORWARD,41
118.0,7304.192460083063,-10103.860211832549,-21561.967916723243,-23653.130072728407,12008.09472895798,13486.215589787435,31992.029487136544,51884.344444792805,0.0,0.0,0.0,193.0,0.0,193.0,0.0,17.0,0.0,179.0,193.0,17.0,179.0,1744418855.861318,0.0,2025-04-11 20:47:35.861,FORWARD,41
119.0,7320.375123068706,-10084.99533951227,-21504.59098870647,-23644.323485413013,12083.688328705828,13538.429264835033,31918.1346199673,51959.93804454065,0.0,0.0,0.0,193.0,0.0,193.0,0.0,17.0,0.0,179.0,193.0,17.0,179.0,1744418855.8613927,0.0,2025-04-11 20:47:35.861,FORWARD,41
120.0,7299.006855369432,-10133.38686625801,-21472.225662735185,-23683.908424843365,12229.376999065518,13373.652204710508,32273.70617076232,51940.73789605354,0.0,0.0,0.0,193.0,0.0,193.0,0.0,17.0,0.0,179.0,193.0,17.0,179.0,1744418855.861663,0.0,2025-04-11 20:47:35.861,FORWARD,41
121.0,7284.947608107043,-10140.315907039156,-21524.998131394164,-23696.40304999388,12128.481224594263,13218.061711557117,32279.316458620604,51804.32519964281,0.0,0.0,0.0,193.0,0.0,193.0,0.0,17.0,0.0,179.0,193.0,17.0,179.0,1744418855.8617165,0.0,2025-04-11 20:47:35.861,FORWARD,41
122.0,7293.284808788873,-10115.036084060202,-21556.715256776246,-23659.701485598267,12016.99072325119,13442.987316010871,32050.367540164894,51874.08499408782,0.0,0.0,0.0,193.0,0.0,193.0,0.0,17.0,0.0,179.0,193.0,17.0,179.0,1744418855.8617637,0.0,2025-04-11 20:47:35.861,FORWARD,41
123.0,7303.946590894055,-10109.515203179742,-21516.571523734514,-23644.323485413013,12048.394924210897,13544.799512004794,31905.34942213886,51963.73784109805,0.0,0.0,0.0,193.0,0.0,193.0,0.0,17.0,0.0,179.0,193.0,17.0,179.0,1744418855.8618052,0.0,2025-04-11 20:47:35.861,FORWARD,41
124.0,7283.874724373189,-10142.975764629336,-21477.701840126734,-23677.918157329343,12214.066054113633,13411.65017028453,32223.772373649168,51956.987614272555,0.0,0.0,0.0,193.0,0.0,193.0,0.0,17.0,0.0,178.0,193.0,17.0,178.0,1744418855.8618803,0.0,2025-04-11 20:47:35.861,FORWARD,41
125.0,7271.648320156136,-10154.77748570174,-21527.54623026207,-23700.761640162666,12152.062314994611,13220.118072047004,32315.794505571666,51818.11622597173,0.0,0.0,0.0,193.0,0.0,193.0,0.0,17.0,0.0,179.0,193.0,17.0,179.0,1744418855.8619184,0.0,2025-04-11 20:47:35.861,FORWARD,41
126.0,7250.503569901415,-10155.91742466896,-21563.867815001944,-23666.764636846143,12038.2919357171,13411.784280751262,32120.954349154756,51856.82944736832,0.0,0.0,0.0,193.0,0.0,193.0,0.0,17.0,0.0,179.0,193.0,17.0,179.0,1744418855.8619528,0.0,2025-04-11 20:47:35.861,FORWARD,41
127.0,7256.382078693161,-10145.680325708428,-21536.88925944439,-23644.54700285757,12023.182156465311,13566.547759359808,31914.625396087817,51960.74270734104,0.0,0.0,0.0,193.0,0.0,193.0,0.0,17.0,0.0,179.0,193.0,17.0,179.0,1744418855.8619878,0.0,2025-04-11 20:47:35.861,FORWARD,41
128.0,7231.437531881039,-10183.991215704826,-21486.709593142223,-23676.10766602846,12193.055414325645,13470.90464483555,32162.79681477509,51973.46084993611,0.0,0.0,0.0,193.0,0.0,193.0,0.0,17.0,0.0,178.0,193.0,17.0,178.0,1744418855.8620212,0.0,2025-04-11 20:47:35.862,FORWARD,41
129.0,7212.438549094028,-10206.946457260425,-21526.383939550393,-23716.966654892763,12164.35577444503,13245.599060726056,32322.00829053024,51845.1394850182,0.0,0.0,0.0,193.0,0.0,193.0,0.0,17.0,0.0,179.0,193.0,17.0,179.0,1744418855.862054,0.0,2025-04-11 20:47:35.862,FORWARD,41
130.0,7200.793290232813,-10202.051425224714,-21561.587937067503,-23678.141674773895,12040.907089818369,13363.16923656097,32110.963119383232,51828.19686272107,0.0,0.0,0.0,193.0,0.0,193.0,0.0,17.0,0.0,179.0,193.0,17.0,179.0,1744418855.8620868,0.0,2025-04-11 20:47:35.862,FORWARD,41
131.0,7209.9798572039435,-10181.800744748205,-21549.22742238372,-23654.739398329188,12001.702130043761,13560.199863934502,31864.49043327456,51945.47646587807,0.0,0.0,0.0,193.0,0.0,193.0,0.0,17.0,0.0,178.0,193.0,17.0,178.0,1744418855.862119,0.0,2025-04-11 20:47:35.862,FORWARD,41
132.0,7200.837993721723,-10204.890096770538,-21487.58131117598,-23666.272898468127,12167.93205355788,13494.083403835702,32012.682499013248,51965.70479461012,0.0,0.0,0.0,193.0,0.0,193.0,0.0,17.0,0.0,179.0,193.0,17.0,179.0,1744418855.8621519,0.0,2025-04-11 20:47:35.862,FORWARD,41
133.0,7172.7642026858575,-10243.715076889406,-21518.672587713314,-23713.50213450219,12187.087498556079,13275.349232596069,32265.659542758414,51867.625339940234,0.0,0.0,0.0,193.0,0.0,193.0,0.0,17.0,0.0,179.0,193.0,17.0,179.0,1744418855.8621843,0.0,2025-04-11 20:47:35.862,FORWARD,41
134.0,7160.470743235439,-10238.797693109238,-21560.582108567014,-23684.02018356564,12060.666031916862,13319.44922440639,32106.15749432534,51802.201783919554,0.0,0.0,0.0,193.0,0.0,192.0,0.0,17.0,0.0,179.0,192.0,17.0,179.0,1744418855.8622167,0.0,2025-04-11 20:47:35.862,FORWARD,41
135.0,7169.9478828844885,-10209.405149150509,-21561.07384694503,-23657.578069875013,11992.783784006095,13547.593480061709,31861.58470649537,51921.98478245554,0.0,0.0,0.0,193.0,0.0,192.0,0.0,17.0,0.0,178.0,192.0,17.0,178.0,1744418855.8622663,0.0,2025-04-11 20:47:35.862,FORWARD,41
136.0,7168.740888683902,-10222.525623145775,-21503.92043637281,-23674.833616594507,12119.1605471564,13512.367130800145,31935.211352731152,51965.369518443295,0.0,0.0,0.0,193.0,0.0,193.0,0.0,17.0,0.0,179.0,193.0,17.0,179.0,1744418855.862299,0.0,2025-04-11 20:47:35.862,FORWARD,41
137.0,7142.902272093567,-10261.484713731375,-21516.102137100952,-23724.27567532965,12185.79109737767,13296.292817150692,32259.244592099738,51892.70399721909,0.0,0.0,0.0,193.0,0.0,193.0,0.0,17.0,0.0,179.0,193.0,17.0,179.0,1744418855.862332,0.0,2025-04-11 20:47:35.862,FORWARD,41
138.0,7144.086914549699,-10251.001745581836,-21565.41008536936,-23704.516733231158,12057.67089815985,13258.741886465776,32167.8930125109,51792.121147170204,0.0,0.0,0.0,193.0,0.0,193.0,0.0,17.0,0.0,178.0,193.0,17.0,178.0,1744418855.8623643,0.0,2025-04-11 20:47:35.862,FORWARD,41
139.0,7152.312356509252,-10233.343867462143,-21576.027163985633,-23667.435189179803,11958.853835922937,13495.268046291834,31931.210390473654,51902.78463396843,0.0,0.0,0.0,193.0,0.0,193.0,0.0,17.0,0.0,179.0,193.0,17.0,179.0,1744418855.862411,0.0,2025-04-11 20:47:35.862,FORWARD,41
140.0,7159.777839157324,-10237.389533208554,-21508.144916074863,-23654.985267518197,12069.986709354724,13503.426433018021,31917.575826355915,51955.84767530533,0.0,0.0,0.0,193.0,0.0,193.0,0.0,17.0,0.0,179.0,193.0,17.0,179.0,1744418855.8624437,0.0,2025-04-11 20:47:35.862,FORWARD,41
141.0,7132.866338833134,-10275.543960993762,-21493.079840311988,-23696.470105227247,12195.089423071078,13324.835994820118,32279.741141765255,51911.121834650265,0.0,0.0,0.0,193.0,0.0,193.0,0.0,17.0,0.0,179.0,193.0,17.0,179.0,1744418855.8624752,0.0,2025-04-11 20:47:35.862,FORWARD,41
142.0,7129.535928909294,-10272.437068514475,-21544.46650081474,-23693.899654614885,12082.838962416527,13228.790548895664,32238.23395231175,51783.44867032155,0.0,0.0,0.0,193.0,0.0,193.0,0.0,17.0,0.0,179.0,193.0,17.0,179.0,1744418855.8625069,0.0,2025-04-11 20:47:35.862,FORWARD,41
143.0,7140.7118011369475,-10249.995917081347,-21564.761884780157,-23656.952221030264,11977.092859398468,13469.18356051249,32006.1557896323,51873.727366176536,0.0,0.0,0.0,193.0,0.0,193.0,0.0,17.0,0.0,179.0,193.0,17.0,179.0,1744418855.8625433,0.0,2025-04-11 20:47:35.862,FORWARD,41
144.0,7143.4163622160395,-10237.747161119838,-21515.8786196564,-23646.7821773031,12042.0917322745,13535.165910144558,31912.569035597928,51947.331660667856,0.0,0.0,0.0,193.0,0.0,193.0,0.0,17.0,0.0,179.0,193.0,17.0,179.0,1744418855.8625758,0.0,2025-04-11 20:47:35.862,FORWARD,41
145.0,7129.178300998009,-10264.502199232842,-21484.83204660798,-23688.803456879075,12197.749280661259,13382.391736792533,32264.273734602182,51930.50079709302,0.0,0.0,0.0,193.0,0.0,192.0,0.0,17.0,0.0,179.0,192.0,17.0,179.0,1744418855.8626075,0.0,2025-04-11 20:47:35.862,FORWARD,41
146.0,7136.599080157171,-10256.924957862491,-21534.922305932323,-23702.281558785628,12112.656189519905,13214.776005122187,32286.692534290858,51787.11435641222,0.0,0.0,0.0,193.0,0.0,193.0,0.0,17.0,0.0,179.0,193.0,17.0,179.0,1744418855.8626392,0.0,2025-04-11 20:47:35.862,FORWARD,41
147.0,7151.5747489422265,-10241.815178610705,-21573.590823840004,-23669.849177580974,11996.89650498587,13429.553917593232,32065.231450227675,51849.96746182054,0.0,0.0,0.0,193.0,0.0,193.0,0.0,17.0,0.0,179.0,193.0,17.0,179.0,1744418855.862671,0.0,2025-04-11 20:47:35.862,FORWARD,41
148.0,7170.931359640523,-10219.798710322228,-21529.64729424087,-23641.350703400458,12015.09082497249,13543.123131170647,31896.475779590106,51934.0100209725,0.0,0.0,0.0,193.0,0.0,193.0,0.0,17.0,0.0,179.0,193.0,17.0,179.0,1744418855.8627028,0.0,2025-04-11 20:47:35.862,FORWARD,41
