Sample Index,EXG Channel 0,EXG Channel 1,EXG Channel 2,EXG Channel 3,EXG Channel 4,EXG Channel 5,EXG Channel 6,EXG Channel 7,Accel Channel 0,Accel Channel 1,Accel Channel 2,Not Used,Digital Channel 0 (D11),Digital Channel 1 (D12),Digital Channel 2 (D13),Digital Channel 3 (D17),Not Used,Digital Channel 4 (D18),Analog Channel 0,Analog Channel 1,Analog Channel 2,Timestamp,Marker Channel,Timestamp (Formatted),Stimulus_Direction,Stimulus_Number
58.0,12188.696824156861,1153.4170691272104,-59090.658615906075,-55855.601233911664,-33873.28641096192,-31144.160764713382,-7516.645791130757,-20879.971489902913,0.0,0.0,0.0,193.0,1.0,154.0,0.0,10.0,3.0,251.0,410.0,10.0,1019.0,1744252822.3820512,0.0,2025-04-09 22:40:22.382,FORWARD,31
59.0,12295.649921375505,1169.5326768794866,-59077.98517679992,-55790.64706452454,-33906.389344500225,-31175.4085034619,-7348.605376315758,-20904.938388459494,0.0,0.0,0.0,193.0,1.0,155.0,0.0,9.0,3.0,251.0,411.0,9.0,1019.0,1744252822.3820689,0.0,2025-04-09 22:40:22.382,FORWARD,31
60.0,12312.346674483619,1180.5967903848637,-59061.93662428101,-55849.56626290873,-33849.23593392801,-31108.643842773898,-7666.290720259038,-20868.505044997342,0.0,0.0,0.0,193.0,1.0,155.0,0.0,8.0,3.0,253.0,411.0,8.0,1021.0,1744252822.3820865,0.0,2025-04-09 22:40:22.382,FORWARD,31
61.0,12259.708316291371,1192.9349533241932,-59058.80738005727,-55802.29232338576,-33843.31272164735,-31110.454334074777,-7441.856854183299,-20858.245594292355,0.0,0.0,0.0,193.0,1.0,154.0,0.0,8.0,3.0,250.0,410.0,8.0,1018.0,1744252822.3820956,0.0,2025-04-09 22:40:22.382,FORWARD,31
62.0,12187.422774722907,1161.8436767868611,-59094.77133688585,-55862.61968167063,-33874.158128995674,-31135.085956464525,-7524.312439478927,-20872.103675854647,0.0,0.0,0.0,193.0,1.0,155.0,0.0,7.0,3.0,252.0,411.0,7.0,1020.0,1744252822.3821044,0.0,2025-04-09 22:40:22.382,FORWARD,31
63.0,12261.675269803438,1157.1274587067912,-59089.09399379421,-55793.463384325914,-33923.37667028626,-31179.767093630686,-7356.450838619571,-20900.80331573526,0.0,0.0,0.0,193.0,1.0,154.0,0.0,7.0,3.0,249.0,410.0,7.0,1017.0,1744252822.3821135,0.0,2025-04-09 22:40:22.382,FORWARD,31
64.0,12314.984180329346,1177.9592845391376,-59078.25339773338,-55855.601233911664,-33874.47105341805,-31117.36102311147,-7651.873845085364,-20858.089132081168,0.0,0.0,0.0,193.0,1.0,154.0,0.0,6.0,3.0,249.0,410.0,6.0,1017.0,1744252822.3821225,0.0,2025-04-09 22:40:22.382,FORWARD,31
65.0,12268.067868717655,1192.174994012713,-59046.2904031623,-55789.01538717931,-33835.713128532545,-31093.712877477752,-7471.651729542224,-20828.271904977788,0.0,0.0,0.0,193.0,1.0,154.0,0.0,6.0,3.0,252.0,410.0,6.0,1020.0,1744252822.382131,0.0,2025-04-09 22:40:22.382,FORWARD,31
66.0,12195.357644004542,1169.845601301861,-59089.27280774985,-55860.04923105827,-33860.814137555855,-31122.25605514718,-7512.086035261874,-20866.94042288547,0.0,0.0,0.0,193.0,1.0,154.0,0.0,6.0,3.0,249.0,410.0,6.0,1017.0,1744252822.3821404,0.0,2025-04-09 22:40:22.382,FORWARD,31
67.0,12232.41683631144,1143.7611155225177,-59091.55268568429,-55805.4215676095,-33913.6536614482,-31176.16846277338,-7378.579065630325,-20908.872295483627,0.0,0.0,0.0,193.0,1.0,154.0,0.0,6.0,3.0,250.0,410.0,6.0,1018.0,1744252822.3821492,0.0,2025-04-09 22:40:22.382,FORWARD,31
68.0,12315.006532073801,1169.2868076904783,-59086.92587458204,-55857.25526300136,-33880.08134127633,-31130.12386919545,-7582.181105873717,-20870.874329909602,0.0,0.0,0.0,193.0,1.0,154.0,0.0,5.0,3.0,251.0,410.0,5.0,1019.0,1744252822.382158,0.0,2025-04-09 22:40:22.382,FORWARD,31
69.0,12278.95316826739,1187.1234997658134,-59040.92598449302,-55796.41381459401,-33821.78799173689,-31087.588499497,-7515.572907396902,-20827.914277066502,0.0,0.0,0.0,193.0,1.0,155.0,0.0,5.0,3.0,249.0,411.0,5.0,1017.0,1744252822.382167,0.0,2025-04-09 22:40:22.382,FORWARD,31
70.0,12206.064129598633,1164.5705896104087,-59087.93170308253,-55858.52931243531,-33853.52746886342,-31122.97131096975,-7487.074433216386,-20869.756742686837,0.0,0.0,0.0,193.0,1.0,154.0,0.0,5.0,3.0,250.0,410.0,5.0,1018.0,1744252822.3821757,0.0,2025-04-09 22:40:22.382,FORWARD,31
71.0,12213.574315735617,1142.7105835331183,-59083.036671046815,-55809.98132347839,-33893.6488501607,-31158.912916053883,-7418.454577738593,-20889.582740018697,0.0,0.0,0.0,193.0,1.0,154.0,0.0,5.0,3.0,252.0,410.0,5.0,1020.0,1744252822.3821845,0.0,2025-04-09 22:40:22.382,FORWARD,31
72.0,12317.264058263787,1171.9913687695705,-59091.21740951746,-55841.407876182544,-33895.66050716168,-31151.469785150268,-7500.731349078578,-20897.89758895607,0.0,0.0,0.0,193.0,1.0,155.0,0.0,5.0,3.0,249.0,411.0,5.0,1017.0,1744252822.3821988,0.0,2025-04-09 22:40:22.382,FORWARD,31
73.0,12278.304967678187,1181.267342718523,-59046.58097584021,-55809.04255021126,-33828.582922051304,-31087.432037285813,-7573.530980769513,-20832.049349790734,0.0,0.0,0.0,193.0,1.0,154.0,0.0,4.0,3.0,249.0,410.0,4.0,1017.0,1744252822.3822076,0.0,2025-04-09 22:40:22.382,FORWARD,31
74.0,12218.446996026874,1179.3450926953665,-59077.940473311006,-55840.49145465988,-33843.469183858535,-31110.09670616349,-7445.500188529514,-20841.68295165097,0.0,0.0,0.0,193.0,1.0,155.0,0.0,4.0,3.0,251.0,411.0,4.0,1019.0,1744252822.3822167,0.0,2025-04-09 22:40:22.382,FORWARD,31
75.0,12196.452879482851,1141.4141823547104,-59085.40595595908,-55830.96961152192,-33884.97637331204,-31154.621381118464,-7456.586653779346,-20883.74893471586,0.0,0.0,0.0,193.0,1.0,154.0,0.0,4.0,3.0,250.0,410.0,4.0,1018.0,1744252822.3822255,0.0,2025-04-09 22:40:22.382,FORWARD,31
76.0,12311.76552912778,1169.4209181572103,-59086.970578070956,-55824.018218996316,-33905.987013100035,-31163.673837622864,-7434.547833746414,-20898.501086056363,0.0,0.0,0.0,193.0,1.0,154.0,0.0,4.0,3.0,249.0,410.0,4.0,1017.0,1744252822.382234,0.0,2025-04-09 22:40:22.382,FORWARD,31
77.0,12285.166953225966,1179.523906651009,-59045.284574661804,-55824.86758528562,-33833.187381409094,-31089.063714631047,-7633.925394287753,-20833.83748934716,0.0,0.0,0.0,193.0,1.0,155.0,0.0,4.0,3.0,250.0,411.0,4.0,1018.0,1744252822.3822432,0.0,2025-04-09 22:40:22.382,FORWARD,31
78.0,12232.729760733815,1179.6133136288302,-59068.30687145077,-55825.44873064146,-33845.6373030707,-31111.080182919526,-7438.817016937378,-20854.55755645723,0.0,0.0,0.0,193.0,1.0,154.0,0.0,4.0,3.0,250.0,410.0,4.0,1018.0,1744252822.382252,0.0,2025-04-09 22:40:22.382,FORWARD,31
79.0,12187.132202044988,1136.005060196526,-59091.35151998419,-55850.505036175855,-33887.65858264668,-31153.07911075105,-7512.063683517419,-20901.831495980205,0.0,0.0,0.0,193.0,1.0,154.0,0.0,4.0,3.0,249.0,410.0,4.0,1017.0,1744252822.3822608,0.0,2025-04-09 22:40:22.382,FORWARD,31
80.0,12298.443889432418,1157.1945139401573,-59090.43509846152,-55811.5235938458,-33922.10262085231,-31177.241346507235,-7387.117432012253,-20907.218266393935,0.0,0.0,0.0,193.0,1.0,155.0,0.0,4.0,3.0,252.0,411.0,4.0,1020.0,1744252822.3822696,0.0,2025-04-09 22:40:22.382,FORWARD,31
81.0,12299.606180144094,1178.3392641948778,-59050.49253111989,-55838.837425570186,-33839.66938730114,-31092.6399937439,-7665.061374313996,-20833.189288757956,0.0,0.0,0.0,193.0,1.0,154.0,0.0,4.0,3.0,250.0,410.0,4.0,1018.0,1744252822.3822784,0.0,2025-04-09 22:40:22.382,FORWARD,31
82.0,12241.446941071385,1183.9495520531598,-59059.67909809102,-55810.54011708977,-33843.67034955863,-31106.96746193975,-7429.541042988425,-20839.626591161086,0.0,0.0,0.0,193.0,1.0,154.0,0.0,3.0,3.0,249.0,410.0,3.0,1017.0,1744252822.3822873,0.0,2025-04-09 22:40:22.382,FORWARD,31
83.0,12176.515123428719,1139.4472288426434,-59094.726633396946,-55865.6371671721,-33886.31747797936,-31143.490212379722,-7536.58354718489,-20877.66926022402,0.0,0.0,0.0,193.0,1.0,155.0,0.0,3.0,3.0,252.0,411.0,3.0,1020.0,1744252822.3822963,0.0,2025-04-09 22:40:22.382,FORWARD,31
84.0,12281.590674113117,1155.2722639170008,-59081.38264195713,-55793.32927385918,-33919.91214989569,-31179.811797119597,-7365.793867801889,-20901.071536668725,0.0,0.0,0.0,193.0,1.0,155.0,0.0,3.0,3.0,252.0,411.0,3.0,1020.0,1744252822.3823051,0.0,2025-04-09 22:40:22.382,FORWARD,31
85.0,12308.189250014932,1172.5948658698637,-59060.99785101388,-55849.49920767537,-33855.04738748639,-31111.683680019818,-7668.570598193479,-20855.205757046435,0.0,0.0,0.0,193.0,1.0,155.0,0.0,3.0,3.0,251.0,411.0,3.0,1019.0,1744252822.382314,0.0,2025-04-09 22:40:22.382,FORWARD,31
86.0,12255.819112756148,1183.6142758863302,-59045.35162989517,-55792.45755582542,-33833.16502966464,-31107.213331128758,-7439.3758105487605,-20847.02501857579,0.0,0.0,0.0,193.0,1.0,155.0,0.0,3.0,3.0,251.0,411.0,3.0,1019.0,1744252822.3823225,0.0,2025-04-09 22:40:22.382,FORWARD,31
87.0,12186.193428777866,1152.5453510934533,-59078.923950067045,-55855.28830948929,-33856.053215986874,-31130.86147676247,-7510.990799783564,-20867.678030452495,0.0,0.0,0.0,193.0,1.0,154.0,0.0,3.0,3.0,249.0,410.0,3.0,1017.0,1744252822.3823361,0.0,2025-04-09 22:40:22.382,FORWARD,31
88.0,12253.963917966357,1150.46663885911,-59065.579958627226,-55778.353605074124,-33897.292184506914,-31168.859442336496,-7348.292451893384,-20891.348527830665,0.0,0.0,0.0,193.0,1.0,154.0,0.0,3.0,3.0,250.0,410.0,3.0,1018.0,1744252822.3823447,0.0,2025-04-09 22:40:22.382,FORWARD,31
89.0,12315.118290796077,1172.684272847685,-59062.18249347002,-55847.1299227631,-33857.237858443004,-31114.947034710294,-7627.17516746225,-20856.680972180482,0.0,0.0,0.0,193.0,1.0,155.0,0.0,3.0,3.0,249.0,411.0,3.0,1017.0,1744252822.3823535,0.0,2025-04-09 22:40:22.382,FORWARD,31
90.0,12269.185455940422,1185.4471189316653,-59031.33708612169,-55783.96389293241,-33820.02220392492,-31087.409685541355,-7476.613816811302,-20827.10961426611,0.0,0.0,0.0,193.0,1.0,154.0,0.0,3.0,3.0,249.0,410.0,3.0,1017.0,1744252822.3823624,0.0,2025-04-09 22:40:22.382,FORWARD,31
91.0,12198.620998695016,1170.13617397978,-59074.25243547588,-55849.47685593091,-33843.87151525873,-31112.600101542488,-7494.316398419905,-20854.110521568124,0.0,0.0,0.0,193.0,1.0,155.0,0.0,3.0,3.0,252.0,411.0,3.0,1020.0,1744252822.3823714,0.0,2025-04-09 22:40:22.382,FORWARD,31
92.0,12240.642278270994,1157.842714529361,-59064.864702804654,-55782.71219524291,-33887.9491553246,-31154.219049718267,-7372.231170205018,-20885.55942601674,0.0,0.0,0.0,193.0,1.0,154.0,0.0,3.0,3.0,250.0,410.0,3.0,1018.0,1744252822.3823802,0.0,2025-04-09 22:40:22.382,FORWARD,31
93.0,12313.777186128758,1162.5365808649756,-59086.72470888194,-55854.37188796663,-33890.02786755894,-31146.440642647824,-7563.606806231357,-20900.42333607952,0.0,0.0,0.0,193.0,1.0,154.0,0.0,3.0,3.0,249.0,410.0,3.0,1017.0,1744252822.3823888,0.0,2025-04-09 22:40:22.382,FORWARD,31
94.0,12270.079525718633,1175.6794066046962,-59041.44007461549,-55804.41573910901,-33829.8346197408,-31098.697316491285,-7546.753590912055,-20851.852995378136,0.0,0.0,0.0,193.0,1.0,155.0,0.0,3.0,3.0,252.0,411.0,3.0,1020.0,1744252822.3823977,0.0,2025-04-09 22:40:22.382,FORWARD,31
95.0,12204.879487142503,1170.8737815468053,-59079.482743678425,-55851.95789956545,-33850.84525952879,-31113.337709109514,-7478.267845900995,-20850.288373266267,0.0,0.0,0.0,193.0,1.0,154.0,0.0,3.0,3.0,250.0,410.0,3.0,1018.0,1744252822.3824065,0.0,2025-04-09 22:40:22.382,FORWARD,31
96.0,12202.21962955232,1144.2305021560792,-59078.25339773338,-55813.0211607243,-33891.994821071006,-31152.27444795066,-7427.283516798439,-20881.13378061459,0.0,0.0,0.0,193.0,1.0,155.0,0.0,3.0,3.0,252.0,411.0,3.0,1020.0,1744252822.3824153,0.0,2025-04-09 22:40:22.382,FORWARD,31
97.0,12306.937552325435,1162.4248221426992,-59083.237836746914,-55835.35055343516,-33895.88402460623,-31149.055796749093,-7482.402918625226,-20888.778077218303,0.0,0.0,0.0,193.0,1.0,155.0,0.0,3.0,3.0,251.0,411.0,3.0,1019.0,1744252822.382424,0.0,2025-04-09 22:40:22.382,FORWARD,31
98.0,12277.165028710966,1174.5394676374756,-59032.007638455354,-55803.67813154199,-33822.41384058164,-31074.75859817965,-7590.965341444653,-20829.858878834115,0.0,0.0,0.0,193.0,1.0,154.0,0.0,3.0,3.0,249.0,410.0,3.0,1017.0,1744252822.3824327,0.0,2025-04-09 22:40:22.382,FORWARD,31
99.0,12226.203051352866,1188.397549199766,-59060.036726002305,-55818.832614282685,-33837.50126808897,-31092.61764199944,-7447.936528675143,-20843.471091207397,0.0,0.0,0.0,193.0,1.0,155.0,0.0,3.0,3.0,251.0,411.0,3.0,1019.0,1744252822.3824413,0.0,2025-04-09 22:40:22.382,FORWARD,31
100.0,12194.1282980595,1147.9185399912049,-59078.65572913358,-55823.5264806183,-33884.171710511655,-31141.992645501217,-7476.211485411106,-20891.21441736393,0.0,0.0,0.0,193.0,1.0,155.0,0.0,3.0,3.0,252.0,411.0,3.0,1020.0,1744252822.3824503,0.0,2025-04-09 22:40:22.382,FORWARD,31
101.0,12312.011398316788,1176.1934967271682,-59074.56535989825,-55803.29815188624,-33898.18625428513,-31145.948904269804,-7410.6091154347805,-20887.191103361976,0.0,0.0,0.0,193.0,1.0,155.0,0.0,3.0,3.0,251.0,411.0,3.0,1019.0,1744252822.3824592,0.0,2025-04-09 22:40:22.382,FORWARD,31
102.0,12295.96284579788,1193.940781824682,-59033.751074522865,-55813.177622935495,-33822.145619648174,-31068.455406243254,-7634.41713266577,-20824.472108420385,0.0,0.0,0.0,193.0,1.0,155.0,0.0,3.0,3.0,252.0,411.0,3.0,1020.0,1744252822.3824728,0.0,2025-04-09 22:40:22.382,FORWARD,31
103.0,12247.996002196789,1204.2225842741234,-59048.927909008016,-55803.05228269724,-33827.532390061904,-31086.448560529778,-7425.8530051533,-20836.944381826448,0.0,0.0,0.0,193.0,1.0,154.0,0.0,3.0,3.0,250.0,410.0,3.0,1018.0,1744252822.3824818,0.0,2025-04-09 22:40:22.382,FORWARD,31
104.0,12187.735699145282,1152.590054582364,-59081.717918123955,-55843.84421632817,-33872.19117548361,-31136.717633809763,-7497.691511832656,-20886.811123706237,0.0,0.0,0.0,193.0,1.0,155.0,0.0,3.0,3.0,252.0,411.0,3.0,1020.0,1744252822.3824906,0.0,2025-04-09 22:40:22.382,FORWARD,31
105.0,12296.879267320546,1167.722185578607,-59084.98127281443,-55804.303980386736,-33913.005460859,-31177.889547096438,-7374.22047546154,-20922.350397390175,0.0,0.0,0.0,193.0,1.0,154.0,0.0,3.0,3.0,252.0,410.0,3.0,1020.0,1744252822.3824992,0.0,2025-04-09 22:40:22.382,FORWARD,31
106.0,12297.326302209653,1177.7357670945844,-59061.82486555873,-55851.22029199843,-33847.22427692703,-31105.96163343926,-7672.191580795238,-20861.59835596065,0.0,0.0,0.0,193.0,1.0,154.0,0.0,3.0,3.0,250.0,410.0,3.0,1018.0,1744252822.382508,0.0,2025-04-09 22:40:22.382,FORWARD,31
107.0,12237.80360672517,1181.8708398188162,-59069.67032786254,-55821.29130617277,-33849.30298916137,-31119.864418490462,-7435.03957212443,-20862.358315272133,0.0,0.0,0.0,193.0,1.0,155.0,0.0,3.0,3.0,251.0,411.0,3.0,1019.0,1744252822.382517,0.0,2025-04-09 22:40:22.382,FORWARD,31
108.0,12172.491809426763,1146.8009527684394,-59100.8510113777,-55878.06473708925,-33880.1483965097,-31151.559192128087,-7530.503872693047,-20898.56814128973,0.0,0.0,0.0,193.0,1.0,155.0,0.0,3.0,3.0,252.0,411.0,3.0,1020.0,1744252822.382526,0.0,2025-04-09 22:40:22.382,FORWARD,31
109.0,12270.638319330015,1158.4015081407438,-59087.17174377105,-55806.42739610999,-33918.86161790629,-31193.64752693743,-7361.368222399738,-20940.924697032537,0.0,0.0,0.0,193.0,1.0,154.0,0.0,3.0,3.0,249.0,410.0,3.0,1017.0,1744252822.382535,0.0,2025-04-09 22:40:22.382,FORWARD,31
110.0,12310.022093060266,1178.13809849478,-59066.541083638804,-55862.12794329262,-33858.22133519904,-31116.10932542197,-7662.982662079652,-20877.378687546097,0.0,0.0,0.0,193.0,1.0,155.0,0.0,3.0,3.0,252.0,411.0,3.0,1020.0,1744252822.382544,0.0,2025-04-09 22:40:22.382,FORWARD,31
111.0,12252.622813299038,1179.4344996731877,-59050.98426949791,-55807.09794844365,-33839.758794278954,-31105.38048808342,-7450.730496732056,-20838.106672538124,0.0,0.0,0.0,193.0,1.0,155.0,0.0,3.0,3.0,251.0,411.0,3.0,1019.0,1744252822.38256,0.0,2025-04-09 22:40:22.382,FORWARD,31
112.0,12172.625919893495,1143.8728742447943,-59091.41857521756,-55877.707109177965,-33869.687780104614,-31136.181191942836,-7516.288163219472,-20868.817969419717,0.0,0.0,0.0,193.0,1.0,154.0,0.0,3.0,3.0,250.0,410.0,3.0,1018.0,1744252822.3825688,0.0,2025-04-09 22:40:22.382,FORWARD,31
113.0,12235.546080535183,1142.7999905109396,-59079.9968338009,-55804.929829231485,-33911.86552189178,-31186.02558207817,-7362.374050900227,-20915.153135675566,0.0,0.0,0.0,193.0,1.0,155.0,0.0,3.0,3.0,251.0,411.0,3.0,1019.0,1744252822.3825777,0.0,2025-04-09 22:40:22.382,FORWARD,31
114.0,12299.181496999443,1166.9845780115818,-59082.52258092435,-55871.94035910849,-33879.9472308096,-31141.523258867655,-7615.8204812789545,-20890.767382474827,0.0,0.0,0.0,193.0,1.0,155.0,0.0,2.0,3.0,251.0,411.0,2.0,1019.0,1744252822.3825865,0.0,2025-04-09 22:40:22.382,FORWARD,31
115.0,12257.629604057027,1176.4393659161767,-59048.97261249693,-55810.33895138967,-33838.12711693372,-31106.83335147302,-7495.9033722762315,-20851.56242270022,0.0,0.0,0.0,193.0,1.0,154.0,0.0,3.0,3.0,250.0,410.0,3.0,1018.0,1744252822.3825948,0.0,2025-04-09 22:40:22.382,FORWARD,31
116.0,12193.860077126035,1163.4306506431878,-59090.099822294695,-55873.95201610947,-33861.931724778624,-31129.408613372878,-7499.300837433439,-20873.89181541107,0.0,0.0,0.0,193.0,1.0,155.0,0.0,3.0,3.0,252.0,411.0,3.0,1020.0,1744252822.3826036,0.0,2025-04-09 22:40:22.382,FORWARD,31
117.0,12227.61121125355,1153.9982144830483,-59079.03570878932,-55810.450710111945,-33900.28731826393,-31167.339523713534,-7397.17571701714,-20899.46221106794,0.0,0.0,0.0,193.0,1.0,154.0,0.0,2.0,3.0,250.0,410.0,2.0,1018.0,1744252822.3826168,0.0,2025-04-09 22:40:22.382,FORWARD,31
118.0,12317.308761752696,1177.0652147609253,-59086.07650829274,-55857.81405661274,-33890.07257104785,-31151.87211655046,-7551.06747759193,-20902.077365169214,0.0,0.0,0.0,193.0,1.0,154.0,0.0,2.0,3.0,251.0,410.0,2.0,1019.0,1744252822.3826256,0.0,2025-04-09 22:40:22.382,FORWARD,31
119.0,12270.548912352195,1184.0836625198917,-59040.76952228183,-55812.23884966837,-33825.61014003875,-31100.68662174781,-7548.720544424123,-20852.478844222886,0.0,0.0,0.0,193.0,1.0,155.0,0.0,2.0,3.0,252.0,411.0,2.0,1020.0,1744252822.3826349,0.0,2025-04-09 22:40:22.382,FORWARD,31
120.0,12207.785213921692,1175.6570548602408,-59079.192171000504,-55859.803361869264,-33849.12417520573,-31131.35321514049,-7466.756697506511,-20878.56333000223,0.0,0.0,0.0,193.0,1.0,155.0,0.0,2.0,3.0,251.0,411.0,2.0,1019.0,1744252822.3826435,0.0,2025-04-09 22:40:22.382,FORWARD,31
121.0,12200.31973127362,1140.6765747876852,-59080.57797915673,-55830.43316965499,-33893.13476003823,-31172.346314471524,-7440.6051564938025,-20912.493278085385,0.0,0.0,0.0,193.0,1.0,154.0,0.0,2.0,3.0,249.0,410.0,2.0,1017.0,1744252822.382652,0.0,2025-04-09 22:40:22.382,FORWARD,31
122.0,12310.737348882836,1164.7270518215958,-59085.16008677007,-55845.18532099549,-33905.830550888844,-31177.889547096438,-7478.111383689808,-20929.52530736033,0.0,0.0,0.0,193.0,1.0,155.0,0.0,2.0,3.0,251.0,411.0,2.0,1019.0,1744252822.3826609,0.0,2025-04-09 22:40:22.382,FORWARD,31
123.0,12285.47987764834,1180.976770040604,-59031.96293496644,-55821.47012012841,-33823.2855586154,-31096.52919727912,-7610.590173076413,-20847.494405209352,0.0,0.0,0.0,193.0,1.0,154.0,0.0,2.0,3.0,249.0,410.0,2.0,1017.0,1744252822.3826697,0.0,2025-04-09 22:40:22.382,FORWARD,31
124.0,12228.885260687503,1187.1234997658134,-59054.78406605531,-55830.723742332906,-33828.49351507348,-31110.856665474974,-7430.524519744458,-20853.529376212286,0.0,0.0,0.0,193.0,1.0,154.0,0.0,2.0,3.0,251.0,410.0,2.0,1019.0,1744252822.3826783,0.0,2025-04-09 22:40:22.382,FORWARD,31
125.0,12185.232303766288,1148.075002202392,-59075.81705758775,-55839.50797790384,-33873.59933538429,-31151.112157238982,-7464.9685579500865,-20888.263987095834,0.0,0.0,0.0,193.0,1.0,155.0,0.0,2.0,3.0,253.0,411.0,2.0,1021.0,1744252822.3826869,0.0,2025-04-09 22:40:22.382,FORWARD,31
126.0,12303.048348790211,1170.6726158467075,-59079.72861286743,-55818.765559049316,-33903.9530043546,-31172.726294127264,-7391.31955996985,-20909.878123984116,0.0,0.0,0.0,193.0,1.0,154.0,0.0,2.0,3.0,250.0,410.0,2.0,1018.0,1744252822.3826957,0.0,2025-04-09 22:40:22.382,FORWARD,31
127.0,12285.47987764834,1177.4675461611207,-59044.8375397727,-55840.33499244869,-33832.74034651999,-31100.2395868587,-7639.982717035141,-20856.345696013654,0.0,0.0,0.0,193.0,1.0,154.0,0.0,2.0,3.0,249.0,410.0,2.0,1017.0,1744252822.382722,0.0,2025-04-09 22:40:22.382,FORWARD,31
128.0,12229.354647321064,1180.6638456182297,-59062.897749292584,-55829.047361498764,-33839.9376082346,-31118.858589989974,-7423.70723768559,-20867.007478118834,0.0,0.0,0.0,193.0,1.0,155.0,0.0,2.0,3.0,252.0,411.0,2.0,1020.0,1744252822.3827312,0.0,2025-04-09 22:40:22.382,FORWARD,31
129.0,12191.379033491497,1158.334452907378,-59072.352537197185,-55850.16976000903,-33860.970599767046,-31136.11413670947,-7502.497136890547,-20890.47680979691,0.0,0.0,0.0,193.0,1.0,154.0,0.0,2.0,3.0,249.0,410.0,2.0,1017.0,1744252822.38274,0.0,2025-04-09 22:40:22.382,FORWARD,31
130.0,12291.514848651273,1168.459793145632,-59075.012394787365,-55798.93956171746,-33908.33394626784,-31171.273430737667,-7348.694783293579,-20905.385423348598,0.0,0.0,0.0,193.0,1.0,154.0,0.0,2.0,3.0,252.0,410.0,2.0,1020.0,1744252822.3827488,0.0,2025-04-09 22:40:22.382,FORWARD,31
131.0,12302.847183090113,1181.6249706298079,-59053.06298173225,-55851.51086467635,-33840.11642219024,-31092.282365832612,-7659.696955644722,-20837.21260275991,0.0,0.0,0.0,193.0,1.0,155.0,0.0,2.0,3.0,250.0,411.0,2.0,1018.0,1744252822.382762,0.0,2025-04-09 22:40:22.382,FORWARD,31
132.0,12250.409990597964,1188.1293282663023,-59051.721877064934,-55808.30494264424,-33833.72382327602,-31102.832389215517,-7422.5896504628245,-20841.168861528502,0.0,0.0,0.0,193.0,1.0,154.0,0.0,2.0,3.0,249.0,410.0,2.0,1017.0,1744252822.3827708,0.0,2025-04-09 22:40:22.382,FORWARD,31
133.0,12174.414059449919,1152.3218336489003,-59090.83742986172,-55871.403917241565,-33872.81702432835,-31135.22006693126,-7516.310514963927,-20878.362164302132,0.0,0.0,0.0,193.0,1.0,154.0,0.0,2.0,3.0,252.0,410.0,2.0,1020.0,1744252822.3827796,0.0,2025-04-09 22:40:22.382,FORWARD,31
134.0,12263.463409359862,1161.5754558533974,-59079.3933367006,-55798.11254717262,-33913.34073702583,-31170.893451081927,-7348.337155382294,-20902.814972736236,0.0,0.0,0.0,193.0,1.0,155.0,0.0,2.0,3.0,250.0,411.0,2.0,1018.0,1744252822.3827882,0.0,2025-04-09 22:40:22.382,FORWARD,31
135.0,12313.86659310658,1185.2236014871123,-59064.17179872654,-55859.28927174679,-33854.17566945263,-31103.77116248264,-7636.920528044764,-20852.9705826009,0.0,0.0,0.0,193.0,1.0,154.0,0.0,2.0,3.0,250.0,410.0,2.0,1018.0,1744252822.3827968,0.0,2025-04-09 22:40:22.382,FORWARD,31
136.0,12261.00471746978,1189.7386538670844,-59047.96678399644,-55804.572201320196,-33833.27678838692,-31098.898482191384,-7445.679002485157,-20840.967695828404,0.0,0.0,0.0,193.0,1.0,154.0,0.0,2.0,3.0,251.0,410.0,2.0,1019.0,1744252822.3828056,0.0,2025-04-09 22:40:22.382,FORWARD,31
137.0,12196.162306804932,1170.5832088688862,-59079.86272333416,-55864.31841424923,-33854.33213166382,-31115.50582832168,-7505.96165728112,-20858.80438790374,0.0,0.0,0.0,193.0,1.0,155.0,0.0,2.0,3.0,252.0,411.0,2.0,1020.0,1744252822.3828144,0.0,2025-04-09 22:40:22.382,FORWARD,31
138.0,12239.681153259417,1149.7066795476294,-59082.5449326688,-55805.51097458732,-33913.452495748104,-31178.64950640792,-7370.621844604236,-20914.728452530915,0.0,0.0,0.0,193.0,1.0,154.0,0.0,2.0,3.0,250.0,410.0,2.0,1018.0,1744252822.3828228,0.0,2025-04-09 22:40:22.382,FORWARD,31
139.0,12307.786918614736,1168.526848378998,-59089.406918216584,-55869.70518466296,-33889.22320475855,-31145.032482747138,-7609.182013175728,-20890.096830141167,0.0,0.0,0.0,193.0,1.0,154.0,0.0,2.0,3.0,250.0,410.0,2.0,1018.0,1744252822.3828316,0.0,2025-04-09 22:40:22.382,FORWARD,31
140.0,12263.396354126497,1180.3285694514,-59045.686906062,-55803.49931758634,-33835.04257619889,-31101.424229314835,-7507.302761948438,-20832.116405024102,0.0,0.0,0.0,193.0,1.0,155.0,0.0,2.0,3.0,252.0,411.0,2.0,1020.0,1744252822.3828404,0.0,2025-04-09 22:40:22.382,FORWARD,31
141.0,12197.816335894626,1173.1983629701572,-59084.869514092155,-55860.183341525,-33856.634361342716,-31125.631168559932,-7494.1375844642625,-20858.402056503543,0.0,0.0,0.0,193.0,1.0,155.0,0.0,2.0,3.0,252.0,411.0,2.0,1020.0,1744252822.382849,0.0,2025-04-09 22:40:22.382,FORWARD,31
142.0,12221.822109439625,1159.9884819970707,-59077.31462446626,-55802.22526815239,-33897.69451590711,-31165.752549857207,-7409.692693912112,-20882.631347493094,0.0,0.0,0.0,193.0,1.0,154.0,0.0,2.0,3.0,249.0,410.0,2.0,1017.0,1744252822.3828576,0.0,2025-04-09 22:40:22.382,FORWARD,31
143.0,12326.227107790364,1188.3304939664,-59079.616854145155,-55832.28836444478,-33885.8480913458,-31148.049968248604,-7525.742951124067,-20880.686745725485,0.0,0.0,0.0,193.0,1.0,154.0,0.0,2.0,3.0,249.0,410.0,2.0,1017.0,1744252822.3828664,0.0,2025-04-09 22:40:22.382,FORWARD,31
144.0,12289.927874794947,1198.5675929269307,-59031.62765879961,-55783.13687838756,-33819.61987252472,-31084.995697140184,-7565.640814976789,-20827.802518344226,0.0,0.0,0.0,193.0,1.0,155.0,0.0,2.0,3.0,252.0,411.0,2.0,1020.0,1744252822.3828747,0.0,2025-04-09 22:40:22.382,FORWARD,31
145.0,12224.727836218815,1188.755177111051,-59073.85010407569,-55820.33018116119,-33848.34186414979,-31103.212368871256,-7467.203732395617,-20827.31077996621,0.0,0.0,0.0,193.0,1.0,155.0,0.0,2.0,3.0,251.0,411.0,2.0,1019.0,1744252822.3828835,0.0,2025-04-09 22:40:22.382,FORWARD,31
146.0,12213.864888413536,1159.9661302526154,-59074.02891803133,-55793.95512270393,-33881.8471290883,-31145.837145547528,-7453.524464788969,-20863.45355075044,0.0,0.0,0.0,193.0,1.0,155.0,0.0,2.0,3.0,250.0,411.0,2.0,1018.0,1744252822.382897,0.0,2025-04-09 22:40:22.382,FORWARD,31
147.0,12315.498270451817,1176.4617176606318,-59083.90838908058,-55799.833631495676,-33899.259138018984,-31157.370645686467,-7444.941394918132,-20871.299013054253,0.0,0.0,0.0,193.0,1.0,155.0,0.0,2.0,3.0,252.0,411.0,2.0,1020.0,1744252822.3829055,0.0,2025-04-09 22:40:22.382,FORWARD,31
148.0,12293.213581229877,1191.0574067899474,-59034.39927511207,-55781.8181254647,-33816.73649748999,-31077.351400536467,-7613.026513222041,-20799.013471485792,0.0,0.0,0.0,193.0,1.0,154.0,0.0,2.0,3.0,250.0,410.0,2.0,1018.0,1744252822.3829143,0.0,2025-04-09 22:40:22.382,FORWARD,31
149.0,12244.151502150477,1201.0486365614697,-59052.66065033206,-55781.08051789767,-33823.352613848765,-31094.71870597824,-7422.23202255154,-20811.64220710304,0.0,0.0,0.0,193.0,1.0,155.0,0.0,2.0,3.0,252.0,411.0,2.0,1020.0,1744252822.3829234,0.0,2025-04-09 22:40:22.382,FORWARD,31
150.0,12203.203106308354,1166.2469704445566,-59070.29617670729,-55794.2680471263,-33862.64698060119,-31136.516468109665,-7473.1269446762735,-20853.059989578724,0.0,0.0,0.0,193.0,1.0,155.0,0.0,2.0,3.0,250.0,411.0,2.0,1018.0,1744252822.382932,0.0,2025-04-09 22:40:22.382,FORWARD,31
151.0,12325.847128134625,1195.4830521920983,-59063.680060348524,-55753.16318907299,-33887.68093439114,-31155.336636941036,-7375.226303962029,-20873.444780521964,0.0,0.0,0.0,193.0,1.0,154.0,0.0,2.0,3.0,250.0,410.0,2.0,1018.0,1744252822.3829408,0.0,2025-04-09 22:40:22.382,FORWARD,31
152.0,12313.888944851034,1205.1166540523357,-59035.47215884592,-55781.34873883113,-33820.11161090274,-31080.413589526845,-7640.362696690881,-20805.40607040001,0.0,0.0,0.0,193.0,1.0,155.0,0.0,2.0,3.0,251.0,411.0,2.0,1019.0,1744252822.3829494,0.0,2025-04-09 22:40:22.382,FORWARD,31
153.0,12256.199092411887,1212.2468605335785,-59054.515845121845,-55764.9649101454,-33828.9852534515,-31104.35230783848,-7419.080426583341,-20826.05908227671,0.0,0.0,0.0,193.0,1.0,155.0,0.0,2.0,3.0,252.0,411.0,2.0,1020.0,1744252822.382958,0.0,2025-04-09 22:40:22.382,FORWARD,31
154.0,12196.98932134978,1175.2100199711347,-59082.902560580085,-55805.93565773197,-33861.149413722684,-31139.601008844496,-7507.191003226162,-20867.342754285666,0.0,0.0,0.0,193.0,1.0,154.0,0.0,2.0,3.0,248.0,410.0,2.0,1016.0,1744252822.3829668,0.0,2025-04-09 22:40:22.382,FORWARD,31
155.0,12298.488592921329,1183.3237032084112,-59078.298101222295,-55744.17778780196,-33903.05893457639,-31171.184023759848,-7343.822103002322,-20879.256234080345,0.0,0.0,0.0,193.0,1.0,155.0,0.0,2.0,3.0,251.0,411.0,2.0,1019.0,1744252822.3829756,0.0,2025-04-09 22:40:22.382,FORWARD,31
156.0,12320.460357720895,1196.6676946482296,-59055.499321877876,-55794.17864014848,-33835.69077678809,-31088.39316229739,-7651.024478796063,-20812.69273909244,0.0,0.0,0.0,193.0,1.0,155.0,0.0,2.0,3.0,252.0,411.0,2.0,1020.0,1744252822.3829842,0.0,2025-04-09 22:40:22.382,FORWARD,31
157.0,12274.505171120783,1209.6987616656736,-59043.80935952775,-55741.27206102277,-33819.86574171374,-31083.81105468405,-7420.645048695213,-20800.756907553307,0.0,0.0,0.0,193.0,1.0,154.0,0.0,2.0,3.0,249.0,410.0,2.0,1017.0,1744252822.382993,0.0,2025-04-09 22:40:22.382,FORWARD,31
158.0,12210.266257556232,1184.9553805536486,-59071.27965346332,-55797.933733216974,-33843.469183858535,-31110.990775941704,-7502.4747851460925,-20834.731559125372,0.0,0.0,0.0,193.0,1.0,155.0,0.0,2.0,3.0,251.0,411.0,2.0,1019.0,1744252822.3830016,0.0,2025-04-09 22:40:22.383,FORWARD,31
159.0,12286.977444526845,1187.0564445324476,-59061.95897602546,-55727.324572482656,-33889.17850126964,-31162.39978818891,-7330.053428417854,-20880.820856192215,0.0,0.0,0.0,193.0,1.0,155.0,0.0,2.0,3.0,250.0,411.0,2.0,1018.0,1744252822.3830104,0.0,2025-04-09 22:40:22.383,FORWARD,31
160.0,12339.682857952459,1209.4081889877546,-59054.58290035521,-55795.922076216,-33841.70339604657,-31108.710898007263,-7619.687333069723,-20852.769416900806,0.0,0.0,0.0,193.0,1.0,154.0,0.0,2.0,3.0,249.0,410.0,2.0,1017.0,1744252822.3830192,0.0,2025-04-09 22:40:22.383,FORWARD,31
161.0,12288.787935827726,1218.6394594477963,-59032.05234194426,-55738.07576156566,-33813.51784628843,-31087.834368686006,-7455.536121789947,-20820.78407058526,0.0,0.0,0.0,193.0,1.0,155.0,0.0,2.0,3.0,250.0,411.0,2.0,1018.0,1744252822.3830335,0.0,2025-04-09 22:40:22.383,FORWARD,31
162.0,12207.807565666148,1187.3917206992771,-59082.008490801876,-55813.19997467995,-33847.738367049504,-31115.48347657722,-7498.33971242186,-20835.826794603683,0.0,0.0,0.0,193.0,1.0,155.0,0.0,2.0,3.0,252.0,411.0,2.0,1020.0,1744252822.3830423,0.0,2025-04-09 22:40:22.383,FORWARD,31
163.0,12252.443999343395,1177.8922293057715,-59072.01726103035,-55746.971755858875,-33887.457416946585,-31161.97510504426,-7371.962949271554,-20881.402001548053,0.0,0.0,0.0,193.0,1.0,155.0,0.0,2.0,3.0,250.0,411.0,2.0,1018.0,1744252822.3830512,0.0,2025-04-09 22:40:22.383,FORWARD,31
164.0,12335.860709650602,1199.7969388719725,-59074.67711862053,-55802.62759955259,-33864.658637602166,-31126.480534849234,-7575.989672659597,-20865.845187407158,0.0,0.0,0.0,193.0,1.0,155.0,0.0,2.0,3.0,252.0,411.0,2.0,1020.0,1744252822.3830597,0.0,2025-04-09 22:40:22.383,FORWARD,31
165.0,12278.640243845015,1197.360598726344,-59045.12811245062,-55758.39349727554,-33821.4303638256,-31094.137560622403,-7514.5670788964135,-20819.778242084773,0.0,0.0,0.0,193.0,1.0,155.0,0.0,2.0,3.0,249.0,411.0,2.0,1017.0,1744252822.3830683,0.0,2025-04-09 22:40:22.383,FORWARD,31
166.0,12212.523783746217,1185.9388573096821,-59089.831601361235,-55818.43028288249,-33849.23593392801,-31123.06071794757,-7476.14443017774,-20847.203832531435,0.0,0.0,0.0,193.0,1.0,154.0,0.0,2.0,3.0,249.0,410.0,2.0,1017.0,1744252822.3830771,0.0,2025-04-09 22:40:22.383,FORWARD,31
167.0,12221.017446639235,1155.875761017294,-59090.390394972615,-55777.459535295915,-33894.09588504981,-31161.840994577527,-7414.341856758816,-20877.579853246196,0.0,0.0,0.0,193.0,1.0,155.0,0.0,2.0,3.0,253.0,411.0,2.0,1021.0,1744252822.383086,0.0,2025-04-09 22:40:22.383,FORWARD,31
168.0,12331.859747393102,1188.7998805999614,-59087.68583389352,-55802.22526815239,-33882.361219210776,-31148.653465348896,-7498.004436255031,-20880.530283514297,0.0,0.0,0.0,193.0,1.0,155.0,0.0,2.0,3.0,250.0,411.0,2.0,1018.0,1744252822.3830945,0.0,2025-04-09 22:40:22.383,FORWARD,31
169.0,12298.354482454597,1205.4072267302545,-59034.98042046791,-55765.09902061213,-33806.96878516302,-31081.285307560604,-7566.132553354807,-20811.239875702846,0.0,0.0,0.0,193.0,1.0,154.0,0.0,2.0,3.0,249.0,410.0,2.0,1017.0,1744252822.3831036,0.0,2025-04-09 22:40:22.383,FORWARD,31
170.0,12238.720028247837,1207.0612558199473,-59065.781124327325,-55793.0163494368,-33821.13979114769,-31098.049115902082,-7436.6712494696685,-20817.87834380607,0.0,0.0,0.0,193.0,1.0,155.0,0.0,2.0,3.0,251.0,411.0,2.0,1019.0,1744252822.3831122,0.0,2025-04-09 22:40:22.383,FORWARD,31
171.0,12216.412987281441,1174.271246704012,-59073.40306918658,-55781.013462664305,-33860.188288711106,-31137.343482654513,-7441.610984994291,-20853.41761749001,0.0,0.0,0.0,193.0,1.0,154.0,0.0,2.0,3.0,249.0,410.0,2.0,1017.0,1744252822.3831208,0.0,2025-04-09 22:40:22.383,FORWARD,31
172.0,12323.969581600379,1195.0583690474475,-59081.96378731296,-55780.34291033065,-33882.42827444414,-31152.408558417388,-7410.743225901512,-20869.64498396456,0.0,0.0,0.0,193.0,1.0,154.0,0.0,2.0,3.0,251.0,410.0,2.0,1019.0,1744252822.3831298,0.0,2025-04-09 22:40:22.383,FORWARD,31
173.0,12296.275770220253,1196.3771219703106,-59047.07271421823,-55786.690805755956,-33813.428439310606,-31083.565185495045,-7613.071216710951,-20814.97261702688,0.0,0.0,0.0,193.0,1.0,155.0,0.0,2.0,3.0,252.0,411.0,2.0,1020.0,1744252822.383139,0.0,2025-04-09 22:40:22.383,FORWARD,31
174.0,12232.796815967182,1188.7104736221402,-59079.7956681008,-55796.63733203857,-33838.17182042263,-31117.472781833745,-7433.474950012559,-20847.717922653905,0.0,0.0,0.0,193.0,1.0,154.0,0.0,2.0,3.0,249.0,410.0,2.0,1017.0,1744252822.7263255,0.0,2025-04-09 22:40:22.726,FORWARD,31
175.0,12187.020443322712,1155.1828569391796,-59096.29125550881,-55814.42932062499,-33873.666390617655,-31149.905163038395,-7507.101596248341,-20884.21832134942,0.0,0.0,0.0,193.0,1.0,155.0,0.0,2.0,3.0,249.0,411.0,2.0,1017.0,1744252822.7263727,0.0,2025-04-09 22:40:22.726,FORWARD,31
176.0,12309.038616304233,1184.195421242168,-59085.24949374789,-55762.10388685512,-33896.06283856188,-31164.679666123353,-7369.07957423682,-20885.022984149815,0.0,0.0,0.0,193.0,1.0,155.0,0.0,2.0,3.0,249.0,411.0,2.0,1017.0,1744252822.7264292,0.0,2025-04-09 22:40:22.726,FORWARD,31
177.0,12304.85884009109,1193.784319613495,-59058.092124234696,-55802.02410245229,-33827.77825925091,-31092.327069321524,-7648.074048527962,-20829.300085222734,0.0,0.0,0.0,193.0,1.0,154.0,0.0,2.0,3.0,250.0,410.0,2.0,1018.0,1744252822.7264407,0.0,2025-04-09 22:40:22.726,FORWARD,31
178.0,12253.47217958834,1204.4461017186763,-59061.19901671398,-55768.67529972498,-33826.146581905676,-31096.35038332348,-7415.101816070297,-20812.87155304808,0.0,0.0,0.0,193.0,1.0,155.0,0.0,2.0,3.0,252.0,411.0,2.0,1020.0,1744252822.7264507,0.0,2025-04-09 22:40:22.726,FORWARD,31
179.0,12185.634635166483,1163.5424093654644,-59091.284464750825,-55820.24077418337,-33861.372931167236,-31132.940188996818,-7514.0976922628515,-20850.400131988543,0.0,0.0,0.0,193.0,1.0,154.0,0.0,2.0,3.0,251.0,410.0,2.0,1019.0,1744252822.7264605,0.0,2025-04-09 22:40:22.726,FORWARD,31
180.0,12281.52361887975,1170.7620228245287,-59085.94239782601,-55756.471247252375,-33903.48361772104,-31172.681590638353,-7350.21470191654,-20878.13864685758,0.0,0.0,0.0,193.0,1.0,154.0,0.0,2.0,3.0,249.0,410.0,2.0,1017.0,1744252822.72647,0.0,2025-04-09 22:40:22.726,FORWARD,31
181.0,12316.906430352501,1193.6949126356737,-59059.09795273518,-55807.27676239929,-33833.343843620285,-31093.981098411215,-7648.744600861622,-20822.54985839723,0.0,0.0,0.0,193.0,1.0,155.0,0.0,2.0,3.0,251.0,411.0,2.0,1019.0,1744252822.726479,0.0,2025-04-09 22:40:22.726,FORWARD,31
182.0,12266.659708816971,1205.1390057967908,-59043.272917660826,-55752.492636739335,-33816.557683534345,-31092.371772810435,-7419.907441128188,-20817.65482636152,0.0,0.0,0.0,193.0,1.0,155.0,0.0,2.0,3.0,250.0,411.0,2.0,1018.0,1744252822.7264884,0.0,2025-04-09 22:40:22.726,FORWARD,31
183.0,12191.624902680505,1176.7969938274616,-59081.561455912764,-55817.04447472626,-33845.16791643714,-31121.16081966887,-7484.52633434848,-20848.03084707628,0.0,0.0,0.0,193.0,1.0,154.0,0.0,2.0,3.0,250.0,410.0,2.0,1018.0,1744252822.7264972,0.0,2025-04-09 22:40:22.726,FORWARD,31
184.0,12263.619871571049,1173.0866042478806,-59074.61006338717,-55747.731715170354,-33892.73242863803,-31166.378398701956,-7324.197271370563,-20880.150303858558,0.0,0.0,0.0,193.0,1.0,155.0,0.0,2.0,3.0,252.0,411.0,2.0,1020.0,1744252822.726506,0.0,2025-04-09 22:40:22.726,FORWARD,31
185.0,12327.098825824121,1194.2090027581457,-59066.58578712771,-55810.78598627877,-33845.59259958179,-31112.39893584239,-7587.322007098438,-20843.716960396407,0.0,0.0,0.0,193.0,1.0,154.0,0.0,2.0,3.0,249.0,410.0,2.0,1017.0,1744252822.7265155,0.0,2025-04-09 22:40:22.726,FORWARD,31
186.0,12276.673290332948,1202.9261830957155,-59036.18741466849,-55751.106828583106,-33809.8298084533,-31087.834368686006,-7436.783008191945,-20806.322491922678,0.0,0.0,0.0,193.0,1.0,155.0,0.0,2.0,3.0,251.0,411.0,2.0,1019.0,1744252822.7265244,0.0,2025-04-09 22:40:22.726,FORWARD,31
187.0,12204.253638297754,1180.0603485179363,-59080.91325532356,-55822.274782928806,-33838.90942798965,-31115.72934576623,-7461.57109279288,-20833.345750969143,0.0,0.0,0.0,193.0,1.0,155.0,0.0,2.0,3.0,251.0,411.0,2.0,1019.0,1744252822.7265332,0.0,2025-04-09 22:40:22.726,FORWARD,31
188.0,12238.697676503381,1163.654168087741,-59069.08918250671,-55756.493598996836,-33880.528376165435,-31155.53780264113,-7345.654946047658,-20870.248481064857,0.0,0.0,0.0,193.0,1.0,155.0,0.0,2.0,3.0,250.0,411.0,2.0,1018.0,1744252822.726542,0.0,2025-04-09 22:40:22.726,FORWARD,31
189.0,12315.274753007265,1171.3208164359114,-59086.680005393035,-55823.41472189602,-33880.461320932074,-31144.227819946747,-7535.577718684402,-20878.853902680148,0.0,0.0,0.0,193.0,1.0,154.0,0.0,2.0,3.0,249.0,410.0,2.0,1017.0,1744252822.7265508,0.0,2025-04-09 22:40:22.726,FORWARD,31
190.0,12275.801572299191,1184.1507177532576,-59037.70733329146,-55767.378898546565,-33819.66457601364,-31093.15408386637,-7515.259982974528,-20823.756852597817,0.0,0.0,0.0,193.0,1.0,155.0,0.0,2.0,3.0,252.0,411.0,2.0,1020.0,1744252822.7265596,0.0,2025-04-09 22:40:22.726,FORWARD,31
191.0,12215.630676225504,1181.8037845854503,-59074.92298780954,-55815.703370058945,-33845.145564692684,-31120.57967431303,-7462.889845715743,-20857.418579747507,0.0,0.0,0.0,193.0,1.0,155.0,0.0,2.0,3.0,251.0,411.0,2.0,1019.0,1744252822.7265737,0.0,2025-04-09 22:40:22.726,FORWARD,31
192.0,12216.971780892824,1156.9709964956041,-59075.23591223192,-55781.08051789767,-33887.9491553246,-31161.72923585525,-7417.918135871665,-20887.593434762173,0.0,0.0,0.0,193.0,1.0,154.0,0.0,2.0,3.0,250.0,410.0,2.0,1018.0,1744252822.7265823,0.0,2025-04-09 22:40:22.726,FORWARD,31
193.0,12321.488537965839,1182.0496537744586,-59087.88699959362,-55811.61300082362,-33895.43698971713,-31164.344389956525,-7465.057964927908,-20892.935501686992,0.0,0.0,0.0,193.0,1.0,155.0,0.0,2.0,3.0,251.0,411.0,2.0,1019.0,1744252822.726591,0.0,2025-04-09 22:40:22.726,FORWARD,31
194.0,12284.09406949211,1184.9330288091933,-59049.86668227514,-55794.312750615216,-33831.64511104168,-31105.604005527977,-7570.491143523592,-20839.69364639445,0.0,0.0,0.0,193.0,1.0,154.0,0.0,2.0,3.0,250.0,410.0,2.0,1018.0,1744252822.7266,0.0,2025-04-09 22:40:22.726,FORWARD,31
195.0,12224.504318774263,1183.2789997195007,-59076.26409247686,-55813.244678168856,-33846.352558893275,-31118.188037656313,-7433.787874434934,-20851.22714653339,0.0,0.0,0.0,193.0,1.0,154.0,0.0,2.0,3.0,249.0,410.0,2.0,1017.0,1744252822.7266092,0.0,2025-04-09 22:40:22.726,FORWARD,31
196.0,12205.997074365268,1158.3568046518333,-59067.70337435048,-55791.56348604721,-33872.43704467262,-31134.39305238641,-7463.113363160296,-20869.756742686837,0.0,0.0,0.0,193.0,1.0,155.0,0.0,2.0,3.0,251.0,411.0,2.0,1019.0,1744252822.726618,0.0,2025-04-09 22:40:22.726,FORWARD,31
197.0,12310.96086632739,1172.8854385477828,-59069.73738309591,-55779.42648880798,-33892.88889084922,-31156.811852075083,-7395.544039671903,-20886.498199283862,0.0,0.0,0.0,193.0,1.0,154.0,0.0,2.0,3.0,251.0,410.0,2.0,1019.0,1744252822.726627,0.0,2025-04-09 22:40:22.726,FORWARD,31
198.0,12289.994930028312,1178.6968921061627,-59035.96389722394,-55795.74326226035,-33822.34678534827,-31083.498130261676,-7612.132443443828,-20822.147526997036,0.0,0.0,0.0,193.0,1.0,155.0,0.0,2.0,3.0,251.0,411.0,2.0,1019.0,1744252822.7266357,0.0,2025-04-09 22:40:22.726,FORWARD,31
199.0,12234.741417734793,1189.3586742113441,-59054.44878988848,-55786.44493656694,-33831.399241852676,-31098.563206024555,-7406.898725855199,-20832.295218979743,0.0,0.0,0.0,193.0,1.0,155.0,0.0,2.0,3.0,252.0,411.0,2.0,1020.0,1744252822.7266445,0.0,2025-04-09 22:40:22.726,FORWARD,31
200.0,12181.499562442252,1149.9078452477272,-59074.61006338717,-55816.3739223926,-33862.244649201,-31135.44358437581,-7479.854819757322,-20871.74604794336,0.0,0.0,0.0,193.0,1.0,154.0,0.0,2.0,3.0,251.0,410.0,2.0,1019.0,1744252822.726653,0.0,2025-04-09 22:40:22.726,FORWARD,31
201.0,12296.454584175895,1166.6716535892074,-59062.294252192296,-55760.22634032087,-33889.24555650301,-31157.571811386566,-7331.9533266965545,-20882.430181793,0.0,0.0,0.0,193.0,1.0,155.0,0.0,2.0,3.0,253.0,411.0,2.0,1021.0,1744252822.726662,0.0,2025-04-09 22:40:22.726,FORWARD,31
202.0,12301.640188889527,1177.5793048833973,-59037.23794665789,-55805.01923620931,-33822.011509181444,-31083.118150605937,-7637.345211189415,-20830.79765210124,0.0,0.0,0.0,193.0,1.0,154.0,0.0,2.0,3.0,249.0,410.0,2.0,1017.0,1744252822.7266707,0.0,2025-04-09 22:40:22.726,FORWARD,31
203.0,12241.156368393466,1178.4733746616096,-59044.77048453933,-55775.17965736147,-33823.26320687094,-31103.815865971552,-7405.267048509962,-20842.353503984632,0.0,0.0,0.0,193.0,1.0,155.0,0.0,2.0,3.0,252.0,411.0,2.0,1020.0,1744252822.7266796,0.0,2025-04-09 22:40:22.726,FORWARD,31
204.0,12170.144876258955,1142.7999905109396,-59083.461354191466,-55835.37290517961,-33859.80830905537,-31142.372625156957,-7500.798404311944,-20879.636213736085,0.0,0.0,0.0,193.0,1.0,155.0,0.0,2.0,3.0,252.0,411.0,2.0,1020.0,1744252822.7266884,0.0,2025-04-09 22:40:22.726,FORWARD,31
205.0,12265.743287294305,1154.3111389054227,-59070.944377296495,-55761.83566592165,-33900.28731826393,-31178.78361687465,-7327.773550483412,-20902.94908320297,0.0,0.0,0.0,193.0,1.0,154.0,0.0,2.0,3.0,249.0,410.0,2.0,1017.0,1744252822.7266972,0.0,2025-04-09 22:40:22.726,FORWARD,31
206.0,12301.751947611803,1172.0360722584812,-59060.88609229161,-55826.18633820848,-33851.62757058472,-31113.471819576243,-7643.111961258885,-20853.864652379114,0.0,0.0,0.0,193.0,1.0,154.0,0.0,2.0,3.0,249.0,410.0,2.0,1017.0,1744252822.7267647,0.0,2025-04-09 22:40:22.726,FORWARD,31
207.0,12263.03872621521,1195.9524388256598,-59029.43718784299,-55755.443067007436,-33817.541160290384,-31095.76923796764,-7436.5594907473915,-20832.004646301826,0.0,0.0,0.0,193.0,1.0,154.0,0.0,2.0,3.0,251.0,410.0,2.0,1019.0,1744252822.7267737,0.0,2025-04-09 22:40:22.726,FORWARD,31
208.0,12197.816335894626,1170.4267466576991,-59067.949243539486,-55820.53134686129,-33850.688797317605,-31124.200656914792,-7505.805195069933,-20864.437027506476,0.0,0.0,0.0,193.0,1.0,155.0,0.0,2.0,3.0,249.0,411.0,2.0,1017.0,1744252822.7267826,0.0,2025-04-09 22:40:22.726,FORWARD,31
209.0,12264.424534371441,1172.6619211032298,-59053.35355441017,-55743.77545640177,-33890.85488210379,-31162.064512022083,-7352.472228106526,-20881.80433294825,0.0,0.0,0.0,193.0,1.0,155.0,0.0,2.0,3.0,252.0,411.0,2.0,1020.0,1744252822.7267916,0.0,2025-04-09 22:40:22.726,FORWARD,31
210.0,12324.193099044931,1189.4927846780759,-59055.94635676699,-55811.3224281457,-33853.8403932858,-31120.423212101843,-7577.777812216022,-20853.015286089812,0.0,0.0,0.0,193.0,1.0,154.0,0.0,2.0,3.0,250.0,410.0,2.0,1018.0,1744252822.7268004,0.0,2025-04-09 22:40:22.726,FORWARD,31
211.0,12267.978461739835,1189.3139707224334,-59030.822995999224,-55756.18067457446,-33821.49741905897,-31093.10938037746,-7471.584674308858,-20826.528468910274,0.0,0.0,0.0,193.0,1.0,154.0,0.0,2.0,3.0,249.0,410.0,2.0,1017.0,1744252822.726809,0.0,2025-04-09 22:40:22.726,FORWARD,31
212.0,12193.971835848313,1173.4218804147101,-59077.694604122,-55824.44290214097,-33850.17470719513,-31122.367813869456,-7484.124002948285,-20865.621669962606,0.0,0.0,0.0,193.0,1.0,155.0,0.0,2.0,3.0,252.0,411.0,2.0,1020.0,1744252822.726824,0.0,2025-04-09 22:40:22.726,FORWARD,31
213.0,12218.312885560143,1151.9642057376154,-59070.96672904095,-55766.30601481271,-33892.978297827045,-31159.359950942988,-7381.976530787531,-20879.792675947272,0.0,0.0,0.0,193.0,1.0,154.0,0.0,2.0,3.0,249.0,410.0,2.0,1017.0,1744252822.726833,0.0,2025-04-09 22:40:22.726,FORWARD,31
214.0,12311.854936105603,1169.4656216461208,-59074.92298780954,-55812.70823630193,-33877.82381508635,-31141.657369334385,-7523.172500511707,-20872.014268876825,0.0,0.0,0.0,193.0,1.0,154.0,0.0,2.0,3.0,249.0,410.0,2.0,1017.0,1744252822.7268417,0.0,2025-04-09 22:40:22.726,FORWARD,31
215.0,12263.888092504512,1172.684272847685,-59034.600440812166,-55772.16217186001,-33822.570302792825,-31095.433961800813,-7532.53788143848,-20834.709207380918,0.0,0.0,0.0,193.0,1.0,154.0,0.0,2.0,3.0,252.0,410.0,2.0,1020.0,1744252822.7268505,0.0,2025-04-09 22:40:22.726,FORWARD,31
216.0,12200.31973127362,1169.8008978129503,-59073.671290120044,-55816.79860553725,-33845.59259958179,-31122.367813869456,-7450.484627543048,-20869.04148686427,0.0,0.0,0.0,193.0,1.0,154.0,0.0,2.0,3.0,250.0,410.0,2.0,1018.0,1744252822.7268596,0.0,2025-04-09 22:40:22.726,FORWARD,31
217.0,12194.687091670883,1137.7037927751294,-59075.906464565574,-55790.62471278009,-33888.44089370262,-31167.853613836007,-7430.926851144654,-20911.263932140344,0.0,0.0,0.0,193.0,1.0,154.0,0.0,2.0,3.0,250.0,410.0,2.0,1018.0,1744252822.7268684,0.0,2025-04-09 22:40:22.726,FORWARD,31
218.0,12301.886058078535,1158.4462116296545,-59082.902560580085,-55805.39921586504,-33899.23678627453,-31169.97702955926,-7458.061868913397,-20915.24254265339,0.0,0.0,0.0,193.0,1.0,155.0,0.0,2.0,3.0,252.0,411.0,2.0,1020.0,1744252822.7268772,0.0,2025-04-09 22:40:22.726,FORWARD,31
219.0,12277.030918244234,1177.8251740724056,-59031.56060356624,-55778.487715540854,-33818.658747513145,-31077.887842403394,-7595.145117657795,-20819.21944847339,0.0,0.0,0.0,193.0,1.0,155.0,0.0,2.0,3.0,249.0,411.0,2.0,1017.0,1744252822.7268865,0.0,2025-04-09 22:40:22.726,FORWARD,31
220.0,12218.201126837866,1173.5336391369867,-59066.36226968316,-55799.16307916201,-33839.02118671193,-31109.91789220785,-7428.8034354214,-20851.36125700012,0.0,0.0,0.0,193.0,1.0,154.0,0.0,2.0,3.0,249.0,410.0,2.0,1017.0,1744252822.7268949,0.0,2025-04-09 22:40:22.726,FORWARD,31
221.0,12176.805696106638,1131.7135252611072,-59087.663482149066,-55814.11639620262,-33883.97054481156,-31157.236535219734,-7477.507886589514,-20906.793583249284,0.0,0.0,0.0,193.0,1.0,154.0,0.0,2.0,3.0,252.0,410.0,2.0,1020.0,1744252822.7269094,0.0,2025-04-09 22:40:22.726,FORWARD,31
222.0,12291.850124818102,1155.5851883393752,-59087.03763330432,-55789.77534649079,-33907.57398695636,-31175.900241839918,-7396.102833283286,-20916.158964176055,0.0,0.0,0.0,193.0,1.0,155.0,0.0,2.0,3.0,252.0,411.0,2.0,1020.0,1744252822.7269182,0.0,2025-04-09 22:40:22.726,FORWARD,31
223.0,12276.896807777503,1165.911694277727,-59049.889034019594,-55809.31077114472,-33832.31566337534,-31096.126865878927,-7643.983679292641,-20855.2728122798,0.0,0.0,0.0,193.0,1.0,154.0,0.0,2.0,3.0,250.0,410.0,2.0,1018.0,1744252822.7269273,0.0,2025-04-09 22:40:22.726,FORWARD,31
224.0,12227.70061823137,1175.724110093607,-59060.57316786923,-55790.84823022464,-33840.11642219024,-31109.023822429637,-7440.582804749347,-20868.75091418635,0.0,0.0,0.0,193.0,1.0,154.0,0.0,2.0,3.0,251.0,410.0,2.0,1019.0,1744252822.726936,0.0,2025-04-09 22:40:22.726,FORWARD,31
225.0,12184.919379343914,1151.0701359594032,-59072.441944175,-55814.630486325084,-33859.31657067735,-31131.55438084059,-7525.027695301497,-20894.65658601005,0.0,0.0,0.0,193.0,1.0,155.0,0.0,2.0,3.0,252.0,411.0,2.0,1020.0,1744252822.7269447,0.0,2025-04-09 22:40:22.726,FORWARD,31
226.0,12287.223313715855,1164.6152930993192,-59068.083354006216,-55761.723907199375,-33889.15614952519,-31168.144186513924,-7343.531530324403,-20910.19104840649,0.0,0.0,0.0,193.0,1.0,154.0,0.0,2.0,3.0,249.0,410.0,2.0,1017.0,1744252822.7269535,0.0,2025-04-09 22:40:22.726,FORWARD,31
227.0,12297.885095821035,1176.4393659161767,-59046.49156886239,-55813.78112003578,-33825.27486387192,-31093.66817398884,-7651.605624151901,-20856.36804775811,0.0,0.0,0.0,193.0,1.0,154.0,0.0,2.0,3.0,251.0,410.0,2.0,1019.0,1744252822.7269623,0.0,2025-04-09 22:40:22.726,FORWARD,31
228.0,12240.083484659612,1177.0875665053804,-59050.045496230785,-55776.677224239975,-33823.03968942639,-31105.62635727243,-7420.220365550562,-20861.97833561639,0.0,0.0,0.0,193.0,1.0,155.0,0.0,2.0,3.0,252.0,411.0,2.0,1020.0,1744252822.7269711,0.0,2025-04-09 22:40:22.726,FORWARD,31
229.0,12168.60260589154,1145.2586824010232,-59088.53520018282,-55839.37386743711,-33859.11540497725,-31133.78955528612,-7512.175442239695,-20884.307728327243,0.0,0.0,0.0,193.0,1.0,155.0,0.0,2.0,3.0,250.0,411.0,2.0,1018.0,1744252822.72698,0.0,2025-04-09 22:40:22.726,FORWARD,31
230.0,12257.160217423465,1152.746516793551,-59074.78887734281,-55765.23313107886,-33899.28148976344,-31172.994515060727,-7336.3566203542505,-20907.978225705414,0.0,0.0,0.0,193.0,1.0,154.0,0.0,2.0,3.0,250.0,410.0,2.0,1018.0,1744252822.726989,0.0,2025-04-09 22:40:22.726,FORWARD,31
231.0,12303.67419763496,1169.4209181572103,-59062.02603125883,-55828.7791405653,-33848.431271127614,-31112.331880609025,-7634.685353599233,-20872.818931677215,0.0,0.0,0.0,193.0,1.0,155.0,0.0,2.0,3.0,250.0,411.0,2.0,1018.0,1744252822.727013,0.0,2025-04-09 22:40:22.727,FORWARD,31
232.0,12253.18160691042,1172.751328081051,-59042.289440904795,-55772.60920674911,-33825.654843527656,-31105.514598550155,-7444.516711773481,-20855.205757046435,0.0,0.0,0.0,193.0,1.0,154.0,0.0,2.0,3.0,250.0,410.0,2.0,1018.0,1744252822.727022,0.0,2025-04-09 22:40:22.727,FORWARD,31
233.0,12179.867885097014,1146.5103800905206,-59085.74123212591,-55847.219329740925,-33858.0425212434,-31139.802174544595,-7504.419386913703,-20898.523437800817,0.0,0.0,0.0,193.0,1.0,154.0,0.0,2.0,3.0,250.0,410.0,2.0,1018.0,1744252822.7270308,0.0,2025-04-09 22:40:22.727,FORWARD,31
234.0,12248.241871385799,1154.9816912390818,-59060.327298680226,-55762.59562523313,-33891.25721350399,-31165.953715557305,-7359.334213654306,-20904.55840880375,0.0,0.0,0.0,193.0,1.0,155.0,0.0,2.0,3.0,252.0,411.0,2.0,1020.0,1744252822.7270396,0.0,2025-04-09 22:40:22.727,FORWARD,31
235.0,12328.171709557977,1184.4412904311766,-59052.146560209585,-55813.66936131351,-33853.72863456352,-31121.4960958357,-7569.30650106746,-20869.756742686837,0.0,0.0,0.0,193.0,1.0,154.0,0.0,2.0,3.0,252.0,410.0,2.0,1020.0,1744252822.7270484,0.0,2025-04-09 22:40:22.727,FORWARD,31
236.0,12273.298176920198,1186.944685810171,-59019.915344705034,-55759.93576764295,-33813.1825701216,-31088.59432799749,-7482.179401180673,-20826.617875888096,0.0,0.0,0.0,193.0,1.0,154.0,0.0,2.0,3.0,250.0,410.0,2.0,1018.0,1744252822.727062,0.0,2025-04-09 22:40:22.727,FORWARD,31
237.0,12203.717196430827,1173.2207147146123,-59066.22815921643,-55823.50412887384,-33840.608160568256,-31114.276482376634,-7465.549703305925,-20855.09399832416,0.0,0.0,0.0,193.0,1.0,155.0,0.0,2.0,3.0,251.0,411.0,2.0,1019.0,1744252822.7270706,0.0,2025-04-09 22:40:22.727,FORWARD,31
238.0,12224.034932140701,1150.7125080481183,-59064.41766791555,-55776.63252075107,-33884.90931807868,-31161.840994577527,-7385.217533733551,-20902.926731458516,0.0,0.0,0.0,193.0,1.0,155.0,0.0,2.0,3.0,252.0,411.0,2.0,1020.0,1744252822.7270794,0.0,2025-04-09 22:40:22.727,FORWARD,31
239.0,12318.694569908926,1170.1808774686906,-59077.448734932994,-55821.693637572964,-33887.70328613559,-31152.788538073128,-7512.063683517419,-20910.77219376233,0.0,0.0,0.0,193.0,1.0,154.0,0.0,2.0,3.0,249.0,410.0,2.0,1017.0,1744252822.7270882,0.0,2025-04-09 22:40:22.727,FORWARD,31
240.0,12283.311758436175,1187.5258311660089,-59024.676266274015,-55774.41969804999,-33811.461485798536,-31079.564223237543,-7547.759419412544,-20839.35837022762,0.0,0.0,0.0,193.0,1.0,155.0,0.0,2.0,3.0,252.0,411.0,2.0,1020.0,1744252822.727097,0.0,2025-04-09 22:40:22.727,FORWARD,31
241.0,12204.611266209038,1164.011795999026,-59071.95020579699,-55822.38654165108,-33837.14364017769,-31118.92564522334,-7425.5847842198355,-20873.154207844043,0.0,0.0,0.0,193.0,1.0,155.0,0.0,2.0,3.0,250.0,411.0,2.0,1018.0,1744252822.7271056,0.0,2025-04-09 22:40:22.727,FORWARD,31
242.0,12189.546190446163,1128.1819496371686,-59081.226179745936,-55804.46044259792,-33883.29999247789,-31155.73896834123,-7430.368057533272,-20905.541885559785,0.0,0.0,0.0,193.0,1.0,155.0,0.0,2.0,3.0,251.0,411.0,2.0,1019.0,1744252822.7271144,0.0,2025-04-09 22:40:22.727,FORWARD,31
243.0,12307.42929070345,1164.235313443579,-59080.39916520109,-55798.58193380618,-33896.398114728705,-31151.045102005613,-7427.015295864975,-20904.1337256591,0.0,0.0,0.0,193.0,1.0,155.0,0.0,2.0,3.0,252.0,411.0,2.0,1020.0,1744252822.7271233,0.0,2025-04-09 22:40:22.727,FORWARD,31
244.0,12281.300101435198,1172.974845525604,-59041.44007461549,-55794.73743375987,-33827.44298308408,-31083.654592472863,-7599.16843165975,-20849.55076569924,0.0,0.0,0.0,193.0,1.0,154.0,0.0,2.0,3.0,250.0,410.0,2.0,1018.0,1744252822.727132,0.0,2025-04-09 22:40:22.727,FORWARD,31
245.0,12230.002847910268,1182.5413921524755,-59061.26607194735,-55797.53140181678,-33833.81323025384,-31099.926662436326,-7409.960914845577,-20856.770379158304,0.0,0.0,0.0,193.0,1.0,154.0,0.0,2.0,3.0,251.0,410.0,2.0,1019.0,1744252822.727141,0.0,2025-04-09 22:40:22.727,FORWARD,31
246.0,12183.198295020855,1141.011850954515,-59078.67808087803,-55813.803471780244,-33872.638210372716,-31137.656407076887,-7461.772258492978,-20884.821818449716,0.0,0.0,0.0,193.0,1.0,155.0,0.0,2.0,3.0,253.0,411.0,2.0,1021.0,1744252822.7271495,0.0,2025-04-09 22:40:22.727,FORWARD,31
247.0,12296.096956264611,1159.429688385688,-59074.02891803133,-55780.23115160837,-33901.11433280878,-31161.72923585525,-7352.3828211287055,-20901.22799887991,0.0,0.0,0.0,193.0,1.0,154.0,0.0,2.0,3.0,249.0,410.0,2.0,1017.0,1744252822.7271643,0.0,2025-04-09 22:40:22.727,FORWARD,31
248.0,12289.816116072669,1172.5278106364979,-59033.92988847851,-55804.99688446485,-33820.22336962502,-31079.653630215365,-7617.787434791021,-20832.250515490832,0.0,0.0,0.0,193.0,1.0,154.0,0.0,2.0,3.0,249.0,410.0,2.0,1017.0,1744252822.7271729,0.0,2025-04-09 22:40:22.727,FORWARD,31
249.0,12228.639391498495,1169.3538629238442,-59052.34772590968,-55791.98816919186,-33828.851142984764,-31106.520427050644,-7387.743280857001,-20851.294201766756,0.0,0.0,0.0,193.0,1.0,155.0,0.0,2.0,3.0,252.0,411.0,2.0,1020.0,1744252822.7271817,0.0,2025-04-09 22:40:22.727,FORWARD,31
250.0,12175.97868156179,1140.363650365311,-59069.759734840365,-55828.175643465,-33853.99685549699,-31128.134563938926,-7482.917008747699,-20879.52445501381,0.0,0.0,0.0,193.0,1.0,154.0,0.0,2.0,3.0,249.0,410.0,2.0,1017.0,1744252822.72719,0.0,2025-04-09 22:40:22.727,FORWARD,31
251.0,12284.541104381216,1161.7766215534953,-59054.29232767729,-55757.29826179722,-33888.30678323589,-31159.427006176356,-7314.4072072991385,-20903.37376634762,0.0,0.0,0.0,193.0,1.0,155.0,0.0,2.0,3.0,251.0,411.0,2.0,1019.0,1744252822.7272034,0.0,2025-04-09 22:40:22.727,FORWARD,31
252.0,12298.443889432418,1172.5278106364979,-59041.95416473797,-55820.173718950005,-33831.33218661931,-31095.456313545266,-7623.777702305044,-20857.97737335889,0.0,0.0,0.0,193.0,1.0,155.0,0.0,2.0,3.0,249.0,411.0,2.0,1017.0,1744252822.727212,0.0,2025-04-09 22:40:22.727,FORWARD,31
253.0,12249.135941164011,1185.2683049760228,-59033.616964056135,-55768.429430535965,-33821.676233014616,-31093.221139099736,-7403.925943842643,-20850.467187221908,0.0,0.0,0.0,193.0,1.0,154.0,0.0,2.0,3.0,251.0,410.0,2.0,1019.0,1744252822.7272203,0.0,2025-04-09 22:40:22.727,FORWARD,31
254.0,12187.087498556079,1162.7377465650734,-59065.51290339386,-55827.48273938689,-33851.04642522889,-31118.947996967796,-7495.456337387126,-20880.642042236574,0.0,0.0,0.0,193.0,1.0,155.0,0.0,2.0,3.0,252.0,411.0,2.0,1020.0,1744252822.727229,0.0,2025-04-09 22:40:22.727,FORWARD,31
255.0,12261.0941244476,1161.1731244532018,-59055.96870851144,-55754.83956990714,-33893.78296062743,-31163.718541111775,-7320.643344002169,-20912.694443785484,0.0,0.0,0.0,193.0,1.0,154.0,0.0,2.0,3.0,251.0,410.0,2.0,1019.0,1744252822.7272377,0.0,2025-04-09 22:40:22.727,FORWARD,31
0.0,12305.037654046733,1168.750365823551,-59058.82973180172,-55829.33793417668,-33856.768471809446,-31112.845970731494,-7604.1975741621945,-20875.121161356114,0.0,0.0,0.0,193.0,1.0,155.0,0.0,2.0,3.0,252.0,411.0,2.0,1020.0,1744252822.7272463,0.0,2025-04-09 22:40:22.727,FORWARD,31
1.0,12254.053324944178,1180.0379967734812,-59039.83074901471,-55773.72679397187,-33834.75200352097,-31098.339688580003,-7446.103685629808,-20853.59643144565,0.0,0.0,0.0,193.0,1.0,155.0,0.0,2.0,3.0,250.0,411.0,2.0,1018.0,1744252822.7272549,0.0,2025-04-09 22:40:22.727,FORWARD,31
2.0,12183.645329909961,1155.7863540394728,-59082.18730475751,-55843.82186458372,-33858.8918875327,-31126.994624971703,-7485.5098111045145,-20888.956891173948,0.0,0.0,0.0,193.0,1.0,154.0,0.0,2.0,3.0,249.0,410.0,2.0,1017.0,1744252823.1963599,0.0,2025-04-09 22:40:23.196,FORWARD,31
3.0,12226.650086241973,1140.7883335099618,-59079.10276402268,-55784.81325922171,-33905.15999855519,-31181.130550042457,-7352.986318228998,-20930.195859693988,0.0,0.0,0.0,193.0,1.0,155.0,0.0,2.0,3.0,252.0,411.0,2.0,1020.0,1744252823.1963952,0.0,2025-04-09 22:40:23.196,FORWARD,31
4.0,12314.33597974014,1172.5501623809532,-59074.163028498064,-55831.416646411024,-33874.582812140325,-31135.73415705373,-7548.072343834919,-20896.17650463301,0.0,0.0,0.0,193.0,1.0,155.0,0.0,2.0,3.0,250.0,411.0,2.0,1018.0,1744252823.1964157,0.0,2025-04-09 22:40:23.196,FORWARD,31
5.0,12262.077601203633,1174.13713623728,-59030.0853884322,-55770.664604981495,-33821.22919812551,-31088.52727276412,-7493.064700730408,-20845.661562164016,0.0,0.0,0.0,193.0,1.0,155.0,0.0,2.0,3.0,251.0,411.0,2.0,1019.0,1744252823.1964357,0.0,2025-04-09 22:40:23.196,FORWARD,31
6.0,12185.03113806619,1149.7066795476294,-59078.991005300406,-55834.81411156823,-33852.40988164066,-31125.78763077112,-7452.116304888285,-20887.52637952881,0.0,0.0,0.0,193.0,1.0,155.0,0.0,2.0,3.0,252.0,411.0,2.0,1020.0,1744252823.196456,0.0,2025-04-09 22:40:23.196,FORWARD,31
7.0,12202.08551908559,1132.6075950393194,-59076.01822328785,-55794.04452968175,-33894.22999551654,-31167.92066906937,-7393.755900115479,-20915.24254265339,0.0,0.0,0.0,193.0,1.0,155.0,0.0,2.0,3.0,250.0,411.0,2.0,1018.0,1744252823.1964734,0.0,2025-04-09 22:40:23.196,FORWARD,31
8.0,12311.162032027487,1161.7989732979504,-59082.410822202066,-55821.425416639504,-33894.98995482802,-31158.108253253493,-7475.920912733187,-20919.489374099896,0.0,0.0,0.0,193.0,1.0,155.0,0.0,2.0,3.0,249.0,411.0,2.0,1017.0,1744252823.1964908,0.0,2025-04-09 22:40:23.196,FORWARD,31
9.0,12268.067868717655,1164.1235547213025,-59033.84048150069,-55785.79673597774,-33820.17866613611,-31089.801322198073,-7546.463018234136,-20858.022076847803,0.0,0.0,0.0,193.0,1.0,154.0,0.0,2.0,3.0,250.0,410.0,2.0,1018.0,1744252823.1965086,0.0,2025-04-09 22:40:23.196,FORWARD,31
10.0,12201.504373729751,1155.3840226392774,-59068.46333366196,-55815.56925959221,-33836.74130877749,-31108.10740090697,-7413.179566047141,-20865.845187407158,0.0,0.0,0.0,193.0,1.0,154.0,0.0,2.0,3.0,250.0,410.0,2.0,1018.0,1744252823.1965504,0.0,2025-04-09 22:40:23.196,FORWARD,31
11.0,12174.347004216554,1116.4249320536771,-59077.873418077645,-55807.455576354936,-33875.208660985074,-31146.50769788119,-7420.689752184124,-20904.580760548208,0.0,0.0,0.0,193.0,1.0,155.0,0.0,2.0,3.0,251.0,411.0,2.0,1019.0,1744252823.1965597,0.0,2025-04-09 22:40:23.196,FORWARD,31
12.0,12287.268017204764,1139.0225456979927,-59086.07650829274,-55806.539154832266,-33898.02979207394,-31165.193756245826,-7380.523667397937,-20924.451461368975,0.0,0.0,0.0,193.0,1.0,155.0,0.0,2.0,3.0,252.0,411.0,2.0,1020.0,1744252823.196569,0.0,2025-04-09 22:40:23.196,FORWARD,31
13.0,12262.681098303927,1149.6619760587187,-59042.82588277172,-55806.78502402127,-33821.519770803425,-31075.71972319123,-7576.369652315338,-20836.296181237245,0.0,0.0,0.0,193.0,1.0,155.0,0.0,2.0,3.0,249.0,411.0,2.0,1017.0,1744252823.196578,0.0,2025-04-09 22:40:23.196,FORWARD,31
14.0,12199.380958006497,1146.264510901512,-59068.19511272849,-55809.534288589275,-33837.90359948917,-31102.519464793142,-7380.925998798132,-20862.358315272133,0.0,0.0,0.0,193.0,1.0,155.0,0.0,2.0,3.0,251.0,411.0,2.0,1019.0,1744252823.1965868,0.0,2025-04-09 22:40:23.196,FORWARD,31
15.0,12155.772704574192,1110.3229058173783,-59084.80245885879,-55833.54006213428,-33872.74996909499,-31144.093709480014,-7447.221272852573,-20907.0841559272,0.0,0.0,0.0,193.0,1.0,155.0,0.0,2.0,3.0,252.0,411.0,2.0,1020.0,1744252823.1965957,0.0,2025-04-09 22:40:23.196,FORWARD,31
16.0,12264.826865771636,1124.493911802043,-59084.511886180866,-55794.513916315314,-33910.77028641347,-31175.296744739622,-7319.21283235703,-20924.89849625808,0.0,0.0,0.0,193.0,1.0,155.0,0.0,2.0,3.0,249.0,411.0,2.0,1017.0,1744252823.1966045,0.0,2025-04-09 22:40:23.196,FORWARD,31
17.0,12274.035784487223,1144.7669440230065,-59046.06688571774,-55822.543003862265,-33834.8861139877,-31089.041362886594,-7611.081911454429,-20857.955021614438,0.0,0.0,0.0,193.0,1.0,155.0,0.0,2.0,3.0,252.0,411.0,2.0,1020.0,1744252823.1966133,0.0,2025-04-09 22:40:23.196,FORWARD,31
18.0,12225.823071697125,1161.3742901532996,-59044.815188028246,-55781.32638708668,-33832.44977384207,-31091.835330943508,-7374.533399883914,-20848.813158132216,0.0,0.0,0.0,193.0,1.0,155.0,0.0,2.0,3.0,250.0,411.0,2.0,1018.0,1744252823.1966224,0.0,2025-04-09 22:40:23.196,FORWARD,31
19.0,12163.908739555925,1125.3879815802552,-59073.6936418645,-55832.601288867154,-33862.57992536783,-31124.647691803897,-7458.017165424486,-20881.647870737062,0.0,0.0,0.0,193.0,1.0,155.0,0.0,2.0,3.0,251.0,411.0,2.0,1019.0,1744252823.1966312,0.0,2025-04-09 22:40:23.196,FORWARD,31
20.0,12261.51880759225,1132.3617258503111,-59066.02699351633,-55767.580064246664,-33902.74601015401,-31165.372570201467,-7282.175991794586,-20912.336815874198,0.0,0.0,0.0,193.0,1.0,155.0,0.0,2.0,3.0,252.0,411.0,2.0,1020.0,1744252823.19664,0.0,2025-04-09 22:40:23.196,FORWARD,31
21.0,12291.604255629094,1150.690156303663,-59048.41381888555,-55825.962820763925,-33839.89290474569,-31093.757580966663,-7593.938123457208,-20866.761608929828,0.0,0.0,0.0,193.0,1.0,155.0,0.0,2.0,3.0,250.0,411.0,2.0,1018.0,1744252823.196649,0.0,2025-04-09 22:40:23.196,FORWARD,31
22.0,12239.055304414667,1162.491877376065,-59033.79577801178,-55769.14468635854,-33824.49255281598,-31092.4388280438,-7378.579065630325,-20857.776207658793,0.0,0.0,0.0,193.0,1.0,154.0,0.0,2.0,3.0,251.0,410.0,2.0,1019.0,1744252823.196658,0.0,2025-04-09 22:40:23.196,FORWARD,31
23.0,12164.109905256022,1133.5687200508976,-59073.045441275295,-55840.80437908225,-33852.23106768502,-31129.654482561888,-7449.054115897909,-20891.147362130567,0.0,0.0,0.0,193.0,1.0,154.0,0.0,2.0,3.0,250.0,410.0,2.0,1018.0,1744252823.1966674,0.0,2025-04-09 22:40:23.196,FORWARD,31
24.0,12235.747246235282,1130.3724205937888,-59059.43322890202,-55763.15441884452,-33892.218338515566,-31164.83612833454,-7276.453945214027,-20904.714871014938,0.0,0.0,0.0,193.0,1.0,154.0,0.0,2.0,3.0,249.0,410.0,2.0,1017.0,1744252823.1966765,0.0,2025-04-09 22:40:23.196,FORWARD,31
25.0,12293.168877740965,1149.5502173364423,-59058.02506900133,-55832.333067933694,-33855.002683997474,-31117.33867136701,-7559.605843973857,-20882.340774815177,0.0,0.0,0.0,193.0,1.0,155.0,0.0,2.0,3.0,251.0,411.0,2.0,1019.0,1744252823.1966915,0.0,2025-04-09 22:40:23.196,FORWARD,31
26.0,12236.440150313396,1159.720261063607,-59035.15923442355,-55776.63252075107,-33831.84627674178,-31101.2901188481,-7442.23683383904,-20866.091056596168,0.0,0.0,0.0,193.0,1.0,154.0,0.0,2.0,3.0,250.0,410.0,2.0,1018.0,1744252823.1967006,0.0,2025-04-09 22:40:23.196,FORWARD,31
27.0,12171.955367559834,1140.4977608320428,-59072.97838604193,-55840.49145465988,-33856.16497470915,-31120.758488268675,-7464.6779852721675,-20877.04341137927,0.0,0.0,0.0,193.0,1.0,154.0,0.0,2.0,3.0,249.0,410.0,2.0,1017.0,1744252823.1967092,0.0,2025-04-09 22:40:23.196,FORWARD,31
28.0,12213.484908757795,1126.3044031029228,-59060.61787135815,-55776.967796917896,-33893.17946352714,-31168.479462680756,-7349.521797838426,-20925.99373173639,0.0,0.0,0.0,193.0,1.0,155.0,0.0,2.0,3.0,251.0,411.0,2.0,1019.0,1744252823.196718,0.0,2025-04-09 22:40:23.196,FORWARD,31
29.0,12303.920066823968,1154.691118561163,-59060.17083646904,-55823.48177712939,-33868.145509737195,-31136.337654154024,-7510.00732302753,-20901.31740585773,0.0,0.0,0.0,193.0,1.0,155.0,0.0,2.0,3.0,252.0,411.0,2.0,1020.0,1744252823.1967273,0.0,2025-04-09 22:40:23.196,FORWARD,31
30.0,12262.479932603828,1169.9350082796823,-59015.802623725256,-55769.25644508081,-33808.55575901935,-31084.280441317613,-7480.167744179696,-20835.245649247845,0.0,0.0,0.0,193.0,1.0,154.0,0.0,2.0,3.0,251.0,410.0,2.0,1019.0,1744252823.196736,0.0,2025-04-09 22:40:23.196,FORWARD,31
31.0,12192.161344547432,1155.875761017294,-59060.662574847054,-55822.118320717615,-33837.47891634452,-31110.78961024161,-7418.387522505227,-20858.536166970276,0.0,0.0,0.0,193.0,1.0,154.0,0.0,2.0,3.0,252.0,410.0,2.0,1020.0,1744252823.196745,0.0,2025-04-09 22:40:23.196,FORWARD,31
32.0,12195.871734127013,1130.752400249529,-59058.293289934794,-55785.72968074438,-33877.175614497144,-31149.03344500464,-7378.333196441316,-20892.26494935333,0.0,0.0,0.0,193.0,1.0,155.0,0.0,2.0,3.0,250.0,411.0,2.0,1018.0,1744252823.1967535,0.0,2025-04-09 22:40:23.196,FORWARD,31
33.0,12316.682912907949,1169.689139090674,-59051.230138686915,-55793.99982619284,-33872.25823071697,-31129.02863371714,-7424.064865596875,-20880.75380095885,0.0,0.0,0.0,193.0,1.0,154.0,0.0,2.0,3.0,248.0,410.0,2.0,1016.0,1744252823.196762,0.0,2025-04-09 22:40:23.196,FORWARD,31
34.0,12281.925950279947,1179.2556857175452,-59006.30313233175,-55768.40707879151,-33804.3759828062,-31062.42043524032,-7534.974221584109,-20828.853050333626,0.0,0.0,0.0,193.0,1.0,155.0,0.0,2.0,3.0,252.0,411.0,2.0,1020.0,1744252823.196771,0.0,2025-04-09 22:40:23.196,FORWARD,31
35.0,12214.624847725016,1169.9573600241376,-59049.84433053069,-55802.895820486054,-33835.37785236572,-31100.73132523672,-7402.94246708661,-20867.342754285666,0.0,0.0,0.0,193.0,1.0,154.0,0.0,2.0,3.0,252.0,410.0,2.0,1020.0,1744252823.1967795,0.0,2025-04-09 22:40:23.196,FORWARD,31
36.0,12185.79109737767,1135.0886386738587,-59059.20971145746,-55801.26414314081,-33873.889908062214,-31138.349311155,-7431.7538656895,-20896.780001733303,0.0,0.0,0.0,193.0,1.0,154.0,0.0,2.0,3.0,250.0,410.0,2.0,1018.0,1744252823.1967883,0.0,2025-04-09 22:40:23.196,FORWARD,31
37.0,12307.876325592557,1168.3033309344448,-59055.141693966594,-55778.286549840755,-33892.5983181713,-31153.32497994006,-7366.799696302378,-20917.880048499115,0.0,0.0,0.0,193.0,1.0,155.0,0.0,2.0,3.0,251.0,411.0,2.0,1019.0,1744252823.1967971,0.0,2025-04-09 22:40:23.196,FORWARD,31
38.0,12285.43517415943,1178.6968921061627,-59020.02710342731,-55793.731605259374,-33820.22336962502,-31078.558394737054,-7593.558143801469,-20850.713056410917,0.0,0.0,0.0,193.0,1.0,155.0,0.0,2.0,3.0,252.0,411.0,2.0,1020.0,1744252823.1968064,0.0,2025-04-09 22:40:23.196,FORWARD,31
39.0,12226.583031008606,1175.724110093607,-59039.696638547975,-55787.96485518991,-33830.52752381891,-31097.44561880179,-7379.920170297643,-20851.875347122594,0.0,0.0,0.0,193.0,1.0,154.0,0.0,2.0,3.0,250.0,410.0,2.0,1018.0,1744252823.1968153,0.0,2025-04-09 22:40:23.196,FORWARD,31
40.0,12175.419887950407,1131.0653246719032,-59060.6402231026,-55821.09014047267,-33864.524527135436,-31138.215200688268,-7460.252339870017,-20899.70808025695,0.0,0.0,0.0,193.0,1.0,155.0,0.0,1.0,3.0,251.0,411.0,1.0,1019.0,1744252823.196829,0.0,2025-04-09 22:40:23.196,FORWARD,31
41.0,12274.393412398507,1138.620214297797,-59062.85304580368,-55777.75010797383,-33903.885949121235,-31173.955640072305,-7320.956268424544,-20925.725510802928,0.0,0.0,0.0,193.0,1.0,155.0,0.0,2.0,3.0,252.0,411.0,2.0,1020.0,1744252823.196838,0.0,2025-04-09 22:40:23.196,FORWARD,31
42.0,12276.114496721566,1150.46663885911,-59038.75786528085,-55825.47108238591,-33833.52265757593,-31097.132694379416,-7619.374408647348,-20868.929728141993,0.0,0.0,0.0,193.0,1.0,155.0,0.0,3.0,3.0,252.0,411.0,3.0,1020.0,1744252823.1968465,0.0,2025-04-09 22:40:23.196,FORWARD,31
43.0,12218.648161726971,1153.4394208716656,-59043.92111825003,-55790.98234069137,-33836.495439588485,-31101.200711870282,-7388.838516335311,-20852.65765817853,0.0,0.0,0.0,193.0,1.0,154.0,0.0,13.0,3.0,249.0,410.0,13.0,1017.0,1744252823.1968553,0.0,2025-04-09 22:40:23.196,FORWARD,31
44.0,12162.679393610882,1127.7796182369732,-59065.73642083841,-55836.98223078039,-33856.56730610935,-31120.043232446104,-7480.503020346525,-20870.94138514297,0.0,0.0,0.0,193.0,1.0,155.0,0.0,24.0,3.0,252.0,411.0,24.0,1020.0,1744252823.1968641,0.0,2025-04-09 22:40:23.196,FORWARD,31
45.0,12259.730668035827,1136.65326078573,-59055.700487577975,-55767.28949156875,-33900.13085605274,-31167.205413246804,-7301.934933893077,-20910.660435040052,0.0,0.0,0.0,193.0,1.0,155.0,0.0,33.0,3.0,249.0,411.0,33.0,1017.0,1744252823.196873,0.0,2025-04-09 22:40:23.196,FORWARD,31
46.0,12288.609121872083,1142.978804466582,-59043.85406301667,-55831.841329555675,-33844.65382631467,-31099.770200225143,-7599.7942805044995,-20853.931707612483,0.0,0.0,0.0,193.0,1.0,154.0,0.0,39.0,3.0,249.0,410.0,39.0,1017.0,1744252823.1968818,0.0,2025-04-09 22:40:23.196,FORWARD,31
47.0,12241.022257926734,1162.0001389980482,-59016.22730686991,-55762.617976977584,-33812.512017787936,-31081.240604071692,-7392.861830337266,-20829.79182360075,0.0,0.0,0.0,193.0,1.0,155.0,0.0,39.0,3.0,251.0,411.0,39.0,1019.0,1744252823.1968904,0.0,2025-04-09 22:40:23.196,FORWARD,31
48.0,12167.864998324514,1135.982708452071,-59060.61787135815,-55834.34472493467,-33847.20192518258,-31113.114191664958,-7464.834447483355,-20873.3777252886,0.0,0.0,0.0,193.0,1.0,155.0,0.0,39.0,3.0,252.0,411.0,39.0,1020.0,1744252823.1968994,0.0,2025-04-09 22:40:23.196,FORWARD,31
49.0,12225.04076064119,1126.0808856583699,-59056.08046723372,-55766.529532257264,-33896.06283856188,-31156.230706719245,-7314.854242188245,-20897.89758895607,0.0,0.0,0.0,193.0,1.0,154.0,0.0,39.0,3.0,250.0,410.0,39.0,1018.0,1744252823.1969082,0.0,2025-04-09 22:40:23.196,FORWARD,31
50.0,12291.29133120672,1145.102220189836,-59048.860853774655,-55825.6275445971,-33853.90744851917,-31099.591386269498,-7555.381364271804,-20857.50798672533,0.0,0.0,0.0,193.0,1.0,154.0,0.0,39.0,3.0,251.0,410.0,39.0,1019.0,1744252823.1969173,0.0,2025-04-09 22:40:23.196,FORWARD,31
51.0,12241.0893131601,1148.9020167472383,-59015.847327214164,-55765.68016596796,-33811.21561660953,-31073.4845487457,-7432.849101167811,-20825.477936920874,0.0,0.0,0.0,193.0,1.0,155.0,0.0,38.0,3.0,252.0,411.0,38.0,1020.0,1744252823.1969259,0.0,2025-04-09 22:40:23.196,FORWARD,31
52.0,12173.967024560812,1135.8262462408836,-59058.20388295697,-55829.33793417668,-33835.66842504364,-31100.351345580977,-7431.217423822573,-20851.40596048903,0.0,0.0,0.0,193.0,1.0,154.0,0.0,39.0,3.0,251.0,410.0,39.0,1019.0,1744252823.1969345,0.0,2025-04-09 22:40:23.196,FORWARD,31
53.0,12199.805641151148,1122.4822548010654,-59052.30302242077,-55774.55380851672,-33881.310687221376,-31145.725386825252,-7338.457684333049,-20891.303824341754,0.0,0.0,0.0,193.0,1.0,154.0,0.0,39.0,3.0,249.0,410.0,39.0,1017.0,1744252823.1969435,0.0,2025-04-09 22:40:23.196,FORWARD,31
54.0,12291.29133120672,1142.3529556218334,-59058.561510868254,-55820.777216050294,-33873.17465223964,-31124.468877848256,-7481.598255824835,-20882.899568426557,0.0,0.0,0.0,193.0,1.0,155.0,0.0,39.0,3.0,252.0,411.0,39.0,1020.0,1744252823.1969526,0.0,2025-04-09 22:40:23.196,FORWARD,31
55.0,12236.060170657656,1139.3578218648222,-59028.230193642405,-55789.01538717931,-33826.414802839136,-31084.459255273254,-7500.239610700562,-20845.728617397384,0.0,0.0,0.0,193.0,1.0,154.0,0.0,39.0,3.0,249.0,410.0,39.0,1017.0,1744252823.196966,0.0,2025-04-09 22:40:23.196,FORWARD,31
56.0,12169.83195183658,1128.204301381624,-59071.234949974416,-55836.244623213366,-33853.14748920769,-31114.701165521285,-7424.623659208258,-20872.662469466028,0.0,0.0,0.0,193.0,1.0,154.0,0.0,40.0,3.0,251.0,410.0,40.0,1019.0,1744252823.1969748,0.0,2025-04-09 22:40:23.196,FORWARD,31
57.0,12163.64051862246,1096.621286466275,-59074.587711642715,-55811.90357350154,-33895.213472272575,-31158.622343375966,-7412.307848013384,-20916.404833365064,0.0,0.0,0.0,193.0,1.0,155.0,0.0,40.0,3.0,252.0,411.0,40.0,1020.0,1744252823.1969836,0.0,2025-04-09 22:40:23.196,FORWARD,31
58.0,12282.864723547069,1128.8748537152833,-59072.6431098751,-55819.48081487189,-33897.4039432292,-31154.442567162823,-7434.5031302575035,-20920.495202600385,0.0,0.0,0.0,193.0,1.0,155.0,0.0,40.0,3.0,250.0,411.0,40.0,1018.0,1744252823.1969924,0.0,2025-04-09 22:40:23.196,FORWARD,31
59.0,12265.028031471735,1153.6629383162187,-59016.003789425355,-55787.96485518991,-33811.97557592101,-31069.930621377305,-7557.7730009285215,-20843.828719118683,0.0,0.0,0.0,193.0,1.0,154.0,0.0,40.0,3.0,250.0,410.0,40.0,1018.0,1744252823.1970012,0.0,2025-04-09 22:40:23.197,FORWARD,31
60.0,12200.520896973718,1149.75138303654,-59050.98426949791,-55805.73449203187,-33835.22139015453,-31093.757580966663,-7382.781193587923,-20848.164957543013,0.0,0.0,0.0,193.0,1.0,155.0,0.0,41.0,3.0,252.0,411.0,41.0,1020.0,1744252823.1970096,0.0,2025-04-09 22:40:23.197,FORWARD,31
61.0,12164.802809334136,1113.653315741219,-59063.41183941506,-55812.3729601351,-33874.67221911815,-31131.040290718116,-7438.682906470645,-20886.677013239507,0.0,0.0,0.0,193.0,1.0,155.0,0.0,41.0,3.0,252.0,411.0,41.0,1020.0,1744252823.1970186,0.0,2025-04-09 22:40:23.197,FORWARD,31
62.0,12280.786011312726,1133.7028305176295,-59065.714069093956,-55788.568352290196,-33907.99867010101,-31158.108253253493,-7361.748202055479,-20916.449536853976,0.0,0.0,0.0,193.0,1.0,154.0,0.0,41.0,3.0,250.0,410.0,41.0,1018.0,1744252823.1970272,0.0,2025-04-09 22:40:23.197,FORWARD,31
63.0,12272.672328075449,1153.260606916023,-59019.915344705034,-55802.962875719415,-33821.65388127016,-31069.57299346602,-7604.354036373382,-20837.905506838026,0.0,0.0,0.0,193.0,1.0,155.0,0.0,41.0,3.0,252.0,411.0,41.0,1020.0,1744252823.197036,0.0,2025-04-09 22:40:23.197,FORWARD,31
64.0,12218.491699515784,1159.787316296973,-59034.26516464534,-55786.71315750041,-33828.7840877514,-31089.242528586692,-7381.708309854068,-20852.59060294516,0.0,0.0,0.0,193.0,1.0,154.0,0.0,41.0,3.0,249.0,410.0,41.0,1017.0,1744252823.197045,0.0,2025-04-09 22:40:23.197,FORWARD,31
65.0,12161.830027321581,1118.4812925435654,-59058.7403248239,-55827.9744777649,-33861.48468988951,-31127.955749983284,-7461.705203259612,-20886.94523417297,0.0,0.0,0.0,193.0,1.0,154.0,0.0,42.0,3.0,250.0,410.0,42.0,1018.0,1744252823.1970537,0.0,2025-04-09 22:40:23.197,FORWARD,31
66.0,12268.29138616221,1133.725182262085,-59055.02993524432,-55774.173828860985,-33901.33785025333,-31170.245250492724,-7305.332399050284,-20921.702196800972,0.0,0.0,0.0,193.0,1.0,155.0,0.0,42.0,3.0,252.0,411.0,42.0,1020.0,1744252823.1970625,0.0,2025-04-09 22:40:23.197,FORWARD,31
67.0,12279.735479323326,1150.332528392378,-59034.01929545633,-55829.98613476588,-33836.271922143926,-31102.318299093047,-7618.413283635769,-20875.769361945317,0.0,0.0,0.0,193.0,1.0,155.0,0.0,42.0,3.0,251.0,411.0,42.0,1019.0,1744252823.1970716,0.0,2025-04-09 22:40:23.197,FORWARD,31
68.0,12218.335237304598,1146.8903597462606,-59038.55669958076,-55791.295265113746,-33836.31662563284,-31108.93441545182,-7391.096042525297,-20868.41563801952,0.0,0.0,0.0,193.0,1.0,155.0,0.0,42.0,3.0,251.0,411.0,42.0,1019.0,1744252823.1970804,0.0,2025-04-09 22:40:23.197,FORWARD,31
69.0,12149.245995193243,1112.8039494519173,-59074.78887734281,-55852.53904492129,-33867.40790217017,-31134.370700641957,-7483.587561081357,-20890.633272008094,0.0,0.0,0.0,193.0,1.0,154.0,0.0,42.0,3.0,252.0,410.0,42.0,1020.0,1744252823.1970892,0.0,2025-04-09 22:40:23.197,FORWARD,31
70.0,12238.228289869821,1131.1547316497245,-59058.31564167925,-55771.89395092654,-33902.16486479817,-31169.529994670153,-7304.907715905633,-20912.716795529937,0.0,0.0,0.0,193.0,1.0,154.0,0.0,42.0,3.0,250.0,410.0,42.0,1018.0,1744252823.1971028,0.0,2025-04-09 22:40:23.197,FORWARD,31
71.0,12275.153371709988,1143.783467266973,-59054.06881023274,-55837.71983834742,-33856.835527042815,-31105.06756366105,-7603.07998693943,-20866.292222296266,0.0,0.0,0.0,193.0,1.0,154.0,0.0,42.0,3.0,249.0,410.0,42.0,1017.0,1744252823.1971116,0.0,2025-04-09 22:40:23.197,FORWARD,31
72.0,12234.160272378955,1158.2450459295567,-59023.625734284615,-55766.0154421348,-33820.44688706957,-31085.956822151762,-7418.186356805129,-20841.526489439784,0.0,0.0,0.0,193.0,1.0,154.0,0.0,42.0,3.0,252.0,410.0,42.0,1020.0,1744252823.1971202,0.0,2025-04-09 22:40:23.197,FORWARD,31
73.0,12173.83291409408,1141.3471271213446,-59058.49445563489,-55827.66155334253,-33842.79863152488,-31109.984947441215,-7459.38062183626,-20870.0249636203,0.0,0.0,0.0,193.0,1.0,154.0,0.0,42.0,3.0,252.0,410.0,42.0,1020.0,1744252823.197129,0.0,2025-04-09 22:40:23.197,FORWARD,31
74.0,12223.56554550714,1125.8126647249062,-59053.331202665715,-55760.98629963235,-33892.195986771105,-31161.72923585525,-7317.938782923077,-20906.05597568226,0.0,0.0,0.0,193.0,1.0,154.0,0.0,43.0,3.0,251.0,410.0,43.0,1019.0,1744252823.1971378,0.0,2025-04-09 22:40:23.197,FORWARD,31
75.0,12297.236895231832,1156.367499395311,-59050.55958635326,-55815.412797381025,-33858.98129451052,-31117.91981672285,-7538.662259419234,-20873.265966566323,0.0,0.0,0.0,193.0,1.0,154.0,0.0,43.0,3.0,250.0,410.0,43.0,1018.0,1744252823.197147,0.0,2025-04-09 22:40:23.197,FORWARD,31
76.0,12247.28074637422,1165.487011133076,-59013.07571090171,-55753.051430350715,-33807.616985752225,-31076.658496458353,-7456.117267145785,-20828.808346844715,0.0,0.0,0.0,193.0,1.0,154.0,0.0,42.0,3.0,250.0,410.0,42.0,1018.0,1744252823.1971557,0.0,2025-04-09 22:40:23.197,FORWARD,31
77.0,12180.806658364138,1149.6619760587187,-59056.72866782292,-55809.98132347839,-33830.86279998574,-31101.379525825923,-7432.335011045338,-20852.03180933378,0.0,0.0,0.0,193.0,1.0,155.0,0.0,43.0,3.0,251.0,411.0,43.0,1019.0,1744252823.1971648,0.0,2025-04-09 22:40:23.197,FORWARD,31
78.0,12204.678321442405,1133.1663886507022,-59048.25735667436,-55753.207892561906,-33868.011399270465,-31143.333750168535,-7352.807504273356,-20887.459324295443,0.0,0.0,0.0,193.0,1.0,155.0,0.0,43.0,3.0,252.0,411.0,43.0,1020.0,1744252823.1971736,0.0,2025-04-09 22:40:23.197,FORWARD,31
79.0,12313.061930306189,1166.6045983558415,-59047.318583407236,-55776.09607888414,-33858.087224732306,-31119.305624879078,-7460.721726503579,-20874.338850300177,0.0,0.0,0.0,193.0,1.0,154.0,0.0,43.0,3.0,249.0,410.0,43.0,1017.0,1744252823.1971824,0.0,2025-04-09 22:40:23.197,FORWARD,31
80.0,12269.721897807349,1171.5666856249197,-59004.470289286415,-55733.53835744123,-33792.28368905588,-31056.653685170855,-7500.507831634025,-20799.2593406748,0.0,0.0,0.0,193.0,1.0,154.0,0.0,43.0,3.0,251.0,410.0,43.0,1019.0,1744252823.1971912,0.0,2025-04-09 22:40:23.197,FORWARD,31
81.0,12205.773556920714,1166.8281158003947,-59048.6373363301,-55774.106773627616,-33821.318605103326,-31095.657479245365,-7393.085347781819,-20836.49734693734,0.0,0.0,0.0,193.0,1.0,155.0,0.0,43.0,3.0,251.0,411.0,43.0,1019.0,1744252823.1971998,0.0,2025-04-09 22:40:23.197,FORWARD,31
82.0,12185.209952021833,1130.6629932717078,-59055.96870851144,-55753.27494779527,-33863.65280910168,-31133.476630863745,-7398.717987384557,-20867.074533352203,0.0,0.0,0.0,193.0,1.0,154.0,0.0,43.0,3.0,249.0,410.0,43.0,1017.0,1744252823.1972086,0.0,2025-04-09 22:40:23.197,FORWARD,31
83.0,12304.076529035156,1161.4636971311209,-59048.25735667436,-55739.84154937763,-33865.66446610266,-31128.82746801704,-7376.478001651526,-20860.23489954888,0.0,0.0,0.0,193.0,1.0,154.0,0.0,43.0,3.0,250.0,410.0,43.0,1018.0,1744252823.1972172,0.0,2025-04-09 22:40:23.197,FORWARD,31
84.0,12268.224330928842,1166.8504675448498,-59012.44986205696,-55738.12046505457,-33800.062096126334,-31060.67699917281,-7550.128704324807,-20803.796744799227,0.0,0.0,0.0,193.0,1.0,154.0,0.0,43.0,3.0,250.0,410.0,43.0,1018.0,1744252823.197226,0.0,2025-04-09 22:40:23.197,FORWARD,31
85.0,12208.969856377824,1168.4150896567214,-59038.86962400313,-55743.46253197939,-33815.9318346896,-31081.35236279397,-7371.6947283380905,-20817.1630879835,0.0,0.0,0.0,193.0,1.0,154.0,0.0,43.0,3.0,249.0,410.0,43.0,1017.0,1744252823.1972396,0.0,2025-04-09 22:40:23.197,FORWARD,31
86.0,12168.26732972471,1130.3724205937888,-59055.92400502253,-55756.694764696935,-33855.002683997474,-31118.277444634135,-7434.704295957601,-20853.149396556546,0.0,0.0,0.0,193.0,1.0,154.0,0.0,43.0,3.0,251.0,410.0,43.0,1019.0,1744252823.1972487,0.0,2025-04-09 22:40:23.197,FORWARD,31
87.0,12284.608159614583,1152.9923859825594,-59055.90165327807,-55721.6025259021,-33885.46811169006,-31144.294875180112,-7322.342076580772,-20877.155170101545,0.0,0.0,0.0,193.0,1.0,155.0,0.0,43.0,3.0,252.0,411.0,43.0,1020.0,1744252823.1972575,0.0,2025-04-09 22:40:23.197,FORWARD,31
88.0,12277.76852581126,1160.591979097364,-59023.73749300689,-55750.90566288301,-33809.78510496439,-31065.72849341971,-7591.144155400295,-20817.65482636152,0.0,0.0,0.0,193.0,1.0,154.0,0.0,43.0,3.0,250.0,410.0,43.0,1018.0,1744252823.1972663,0.0,2025-04-09 22:40:23.197,FORWARD,31
89.0,12223.61024899605,1171.8349065583834,-59031.71706577743,-55722.22837474685,-33806.94643341857,-31072.836348156496,-7349.8570740052555,-20807.663596589995,0.0,0.0,0.0,193.0,1.0,154.0,0.0,43.0,3.0,249.0,410.0,43.0,1017.0,1744252823.1972752,0.0,2025-04-09 22:40:23.197,FORWARD,31
90.0,12160.444219165352,1134.0828101733698,-59060.55081612478,-55768.47413402488,-33840.965788479545,-31099.72549673623,-7441.946261161121,-20832.250515490832,0.0,0.0,0.0,193.0,1.0,155.0,0.0,43.0,3.0,250.0,411.0,43.0,1018.0,1744252823.197284,0.0,2025-04-09 22:40:23.197,FORWARD,31
91.0,12264.08925820461,1149.4384586141657,-59052.280670676315,-55707.16329898397,-33881.578908154836,-31137.745814054706,-7283.852372628734,-20866.627498463095,0.0,0.0,0.0,193.0,1.0,154.0,0.0,44.0,3.0,249.0,410.0,44.0,1017.0,1744252823.1972976,0.0,2025-04-09 22:40:23.197,FORWARD,31
92.0,12284.295235192209,1163.5871128543752,-59033.482853589405,-55764.54022700075,-33820.93862544759,-31068.075426587515,-7600.9118677272645,-20823.287465964255,0.0,0.0,0.0,193.0,1.0,154.0,0.0,43.0,3.0,251.0,410.0,43.0,1019.0,1744252823.1973064,0.0,2025-04-09 22:40:23.197,FORWARD,31
93.0,12225.75601646376,1165.844639044361,-59033.39344661158,-55724.91058408149,-33818.63639576869,-31077.44080751429,-7381.529495898426,-20819.97940778487,0.0,0.0,0.0,193.0,1.0,155.0,0.0,43.0,3.0,252.0,411.0,43.0,1020.0,1744252823.1973152,0.0,2025-04-09 22:40:23.197,FORWARD,31
94.0,12163.104076755533,1140.9671474656043,-59061.243720202896,-55782.51102954281,-33838.2835791449,-31098.96553742475,-7460.498209059026,-20838.39724521604,0.0,0.0,0.0,193.0,1.0,154.0,0.0,44.0,3.0,250.0,410.0,44.0,1018.0,1744252823.197324,0.0,2025-04-09 22:40:23.197,FORWARD,31
95.0,12241.75986549376,1140.3412986208557,-59042.937641494,-55701.77652857024,-33872.057065016874,-31133.744851797208,-7270.843657355745,-20852.881175623083,0.0,0.0,0.0,193.0,1.0,155.0,0.0,44.0,3.0,252.0,411.0,44.0,1020.0,1744252823.1973329,0.0,2025-04-09 22:40:23.197,FORWARD,31
96.0,12289.749060839304,1151.7630400375176,-59043.3846763831,-55776.78898296225,-33831.64511104168,-31088.616679741943,-7557.281262550505,-20835.200945758934,0.0,0.0,0.0,193.0,1.0,154.0,0.0,44.0,3.0,250.0,410.0,44.0,1018.0,1744252823.1973417,0.0,2025-04-09 22:40:23.197,FORWARD,31
97.0,12235.99311542429,1160.7931447974618,-59021.815242983736,-55719.97084855686,-33805.15829386214,-31075.25033655767,-7403.70242639809,-20819.577076384674,0.0,0.0,0.0,193.0,1.0,154.0,0.0,43.0,3.0,249.0,410.0,43.0,1017.0,1744252823.1973505,0.0,2025-04-09 22:40:23.197,FORWARD,31
98.0,12166.568597146106,1143.0905631888586,-59063.56830162625,-55788.03191042327,-33831.57805580831,-31101.603043270476,-7452.071601399375,-20851.584774444673,0.0,0.0,0.0,193.0,1.0,154.0,0.0,44.0,3.0,251.0,410.0,44.0,1019.0,1744252823.197359,0.0,2025-04-09 22:40:23.197,FORWARD,31
99.0,12215.004827380757,1136.5638538079088,-59048.14559795208,-55716.05929327718,-33865.709169591566,-31137.83522103253,-7313.937820665577,-20870.181425831488,0.0,0.0,0.0,193.0,1.0,154.0,0.0,44.0,3.0,251.0,410.0,44.0,1019.0,1744252823.1973681,0.0,2025-04-09 22:40:23.197,FORWARD,31
100.0,12297.885095821035,1155.9651679951153,-59054.672307333036,-55774.55380851672,-33847.537201349405,-31105.96163343926,-7509.940267794164,-20862.335963527676,0.0,0.0,0.0,193.0,1.0,154.0,0.0,44.0,3.0,250.0,410.0,44.0,1018.0,1744252823.1973817,0.0,2025-04-09 22:40:23.197,FORWARD,31
101.0,12249.940603964402,1166.1128599778247,-59014.28270510229,-55717.534508411234,-33795.0776571128,-31057.391292737877,-7460.274691614472,-20806.993044256335,0.0,0.0,0.0,193.0,1.0,155.0,0.0,43.0,3.0,251.0,411.0,43.0,1019.0,1744252823.1973906,0.0,2025-04-09 22:40:23.197,FORWARD,31
102.0,12184.785268877182,1155.0934499613584,-59055.74519106689,-55771.53632301526,-33821.34095684779,-31081.888804660895,-7419.683923683635,-20823.041596775245,0.0,0.0,0.0,193.0,1.0,155.0,0.0,44.0,3.0,253.0,411.0,44.0,1021.0,1744252823.1973994,0.0,2025-04-09 22:40:23.197,FORWARD,31
103.0,12196.31876901612,1132.9652229506044,-59052.99592649889,-55731.16907252897,-33867.452605659084,-31128.223970916748,-7365.033908490409,-20869.22030081991,0.0,0.0,0.0,193.0,1.0,154.0,0.0,44.0,3.0,249.0,410.0,44.0,1017.0,1744252823.1974084,0.0,2025-04-09 22:40:23.197,FORWARD,31
104.0,12288.027976516245,1150.3101766479226,-59067.18928422801,-55768.787058447255,-33874.091073762305,-31126.77110752715,-7442.259185583495,-20877.333984057186,0.0,0.0,0.0,193.0,1.0,154.0,0.0,44.0,3.0,249.0,410.0,44.0,1017.0,1744252823.1974173,0.0,2025-04-09 22:40:23.197,FORWARD,31
105.0,12257.048458701189,1168.8397728013722,-59015.06501615823,-55730.92320333996,-33800.66559322662,-31052.943295591274,-7529.63215465929,-20806.50130587832,0.0,0.0,0.0,193.0,1.0,155.0,0.0,44.0,3.0,252.0,411.0,44.0,1020.0,1744252823.197426,0.0,2025-04-09 22:40:23.197,FORWARD,31
106.0,12189.70265265735,1161.9777872535929,-59058.1368277236,-55770.463439281404,-33828.96290170705,-31091.835330943508,-7404.440033965116,-20839.671294649994,0.0,0.0,0.0,193.0,1.0,154.0,0.0,44.0,3.0,249.0,410.0,44.0,1017.0,1744252823.197435,0.0,2025-04-09 22:40:23.197,FORWARD,31
107.0,12166.926225057392,1126.7067345031185,-59064.238853959905,-55759.488732753845,-33866.15620448068,-31128.089860450014,-7415.682961426135,-20873.958870644437,0.0,0.0,0.0,193.0,1.0,155.0,0.0,44.0,3.0,251.0,411.0,44.0,1019.0,1744252823.1974435,0.0,2025-04-09 22:40:23.197,FORWARD,31
108.0,12286.753927082293,1150.2431214145568,-59065.73642083841,-55748.40226750401,-33885.69162913461,-31135.86826752046,-7374.488696395004,-20872.595414232663,0.0,0.0,0.0,193.0,1.0,155.0,0.0,44.0,3.0,253.0,411.0,44.0,1021.0,1744252823.1974523,0.0,2025-04-09 22:40:23.197,FORWARD,31
109.0,12266.883226261525,1165.621121599808,-59021.74818775037,-55749.85513089361,-33805.091238628775,-31056.229002026204,-7569.775887701022,-20798.11940170758,0.0,0.0,0.0,193.0,1.0,155.0,0.0,44.0,3.0,252.0,411.0,44.0,1020.0,1744252823.1974614,0.0,2025-04-09 22:40:23.197,FORWARD,31
110.0,12202.465498741329,1161.1954761976572,-59054.60525209967,-55760.7627821878,-33830.28165462991,-31092.595290254987,-7379.249617963984,-20831.84818409064,0.0,0.0,0.0,193.0,1.0,155.0,0.0,44.0,3.0,249.0,411.0,44.0,1017.0,1744252823.1974704,0.0,2025-04-09 22:40:23.197,FORWARD,31
111.0,12155.45978015182,1121.1858536226575,-59074.43124943152,-55788.009558678816,-33866.200907969585,-31133.78955528612,-7461.951072448621,-20879.65856548054,0.0,0.0,0.0,193.0,1.0,154.0,0.0,44.0,3.0,250.0,410.0,44.0,1018.0,1744252823.197479,0.0,2025-04-09 22:40:23.197,FORWARD,31
112.0,12259.529502335728,1132.428781083677,-59078.20869424447,-55752.80556116171,-33903.48361772104,-31173.5086051832,-7334.412018586639,-20914.728452530915,0.0,0.0,0.0,193.0,1.0,155.0,0.0,44.0,3.0,252.0,411.0,44.0,1020.0,1744252823.1974876,0.0,2025-04-09 22:40:23.197,FORWARD,31
113.0,12267.486723361817,1153.6405865717634,-59040.814225770744,-55784.14270688805,-33823.2855586154,-31090.24835708718,-7624.828234294443,-20854.155225057035,0.0,0.0,0.0,193.0,1.0,155.0,0.0,44.0,3.0,250.0,411.0,44.0,1018.0,1744252823.1974964,0.0,2025-04-09 22:40:23.197,FORWARD,31
114.0,12214.736606447294,1161.7095663201292,-59047.20682468496,-55750.43627624944,-33824.02316618242,-31096.417438556844,-7391.587780903314,-20836.854974848626,0.0,0.0,0.0,193.0,1.0,154.0,0.0,44.0,3.0,250.0,410.0,44.0,1018.0,1744252823.1975052,0.0,2025-04-09 22:40:23.197,FORWARD,31
115.0,12171.55303615964,1145.7280690345847,-59060.90844403607,-55784.05329991023,-33840.71991929053,-31108.91206370736,-7479.497191846037,-20848.790806387762,0.0,0.0,0.0,193.0,1.0,154.0,0.0,44.0,3.0,249.0,410.0,44.0,1017.0,1744252823.1975188,0.0,2025-04-09 22:40:23.197,FORWARD,31
116.0,12270.325394907642,1156.9486447511488,-59048.27970841881,-55714.606429887586,-33876.84033833031,-31148.653465348896,-7295.5646867233145,-20879.189178846977,0.0,0.0,0.0,193.0,1.0,155.0,0.0,44.0,3.0,250.0,411.0,44.0,1018.0,1744252823.197528,0.0,2025-04-09 22:40:23.197,FORWARD,31
117.0,12291.805421329193,1168.2809791899895,-59037.23794665789,-55783.44980280993,-33821.78799173689,-31088.57197625303,-7607.1927079192055,-20842.286448751267,0.0,0.0,0.0,193.0,1.0,154.0,0.0,44.0,3.0,249.0,410.0,44.0,1017.0,1744252823.1975367,0.0,2025-04-09 22:40:23.197,FORWARD,31
118.0,12230.919269432936,1174.0924327483694,-59030.130091921106,-55733.87363360806,-33813.51784628843,-31088.05788613056,-7395.36522571626,-20832.764605613305,0.0,0.0,0.0,193.0,1.0,155.0,0.0,44.0,3.0,251.0,411.0,44.0,1019.0,1744252823.1975455,0.0,2025-04-09 22:40:23.197,FORWARD,31
119.0,12153.78339931767,1137.9943654530484,-59073.13484825312,-55806.98618972137,-33848.90065776118,-31120.669081290853,-7485.15218319323,-20872.08132411019,0.0,0.0,0.0,193.0,1.0,155.0,0.0,44.0,3.0,252.0,411.0,44.0,1020.0,1744252823.197554,0.0,2025-04-09 22:40:23.197,FORWARD,31
120.0,12225.577202508117,1130.5288828049759,-59055.47697013342,-55728.7550841278,-33883.92584132264,-31160.902221310407,-7316.105939877742,-20901.675033769017,0.0,0.0,0.0,193.0,1.0,154.0,0.0,44.0,3.0,250.0,410.0,44.0,1018.0,1744252823.1975627,0.0,2025-04-09 22:40:23.197,FORWARD,31
121.0,12295.649921375505,1160.3461099083556,-59044.949298494976,-55785.17088713299,-33837.14364017769,-31092.327069321524,-7565.193780087684,-20839.671294649994,0.0,0.0,0.0,193.0,1.0,154.0,0.0,44.0,3.0,249.0,410.0,44.0,1017.0,1744252823.1975715,0.0,2025-04-09 22:40:23.197,FORWARD,31
122.0,12241.13401664901,1164.65999658823,-59020.608248783145,-55727.12340678256,-33803.45956128354,-31071.62935395591,-7423.439016752126,-20820.06881476269,0.0,0.0,0.0,193.0,1.0,155.0,0.0,44.0,3.0,252.0,411.0,44.0,1020.0,1744252823.338929,0.0,2025-04-09 22:40:23.338,FORWARD,31
123.0,12167.194445990855,1143.3811358667774,-59063.12126673714,-55791.56348604721,-33824.71607026053,-31090.114246620447,-7437.699429714612,-20828.98716080036,0.0,0.0,0.0,193.0,1.0,155.0,0.0,44.0,3.0,251.0,411.0,44.0,1019.0,1744252823.338968,0.0,2025-04-09 22:40:23.338,FORWARD,31
124.0,12200.543248718173,1129.8359787268614,-59051.94539450949,-55729.17976727245,-33867.78788182591,-31133.610741330474,-7329.338172595284,-20865.50991124033,0.0,0.0,0.0,193.0,1.0,155.0,0.0,44.0,3.0,251.0,411.0,44.0,1019.0,1744252823.3389795,0.0,2025-04-09 22:40:23.338,FORWARD,31
125.0,12284.854028803591,1152.4112406267216,-59063.76946732635,-55788.09896565664,-33863.87632654623,-31120.914950479862,-7499.613761855813,-20874.65177472255,0.0,0.0,0.0,193.0,1.0,155.0,0.0,44.0,3.0,252.0,411.0,44.0,1020.0,1744252823.3389895,0.0,2025-04-09 22:40:23.338,FORWARD,31
126.0,12237.065999158145,1157.9991767405484,-59025.30211511876,-55743.23901453484,-33812.087334643285,-31073.506900490156,-7488.370834394794,-20829.858878834115,0.0,0.0,0.0,193.0,1.0,155.0,0.0,44.0,3.0,250.0,411.0,44.0,1018.0,1744252823.3389993,0.0,2025-04-09 22:40:23.338,FORWARD,31
127.0,12176.872751340003,1153.9982144830483,-59062.51776963685,-55790.80352673573,-33837.948302978075,-31101.804208970574,-7433.474950012559,-20872.282489810288,0.0,0.0,0.0,193.0,1.0,154.0,0.0,44.0,3.0,251.0,410.0,44.0,1019.0,1744252823.3390088,0.0,2025-04-09 22:40:23.339,FORWARD,31
128.0,12175.129315272488,1122.4151995676993,-59063.54594988179,-55757.05239260822,-33883.65762038918,-31137.902276265893,-7392.146574514696,-20889.292167340776,0.0,0.0,0.0,193.0,1.0,155.0,0.0,44.0,3.0,252.0,411.0,44.0,1020.0,1744252823.339018,0.0,2025-04-09 22:40:23.339,FORWARD,31
129.0,12286.396299171007,1151.6736330596964,-59064.17179872654,-55772.54215151574,-33883.14353026671,-31128.358081383478,-7429.764560432978,-20872.774228188304,0.0,0.0,0.0,193.0,1.0,154.0,0.0,44.0,3.0,250.0,410.0,44.0,1018.0,1744252823.3390577,0.0,2025-04-09 22:40:23.339,FORWARD,31
130.0,12247.191339396399,1157.3509761513444,-59022.48579531739,-55752.82791290616,-33813.29432884388,-31065.840252141985,-7538.774018141511,-20816.425480416478,0.0,0.0,0.0,193.0,1.0,154.0,0.0,44.0,3.0,249.0,410.0,44.0,1017.0,1744252823.3390672,0.0,2025-04-09 22:40:23.339,FORWARD,31
131.0,12195.581161449094,1164.3247204214001,-59048.302060163274,-55769.03292763626,-33824.20198013807,-31085.263918073648,-7393.577086159836,-20837.167899271,0.0,0.0,0.0,193.0,1.0,155.0,0.0,44.0,3.0,251.0,411.0,44.0,1019.0,1744252823.3390765,0.0,2025-04-09 22:40:23.339,FORWARD,31
132.0,12162.366469188508,1124.6503740132302,-59061.578996369724,-55771.04458463724,-33863.87632654623,-31127.464011605265,-7420.935621373132,-20885.89470218357,0.0,0.0,0.0,193.0,1.0,154.0,0.0,44.0,3.0,250.0,410.0,44.0,1018.0,1744252823.3390856,0.0,2025-04-09 22:40:23.339,FORWARD,31
133.0,12272.068830975155,1142.2411968995568,-59070.45263891848,-55760.539264743245,-33897.62746067375,-31148.988741515728,-7363.759859056457,-20906.346548360176,0.0,0.0,0.0,193.0,1.0,154.0,0.0,44.0,3.0,249.0,410.0,44.0,1017.0,1744252823.3390949,0.0,2025-04-09 22:40:23.339,FORWARD,31
134.0,12247.884243474513,1150.690156303663,-59033.39344661158,-55775.24671259484,-33822.480895815,-31072.97045862323,-7591.188858889206,-20838.4195969605,0.0,0.0,0.0,193.0,1.0,155.0,0.0,44.0,3.0,251.0,411.0,44.0,1019.0,1744252823.3391037,0.0,2025-04-09 22:40:23.339,FORWARD,31
135.0,12190.619074180016,1157.0827552178807,-59052.012449742855,-55765.09902061213,-33830.86279998574,-31082.447598272276,-7378.020272018943,-20827.73546311086,0.0,0.0,0.0,193.0,1.0,154.0,0.0,44.0,3.0,249.0,410.0,44.0,1017.0,1744252823.3391125,0.0,2025-04-09 22:40:23.339,FORWARD,31
136.0,12151.436466149864,1127.8019699814286,-59068.46333366196,-55792.30109361424,-33862.0434835009,-31114.29883412109,-7465.393241094737,-20865.599318218152,0.0,0.0,0.0,193.0,1.0,155.0,0.0,44.0,3.0,251.0,411.0,44.0,1019.0,1744252823.3391216,0.0,2025-04-09 22:40:23.339,FORWARD,31
137.0,12257.048458701189,1132.6522985282302,-59067.88218830612,-55747.79877040372,-33895.45934146158,-31156.141299741426,-7307.321704306806,-20898.36697558963,0.0,0.0,0.0,193.0,1.0,155.0,0.0,44.0,3.0,252.0,411.0,44.0,1020.0,1744252823.3391302,0.0,2025-04-09 22:40:23.339,FORWARD,31
138.0,12260.200054669387,1144.3869643672663,-59044.792836283785,-55795.18446864897,-33824.89488421618,-31081.844101171984,-7588.126669898828,-20825.70145436543,0.0,0.0,0.0,193.0,1.0,154.0,0.0,44.0,3.0,250.0,410.0,44.0,1018.0,1744252823.3391392,0.0,2025-04-09 22:40:23.339,FORWARD,31
139.0,12210.959161634346,1161.03901398647,-59042.37884788262,-55751.66562219449,-33822.07856441481,-31086.001525640673,-7351.868731006233,-20825.50028866533,0.0,0.0,0.0,193.0,1.0,154.0,0.0,44.0,3.0,249.0,410.0,44.0,1017.0,1744252823.339148,0.0,2025-04-09 22:40:23.339,FORWARD,31
140.0,12157.69495459735,1137.659089286219,-59059.276766690826,-55793.8210122372,-33839.26705590094,-31103.659403760365,-7444.04732513992,-20851.964754100412,0.0,0.0,0.0,193.0,1.0,155.0,0.0,44.0,3.0,252.0,411.0,44.0,1020.0,1744252823.3391569,0.0,2025-04-09 22:40:23.339,FORWARD,31
141.0,12242.251603871777,1139.8942637317496,-59049.53140610831,-55723.770645114266,-33876.058027274375,-31147.6029333595,-7252.112895502198,-20885.93940567248,0.0,0.0,0.0,193.0,1.0,154.0,0.0,44.0,3.0,250.0,410.0,44.0,1018.0,1744252823.339166,0.0,2025-04-09 22:40:23.339,FORWARD,31
142.0,12266.078563461133,1145.2586824010232,-59046.11158920665,-55796.45851808292,-33832.47212558653,-31091.745923965686,-7561.483390508103,-20849.059027321226,0.0,0.0,0.0,193.0,1.0,154.0,0.0,44.0,3.0,249.0,410.0,44.0,1017.0,1744252823.3391747,0.0,2025-04-09 22:40:23.339,FORWARD,31
143.0,12212.412025023941,1151.9865574820708,-59027.1349581641,-55736.779360387256,-33810.343898575775,-31078.49133950369,-7363.223417189529,-20816.69370134994,0.0,0.0,0.0,193.0,1.0,155.0,0.0,44.0,3.0,253.0,411.0,44.0,1021.0,1744252823.339204,0.0,2025-04-09 22:40:23.339,FORWARD,31
144.0,12146.004992247224,1132.2946706169453,-59063.97063302644,-55801.778233263285,-33837.27775064442,-31105.715764250253,-7431.731513945046,-20849.953097099435,0.0,0.0,0.0,193.0,1.0,154.0,0.0,44.0,3.0,251.0,410.0,44.0,1019.0,1744252823.3392184,0.0,2025-04-09 22:40:23.339,FORWARD,31
145.0,12209.528649989206,1126.9302519476714,-59051.096028220185,-55728.50921493879,-33882.02594304394,-31147.424119403855,-7281.505439460927,-20886.632309750596,0.0,0.0,0.0,193.0,1.0,154.0,0.0,44.0,3.0,249.0,410.0,44.0,1017.0,1744252823.3392272,0.0,2025-04-09 22:40:23.339,FORWARD,31
146.0,12280.271921190253,1150.0643074589143,-59046.692734562486,-55789.32831160168,-33842.37394838023,-31101.513636292653,-7519.953849310143,-20858.022076847803,0.0,0.0,0.0,193.0,1.0,154.0,0.0,44.0,3.0,251.0,410.0,44.0,1019.0,1744252823.339236,0.0,2025-04-09 22:40:23.339,FORWARD,31
147.0,12221.665647228438,1149.3266998918891,-59019.37890283811,-55732.17490102946,-33807.63933749668,-31072.635182456397,-7401.713121141568,-20810.569323369185,0.0,0.0,0.0,193.0,1.0,154.0,0.0,44.0,3.0,251.0,410.0,44.0,1019.0,1744252823.339245,0.0,2025-04-09 22:40:23.339,FORWARD,31
148.0,12153.492826639751,1135.7815427519731,-59061.690755092,-55796.79379424975,-33832.89680873118,-31102.25124385968,-7398.807394362378,-20840.83358536167,0.0,0.0,0.0,193.0,1.0,155.0,0.0,44.0,3.0,251.0,411.0,44.0,1019.0,1744252823.339254,0.0,2025-04-09 22:40:23.339,FORWARD,31
149.0,12174.347004216554,1113.3403913188447,-59059.70144983548,-55744.98245060235,-33879.58960289831,-31150.665122349874,-7302.627837971192,-20878.89860616906,0.0,0.0,0.0,193.0,1.0,155.0,0.0,44.0,3.0,252.0,411.0,44.0,1020.0,1744252823.3392625,0.0,2025-04-09 22:40:23.339,FORWARD,31
150.0,12274.1475432095,1138.687269531163,-59063.5906533707,-55784.34387258815,-33871.9453062946,-31125.519409837656,-7436.917118658676,-20868.61680371962,0.0,0.0,0.0,193.0,1.0,154.0,0.0,44.0,3.0,249.0,410.0,44.0,1017.0,1744252823.3392713,0.0,2025-04-09 22:40:23.339,FORWARD,31
151.0,12239.882318959513,1159.6979093191517,-59012.91924869052,-55733.42659871896,-33802.587843249785,-31064.14151956338,-7447.42243855267,-20816.58194262766,0.0,0.0,0.0,193.0,1.0,155.0,0.0,44.0,3.0,249.0,411.0,44.0,1017.0,1744252823.33928,0.0,2025-04-09 22:40:23.339,FORWARD,31
152.0,12177.140972273466,1153.7970487829505,-59049.33024040821,-55776.967796917896,-33823.553779548856,-31086.090932618492,-7350.304108894362,-20824.092128764645,0.0,0.0,0.0,193.0,1.0,154.0,0.0,44.0,3.0,250.0,410.0,44.0,1018.0,1744252823.3392887,0.0,2025-04-09 22:40:23.339,FORWARD,31
153.0,12157.873768552992,1107.5959929938308,-59063.70241209298,-55766.194256090435,-33877.77911159743,-31138.952808255293,-7340.715210523035,-20874.092981111167,0.0,0.0,0.0,193.0,1.0,154.0,0.0,44.0,3.0,249.0,410.0,44.0,1017.0,1744252823.3392975,0.0,2025-04-09 22:40:23.339,FORWARD,31
154.0,12272.314700164165,1140.3189468764003,-59062.87539754813,-55770.44108753694,-33878.784940097925,-31133.58838958602,-7345.498483836471,-20871.924861899002,0.0,0.0,0.0,193.0,1.0,155.0,0.0,44.0,3.0,252.0,411.0,44.0,1020.0,1744252823.339306,0.0,2025-04-09 22:40:23.339,FORWARD,31
155.0,12246.56549055165,1155.9651679951153,-59013.567449279726,-55751.7103256834,-33799.100971114756,-31057.838327626985,-7478.491363345548,-20804.623759344075,0.0,0.0,0.0,193.0,1.0,154.0,0.0,44.0,3.0,249.0,410.0,44.0,1017.0,1744252823.339315,0.0,2025-04-09 22:40:23.339,FORWARD,31
156.0,12181.901893842447,1152.6124063268194,-59055.67813583352,-55777.14661087354,-33830.57222730783,-31093.712877477752,-7318.721093979013,-20843.69460865195,0.0,0.0,0.0,193.0,1.0,154.0,0.0,44.0,3.0,249.0,410.0,44.0,1017.0,1744252823.4439323,0.0,2025-04-09 22:40:23.443,FORWARD,31
157.0,12158.074934253089,1122.817530967895,-59057.75684806787,-55774.95613991692,-33855.9414572646,-31118.813886501062,-7358.976585743021,-20860.860748393625,0.0,0.0,0.0,193.0,1.0,155.0,0.0,44.0,3.0,252.0,411.0,44.0,1020.0,1744252823.4439604,0.0,2025-04-09 22:40:23.443,FORWARD,31
158.0,12279.266092689764,1144.1634469227133,-59054.35938291066,-55746.88234888105,-33882.24946048849,-31142.931418768338,-7265.032203797366,-20882.698402726463,0.0,0.0,0.0,193.0,1.0,155.0,0.0,44.0,3.0,250.0,411.0,44.0,1018.0,1744252823.443972,0.0,2025-04-09 22:40:23.443,FORWARD,31
159.0,12266.033859972224,1158.334452907378,-59016.71904524792,-55766.57423574618,-33806.231177596,-31057.2795340156,-7521.741988866567,-20812.245704203335,0.0,0.0,0.0,193.0,1.0,154.0,0.0,44.0,3.0,249.0,410.0,44.0,1017.0,1744252823.4440134,0.0,2025-04-09 22:40:23.444,FORWARD,31
160.0,12212.434376768397,1167.1410402227689,-59032.96876346693,-55746.70353492541,-33817.65291901266,-31070.757635922153,-7308.372236296205,-20822.013416530302,0.0,0.0,0.0,193.0,1.0,155.0,0.0,44.0,3.0,249.0,411.0,44.0,1017.0,1744252823.4440231,0.0,2025-04-09 22:40:23.444,FORWARD,31
161.0,12159.863073809514,1135.3121561184116,-59055.45461838897,-55785.506163299826,-33849.280637416916,-31107.615662528955,-7398.472118195548,-20864.258213550835,0.0,0.0,0.0,193.0,1.0,155.0,0.0,44.0,3.0,251.0,411.0,44.0,1019.0,1744252823.4440327,0.0,2025-04-09 22:40:23.444,FORWARD,31
162.0,12269.297214662698,1159.0944122188585,-59042.557661838255,-55723.971810814364,-33877.309724963874,-31138.192848943814,-7229.269412668874,-20880.530283514297,0.0,0.0,0.0,193.0,1.0,154.0,0.0,44.0,3.0,250.0,410.0,44.0,1018.0,1744252823.4440415,0.0,2025-04-09 22:40:23.444,FORWARD,31
163.0,12266.436191372419,1155.2499121725455,-59033.84048150069,-55787.62957902308,-33824.71607026053,-31072.94810687877,-7537.9246518522095,-20830.104748023125,0.0,0.0,0.0,193.0,1.0,154.0,0.0,44.0,3.0,251.0,410.0,44.0,1019.0,1744252823.4440508,0.0,2025-04-09 22:40:23.444,FORWARD,31
164.0,12209.841574411581,1156.7698307955063,-59034.89101349009,-55747.77641865926,-33822.0338609259,-31082.20172908327,-7312.976695653999,-20827.534297410763,0.0,0.0,0.0,193.0,1.0,155.0,0.0,44.0,3.0,252.0,411.0,44.0,1020.0,1744252823.44406,0.0,2025-04-09 22:40:23.444,FORWARD,31
165.0,12141.825216034082,1123.2645658570011,-59070.050307518286,-55815.59161133666,-33850.91231476216,-31123.01601445866,-7405.714083399068,-20879.14447535807,0.0,0.0,0.0,193.0,1.0,155.0,0.0,44.0,3.0,251.0,411.0,44.0,1019.0,1744252823.444069,0.0,2025-04-09 22:40:23.444,FORWARD,31
166.0,12233.601478767572,1132.428781083677,-59050.31371716425,-55737.44991272091,-33886.85391984629,-31159.11408175398,-7235.505549371905,-20912.023891451823,0.0,0.0,0.0,193.0,1.0,154.0,0.0,45.0,3.0,249.0,410.0,45.0,1017.0,1744252823.4440782,0.0,2025-04-09 22:40:23.444,FORWARD,31
167.0,12275.935682765923,1147.3597463798221,-59042.51295834935,-55801.934695474476,-33838.90942798965,-31089.287232075603,-7526.212337757628,-20840.341846983654,0.0,0.0,0.0,193.0,1.0,154.0,0.0,44.0,3.0,251.0,410.0,44.0,1019.0,1744252823.4440873,0.0,2025-04-09 22:40:23.444,FORWARD,31
168.0,12220.972743150323,1156.1216302063026,-59024.54215580728,-55742.97079360137,-33820.625701025216,-31076.122054591426,-7347.26427164844,-20818.615951373096,0.0,0.0,0.0,193.0,1.0,155.0,0.0,44.0,3.0,252.0,411.0,44.0,1020.0,1744252823.444096,0.0,2025-04-09 22:40:23.444,FORWARD,31
169.0,12154.185730717867,1137.167350908202,-59061.444885902994,-55810.316599645215,-33844.944398992586,-31105.224025872234,-7410.072673567853,-20860.950155371447,0.0,0.0,0.0,193.0,1.0,155.0,0.0,44.0,3.0,250.0,411.0,44.0,1018.0,1744252823.444105,0.0,2025-04-09 22:40:23.444,FORWARD,31
170.0,12214.289571558187,1138.2402346420567,-59040.680115304014,-55732.37606672956,-33875.65569587418,-31147.044139748115,-7252.001136779922,-20897.22703662241,0.0,0.0,0.0,193.0,1.0,154.0,0.0,45.0,3.0,249.0,410.0,45.0,1017.0,1744252823.4441142,0.0,2025-04-09 22:40:23.444,FORWARD,31
171.0,12290.084337006134,1160.6366825862744,-59040.76952228183,-55790.15532614652,-33846.687835060104,-31107.526255551133,-7465.504999817014,-20873.713001455428,0.0,0.0,0.0,193.0,1.0,155.0,0.0,44.0,3.0,251.0,411.0,44.0,1019.0,1744252823.4441233,0.0,2025-04-09 22:40:23.444,FORWARD,31
172.0,12239.658801514961,1166.7610605670286,-59002.503335774345,-55730.2526510063,-33795.949375146556,-31061.01227533964,-7367.738469569501,-20799.16993369698,0.0,0.0,0.0,193.0,1.0,154.0,0.0,44.0,3.0,251.0,410.0,44.0,1019.0,1744252823.444132,0.0,2025-04-09 22:40:23.444,FORWARD,31
173.0,12163.618166878006,1143.3587841223223,-59054.806417799766,-55800.660646040524,-33829.298177873876,-31096.663307745854,-7346.437257103594,-20837.771396371296,0.0,0.0,0.0,193.0,1.0,154.0,0.0,44.0,3.0,249.0,410.0,44.0,1017.0,1744252823.444141,0.0,2025-04-09 22:40:23.444,FORWARD,31
174.0,12184.114716543523,1118.0119059100039,-59048.25735667436,-55751.59856696112,-33872.86172781727,-31140.048043733605,-7278.622064426192,-20882.296071326266,0.0,0.0,0.0,193.0,1.0,154.0,0.0,44.0,3.0,250.0,410.0,44.0,1018.0,1744252823.444156,0.0,2025-04-09 22:40:23.444,FORWARD,31
175.0,12274.929854265434,1133.3452026063446,-59061.10960973616,-55793.30692211472,-33878.80729184238,-31131.509677351678,-7392.861830337266,-20883.167789360024,0.0,0.0,0.0,193.0,1.0,155.0,0.0,45.0,3.0,252.0,411.0,45.0,1020.0,1744252823.444165,0.0,2025-04-09 22:40:23.444,FORWARD,31
176.0,12236.976592180323,1148.7902580249618,-59010.99699866736,-55753.23024430636,-33807.616985752225,-31068.455406243254,-7452.652746755212,-20824.20388748692,0.0,0.0,0.0,193.0,1.0,154.0,0.0,44.0,3.0,249.0,410.0,44.0,1017.0,1744252823.4441743,0.0,2025-04-09 22:40:23.444,FORWARD,31
177.0,12183.891199098969,1154.199380183146,-59039.11549319214,-55782.37691907608,-33821.34095684779,-31090.918909420838,-7334.501425564459,-20842.26409700681,0.0,0.0,0.0,193.0,1.0,155.0,0.0,44.0,3.0,251.0,411.0,44.0,1019.0,1744252823.444183,0.0,2025-04-09 22:40:23.444,FORWARD,31
178.0,12151.324707427586,1106.1878330931465,-59066.11640049415,-55786.02025342229,-33885.26694598996,-31147.960561270782,-7338.860015733245,-20884.71005972744,0.0,0.0,0.0,193.0,1.0,155.0,0.0,44.0,3.0,252.0,411.0,44.0,1020.0,1744252823.444192,0.0,2025-04-09 22:40:23.444,FORWARD,31
179.0,12266.056211716677,1134.1945688956462,-59066.31756619425,-55783.42745106548,-33897.739219396026,-31153.54849738461,-7333.7191145085235,-20895.61771102163,0.0,0.0,0.0,193.0,1.0,155.0,0.0,45.0,3.0,251.0,411.0,45.0,1019.0,1744252823.4442008,0.0,2025-04-09 22:40:23.444,FORWARD,31
180.0,12245.291441117697,1150.5113423480204,-59014.14859463556,-55768.31767181369,-33812.087334643285,-31068.522461476623,-7502.452433401637,-20817.364253683598,0.0,0.0,0.0,193.0,1.0,154.0,0.0,44.0,3.0,250.0,410.0,44.0,1018.0,1744252823.4442098,0.0,2025-04-09 22:40:23.444,FORWARD,31
181.0,12181.901893842447,1145.8845312457718,-59049.553757852766,-55784.05329991023,-33836.629550055215,-31103.190017126803,-7323.750236481457,-20851.897698867047,0.0,0.0,0.0,193.0,1.0,155.0,0.0,44.0,3.0,251.0,411.0,44.0,1019.0,1744252823.4442189,0.0,2025-04-09 22:40:23.444,FORWARD,31
182.0,12142.942803256847,1106.8360336823505,-59066.40697317207,-55804.639256553564,-33873.77814933994,-31146.150069969903,-7389.7772896024335,-20905.13955415959,0.0,0.0,0.0,193.0,1.0,155.0,0.0,44.0,3.0,253.0,411.0,44.0,1021.0,1744252823.914361,0.0,2025-04-09 22:40:23.914,FORWARD,31
183.0,12256.824941256637,1129.5677577933977,-59062.78599057031,-55768.65294798052,-33900.95787059759,-31166.557212657597,-7265.255721241918,-20916.449536853976,0.0,0.0,0.0,193.0,1.0,155.0,0.0,44.0,3.0,252.0,411.0,44.0,1020.0,1744252823.9143968,0.0,2025-04-09 22:40:23.914,FORWARD,31
184.0,12252.823978999137,1147.1585806797243,-59021.323504605716,-55788.568352290196,-33818.05525041286,-31069.39417951038,-7521.58552665538,-20822.751024097328,0.0,0.0,0.0,193.0,1.0,154.0,0.0,44.0,3.0,250.0,410.0,44.0,1018.0,1744252823.9144175,0.0,2025-04-09 22:40:23.914,FORWARD,31
185.0,12186.707518900337,1139.3354701203668,-59045.46338861745,-55774.240884094346,-33832.80740175336,-31095.72453447873,-7283.114765061709,-20842.040579562257,0.0,0.0,0.0,193.0,1.0,155.0,0.0,44.0,3.0,252.0,411.0,44.0,1020.0,1744252823.9144375,0.0,2025-04-09 22:40:23.914,FORWARD,31
186.0,12130.470529850785,1110.300554072923,-59069.692679607,-55814.071692713704,-33862.31170443436,-31119.797363257097,-7371.337100426806,-20876.59637649016,0.0,0.0,0.0,193.0,1.0,155.0,0.0,44.0,3.0,250.0,411.0,44.0,1018.0,1744252823.914455,0.0,2025-04-09 22:40:23.914,FORWARD,31
187.0,12238.47415905883,1136.2509293855346,-59055.007583499864,-55743.55193895721,-33898.54388219641,-31150.709825838785,-7200.927400699545,-20900.021004679325,0.0,0.0,0.0,193.0,1.0,154.0,0.0,45.0,3.0,249.0,410.0,45.0,1017.0,1744252823.9144728,0.0,2025-04-09 22:40:23.914,FORWARD,31
188.0,12264.893921005001,1154.84758077235,-59031.448844843966,-55798.76074776182,-33832.74034651999,-31074.669191201832,-7511.616648628313,-20846.26505926431,0.0,0.0,0.0,193.0,1.0,155.0,0.0,44.0,3.0,249.0,411.0,44.0,1017.0,1744252823.9144928,0.0,2025-04-09 22:40:23.914,FORWARD,31
189.0,12213.194336079876,1158.4462116296545,-59021.189394138986,-55745.25067153582,-33818.234064368495,-31068.231888798702,-7272.4976864454375,-20819.30885545121,0.0,0.0,0.0,193.0,1.0,155.0,0.0,44.0,3.0,251.0,411.0,44.0,1019.0,1744252823.9146118,0.0,2025-04-09 22:40:23.914,FORWARD,31
190.0,12143.658059079416,1125.0080019245152,-59061.377830669626,-55816.128053203596,-33850.64409382869,-31110.029650930126,-7349.164169927141,-20873.042449121767,0.0,0.0,0.0,193.0,1.0,154.0,0.0,44.0,3.0,250.0,410.0,44.0,1018.0,1744252823.9146216,0.0,2025-04-09 22:40:23.914,FORWARD,31
191.0,12214.84836516957,1121.9681646785932,-59053.51001662136,-55746.0106308473,-33899.30384150789,-31155.448395663312,-7189.930342427533,-20906.458307082452,0.0,0.0,0.0,193.0,1.0,155.0,0.0,44.0,3.0,251.0,411.0,44.0,1019.0,1744252823.9146304,0.0,2025-04-09 22:40:23.914,FORWARD,31
192.0,12274.773392054247,1150.0643074589143,-59038.35553388066,-55801.420605352,-33848.69949206108,-31086.381505296413,-7469.036575440953,-20844.923954596994,0.0,0.0,0.0,193.0,1.0,155.0,0.0,44.0,3.0,252.0,411.0,44.0,1020.0,1744252823.9146397,0.0,2025-04-09 22:40:23.914,FORWARD,31
193.0,12226.203051352866,1159.9661302526154,-59005.74433872037,-55735.17003478647,-33805.33710781778,-31065.90730737535,-7286.10989881872,-20812.580980370163,0.0,0.0,0.0,193.0,1.0,155.0,0.0,44.0,3.0,252.0,411.0,44.0,1020.0,1744252823.9146488,0.0,2025-04-09 22:40:23.914,FORWARD,31
194.0,12157.650251108438,1143.5823015668752,-59047.49739736288,-55803.29815188624,-33831.376890108215,-31096.77506646813,-7314.720131721513,-20847.85203312064,0.0,0.0,0.0,193.0,1.0,154.0,0.0,44.0,3.0,249.0,410.0,44.0,1017.0,1744252823.914658,0.0,2025-04-09 22:40:23.914,FORWARD,31
195.0,12195.424699237908,1129.3889438377553,-59041.998868226874,-55739.416866232976,-33881.42244594365,-31142.752604812697,-7198.42400532055,-20886.162923117034,0.0,0.0,0.0,193.0,1.0,155.0,0.0,44.0,3.0,250.0,411.0,44.0,1018.0,1744252823.914667,0.0,2025-04-09 22:40:23.914,FORWARD,31
196.0,12279.91429327897,1153.8194005274058,-59040.70246704847,-55787.00373017833,-33855.22620144203,-31100.127828136425,-7382.155344743174,-20856.65862043603,0.0,0.0,0.0,193.0,1.0,155.0,0.0,44.0,3.0,251.0,411.0,44.0,1019.0,1744252823.9146757,0.0,2025-04-09 22:40:23.914,FORWARD,31
197.0,12231.522766533228,1160.301406419445,-59004.671454986514,-55734.70064815291,-33805.091238628775,-31062.91217361834,-7335.64136453168,-20825.65675087652,0.0,0.0,0.0,193.0,1.0,154.0,0.0,44.0,3.0,250.0,410.0,44.0,1018.0,1744252823.9146845,0.0,2025-04-09 22:40:23.914,FORWARD,31
198.0,12156.845588308048,1139.3354701203668,-59053.621775343636,-55799.118375673104,-33835.62372155472,-31096.01510715665,-7292.971884366499,-20859.251422792844,0.0,0.0,0.0,193.0,1.0,154.0,0.0,44.0,3.0,249.0,410.0,44.0,1017.0,1744252823.914694,0.0,2025-04-09 22:40:23.914,FORWARD,31
199.0,12166.076858768089,1116.559042520409,-59051.76658055384,-55761.94742464393,-33880.50602442098,-31141.12092746746,-7249.810665823301,-20899.149286645566,0.0,0.0,0.0,193.0,1.0,155.0,0.0,44.0,3.0,252.0,411.0,44.0,1020.0,1744252823.914703,0.0,2025-04-09 22:40:23.914,FORWARD,31
200.0,12279.579017112139,1146.040993456959,-59051.230138686915,-55781.572256275686,-33879.12021626475,-31125.36294762647,-7318.117596878719,-20878.27275732431,0.0,0.0,0.0,193.0,1.0,154.0,0.0,45.0,3.0,250.0,410.0,45.0,1018.0,1744252823.9147117,0.0,2025-04-09 22:40:23.914,FORWARD,31
201.0,12242.117493405045,1155.3840226392774,-59006.61605675412,-55754.99603211833,-33811.394430565175,-31065.81790039753,-7402.428376964138,-20819.599428129128,0.0,0.0,0.0,193.0,1.0,155.0,0.0,44.0,3.0,252.0,411.0,44.0,1020.0,1744252823.9147208,0.0,2025-04-09 22:40:23.914,FORWARD,31
202.0,12179.152629274444,1154.3334906498778,-59039.20490016996,-55785.26029411081,-33826.99594819498,-31095.05398214507,-7268.720241632491,-20854.04346633476,0.0,0.0,0.0,193.0,1.0,155.0,0.0,44.0,3.0,252.0,411.0,44.0,1020.0,1744252823.91473,0.0,2025-04-09 22:40:23.914,FORWARD,31
203.0,12158.49961739774,1121.8117024674061,-59045.79866478428,-55777.75010797383,-33864.90450679118,-31130.705014551288,-7277.973863836988,-20884.553597516253,0.0,0.0,0.0,193.0,1.0,154.0,0.0,44.0,3.0,251.0,410.0,44.0,1019.0,1744252823.914739,0.0,2025-04-09 22:40:23.914,FORWARD,31
204.0,12275.332185665631,1149.7737347809953,-59046.24569967338,-55763.534398500255,-33881.26598373246,-31134.281293664135,-7227.481273112449,-20885.626481250107,0.0,0.0,0.0,193.0,1.0,154.0,0.0,45.0,3.0,249.0,410.0,45.0,1017.0,1744252823.9147549,0.0,2025-04-09 22:40:23.914,FORWARD,31
205.0,12258.031935457222,1164.3694239103108,-59000.15640260654,-55761.723907199375,-33799.503302514946,-31052.496260702166,-7435.330144802349,-20818.50419265082,0.0,0.0,0.0,193.0,1.0,155.0,0.0,44.0,3.0,251.0,411.0,44.0,1019.0,1744252823.9147637,0.0,2025-04-09 22:40:23.914,FORWARD,31
206.0,12199.515068473229,1165.5987698553527,-59023.826899984706,-55757.92411064197,-33811.99792766546,-31068.6342201989,-7227.078941712254,-20822.79572758624,0.0,0.0,0.0,193.0,1.0,155.0,0.0,44.0,3.0,252.0,411.0,44.0,1020.0,1744252823.9147727,0.0,2025-04-09 22:40:23.914,FORWARD,31
207.0,12143.792169546148,1116.6931529871408,-59055.52167362234,-55794.022177937295,-33861.48468988951,-31114.365889354456,-7302.806651926834,-20871.88015841009,0.0,0.0,0.0,193.0,1.0,154.0,0.0,44.0,3.0,250.0,410.0,44.0,1018.0,1744252823.9147818,0.0,2025-04-09 22:40:23.914,FORWARD,31
208.0,12262.837560515114,1139.1343044202692,-59050.045496230785,-55749.206930304405,-33895.23582401703,-31142.01499724567,-7181.928417912533,-20896.1318011441,0.0,0.0,0.0,193.0,1.0,155.0,0.0,44.0,3.0,251.0,411.0,44.0,1019.0,1744252823.9147906,0.0,2025-04-09 22:40:23.914,FORWARD,31
209.0,12273.186418197922,1160.9049035197381,-59007.71129223243,-55775.291416083746,-33815.14952363366,-31048.741167633674,-7471.204694653117,-20819.97940778487,0.0,0.0,0.0,193.0,1.0,156.0,0.0,44.0,3.0,252.0,412.0,44.0,1020.0,1744252823.9147997,0.0,2025-04-09 22:40:23.914,FORWARD,31
210.0,12210.176850578411,1163.6765198321964,-59019.691827260474,-55747.910529126,-33818.16700913513,-31064.633257941397,-7224.933174244545,-20821.3652159411,0.0,0.0,0.0,193.0,1.0,155.0,0.0,44.0,3.0,250.0,411.0,44.0,1018.0,1744252823.9148085,0.0,2025-04-09 22:40:23.914,FORWARD,31
211.0,12144.015686990702,1122.236385612057,-59052.437132887506,-55804.303980386736,-33844.9891024815,-31101.088953148002,-7306.382931039683,-20859.22907104839,0.0,0.0,0.0,193.0,1.0,155.0,0.0,44.0,3.0,251.0,411.0,44.0,1019.0,1744252823.914817,0.0,2025-04-09 22:40:23.914,FORWARD,31
212.0,12238.429455569918,1134.8651212293055,-59043.742304294385,-55737.673430165465,-33885.17753901214,-31142.372625156957,-7137.761370868847,-20896.109449399646,0.0,0.0,0.0,193.0,1.0,155.0,0.0,44.0,3.0,252.0,411.0,44.0,1020.0,1744252823.9148264,0.0,2025-04-09 22:40:23.914,FORWARD,31
213.0,12259.685964546916,1147.3150428909116,-59034.35457162316,-55803.99105596436,-33833.43325059811,-31077.66432495884,-7456.340784590338,-20850.578945944184,0.0,0.0,0.0,193.0,1.0,154.0,0.0,44.0,3.0,249.0,410.0,44.0,1017.0,1744252823.9148352,0.0,2025-04-09 22:40:23.914,FORWARD,31
214.0,12210.55683023415,1160.9049035197381,-59014.21564986893,-55743.37312500157,-33807.058192140845,-31064.745016663674,-7236.332563916751,-20818.794765328737,0.0,0.0,0.0,193.0,1.0,154.0,0.0,44.0,3.0,250.0,410.0,44.0,1018.0,1744252823.914844,0.0,2025-04-09 22:40:23.914,FORWARD,31
215.0,12149.044829493145,1131.6911735166518,-59048.14559795208,-55807.09794844365,-33828.11353541774,-31092.036496643606,-7302.136099593175,-20851.003629088835,0.0,0.0,0.0,193.0,1.0,155.0,0.0,44.0,3.0,252.0,411.0,44.0,1020.0,1744252823.9148529,0.0,2025-04-09 22:40:23.914,FORWARD,31
216.0,12209.372187778019,1116.5366907759537,-59046.9386037515,-55742.434351734446,-33881.26598373246,-31145.144241469414,-7141.6505744040705,-20889.739202229885,0.0,0.0,0.0,193.0,1.0,154.0,0.0,45.0,3.0,250.0,410.0,45.0,1018.0,1744252823.9148617,0.0,2025-04-09 22:40:23.914,FORWARD,31
217.0,12259.708316291371,1130.975917694082,-59055.87930153362,-55818.542041604764,-33855.47207063104,-31097.892653690895,-7411.033798579431,-20855.65279193554,0.0,0.0,0.0,193.0,1.0,154.0,0.0,45.0,3.0,251.0,410.0,45.0,1019.0,1744252823.9148705,0.0,2025-04-09 22:40:23.914,FORWARD,31
218.0,12215.071882614122,1146.6668423017077,-59017.903687704056,-55752.5596919727,-33814.47897130001,-31069.796510910575,-7284.142945306653,-20823.35452119762,0.0,0.0,0.0,193.0,1.0,155.0,0.0,44.0,3.0,252.0,411.0,44.0,1020.0,1744252823.9148843,0.0,2025-04-09 22:40:23.914,FORWARD,31
219.0,12151.92820452788,1136.2285776410793,-59051.20778694246,-55810.56246883422,-33832.36036686425,-31095.54572052309,-7292.323683777295,-20850.824815133194,0.0,0.0,0.0,193.0,1.0,154.0,0.0,45.0,3.0,250.0,410.0,45.0,1018.0,1744252823.9148932,0.0,2025-04-09 22:40:23.914,FORWARD,31
220.0,12186.148725288955,1123.7116007461073,-59039.629583314614,-55745.25067153582,-33871.87825106124,-31140.629189089443,-7178.955635899978,-20889.98507141889,0.0,0.0,0.0,193.0,1.0,154.0,0.0,45.0,3.0,250.0,410.0,45.0,1018.0,1744252823.9149024,0.0,2025-04-09 22:40:23.914,FORWARD,31
221.0,12276.62858684404,1149.974900481093,-59044.72578105042,-55795.340930860155,-33857.55078286538,-31119.529142323634,-7340.402286100661,-20890.096830141167,0.0,0.0,0.0,193.0,1.0,155.0,0.0,45.0,3.0,251.0,411.0,45.0,1019.0,1744252823.9149113,0.0,2025-04-09 22:40:23.914,FORWARD,31
222.0,12228.549984520672,1151.5171708485093,-59006.30313233175,-55749.51985472678,-33807.77344796341,-31064.029760841106,-7321.157434124641,-20825.612047387607,0.0,0.0,0.0,193.0,1.0,154.0,0.0,44.0,3.0,250.0,410.0,44.0,1018.0,1744252823.91492,0.0,2025-04-09 22:40:23.914,FORWARD,31
223.0,12153.962213273313,1131.333545605367,-59055.09699047769,-55806.89678274355,-33842.97744548052,-31091.522406521133,-7257.589072893748,-20839.671294649994,0.0,0.0,0.0,193.0,1.0,154.0,0.0,44.0,3.0,251.0,410.0,44.0,1019.0,1744252823.9149287,0.0,2025-04-09 22:40:23.914,FORWARD,31
224.0,12155.504483640729,1104.2879348144454,-59052.88416777661,-55772.765668960295,-33883.72467562254,-31133.990720986218,-7231.9069185146,-20881.3796498036,0.0,0.0,0.0,193.0,1.0,155.0,0.0,44.0,3.0,252.0,411.0,44.0,1020.0,1744252823.9149373,0.0,2025-04-09 22:40:23.914,FORWARD,31
225.0,12262.52463609274,1130.2159583826017,-59056.37103991164,-55790.669416269,-33885.89279483471,-31137.567000099065,-7274.688157402058,-20900.959777946446,0.0,0.0,0.0,193.0,1.0,154.0,0.0,45.0,3.0,250.0,410.0,45.0,1018.0,1744252823.914946,0.0,2025-04-09 22:40:23.914,FORWARD,31
226.0,12239.010600925756,1150.1313626922802,-58998.90470491704,-55758.95229088692,-33799.12332285921,-31060.520536961623,-7373.326405683328,-20829.098919522636,0.0,0.0,0.0,193.0,1.0,154.0,0.0,44.0,3.0,249.0,410.0,44.0,1017.0,1744252823.914955,0.0,2025-04-09 22:40:23.914,FORWARD,31
227.0,12175.397536205952,1151.2265981705903,-59032.32056287773,-55778.8676951966,-33822.011509181444,-31080.123016848927,-7215.120758428665,-20835.13389052557,0.0,0.0,0.0,193.0,1.0,154.0,0.0,44.0,3.0,252.0,410.0,44.0,1020.0,1744252823.9149635,0.0,2025-04-09 22:40:23.914,FORWARD,31
