Sample Index,EXG Channel 0,EXG Channel 1,EXG Channel 2,EXG Channel 3,EXG Channel 4,EXG Channel 5,EXG Channel 6,EXG Channel 7,Accel Channel 0,Accel Channel 1,Accel Channel 2,Not Used,Digital Channel 0 (D11),Digital Channel 1 (D12),Digital Channel 2 (D13),Digital Channel 3 (D17),Not Used,Digital Channel 4 (D18),Analog Channel 0,Analog Channel 1,Analog Channel 2,Timestamp,Marker Channel,Timestamp (Formatted),Stimulus_Direction,Stimulus_Number
48.0,7229.939965002533,-11263.245196729327,-21575.46837037425,-23736.479727802245,14739.321439185314,12584.00977659342,32681.17847218257,52038.549129789964,0.0,0.0,0.0,193.0,0.0,192.0,0.0,1.0,0.0,178.0,192.0,1.0,178.0,1744418838.0933895,0.0,2025-04-11 20:47:18.093,FORWARD,39
49.0,7210.985685704432,-11284.211133028404,-21603.497457921203,-23778.545710867133,14745.423465421614,12367.77900073278,32915.6706232632,51934.52411109497,0.0,0.0,0.0,193.0,0.0,192.0,0.0,1.0,0.0,178.0,192.0,1.0,178.0,1744418838.0934243,0.0,2025-04-11 20:47:18.093,FORWARD,39
50.0,7216.886546240634,-11263.938100807442,-21633.71701642478,-23744.816928484077,14627.182737253039,12439.08106554521,32735.00147283095,51886.66902621616,0.0,0.0,0.0,193.0,0.0,193.0,0.0,1.0,0.0,179.0,193.0,1.0,179.0,1744418838.0934567,0.0,2025-04-11 20:47:18.093,FORWARD,39
51.0,7238.880662784656,-11230.432835868936,-21626.6538651769,-23712.049271112595,14567.21300687945,12653.41194312715,32488.886414633565,51993.53271645698,0.0,0.0,0.0,193.0,0.0,193.0,0.0,1.0,0.0,179.0,193.0,1.0,179.0,1744418838.0934887,0.0,2025-04-11 20:47:18.093,FORWARD,39
52.0,7236.489026127938,-11254.84094081413,-21571.020373227642,-23723.985102651728,14723.429348877591,12624.198213124064,32625.276759299846,52030.323687830416,0.0,0.0,0.0,193.0,0.0,193.0,0.0,1.0,0.0,179.0,193.0,1.0,179.0,1744418838.0935342,0.0,2025-04-11 20:47:18.093,FORWARD,39
53.0,7225.022581222365,-11285.418127228992,-21584.856103045477,-23766.699286305822,14781.186256550105,12414.717664088925,32933.1720391717,51950.0138700025,0.0,0.0,0.0,193.0,0.0,192.0,0.0,1.0,0.0,178.0,192.0,1.0,178.0,1744418838.0935662,0.0,2025-04-11 20:47:18.093,FORWARD,39
54.0,7229.805854535802,-11265.23450198585,-21627.23501053274,-23746.806233740597,14652.082580576252,12407.810975052236,32798.07809568383,51862.97617709353,0.0,0.0,0.0,193.0,0.0,193.0,0.0,1.0,0.0,179.0,193.0,1.0,179.0,1744418838.0935977,0.0,2025-04-11 20:47:18.093,FORWARD,39
55.0,7236.9584127615,-11235.149053949006,-21636.063949592586,-23718.620683982455,14574.142047660596,12635.50819581845,32539.513115824833,51963.827248075875,0.0,0.0,0.0,193.0,0.0,193.0,0.0,1.0,0.0,179.0,193.0,1.0,179.0,1744418838.093629,0.0,2025-04-11 20:47:18.093,FORWARD,39
56.0,7245.474427398972,-11241.966336007874,-21573.389658139906,-23713.323320546548,14705.43619459107,12631.775454494413,32572.54899412978,52005.490899740566,0.0,0.0,0.0,193.0,0.0,192.0,0.0,1.0,0.0,178.0,192.0,1.0,178.0,1744418838.0936604,0.0,2025-04-11 20:47:18.093,FORWARD,39
57.0,7226.9448312455215,-11280.187819026449,-21574.149617451385,-23754.98697221124,14810.444690042103,12452.290946518297,32932.45678334913,51959.200436973624,0.0,0.0,0.0,193.0,0.0,192.0,0.0,1.0,0.0,178.0,192.0,1.0,178.0,1744418838.0936916,0.0,2025-04-11 20:47:18.093,FORWARD,39
58.0,7221.580412576248,-11282.959435338907,-21621.669426163367,-23748.102634919007,14681.38571755716,12380.944178216956,32849.88943933123,51841.630261138715,0.0,0.0,0.0,193.0,0.0,193.0,0.0,1.0,0.0,178.0,193.0,1.0,178.0,1744418838.0937228,0.0,2025-04-11 20:47:18.093,FORWARD,39
59.0,7231.14695920312,-11258.37251643807,-21644.57996423006,-23723.739233462722,14572.108038915163,12622.45477705655,32592.77732286183,51939.217977430584,0.0,0.0,0.0,193.0,0.0,193.0,0.0,1.0,0.0,179.0,193.0,1.0,179.0,1744418838.0937543,0.0,2025-04-11 20:47:18.093,FORWARD,39
60.0,7249.38598267865,-11246.816664554675,-21590.26522520366,-23718.441870026814,14662.722010936977,12667.65000434518,32538.44023209098,52003.65805669523,0.0,0.0,0.0,193.0,0.0,192.0,0.0,1.0,0.0,179.0,192.0,1.0,179.0,1744418838.0937855,0.0,2025-04-11 20:47:18.093,FORWARD,39
61.0,7211.991514204921,-11294.135307566561,-21584.163198967362,-23770.454379374314,14803.649759727688,12499.85545871919,32911.312033094415,51989.15177454374,0.0,0.0,0.0,193.0,0.0,193.0,0.0,1.0,0.0,179.0,193.0,1.0,179.0,1744418838.0938168,0.0,2025-04-11 20:47:18.093,FORWARD,39
62.0,7218.920554986067,-11272.990557311841,-21620.66359766288,-23765.715809549787,14696.137868897662,12340.845148664135,32878.70083793412,51843.4854559285,0.0,0.0,0.0,193.0,0.0,192.0,0.0,1.0,0.0,178.0,192.0,1.0,178.0,1744418838.093848,0.0,2025-04-11 20:47:18.093,FORWARD,39
63.0,7226.587203334237,-11240.26760342927,-21642.545955484624,-23727.091995131017,14588.98360597892,12587.63075919518,32643.605189753198,51921.962430711086,0.0,0.0,0.0,193.0,0.0,192.0,0.0,1.0,0.0,178.0,192.0,1.0,178.0,1744418838.093879,0.0,2025-04-11 20:47:18.093,FORWARD,39
64.0,7235.259680182896,-11233.673838814955,-21606.69375737831,-23717.88307641543,14633.195356511516,12695.097946536298,32520.022394659805,52010.90002189875,0.0,0.0,0.0,193.0,0.0,192.0,0.0,1.0,0.0,178.0,192.0,1.0,178.0,1744418838.0939236,0.0,2025-04-11 20:47:18.093,FORWARD,39
65.0,7211.075092682254,-11283.965263839396,-21582.6432803444,-23761.17840542536,14802.17454459364,12559.489912925948,32866.87676511726,52021.40534179275,0.0,0.0,0.0,193.0,0.0,192.0,0.0,1.0,0.0,178.0,192.0,1.0,178.0,1744418838.0939553,0.0,2025-04-11 20:47:18.093,FORWARD,39
66.0,7211.365665360173,-11286.178086540473,-21612.1028795365,-23769.582661340555,14733.19706120456,12356.312555827208,32917.05643141943,51871.80511615338,0.0,0.0,0.0,193.0,0.0,192.0,0.0,1.0,0.0,179.0,192.0,1.0,179.0,1744418838.0939867,0.0,2025-04-11 20:47:18.093,FORWARD,39
67.0,7212.058569438287,-11276.835057358154,-21645.965772386287,-23740.27952435965,14609.524859133347,12550.660973866103,32709.94516729655,51917.268564375474,0.0,0.0,0.0,193.0,0.0,193.0,0.0,1.0,0.0,179.0,193.0,1.0,179.0,1744418838.094031,0.0,2025-04-11 20:47:18.094,FORWARD,39
68.0,7235.639659838636,-11241.407542396491,-21616.819097616568,-23721.079375872538,14595.331501404227,12687.207780743574,32516.446115546958,52013.15754808874,0.0,0.0,0.0,193.0,0.0,192.0,0.0,1.0,0.0,178.0,192.0,1.0,178.0,1744418838.0940633,0.0,2025-04-11 20:47:18.094,FORWARD,39
69.0,7226.117816700676,-11260.94296705043,-21559.911556233354,-23742.13471914944,14787.042413597395,12579.427668980083,32792.71367701455,52015.95151614565,0.0,0.0,0.0,193.0,0.0,192.0,0.0,1.0,0.0,178.0,192.0,1.0,178.0,1744418838.0940948,0.0,2025-04-11 20:47:18.094,FORWARD,39
70.0,7226.274278911863,-11283.048842316728,-21598.647129374403,-23769.984992740752,14750.16203524614,12352.423352291984,32942.64917882075,51878.398880767694,0.0,0.0,0.0,193.0,0.0,193.0,0.0,1.0,0.0,179.0,193.0,1.0,179.0,1744418838.094126,0.0,2025-04-11 20:47:18.094,FORWARD,39
71.0,7236.019639494377,-11264.049859529718,-21632.398263501917,-23738.066701658572,14619.270219715861,12479.403612542585,32740.52235371141,51865.50192421698,0.0,0.0,0.0,193.0,0.0,192.0,0.0,1.0,0.0,178.0,192.0,1.0,178.0,1744418838.0941572,0.0,2025-04-11 20:47:18.094,FORWARD,39
72.0,7244.781523320857,-11235.149053949006,-21611.499382436203,-23711.55753273458,14587.016652466853,12669.281681690418,32501.515150250812,51966.8670853218,0.0,0.0,0.0,193.0,0.0,192.0,0.0,1.0,0.0,178.0,192.0,1.0,178.0,1744418838.094189,0.0,2025-04-11 20:47:18.094,FORWARD,39
73.0,7227.168348690075,-11257.970185037873,-21562.213785912252,-23734.244553356715,14767.596395921279,12606.92031466011,32707.33001319528,51991.498707711544,0.0,0.0,0.0,193.0,0.0,192.0,0.0,1.0,0.0,178.0,192.0,1.0,178.0,1744418838.0942209,0.0,2025-04-11 20:47:18.094,FORWARD,39
74.0,7210.940982215522,-11272.007080555806,-21594.51205665017,-23774.634155587453,14770.613881422745,12382.285282884275,32955.16615571573,51886.8478401718,0.0,0.0,0.0,193.0,0.0,193.0,0.0,1.0,0.0,179.0,193.0,1.0,179.0,1744418838.094252,0.0,2025-04-11 20:47:18.094,FORWARD,39
75.0,7211.633886293636,-11257.925481548964,-21628.15143205541,-23739.050178414607,14643.097179305218,12444.803112125768,32790.098522913286,51831.97430753402,0.0,0.0,0.0,193.0,0.0,192.0,0.0,1.0,0.0,178.0,192.0,1.0,178.0,1744418838.0942836,0.0,2025-04-11 20:47:18.094,FORWARD,39
76.0,7225.268450411374,-11241.541652863223,-21631.727711168256,-23714.284445558125,14567.995317935387,12663.470228132037,32544.58696181619,51939.03916347494,0.0,0.0,0.0,193.0,0.0,192.0,0.0,1.0,0.0,178.0,192.0,1.0,178.0,1744418838.0943153,0.0,2025-04-11 20:47:18.094,FORWARD,39
77.0,7242.81456980879,-11240.93815576293,-21565.387733624906,-23714.619721724954,14725.82098553431,12620.107843888742,32647.27087584387,51961.25679746352,0.0,0.0,0.0,193.0,0.0,192.0,0.0,1.0,0.0,178.0,192.0,1.0,178.0,1744418838.0943463,0.0,2025-04-11 20:47:18.094,FORWARD,39
78.0,7209.130490914642,-11284.479353961868,-21588.23121645823,-23775.952908510317,14792.11625958875,12406.559277362738,32978.79194960499,51891.74287220751,0.0,0.0,0.0,193.0,0.0,193.0,0.0,1.0,0.0,179.0,193.0,1.0,179.0,1744418838.0943775,0.0,2025-04-11 20:47:18.094,FORWARD,39
79.0,7216.707732284991,-11273.37053696758,-21632.71118792429,-23758.250326901714,14656.776446911867,12376.965567703912,32841.30636946039,51794.11045242673,0.0,0.0,0.0,193.0,0.0,193.0,0.0,1.0,0.0,178.0,193.0,1.0,178.0,1744418838.0944245,0.0,2025-04-11 20:47:18.094,FORWARD,39
80.0,7241.741686074935,-11241.899280774509,-21631.37008325697,-23711.758698434674,14578.902969229577,12622.320666589818,32572.8395668077,51889.21712508406,0.0,0.0,0.0,193.0,0.0,193.0,0.0,1.0,0.0,179.0,193.0,1.0,179.0,1744418838.094457,0.0,2025-04-11 20:47:18.094,FORWARD,39
81.0,7239.864139540689,-11236.736027805333,-21574.373134895937,-23711.26696005666,14689.834676961265,12641.319649376828,32585.825930336232,51940.00028848652,0.0,0.0,0.0,193.0,0.0,192.0,0.0,1.0,0.0,179.0,192.0,1.0,179.0,1744418838.094489,0.0,2025-04-11 20:47:18.094,FORWARD,39
82.0,7212.930287472044,-11269.23546424335,-21571.80268428358,-23764.866443260486,14798.106527102773,12469.859417660167,32950.740510313575,51905.869174703264,0.0,0.0,0.0,193.0,0.0,193.0,0.0,1.0,0.0,179.0,193.0,1.0,179.0,1744418838.094522,0.0,2025-04-11 20:47:18.094,FORWARD,39
83.0,7225.737837044935,-11256.785542581743,-21606.850219589498,-23750.94130646483,14692.516886295902,12370.707079256426,32881.740675180044,51783.314559854814,0.0,0.0,0.0,193.0,0.0,193.0,0.0,1.0,0.0,178.0,193.0,1.0,178.0,1744418838.0945776,0.0,2025-04-11 20:47:18.094,FORWARD,39
84.0,7230.6999243140135,-11230.008152724286,-21626.787975643634,-23713.21156182427,14598.863077028165,12608.26141932743,32646.98030316595,51878.42123251215,0.0,0.0,0.0,193.0,0.0,192.0,0.0,1.0,0.0,178.0,192.0,1.0,178.0,1744418838.0946343,0.0,2025-04-11 20:47:18.094,FORWARD,39
85.0,7249.095410000731,-11210.31626585916,-21570.573338338538,-23697.565340705558,14675.350746554226,12660.7880187974,32573.26424995235,51939.73206755306,0.0,0.0,0.0,193.0,0.0,193.0,0.0,1.0,0.0,178.0,193.0,1.0,178.0,1744418838.0946822,0.0,2025-04-11 20:47:18.094,FORWARD,39
86.0,7218.965258474977,-11259.735972849843,-21557.184643409808,-23748.88494597494,14816.256143600482,12506.650389033603,32943.99028348807,51926.94686972462,0.0,0.0,0.0,193.0,0.0,193.0,0.0,0.0,0.0,179.0,193.0,0.0,179.0,1744418838.0947227,0.0,2025-04-11 20:47:18.094,FORWARD,39
87.0,7222.943868988022,-11252.873987302064,-21596.791934584613,-23751.053065187105,14715.069796451307,12351.998669147333,32946.15840270024,51788.008426190434,0.0,0.0,0.0,193.0,0.0,193.0,0.0,1.0,0.0,179.0,193.0,1.0,179.0,1744418838.0947828,0.0,2025-04-11 20:47:18.094,FORWARD,39
88.0,7223.368552132672,-11238.770036550766,-21623.904600608897,-23709.143544333405,14598.438393883514,12588.502477228938,32730.19584777306,51864.071412571844,0.0,0.0,0.0,193.0,0.0,192.0,0.0,1.0,0.0,178.0,192.0,1.0,178.0,1744418838.094858,0.0,2025-04-11 20:47:18.094,FORWARD,39
89.0,7247.351973933217,-11219.614591552567,-21587.001870513188,-23697.386526749913,14621.348931950204,12691.499315678993,32579.187462233003,51942.570739098875,0.0,0.0,0.0,193.0,0.0,193.0,0.0,0.0,0.0,178.0,193.0,0.0,178.0,1744418838.094916,0.0,2025-04-11 20:47:18.094,FORWARD,39
90.0,7221.1333776871425,-11265.100391519118,-21556.625849798424,-23741.665332515877,14798.128878847228,12564.004965305921,32913.50250405103,51944.64945133322,0.0,0.0,0.0,193.0,0.0,193.0,0.0,0.0,0.0,179.0,193.0,0.0,179.0,1744418838.0949712,0.0,2025-04-11 20:47:18.094,FORWARD,39
91.0,7198.80398497629,-11281.841848116143,-21611.767603369666,-23774.768266054187,14721.641209321167,12359.419448306495,33001.94835686068,51813.26589742493,0.0,0.0,0.0,193.0,0.0,193.0,0.0,0.0,0.0,178.0,193.0,0.0,178.0,1744418838.0950208,0.0,2025-04-11 20:47:18.095,FORWARD,39
92.0,7208.8622699811785,-11243.106274975094,-21637.8073856601,-23734.22220161226,14592.537533347313,12528.465691621983,32773.49117678299,51834.25418546846,0.0,0.0,0.0,193.0,0.0,192.0,0.0,0.0,0.0,178.0,192.0,0.0,178.0,1744418838.095085,0.0,2025-04-11 20:47:18.095,FORWARD,39
93.0,7229.627040580159,-11232.958582992385,-21615.120365037965,-23719.090070616017,14579.059431440763,12683.27387371944,32568.525680127823,51928.600898814315,0.0,0.0,0.0,193.0,0.0,193.0,0.0,1.0,0.0,179.0,193.0,1.0,179.0,1744418838.0951364,0.0,2025-04-11 20:47:18.095,FORWARD,39
94.0,7220.23930790893,-11271.42593519997,-21573.501416862182,-23745.934515706842,14764.645965653179,12590.357672018728,32835.56197113538,51944.671803077676,0.0,0.0,0.0,193.0,0.0,192.0,0.0,0.0,0.0,178.0,192.0,0.0,178.0,1744418838.0952735,0.0,2025-04-11 20:47:18.095,FORWARD,39
95.0,7216.506566584893,-11274.242255001338,-21598.065984018565,-23765.60405082751,14757.180483005106,12367.287262354763,33006.84338889639,51811.701275313055,0.0,0.0,0.0,193.0,0.0,192.0,0.0,0.0,0.0,178.0,192.0,0.0,178.0,1744418838.0953205,0.0,2025-04-11 20:47:18.095,FORWARD,39
96.0,7211.611534549182,-11251.644641357023,-21629.447833233815,-23735.250381857204,14634.000019311909,12491.495906292905,32833.080927500836,51802.335894386284,0.0,0.0,0.0,193.0,0.0,193.0,0.0,0.0,0.0,179.0,193.0,0.0,179.0,1744418838.0953565,0.0,2025-04-11 20:47:18.095,FORWARD,39
97.0,7229.4705783689715,-11226.7000945449,-21616.975559827755,-23715.089108358516,14585.40732686607,12683.810315586366,32603.282642755825,51911.01007592799,0.0,0.0,0.0,193.0,0.0,192.0,0.0,0.0,0.0,178.0,192.0,0.0,178.0,1744418838.0953968,0.0,2025-04-11 20:47:18.095,FORWARD,39
98.0,7229.403523135606,-11242.7039435749,-21565.723009791735,-23733.5516492786,14744.238822965483,12612.731768218491,32780.19670011958,51934.76998028398,0.0,0.0,0.0,193.0,0.0,192.0,0.0,0.0,0.0,178.0,192.0,0.0,178.0,1744418838.095476,0.0,2025-04-11 20:47:18.095,FORWARD,39
99.0,7199.8992204546,-11284.032319072761,-21594.824981072543,-23777.85280678902,14762.29903248537,12394.39992837905,33044.79665098151,51842.032592538904,0.0,0.0,0.0,193.0,0.0,193.0,0.0,0.0,0.0,179.0,193.0,0.0,179.0,1744418838.0955164,0.0,2025-04-11 20:47:18.095,FORWARD,39
100.0,7201.70971175548,-11267.46967643138,-21636.04159784813,-23753.556460566102,14626.221612241461,12438.008181811356,32890.346096795336,51780.23001911998,0.0,0.0,0.0,193.0,0.0,193.0,0.0,0.0,0.0,179.0,193.0,0.0,179.0,1744418838.0955527,0.0,2025-04-11 20:47:18.095,FORWARD,39
101.0,7211.075092682254,-11241.005210996296,-21641.987161873243,-23726.13087011944,14542.000239133864,12666.264196188951,32646.488564787935,51896.41438679867,0.0,0.0,0.0,193.0,0.0,193.0,0.0,0.0,0.0,179.0,193.0,0.0,179.0,1744418838.0955887,0.0,2025-04-11 20:47:18.095,FORWARD,39
102.0,7226.743665545424,-11245.430856398447,-21575.51307386316,-23719.13477410493,14692.449831062537,12637.698666775068,32719.221141245504,51932.020715715975,0.0,0.0,0.0,193.0,0.0,193.0,0.0,0.0,0.0,179.0,193.0,0.0,179.0,1744418838.0956273,0.0,2025-04-11 20:47:18.095,FORWARD,39
103.0,7218.115892185676,-11274.622234657078,-21582.598576855493,-23762.050123459117,14793.390309022703,12430.900327074567,33049.33405510593,51869.30172077438,0.0,0.0,0.0,193.0,0.0,193.0,0.0,0.0,0.0,179.0,193.0,0.0,179.0,1744418838.0956693,0.0,2025-04-11 20:47:18.095,FORWARD,39
104.0,7215.47838633995,-11253.812760569188,-21621.95999884129,-23745.755701751197,14673.115572108696,12387.649701553548,32933.08263219388,51767.48952478046,0.0,0.0,0.0,193.0,0.0,193.0,0.0,0.0,0.0,179.0,193.0,0.0,179.0,1744418838.0957239,0.0,2025-04-11 20:47:18.095,FORWARD,39
105.0,7218.182947419042,-11228.532937590235,-21630.297199523116,-23708.62945421093,14580.914626230555,12641.45375984356,32676.17168142458,51866.17247655064,0.0,0.0,0.0,193.0,0.0,193.0,0.0,0.0,0.0,178.0,193.0,0.0,178.0,1744418838.0957663,0.0,2025-04-11 20:47:18.095,FORWARD,39
106.0,7226.162520189586,-11230.432835868936,-21584.453771645283,-23709.590579222513,14684.894941436642,12678.93763529511,32675.99286746894,51928.04210520293,0.0,0.0,0.0,193.0,0.0,193.0,0.0,0.0,0.0,179.0,193.0,0.0,179.0,1744418838.0958014,0.0,2025-04-11 20:47:18.095,FORWARD,39
107.0,7211.343313615717,-11267.335565964648,-21580.810437299067,-23760.5078530917,14799.715852703555,12495.742737739414,33039.521639290055,51895.9002966762,0.0,0.0,0.0,193.0,0.0,193.0,0.0,0.0,0.0,179.0,193.0,0.0,179.0,1744418838.0958364,0.0,2025-04-11 20:47:18.095,FORWARD,39
108.0,7209.890450226123,-11257.433743170946,-21625.24570527622,-23757.468015845778,14681.944511168542,12377.278492126286,32988.425551465225,51773.748013227945,0.0,0.0,0.0,193.0,0.0,193.0,0.0,0.0,0.0,178.0,193.0,0.0,178.0,1744418838.0958729,0.0,2025-04-11 20:47:18.095,FORWARD,39
109.0,7217.110063685187,-11238.300649917204,-21638.38853101594,-23714.619721724954,14573.024460437831,12612.530602518393,32737.504868209944,51858.01408982445,0.0,0.0,0.0,193.0,0.0,192.0,0.0,0.0,0.0,178.0,192.0,0.0,178.0,1744418838.5711288,0.0,2025-04-11 20:47:18.571,FORWARD,39
110.0,7230.901090014111,-11233.718542303866,-21590.108762992473,-23705.20963730927,14643.387751983137,12681.776306840935,32651.115375890182,51929.4055616147,0.0,0.0,0.0,193.0,0.0,193.0,0.0,0.0,0.0,179.0,193.0,0.0,179.0,1744418838.571274,0.0,2025-04-11 20:47:18.571,FORWARD,39
111.0,7207.498813569405,-11266.352089208614,-21569.008716226665,-23751.008361698194,14807.874239429742,12534.902994025111,33014.19711282219,51918.18498589814,0.0,0.0,0.0,193.0,0.0,193.0,0.0,0.0,0.0,179.0,193.0,0.0,179.0,1744418838.571316,0.0,2025-04-11 20:47:18.571,FORWARD,39
112.0,7211.767996760368,-11273.079964289662,-21620.52948719615,-23767.28043166166,14709.191287659562,12360.514683784806,33033.844296198404,51782.420490076605,0.0,0.0,0.0,193.0,0.0,193.0,0.0,0.0,0.0,178.0,193.0,0.0,178.0,1744418838.5713532,0.0,2025-04-11 20:47:18.571,FORWARD,39
113.0,7224.441435866527,-11247.442513399425,-21648.24565032073,-23727.203753853293,14586.815486766754,12568.005927563421,32802.50374108598,51843.59721465078,0.0,0.0,0.0,193.0,0.0,193.0,0.0,0.0,0.0,179.0,193.0,0.0,179.0,1744418838.5714428,0.0,2025-04-11 20:47:18.571,FORWARD,39
114.0,7219.144072430619,-11227.616516067566,-21609.688891135324,-23709.523523989144,14608.139050977117,12686.581931898825,32640.587704251735,51927.93034648065,0.0,0.0,0.0,193.0,0.0,193.0,0.0,0.0,0.0,178.0,193.0,0.0,178.0,1744418838.571478,0.0,2025-04-11 20:47:18.571,FORWARD,39
115.0,7190.422080805551,-11260.51828390578,-21574.395486640395,-23748.5049663192,14776.961776848053,12572.811552621311,32964.375074431315,51941.54255885394,0.0,0.0,0.0,193.0,0.0,192.0,0.0,0.0,0.0,178.0,192.0,0.0,178.0,1744418838.5715137,0.0,2025-04-11 20:47:18.571,FORWARD,39
116.0,7199.51924079886,-11265.078039774662,-21605.576170155546,-23764.620574071476,14722.892907010664,12351.708096469414,33058.051235443505,51797.59732456176,0.0,0.0,0.0,193.0,0.0,193.0,0.0,0.0,0.0,179.0,193.0,0.0,179.0,1744418838.5715482,0.0,2025-04-11 20:47:18.571,FORWARD,39
117.0,7198.893391954111,-11249.007135511296,-21642.72476944027,-23728.477803287245,14600.874734029143,12513.870002492667,32841.70870086059,51809.5778595898,0.0,0.0,0.0,193.0,0.0,193.0,0.0,0.0,0.0,179.0,193.0,0.0,179.0,1744418838.5715823,0.0,2025-04-11 20:47:18.571,FORWARD,39
118.0,7213.66789503907,-11223.816719510165,-21613.220466759263,-23703.756773919675,14579.12648667413,12689.957045311576,32631.78111693634,51913.781692240445,0.0,0.0,0.0,193.0,0.0,192.0,0.0,0.0,0.0,178.0,192.0,0.0,178.0,1744418838.5716176,0.0,2025-04-11 20:47:18.571,FORWARD,39
119.0,7210.672761282059,-11259.333641449648,-21561.56558532305,-23729.03659689863,14755.481750426503,12613.983465907988,32887.21685257159,51943.844788532835,0.0,0.0,0.0,193.0,0.0,192.0,0.0,0.0,0.0,178.0,192.0,0.0,178.0,1744418838.5716524,0.0,2025-04-11 20:47:18.571,FORWARD,39
120.0,7199.18396463203,-11283.026490572274,-21602.67044337636,-23772.55544335311,14743.858843309743,12387.627349809092,33086.95204102422,51833.87420581272,0.0,0.0,0.0,193.0,0.0,193.0,0.0,0.0,0.0,179.0,193.0,0.0,179.0,1744418838.5716872,0.0,2025-04-11 20:47:18.571,FORWARD,39
121.0,7206.738854257925,-11251.823455312664,-21636.019246103675,-23738.491384803223,14619.918420305065,12477.771935197346,32895.19642534214,51800.97243797451,0.0,0.0,0.0,193.0,0.0,193.0,0.0,0.0,0.0,179.0,193.0,0.0,179.0,1744418838.5717225,0.0,2025-04-11 20:47:18.571,FORWARD,39
122.0,7224.195566677519,-11221.22391715335,-21624.776318642656,-23709.590579222513,14558.339364330694,12681.061051018365,32643.784003708843,51905.444491558614,0.0,0.0,0.0,193.0,0.0,193.0,0.0,0.0,0.0,179.0,193.0,0.0,179.0,1744418838.5717568,0.0,2025-04-11 20:47:18.571,FORWARD,39
123.0,7221.982743976444,-11234.41144638198,-21561.92321323433,-23718.575980493544,14732.817081548821,12633.317724861829,32796.91580497215,51934.59116632833,0.0,0.0,0.0,193.0,0.0,192.0,0.0,0.0,0.0,178.0,192.0,0.0,178.0,1744418838.571792,0.0,2025-04-11 20:47:18.571,FORWARD,39
124.0,7195.3618163301735,-11269.168409009982,-21589.304100192083,-23769.13562645145,14771.463247712047,12409.040320997277,33083.88985203384,51848.40283970867,0.0,0.0,0.0,193.0,0.0,193.0,0.0,0.0,0.0,179.0,193.0,0.0,179.0,1744418838.5718472,0.0,2025-04-11 20:47:18.571,FORWARD,39
125.0,7199.228668120942,-11253.857464058097,-21629.47018497827,-23745.64394302892,14634.894089090121,12430.118016018632,32933.86494324982,51779.693577253056,0.0,0.0,0.0,193.0,0.0,193.0,0.0,0.0,0.0,179.0,193.0,0.0,179.0,1744418838.5718832,0.0,2025-04-11 20:47:18.571,FORWARD,39
126.0,7208.974028703455,-11222.78853926522,-21640.310781039094,-23716.586675237024,14548.884576426099,12675.98720502701,32676.6634198026,51902.114081634776,0.0,0.0,0.0,193.0,0.0,193.0,0.0,0.0,0.0,178.0,193.0,0.0,178.0,1744418838.571918,0.0,2025-04-11 20:47:18.571,FORWARD,39
127.0,7219.233479408441,-11224.062588699173,-21585.638414101413,-23723.113384617973,14688.359461827215,12658.798713540878,32730.03938556187,51949.209207202104,0.0,0.0,0.0,193.0,0.0,193.0,0.0,0.0,0.0,179.0,193.0,0.0,179.0,1744418838.571953,0.0,2025-04-11 20:47:18.571,FORWARD,39
128.0,7197.574639031249,-11275.650414902022,-21589.12528623644,-23768.487425862244,14783.77905890692,12449.27346101683,33061.13577617834,51892.83810768582,0.0,0.0,0.0,193.0,0.0,193.0,0.0,0.0,0.0,179.0,193.0,0.0,179.0,1744418838.5720017,0.0,2025-04-11 20:47:18.572,FORWARD,39
129.0,7192.769013973358,-11268.564911909689,-21633.89583038042,-23761.84895775902,14652.66372593209,12397.104489458143,32954.026216748505,51793.39519660416,0.0,0.0,0.0,193.0,0.0,193.0,0.0,0.0,0.0,178.0,193.0,0.0,178.0,1744418838.5720365,0.0,2025-04-11 20:47:18.572,FORWARD,39
130.0,7206.023598435355,-11233.115045203573,-21642.858879907,-23723.672178229353,14547.87874792561,12635.798768496368,32690.18622519806,51886.870191916256,0.0,0.0,0.0,193.0,0.0,193.0,0.0,0.0,0.0,178.0,193.0,0.0,178.0,1744418838.5720713,0.0,2025-04-11 20:47:18.572,FORWARD,39
131.0,7219.099368941709,-11225.627210811044,-21589.08058274753,-23718.30775956008,14644.706504906,12665.012498499455,32651.852983457207,51937.13926519624,0.0,0.0,0.0,193.0,0.0,193.0,0.0,0.0,0.0,179.0,193.0,0.0,179.0,1744418838.572106,0.0,2025-04-11 20:47:18.572,FORWARD,39
132.0,7195.451223307994,-11256.696135603921,-21578.619966342445,-23764.151187437918,14781.230960039016,12499.788403485823,33025.328281560935,51914.92163120767,0.0,0.0,0.0,193.0,0.0,193.0,0.0,0.0,0.0,179.0,193.0,0.0,179.0,1744418838.5721405,0.0,2025-04-11 20:47:18.572,FORWARD,39
133.0,7192.657255251081,-11260.764153094788,-21630.56542045658,-23768.5097776067,14660.285670791349,12381.614730550615,32995.01931607954,51792.121147170204,0.0,0.0,0.0,193.0,0.0,192.0,0.0,0.0,0.0,178.0,192.0,0.0,178.0,1744418838.5721753,0.0,2025-04-11 20:47:18.572,FORWARD,39
134.0,7200.681531510536,-11232.757417292289,-21651.643115477935,-23727.963713164772,14550.471550282426,12612.038864140375,32743.092804323773,51868.184133551615,0.0,0.0,0.0,193.0,0.0,193.0,0.0,0.0,0.0,179.0,193.0,0.0,179.0,1744418838.5722165,0.0,2025-04-11 20:47:18.572,FORWARD,39
135.0,7207.409406591583,-11231.393960880514,-21613.84631560401,-23719.514753760668,14604.585123608724,12691.476963934538,32633.055166370294,51949.65624209121,0.0,0.0,0.0,193.0,0.0,193.0,0.0,0.0,0.0,179.0,193.0,0.0,179.0,1744418838.572251,0.0,2025-04-11 20:47:18.572,FORWARD,39
136.0,7196.837031464223,-11263.401658940515,-21581.168065210353,-23751.61185879849,14767.372878476726,12543.754284829412,32972.37699894631,51938.90505300821,0.0,0.0,0.0,193.0,0.0,192.0,0.0,0.0,0.0,178.0,192.0,0.0,178.0,1744418838.572286,0.0,2025-04-11 20:47:18.572,FORWARD,39
137.0,7207.85644148069,-11250.012964011785,-21612.594617914514,-23756.641001300934,14688.404165316126,12360.44762855144,32999.13203705932,51789.3718826022,0.0,0.0,0.0,193.0,0.0,193.0,0.0,0.0,0.0,179.0,193.0,0.0,179.0,1744418838.5723207,0.0,2025-04-11 20:47:18.572,FORWARD,39
138.0,7196.680569253036,-11234.813777782176,-21653.47595852327,-23734.602181268,14562.116809143641,12569.749363630935,32781.001362919975,51841.138522760695,0.0,0.0,0.0,193.0,0.0,193.0,0.0,0.0,0.0,179.0,193.0,0.0,179.0,1744418838.5723553,0.0,2025-04-11 20:47:18.572,FORWARD,39
139.0,7205.509508312883,-11227.974143978852,-21631.213621045783,-23731.22706785525,14562.519140543836,12697.221362259552,32600.26515725436,51926.99157321353,0.0,0.0,0.0,193.0,0.0,193.0,0.0,0.0,0.0,179.0,193.0,0.0,179.0,1744418838.5726192,0.0,2025-04-11 20:47:18.572,FORWARD,39
140.0,7200.927400699545,-11259.713621105388,-21588.342975180505,-23756.46218734529,14745.311706699338,12585.596750449748,32890.27904156197,51928.93617498114,0.0,0.0,0.0,193.0,0.0,193.0,0.0,0.0,0.0,179.0,193.0,0.0,179.0,1744418838.572652,0.0,2025-04-11 20:47:18.572,FORWARD,39
141.0,7192.210220361975,-11262.284071717748,-21621.624722674456,-23771.75078055272,14710.130060926684,12372.852846724136,33021.21556058116,51796.613847805726,0.0,0.0,0.0,193.0,0.0,193.0,0.0,0.0,0.0,179.0,193.0,0.0,179.0,1744418838.5726838,0.0,2025-04-11 20:47:18.572,FORWARD,39
142.0,7188.298665082296,-11248.135417477539,-21661.47788303827,-23745.88981221793,14577.114829673152,12519.234421161942,32823.715546574065,51809.80137703435,0.0,0.0,0.0,193.0,0.0,193.0,0.0,0.0,0.0,179.0,193.0,0.0,179.0,1744418838.5727148,0.0,2025-04-11 20:47:18.572,FORWARD,39
143.0,7213.2655636388745,-11223.07911194314,-21641.204850817307,-23721.682872972833,14544.97302114642,12688.660644133168,32598.02998280883,51912.50764280649,0.0,0.0,0.0,193.0,0.0,192.0,0.0,0.0,0.0,178.0,192.0,0.0,178.0,1744418838.5727637,0.0,2025-04-11 20:47:18.572,FORWARD,39
144.0,7212.5056043273935,-11245.207338953895,-21583.31383267806,-23733.909277189887,14727.095034968263,12612.664712985124,32826.241293697516,51934.546462839426,0.0,0.0,0.0,193.0,0.0,193.0,0.0,0.0,0.0,178.0,193.0,0.0,178.0,1744418838.572795,0.0,2025-04-11 20:47:18.572,FORWARD,39
145.0,7198.848688465201,-11272.387060211548,-21611.52173418066,-23774.008306742708,14731.610087348234,12388.432012609484,33054.16203190828,51824.82174930832,0.0,0.0,0.0,193.0,0.0,193.0,0.0,0.0,0.0,179.0,193.0,0.0,179.0,1744418838.5728257,0.0,2025-04-11 20:47:18.572,FORWARD,39
146.0,7196.4794035529385,-11242.301612174704,-21645.8093101751,-23741.397111582413,14594.325672903738,12466.149028080587,32879.50550073451,51786.466155823015,0.0,0.0,0.0,193.0,0.0,193.0,0.0,0.0,0.0,179.0,193.0,0.0,179.0,1744418838.5728617,0.0,2025-04-11 20:47:18.572,FORWARD,39
147.0,7210.091615926221,-11215.188946150416,-21638.880269393954,-23713.233913568725,14530.779663417301,12685.307882464873,32635.804430938297,51903.41048281318,0.0,0.0,0.0,193.0,0.0,193.0,0.0,0.0,0.0,178.0,193.0,0.0,178.0,1744418838.5728927,0.0,2025-04-11 20:47:18.572,FORWARD,39
148.0,7219.188775919531,-11220.821585753154,-21568.44992261528,-23715.714957203265,14683.307967580316,12637.586908052792,32764.081092367305,51935.306422150905,0.0,0.0,0.0,193.0,0.0,192.0,0.0,0.0,0.0,178.0,192.0,0.0,178.0,1744418838.5729237,0.0,2025-04-11 20:47:18.572,FORWARD,39
149.0,7203.363740845173,-11257.254929215303,-21584.006736756175,-23760.23963215824,14742.115407242229,12423.770120593324,33069.31651464898,51857.61175842426,0.0,0.0,0.0,193.0,0.0,193.0,0.0,0.0,0.0,179.0,193.0,0.0,179.0,1744418838.5729544,0.0,2025-04-11 20:47:18.572,FORWARD,39
150.0,7200.145089643609,-11247.442513399425,-21619.344844740015,-23737.999646425207,14626.221612241461,12427.391103195085,32928.9699112141,51778.66539700811,0.0,0.0,0.0,193.0,0.0,193.0,0.0,0.0,0.0,178.0,193.0,0.0,178.0,1744418838.5729852,0.0,2025-04-11 20:47:18.572,FORWARD,39
151.0,7216.059531695787,-11203.744852989299,-21619.143679039917,-23705.321396031548,14544.458931023948,12669.058164245864,32662.872393473674,51883.74094769251,0.0,0.0,0.0,193.0,0.0,192.0,0.0,0.0,0.0,178.0,192.0,0.0,178.0,1744418838.5730157,0.0,2025-04-11 20:47:18.573,FORWARD,39
152.0,7233.605651093203,-11200.50385004328,-21560.425646355827,-23708.249474555192,14674.6131389872,12672.388574169705,32694.634222344666,51928.26562264748,0.0,0.0,0.0,193.0,0.0,193.0,0.0,0.0,0.0,179.0,193.0,0.0,179.0,1744418838.5730467,0.0,2025-04-11 20:47:18.573,FORWARD,39
153.0,7206.180060646541,-11255.735010592343,-21572.85321627298,-23768.107446206504,14773.564311690845,12474.150952595586,33048.3505783499,51879.02472961244,0.0,0.0,0.0,193.0,0.0,193.0,0.0,0.0,0.0,179.0,193.0,0.0,179.0,1744418838.5730772,0.0,2025-04-11 20:47:18.573,FORWARD,39
154.0,7197.909915198078,-11255.824417570164,-21617.132022038943,-23758.026809457162,14639.051513558808,12388.02968120929,32958.02717900601,51761.81218168881,0.0,0.0,0.0,193.0,0.0,193.0,0.0,0.0,0.0,178.0,193.0,0.0,178.0,1744418838.5732174,0.0,2025-04-11 20:47:18.573,FORWARD,39
155.0,7201.307380355285,-11227.437702111925,-21633.918182124875,-23720.98996889472,14531.673733195512,12634.636477784692,32702.72555383749,51858.79640088039,0.0,0.0,0.0,193.0,0.0,192.0,0.0,0.0,0.0,178.0,192.0,0.0,178.0,1744418838.5732493,0.0,2025-04-11 20:47:18.573,FORWARD,39
156.0,7217.601802063204,-11217.088844429118,-21584.11849547845,-23713.7480036912,14619.404330182593,12675.406059671172,32645.08040488725,51921.671858033165,0.0,0.0,0.0,193.0,0.0,192.0,0.0,0.0,0.0,178.0,192.0,0.0,178.0,1744418838.5732803,0.0,2025-04-11 20:47:18.573,FORWARD,39
157.0,7203.497851311905,-11258.260757715792,-21571.17683543883,-23761.781902525654,14770.412715722647,12509.913743724079,33015.113534344855,51904.08103514684,0.0,0.0,0.0,193.0,0.0,193.0,0.0,0.0,0.0,179.0,193.0,0.0,179.0,1744418838.5733109,0.0,2025-04-11 20:47:18.573,FORWARD,39
158.0,7195.607685519181,-11258.618385627078,-21616.506173194193,-23764.88879500494,14667.125304594674,12358.01128840581,32996.62864168032,51769.92586492609,0.0,0.0,0.0,193.0,0.0,192.0,0.0,0.0,0.0,178.0,192.0,0.0,178.0,1744418838.5733583,0.0,2025-04-11 20:47:18.573,FORWARD,39
159.0,7212.639714794125,-11223.950829976897,-21636.7568536707,-23724.633303240935,14559.12167538663,12586.06613708331,32758.29199055338,51833.650688368165,0.0,0.0,0.0,193.0,0.0,192.0,0.0,0.0,0.0,178.0,192.0,0.0,178.0,1744418838.5733893,0.0,2025-04-11 20:47:18.573,FORWARD,39
160.0,7227.324810901262,-11199.989759920807,-21591.60632987098,-23709.92585538934,14606.574428865246,12695.924961081144,32635.31269256028,51913.8040439849,0.0,0.0,0.0,193.0,0.0,193.0,0.0,0.0,0.0,178.0,193.0,0.0,178.0,1744418838.5734203,0.0,2025-04-11 20:47:18.573,FORWARD,39
161.0,7208.61640079217,-11235.976068493852,-21559.062189944052,-23747.27562037416,14786.483619986013,12574.666747411102,32983.932850829704,51913.289953862426,0.0,0.0,0.0,193.0,0.0,193.0,0.0,0.0,0.0,179.0,193.0,0.0,179.0,1744418838.5734513,0.0,2025-04-11 20:47:18.573,FORWARD,39
162.0,7199.8992204546,-11253.633946613545,-21604.793859099613,-23764.12883569346,14716.589715074268,12388.297902142753,33044.68489225923,51773.52449578339,0.0,0.0,0.0,193.0,0.0,192.0,0.0,0.0,0.0,178.0,192.0,0.0,178.0,1744418838.573482,0.0,2025-04-11 20:47:18.573,FORWARD,39
163.0,7194.378339574139,-11233.226803925849,-21640.22137406127,-23735.675065001855,14589.452992612481,12578.175971290586,32826.643625097706,51815.07638872581,0.0,0.0,0.0,193.0,0.0,192.0,0.0,0.0,0.0,178.0,192.0,0.0,178.0,1744418838.5735128,0.0,2025-04-11 20:47:18.573,FORWARD,39
164.0,7218.7864445193345,-11205.063605912163,-21611.745251625212,-23721.146431105906,14588.022480967342,12699.992978572009,32628.74127969042,51899.163651366674,0.0,0.0,0.0,193.0,0.0,193.0,0.0,0.0,0.0,179.0,193.0,0.0,179.0,1744418838.5735435,0.0,2025-04-11 20:47:18.573,FORWARD,39
165.0,7208.012903691877,-11241.921632518965,-21570.238062171706,-23754.003495455207,14774.570140191334,12589.977692362989,32922.95729195563,51917.91676496468,0.0,0.0,0.0,193.0,0.0,193.0,0.0,0.0,0.0,179.0,193.0,0.0,179.0,1744418838.5735745,0.0,2025-04-11 20:47:18.573,FORWARD,39
166.0,7194.937133185522,-11259.5571588942,-21605.196190499806,-23777.27166143318,14736.974506017508,12382.084117184177,33074.680933318254,51801.48652809698,0.0,0.0,0.0,193.0,0.0,192.0,0.0,0.0,0.0,178.0,192.0,0.0,178.0,1744418838.5736053,0.0,2025-04-11 20:47:18.573,FORWARD,39
167.0,7195.942961686011,-11233.673838814955,-21632.577077457558,-23737.41850106937,14613.99520802441,12525.984647987443,32879.39374201223,51799.07253969581,0.0,0.0,0.0,193.0,0.0,193.0,0.0,0.0,0.0,179.0,193.0,0.0,179.0,1744418838.573636,0.0,2025-04-11 20:47:18.573,FORWARD,39
168.0,7209.756339759391,-11211.053873426185,-21621.982350585742,-23723.40395729589,14571.750411003877,12714.812185145878,32659.6090387832,51915.48042481905,0.0,0.0,0.0,193.0,0.0,193.0,0.0,0.0,0.0,179.0,193.0,0.0,179.0,1744418838.5736668,0.0,2025-04-11 20:47:18.573,FORWARD,39
169.0,7210.9186304710665,-11232.019809725263,-21564.493663846693,-23744.727521506255,14753.224224236516,12642.638402299692,32862.51817494848,51945.52116936698,0.0,0.0,0.0,193.0,0.0,193.0,0.0,0.0,0.0,179.0,193.0,0.0,179.0,1744418838.5737853,0.0,2025-04-11 20:47:18.573,FORWARD,39
170.0,7197.261714608874,-11258.618385627078,-21594.668518861356,-23789.00632727222,14759.169788261628,12412.25897219884,33100.1619219973,51838.99275529299,0.0,0.0,0.0,193.0,0.0,192.0,0.0,0.0,0.0,178.0,192.0,0.0,178.0,1744418838.5738175,0.0,2025-04-11 20:47:18.573,FORWARD,39
171.0,7196.7699762308575,-11245.184987209439,-21633.828775147056,-23762.184233925847,14631.98836231093,12472.966310139456,32931.294492637455,51793.21638264852,0.0,0.0,0.0,193.0,0.0,192.0,0.0,0.0,0.0,178.0,192.0,0.0,178.0,1744418838.573848,0.0,2025-04-11 20:47:18.573,FORWARD,39
172.0,7203.833127478734,-11226.07424570015,-21634.164051313885,-23735.295085346115,14563.860245211155,12695.969664570053,32683.36894313919,51917.6038405423,0.0,0.0,0.0,193.0,0.0,193.0,0.0,0.0,0.0,179.0,193.0,0.0,179.0,1744418838.5738795,0.0,2025-04-11 20:47:18.573,FORWARD,39
173.0,7212.99734270541,-11244.536786620234,-21573.434361628817,-23743.56523079458,14719.24957266445,12657.323498406828,32786.030505422415,51954.84184680484,0.0,0.0,0.0,193.0,0.0,193.0,0.0,0.0,0.0,179.0,193.0,0.0,179.0,1744418838.573926,0.0,2025-04-11 20:47:18.573,FORWARD,39
174.0,7204.101348412198,-11270.844789844132,-21583.783219311623,-23785.877083048475,14783.466134484546,12441.450350457473,33086.81793055748,51876.63309295572,0.0,0.0,0.0,193.0,0.0,193.0,0.0,0.0,0.0,179.0,193.0,0.0,179.0,1744418838.573958,0.0,2025-04-11 20:47:18.573,FORWARD,39
175.0,7200.525069299349,-11248.493045388825,-21620.484783707238,-23762.13953043694,14651.032048586852,12429.335704962696,32952.39453940326,51784.990940688964,0.0,0.0,0.0,193.0,0.0,193.0,0.0,0.0,0.0,178.0,193.0,0.0,178.0,1744418838.573989,0.0,2025-04-11 20:47:18.573,FORWARD,39
176.0,7199.8992204546,-11236.110178960584,-21643.104749096008,-23743.721693005766,14547.87874792561,12675.540170137903,32706.61475737271,51907.59025902632,0.0,0.0,0.0,193.0,0.0,193.0,0.0,0.0,0.0,179.0,193.0,0.0,179.0,1744418838.5740197,0.0,2025-04-11 20:47:18.574,FORWARD,39
177.0,7219.233479408441,-11239.328830162149,-21581.74921056619,-23736.278562102147,14662.47614174797,12673.93084453712,32700.80330381433,51952.51726538149,0.0,0.0,0.0,193.0,0.0,193.0,0.0,0.0,0.0,179.0,193.0,0.0,179.0,1744418838.5740504,0.0,2025-04-11 20:47:18.574,FORWARD,39
178.0,7205.800080990802,-11267.559083409202,-21571.400352883382,-23779.70800157881,14795.089041601306,12494.356929583184,33054.16203190828,51906.919706692664,0.0,0.0,0.0,193.0,0.0,193.0,0.0,0.0,0.0,179.0,193.0,0.0,179.0,1744418838.5740812,0.0,2025-04-11 20:47:18.574,FORWARD,39
179.0,7208.8622699811785,-11256.6067286261,-21615.79091737162,-23777.673992833377,14683.15150536913,12404.525268617304,32986.54800493098,51791.24942913645,0.0,0.0,0.0,193.0,0.0,193.0,0.0,0.0,0.0,179.0,193.0,0.0,179.0,1744418838.5741122,0.0,2025-04-11 20:47:18.574,FORWARD,39
180.0,7209.219897892463,-11236.311344660682,-21642.72476944027,-23748.013227941185,14569.962271447454,12641.766684265935,32740.70116766705,51893.575715252846,0.0,0.0,0.0,193.0,0.0,193.0,0.0,0.0,0.0,179.0,193.0,0.0,179.0,1744418838.5741427,0.0,2025-04-11 20:47:18.574,FORWARD,39
181.0,7226.520148100871,-11218.876983985541,-21589.50526589218,-23730.198887610306,14631.742493121923,12685.55375165388,32647.27087584387,51948.22573044607,0.0,0.0,0.0,193.0,0.0,193.0,0.0,0.0,0.0,179.0,193.0,0.0,179.0,1744418838.5741737,0.0,2025-04-11 20:47:18.574,FORWARD,39
182.0,7205.33069435724,-11257.925481548964,-21568.89695750439,-23769.962640996295,14787.98118686452,12532.645467835126,33008.29625228599,51928.62325055877,0.0,0.0,0.0,193.0,0.0,193.0,0.0,0.0,0.0,178.0,193.0,0.0,178.0,1744418838.5742044,0.0,2025-04-11 20:47:18.574,FORWARD,39
183.0,7194.75831922988,-11265.033336285751,-21616.461469705282,-23782.47961789127,14690.281711850372,12383.872256740602,33020.96969139215,51804.77223453191,0.0,0.0,0.0,193.0,0.0,193.0,0.0,0.0,0.0,178.0,193.0,0.0,178.0,1744418838.5742352,0.0,2025-04-11 20:47:18.574,FORWARD,39
184.0,7186.063490636765,-11245.453208142902,-21649.76556894369,-23754.808158255597,14560.686297498502,12598.784279678379,32785.15878738866,51878.80121216789,0.0,0.0,0.0,193.0,0.0,193.0,0.0,0.0,0.0,179.0,193.0,0.0,179.0,1744418838.5742657,0.0,2025-04-11 20:47:18.574,FORWARD,39
185.0,7214.226688650452,-11217.357065362581,-21600.41291718637,-23729.88596318793,14595.376204893138,12700.37295822775,32619.733526674932,51952.07023049238,0.0,0.0,0.0,193.0,0.0,193.0,0.0,0.0,0.0,179.0,193.0,0.0,179.0,1744418838.57437,0.0,2025-04-11 20:47:18.574,FORWARD,39
186.0,7193.417214562562,-11262.865217073586,-21571.93679475031,-23773.51656836469,14772.11144830125,12577.594825934748,32961.73756858559,51963.201399231126,0.0,0.0,0.0,193.0,0.0,193.0,0.0,0.0,0.0,178.0,193.0,0.0,178.0,1744418838.5744016,0.0,2025-04-11 20:47:18.574,FORWARD,39
187.0,7192.992531417911,-11262.395830440026,-21612.37110046996,-23793.476676163278,14705.190325402062,12361.945195429946,33038.29229334501,51820.06082773934,0.0,0.0,0.0,193.0,0.0,193.0,0.0,0.0,0.0,179.0,193.0,0.0,179.0,1744418838.5744328,0.0,2025-04-11 20:47:18.574,FORWARD,39
188.0,7193.126641884643,-11242.569833108168,-21645.56344098609,-23757.535071079146,14583.842704754199,12541.34029642824,32824.52020937445,51850.74977287648,0.0,0.0,0.0,193.0,0.0,193.0,0.0,0.0,0.0,179.0,193.0,0.0,179.0,1744418838.5744815,0.0,2025-04-11 20:47:18.574,FORWARD,39
189.0,7207.297647869307,-11220.799234008698,-21622.116461052476,-23737.820832469562,14571.571597048236,12696.394347714704,32625.969663377964,51954.57362587138,0.0,0.0,0.0,193.0,0.0,193.0,0.0,0.0,0.0,179.0,193.0,0.0,179.0,1744418838.5745125,0.0,2025-04-11 20:47:18.574,FORWARD,39
190.0,7204.99541819041,-11249.476522144858,-21572.964974995255,-23760.485501347244,14756.01819229343,12593.978654620489,32895.75521895352,51980.34518722835,0.0,0.0,0.0,193.0,0.0,193.0,0.0,0.0,0.0,179.0,193.0,0.0,179.0,1744418838.574545,0.0,2025-04-11 20:47:18.574,FORWARD,39
191.0,7198.736929742924,-11271.202417755416,-21610.538257424625,-23790.213321472806,14729.039636735874,12370.438858322961,33067.483671603644,51856.583578179314,0.0,0.0,0.0,193.0,0.0,193.0,0.0,0.0,0.0,178.0,193.0,0.0,178.0,1744418838.574576,0.0,2025-04-11 20:47:18.574,FORWARD,39
192.0,7201.217973377464,-11248.716562833377,-21639.550821727615,-23754.56228906659,14603.311074174771,12485.773859712346,32868.88842211824,51833.89655755718,0.0,0.0,0.0,193.0,0.0,193.0,0.0,0.0,0.0,178.0,193.0,0.0,178.0,1744418838.574607,0.0,2025-04-11 20:47:18.574,FORWARD,39
193.0,7199.8992204546,-11232.265678914271,-21633.873478635967,-23738.804309225598,14551.544434016281,12686.961911554565,32636.92201816106,51948.20337870162,0.0,0.0,0.0,193.0,0.0,193.0,0.0,0.0,0.0,178.0,193.0,0.0,178.0,1744418838.5746384,0.0,2025-04-11 20:47:18.574,FORWARD,39
194.0,7191.740833728413,-11251.5552343792,-21579.916367520855,-23761.22310891427,14703.893924223654,12626.075759658308,32814.484276114024,51983.9214663412,0.0,0.0,0.0,193.0,0.0,193.0,0.0,0.0,0.0,178.0,193.0,0.0,178.0,1744418838.57467,0.0,2025-04-11 20:47:18.574,FORWARD,39
195.0,7195.13829888562,-11260.428876927957,-21585.884283290423,-23787.978147027272,14748.217433478527,12399.809050537235,33055.793709253514,51876.47663074454,0.0,0.0,0.0,193.0,0.0,192.0,0.0,0.0,0.0,178.0,192.0,0.0,178.0,1744418838.574701,0.0,2025-04-11 20:47:18.574,FORWARD,39
196.0,7197.28406635333,-11242.100446474606,-21624.441042475824,-23762.541861837133,14634.000019311909,12445.585423181705,32900.22556784458,51814.294077669874,0.0,0.0,0.0,193.0,0.0,192.0,0.0,0.0,0.0,179.0,192.0,0.0,179.0,1744418838.5747318,0.0,2025-04-11 20:47:18.574,FORWARD,39
197.0,7211.455072337994,-11208.036387924718,-21628.687873922336,-23737.12792839145,14559.144027131086,12677.75299283898,32643.89576243112,51923.214128400585,0.0,0.0,0.0,193.0,0.0,193.0,0.0,0.0,0.0,179.0,193.0,0.0,179.0,1744418838.5747623,0.0,2025-04-11 20:47:18.574,FORWARD,39
198.0,7214.651371795103,-11219.547536319202,-21574.015506984655,-23745.353370351004,14701.256418377927,12660.966832753043,32731.827525118297,51968.789335344954,0.0,0.0,0.0,193.0,0.0,193.0,0.0,0.0,0.0,179.0,193.0,0.0,179.0,1744418838.5747936,0.0,2025-04-11 20:47:18.574,FORWARD,39
199.0,7190.936170928022,-11269.771906110276,-21593.148600238397,-23798.885798321462,14768.691631399588,12451.374524995628,33063.19213666822,51908.93136369364,0.0,0.0,0.0,193.0,0.0,193.0,0.0,0.0,0.0,179.0,193.0,0.0,179.0,1744418838.5748243,0.0,2025-04-11 20:47:18.574,FORWARD,39
200.0,7197.462880308972,-11250.772923323266,-21630.543068712126,-23769.71677180729,14631.518975677369,12401.68659707148,32939.78815553047,51804.839289765274,0.0,0.0,0.0,193.0,0.0,193.0,0.0,0.0,0.0,179.0,193.0,0.0,179.0,1744418838.57491,0.0,2025-04-11 20:47:18.574,FORWARD,39
201.0,7209.6892845260245,-11221.536841575724,-21642.210679317795,-23733.37283532296,14526.30931452624,12640.291469131884,32681.066713460295,51908.90901194919,0.0,0.0,0.0,193.0,0.0,193.0,0.0,0.0,0.0,179.0,193.0,0.0,179.0,1744418838.5749416,0.0,2025-04-11 20:47:18.574,FORWARD,39
202.0,7219.948735231011,-11221.089806686618,-21589.169989725353,-23734.69158824582,14639.118568792173,12659.424562385628,32672.349533122724,51970.01868129,0.0,0.0,0.0,193.0,0.0,193.0,0.0,0.0,0.0,178.0,193.0,0.0,178.0,1744418838.5749722,0.0,2025-04-11 20:47:18.574,FORWARD,39
203.0,7193.4842697959275,-11262.395830440026,-21582.531521622124,-23781.071457990583,14777.654680926167,12487.450240546494,33040.505116046086,51949.38802115775,0.0,0.0,0.0,193.0,0.0,193.0,0.0,0.0,0.0,179.0,193.0,0.0,179.0,1744418838.5750031,0.0,2025-04-11 20:47:18.575,FORWARD,39
204.0,7190.846763950201,-11251.175254723461,-21619.411899973384,-23773.293050920136,14665.337165038249,12381.055936939232,32979.30603972745,51824.218252208026,0.0,0.0,0.0,193.0,0.0,193.0,0.0,0.0,0.0,179.0,193.0,0.0,179.0,1744418838.5750487,0.0,2025-04-11 20:47:18.575,FORWARD,39
205.0,7201.687360011025,-11227.325943389647,-21633.784071658145,-23735.02686441265,14561.781532976811,12617.179765365097,32731.648711162656,51906.98676192603,0.0,0.0,0.0,193.0,0.0,192.0,0.0,0.0,0.0,178.0,192.0,0.0,178.0,1744418838.57508,0.0,2025-04-11 20:47:18.575,FORWARD,39
206.0,7214.360799117184,-11221.827414253643,-21583.6938123338,-23726.98023640874,14625.774577352355,12683.78796384191,32638.821916439763,51977.35005347134,0.0,0.0,0.0,193.0,0.0,193.0,0.0,0.0,0.0,178.0,193.0,0.0,178.0,1744418838.575111,0.0,2025-04-11 20:47:18.575,FORWARD,39
207.0,7195.272409352352,-11254.572719880667,-21554.07775093052,-23764.911146749397,14788.115297331251,12544.558947629805,32996.29336551349,51967.76115510001,0.0,0.0,0.0,193.0,0.0,193.0,0.0,0.0,0.0,179.0,193.0,0.0,179.0,1744418838.5751417,0.0,2025-04-11 20:47:18.575,FORWARD,39
208.0,7198.3569500871845,-11249.789446567233,-21592.27688220464,-23770.968469496784,14697.702491009533,12373.456343824428,33002.395391749786,51821.53604287339,0.0,0.0,0.0,193.0,0.0,193.0,0.0,0.0,0.0,178.0,193.0,0.0,178.0,1744418838.5751724,0.0,2025-04-11 20:47:18.575,FORWARD,39
209.0,7204.704845512491,-11226.208356166882,-21620.864763362977,-23731.852916699998,14583.17215242054,12589.910637129622,32765.86923192373,51880.47759300203,0.0,0.0,0.0,193.0,0.0,192.0,0.0,0.0,0.0,178.0,192.0,0.0,178.0,1744418838.5752032,0.0,2025-04-11 20:47:18.575,FORWARD,39
210.0,7216.595973562715,-11214.496042072302,-21590.75696358168,-23718.285407815627,14600.248885184394,12706.653798419691,32602.5450351888,51969.90692256772,0.0,0.0,0.0,193.0,0.0,193.0,0.0,0.0,0.0,179.0,193.0,0.0,179.0,1744418838.575234,0.0,2025-04-11 20:47:18.575,FORWARD,39
211.0,7190.869115694656,-11257.590205382134,-21552.69194277429,-23756.55159432311,14778.749916404477,12584.523866715894,32923.35962335582,51979.29465523895,0.0,0.0,0.0,193.0,0.0,192.0,0.0,0.0,0.0,178.0,192.0,0.0,178.0,1744418838.5752647,0.0,2025-04-11 20:47:18.575,FORWARD,39
212.0,7188.23160984893,-11257.366687937581,-21583.783219311623,-23775.70703932131,14720.523622098402,12369.58949203366,33019.96386289166,51832.331935445305,0.0,0.0,0.0,193.0,0.0,192.0,0.0,0.0,0.0,178.0,192.0,0.0,178.0,1744418838.5752954,0.0,2025-04-11 20:47:18.575,FORWARD,39
213.0,7190.399729061095,-11246.481388387847,-21617.869629605964,-23743.341713350026,14596.382033393626,12534.43360739155,32809.61159582277,51844.64774664018,0.0,0.0,0.0,193.0,0.0,193.0,0.0,0.0,0.0,179.0,193.0,0.0,179.0,1744418838.5753264,0.0,2025-04-11 20:47:18.575,FORWARD,39
214.0,7199.429833821039,-11223.280277643238,-21594.690870605813,-23718.911256660376,14577.718326773445,12699.210667516074,32600.60043342119,51949.768000813485,0.0,0.0,0.0,193.0,0.0,193.0,0.0,0.0,0.0,179.0,193.0,0.0,179.0,1744418838.5753572,0.0,2025-04-11 20:47:18.575,FORWARD,39
215.0,7189.416252305062,-11254.080981502651,-21538.386826322894,-23736.59148652452,14758.901567328165,12612.26238158493,32855.030340555946,51979.5181726835,0.0,0.0,0.0,193.0,0.0,192.0,0.0,0.0,0.0,178.0,192.0,0.0,178.0,1744418838.5754437,0.0,2025-04-11 20:47:18.575,FORWARD,39
216.0,7167.824467161235,-11281.059537060206,-21576.51890236365,-23776.578757355066,14738.136796729184,12382.285282884275,33041.600351524394,51860.47278171454,0.0,0.0,0.0,193.0,0.0,193.0,0.0,0.0,0.0,179.0,193.0,0.0,179.0,1744418838.5754757,0.0,2025-04-11 20:47:18.575,FORWARD,39
217.0,7173.5241619973385,-11254.84094081413,-21609.46537369077,-23739.87719295945,14608.787251566322,12481.012938143365,32847.140174763226,51829.91794704413,0.0,0.0,0.0,193.0,0.0,193.0,0.0,0.0,0.0,179.0,193.0,0.0,179.0,1744418838.5755067,0.0,2025-04-11 20:47:18.575,FORWARD,39
218.0,7170.5960834736925,-11258.528978649258,-21601.97753929824,-23715.89377115891,14557.489998041392,12701.55760068388,32620.06880284176,51955.69121309414,0.0,0.0,0.0,193.0,0.0,193.0,0.0,0.0,0.0,178.0,193.0,0.0,178.0,1744418838.5755377,0.0,2025-04-11 20:47:18.575,FORWARD,39
219.0,7133.223966744419,-11310.47443276339,-21556.961125965256,-23736.815003969077,14712.611104561223,12645.298259889872,32787.4386653231,52005.15562357374,0.0,0.0,0.0,193.0,0.0,193.0,0.0,0.0,0.0,179.0,193.0,0.0,179.0,1744418838.5755837,0.0,2025-04-11 20:47:18.575,FORWARD,39
220.0,7100.545716350761,-11353.367430373124,-21578.016469242153,-23774.142417209438,14751.324325957816,12421.55729789225,33058.54297382152,51918.02852368695,0.0,0.0,0.0,193.0,0.0,193.0,0.0,0.0,0.0,179.0,193.0,0.0,179.0,1744418838.5756147,0.0,2025-04-11 20:47:18.575,FORWARD,39
221.0,7089.7051202899365,-11351.400476861058,-21613.89101909292,-23746.068626173572,14613.7493388354,12447.485321460406,32904.18182661317,51842.323165216825,0.0,0.0,0.0,193.0,0.0,193.0,0.0,0.0,0.0,179.0,193.0,0.0,179.0,1744418838.575646,0.0,2025-04-11 20:47:18.575,FORWARD,39
222.0,7088.676940044992,-11334.7260754974,-21616.7520423832,-23714.21739032476,14538.73688444339,12688.638292388714,32653.41760556908,51947.7116403236,0.0,0.0,0.0,193.0,0.0,193.0,0.0,0.0,0.0,179.0,193.0,0.0,179.0,1744418838.575677,0.0,2025-04-11 20:47:18.575,FORWARD,39
223.0,7063.821800210691,-11373.707517827454,-21572.584995339515,-23729.5506870211,14673.026165130874,12681.888065563211,32729.23472276148,52001.06525433842,0.0,0.0,0.0,193.0,0.0,193.0,0.0,0.0,0.0,178.0,193.0,0.0,178.0,1744418838.5757077,0.0,2025-04-11 20:47:18.575,FORWARD,39
224.0,7034.541014974238,-11422.233155039925,-21576.407143641372,-23776.08701897705,14771.887930856697,12473.078068861732,33062.946267479216,51938.592128585835,0.0,0.0,0.0,193.0,0.0,193.0,0.0,0.0,0.0,179.0,193.0,0.0,179.0,1744418838.5757384,0.0,2025-04-11 20:47:18.575,FORWARD,39
225.0,7029.333058516152,-11415.549983447789,-21607.56547541207,-23754.405826855404,14660.598595213723,12411.007274509344,32946.8736585228,51817.579784104804,0.0,0.0,0.0,193.0,0.0,193.0,0.0,0.0,0.0,179.0,193.0,0.0,179.0,1744418838.5757692,0.0,2025-04-11 20:47:18.575,FORWARD,39
226.0,7029.333058516152,-11391.25363722487,-21617.42259471686,-23719.961788649773,14568.889387713598,12660.430390886117,32693.695449077542,51914.07226491836,0.0,0.0,0.0,193.0,0.0,193.0,0.0,0.0,0.0,178.0,193.0,0.0,178.0,1744418838.5758,0.0,2025-04-11 20:47:18.575,FORWARD,39
227.0,7028.528395715761,-11402.474212941434,-21571.534463350115,-23729.438928298823,14661.336202780749,12695.9473128256,32662.335951606747,51964.92248355418,0.0,0.0,0.0,193.0,0.0,193.0,0.0,0.0,0.0,179.0,193.0,0.0,179.0,1744418838.5758312,0.0,2025-04-11 20:47:18.575,FORWARD,39
228.0,7005.394340204518,-11444.674306473054,-21559.062189944052,-23777.71869632229,14795.424317768136,12524.844709020223,33018.0416128685,51925.89633773522,0.0,0.0,0.0,193.0,0.0,193.0,0.0,0.0,0.0,179.0,193.0,0.0,179.0,1744418838.5758617,0.0,2025-04-11 20:47:18.575,FORWARD,39
229.0,6993.503212154295,-11453.056210643794,-21605.442059688816,-23778.232786444758,14684.514961780902,12394.087003956676,32977.786121104495,51795.8762402387,0.0,0.0,0.0,193.0,0.0,193.0,0.0,0.0,0.0,178.0,193.0,0.0,178.0,1744418839.0506868,0.0,2025-04-11 20:47:19.050,FORWARD,39
230.0,7000.2534389797975,-11428.804567909787,-21629.648998933913,-23741.821794727064,14567.436524324004,12622.92416369011,32734.95676934204,51879.516467990456,0.0,0.0,0.0,193.0,0.0,193.0,0.0,0.0,0.0,178.0,193.0,0.0,178.0,1744418839.0510683,0.0,2025-04-11 20:47:19.051,FORWARD,39
231.0,7012.591601919127,-11414.119471802649,-21591.65103335989,-23733.46224230078,14623.025312784352,12703.591609429313,32625.857904655684,51960.541541640945,0.0,0.0,0.0,193.0,0.0,193.0,0.0,0.0,0.0,178.0,193.0,0.0,178.0,1744418839.0511267,0.0,2025-04-11 20:47:19.051,FORWARD,39
232.0,6981.187400959421,-11466.914292206084,-21572.473236617236,-23775.863501532498,14791.44570725509,12567.894168841145,32977.11556877084,51956.27235844998,0.0,0.0,0.0,193.0,0.0,193.0,0.0,0.0,0.0,179.0,193.0,0.0,179.0,1744418839.0511732,0.0,2025-04-11 20:47:19.051,FORWARD,39
233.0,6967.709299052871,-11478.648958045122,-21621.155336040894,-23794.19193198585,14699.37887184368,12379.156038660532,33012.453676754674,51811.58951659078,0.0,0.0,0.0,193.0,0.0,192.0,0.0,0.0,0.0,178.0,192.0,0.0,178.0,1744418839.0512135,0.0,2025-04-11 20:47:19.051,FORWARD,39
234.0,6970.503267109784,-11453.905576933095,-21645.719903197278,-23759.256155402203,14575.192579649995,12582.959244604022,32784.689400755095,51860.092802058796,0.0,0.0,0.0,193.0,0.0,192.0,0.0,0.0,0.0,178.0,192.0,0.0,178.0,1744418839.0513432,0.0,2025-04-11 20:47:19.051,FORWARD,39
235.0,6982.215581204365,-11428.40223650959,-21616.305007494095,-23747.186213396337,14579.238245396406,12718.522574725459,32616.805448151288,51957.23348346156,0.0,0.0,0.0,193.0,0.0,192.0,0.0,0.0,0.0,178.0,192.0,0.0,178.0,1744418839.0513864,0.0,2025-04-11 20:47:19.051,FORWARD,39
236.0,6960.579092571627,-11466.869588717174,-21572.428533128328,-23777.495178877733,14763.39426796368,12602.047634368853,32925.773611756995,51964.184875987165,0.0,0.0,0.0,193.0,0.0,192.0,0.0,0.0,0.0,179.0,192.0,0.0,179.0,1744418839.0514286,0.0,2025-04-11 20:47:19.051,FORWARD,39
237.0,6952.778333756725,-11487.813173271797,-21608.7501178682,-23803.467905934802,14708.677197537088,12386.643873053059,33053.804403997,51826.319316186826,0.0,0.0,0.0,193.0,0.0,193.0,0.0,0.0,0.0,179.0,193.0,0.0,179.0,1744418839.0514693,0.0,2025-04-11 20:47:19.051,FORWARD,39
238.0,6966.18938042991,-11460.342879336224,-21631.772414657167,-23762.94419323733,14580.534646574813,12535.551194614316,32839.36176769278,51821.04430449537,0.0,0.0,0.0,193.0,0.0,193.0,0.0,0.0,0.0,179.0,193.0,0.0,179.0,1744418839.0515096,0.0,2025-04-11 20:47:19.051,FORWARD,39
239.0,6990.485726652829,-11436.225347068948,-21608.7501178682,-23731.964675422274,14564.083762655708,12714.387502001227,32614.7490876614,51918.60966904279,0.0,0.0,0.0,193.0,0.0,192.0,0.0,0.0,0.0,178.0,192.0,0.0,178.0,1744418839.0515473,0.0,2025-04-11 20:47:19.051,FORWARD,39
240.0,6980.896828281502,-11465.774353238863,-21557.899899232376,-23752.751797765708,14741.44485490857,12638.838605742289,32845.530849162446,51951.53378862546,0.0,0.0,0.0,193.0,0.0,192.0,0.0,0.0,0.0,179.0,192.0,0.0,179.0,1744418839.051589,0.0,2025-04-11 20:47:19.051,FORWARD,39
241.0,6965.921159496446,-11477.55372256681,-21581.928024521832,-23786.52528363768,14750.34084920178,12418.986847279888,33076.156148452304,51852.02382231043,0.0,0.0,0.0,193.0,0.0,193.0,0.0,0.0,0.0,179.0,193.0,0.0,179.0,1744418839.0516264,0.0,2025-04-11 20:47:19.051,FORWARD,39
242.0,6962.322528639142,-11466.64607127262,-21629.246667533716,-23770.32026890758,14621.930077306042,12507.790328000823,32924.030175689484,51834.61181337974,0.0,0.0,0.0,193.0,0.0,193.0,0.0,0.0,0.0,179.0,193.0,0.0,179.0,1744418839.0516648,0.0,2025-04-11 20:47:19.051,FORWARD,39
243.0,6977.18643870192,-11442.662649472077,-21636.734501926247,-23753.735274521743,14551.8350066942,12709.246600776507,32679.010352970407,51957.18877997265,0.0,0.0,0.0,193.0,0.0,192.0,0.0,0.0,0.0,178.0,192.0,0.0,178.0,1744418839.0517051,0.0,2025-04-11 20:47:19.051,FORWARD,39
244.0,6983.266113193765,-11455.917233934073,-21573.501416862182,-23761.625440314467,14708.744252770455,12653.344887893783,32798.50277882848,51987.117765798306,0.0,0.0,0.0,193.0,0.0,192.0,0.0,0.0,0.0,178.0,192.0,0.0,178.0,1744418839.0517445,0.0,2025-04-11 20:47:19.051,FORWARD,39
245.0,6965.317662396153,-11475.542065565833,-21586.35366992398,-23809.18995251536,14760.667355140133,12434.36484746514,33087.08615149095,51899.14129962222,0.0,0.0,0.0,193.0,0.0,193.0,0.0,0.0,0.0,179.0,193.0,0.0,179.0,1744418839.0518448,0.0,2025-04-11 20:47:19.051,FORWARD,39
246.0,6973.520752611251,-11444.540196006323,-21614.203943515295,-23780.110332979006,14631.094292532718,12438.254051000364,32934.64725430575,51811.857737524246,0.0,0.0,0.0,193.0,0.0,193.0,0.0,0.0,0.0,179.0,193.0,0.0,179.0,1744418839.051884,0.0,2025-04-11 20:47:19.051,FORWARD,39
247.0,6991.424499919952,-11424.11070157417,-21612.28169349214,-23737.016169669172,14557.892329441587,12678.55765563937,32682.51957684989,51927.41625635818,0.0,0.0,0.0,193.0,0.0,193.0,0.0,0.0,0.0,178.0,193.0,0.0,178.0,1744418839.0519295,0.0,2025-04-11 20:47:19.051,FORWARD,39
248.0,6996.632456378038,-11428.82691965424,-21552.781349752113,-23737.574963280556,14690.840505461754,12679.18350448412,32739.00243508845,51987.877725109785,0.0,0.0,0.0,193.0,0.0,193.0,0.0,0.0,0.0,179.0,193.0,0.0,179.0,1744418839.0519695,0.0,2025-04-11 20:47:19.051,FORWARD,39
249.0,6983.266113193765,-11458.040649657327,-21563.30902139056,-23789.542769139145,14786.818896152843,12478.46483927546,33090.32715443696,51938.94975649712,0.0,0.0,0.0,193.0,0.0,193.0,0.0,0.0,0.0,179.0,193.0,0.0,179.0,1744418839.0520525,0.0,2025-04-11 20:47:19.052,FORWARD,39
250.0,7003.114462270077,-11431.285611544325,-21607.99015855672,-23771.92959450836,14655.725914922466,12401.150155204554,32989.40902822126,51809.01906597842,0.0,0.0,0.0,193.0,0.0,193.0,0.0,0.0,0.0,179.0,193.0,0.0,179.0,1744418839.0520883,0.0,2025-04-11 20:47:19.052,FORWARD,39
251.0,7018.62657292206,-11391.20893373596,-21623.345806997517,-23732.210544611284,14555.053657895764,12657.703478062569,32738.086013565782,51897.71078797708,0.0,0.0,0.0,193.0,0.0,193.0,0.0,0.0,0.0,178.0,193.0,0.0,178.0,1744418839.0521257,0.0,2025-04-11 20:47:19.052,FORWARD,39
252.0,7027.030828837255,-11377.507314384857,-21571.35564939447,-23726.577905008544,14642.493682204926,12699.188315771618,32682.541928594346,51950.125628724774,0.0,0.0,0.0,193.0,0.0,193.0,0.0,0.0,0.0,179.0,193.0,0.0,179.0,1744418839.0521622,0.0,2025-04-11 20:47:19.052,FORWARD,39
253.0,7000.923991313457,-11421.048512583795,-21565.007753969163,-23780.825588801574,14782.348547261781,12528.376284644162,33054.005569697096,51929.87494824827,0.0,0.0,0.0,193.0,0.0,193.0,0.0,0.0,0.0,179.0,193.0,0.0,179.0,1744418839.0521977,0.0,2025-04-11 20:47:19.052,FORWARD,39
254.0,7009.283543739742,-11412.085463057216,-21607.74428936771,-23783.507798136212,14669.695755207034,12372.092887412655,33028.83750544042,51793.462251837525,0.0,0.0,0.0,193.0,0.0,193.0,0.0,0.0,0.0,179.0,193.0,0.0,179.0,1744418839.0522358,0.0,2025-04-11 20:47:19.052,FORWARD,39
255.0,7028.796616649225,-11376.881465540107,-21621.222391274263,-23744.16872789487,14558.16055037505,12593.665730198114,32784.37647633273,51857.05296481287,0.0,0.0,0.0,193.0,0.0,193.0,0.0,0.0,0.0,178.0,193.0,0.0,178.0,1744418839.0522707,0.0,2025-04-11 20:47:19.052,FORWARD,39
0.0,7057.518608274295,-11354.216796662426,-21575.580129096525,-23735.250381857204,14604.60747535318,12686.492524921005,32659.050245171817,51933.27241340547,0.0,0.0,0.0,193.0,0.0,192.0,0.0,0.0,0.0,178.0,192.0,0.0,178.0,1744418839.0523057,0.0,2025-04-11 20:47:19.052,FORWARD,39
1.0,7030.182424805454,-11398.5403059173,-21549.02625668362,-23779.529187623168,14774.190160535594,12549.901014554622,33003.84825513938,51927.66212554719,0.0,0.0,0.0,193.0,0.0,193.0,0.0,0.0,0.0,179.0,193.0,0.0,179.0,1744418839.0523467,0.0,2025-04-11 20:47:19.052,FORWARD,39
2.0,7021.331134001152,-11405.201125764981,-21592.14277173791,-23793.34256569655,14692.203961873527,12355.172616859987,33055.72665402015,51781.235847620475,0.0,0.0,0.0,193.0,0.0,193.0,0.0,0.0,0.0,178.0,193.0,0.0,178.0,1744418839.0523832,0.0,2025-04-11 20:47:19.052,FORWARD,39
3.0,7040.955965632912,-11358.396572875568,-21614.159240026383,-23750.22605064226,14571.303376114773,12546.950584286522,32826.04012799742,51806.806243277344,0.0,0.0,0.0,193.0,0.0,192.0,0.0,0.0,0.0,178.0,192.0,0.0,178.0,1744418839.0524185,0.0,2025-04-11 20:47:19.052,FORWARD,39
4.0,7068.940349690956,-11331.552127784746,-21585.437248401315,-23733.953980678794,14576.98071920642,12695.254408747483,32645.236867098436,51903.32107583536,0.0,0.0,0.0,193.0,0.0,193.0,0.0,0.0,0.0,179.0,193.0,0.0,179.0,1744418839.0524902,0.0,2025-04-11 20:47:19.052,FORWARD,39
5.0,7056.1328001180655,-11372.589930604689,-21547.327524105018,-23769.336792151546,14760.06385803984,12595.163297076619,32944.23615267708,51926.58924181334,0.0,0.0,0.0,193.0,0.0,193.0,0.0,0.0,0.0,178.0,193.0,0.0,178.0,1744418839.052534,0.0,2025-04-11 20:47:19.052,FORWARD,39
6.0,7047.7955994362355,-11384.68222435501,-21589.929949036832,-23797.94702505434,14716.34384588526,12375.06566942521,33101.92770980927,51801.03949320788,0.0,0.0,0.0,193.0,0.0,192.0,0.0,0.0,0.0,178.0,192.0,0.0,178.0,1744418839.0525715,0.0,2025-04-11 20:47:19.052,FORWARD,39
7.0,7060.469038542395,-11348.807674504242,-21621.870591863466,-23759.434969357848,14576.8913122286,12510.114909424175,32901.49961727853,51794.4233768491,0.0,0.0,0.0,193.0,0.0,193.0,0.0,0.0,0.0,178.0,193.0,0.0,178.0,1744418839.0526206,0.0,2025-04-11 20:47:19.052,FORWARD,39
8.0,7083.737204520369,-11314.47539502089,-21606.023205044654,-23740.056006915096,14530.131462828096,12683.072708019341,32659.385521338645,51890.60293324029,0.0,0.0,0.0,193.0,0.0,193.0,0.0,0.0,0.0,179.0,193.0,0.0,179.0,1744418839.0527093,0.0,2025-04-11 20:47:19.052,FORWARD,39
9.0,7084.988902209867,-11328.020552160806,-21548.7356840057,-23755.635172800445,14713.840450506264,12614.966942664021,32862.74169239303,51918.92259346516,0.0,0.0,0.0,193.0,0.0,192.0,0.0,0.0,0.0,178.0,192.0,0.0,178.0,1744418839.0527475,0.0,2025-04-11 20:47:19.052,FORWARD,39
10.0,7073.611864282116,-11347.62303204811,-21575.490722118702,-23799.84692333304,14739.634363607689,12402.558315105238,33107.98503255666,51824.37471441922,0.0,0.0,0.0,193.0,0.0,193.0,0.0,0.0,0.0,179.0,193.0,0.0,179.0,1744418839.052877,0.0,2025-04-11 20:47:19.052,FORWARD,39
11.0,7078.2610271288195,-11329.071084150206,-21613.55574292609,-23772.063704975095,14612.140013234617,12462.796266412292,32930.0204432035,51773.09981263874,0.0,0.0,0.0,193.0,0.0,193.0,0.0,0.0,0.0,179.0,193.0,0.0,179.0,1744418839.052918,0.0,2025-04-11 20:47:19.052,FORWARD,39
12.0,7096.321236648708,-11302.874839648586,-21605.620873644457,-23739.430158070347,14553.421980550525,12682.64802487469,32667.856832487207,51876.05194759989,0.0,0.0,0.0,193.0,0.0,193.0,0.0,0.0,0.0,179.0,193.0,0.0,179.0,1744418839.052954,0.0,2025-04-11 20:47:19.052,FORWARD,39
13.0,7088.341663878163,-11332.870880707607,-21559.50922483316,-23762.810082770597,14705.682063780077,12657.815236784845,32801.43085735212,51931.57368082687,0.0,0.0,0.0,193.0,0.0,193.0,0.0,0.0,0.0,179.0,193.0,0.0,179.0,1744418839.0529897,0.0,2025-04-11 20:47:19.052,FORWARD,39
14.0,7091.381501124085,-11353.993279217873,-21570.97566973873,-23803.534961168167,14762.231977252004,12431.995562552878,33105.05695403301,51859.735174147514,0.0,0.0,0.0,193.0,0.0,193.0,0.0,0.0,0.0,179.0,193.0,0.0,179.0,1744418839.0530252,0.0,2025-04-11 20:47:19.053,FORWARD,39
15.0,7115.856661302646,-11315.749444454843,-21594.109725249975,-23769.09092296254,14651.412028242592,12425.446501427472,32962.36341743034,51764.47203927899,0.0,0.0,0.0,193.0,0.0,193.0,0.0,0.0,0.0,179.0,193.0,0.0,179.0,1744418839.0530605,0.0,2025-04-11 20:47:19.053,FORWARD,39
16.0,7109.575821110705,-11294.649397689032,-21615.61210341598,-23749.443739586324,14560.663945754046,12664.520760121437,32717.678870878088,51887.004302382986,0.0,0.0,0.0,193.0,0.0,193.0,0.0,0.0,0.0,179.0,193.0,0.0,179.0,1744418839.0530956,0.0,2025-04-11 20:47:19.053,FORWARD,39
17.0,7124.126806751109,-11292.749499410333,-21560.850329500478,-23747.4544343298,14675.194284343039,12663.112600220753,32729.793516372865,51936.7592855405,0.0,0.0,0.0,193.0,0.0,193.0,0.0,0.0,0.0,179.0,193.0,0.0,179.0,1744418839.0531316,0.0,2025-04-11 20:47:19.053,FORWARD,39
18.0,7107.184184453987,-11333.00499117434,-21555.21768989774,-23792.85082731853,14784.136686818205,12483.404574800084,33081.54291886603,51888.70303496159,0.0,0.0,0.0,193.0,0.0,193.0,0.0,0.0,0.0,178.0,193.0,0.0,178.0,1744418839.0531666,0.0,2025-04-11 20:47:19.053,FORWARD,39
19.0,7109.508765877339,-11324.265459092316,-21597.574245640546,-23788.693402849844,14653.13311256565,12393.729376045392,33009.54794997549,51764.69555672354,0.0,0.0,0.0,193.0,0.0,193.0,0.0,0.0,0.0,178.0,193.0,0.0,178.0,1744418839.05323,0.0,2025-04-11 20:47:19.053,FORWARD,39
20.0,7121.332838694196,-11282.490048705346,-21616.014434816174,-23750.762492509188,14544.123654857118,12631.283716116395,32748.077243337306,51842.50197917247,0.0,0.0,0.0,193.0,0.0,193.0,0.0,0.0,0.0,179.0,193.0,0.0,179.0,1744418839.053265,0.0,2025-04-11 20:47:19.053,FORWARD,39
21.0,7125.2220422294195,-11276.052746302217,-21570.34982089398,-23742.827623227553,14618.554963893292,12691.70048137909,32675.18820466855,51905.75741598099,0.0,0.0,0.0,193.0,0.0,192.0,0.0,0.0,0.0,178.0,192.0,0.0,178.0,1744418839.0533,0.0,2025-04-11 20:47:19.053,FORWARD,39
22.0,7104.949010008456,-11313.42486303149,-21552.9378119633,-23788.46988540529,14761.114390029239,12532.310191668295,33036.370043321855,51889.70886346208,0.0,0.0,0.0,193.0,0.0,193.0,0.0,0.0,0.0,178.0,193.0,0.0,178.0,1744418839.0533347,0.0,2025-04-11 20:47:19.053,FORWARD,39
23.0,7110.827518800202,-11308.954514140429,-21589.773486825645,-23790.213321472806,14672.623833730679,12372.450515323939,33026.78114495053,51745.651870447626,0.0,0.0,0.0,193.0,0.0,193.0,0.0,0.0,0.0,179.0,193.0,0.0,179.0,1744418839.0533876,0.0,2025-04-11 20:47:19.053,FORWARD,39
24.0,7122.562184639238,-11288.435612730458,-21618.09314705052,-23760.396094369426,14555.634803251602,12595.856201154733,32795.328831115825,51818.18328120509,0.0,0.0,0.0,193.0,0.0,193.0,0.0,0.0,0.0,179.0,193.0,0.0,179.0,1744418839.053423,0.0,2025-04-11 20:47:19.053,FORWARD,39
25.0,7147.372620984629,-11262.351126951115,-21586.398373412892,-23756.79746351212,14582.792172764799,12684.525571408936,32648.634332255642,51901.823508956855,0.0,0.0,0.0,193.0,0.0,192.0,0.0,0.0,0.0,178.0,192.0,0.0,178.0,1744418839.053458,0.0,2025-04-11 20:47:19.053,FORWARD,39
26.0,7136.3755627126175,-11298.359787268613,-21551.46259682925,-23787.642870860444,14760.980279562507,12551.465636666493,32978.277859482514,51903.74575898001,0.0,0.0,0.0,193.0,0.0,193.0,0.0,1.0,0.0,179.0,193.0,1.0,179.0,1744418839.0534928,0.0,2025-04-11 20:47:19.053,FORWARD,39
27.0,7133.358077211151,-11299.119746580094,-21586.35366992398,-23795.37657444198,14685.163162370107,12346.053105122222,33055.05610168649,51756.00072813043,0.0,0.0,0.0,193.0,0.0,193.0,0.0,2.0,0.0,179.0,193.0,2.0,179.0,1744418839.0535283,0.0,2025-04-11 20:47:19.053,FORWARD,39
28.0,7135.772065612325,-11275.024566057273,-21609.912408579876,-23754.02584719966,14563.59202427769,12533.584241102248,32842.15573574969,51785.16975464461,0.0,0.0,0.0,193.0,0.0,193.0,0.0,3.0,0.0,179.0,193.0,3.0,179.0,1744418839.053564,0.0,2025-04-11 20:47:19.053,FORWARD,39
29.0,7162.415345003051,-11244.112103475583,-21574.194320940296,-23721.88403867293,14563.703782999968,12689.375899955738,32634.21745708197,51870.97810160853,0.0,0.0,0.0,193.0,0.0,193.0,0.0,5.0,0.0,179.0,193.0,5.0,179.0,1744418839.053599,0.0,2025-04-11 20:47:19.053,FORWARD,39
30.0,7137.716667379937,-11285.082851062161,-21537.44805305577,-23760.329039136057,14750.564366646335,12604.461622770026,32921.97381519959,51900.99649441201,0.0,0.0,0.0,193.0,0.0,193.0,0.0,6.0,0.0,179.0,193.0,6.0,179.0,1744418839.0536587,0.0,2025-04-11 20:47:19.053,FORWARD,39
31.0,7132.955745810956,-11291.85542963212,-21570.282765660617,-23794.683670363866,14718.690779053066,12375.177428147486,33092.04823876003,51776.98901617397,0.0,0.0,0.0,193.0,0.0,193.0,0.0,7.0,0.0,179.0,193.0,7.0,179.0,1744418839.053696,0.0,2025-04-11 20:47:19.053,FORWARD,39
32.0,7131.704048121459,-11279.003176570319,-21606.447888189305,-23759.010286213197,14590.056489712775,12497.620284273658,32902.17016961219,51763.19798984504,0.0,0.0,0.0,193.0,0.0,193.0,0.0,8.0,0.0,179.0,193.0,8.0,179.0,1744418839.0537283,0.0,2025-04-11 20:47:19.053,FORWARD,39
33.0,7142.902272093567,-11253.790408824732,-21602.826905587543,-23743.6546377724,14528.58919246068,12685.598455142792,32656.591553281734,51868.78763065191,0.0,0.0,0.0,193.0,0.0,193.0,0.0,9.0,0.0,179.0,193.0,9.0,179.0,1744418839.05376,0.0,2025-04-11 20:47:19.053,FORWARD,39
34.0,7147.663193662548,-11265.547426408224,-21542.745416491678,-23761.84895775902,14700.719976511,12618.386759565683,32837.73009034754,51893.95569490859,0.0,0.0,0.0,193.0,0.0,193.0,0.0,9.0,0.0,179.0,193.0,9.0,179.0,1744418839.053792,0.0,2025-04-11 20:47:19.053,FORWARD,39
35.0,7133.64864988907,-11294.381176755569,-21570.55098659408,-23806.194818758348,14724.658694822634,12394.69050105697,33103.24646273213,51799.92190598511,0.0,0.0,0.0,193.0,0.0,193.0,0.0,10.0,0.0,179.0,193.0,10.0,179.0,1744418839.053841,0.0,2025-04-11 20:47:19.053,FORWARD,39
36.0,7140.689449392492,-11273.862275345598,-21610.918237080365,-23774.164768953895,14591.688167058011,12429.067484029232,32944.370263143814,51738.05227733282,0.0,0.0,0.0,193.0,0.0,193.0,0.0,11.0,0.0,178.0,193.0,11.0,178.0,1744418839.053873,0.0,2025-04-11 20:47:19.053,FORWARD,39
37.0,7168.047984605788,-11233.27150741476,-21607.029033545143,-23737.306742347093,14525.124672070107,12663.850207787778,32690.700315320533,51844.60304315127,0.0,0.0,0.0,193.0,0.0,193.0,0.0,11.0,0.0,179.0,193.0,11.0,179.0,1744418839.0539043,0.0,2025-04-11 20:47:19.053,FORWARD,39
38.0,7174.105307353176,-11223.973181721352,-21548.22159388323,-23744.191079639328,14676.714202966,12648.047524457876,32786.34342984479,51888.07718611684,0.0,0.0,0.0,193.0,0.0,193.0,0.0,12.0,0.0,178.0,193.0,12.0,178.0,1744418839.0539508,0.0,2025-04-11 20:47:19.053,FORWARD,39
39.0,7140.331821481207,-11268.699022376422,-21557.922250976833,-23785.608862115012,14748.172729989617,12453.788513396801,33126.53698045456,51829.64972611067,0.0,0.0,0.0,193.0,0.0,192.0,0.0,12.0,0.0,178.0,192.0,12.0,178.0,1744418839.0539827,0.0,2025-04-11 20:47:19.053,FORWARD,39
40.0,7150.054830319265,-11259.266586216281,-21591.449867659794,-23761.357219381003,14618.666722615568,12412.817765810225,33001.09899057138,51722.6072219142,0.0,0.0,0.0,193.0,0.0,193.0,0.0,12.0,0.0,179.0,193.0,12.0,179.0,1744418839.054014,0.0,2025-04-11 20:47:19.054,FORWARD,39
41.0,7162.080068836221,-11232.13156844754,-21600.32351020855,-23729.662445743375,14532.433692506993,12649.478036103015,32737.23664727648,51817.646839338166,0.0,0.0,0.0,193.0,0.0,193.0,0.0,12.0,0.0,179.0,193.0,12.0,179.0,1744418839.054046,0.0,2025-04-11 20:47:19.054,FORWARD,39
42.0,7168.18209507252,-11229.427007368447,-21546.433454326805,-23725.88500093043,14643.320696749772,12665.41482989965,32728.944150083564,51876.40957551117,0.0,0.0,0.0,193.0,0.0,193.0,0.0,13.0,0.0,179.0,193.0,13.0,179.0,1744418839.0540774,0.0,2025-04-11 20:47:19.054,FORWARD,39
43.0,7141.672926148525,-11280.14311553754,-21548.512166561148,-23786.637042359955,14763.058991796852,12483.18105735553,33099.04433477454,51855.890674101196,0.0,0.0,0.0,193.0,0.0,193.0,0.0,13.0,0.0,179.0,193.0,13.0,179.0,1744418839.0541089,0.0,2025-04-11 20:47:19.054,FORWARD,39
44.0,7155.642766433092,-11259.244234471827,-21573.613175584458,-23767.526300850666,14653.826016643765,12370.595320534148,33017.12519134583,51712.370122953675,0.0,0.0,0.0,193.0,0.0,193.0,0.0,13.0,0.0,179.0,193.0,13.0,179.0,1744418839.0541403,0.0,2025-04-11 20:47:19.054,FORWARD,39
45.0,7157.743830411891,-11233.6514870705,-21587.627719357937,-23733.84222195652,14552.170282861029,12614.45285254155,32766.3833220462,51791.651760536646,0.0,0.0,0.0,193.0,0.0,193.0,0.0,14.0,0.0,179.0,193.0,14.0,179.0,1744418839.054172,0.0,2025-04-11 20:47:19.054,FORWARD,39
46.0,7167.355080527674,-11222.386207865025,-21547.573393294024,-23735.518602790668,14618.17498423755,12671.941539280599,32686.386428640657,51871.60395045328,0.0,0.0,0.0,193.0,0.0,192.0,0.0,14.0,0.0,178.0,192.0,14.0,178.0,1744418839.0542035,0.0,2025-04-11 20:47:19.054,FORWARD,39
47.0,7159.621376946137,-11258.774847838265,-21529.513183774136,-23775.751742810222,14774.994823335985,12513.199450159009,33042.606180024886,51861.16568579265,0.0,0.0,0.0,193.0,0.0,193.0,0.0,14.0,0.0,179.0,193.0,14.0,179.0,1744418839.0542352,0.0,2025-04-11 20:47:19.054,FORWARD,39
48.0,7162.862379892156,-11258.081943760151,-21566.21474816975,-23770.677896818866,14678.882322178164,12337.335924784653,33040.81804046846,51708.458567673995,0.0,0.0,0.0,193.0,0.0,193.0,0.0,14.0,0.0,179.0,193.0,14.0,179.0,1744418839.0542674,0.0,2025-04-11 20:47:19.054,FORWARD,39
49.0,7156.89446412259,-11232.444492869914,-21583.60440535598,-23727.069643386563,14561.625070765624,12553.253776222919,32799.01686895095,51756.403059530625,0.0,0.0,0.0,193.0,0.0,193.0,0.0,14.0,0.0,179.0,193.0,14.0,179.0,1744418839.0542989,0.0,2025-04-11 20:47:19.054,FORWARD,39
50.0,7166.729231682924,-11211.07622517064,-21556.491739331694,-23715.4467362698,14581.138143675107,12673.483809648014,32646.041529898826,51843.32899371732,0.0,0.0,0.0,193.0,0.0,193.0,0.0,14.0,0.0,179.0,193.0,14.0,179.0,1744418839.0543485,0.0,2025-04-11 20:47:19.054,FORWARD,39
51.0,7166.058679349266,-11240.915804018476,-21511.654139954346,-23744.504004061702,14762.634308652201,12560.004003048422,32968.10781575535,51847.441714697095,0.0,0.0,0.0,193.0,0.0,193.0,0.0,15.0,0.0,178.0,193.0,15.0,178.0,1744418839.0543804,0.0,2025-04-11 20:47:19.054,FORWARD,39
52.0,7162.4376967475055,-11246.146112221017,-21549.965029950745,-23770.297917163127,14704.586828301768,12358.883006439568,33074.92680250726,51706.11163450619,0.0,0.0,0.0,193.0,0.0,193.0,0.0,15.0,0.0,179.0,193.0,15.0,179.0,1744418839.0544116,0.0,2025-04-11 20:47:19.054,FORWARD,39
53.0,7156.492132722394,-11231.170443435962,-21593.707393849778,-23745.196908139817,14572.689184271001,12529.67268582257,32874.74457916553,51732.218472029985,0.0,0.0,0.0,193.0,0.0,193.0,0.0,15.0,0.0,179.0,193.0,15.0,179.0,1744418839.0544431,0.0,2025-04-11 20:47:19.054,FORWARD,39
54.0,7181.459031278972,-11211.79148099321,-21570.483931360715,-23726.376739308445,14552.036172394297,12691.007577300976,32664.481719074458,51839.23862448199,0.0,0.0,0.0,193.0,0.0,193.0,0.0,15.0,0.0,179.0,193.0,15.0,179.0,1744418839.054489,0.0,2025-04-11 20:47:19.054,FORWARD,39
55.0,7165.209313059964,-11241.295783674215,-21520.617189480923,-23752.103597176505,14735.812215305832,12613.178803107598,32920.744469254554,51871.71570917556,0.0,0.0,0.0,193.0,0.0,193.0,0.0,15.0,0.0,179.0,193.0,15.0,179.0,1744418839.0545204,0.0,2025-04-11 20:47:19.054,FORWARD,39
56.0,7152.625280931626,-11257.6572606155,-21551.306134618062,-23786.927615037876,14715.829755762787,12383.291111384764,33104.475808677176,51747.95410012652,0.0,0.0,0.0,193.0,0.0,193.0,0.0,15.0,0.0,179.0,193.0,15.0,179.0,1744418839.054552,0.0,2025-04-11 20:47:19.054,FORWARD,39
57.0,7159.5543217127715,-11246.41433315448,-21592.388640926914,-23752.438873343333,14582.568655320247,12486.489115534916,32920.78917274346,51725.580003926756,0.0,0.0,0.0,193.0,0.0,193.0,0.0,15.0,0.0,179.0,193.0,15.0,179.0,1744418839.0545833,0.0,2025-04-11 20:47:19.054,FORWARD,39
58.0,7171.266635807352,-11221.73800727582,-21583.93968152281,-23724.208620096284,14537.664000709536,12692.907475579677,32683.99479198394,51840.13269426021,0.0,0.0,0.0,193.0,0.0,193.0,0.0,15.0,0.0,179.0,193.0,15.0,179.0,1744418839.0546148,0.0,2025-04-11 20:47:19.054,FORWARD,39
59.0,7160.582501957715,-11236.758379549789,-21527.54623026207,-23740.45833831529,14709.414805104114,12628.825024226311,32842.96039855008,51872.11804057575,0.0,0.0,0.0,193.0,0.0,193.0,0.0,15.0,0.0,179.0,193.0,15.0,179.0,1744418839.0546465,0.0,2025-04-11 20:47:19.054,FORWARD,39
60.0,7148.959594840956,-11256.249100714815,-21549.7862159951,-23785.7653243262,14750.027924779408,12397.640931325072,33109.59435815744,51777.301940596335,0.0,0.0,0.0,193.0,0.0,193.0,0.0,15.0,0.0,179.0,193.0,15.0,179.0,1744418839.0546775,0.0,2025-04-11 20:47:19.054,FORWARD,39
61.0,7156.961519355956,-11230.656353313489,-21589.90759729238,-23760.194928669327,14620.678379616545,12423.524251404317,32953.601533603854,51711.54310840883,0.0,0.0,0.0,193.0,0.0,193.0,0.0,16.0,0.0,179.0,193.0,16.0,179.0,1744418839.0547168,0.0,2025-04-11 20:47:19.054,FORWARD,39
62.0,7169.858475906668,-11214.138414161018,-21597.909521807378,-23733.618704511966,14538.893346654577,12659.22339668553,32705.027783516383,51829.40385692166,0.0,0.0,0.0,193.0,0.0,192.0,0.0,16.0,0.0,178.0,192.0,16.0,178.0,1744418839.0547607,0.0,2025-04-11 20:47:19.054,FORWARD,39
63.0,7180.676720223037,-11219.927515974941,-21535.726968732713,-23734.445719056814,14676.401278543626,12649.254518658463,32769.758435458956,51872.90035163169,0.0,0.0,0.0,193.0,0.0,193.0,0.0,16.0,0.0,179.0,193.0,16.0,179.0,1744418839.0547934,0.0,2025-04-11 20:47:19.054,FORWARD,39
64.0,7166.617472960648,-11245.408504653991,-21537.515108289135,-23776.84697828853,14773.899587857675,12449.318164505741,33104.520512166084,51803.14055718667,0.0,0.0,0.0,193.0,0.0,193.0,0.0,16.0,0.0,179.0,193.0,16.0,179.0,1744418839.0548253,0.0,2025-04-11 20:47:19.054,FORWARD,39
65.0,7160.89542638009,-11238.568870850668,-21582.71033557777,-23759.27850714666,14647.344010751727,12395.875143513102,33012.49838024359,51705.798710083815,0.0,0.0,0.0,193.0,0.0,193.0,0.0,16.0,0.0,178.0,193.0,16.0,178.0,1744418839.054877,0.0,2025-04-11 20:47:19.054,FORWARD,39
66.0,7173.099478852687,-11208.5951815361,-21595.316719450562,-23721.50405901719,14541.441445522481,12633.518890561925,32754.46984225152,51807.14151944417,0.0,0.0,0.0,193.0,0.0,192.0,0.0,16.0,0.0,179.0,192.0,16.0,179.0,1744418839.0549092,0.0,2025-04-11 20:47:19.054,FORWARD,39
67.0,7177.770993443846,-11208.304608858181,-21541.53842229109,-23722.912218917874,14642.270164760372,12669.706364835069,32728.720632639008,51871.02280509744,0.0,0.0,0.0,193.0,0.0,193.0,0.0,16.0,0.0,179.0,193.0,16.0,179.0,1744418839.0549414,0.0,2025-04-11 20:47:19.054,FORWARD,39
68.0,7149.317222752241,-11246.593147110123,-21536.82220421102,-23772.242518930736,14774.816009380344,12496.927380195544,33097.479712662665,51852.35909847726,0.0,0.0,0.0,193.0,0.0,193.0,0.0,16.0,0.0,179.0,193.0,16.0,179.0,1744418839.0549731,0.0,2025-04-11 20:47:19.054,FORWARD,39
69.0,7158.816714145746,-11240.46876912937,-21576.094219218998,-23761.60308857001,14657.446999245525,12375.043317680755,33050.54104930652,51724.41771321508,0.0,0.0,0.0,193.0,0.0,192.0,0.0,16.0,0.0,178.0,192.0,16.0,178.0,1744418839.0550203,0.0,2025-04-11 20:47:19.055,FORWARD,39
70.0,7167.51154273886,-11211.433853081924,-21595.85316131749,-23726.68966373082,14551.723247971922,12629.696742260068,32810.37155513425,51814.718760814525,0.0,0.0,0.0,193.0,0.0,193.0,0.0,16.0,0.0,179.0,193.0,16.0,179.0,1744418839.0550525,0.0,2025-04-11 20:47:19.055,FORWARD,39
71.0,7174.194714330997,-11201.822602966144,-21547.573393294024,-23722.152259606395,14602.03702474082,12705.51385945247,32695.57299561179,51887.96542739456,0.0,0.0,0.0,193.0,0.0,193.0,0.0,16.0,0.0,179.0,193.0,16.0,179.0,1744418839.0550857,0.0,2025-04-11 20:47:19.055,FORWARD,39
72.0,7160.113115324154,-11250.683516345443,-21520.527782503104,-23760.016114713686,14763.39426796368,12554.460770423506,33039.25341835659,51875.470802244046,0.0,0.0,0.0,193.0,0.0,193.0,0.0,16.0,0.0,179.0,193.0,16.0,179.0,1744418839.0551171,0.0,2025-04-11 20:47:19.055,FORWARD,39
73.0,7178.508601010872,-11245.520263376267,-21561.9902684677,-23763.413579870892,14681.43042104607,12377.367899104107,33071.37287513887,51735.39241974264,0.0,0.0,0.0,193.0,0.0,193.0,0.0,16.0,0.0,179.0,193.0,16.0,179.0,1744418839.0551498,0.0,2025-04-11 20:47:19.055,FORWARD,39
74.0,7178.642711477603,-11206.784690235221,-21584.78904781211,-23717.860724670976,14569.850512725177,12586.893151628155,32841.10520376029,51778.8218592193,0.0,0.0,0.0,193.0,0.0,193.0,0.0,16.0,0.0,179.0,193.0,16.0,179.0,1744418839.0551813,0.0,2025-04-11 20:47:19.055,FORWARD,39
75.0,7170.685490451514,-11194.960617418363,-21566.25945165866,-23714.26209381367,14577.159533162063,12716.46621423557,32677.781007025365,51879.91879939065,0.0,0.0,0.0,193.0,0.0,193.0,0.0,16.0,0.0,179.0,193.0,16.0,179.0,1744418839.055214,0.0,2025-04-11 20:47:19.055,FORWARD,39
76.0,7158.392031001095,-11227.013018967275,-21529.088500629485,-23747.186213396337,14753.492445169979,12594.626855209692,32979.127225771816,51887.339578549814,0.0,0.0,0.0,193.0,0.0,193.0,0.0,16.0,0.0,179.0,193.0,16.0,179.0,1744418839.0552454,0.0,2025-04-11 20:47:19.055,FORWARD,39
77.0,7158.392031001095,-11246.257870943293,-21572.83086452852,-23776.26583293269,14704.38566260167,12374.775096747291,33102.35239295392,51752.24563506194,0.0,0.0,0.0,193.0,0.0,193.0,0.0,16.0,0.0,180.0,193.0,16.0,180.0,1744418839.0552773,0.0,2025-04-11 20:47:19.055,FORWARD,39
78.0,7165.432830504517,-11224.308457888183,-21597.41778342936,-23736.904410946896,14580.914626230555,12528.800967788813,32886.45689326011,51757.14066709765,0.0,0.0,0.0,193.0,0.0,193.0,0.0,16.0,0.0,179.0,193.0,16.0,179.0,1744418839.0553098,0.0,2025-04-11 20:47:19.055,FORWARD,39
79.0,7182.129583612631,-11186.422251036436,-21564.40425686887,-23706.55074197659,14568.934091202509,12713.761653156478,32658.960838193994,51855.10836304526,0.0,0.0,0.0,193.0,0.0,193.0,0.0,16.0,0.0,178.0,193.0,16.0,178.0,1744418839.0553412,0.0,2025-04-11 20:47:19.055,FORWARD,39
80.0,7167.220970060942,-11223.07911194314,-21519.052567369054,-23745.308666862093,14752.285450969393,12643.912451733644,32908.56276852641,51888.14424135021,0.0,0.0,0.0,193.0,0.0,193.0,0.0,16.0,0.0,179.0,193.0,16.0,179.0,1744418839.0553865,0.0,2025-04-11 20:47:19.055,FORWARD,39
81.0,7157.944996111989,-11239.03825748423,-21556.692905031792,-23786.257062704215,14735.812215305832,12400.434899381984,33115.89755009384,51768.47300153649,0.0,0.0,0.0,193.0,0.0,193.0,0.0,16.0,0.0,179.0,193.0,16.0,179.0,1744418839.0554197,0.0,2025-04-11 20:47:19.055,FORWARD,39
82.0,7164.695222937492,-11201.375568077037,-21591.203998470784,-23747.856765729997,14604.383957908627,12476.542589252305,32919.336309353865,51722.58487016975,0.0,0.0,0.0,193.0,0.0,193.0,0.0,16.0,0.0,179.0,193.0,16.0,179.0,1744418839.0554516,0.0,2025-04-11 20:47:19.055,FORWARD,39
83.0,7181.168458601053,-11179.873189911032,-21585.37019316795,-23723.515716018166,14548.102265370164,12695.187353514119,32674.115320934692,51840.7361913605,0.0,0.0,0.0,193.0,0.0,193.0,0.0,16.0,0.0,179.0,193.0,16.0,179.0,1744418839.055483,0.0,2025-04-11 20:47:19.055,FORWARD,39
84.0,7171.914836396556,-11223.526146832246,-21536.375169321916,-23741.486518560236,14707.358444614227,12657.435257129104,32824.83313379683,51884.07622385934,0.0,0.0,0.0,193.0,0.0,193.0,0.0,17.0,0.0,179.0,193.0,17.0,179.0,1744418839.0555289,0.0,2025-04-11 20:47:19.055,FORWARD,39
85.0,7157.073278078232,-11258.573682138167,-21551.797872996078,-23784.42421965888,14753.805369592354,12443.909042347555,33108.879102334875,51796.63619955018,0.0,0.0,0.0,193.0,0.0,193.0,0.0,17.0,0.0,178.0,193.0,17.0,178.0,1744418839.0555608,0.0,2025-04-11 20:47:19.055,FORWARD,39
86.0,7162.392993258595,-11241.094617974117,-21593.282710705127,-23761.826606014565,14630.84842334371,12451.307469762263,32959.72591158461,51718.40509395661,0.0,0.0,0.0,193.0,0.0,193.0,0.0,16.0,0.0,179.0,193.0,16.0,179.0,1744418839.0555923,0.0,2025-04-11 20:47:19.055,FORWARD,39
87.0,7173.7029759529805,-11213.780786249732,-21602.111649764975,-23734.535126034632,14545.576518246713,12684.458516175571,32701.630318359177,51832.756618589956,0.0,0.0,0.0,193.0,0.0,192.0,0.0,17.0,0.0,178.0,192.0,17.0,178.0,1744418839.055626,0.0,2025-04-11 20:47:19.055,FORWARD,39
88.0,7183.09070862421,-11213.333751360626,-21540.35377983496,-23737.731425491744,14676.66949947709,12681.8433620743,32743.539839212877,51884.344444792805,0.0,0.0,0.0,193.0,0.0,193.0,0.0,17.0,0.0,179.0,193.0,17.0,179.0,1744418839.0556707,0.0,2025-04-11 20:47:19.055,FORWARD,39
89.0,7157.341499011696,-11239.373533651058,-21540.756111235158,-23787.151132482428,14780.180428049616,12488.277255091341,33087.08615149095,51830.14146448868,0.0,0.0,0.0,193.0,0.0,193.0,0.0,17.0,0.0,179.0,193.0,17.0,179.0,1744418839.0557084,0.0,2025-04-11 20:47:19.055,FORWARD,39
90.0,7159.934301368511,-11228.532937590235,-21591.27105370415,-23785.251234203726,14646.673458418067,12408.727396574903,32985.1845485192,51710.827852586255,0.0,0.0,0.0,193.0,0.0,192.0,0.0,17.0,0.0,178.0,192.0,17.0,178.0,1744418839.055798,0.0,2025-04-11 20:47:19.055,FORWARD,39
91.0,7164.762278170858,-11196.122908130039,-21610.694719635812,-23750.717789020277,14534.847680908166,12659.491617618993,32732.43102221859,51815.32225791481,0.0,0.0,0.0,193.0,0.0,193.0,0.0,17.0,0.0,179.0,193.0,17.0,179.0,1744418839.0558364,0.0,2025-04-11 20:47:19.055,FORWARD,39
92.0,7178.732118455425,-11197.151088374983,-21555.105931175465,-23740.860669715486,14617.347969692704,12691.164039512163,32680.820844271286,51879.8964476462,0.0,0.0,0.0,193.0,0.0,193.0,0.0,17.0,0.0,179.0,193.0,17.0,179.0,1744418839.055873,0.0,2025-04-11 20:47:19.055,FORWARD,39
93.0,7152.737039653903,-11252.158731479494,-21543.818300225532,-23784.42421965888,14760.622651651223,12523.704770053002,33047.702377760696,51861.03157532592,0.0,0.0,0.0,193.0,0.0,193.0,0.0,17.0,0.0,178.0,193.0,17.0,178.0,1744418839.5308323,0.0,2025-04-11 20:47:19.530,FORWARD,39
94.0,7148.51255995185,-11255.578548381156,-21590.287576948118,-23783.686612091853,14664.443095260036,12392.83530626718,33028.03284264002,51734.72186740898,0.0,0.0,0.0,193.0,0.0,193.0,0.0,17.0,0.0,179.0,193.0,17.0,179.0,1744418839.5309932,0.0,2025-04-11 20:47:19.530,FORWARD,39
95.0,7164.203484559475,-11223.034408454228,-21611.678196391847,-23746.135681406937,14558.764047475344,12634.8823469737,32785.98580193351,51810.941316001576,0.0,0.0,0.0,193.0,0.0,193.0,0.0,17.0,0.0,179.0,193.0,17.0,179.0,1744418839.5310717,0.0,2025-04-11 20:47:19.531,FORWARD,39
96.0,7182.263694079363,-11202.40374832198,-21569.589861582503,-23737.08322490254,14604.026329997341,12724.021103861465,32654.870468958674,51881.550476735894,0.0,0.0,0.0,193.0,0.0,193.0,0.0,17.0,0.0,179.0,193.0,17.0,179.0,1744418839.531108,0.0,2025-04-11 20:47:19.531,FORWARD,39
97.0,7167.355080527674,-11243.285088930737,-21541.873698457923,-23774.634155587453,14780.739221660999,12595.9232563881,33009.68206044222,51889.865325673265,0.0,0.0,0.0,193.0,0.0,193.0,0.0,17.0,0.0,179.0,193.0,17.0,179.0,1744418839.5311434,0.0,2025-04-11 20:47:19.531,FORWARD,39
98.0,7171.914836396556,-11245.140283720528,-21579.80460879858,-23788.492237149745,14707.760776014422,12404.659379084038,33056.3525028649,51743.77432391338,0.0,0.0,0.0,193.0,0.0,193.0,0.0,17.0,0.0,179.0,193.0,17.0,179.0,1744418839.5311787,0.0,2025-04-11 20:47:19.531,FORWARD,39
99.0,7160.068411835243,-11225.135472433029,-21620.149507540405,-23763.637097315444,14573.717364515946,12594.336282531773,32832.83505831183,51788.634275035176,0.0,0.0,0.0,193.0,0.0,192.0,0.0,17.0,0.0,178.0,192.0,17.0,178.0,1744418839.531234,0.0,2025-04-11 20:47:19.531,FORWARD,39
100.0,7176.295778309796,-11189.68560572691,-21581.70450707728,-23731.048253899608,14567.92826270202,12723.931696883643,32635.782079193843,51877.08012784483,0.0,0.0,0.0,193.0,0.0,193.0,0.0,17.0,0.0,179.0,193.0,17.0,179.0,1744418839.531269,0.0,2025-04-11 20:47:19.531,FORWARD,39
101.0,7163.532932225816,-11223.816719510165,-21534.251753598663,-23762.117178692482,14747.323363700316,12622.655942756646,32931.85328624884,51893.68747397512,0.0,0.0,0.0,193.0,0.0,193.0,0.0,17.0,0.0,179.0,193.0,17.0,179.0,1744418839.5313046,0.0,2025-04-11 20:47:19.531,FORWARD,39
102.0,7153.966385598945,-11236.98189699434,-21573.143788950896,-23792.448495918336,14714.846279006753,12401.999521493855,33077.43019788626,51765.03083289038,0.0,0.0,0.0,193.0,0.0,192.0,0.0,17.0,0.0,179.0,192.0,17.0,179.0,1744418839.5313392,0.0,2025-04-11 20:47:19.531,FORWARD,39
103.0,7162.303586280774,-11207.768166991254,-21603.47510617675,-23752.528280321156,14594.526838603835,12544.067209251787,32875.79511115493,51764.33792881226,0.0,0.0,0.0,193.0,0.0,193.0,0.0,17.0,0.0,179.0,193.0,17.0,179.0,1744418839.5313714,0.0,2025-04-11 20:47:19.531,FORWARD,39
104.0,7178.888580666612,-11191.093765627595,-21588.767658325156,-23727.807250953585,14558.831102708711,12735.62165923377,32652.679998002055,51872.76624116496,0.0,0.0,0.0,193.0,0.0,193.0,0.0,17.0,0.0,178.0,193.0,17.0,178.0,1744418839.5314023,0.0,2025-04-11 20:47:19.531,FORWARD,39
105.0,7166.03632760481,-11230.768112035765,-21545.986419437697,-23754.204661155305,14728.793767546866,12660.162169952651,32871.950611108616,51908.30551484889,0.0,0.0,0.0,193.0,0.0,192.0,0.0,17.0,0.0,178.0,192.0,17.0,178.0,1744418839.531434,0.0,2025-04-11 20:47:19.531,FORWARD,39
106.0,7160.984833357911,-11252.471655901869,-21567.332335392515,-23788.268719705193,14735.63340135019,12423.568954893228,33093.97048878318,51794.222211149005,0.0,0.0,0.0,193.0,0.0,193.0,0.0,17.0,0.0,179.0,193.0,17.0,179.0,1744418839.5314653,0.0,2025-04-11 20:47:19.531,FORWARD,39
107.0,7154.547530954783,-11231.617478325066,-21610.582960913536,-23762.631268814956,14603.646350341602,12485.170362612052,32920.16332389871,51743.59550995773,0.0,0.0,0.0,193.0,0.0,193.0,0.0,17.0,0.0,178.0,193.0,17.0,178.0,1744418839.5314965,0.0,2025-04-11 20:47:19.531,FORWARD,39
108.0,7171.110173596165,-11193.910085428965,-21599.585902641524,-23725.7508904637,14543.028419378808,12708.352530998294,32670.293172632835,51855.93537759011,0.0,0.0,0.0,193.0,0.0,192.0,0.0,17.0,0.0,179.0,192.0,17.0,179.0,1744418839.5315275,0.0,2025-04-11 20:47:19.531,FORWARD,39
109.0,7177.27925506583,-11207.611704780067,-21538.74445423418,-23731.383530066436,14697.948360198541,12677.797696327889,32791.2384618805,51892.79340419691,0.0,0.0,0.0,193.0,0.0,193.0,0.0,17.0,0.0,179.0,193.0,17.0,179.0,1744418839.5315585,0.0,2025-04-11 20:47:19.531,FORWARD,39
110.0,7160.56015021326,-11243.866234286575,-21562.705524290268,-23785.541806881643,14744.7305613435,12464.137371079609,33102.866483076396,51820.865490539734,0.0,0.0,0.0,193.0,0.0,193.0,0.0,17.0,0.0,179.0,193.0,17.0,179.0,1744418839.5316043,0.0,2025-04-11 20:47:19.531,FORWARD,39
111.0,7161.744792669391,-11224.867251499565,-21598.624777629946,-23759.122044935473,14616.610362125679,12456.627184942627,32975.707408870156,51741.516797723394,0.0,0.0,0.0,193.0,0.0,193.0,0.0,17.0,0.0,179.0,193.0,17.0,179.0,1744418839.5316353,0.0,2025-04-11 20:47:19.531,FORWARD,39
112.0,7171.020766618343,-11195.899390685487,-21605.732632366733,-23730.02007365466,14536.300544297761,12694.740318625012,32719.534065667878,51850.77212462093,0.0,0.0,0.0,193.0,0.0,193.0,0.0,17.0,0.0,179.0,193.0,17.0,179.0,1744418839.531666,0.0,2025-04-11 20:47:19.531,FORWARD,39
113.0,7176.943978899,-11200.5932570211,-21552.7366462632,-23734.11044288998,14659.19043531304,12690.314673222862,32733.77212688591,51898.4483955441,0.0,0.0,0.0,193.0,0.0,193.0,0.0,17.0,0.0,179.0,193.0,17.0,179.0,1744418839.5316963,0.0,2025-04-11 20:47:19.531,FORWARD,39
114.0,7158.213217045452,-11231.103388202595,-21546.098178159977,-23784.647737103434,14773.407849479658,12493.708728993981,33085.655639845805,51855.22012176754,0.0,0.0,0.0,193.0,0.0,193.0,0.0,17.0,0.0,179.0,193.0,17.0,179.0,1744418839.531744,0.0,2025-04-11 20:47:19.531,FORWARD,39
115.0,7156.492132722394,-11226.320114889159,-21593.774449083146,-23783.172521969384,14653.490740476936,12398.40089063655,33013.034822110516,51740.55567271182,0.0,0.0,0.0,193.0,0.0,193.0,0.0,17.0,0.0,178.0,193.0,17.0,178.0,1744418839.531777,0.0,2025-04-11 20:47:19.531,FORWARD,39
116.0,7173.390051530606,-11206.628228024034,-21613.064004548076,-23744.504004061702,14549.175149104018,12632.177785894608,32759.67779870961,51832.9354325456,0.0,0.0,0.0,193.0,0.0,193.0,0.0,17.0,0.0,179.0,193.0,17.0,179.0,1744418839.5318089,0.0,2025-04-11 20:47:19.531,FORWARD,39
117.0,7182.911894668567,-11201.21910586585,-21565.141864435896,-23738.424329569858,14630.647257643612,12697.154307026185,32690.5662048538,51901.17530836765,0.0,0.0,0.0,193.0,0.0,192.0,0.0,17.0,0.0,178.0,192.0,17.0,178.0,1744418839.53184,0.0,2025-04-11 20:47:19.531,FORWARD,39
118.0,7150.099533808177,-11238.881795273042,-21551.41789334034,-23781.94317602434,14778.504047215469,12551.510340155404,33060.576982566956,51886.31139830487,0.0,0.0,0.0,193.0,0.0,193.0,0.0,17.0,0.0,179.0,193.0,17.0,179.0,1744418839.5318725,0.0,2025-04-11 20:47:19.531,FORWARD,39
119.0,7143.930452338512,-11240.692286573922,-21601.262283475673,-23791.777943584675,14670.746287196433,12394.981073734889,33049.378758594845,51746.03185010336,0.0,0.0,0.0,193.0,0.0,193.0,0.0,17.0,0.0,179.0,193.0,17.0,179.0,1744418839.5319052,0.0,2025-04-11 20:47:19.531,FORWARD,39
120.0,7164.829333404224,-11213.378454849537,-21614.494516193216,-23742.98408543874,14562.228567865917,12625.360503835738,32809.32102314485,51815.121092214715,0.0,0.0,0.0,193.0,0.0,192.0,0.0,17.0,0.0,178.0,192.0,17.0,178.0,1744418839.5319383,0.0,2025-04-11 20:47:19.531,FORWARD,39
121.0,7187.002263903888,-11198.425137808936,-21568.472274359738,-23724.186268351827,14600.405347395581,12731.732455698546,32673.444768601035,51898.247229844004,0.0,0.0,0.0,193.0,0.0,193.0,0.0,17.0,0.0,179.0,193.0,17.0,179.0,1744418839.531973,0.0,2025-04-11 20:47:19.531,FORWARD,39
122.0,7165.633996204615,-11235.41727488247,-21536.553983277558,-23758.8091205131,14773.988994835496,12608.97667515,33015.71703144515,51906.18209912564,0.0,0.0,0.0,193.0,0.0,193.0,0.0,17.0,0.0,179.0,193.0,17.0,179.0,1744418839.532008,0.0,2025-04-11 20:47:19.532,FORWARD,39
123.0,7161.7894961583015,-11238.211242939382,-21583.425591400337,-23780.110332979006,14691.913389195608,12408.392120408073,33084.44864564522,51763.30974856731,0.0,0.0,0.0,193.0,0.0,193.0,0.0,17.0,0.0,179.0,193.0,17.0,179.0,1744418839.5320442,0.0,2025-04-11 20:47:19.532,FORWARD,39
124.0,7166.393955516095,-11204.705978000877,-21615.343882482517,-23742.78291973864,14566.721268501435,12585.77556440539,32853.53277367744,51781.90639995413,0.0,0.0,0.0,193.0,0.0,193.0,0.0,17.0,0.0,179.0,193.0,17.0,179.0,1744418839.532076,0.0,2025-04-11 20:47:19.532,FORWARD,39
125.0,7178.307435310774,-11178.375623032525,-21590.198169970296,-23727.583733509033,14563.413210322049,12735.979287145054,32656.256277114902,51882.22102906955,0.0,0.0,0.0,193.0,0.0,193.0,0.0,17.0,0.0,178.0,193.0,17.0,178.0,1744418839.5321295,0.0,2025-04-11 20:47:19.532,FORWARD,39
126.0,7158.36967925664,-11218.966390963364,-21543.21480312524,-23758.630306557454,14734.806386805343,12641.632573799203,32935.83189676188,51907.210279370585,0.0,0.0,0.0,193.0,0.0,193.0,0.0,17.0,0.0,179.0,193.0,17.0,179.0,1744418839.5321612,0.0,2025-04-11 20:47:19.532,FORWARD,39
127.0,7158.168513556542,-11247.911900032987,-21576.094219218998,-23787.41935341589,14707.604313803235,12413.22009721042,33101.458323175706,51777.90543769663,0.0,0.0,0.0,193.0,0.0,193.0,0.0,17.0,0.0,179.0,193.0,17.0,179.0,1744418839.532197,0.0,2025-04-11 20:47:19.532,FORWARD,39
128.0,7168.60677821717,-11224.889603244019,-21602.98336779873,-23747.633248285445,14593.610417081169,12535.215918447486,32907.534588281465,51755.03960311885,0.0,0.0,0.0,193.0,0.0,193.0,0.0,17.0,0.0,179.0,193.0,17.0,179.0,1744418839.5322394,0.0,2025-04-11 20:47:19.532,FORWARD,39
129.0,7179.626188233637,-11186.377547547525,-21587.42655365784,-23726.13087011944,14547.543471758781,12720.690693937624,32668.929716221064,51848.51459843095,0.0,0.0,0.0,193.0,0.0,193.0,0.0,17.0,0.0,179.0,193.0,17.0,179.0,1744418839.5323396,0.0,2025-04-11 20:47:19.532,FORWARD,39
130.0,7180.9225894120445,-11194.670044740444,-21525.35575930545,-23739.74308249272,14730.805424547843,12661.88325427571,32855.589134167334,51875.806078410875,0.0,0.0,0.0,193.0,0.0,193.0,0.0,17.0,0.0,179.0,193.0,17.0,179.0,1744418839.5323803,0.0,2025-04-11 20:47:19.532,FORWARD,39
131.0,7162.236531047408,-11231.617478325066,-21554.144806163884,-23784.983013270263,14757.96279406104,12443.573766180727,33120.50200945163,51788.32135061281,0.0,0.0,0.0,193.0,0.0,193.0,0.0,17.0,0.0,179.0,193.0,17.0,179.0,1744418839.532419,0.0,2025-04-11 20:47:19.532,FORWARD,39
132.0,7153.7428681543915,-11221.805062509187,-21594.6461671169,-23759.83730075804,14622.757091850888,12498.983740685433,32969.44892042266,51743.70726868001,0.0,0.0,0.0,193.0,0.0,193.0,0.0,17.0,0.0,179.0,193.0,17.0,179.0,1744418839.532464,0.0,2025-04-11 20:47:19.532,FORWARD,39
133.0,7153.899330365579,-11205.376530334537,-21600.32351020855,-23737.97729468075,14543.78837869029,12725.339856784327,32723.892655836662,51867.51358121796,0.0,0.0,0.0,193.0,0.0,193.0,0.0,17.0,0.0,178.0,193.0,17.0,178.0,1744418839.5325124,0.0,2025-04-11 20:47:19.532,FORWARD,39
134.0,7164.203484559475,-11209.891582714508,-21537.73862573369,-23738.04434991412,14688.314758338305,12686.313710965362,32806.080020198824,51904.41631131367,0.0,0.0,0.0,193.0,0.0,193.0,0.0,17.0,0.0,179.0,193.0,17.0,179.0,1744418839.5325923,0.0,2025-04-11 20:47:19.532,FORWARD,39
135.0,7156.782705400313,-11230.164614935473,-21538.967971678732,-23772.890719519943,14776.626500681223,12477.123734608143,33117.12689603888,51824.79939756387,0.0,0.0,0.0,193.0,0.0,193.0,0.0,17.0,0.0,179.0,193.0,17.0,179.0,1744418839.5326395,0.0,2025-04-11 20:47:19.532,FORWARD,39
136.0,7155.307490266263,-11212.797309493699,-21581.07865823253,-23754.852861744508,14650.85323463121,12451.955670351466,33004.58586270641,51732.33023075226,0.0,0.0,0.0,193.0,0.0,193.0,0.0,17.0,0.0,179.0,193.0,17.0,179.0,1744418839.532685,0.0,2025-04-11 20:47:19.532,FORWARD,39
137.0,7176.720461454447,-11178.934416643908,-21592.12041999345,-23720.475878772246,14547.722285714422,12684.234998731017,32737.728385654496,51827.571013876324,0.0,0.0,0.0,193.0,0.0,193.0,0.0,17.0,0.0,178.0,193.0,17.0,178.0,1744418839.5327246,0.0,2025-04-11 20:47:19.532,FORWARD,39
138.0,7192.679606995536,-11179.224989321827,-21532.016579153133,-23712.60806472398,14664.264281304393,12699.009501815975,32727.915969838617,51864.138467805205,0.0,0.0,0.0,193.0,0.0,193.0,0.0,17.0,0.0,179.0,193.0,17.0,179.0,1744418839.532765,0.0,2025-04-11 20:47:19.532,FORWARD,39
139.0,7157.766182156347,-11232.668010314466,-21545.40527408186,-23778.70217307832,14777.677032670623,12523.347142141718,33104.49816042163,51832.66721161213,0.0,0.0,0.0,193.0,0.0,193.0,0.0,17.0,0.0,179.0,193.0,17.0,179.0,1744418839.5328038,0.0,2025-04-11 20:47:19.532,FORWARD,39
140.0,7165.812810160257,-11215.479518828335,-21584.900806534388,-23767.8615770175,14644.214766527983,12404.346454661663,33025.14946760529,51698.84731755821,0.0,0.0,0.0,193.0,0.0,193.0,0.0,17.0,0.0,179.0,193.0,17.0,179.0,1744418839.5329587,0.0,2025-04-11 20:47:19.532,FORWARD,39
141.0,7177.122792854642,-11183.203599834873,-21599.876475319445,-23724.9015241744,14547.677582225513,12643.107788933254,32769.311400569844,51781.28055110938,0.0,0.0,0.0,193.0,0.0,192.0,0.0,17.0,0.0,178.0,192.0,17.0,178.0,1744418839.5330076,0.0,2025-04-11 20:47:19.533,FORWARD,39
142.0,7180.743775456403,-11184.678814968922,-21561.92321323433,-23731.94232367782,14610.597742867201,12710.632408932735,32697.025859001384,51865.27840677243,0.0,0.0,0.0,193.0,0.0,193.0,0.0,17.0,0.0,179.0,193.0,17.0,179.0,1744418839.5330515,0.0,2025-04-11 20:47:19.533,FORWARD,39
143.0,7155.553359455271,-11231.170443435962,-21551.194375895786,-23782.077286491072,14754.67708762611,12553.656107623114,33054.72082551966,51858.55053169138,0.0,0.0,0.0,193.0,0.0,193.0,0.0,17.0,0.0,180.0,193.0,17.0,180.0,1744418839.533093,0.0,2025-04-11 20:47:19.533,FORWARD,39
144.0,7152.625280931626,-11233.003286481297,-21593.148600238397,-23787.821684816085,14664.599557471223,12386.465059097418,33062.32041863447,51717.42161720057,0.0,0.0,0.0,193.0,0.0,193.0,0.0,17.0,0.0,178.0,193.0,17.0,178.0,1744418839.5332038,0.0,2025-04-11 20:47:19.533,FORWARD,39
145.0,7158.772010656836,-11200.97323667684,-21617.6014086725,-23751.32128612057,14549.957460159954,12599.11955584521,32830.979863522036,51771.31167308232,0.0,0.0,0.0,193.0,0.0,193.0,0.0,17.0,0.0,179.0,193.0,17.0,179.0,1744418839.5332477,0.0,2025-04-11 20:47:19.533,FORWARD,39
146.0,7177.972159143944,-11176.475724753825,-21573.434361628817,-23728.298989331604,14582.389841364604,12723.954048628098,32671.097835433226,51854.10253454477,0.0,0.0,0.0,193.0,0.0,193.0,0.0,17.0,0.0,179.0,193.0,17.0,179.0,1744418839.5332904,0.0,2025-04-11 20:47:19.533,FORWARD,39
147.0,7149.27251926333,-11227.661219556478,-21535.50345128816,-23763.12300719297,14759.125084772717,12616.732730475991,32999.82494113743,51861.478610215025,0.0,0.0,0.0,193.0,0.0,193.0,0.0,17.0,0.0,178.0,193.0,17.0,178.0,1744418839.5333276,0.0,2025-04-11 20:47:19.533,FORWARD,39
148.0,7139.102475536165,-11234.813777782176,-21582.240948944207,-23794.817780830595,14693.567418285302,12401.463079626928,33095.088076005944,51723.23307075895,0.0,0.0,0.0,193.0,0.0,193.0,0.0,17.0,0.0,179.0,193.0,17.0,179.0,1744418839.5333755,0.0,2025-04-11 20:47:19.533,FORWARD,39
149.0,7153.295833265285,-11198.179268619928,-21610.22533300225,-23752.438873343333,14575.93018721702,12577.72893640148,32875.03515184345,51747.887044893156,0.0,0.0,0.0,193.0,0.0,193.0,0.0,17.0,0.0,179.0,193.0,17.0,179.0,1744418839.5334191,0.0,2025-04-11 20:47:19.533,FORWARD,39
150.0,7172.227760818931,-11183.807096935165,-21588.70060309179,-23733.596352767512,14559.725172486922,12737.387447045738,32666.60513479771,51854.10253454477,0.0,0.0,0.0,193.0,0.0,193.0,0.0,17.0,0.0,179.0,193.0,17.0,179.0,1744418839.5334597,0.0,2025-04-11 20:47:19.533,FORWARD,39
151.0,7158.168513556542,-11218.161728162971,-21548.512166561148,-23761.84895775902,14739.008514762942,12640.82791099881,32930.57923681489,51879.47176450155,0.0,0.0,0.0,193.0,0.0,193.0,0.0,17.0,0.0,179.0,193.0,17.0,179.0,1744418839.533524,0.0,2025-04-11 20:47:19.533,FORWARD,39
152.0,7162.191827558498,-11219.033446196729,-21573.546120351093,-23787.642870860444,14724.189308189072,12413.354207677152,33108.20855000121,51745.87538789218,0.0,0.0,0.0,193.0,0.0,193.0,0.0,17.0,0.0,179.0,193.0,17.0,179.0,1744418839.5335777,0.0,2025-04-11 20:47:19.533,FORWARD,39
153.0,7162.70591768097,-11199.699187242888,-21601.105821264486,-23755.12108267797,14599.354815406183,12529.180947444553,32921.07974542138,51720.61791665768,0.0,0.0,0.0,193.0,0.0,193.0,0.0,17.0,0.0,179.0,193.0,17.0,179.0,1744418839.5336225,0.0,2025-04-11 20:47:19.533,FORWARD,39
154.0,7173.65827246407,-11173.011204363253,-21592.12041999345,-23730.198887610306,14547.990506647886,12732.42535977666,32685.939393751552,51834.432999424105,0.0,0.0,0.0,193.0,0.0,193.0,0.0,17.0,0.0,179.0,193.0,17.0,179.0,1744418839.5336637,0.0,2025-04-11 20:47:19.533,FORWARD,39
155.0,7163.130600825621,-11207.052911168685,-21550.099140417475,-23754.182309410848,14708.140755670162,12663.514931620948,32862.54052669293,51869.21231379656,0.0,0.0,0.0,193.0,0.0,193.0,0.0,17.0,0.0,179.0,193.0,17.0,179.0,1744418839.533795,0.0,2025-04-11 20:47:19.533,FORWARD,39
156.0,7156.961519355956,-11229.158786434984,-21567.958184237265,-23790.615652873,14740.01434326343,12428.709856117948,33125.75466939863,51770.86463819321,0.0,0.0,0.0,193.0,0.0,193.0,0.0,17.0,0.0,178.0,193.0,17.0,178.0,1744418839.5338433,0.0,2025-04-11 20:47:19.533,FORWARD,39
157.0,7166.103382838176,-11217.401768851492,-21599.56355089707,-23760.64196355843,14612.072958001252,12461.566920467249,32971.03589427899,51701.48482340394,0.0,0.0,0.0,193.0,0.0,193.0,0.0,17.0,0.0,179.0,193.0,17.0,179.0,1744418839.5338876,0.0,2025-04-11 20:47:19.533,FORWARD,39
158.0,7168.293853794797,-11196.25701859677,-21604.011548043676,-23737.03852141363,14526.01874184832,12691.722833123546,32720.18226625708,51816.9315835156,0.0,0.0,0.0,193.0,0.0,193.0,0.0,17.0,0.0,178.0,193.0,17.0,178.0,1744418839.5339296,0.0,2025-04-11 20:47:19.533,FORWARD,39
159.0,7168.115039839154,-11194.334768573615,-21540.10791064595,-23734.73629173473,14666.99119412794,12664.74427756599,32780.46492105305,51853.74490663349,0.0,0.0,0.0,193.0,0.0,193.0,0.0,17.0,0.0,179.0,193.0,17.0,179.0,1744418839.534028,0.0,2025-04-11 20:47:19.534,FORWARD,39
160.0,7145.092743050188,-11233.852652770598,-21554.88241373091,-23792.068516262596,14759.72858187301,12465.545530980293,33121.12785829638,51800.81597576332,0.0,0.0,0.0,193.0,0.0,193.0,0.0,17.0,0.0,179.0,193.0,17.0,179.0,1744418839.534112,0.0,2025-04-11 20:47:19.534,FORWARD,39
161.0,7152.088839064699,-11214.004303694284,-21592.343937438007,-23772.890719519943,14636.212842012983,12420.216193224931,33009.25737729757,51695.96394252348,0.0,0.0,0.0,193.0,0.0,192.0,0.0,17.0,0.0,178.0,192.0,17.0,178.0,1744418839.5341585,0.0,2025-04-11 20:47:19.534,FORWARD,39
162.0,7155.687469922003,-11183.315358557149,-21608.727766123746,-23745.59923954001,14532.411340762537,12667.873521789734,32756.4814992525,51803.051150208856,0.0,0.0,0.0,193.0,0.0,193.0,0.0,17.0,0.0,179.0,193.0,17.0,179.0,1744418839.5342035,0.0,2025-04-11 20:47:19.534,FORWARD,39
163.0,7171.423098018539,-11177.794477676687,-21550.79204449559,-23734.579829523544,14636.436359457537,12697.914266337666,32730.106440795236,51862.819714882346,0.0,0.0,0.0,193.0,0.0,193.0,0.0,17.0,0.0,179.0,193.0,17.0,179.0,1744418839.5342443,0.0,2025-04-11 20:47:19.534,FORWARD,39
164.0,7145.539777939293,-11229.494062601812,-21550.255602628662,-23787.687574349355,14774.100753557774,12530.678514323059,33101.83830283145,51839.77506634892,0.0,0.0,0.0,193.0,0.0,193.0,0.0,17.0,0.0,179.0,193.0,17.0,179.0,1744418839.5342824,0.0,2025-04-11 20:47:19.534,FORWARD,39
165.0,7142.946975582478,-11220.84393749761,-21598.155390996384,-23784.13364698096,14657.67051669008,12406.961608762933,33056.240744142626,51712.72775086496,0.0,0.0,0.0,193.0,0.0,193.0,0.0,17.0,0.0,179.0,193.0,17.0,179.0,1744418839.5343254,0.0,2025-04-11 20:47:19.534,FORWARD,39
166.0,7154.905158866068,-11189.372681304536,-21625.022187831662,-23746.85093722951,14537.820462920721,12642.571347066325,32810.572720834345,51797.61967630621,0.0,0.0,0.0,193.0,0.0,193.0,0.0,17.0,0.0,179.0,193.0,17.0,179.0,1744418839.534366,0.0,2025-04-11 20:47:19.534,FORWARD,39
167.0,7188.388072060117,-11178.59914047708,-21573.970803495744,-23731.964675422274,14592.090498458207,12702.474022206548,32689.18039669757,51854.30370024487,0.0,0.0,0.0,193.0,0.0,193.0,0.0,17.0,0.0,178.0,193.0,17.0,178.0,1744418839.534402,0.0,2025-04-11 20:47:19.534,FORWARD,39
168.0,7161.051888591277,-11231.93040274744,-21551.552003807068,-23781.026754501672,14763.506026685958,12559.735782114958,33046.47303181565,51843.70897337305,0.0,0.0,0.0,193.0,0.0,193.0,0.0,17.0,0.0,179.0,193.0,17.0,179.0,1744418839.534443,0.0,2025-04-11 20:47:19.534,FORWARD,39
169.0,7139.147179025076,-11240.513472618279,-21604.547989910603,-23804.451382690833,14674.501380264925,12377.077326426188,33078.14545370882,51705.77635833935,0.0,0.0,0.0,193.0,0.0,193.0,0.0,17.0,0.0,179.0,193.0,17.0,179.0,1744418839.5344832,0.0,2025-04-11 20:47:19.534,FORWARD,39
170.0,7140.55533892576,-11216.485347328824,-21632.130042568453,-23773.740085809244,14545.30829731325,12569.682308397569,32844.905000317696,51752.89383565114,0.0,0.0,0.0,193.0,0.0,193.0,0.0,17.0,0.0,179.0,193.0,17.0,179.0,1744418839.5345623,0.0,2025-04-11 20:47:19.534,FORWARD,39
171.0,7166.595121216193,-11182.488344012303,-21589.371155425448,-23751.634210542943,14567.280062112817,12699.344777982806,32670.40493135511,51835.17060699113,0.0,0.0,0.0,193.0,0.0,193.0,0.0,17.0,0.0,179.0,193.0,17.0,179.0,1744418839.5346155,0.0,2025-04-11 20:47:19.534,FORWARD,39
172.0,7149.183112285508,-11213.244344382805,-21550.6355822844,-23785.47475164828,14757.046372538374,12597.286712799872,32986.2350805086,51850.369793220736,0.0,0.0,0.0,193.0,0.0,193.0,0.0,17.0,0.0,179.0,193.0,17.0,179.0,1744418839.53465,0.0,2025-04-11 20:47:19.534,FORWARD,39
173.0,7134.900347578568,-11232.958582992385,-21598.17774274084,-23816.34251074106,14697.702491009533,12382.35233811764,33104.65462263282,51714.42648344356,0.0,0.0,0.0,193.0,0.0,192.0,0.0,17.0,0.0,178.0,192.0,17.0,178.0,1744418839.5346856,0.0,2025-04-11 20:47:19.534,FORWARD,39
174.0,7145.785647128302,-11210.942114703908,-21626.69856866581,-23773.740085809244,14569.962271447454,12541.697924339525,32888.088570605345,51713.86768983218,0.0,0.0,0.0,193.0,0.0,193.0,0.0,17.0,0.0,179.0,193.0,17.0,179.0,1744418839.534748,0.0,2025-04-11 20:47:19.534,FORWARD,39
175.0,7170.730193940425,-11181.862495167554,-21603.788030599124,-23750.203698897803,14543.810730434745,12712.107624066786,32657.66443701559,51803.76640603142,0.0,0.0,0.0,193.0,0.0,193.0,0.0,17.0,0.0,179.0,193.0,17.0,179.0,1744418839.534786,0.0,2025-04-11 20:47:19.534,FORWARD,39
176.0,7161.27540603583,-11197.888695942009,-21554.97182070873,-23773.60597534251,14720.836546520775,12627.9309544481,32894.97290789758,51827.436903409594,0.0,0.0,0.0,193.0,0.0,193.0,0.0,17.0,0.0,179.0,193.0,17.0,179.0,1744418839.5348258,0.0,2025-04-11 20:47:19.534,FORWARD,39
177.0,7164.6058159596705,-11213.825489738643,-21578.79878029809,-23800.5174756667,14718.713130797521,12400.83723078218,33099.424314430275,51709.41969268557,0.0,0.0,0.0,193.0,0.0,193.0,0.0,17.0,0.0,179.0,193.0,17.0,179.0,1744418839.5348656,0.0,2025-04-11 20:47:19.534,FORWARD,39
178.0,7167.288025294308,-11207.768166991254,-21614.33805398203,-23770.27556541867,14591.352890891183,12489.841877203213,32924.097230922845,51676.8979045031,0.0,0.0,0.0,193.0,0.0,193.0,0.0,17.0,0.0,180.0,193.0,17.0,180.0,1744418839.5349042,0.0,2025-04-11 20:47:19.534,FORWARD,39
179.0,7175.84874342069,-11176.699242198378,-21600.971710797752,-23743.22995462775,14537.418131520526,12696.550809925891,32679.47973960397,51779.06772840831,0.0,0.0,0.0,193.0,0.0,193.0,0.0,17.0,0.0,178.0,193.0,17.0,178.0,1744418839.5349388,0.0,2025-04-11 20:47:19.534,FORWARD,39
180.0,7162.03536534731,-11200.012111665263,-21552.535480563103,-23764.955850238308,14697.076642164784,12654.306012905361,32833.48325890103,51826.34166793128,0.0,0.0,0.0,193.0,0.0,193.0,0.0,17.0,0.0,179.0,193.0,17.0,179.0,1744418839.5349734,0.0,2025-04-11 20:47:19.534,FORWARD,39
181.0,7141.896443593078,-11229.427007368447,-21576.809475041566,-23810.016967060204,14731.923011770608,12437.382332966607,33121.68665190776,51758.213550831504,0.0,0.0,0.0,193.0,0.0,193.0,0.0,17.0,0.0,179.0,193.0,17.0,179.0,1744418839.5350072,0.0,2025-04-11 20:47:19.535,FORWARD,39
182.0,7147.037344817799,-11212.41732983796,-21613.175763270352,-23780.42325740138,14602.484059629925,12441.785626624302,32975.14861525877,51685.01158774037,0.0,0.0,0.0,193.0,0.0,193.0,0.0,17.0,0.0,179.0,193.0,17.0,179.0,1744418839.53504,0.0,2025-04-11 20:47:19.535,FORWARD,39
183.0,7156.9391676115,-11189.59619874909,-21626.18447854334,-23758.27267864617,14514.351131242649,12665.213664199551,32715.689565621564,51793.14932741515,0.0,0.0,0.0,193.0,0.0,193.0,0.0,17.0,0.0,179.0,193.0,17.0,179.0,1744418839.535073,0.0,2025-04-11 20:47:19.535,FORWARD,39
184.0,7172.786554430313,-11182.734213201311,-21566.371210380938,-23757.22214665677,14643.253641516405,12645.655887801158,32744.18803980208,51829.537967388394,0.0,0.0,0.0,193.0,0.0,193.0,0.0,17.0,0.0,179.0,193.0,17.0,179.0,1744418839.5351048,0.0,2025-04-11 20:47:19.535,FORWARD,39
185.0,7161.901254880579,-11211.88088797103,-21560.87268124493,-23796.09183026455,14759.370953961725,12457.923586121035,33092.94230853824,51778.24071386346,0.0,0.0,0.0,193.0,0.0,193.0,0.0,17.0,0.0,178.0,193.0,17.0,178.0,1744418839.535153,0.0,2025-04-11 20:47:19.535,FORWARD,39
186.0,7160.917778124545,-11198.31337908666,-21604.995024799708,-23784.737144081253,14643.834786872243,12399.518477859316,33009.34678427539,51672.449907356495,0.0,0.0,0.0,193.0,0.0,193.0,0.0,17.0,0.0,178.0,193.0,17.0,178.0,1744418839.5351849,0.0,2025-04-11 20:47:19.535,FORWARD,39
187.0,7166.952749127478,-11171.670099695933,-21624.150469797907,-23755.210489655794,14537.440483264982,12646.326440134817,32758.02376961992,51778.285417352374,0.0,0.0,0.0,193.0,0.0,193.0,0.0,17.0,0.0,179.0,193.0,17.0,179.0,1744418839.5352168,0.0,2025-04-11 20:47:19.535,FORWARD,39
188.0,7176.876923665634,-11172.02772760722,-21565.723009791735,-23744.74987325071,14625.349894207704,12686.380766198727,32705.56422538331,51840.11034251575,0.0,0.0,0.0,193.0,0.0,193.0,0.0,17.0,0.0,179.0,193.0,17.0,179.0,1744418839.535248,0.0,2025-04-11 20:47:19.535,FORWARD,39
189.0,7148.825484374223,-11218.206431651883,-21556.40233235387,-23793.007289529716,14762.366087718736,12521.357836885196,33072.82573852846,51817.28921142688,0.0,0.0,0.0,193.0,0.0,192.0,0.0,17.0,0.0,179.0,192.0,17.0,179.0,1744418839.5353062,0.0,2025-04-11 20:47:19.535,FORWARD,39
190.0,7145.428019217017,-11215.41246359497,-21602.89396082091,-23794.214283730304,14647.388714240637,12379.915997972012,33044.93076144824,51688.61021859768,0.0,0.0,0.0,193.0,0.0,193.0,0.0,17.0,0.0,179.0,193.0,17.0,179.0,1744418839.535339,0.0,2025-04-11 20:47:19.535,FORWARD,39
191.0,7161.074240335732,-11181.370756789536,-21619.300141251104,-23746.69447501832,14540.279154810805,12613.447024041061,32794.88179622672,51760.62753923268,0.0,0.0,0.0,193.0,0.0,193.0,0.0,17.0,0.0,179.0,193.0,17.0,179.0,1744418839.5353727,0.0,2025-04-11 20:47:19.535,FORWARD,39
192.0,7176.094612609699,-11171.625396207022,-21577.725896564236,-23736.569134780068,14595.398556637592,12701.691711150612,32670.80726275531,51835.08120001331,0.0,0.0,0.0,193.0,0.0,193.0,0.0,17.0,0.0,179.0,193.0,17.0,179.0,1744418839.53541,0.0,2025-04-11 20:47:19.535,FORWARD,39
193.0,7159.219045545941,-11207.87992571353,-21549.920326461834,-23781.719658579786,14760.913224329142,12554.259604723407,33012.29721454349,51831.25905171145,0.0,0.0,0.0,193.0,0.0,193.0,0.0,17.0,0.0,179.0,193.0,17.0,179.0,1744418839.5354493,0.0,2025-04-11 20:47:19.535,FORWARD,39
194.0,7158.280272278818,-11208.818698980655,-21583.09031523351,-23788.827513316573,14689.253531605427,12369.656547267026,33057.31362787648,51691.98533201043,0.0,0.0,0.0,193.0,0.0,193.0,0.0,17.0,0.0,179.0,193.0,17.0,179.0,1744418839.535489,0.0,2025-04-11 20:47:19.535,FORWARD,39
195.0,7155.46395247745,-11189.037405137708,-21619.590713929025,-23757.400960612413,14560.686297498502,12574.934968344567,32840.50170666,51750.63630946116,0.0,0.0,0.0,193.0,0.0,193.0,0.0,17.0,0.0,179.0,193.0,17.0,179.0,1744418839.535529,0.0,2025-04-11 20:47:19.535,FORWARD,39
196.0,7183.604798746682,-11153.989869831787,-21584.69964083429,-23738.714902247775,14559.903986442565,12702.049339061898,32647.494393288423,51833.15894999015,0.0,0.0,0.0,193.0,0.0,193.0,0.0,17.0,0.0,179.0,193.0,17.0,179.0,1744418839.5355701,0.0,2025-04-11 20:47:19.535,FORWARD,39
197.0,7167.220970060942,-11202.917838444453,-21538.900916445367,-23769.26973691818,14745.53522414389,12594.626855209692,32945.219629433115,51846.860569341254,0.0,0.0,0.0,193.0,0.0,193.0,0.0,17.0,0.0,179.0,193.0,17.0,179.0,1744418839.535612,0.0,2025-04-11 20:47:19.535,FORWARD,39
198.0,7147.953766340467,-11234.143225448517,-21584.878454789934,-23801.500952422735,14705.279732379882,12381.905303228534,33101.16775049779,51734.92303310907,0.0,0.0,0.0,193.0,0.0,192.0,0.0,17.0,0.0,179.0,192.0,17.0,179.0,1744418839.5356543,0.0,2025-04-11 20:47:19.535,FORWARD,39
199.0,7150.434809975006,-11204.728329745332,-21616.886152849933,-23765.201719427314,14582.814524509255,12524.084749708743,32908.451009804136,51747.171789070584,0.0,0.0,0.0,193.0,0.0,193.0,0.0,17.0,0.0,178.0,193.0,17.0,178.0,1744418839.5357027,0.0,2025-04-11 20:47:19.535,FORWARD,39
200.0,7167.556246227771,-11170.328995028614,-21595.294367706105,-23734.959809179283,14543.117826356629,12696.975493070542,32675.970515724483,51847.95580481956,0.0,0.0,0.0,193.0,0.0,193.0,0.0,17.0,0.0,179.0,193.0,17.0,179.0,1744418839.5358016,0.0,2025-04-11 20:47:19.535,FORWARD,39
201.0,7164.471705492939,-11184.187076590906,-21539.437358312294,-23754.69639953332,14716.030921462885,12626.813367225333,32891.307221806914,51874.04029059891,0.0,0.0,0.0,193.0,0.0,193.0,0.0,17.0,0.0,178.0,193.0,17.0,178.0,1744418839.5358496,0.0,2025-04-11 20:47:19.535,FORWARD,39
202.0,7153.072315820732,-11212.93141996043,-21574.484893618213,-23801.545655911646,14707.067871936308,12398.467945869917,33123.5194949531,51770.08232713727,0.0,0.0,0.0,193.0,0.0,193.0,0.0,17.0,0.0,179.0,193.0,17.0,179.0,1744418839.5358903,0.0,2025-04-11 20:47:19.535,FORWARD,39
203.0,7154.703993165969,-11203.521335544747,-21614.18159177084,-23773.963603253796,14575.572559305736,12473.972138639945,32959.837670306886,51735.012440086895,0.0,0.0,0.0,193.0,0.0,193.0,0.0,17.0,0.0,179.0,193.0,17.0,179.0,1744418839.535934,0.0,2025-04-11 20:47:19.535,FORWARD,39
204.0,7177.011034132366,-11165.165742059438,-21608.280731234638,-23740.592448782023,14521.704855168446,12691.856943590277,32697.249376445936,51846.949976319076,0.0,0.0,0.0,193.0,0.0,193.0,0.0,17.0,0.0,179.0,193.0,17.0,179.0,1744418839.536046,0.0,2025-04-11 20:47:19.536,FORWARD,39
205.0,7188.857458693678,-11165.433962992904,-21543.304210103062,-23744.436948828334,14681.989214657453,12657.703478062569,32804.78361902042,51884.14327909271,0.0,0.0,0.0,193.0,0.0,193.0,0.0,17.0,0.0,179.0,193.0,17.0,179.0,1744418839.536096,0.0,2025-04-11 20:47:19.536,FORWARD,39
206.0,7163.756449670369,-11193.664216239957,-21553.764826508144,-23788.492237149745,14746.026962521908,12463.80209491278,33119.1162012954,51819.680848083604,0.0,0.0,0.0,193.0,0.0,193.0,0.0,17.0,0.0,179.0,193.0,17.0,179.0,1744418839.5361571,0.0,2025-04-11 20:47:19.536,FORWARD,39
207.0,7156.268615277841,-11178.375623032525,-21593.5956351275,-23767.772170039676,14616.833879570233,12466.730173436425,32993.09706605638,51747.2164925595,0.0,0.0,0.0,193.0,0.0,193.0,0.0,17.0,0.0,179.0,193.0,17.0,179.0,1744418839.5361984,0.0,2025-04-11 20:47:19.536,FORWARD,39
208.0,7168.316205539251,-11166.6856606824,-21611.32056848056,-23742.090015660528,14516.809823132733,12697.154307026185,32730.084089050782,51853.521389188936,0.0,0.0,0.0,193.0,0.0,193.0,0.0,17.0,0.0,179.0,193.0,17.0,179.0,1744418839.5362356,0.0,2025-04-11 20:47:19.536,FORWARD,39
209.0,7174.015900375355,-11181.370756789536,-21561.69969578978,-23753.17648091036,14631.474272188458,12688.079498777332,32750.468879994023,51899.65538974469,0.0,0.0,0.0,193.0,0.0,193.0,0.0,17.0,0.0,179.0,193.0,17.0,179.0,1744418839.5362685,0.0,2025-04-11 20:47:19.536,FORWARD,39
210.0,7149.049001818777,-11221.290972386716,-21563.912518490855,-23801.791525100653,14736.415712406126,12489.193676614008,33097.613823129395,51853.00729906646,0.0,0.0,0.0,193.0,0.0,193.0,0.0,17.0,0.0,179.0,193.0,17.0,179.0,1744418839.536302,0.0,2025-04-11 20:47:19.536,FORWARD,39
211.0,7150.501865208372,-11202.426100066436,-21597.75305959619,-23779.93151902336,14623.13707150663,12396.411585380029,33003.71414467265,51721.91431783609,0.0,0.0,0.0,193.0,0.0,193.0,0.0,17.0,0.0,179.0,193.0,17.0,179.0,1744418839.5363455,0.0,2025-04-11 20:47:19.536,FORWARD,39
212.0,7153.027612331822,-11177.861532910054,-21623.904600608897,-23752.572983810067,14514.06055856473,12641.274945887917,32759.18606033159,51822.474816140515,0.0,0.0,0.0,193.0,0.0,193.0,0.0,17.0,0.0,179.0,193.0,17.0,179.0,1744418839.5363815,0.0,2025-04-11 20:47:19.536,FORWARD,39
213.0,7186.75639471488,-11148.357230229049,-21554.92711721982,-23727.36021606448,14603.89221953061,12693.689786635612,32688.04045773035,51883.47272675905,0.0,0.0,0.0,193.0,0.0,193.0,0.0,17.0,0.0,179.0,193.0,17.0,179.0,1744418840.0123863,0.0,2025-04-11 20:47:20.012,FORWARD,39
214.0,7168.383260772617,-11192.770146461744,-21534.899954187866,-23774.075361976073,14750.318497457327,12545.363610430195,33066.96958148117,51875.00141561049,0.0,0.0,0.0,193.0,0.0,193.0,0.0,17.0,0.0,179.0,193.0,17.0,179.0,1744418840.0125794,0.0,2025-04-11 20:47:20.012,FORWARD,39
215.0,7174.485287008916,-11190.445565038392,-21580.251643687683,-23775.483521876755,14645.444112473026,12397.283303413786,33057.85006974341,51738.85694013321,0.0,0.0,0.0,193.0,0.0,193.0,0.0,17.0,0.0,179.0,193.0,17.0,179.0,1744418840.0126784,0.0,2025-04-11 20:47:20.012,FORWARD,39
216.0,7167.578597972227,-11170.59721596208,-21612.348748725504,-23745.688646517832,14521.883669124089,12625.248745113462,32829.68346234363,51815.32225791481,0.0,0.0,0.0,193.0,0.0,193.0,0.0,17.0,0.0,179.0,193.0,17.0,179.0,1744418840.0127378,0.0,2025-04-11 20:47:20.012,FORWARD,39
217.0,7184.789441202813,-11142.545776670668,-21565.36538188045,-23732.344655078014,14553.511387528348,12707.525516453448,32680.440864615546,51883.6962442036,0.0,0.0,0.0,193.0,0.0,193.0,0.0,17.0,0.0,179.0,193.0,17.0,179.0,1744418840.0127969,0.0,2025-04-11 20:47:20.012,FORWARD,39
218.0,7168.584426472715,-11177.369794532036,-21531.189564608285,-23771.057876474606,14736.281601939394,12587.63075919518,33015.15823783377,51885.30556980438,0.0,0.0,0.0,193.0,0.0,193.0,0.0,17.0,0.0,179.0,193.0,17.0,179.0,1744418840.0128536,0.0,2025-04-11 20:47:20.012,FORWARD,39
219.0,7171.311339296262,-11188.210390592862,-21574.08256221802,-23782.85959754701,14670.701583707523,12396.635102824583,33084.51570087859,51743.32728902427,0.0,0.0,0.0,193.0,0.0,193.0,0.0,17.0,0.0,178.0,193.0,17.0,178.0,1744418840.012938,0.0,2025-04-11 20:47:20.012,FORWARD,39
220.0,7179.000339388888,-11173.659404952456,-21606.917274822867,-23744.973390695264,14551.186806104995,12584.993253349454,32873.001143098016,51775.82672546229,0.0,0.0,0.0,193.0,0.0,193.0,0.0,17.0,0.0,179.0,193.0,17.0,179.0,1744418840.0129936,0.0,2025-04-11 20:47:20.012,FORWARD,39
221.0,7190.466784294461,-11152.425247719913,-21574.596652340493,-23724.163916607373,14545.129483357607,12730.078426608852,32669.063826687794,51870.97810160853,0.0,0.0,0.0,193.0,0.0,193.0,0.0,17.0,0.0,179.0,193.0,17.0,179.0,1744418840.0130544,0.0,2025-04-11 20:47:20.013,FORWARD,39
222.0,7166.6621764495585,-11186.958692903363,-21530.764881463634,-23753.779978010654,14731.63243909269,12633.898870217667,32946.672492822705,51897.53197402143,0.0,0.0,0.0,193.0,0.0,192.0,0.0,17.0,0.0,179.0,192.0,17.0,179.0,1744418840.0131133,0.0,2025-04-11 20:47:20.013,FORWARD,39
