Sample Index,EXG Channel 0,EXG Channel 1,EXG Channel 2,EXG Channel 3,EXG Channel 4,EXG Channel 5,EXG Channel 6,EXG Channel 7,Accel Channel 0,Accel Channel 1,Accel Channel 2,Not Used,Digital Channel 0 (D11),Digital Channel 1 (D12),Digital Channel 2 (D13),Digital Channel 3 (D17),Not Used,Digital Channel 4 (D18),Analog Channel 0,Analog Channel 1,Analog Channel 2,Timestamp,Marker Channel,Timestamp (Formatted),Stimulus_Direction,Stimulus_Number
245.0,17515.251638323265,24346.10120607629,-31471.859690172638,-19610.59357054157,-34599.5169400593,-26129.1669165095,-14026.144328849832,-31439.248495012343,0.0,0.0,0.0,193.0,0.0,193.0,0.0,1.0,0.0,179.0,193.0,1.0,179.0,1744420632.391554,0.0,2025-04-11 21:17:12.391,FORWARD,42
246.0,17509.37312953152,24334.075967559336,-31467.61285872613,-19614.460422332337,-34590.15155913252,-26117.45460241492,-14120.803966618058,-31496.871292218126,0.0,0.0,0.0,193.0,0.0,193.0,0.0,1.0,0.0,179.0,193.0,1.0,179.0,1744420632.3916063,0.0,2025-04-11 21:17:12.391,FORWARD,42
247.0,17487.870751365514,24342.1449473077,-31467.478748259397,-19607.240808873274,-34585.345934074634,-26105.183494708956,-14470.094677221141,-31476.128873363603,0.0,0.0,0.0,193.0,0.0,194.0,0.0,1.0,0.0,180.0,194.0,1.0,180.0,1744420632.3917065,0.0,2025-04-11 21:17:12.391,FORWARD,42
248.0,17490.70942291134,24351.175052067647,-31464.84124241367,-19605.810297228134,-34581.03204739476,-26105.854047042616,-14575.304338372272,-31477.760550708837,0.0,0.0,0.0,193.0,0.0,193.0,0.0,1.0,0.0,179.0,193.0,1.0,179.0,1744420632.3924828,0.0,2025-04-11 21:17:12.392,FORWARD,42
249.0,17513.75407144476,24353.81255791337,-31475.950059407958,-19613.96868395432,-34589.72687598787,-26126.26118973031,-14112.869097336425,-31450.73729166237,0.0,0.0,0.0,193.0,0.0,193.0,0.0,1.0,0.0,179.0,193.0,1.0,179.0,1744420632.392539,0.0,2025-04-11 21:17:12.392,FORWARD,42
250.0,17512.52472549972,24341.96613335206,-31480.688629232485,-19627.26797190523,-34594.80072197923,-26124.85302982963,-14077.843913774957,-31508.181274912513,0.0,0.0,0.0,193.0,0.0,193.0,0.0,1.0,0.0,179.0,193.0,1.0,179.0,1744420632.3925824,0.0,2025-04-11 21:17:12.392,FORWARD,42
251.0,17485.099135053057,24344.983618853526,-31474.541899507276,-19614.63923628798,-34585.45769279691,-26103.97650050837,-14411.957789892887,-31467.61285872613,0.0,0.0,0.0,193.0,0.0,193.0,0.0,1.0,0.0,179.0,193.0,1.0,179.0,1744420632.39265,0.0,2025-04-11 21:17:12.392,FORWARD,42
252.0,17476.784286115682,24344.76010140897,-31467.054065114746,-19608.60426528505,-34576.472291525875,-26098.343860905632,-14586.569617577747,-31454.492384730864,0.0,0.0,0.0,193.0,0.0,194.0,0.0,1.0,0.0,179.0,194.0,1.0,179.0,1744420632.3927295,0.0,2025-04-11 21:17:12.392,FORWARD,42
253.0,17504.791021918183,24351.242107301012,-31474.251326829355,-19610.101832163553,-34587.84932945363,-26119.667425115997,-14183.545313304105,-31430.59836990814,0.0,0.0,0.0,193.0,0.0,193.0,0.0,1.0,0.0,179.0,193.0,1.0,179.0,1744420632.392774,0.0,2025-04-11 21:17:12.392,FORWARD,42
254.0,17508.70257719786,24340.28975251791,-31482.52147227782,-19629.637256817492,-34597.57233829169,-26133.547858422742,-14037.946049922235,-31499.933481208504,0.0,0.0,0.0,193.0,0.0,193.0,0.0,1.0,0.0,179.0,193.0,1.0,179.0,1744420632.392817,0.0,2025-04-11 21:17:12.392,FORWARD,42
255.0,17487.80369613215,24343.642514186206,-31475.011286140834,-19616.919114222423,-34585.25652709681,-26115.711166347406,-14359.520597400737,-31485.80717871275,0.0,0.0,0.0,193.0,0.0,194.0,0.0,1.0,0.0,180.0,194.0,1.0,180.0,1744420632.392861,0.0,2025-04-11 21:17:12.392,FORWARD,42
0.0,17477.9242250829,24350.683313689628,-31465.981181380892,-19609.319521107616,-34578.84157643814,-26108.98329126636,-14600.94178926251,-31480.55451876575,0.0,0.0,0.0,193.0,0.0,193.0,0.0,1.0,0.0,179.0,193.0,1.0,179.0,1744420632.3929057,0.0,2025-04-11 21:17:12.392,FORWARD,42
1.0,17503.807545162148,24357.925278893148,-31468.99866688236,-19608.112526907033,-34589.07867539867,-26121.41086118351,-14269.44306724585,-31441.66248341352,0.0,0.0,0.0,193.0,0.0,194.0,0.0,1.0,0.0,179.0,194.0,1.0,179.0,1744420632.3930178,0.0,2025-04-11 21:17:12.393,FORWARD,42
2.0,17522.650065737973,24352.739674179516,-31474.74306520737,-19623.40112011446,-34601.52859706028,-26130.284503732266,-14001.110375059889,-31474.854823929647,0.0,0.0,0.0,193.0,0.0,194.0,0.0,1.0,0.0,179.0,194.0,1.0,179.0,1744420632.3930638,0.0,2025-04-11 21:17:12.393,FORWARD,42
3.0,17503.718138184326,24345.564764209365,-31472.619649484117,-19615.242733388273,-34600.18749239296,-26115.487648902854,-14304.758823485236,-31482.029733899803,0.0,0.0,0.0,193.0,0.0,193.0,0.0,1.0,0.0,179.0,193.0,1.0,179.0,1744420632.3931098,0.0,2025-04-11 21:17:12.393,FORWARD,42
4.0,17483.51216119673,24354.706627691583,-31463.768358679816,-19604.93857919438,-34586.01648640829,-26104.3117766752,-14583.485076842915,-31462.807233668238,0.0,0.0,0.0,193.0,0.0,194.0,0.0,1.0,0.0,179.0,194.0,1.0,179.0,1744420632.3931525,0.0,2025-04-11 21:17:12.393,FORWARD,42
5.0,17502.689957939383,24364.273174318456,-31460.54970747825,-19595.88612268998,-34590.64329751054,-26106.636358098553,-14378.854856354577,-31433.861724598617,0.0,0.0,0.0,193.0,0.0,193.0,0.0,1.0,0.0,179.0,193.0,1.0,179.0,1744420632.3931956,0.0,2025-04-11 21:17:12.393,FORWARD,42
6.0,17518.067958124633,24363.267345817967,-31474.76541695183,-19613.07461417611,-34606.49068432936,-26127.2670182308,-13990.225075510154,-31446.98219859388,0.0,0.0,0.0,193.0,0.0,193.0,0.0,1.0,0.0,179.0,193.0,1.0,179.0,1744420632.3932395,0.0,2025-04-11 21:17:12.393,FORWARD,42
7.0,17505.305112040653,24349.901002633695,-31473.08903611768,-19611.442936830874,-34603.83082673918,-26120.762660594304,-14232.070950516576,-31486.500082790863,0.0,0.0,0.0,193.0,0.0,194.0,0.0,1.0,0.0,180.0,194.0,1.0,180.0,1744420632.3933015,0.0,2025-04-11 21:17:12.393,FORWARD,42
8.0,17489.547132199663,24357.277078303945,-31464.66242845803,-19603.038680915677,-34590.598594021634,-26107.97746276587,-14555.299527084771,-31468.79750118226,0.0,0.0,0.0,193.0,0.0,193.0,0.0,1.0,0.0,179.0,193.0,1.0,179.0,1744420632.3933473,0.0,2025-04-11 21:17:12.393,FORWARD,42
9.0,17502.9805306173,24362.417979528665,-31458.783919666283,-19597.562503524125,-34587.33523933116,-26110.793782567238,-14451.43097060096,-31453.084224830178,0.0,0.0,0.0,193.0,0.0,194.0,0.0,1.0,0.0,179.0,194.0,1.0,179.0,1744420632.393391,0.0,2025-04-11 21:17:12.393,FORWARD,42
10.0,17530.786100719703,24368.00591564249,-31467.478748259397,-19606.30203560615,-34601.95328020493,-26123.40016644003,-14002.67499717176,-31439.516715945807,0.0,0.0,0.0,193.0,0.0,194.0,0.0,1.0,0.0,179.0,194.0,1.0,179.0,1744420632.3934348,0.0,2025-04-11 21:17:12.393,FORWARD,42
11.0,17517.03977787969,24351.91265963467,-31467.81402442623,-19609.83361123009,-34601.03685868226,-26116.82875357017,-14161.953528160278,-31477.738198964384,0.0,0.0,0.0,193.0,0.0,193.0,0.0,1.0,0.0,179.0,193.0,1.0,179.0,1744420632.393496,0.0,2025-04-11 21:17:12.393,FORWARD,42
12.0,17494.84449563557,24361.00981962798,-31458.873326644105,-19594.0756313891,-34592.1632161335,-26094.477009114864,-14525.39289300357,-31459.208602810933,0.0,0.0,0.0,193.0,0.0,194.0,0.0,1.0,0.0,180.0,194.0,1.0,180.0,1744420632.3935416,0.0,2025-04-11 21:17:12.393,FORWARD,42
13.0,17492.56461770113,24373.750313967506,-31451.51960271831,-19587.951253408344,-34584.31775382969,-26093.3594218921,-14552.080875883208,-31451.51960271831,0.0,0.0,0.0,193.0,0.0,193.0,0.0,1.0,0.0,179.0,193.0,1.0,179.0,1744420632.393587,0.0,2025-04-11 21:17:12.393,FORWARD,42
14.0,17512.211801077345,24363.15558709569,-31470.2280128274,-19607.30786410664,-34602.37796334958,-26123.64603562904,-14051.915890206801,-31418.997814535836,0.0,0.0,0.0,193.0,0.0,193.0,0.0,1.0,0.0,179.0,193.0,1.0,179.0,1744420632.393634,0.0,2025-04-11 21:17:12.393,FORWARD,42
15.0,17501.17003931642,24336.713473405063,-31473.536071006787,-19622.127070680508,-34599.18166389247,-26125.970617052393,-14105.381262943896,-31480.822739699215,0.0,0.0,0.0,193.0,0.0,194.0,0.0,1.0,0.0,179.0,194.0,1.0,179.0,1744420632.3936813,0.0,2025-04-11 21:17:12.393,FORWARD,42
16.0,17478.147742527457,24347.889345632717,-31466.294105803267,-19607.30786410664,-34590.866814955094,-26111.44198315644,-14450.313383378194,-31465.51179474733,0.0,0.0,0.0,193.0,0.0,193.0,0.0,1.0,0.0,179.0,193.0,1.0,179.0,1744420632.393761,0.0,2025-04-11 21:17:12.393,FORWARD,42
17.0,17478.192446016365,24352.560860223875,-31462.114329590124,-19603.709233249338,-34590.240966110345,-26114.571227380184,-14580.735812274912,-31479.302821076253,0.0,0.0,0.0,193.0,0.0,194.0,0.0,1.0,0.0,180.0,194.0,1.0,180.0,1744420632.3938084,0.0,2025-04-11 21:17:12.393,FORWARD,42
18.0,17509.708405698348,24352.717322435063,-31477.537033264285,-19617.232038644797,-34604.009640694814,-26143.919067850005,-14136.22667029222,-31453.017169596813,0.0,0.0,0.0,193.0,0.0,194.0,0.0,0.0,0.0,179.0,194.0,0.0,179.0,1744420632.3938546,0.0,2025-04-11 21:17:12.393,FORWARD,42
19.0,17521.443071537386,24347.755235165983,-31487.170635124523,-19638.712065066346,-34607.63062329657,-26151.406902242532,-14066.422172358296,-31501.408696342554,0.0,0.0,0.0,193.0,0.0,193.0,0.0,1.0,0.0,179.0,193.0,1.0,179.0,1744420632.3939037,0.0,2025-04-11 21:17:12.393,FORWARD,42
20.0,17488.742469399273,24334.411243726165,-31484.80135021226,-19631.335989396095,-34604.97076570639,-26142.421500971497,-14407.666254957468,-31507.533074323306,0.0,0.0,0.0,193.0,0.0,194.0,0.0,1.0,0.0,179.0,194.0,1.0,179.0,1744420632.3939478,0.0,2025-04-11 21:17:12.393,FORWARD,42
21.0,17471.665736635416,24331.416109969156,-31468.17165233751,-19615.488602577283,-34590.08450389916,-26120.74030884985,-14616.56565863677,-31486.500082790863,0.0,0.0,0.0,193.0,0.0,193.0,0.0,1.0,0.0,179.0,193.0,1.0,179.0,1744420632.3939915,0.0,2025-04-11 21:17:12.393,FORWARD,42
22.0,17497.70551892585,24345.654171187183,-31469.51275700483,-19611.9793786978,-34594.376038834576,-26129.725710120885,-14210.881496772945,-31435.471050199398,0.0,0.0,0.0,193.0,0.0,194.0,0.0,1.0,0.0,179.0,194.0,1.0,179.0,1744420632.3941033,0.0,2025-04-11 21:17:12.394,FORWARD,42
23.0,17496.811449147637,24331.304351246876,-31480.398056554564,-19631.738320796292,-34605.28369012877,-26138.442890458453,-14026.63606722785,-31484.71194323444,0.0,0.0,0.0,193.0,0.0,194.0,0.0,0.0,0.0,179.0,194.0,0.0,179.0,1744420632.394159,0.0,2025-04-11 21:17:12.394,FORWARD,42
24.0,17472.805675602638,24320.016720296946,-31483.683762989494,-19627.06680620513,-34609.88814948656,-26127.378776953075,-14353.418571164439,-31484.71194323444,0.0,0.0,0.0,193.0,0.0,193.0,0.0,0.0,0.0,179.0,193.0,0.0,179.0,1744420632.394213,0.0,2025-04-11 21:17:12.394,FORWARD,42
25.0,17462.92620455339,24334.455947215076,-31468.573983737708,-19610.88414321949,-34597.97466969188,-26110.2126372114,-14636.168138524074,-31482.923803678015,0.0,0.0,0.0,193.0,0.0,194.0,0.0,0.0,0.0,180.0,194.0,0.0,180.0,1744420632.3942645,0.0,2025-04-11 21:17:12.394,FORWARD,42
26.0,17489.88240836649,24341.04971182939,-31468.506928504343,-19606.100869906055,-34594.95718419042,-26121.276750716777,-14317.432262591394,-31443.18240203648,0.0,0.0,0.0,193.0,0.0,194.0,0.0,0.0,0.0,180.0,194.0,0.0,180.0,1744420632.3943884,0.0,2025-04-11 21:17:12.394,FORWARD,42
27.0,17502.578199217107,24332.354883236276,-31483.75081822286,-19631.89478300748,-34609.57522506419,-26142.73442539387,-13987.542866175518,-31476.307687319244,0.0,0.0,0.0,193.0,0.0,193.0,0.0,0.0,0.0,179.0,193.0,0.0,179.0,1744420632.3944488,0.0,2025-04-11 21:17:12.394,FORWARD,42
28.0,17489.569483944117,24326.006987810968,-31477.984068153393,-19623.959913725845,-34605.26133838431,-26129.435137442964,-14284.977529642289,-31505.029678944313,0.0,0.0,0.0,193.0,0.0,194.0,0.0,0.0,0.0,180.0,194.0,0.0,180.0,1744420632.3945005,0.0,2025-04-11 21:17:12.394,FORWARD,42
29.0,17480.002937317247,24344.424825242142,-31462.85193715715,-19603.418660571417,-34589.346896332136,-26109.87736104457,-14596.873771771643,-31485.404847312555,0.0,0.0,0.0,193.0,0.0,194.0,0.0,0.0,0.0,180.0,194.0,0.0,180.0,1744420632.3945515,0.0,2025-04-11 21:17:12.394,FORWARD,42
30.0,17493.905722368447,24351.465624745564,-31464.193041824466,-19600.892913447966,-34593.6160795231,-26119.600369882628,-14387.728498903334,-31452.391320752064,0.0,0.0,0.0,193.0,0.0,193.0,0.0,0.0,0.0,179.0,193.0,0.0,179.0,1744420632.394604,0.0,2025-04-11 21:17:12.394,FORWARD,42
31.0,17509.395481275973,24344.357770008777,-31478.90048967606,-19624.27283814822,-34617.510094345824,-26146.444814973453,-13997.936427347235,-31479.95102166546,0.0,0.0,0.0,193.0,0.0,194.0,0.0,0.0,0.0,179.0,194.0,0.0,179.0,1744420632.394719,0.0,2025-04-11 21:17:12.394,FORWARD,42
32.0,17496.140896813977,24336.087624560314,-31469.758626193838,-19615.801526999658,-34611.989213465364,-26132.139698522056,-14239.648191886925,-31518.977167484423,0.0,0.0,0.0,193.0,0.0,193.0,0.0,0.0,0.0,179.0,193.0,0.0,179.0,1744420632.3947768,0.0,2025-04-11 21:17:12.394,FORWARD,42
33.0,17481.768725129215,24352.58321196833,-31456.347579520654,-19594.746183722757,-34597.28176561377,-26105.474067386876,-14567.660041768557,-31480.621573999117,0.0,0.0,0.0,193.0,0.0,193.0,0.0,0.0,0.0,179.0,193.0,0.0,179.0,1744420632.394832,0.0,2025-04-11 21:17:12.394,FORWARD,42
34.0,17494.732736913295,24360.518081249964,-31452.07839632969,-19586.051355129643,-34599.09225691465,-26102.16600920749,-14493.385194943572,-31444.70232065944,0.0,0.0,0.0,193.0,0.0,194.0,0.0,0.0,0.0,180.0,194.0,0.0,180.0,1744420632.3948903,0.0,2025-04-11 21:17:12.394,FORWARD,42
35.0,17511.22832432131,24358.10409284879,-31468.17165233751,-19604.849172216556,-34610.80457100923,-26132.474974688885,-14016.711892689693,-31440.3213787462,0.0,0.0,0.0,193.0,0.0,193.0,0.0,0.0,0.0,179.0,193.0,0.0,179.0,1744420632.394941,0.0,2025-04-11 21:17:12.394,FORWARD,42
36.0,17502.22057130582,24341.608505440774,-31464.640076713575,-19607.26316061773,-34603.20497789443,-26124.540105407254,-14163.160522360866,-31502.861559732148,0.0,0.0,0.0,193.0,0.0,194.0,0.0,0.0,0.0,179.0,194.0,0.0,179.0,1744420632.3949971,0.0,2025-04-11 21:17:12.394,FORWARD,42
37.0,17483.31099549663,24345.20713629808,-31457.375759765597,-19594.232093600287,-34593.2137481229,-26104.959977264403,-14512.138308541575,-31477.335867564187,0.0,0.0,0.0,193.0,0.0,194.0,0.0,0.0,0.0,180.0,194.0,0.0,180.0,1744420632.3951163,0.0,2025-04-11 21:17:12.395,FORWARD,42
38.0,17486.440239720374,24349.901002633695,-31451.340788762667,-19587.414811541417,-34590.91151844401,-26104.44588714193,-14542.939012400988,-31463.61189646863,0.0,0.0,0.0,193.0,0.0,193.0,0.0,0.0,0.0,179.0,193.0,0.0,179.0,1744420632.395176,0.0,2025-04-11 21:17:12.395,FORWARD,42
39.0,17508.076728353113,24347.86699388826,-31467.389341281578,-19604.35743383854,-34610.379887864576,-26133.07847178918,-14063.672907790293,-31442.71301540292,0.0,0.0,0.0,193.0,0.0,194.0,0.0,0.0,0.0,179.0,194.0,0.0,179.0,1744420632.395232,0.0,2025-04-11 21:17:12.395,FORWARD,42
40.0,17493.03400433469,24326.76694712245,-31476.41944604152,-19624.541059081683,-34618.29240540176,-26140.49925094834,-14114.657236892848,-31511.355222625167,0.0,0.0,0.0,193.0,0.0,194.0,0.0,0.0,0.0,180.0,194.0,0.0,180.0,1744420632.3952844,0.0,2025-04-11 21:17:12.395,FORWARD,42
41.0,17479.153571027946,24340.848546129295,-31460.952038878448,-19601.65287275945,-34602.981460449875,-26113.92302679098,-14482.119915738096,-31490.36693458163,0.0,0.0,0.0,193.0,0.0,193.0,0.0,0.0,0.0,179.0,193.0,0.0,179.0,1744420632.395384,0.0,2025-04-11 21:17:12.395,FORWARD,42
42.0,17482.64044316297,24354.25959280248,-31444.679968914985,-19586.945424907855,-34587.75992247581,-26103.2612446858,-14608.116699232663,-31481.85091994416,0.0,0.0,0.0,193.0,0.0,194.0,0.0,0.0,0.0,180.0,194.0,0.0,180.0,1744420632.3954399,0.0,2025-04-11 21:17:12.395,FORWARD,42
43.0,17510.60247547656,24359.176976582647,-31449.08326257268,-19584.64319522896,-34592.051457411224,-26112.87249480158,-14151.448208266283,-31428.474954184887,0.0,0.0,0.0,193.0,0.0,194.0,0.0,0.0,0.0,180.0,194.0,0.0,180.0,1744420632.3954952,0.0,2025-04-11 21:17:12.395,FORWARD,42
44.0,17502.265274794732,24333.405415225676,-31465.154166836044,-19609.900666463454,-34602.24385288285,-26126.350596708133,-14038.571898766982,-31473.536071006787,0.0,0.0,0.0,193.0,0.0,193.0,0.0,0.0,0.0,179.0,193.0,0.0,179.0,1744420632.3955524,0.0,2025-04-11 21:17:12.395,FORWARD,42
45.0,17477.03015530469,24336.266438515955,-31463.008399368337,-19602.725756493302,-34599.695754014945,-26117.231084970368,-14379.950091832889,-31482.18619611099,0.0,0.0,0.0,193.0,0.0,194.0,0.0,0.0,0.0,179.0,194.0,0.0,179.0,1744420632.395605,0.0,2025-04-11 21:17:12.395,FORWARD,42
46.0,17470.235224990276,24344.58128745333,-31451.854878885137,-19592.108677877033,-34591.73853298885,-26110.234988955857,-14613.27995220184,-31487.0812281467,0.0,0.0,0.0,193.0,0.0,193.0,0.0,0.0,0.0,179.0,193.0,0.0,179.0,1744420632.3957188,0.0,2025-04-11 21:17:12.395,FORWARD,42
47.0,17498.599588704063,24346.324723520844,-31457.241649298867,-19593.20391335534,-34602.44501858295,-26128.675178131485,-14230.059293515598,-31446.445756726953,0.0,0.0,0.0,193.0,0.0,194.0,0.0,0.0,0.0,179.0,194.0,0.0,179.0,1744420632.3957772,0.0,2025-04-11 21:17:12.395,FORWARD,42
48.0,17513.50820225575,24343.463700230564,-31461.443777256463,-19609.900666463454,-34609.754039019834,-26134.12900377858,-14032.91690741979,-31496.3348503512,0.0,0.0,0.0,193.0,0.0,194.0,0.0,0.0,0.0,180.0,194.0,0.0,180.0,1744420632.3958297,0.0,2025-04-11 21:17:12.395,FORWARD,42
49.0,17489.88240836649,24341.429691485133,-31455.22999229789,-19598.456573302337,-34600.70158251543,-26115.130020991568,-14346.17660596092,-31487.550614780263,0.0,0.0,0.0,193.0,0.0,193.0,0.0,0.0,0.0,179.0,193.0,0.0,179.0,1744420632.3958838,0.0,2025-04-11 21:17:12.395,FORWARD,42
50.0,17479.913530339425,24349.610429955774,-31441.46131771342,-19584.866712673513,-34583.98247766286,-26101.942491762937,-14610.597742867201,-31474.877175674104,0.0,0.0,0.0,193.0,0.0,194.0,0.0,0.0,0.0,179.0,194.0,0.0,179.0,1744420632.3959365,0.0,2025-04-11 21:17:12.395,FORWARD,42
51.0,17499.046623593167,24353.566688724364,-31444.79172763726,-19584.039698128665,-34588.922213187485,-26117.65576811502,-14305.518782796715,-31439.092032801156,0.0,0.0,0.0,193.0,0.0,193.0,0.0,0.0,0.0,179.0,193.0,0.0,179.0,1744420632.3959875,0.0,2025-04-11 21:17:12.395,FORWARD,42
52.0,17512.345911544075,24347.53171772143,-31458.336884777178,-19605.36326233903,-34603.47319882789,-26131.200925254932,-13972.544845646007,-31463.32132379071,0.0,0.0,0.0,193.0,0.0,193.0,0.0,0.0,0.0,179.0,193.0,0.0,179.0,1744420632.396068,0.0,2025-04-11 21:17:12.396,FORWARD,42
53.0,17497.817277648126,24344.491880475507,-31449.03855908377,-19593.807410455636,-34591.917346944494,-26106.658709843006,-14264.816256143602,-31476.978239652904,0.0,0.0,0.0,193.0,0.0,194.0,0.0,0.0,0.0,180.0,194.0,0.0,180.0,1744420632.3961124,0.0,2025-04-11 21:17:12.396,FORWARD,42
54.0,17477.74541112726,24354.594868969307,-31449.70911141743,-19591.996919154753,-34591.157387633015,-26101.562512107197,-14585.653196055078,-31468.775149437806,0.0,0.0,0.0,193.0,0.0,193.0,0.0,0.0,0.0,179.0,193.0,0.0,179.0,1744420632.396156,0.0,2025-04-11 21:17:12.396,FORWARD,42
55.0,17489.301263010653,24347.24114504351,-31454.2241637974,-19592.8239336996,-34589.07867539867,-26114.12419249108,-14397.473859485848,-31436.588637422163,0.0,0.0,0.0,193.0,0.0,194.0,0.0,0.0,0.0,179.0,194.0,0.0,179.0,1744420632.3961987,0.0,2025-04-11 21:17:12.396,FORWARD,42
56.0,17513.597609233573,24341.228525785034,-31463.790710424273,-19606.436146072883,-34599.60634703712,-26136.475936946386,-13976.523456159051,-31451.027864340293,0.0,0.0,0.0,193.0,0.0,193.0,0.0,0.0,0.0,179.0,193.0,0.0,179.0,1744420632.396263,0.0,2025-04-11 21:17:12.396,FORWARD,42
57.0,17497.45964973684,24332.556048936374,-31460.862631900625,-19601.429355314893,-34597.84055922515,-26121.3661576946,-14199.929141989845,-31489.048181658767,0.0,0.0,0.0,193.0,0.0,193.0,0.0,0.0,0.0,179.0,193.0,0.0,179.0,1744420632.3963077,0.0,2025-04-11 21:17:12.396,FORWARD,42
58.0,17472.336288969076,24343.15077580819,-31458.26982954381,-19591.236959843274,-34595.89595745754,-26107.865704043594,-14534.802977419255,-31461.913163890025,0.0,0.0,0.0,193.0,0.0,194.0,0.0,0.0,0.0,180.0,194.0,0.0,180.0,1744420632.3963504,0.0,2025-04-11 21:17:12.396,FORWARD,42
59.0,17482.41692571842,24352.694970690605,-31453.531259719286,-19583.52560800619,-34593.37021033409,-26105.563474364695,-14490.792392586756,-31450.2232015399,0.0,0.0,0.0,193.0,0.0,193.0,0.0,0.0,0.0,179.0,193.0,0.0,179.0,1744420632.3963933,0.0,2025-04-11 21:17:12.396,FORWARD,42
60.0,17503.762841673237,24353.320819535355,-31466.31645754772,-19596.400212812452,-34608.94937621944,-26119.332148949165,-14030.122939362876,-31426.59740765064,0.0,0.0,0.0,193.0,0.0,193.0,0.0,0.0,0.0,179.0,193.0,0.0,179.0,1744420632.3964367,0.0,2025-04-11 21:17:12.396,FORWARD,42
61.0,17486.820219376114,24333.71833964805,-31463.90246914655,-19600.73645123678,-34595.5159778018,-26109.944416277936,-14135.354952258464,-31462.740178434873,0.0,0.0,0.0,193.0,0.0,193.0,0.0,0.0,0.0,179.0,193.0,0.0,179.0,1744420632.3964944,0.0,2025-04-11 21:17:12.396,FORWARD,42
62.0,17474.727925625793,24343.128424063736,-31455.744082420362,-19586.87836967449,-34587.08937014215,-26096.421610882477,-14469.602938843125,-31445.015245081813,0.0,0.0,0.0,193.0,0.0,193.0,0.0,0.0,0.0,179.0,193.0,0.0,179.0,1744420632.396537,0.0,2025-04-11 21:17:12.396,FORWARD,42
63.0,17487.088440309577,24344.983618853526,-31450.245553284356,-19581.715116705313,-34587.737570731355,-26101.942491762937,-14539.407436777048,-31457.196945809956,0.0,0.0,0.0,193.0,0.0,194.0,0.0,0.0,0.0,180.0,194.0,0.0,180.0,1744420632.39658,0.0,2025-04-11 21:17:12.396,FORWARD,42
64.0,17518.738510458294,24350.929182878637,-31459.834451655683,-19590.87933193199,-34602.8697017276,-26123.17664899548,-14084.9741202562,-31439.494364201353,0.0,0.0,0.0,193.0,0.0,193.0,0.0,0.0,0.0,179.0,193.0,0.0,179.0,1744420632.3966556,0.0,2025-04-11 21:17:12.396,FORWARD,42
65.0,17507.13795508599,24337.741653650006,-31461.13085283409,-19603.195143126864,-34597.63939352505,-26120.382680938565,-14090.495001136662,-31481.783864710793,0.0,0.0,0.0,193.0,0.0,193.0,0.0,0.0,0.0,179.0,193.0,0.0,179.0,1744420632.3967001,0.0,2025-04-11 21:17:12.396,FORWARD,42
66.0,17473.45387619184,24336.735825149517,-31466.56232673673,-19602.166962881918,-34600.43336158197,-26119.488611160352,-14423.714807476379,-31480.442760043476,0.0,0.0,0.0,193.0,0.0,194.0,0.0,0.0,0.0,180.0,194.0,0.0,180.0,1744420632.3967423,0.0,2025-04-11 21:17:12.396,FORWARD,42
67.0,17467.798884844648,24342.59198219681,-31455.498213231353,-19593.002747655242,-34591.13503588856,-26113.78891632425,-14596.27027467135,-31495.306670106256,0.0,0.0,0.0,193.0,0.0,193.0,0.0,0.0,0.0,179.0,193.0,0.0,179.0,1744420632.3968115,0.0,2025-04-11 21:17:12.396,FORWARD,42
68.0,17494.240998535275,24348.381084010733,-31457.532221976784,-19590.454648787338,-34596.34299234665,-26124.74127110735,-14160.970051404245,-31445.238762526365,0.0,0.0,0.0,193.0,0.0,193.0,0.0,0.0,0.0,179.0,193.0,0.0,179.0,1744420632.3968544,0.0,2025-04-11 21:17:12.396,FORWARD,42
69.0,17493.36928050152,24333.181897781124,-31466.38351278109,-19607.39727108446,-34607.36240236311,-26127.199962997434,-14034.30271557602,-31475.927707663504,0.0,0.0,0.0,193.0,0.0,193.0,0.0,0.0,0.0,179.0,193.0,0.0,179.0,1744420632.3968964,0.0,2025-04-11 21:17:12.396,FORWARD,42
70.0,17476.292547737667,24335.014740826457,-31458.046312099257,-19592.265140088217,-34596.92413770248,-26109.542084877743,-14382.811115123168,-31476.642963486072,0.0,0.0,0.0,193.0,0.0,193.0,0.0,0.0,0.0,179.0,193.0,0.0,179.0,1744420632.3970392,0.0,2025-04-11 21:17:12.397,FORWARD,42
71.0,17473.78915235867,24349.856299144783,-31445.03759682627,-19577.423581769894,-34583.826015451676,-26094.342898648134,-14607.669664343557,-31468.059893615235,0.0,0.0,0.0,193.0,0.0,194.0,0.0,0.0,0.0,180.0,194.0,0.0,180.0,1744420632.3970819,0.0,2025-04-11 21:17:12.397,FORWARD,42
72.0,17497.951388114856,24352.918488135158,-31449.55264920624,-19575.523683491192,-34590.64329751054,-26107.441020898943,-14236.317781963086,-31428.050271040236,0.0,0.0,0.0,193.0,0.0,193.0,0.0,0.0,0.0,179.0,193.0,0.0,179.0,1744420632.3971238,0.0,2025-04-11 21:17:12.397,FORWARD,42
73.0,17508.54611498667,24339.261572272968,-31461.46612900092,-19597.607207013036,-34602.44501858295,-26122.081413517168,-14002.563238449484,-31468.082245359692,0.0,0.0,0.0,193.0,0.0,193.0,0.0,0.0,0.0,179.0,193.0,0.0,179.0,1744420632.3971655,0.0,2025-04-11 21:17:12.397,FORWARD,42
74.0,17483.378050729996,24333.96420883706,-31465.601201725152,-19598.277759346696,-34606.08835292916,-26117.387547181555,-14317.208745146841,-31486.053047901758,0.0,0.0,0.0,193.0,0.0,194.0,0.0,0.0,0.0,179.0,194.0,0.0,179.0,1744420632.3972075,0.0,2025-04-11 21:17:12.397,FORWARD,42
75.0,17467.754181355736,24345.25183978699,-31456.347579520654,-19590.454648787338,-34592.74436148934,-26111.173762222978,-14594.325672903738,-31486.164806624034,0.0,0.0,0.0,193.0,0.0,193.0,0.0,0.0,0.0,179.0,193.0,0.0,179.0,1744420632.3972497,0.0,2025-04-11 21:17:12.397,FORWARD,42
76.0,17492.78813514568,24349.901002633695,-31452.212506796423,-19584.21851208431,-34590.77740797727,-26120.1144600051,-14343.717914070836,-31465.198870324955,0.0,0.0,0.0,193.0,0.0,194.0,0.0,0.0,0.0,179.0,194.0,0.0,179.0,1744420632.397308,0.0,2025-04-11 21:17:12.397,FORWARD,42
77.0,17508.389652775484,24345.609467698276,-31463.746006935362,-19602.345776837563,-34604.54608256174,-26126.484707174863,-13995.187162779232,-31465.71296044743,0.0,0.0,0.0,193.0,0.0,193.0,0.0,0.0,0.0,179.0,193.0,0.0,179.0,1744420632.3973508,0.0,2025-04-11 21:17:12.397,FORWARD,42
78.0,17484.11565829702,24338.05457807238,-31464.483614502387,-19598.657739002436,-34602.84734998314,-26111.665500600997,-14249.952346080821,-31475.860652430136,0.0,0.0,0.0,193.0,0.0,193.0,0.0,0.0,0.0,179.0,193.0,0.0,179.0,1744420632.3973935,0.0,2025-04-11 21:17:12.397,FORWARD,42
79.0,17469.54232091216,24355.824214914348,-31459.409768511032,-19589.426468542395,-34597.90761445852,-26096.913349260492,-14575.21493139445,-31464.483614502387,0.0,0.0,0.0,193.0,0.0,193.0,0.0,0.0,0.0,179.0,193.0,0.0,179.0,1744420632.397436,0.0,2025-04-11 21:17:12.397,FORWARD,42
80.0,17488.429544976898,24352.404398012688,-31451.51960271831,-19581.849227172046,-34590.68800099946,-26099.12617196157,-14434.264830859285,-31443.94236134796,0.0,0.0,0.0,193.0,0.0,193.0,0.0,0.0,0.0,179.0,193.0,0.0,179.0,1744420632.397478,0.0,2025-04-11 21:17:12.397,FORWARD,42
81.0,17508.903742897957,24341.92142986315,-31465.109463347133,-19599.7753262252,-34604.41197209501,-26120.226218727377,-13983.988938807124,-31439.717881645905,0.0,0.0,0.0,193.0,0.0,193.0,0.0,0.0,0.0,179.0,193.0,0.0,179.0,1744420632.3975253,0.0,2025-04-11 21:17:12.397,FORWARD,42
82.0,17498.420774748418,24337.2946187609,-31463.164861579524,-19597.31663433512,-34599.271070870294,-26110.4138029115,-14193.201266908798,-31491.059838659745,0.0,0.0,0.0,193.0,0.0,194.0,0.0,0.0,0.0,180.0,194.0,0.0,180.0,1744420632.3975835,0.0,2025-04-11 21:17:12.397,FORWARD,42
83.0,17482.573387929606,24348.783415410926,-31458.381588266086,-19583.994994639754,-34592.58789927815,-26095.147561448524,-14540.055637366253,-31467.61285872613,0.0,0.0,0.0,193.0,0.0,193.0,0.0,0.0,0.0,179.0,193.0,0.0,179.0,1744420632.397626,0.0,2025-04-11 21:17:12.397,FORWARD,42
84.0,17488.295434510164,24350.839775900815,-31455.095881831156,-19579.21172132632,-34589.32454458768,-26099.148523706022,-14506.416261961016,-31455.922896376003,0.0,0.0,0.0,193.0,0.0,193.0,0.0,0.0,0.0,179.0,193.0,0.0,179.0,1744420632.397668,0.0,2025-04-11 21:17:12.397,FORWARD,42
85.0,17506.243885307777,24346.25766828748,-31473.066684373225,-19596.91430293492,-34605.17193140649,-26120.74030884985,-14020.981075880656,-31435.73927113286,0.0,0.0,0.0,193.0,0.0,194.0,0.0,0.0,0.0,179.0,194.0,0.0,179.0,1744420632.39779,0.0,2025-04-11 21:17:12.397,FORWARD,42
86.0,17493.32457701261,24328.15275527868,-31480.241594343377,-19612.73933800928,-34613.06209719922,-26122.953131550927,-14132.449225479273,-31500.246405630878,0.0,0.0,0.0,193.0,0.0,193.0,0.0,0.0,0.0,179.0,193.0,0.0,179.0,1744420632.3978329,0.0,2025-04-11 21:17:12.397,FORWARD,42
87.0,17470.257576734733,24339.753310650984,-31474.51954776282,-19603.50806754924,-34607.92119597449,-26108.044517999235,-14487.551389640736,-31483.124969378114,0.0,0.0,0.0,193.0,0.0,193.0,0.0,0.0,0.0,179.0,193.0,0.0,179.0,1744420632.3978748,0.0,2025-04-11 21:17:12.397,FORWARD,42
88.0,17473.900911080946,24343.75427290848,-31464.595373224663,-19597.92013143541,-34595.3148121017,-26108.60331161062,-14568.598815035679,-31482.119140877625,0.0,0.0,0.0,193.0,0.0,194.0,0.0,0.0,0.0,179.0,194.0,0.0,179.0,1744420632.3979168,0.0,2025-04-11 21:17:12.397,FORWARD,42
89.0,17502.622902706018,24344.357770008777,-31472.150262850555,-19602.01050067073,-34601.75211450483,-26126.417651941498,-14082.135448710376,-31431.470087941896,0.0,0.0,0.0,193.0,0.0,193.0,0.0,0.0,0.0,179.0,193.0,0.0,179.0,1744420632.3979585,0.0,2025-04-11 21:17:12.397,FORWARD,42
90.0,17493.950425857358,24320.77667960843,-31479.10165537616,-19621.41181485794,-34606.60244305163,-26133.79372761175,-14069.663175304315,-31491.506873548853,0.0,0.0,0.0,193.0,0.0,193.0,0.0,0.0,0.0,179.0,193.0,0.0,179.0,1744420632.3980007,0.0,2025-04-11 21:17:12.398,FORWARD,42
91.0,17469.676431378895,24325.403490710676,-31472.060855872736,-19608.64896877396,-34599.24871912583,-26118.773355337784,-14431.090883146631,-31483.16967286702,0.0,0.0,0.0,193.0,0.0,193.0,0.0,0.0,0.0,179.0,193.0,0.0,179.0,1744420632.398057,0.0,2025-04-11 21:17:12.398,FORWARD,42
92.0,17469.13998951197,24342.52492696344,-31458.672160944006,-19592.958044166335,-34588.45282655392,-26106.636358098553,-14609.122527733152,-31478.90048967606,0.0,0.0,0.0,193.0,0.0,193.0,0.0,0.0,0.0,179.0,193.0,0.0,179.0,1744420632.3980997,0.0,2025-04-11 21:17:12.398,FORWARD,42
93.0,17493.99512934627,24348.0458078439,-31471.52441400581,-19597.29428259066,-34609.061134941716,-26131.513849677307,-14171.497723042694,-31442.33303574718,0.0,0.0,0.0,193.0,0.0,194.0,0.0,0.0,0.0,179.0,194.0,0.0,179.0,1744420632.3981423,0.0,2025-04-11 21:17:12.398,FORWARD,42
94.0,17500.208914304843,24338.345150750298,-31478.85578618715,-19613.78986999868,-34616.101934445134,-26138.17466952499,-14049.434846572263,-31510.99759471388,0.0,0.0,0.0,193.0,0.0,193.0,0.0,0.0,0.0,179.0,193.0,0.0,179.0,1744420632.3981845,0.0,2025-04-11 21:17:12.398,FORWARD,42
95.0,17483.847437363558,24340.33445600682,-31474.296030318266,-19599.685919247382,-34609.66463204201,-26115.912332047505,-14383.548722690193,-31496.893643962583,0.0,0.0,0.0,193.0,0.0,193.0,0.0,0.0,0.0,179.0,193.0,0.0,179.0,1744420632.3982267,0.0,2025-04-11 21:17:12.398,FORWARD,42
96.0,17474.236187247778,24351.15270032319,-31463.298972046254,-19584.64319522896,-34598.0640766697,-26101.338994662645,-14614.017559768863,-31470.60799248314,0.0,0.0,0.0,193.0,0.0,194.0,0.0,0.0,0.0,179.0,194.0,0.0,179.0,1744420632.3982687,0.0,2025-04-11 21:17:12.398,FORWARD,42
97.0,17499.963045115834,24359.601659727297,-31466.539974992276,-19582.58683473907,-34605.08252442867,-26119.287445460257,-14275.232169059775,-31445.909314860026,0.0,0.0,0.0,193.0,0.0,193.0,0.0,0.0,0.0,179.0,193.0,0.0,179.0,1744420632.3983252,0.0,2025-04-11 21:17:12.398,FORWARD,42
98.0,17508.434356264395,24348.224621799545,-31475.301858818755,-19599.954140180846,-34611.363364620614,-26127.199962997434,-14003.792584394525,-31476.955887908447,0.0,0.0,0.0,193.0,0.0,193.0,0.0,0.0,0.0,179.0,193.0,0.0,179.0,1744420632.398368,0.0,2025-04-11 21:17:12.398,FORWARD,42
99.0,17486.104963553546,24344.134252564225,-31471.4797105169,-19591.30401507664,-34605.909538973516,-26107.843352299136,-14289.805506444634,-31470.585640738685,0.0,0.0,0.0,193.0,0.0,194.0,0.0,0.0,0.0,180.0,194.0,0.0,180.0,1744420632.39841,0.0,2025-04-11 21:17:12.398,FORWARD,42
100.0,17473.096248280555,24356.15949108118,-31458.94038187747,-19577.870616659002,-34594.59955627913,-26090.74426779083,-14594.03510022582,-31463.209565068435,0.0,0.0,0.0,193.0,0.0,193.0,0.0,0.0,0.0,179.0,193.0,0.0,179.0,1744420632.8689709,0.0,2025-04-11 21:17:12.868,FORWARD,42
101.0,17497.012614847736,24355.15366258069,-31454.715902175416,-19572.953232878834,-34591.53736728876,-26097.49449461633,-14356.12313224353,-31432.20769550892,0.0,0.0,0.0,193.0,0.0,194.0,0.0,0.0,0.0,179.0,194.0,0.0,179.0,1744420632.8691368,0.0,2025-04-11 21:17:12.869,FORWARD,42
102.0,17515.005769134255,24346.972924110047,-31467.277582559298,-19596.154343623442,-34601.506245315824,-26117.946340792936,-13971.494313656607,-31444.54585844825,0.0,0.0,0.0,193.0,0.0,194.0,0.0,0.0,0.0,179.0,194.0,0.0,179.0,1744420632.8691823,0.0,2025-04-11 21:17:12.869,FORWARD,42
103.0,17497.191428803377,24342.43551998562,-31471.792634939273,-19599.372994825007,-34603.13792266106,-26111.397279667533,-14219.777491066157,-31482.18619611099,0.0,0.0,0.0,193.0,0.0,193.0,0.0,0.0,0.0,179.0,193.0,0.0,179.0,1744420632.8692262,0.0,2025-04-11 21:17:12.869,FORWARD,42
104.0,17480.78524837318,24362.619145228764,-31469.959791893936,-19591.63929124347,-34598.24289062535,-26095.2593201708,-14554.092532884186,-31470.920916905514,0.0,0.0,0.0,193.0,0.0,193.0,0.0,0.0,0.0,179.0,193.0,0.0,179.0,1744420632.8692684,0.0,2025-04-11 21:17:12.869,FORWARD,42
105.0,17487.088440309577,24354.840738158317,-31468.283411059787,-19586.274872574195,-34597.97466969188,-26101.45075338492,-14456.8624445036,-31457.398111510054,0.0,0.0,0.0,193.0,0.0,193.0,0.0,0.0,0.0,179.0,193.0,0.0,179.0,1744420632.869311,0.0,2025-04-11 21:17:12.869,FORWARD,42
106.0,17497.012614847736,24337.942819350104,-31482.074437388714,-19602.993977426766,-34614.55966407772,-26124.65186412953,-14015.01316011109,-31453.531259719286,0.0,0.0,0.0,193.0,0.0,193.0,0.0,0.0,0.0,180.0,193.0,0.0,180.0,1744420632.8693926,0.0,2025-04-11 21:17:12.869,FORWARD,42
107.0,17481.36639372902,24321.357824964267,-31487.729428735907,-19612.337006609083,-34616.79483852325,-26122.461393172907,-14204.33243564754,-31504.04620218828,0.0,0.0,0.0,193.0,0.0,194.0,0.0,0.0,0.0,180.0,194.0,0.0,180.0,1744420632.8694353,0.0,2025-04-11 21:17:12.869,FORWARD,42
108.0,17465.295489465654,24338.05457807238,-31472.060855872736,-19590.7228697208,-34595.5159778018,-26091.10189570211,-14530.086759339185,-31458.56040222173,0.0,0.0,0.0,193.0,0.0,193.0,0.0,0.0,0.0,179.0,193.0,0.0,179.0,1744420632.8694773,0.0,2025-04-11 21:17:12.869,FORWARD,42
109.0,17468.245919733756,24342.502575218987,-31461.019094111813,-19579.25642481523,-34587.08937014215,-26089.49257010133,-14505.96922707191,-31440.83546886867,0.0,0.0,0.0,193.0,0.0,193.0,0.0,0.0,0.0,179.0,193.0,0.0,179.0,1744420632.8695192,0.0,2025-04-11 21:17:12.869,FORWARD,42
110.0,17489.2789112662,24339.90977286217,-31476.508853019342,-19597.093116890566,-34606.960070962916,-26120.896771061038,-14029.519442262585,-31428.87728558508,0.0,0.0,0.0,193.0,0.0,194.0,0.0,0.0,0.0,180.0,194.0,0.0,180.0,1744420632.8695607,0.0,2025-04-11 21:17:12.869,FORWARD,42
111.0,17479.1759227724,24322.63187439822,-31485.382495568098,-19611.577047297604,-34615.9231204895,-26126.64116938605,-14119.261696250642,-31495.418428828532,0.0,0.0,0.0,193.0,0.0,193.0,0.0,0.0,0.0,179.0,193.0,0.0,179.0,1744420632.869603,0.0,2025-04-11 21:17:12.869,FORWARD,42
112.0,17455.483073649775,24328.488031445508,-31478.09582687567,-19597.92013143541,-34603.49555057234,-26105.49641913133,-14472.106334222119,-31469.08807386018,0.0,0.0,0.0,193.0,0.0,193.0,0.0,0.0,0.0,179.0,193.0,0.0,179.0,1744420632.869666,0.0,2025-04-11 21:17:12.869,FORWARD,42
113.0,17465.74252435476,24343.1954792971,-31463.4777860019,-19582.96681439481,-34590.41978006599,-26093.895863759026,-14575.661966283556,-31456.638152198575,0.0,0.0,0.0,193.0,0.0,194.0,0.0,0.0,0.0,179.0,194.0,0.0,179.0,1744420632.8697093,0.0,2025-04-11 21:17:12.869,FORWARD,42
114.0,17493.257521779244,24342.077892074336,-31481.00155365486,-19598.50127679125,-34608.52469307479,-26127.49053567535,-14113.60670490345,-31441.684835157972,0.0,0.0,0.0,193.0,0.0,193.0,0.0,0.0,0.0,179.0,193.0,0.0,179.0,1744420632.8697512,0.0,2025-04-11 21:17:12.869,FORWARD,42
115.0,17485.03207981969,24323.034205798413,-31482.700286233463,-19611.778212997702,-34606.08835292916,-26126.663521130507,-14102.967274542723,-31501.006364942357,0.0,0.0,0.0,193.0,0.0,193.0,0.0,0.0,0.0,179.0,193.0,0.0,179.0,1744420632.8699324,0.0,2025-04-11 21:17:12.869,FORWARD,42
116.0,17460.31105045212,24326.52107793344,-31475.257155329844,-19596.042584901166,-34591.20209112192,-26105.92110227598,-14412.024845126254,-31454.313570775223,0.0,0.0,0.0,193.0,0.0,194.0,0.0,0.0,0.0,180.0,194.0,0.0,180.0,1744420632.869976,0.0,2025-04-11 21:17:12.869,FORWARD,42
117.0,17460.93689929687,24338.523964705942,-31465.26592555832,-19587.347756308052,-34581.52378577278,-26103.21654119689,-14582.41219310906,-31462.136681334578,0.0,0.0,0.0,193.0,0.0,193.0,0.0,0.0,0.0,179.0,193.0,0.0,179.0,1744420632.870018,0.0,2025-04-11 21:17:12.870,FORWARD,42
118.0,17487.088440309577,24346.704703176583,-31466.76349243683,-19582.564482994614,-34589.86098645461,-26115.621759369584,-14183.880589470935,-31423.065832026703,0.0,0.0,0.0,193.0,0.0,193.0,0.0,0.0,0.0,179.0,193.0,0.0,179.0,1744420632.8700597,0.0,2025-04-11 21:17:12.870,FORWARD,42
119.0,17485.0767833086,24330.00795006847,-31477.67114373102,-19603.50806754924,-34600.79098949325,-26127.64699788654,-14004.396081494819,-31465.243573813867,0.0,0.0,0.0,193.0,0.0,194.0,0.0,0.0,0.0,179.0,194.0,0.0,179.0,1744420632.8701324,0.0,2025-04-11 21:17:12.870,FORWARD,42
120.0,17462.79209408666,24332.06431055836,-31471.166786094524,-19592.511009277227,-34591.582070777666,-26112.35840467911,-14332.765559287735,-31469.736274449384,0.0,0.0,0.0,193.0,0.0,193.0,0.0,0.0,0.0,179.0,193.0,0.0,179.0,1744420632.8701963,0.0,2025-04-11 21:17:12.870,FORWARD,42
121.0,17462.412114430917,24348.515194477463,-31453.97829460839,-19578.429410270383,-34578.39454154903,-26097.807419038705,-14599.51127761737,-31475.32421056321,0.0,0.0,0.0,193.0,0.0,193.0,0.0,0.0,0.0,179.0,193.0,0.0,179.0,1744420632.8702433,0.0,2025-04-11 21:17:12.870,FORWARD,42
122.0,17486.082611809088,24351.711493934574,-31455.65467544254,-19575.233110813275,-34584.04953289623,-26110.056175000213,-14267.498465478238,-31427.64793964004,0.0,0.0,0.0,193.0,0.0,193.0,0.0,0.0,0.0,179.0,193.0,0.0,179.0,1744420632.87029,0.0,2025-04-11 21:17:12.870,FORWARD,42
123.0,17492.899893867958,24337.920467605647,-31468.17165233751,-19597.182523868385,-34596.052419668726,-26126.819983341695,-13971.71783110116,-31456.012303353826,0.0,0.0,0.0,193.0,0.0,193.0,0.0,0.0,0.0,179.0,193.0,0.0,179.0,1744420632.8703363,0.0,2025-04-11 21:17:12.870,FORWARD,42
124.0,17475.778457615193,24327.81747911185,-31468.55163199325,-19594.25444534474,-34597.12530340258,-26115.30883494721,-14272.751125425235,-31485.02486765681,0.0,0.0,0.0,193.0,0.0,194.0,0.0,0.0,0.0,179.0,194.0,0.0,179.0,1744420632.8703833,0.0,2025-04-11 21:17:12.870,FORWARD,42
125.0,17463.88732956497,24336.95934259407,-31457.46516674342,-19585.090230118065,-34585.010657907806,-26103.574169108175,-14589.31888214575,-31486.27656534631,0.0,0.0,0.0,193.0,0.0,193.0,0.0,0.0,0.0,179.0,193.0,0.0,179.0,1744420632.8704305,0.0,2025-04-11 21:17:12.870,FORWARD,42
126.0,17482.998071074257,24341.25087752949,-31453.263038785823,-19578.116485848008,-34580.51795727229,-26106.681061587464,-14369.757696361268,-31447.60804743863,0.0,0.0,0.0,193.0,0.0,193.0,0.0,0.0,0.0,179.0,193.0,0.0,179.0,1744420632.8704767,0.0,2025-04-11 21:17:12.870,FORWARD,42
127.0,17502.42173700592,24334.47829895953,-31465.981181380892,-19595.86377094552,-34591.649126011034,-26120.181515238466,-13972.38838343482,-31448.88209687258,0.0,0.0,0.0,193.0,0.0,193.0,0.0,0.0,0.0,179.0,193.0,0.0,179.0,1744420632.8705385,0.0,2025-04-11 21:17:12.870,FORWARD,42
128.0,17484.763858886225,24327.48220294502,-31465.31062904723,-19592.108677877033,-34588.20695736491,-26104.87057028658,-14213.943685763323,-31474.251326829355,0.0,0.0,0.0,193.0,0.0,193.0,0.0,0.0,0.0,179.0,193.0,0.0,179.0,1744420632.8705847,0.0,2025-04-11 21:17:12.870,FORWARD,42
129.0,17460.132236496476,24336.2440867715,-31464.796538924762,-19585.40315454044,-34587.69286724244,-26099.036764983746,-14544.056599623753,-31462.360198779133,0.0,0.0,0.0,193.0,0.0,193.0,0.0,0.0,0.0,179.0,193.0,0.0,179.0,1744420632.8706312,0.0,2025-04-11 21:17:12.870,FORWARD,42
130.0,17473.118600025013,24345.00597059798,-31455.2746957868,-19574.271985801697,-34585.12241663008,-26104.244721441835,-14469.558235354214,-31459.499175488854,0.0,0.0,0.0,193.0,0.0,193.0,0.0,0.0,0.0,179.0,193.0,0.0,179.0,1744420632.8707633,0.0,2025-04-11 21:17:12.870,FORWARD,42
131.0,17494.017481090723,24338.948647850593,-31468.931611648994,-19590.11937262051,-34600.522768559786,-26131.245628743844,-14012.912096132291,-31453.061873085724,0.0,0.0,0.0,193.0,0.0,193.0,0.0,0.0,0.0,179.0,193.0,0.0,179.0,1744420632.8708105,0.0,2025-04-11 21:17:12.870,FORWARD,42
132.0,17486.79786763166,24321.916618575648,-31465.489443002876,-19592.063974388122,-34593.75018998983,-26117.432250670463,-14157.505531013672,-31486.254213601856,0.0,0.0,0.0,193.0,0.0,193.0,0.0,0.0,0.0,180.0,193.0,0.0,180.0,1744420632.8708572,0.0,2025-04-11 21:17:12.870,FORWARD,42
133.0,17470.637556390473,24339.395682739698,-31451.2737335293,-19574.45079975734,-34585.39063756355,-26098.72384056137,-14497.25204673434,-31456.302876031743,0.0,0.0,0.0,193.0,0.0,193.0,0.0,0.0,0.0,179.0,193.0,0.0,179.0,1744420632.870904,0.0,2025-04-11 21:17:12.870,FORWARD,42
134.0,17479.98058557279,24350.906831134183,-31435.962788577413,-19563.744314163247,-34572.69484671293,-26100.377869651067,-14515.44636672096,-31458.582753966184,0.0,0.0,0.0,193.0,0.0,193.0,0.0,0.0,0.0,180.0,193.0,0.0,180.0,1744420632.8709507,0.0,2025-04-11 21:17:12.870,FORWARD,42
135.0,17508.814335920135,24358.05938935988,-31439.4720124569,-19567.432351998374,-34581.009695650304,-26111.710204089904,-14034.861509187402,-31423.043480282246,0.0,0.0,0.0,193.0,0.0,193.0,0.0,0.0,0.0,179.0,193.0,0.0,179.0,1744420632.8710127,0.0,2025-04-11 21:17:12.871,FORWARD,42
136.0,17494.911550868936,24332.332531491822,-31448.479765472388,-19582.11744810551,-34588.51988178729,-26115.040614013746,-14091.187905214776,-31477.984068153393,0.0,0.0,0.0,193.0,0.0,193.0,0.0,0.0,0.0,179.0,193.0,0.0,179.0,1744420632.8710592,0.0,2025-04-11 21:17:12.871,FORWARD,42
137.0,17470.45874243483,24335.10414780428,-31446.199887537947,-19573.199102067843,-34581.4120270505,-26103.954148763914,-14440.679781517958,-31464.930649391492,0.0,0.0,0.0,193.0,0.0,194.0,0.0,0.0,0.0,180.0,194.0,0.0,180.0,1744420632.8711057,0.0,2025-04-11 21:17:12.871,FORWARD,42
138.0,17469.0729342786,24343.82132814185,-31439.002625823337,-19567.991145609754,-34571.91253565699,-26100.444924884432,-14567.12359990163,-31462.0249226123,0.0,0.0,0.0,193.0,0.0,193.0,0.0,0.0,0.0,179.0,193.0,0.0,179.0,1744420632.8711553,0.0,2025-04-11 21:17:12.871,FORWARD,42
139.0,17487.244902520764,24339.574496695343,-31460.23678305588,-19586.297224318652,-34592.632602767066,-26128.07168103119,-14111.9303240693,-31431.17951526398,0.0,0.0,0.0,193.0,0.0,193.0,0.0,0.0,0.0,179.0,193.0,0.0,179.0,1744420632.871235,0.0,2025-04-11 21:17:12.871,FORWARD,42
140.0,17487.04373682067,24324.777641865927,-31469.691570960473,-19604.53624779418,-34596.968841191396,-26131.469146188396,-14066.39982061384,-31494.054972416758,0.0,0.0,0.0,193.0,0.0,193.0,0.0,0.0,0.0,179.0,193.0,0.0,179.0,1744420632.8712828,0.0,2025-04-11 21:17:12.871,FORWARD,42
141.0,17456.17597772789,24319.32381621883,-31473.245498328866,-19599.082422147087,-34590.91151844401,-26116.314663447698,-14401.787746165723,-31473.13373960659,0.0,0.0,0.0,193.0,0.0,193.0,0.0,0.0,0.0,179.0,193.0,0.0,179.0,1744420632.8713293,0.0,2025-04-11 21:17:12.871,FORWARD,42
142.0,17454.633707360474,24333.986560581514,-31462.002570867848,-19584.866712673513,-34577.23225083736,-26102.4118783965,-14593.31984440325,-31459.499175488854,0.0,0.0,0.0,193.0,0.0,193.0,0.0,0.0,0.0,179.0,193.0,0.0,179.0,1744420632.8714025,0.0,2025-04-11 21:17:12.871,FORWARD,42
143.0,17479.064164050124,24337.898115861193,-31473.066684373225,-19585.872541174,-34595.001887679326,-26119.421555926987,-14183.590016793016,-31414.862741811605,0.0,0.0,0.0,193.0,0.0,194.0,0.0,0.0,0.0,179.0,194.0,0.0,179.0,1744420632.8714497,0.0,2025-04-11 21:17:12.871,FORWARD,42
144.0,17485.32265249761,24329.225639012533,-31482.32030657772,-19601.518762292715,-34607.67532678549,-26126.864686830606,-14012.912096132291,-31478.922841420514,0.0,0.0,0.0,193.0,0.0,193.0,0.0,0.0,0.0,179.0,193.0,0.0,179.0,1744420632.871496,0.0,2025-04-11 21:17:12.871,FORWARD,42
145.0,17469.54232091216,24336.86993561625,-31473.871347173616,-19583.950291150846,-34595.627736524075,-26102.07660222967,-14339.180509946407,-31480.688629232485,0.0,0.0,0.0,193.0,0.0,193.0,0.0,0.0,0.0,179.0,193.0,0.0,179.0,1744420632.8716247,0.0,2025-04-11 21:17:12.871,FORWARD,42
146.0,17467.351849955543,24350.52685147844,-31460.3261900337,-19568.14760782094,-34582.70842822891,-26082.719991531372,-14616.610362125679,-31467.635210470584,0.0,0.0,0.0,193.0,0.0,193.0,0.0,0.0,0.0,178.0,193.0,0.0,178.0,1744420632.871672,0.0,2025-04-11 21:17:12.871,FORWARD,42
147.0,17486.306129253644,24351.1974038121,-31466.875251159105,-19571.500369489237,-34591.26914635529,-26097.67330857197,-14299.953198427344,-31419.422497680487,0.0,0.0,0.0,193.0,0.0,193.0,0.0,0.0,0.0,179.0,193.0,0.0,179.0,1744420632.8717184,0.0,2025-04-11 21:17:12.871,FORWARD,42
148.0,17507.27206555272,24345.18478455362,-31473.80429194025,-19591.683994732382,-34598.24289062535,-26108.44684939943,-13982.737241117626,-31445.149355548547,0.0,0.0,0.0,193.0,0.0,193.0,0.0,0.0,0.0,180.0,193.0,0.0,180.0,1744420632.871765,0.0,2025-04-11 21:17:12.871,FORWARD,42
149.0,17488.78717288818,24335.99821758249,-31474.877175674104,-19592.868637188512,-34597.0135446803,-26102.4118783965,-14268.638404445459,-31472.016152383825,0.0,0.0,0.0,193.0,0.0,193.0,0.0,0.0,0.0,179.0,193.0,0.0,179.0,1744420632.8718183,0.0,2025-04-11 21:17:12.871,FORWARD,42
150.0,17473.65504189194,24347.53171772143,-31464.908297647038,-19582.16215159442,-34584.384809063056,-26090.006660223804,-14588.17894317853,-31468.37281803761,0.0,0.0,0.0,193.0,0.0,194.0,0.0,0.0,0.0,180.0,194.0,0.0,180.0,1744420632.871882,0.0,2025-04-11 21:17:12.871,FORWARD,42
151.0,17488.250731021253,24346.43648224312,-31465.243573813867,-19579.30112830414,-34586.12824513057,-26097.24862542732,-14394.009339095277,-31435.64986415504,0.0,0.0,0.0,193.0,0.0,193.0,0.0,0.0,0.0,179.0,193.0,0.0,179.0,1744420632.8719292,0.0,2025-04-11 21:17:12.871,FORWARD,42
152.0,17502.064109094634,24337.42872922763,-31489.80814097025,-19608.559561796137,-34609.195245408446,-26127.08820427516,-13979.026851538045,-31446.915143360515,0.0,0.0,0.0,193.0,0.0,193.0,0.0,0.0,0.0,179.0,193.0,0.0,179.0,1744420632.8719752,0.0,2025-04-11 21:17:12.871,FORWARD,42
153.0,17481.79107687367,24332.466641958552,-31485.829530457206,-19602.993977426766,-34604.23315813937,-26111.754907578816,-14215.642418341926,-31490.94807993747,0.0,0.0,0.0,193.0,0.0,193.0,0.0,0.0,0.0,179.0,193.0,0.0,179.0,1744420632.8720214,0.0,2025-04-11 21:17:12.872,FORWARD,42
154.0,17462.143893497454,24345.34124676481,-31466.852899414647,-19574.67431720189,-34582.32844857317,-26079.657802540994,-14549.800997948767,-31455.185288808978,0.0,0.0,0.0,193.0,0.0,193.0,0.0,0.0,0.0,179.0,193.0,0.0,179.0,1744420632.8720677,0.0,2025-04-11 21:17:12.872,FORWARD,42
155.0,17474.437352947876,24355.354828280786,-31462.583716223686,-19565.30893627512,-34585.39063756355,-26083.435247353944,-14460.282261405262,-31431.85006759764,0.0,0.0,0.0,193.0,0.0,193.0,0.0,0.0,0.0,179.0,193.0,0.0,179.0,1744420632.872114,0.0,2025-04-11 21:17:12.872,FORWARD,42
156.0,17499.94069337138,24358.886403904726,-31474.899527418558,-19579.167017837408,-34605.01546919531,-26109.117401733092,-14008.419395496774,-31428.854933840626,0.0,0.0,0.0,193.0,0.0,193.0,0.0,0.0,0.0,179.0,193.0,0.0,179.0,1744420632.87216,0.0,2025-04-11 21:17:12.872,FORWARD,42
157.0,17484.965024586323,24342.234354285523,-31477.201757097457,-19585.626671984992,-34603.89788197254,-26103.97650050837,-14152.990478633701,-31476.195928596968,0.0,0.0,0.0,193.0,0.0,193.0,0.0,0.0,0.0,179.0,193.0,0.0,179.0,1744420632.872222,0.0,2025-04-11 21:17:12.872,FORWARD,42
158.0,17467.620070889006,24346.48118573203,-31471.09973086116,-19573.802599168135,-34596.834730724666,-26088.88907300104,-14496.11210776712,-31453.75477716384,0.0,0.0,0.0,193.0,0.0,194.0,0.0,0.0,0.0,179.0,194.0,0.0,179.0,1744420632.872269,0.0,2025-04-11 21:17:12.872,FORWARD,42
159.0,17481.768725129215,24359.355790538288,-31457.174594065502,-19561.91147111791,-34581.6131927506,-26082.362363620086,-14542.961364145443,-31446.311646260223,0.0,0.0,0.0,193.0,0.0,193.0,0.0,0.0,0.0,179.0,193.0,0.0,179.0,1744420632.8723152,0.0,2025-04-11 21:17:12.872,FORWARD,42
160.0,17507.070899852624,24358.215851571065,-31473.51371926233,-19576.417753269405,-34596.968841191396,-26104.64705284203,-14056.87797747588,-31416.40501217902,0.0,0.0,0.0,193.0,0.0,193.0,0.0,0.0,0.0,179.0,193.0,0.0,179.0,1744420632.8724403,0.0,2025-04-11 21:17:12.872,FORWARD,42
161.0,17499.1807340599,24344.067197330856,-31473.580774495695,-19590.141724364963,-34591.04562891074,-26097.94152950544,-14088.438640646773,-31461.443777256463,0.0,0.0,0.0,193.0,0.0,193.0,0.0,0.0,0.0,179.0,193.0,0.0,179.0,1744420632.8724873,0.0,2025-04-11 21:17:12.872,FORWARD,42
162.0,17471.241053490765,24346.10120607629,-31472.194966339466,-19587.124238863496,-34587.55875677571,-26092.867683514083,-14429.57096452367,-31448.949152105946,0.0,0.0,0.0,193.0,0.0,193.0,0.0,0.0,0.0,179.0,193.0,0.0,179.0,1744420632.8725336,0.0,2025-04-11 21:17:12.872,FORWARD,42
163.0,17468.13416101148,24354.617220713764,-31468.17165233751,-19585.514913262716,-34585.99413466384,-26092.755924791807,-14570.319899358738,-31455.945248120457,0.0,0.0,0.0,193.0,0.0,193.0,0.0,0.0,0.0,179.0,193.0,0.0,179.0,1744420632.8725808,0.0,2025-04-11 21:17:12.872,FORWARD,42
164.0,17501.59472246107,24361.412151028177,-31470.04919887176,-19585.58196849608,-34586.754093975316,-26106.54695112073,-14133.298591768575,-31421.277692470278,0.0,0.0,0.0,193.0,0.0,194.0,0.0,0.0,0.0,180.0,194.0,0.0,180.0,1744420632.8726273,0.0,2025-04-11 21:17:12.872,FORWARD,42
165.0,17502.84642015057,24344.178956053132,-31474.653658229552,-19603.798640227156,-34589.95039343243,-26115.867628558593,-14046.596175026438,-31473.066684373225,0.0,0.0,0.0,193.0,0.0,193.0,0.0,0.0,0.0,179.0,193.0,0.0,179.0,1744420632.8727329,0.0,2025-04-11 21:17:12.872,FORWARD,42
166.0,17478.527722183197,24340.96030485157,-31473.200794839955,-19596.377861067995,-34586.57528001968,-26102.680099329962,-14372.149333017986,-31459.342713277667,0.0,0.0,0.0,193.0,0.0,193.0,0.0,0.0,0.0,179.0,193.0,0.0,179.0,1744420632.8727798,0.0,2025-04-11 21:17:12.872,FORWARD,42
167.0,17470.83872209057,24347.039979343415,-31464.349504035654,-19586.520741763205,-34581.63554449505,-26095.68400331545,-14587.843667011699,-31466.69643720346,0.0,0.0,0.0,193.0,0.0,194.0,0.0,0.0,0.0,179.0,194.0,0.0,179.0,1744420632.8728268,0.0,2025-04-11 21:17:12.872,FORWARD,42
168.0,17499.381899759996,24364.54139525192,-31464.058931357737,-19579.39053528196,-34588.54223353174,-26105.31760517569,-14218.48108988775,-31425.189247749957,0.0,0.0,0.0,193.0,0.0,193.0,0.0,0.0,0.0,179.0,193.0,0.0,179.0,1744420632.872873,0.0,2025-04-11 21:17:12.872,FORWARD,42
169.0,17511.98828363279,24352.404398012688,-31465.08711160268,-19591.438125543373,-34587.111721886606,-26111.799611067727,-13995.81301162398,-31452.03369284078,0.0,0.0,0.0,193.0,0.0,194.0,0.0,0.0,0.0,179.0,194.0,0.0,179.0,1744420632.8729198,0.0,2025-04-11 21:17:12.872,FORWARD,42
170.0,17484.383879230485,24338.38985423921,-31466.048236614257,-19587.481866774782,-34591.69382949994,-26109.40797441101,-14308.335102598085,-31471.502062261352,0.0,0.0,0.0,193.0,0.0,194.0,0.0,0.0,0.0,180.0,194.0,0.0,180.0,1744420632.8729668,0.0,2025-04-11 21:17:12.872,FORWARD,42
171.0,17470.816370346114,24349.34220902231,-31460.214431311422,-19580.10579110453,-34587.29053584224,-26100.959015006905,-14588.737736789912,-31463.790710424273,0.0,0.0,0.0,193.0,0.0,193.0,0.0,0.0,0.0,179.0,193.0,0.0,179.0,1744420632.8730316,0.0,2025-04-11 21:17:12.873,FORWARD,42
172.0,17497.25848403674,24356.852395159294,-31457.26400104332,-19576.55186373614,-34584.27305034078,-26110.16793372249,-14300.266122849718,-31429.07845128518,0.0,0.0,0.0,193.0,0.0,194.0,0.0,0.0,0.0,180.0,194.0,0.0,180.0,1744420632.8730788,0.0,2025-04-11 21:17:12.873,FORWARD,42
173.0,17512.435318521897,24344.87186013125,-31468.75279769335,-19597.271930846207,-34598.51111155881,-26126.30589321922,-13971.00257527859,-31460.505003989343,0.0,0.0,0.0,193.0,0.0,194.0,0.0,0.0,0.0,179.0,194.0,0.0,179.0,1744420632.8731256,0.0,2025-04-11 21:17:12.873,FORWARD,42
174.0,17498.08549858159,24341.027360084936,-31458.426291754997,-19586.185465596376,-34582.39550380653,-26104.200017952924,-14254.400343227428,-31477.581736753196,0.0,0.0,0.0,193.0,0.0,193.0,0.0,0.0,0.0,179.0,193.0,0.0,179.0,1744420632.8731723,0.0,2025-04-11 21:17:12.873,FORWARD,42
175.0,17484.473286208307,24356.047732358904,-31440.343730490655,-19563.721962418793,-34565.34112278713,-26073.667535026972,-14558.942861430987,-31427.200904750935,0.0,0.0,0.0,193.0,0.0,194.0,0.0,0.0,0.0,180.0,194.0,0.0,180.0,1744420632.8733165,0.0,2025-04-11 21:17:12.873,FORWARD,42
176.0,17497.90668462595,24358.662886460173,-31440.120213046102,-19559.273965272187,-34572.136053101545,-26085.379849121553,-14385.22510352434,-31404.782105062262,0.0,0.0,0.0,193.0,0.0,194.0,0.0,0.0,0.0,180.0,194.0,0.0,180.0,1744420632.8733742,0.0,2025-04-11 21:17:12.873,FORWARD,42
177.0,17517.687978468894,24359.221680071554,-31452.234858540876,-19576.037773613665,-34589.77157947679,-26106.636358098553,-13970.24261596711,-31415.846218567636,0.0,0.0,0.0,193.0,0.0,193.0,0.0,0.0,0.0,179.0,193.0,0.0,179.0,1744420632.8734221,0.0,2025-04-11 21:17:12.873,FORWARD,42
178.0,17495.60445494705,24346.25766828748,-31456.861669643127,-19580.48577076027,-34595.47127431289,-26103.0600789857,-14177.733859745726,-31454.872364386603,0.0,0.0,0.0,193.0,0.0,194.0,0.0,0.0,0.0,179.0,194.0,0.0,179.0,1744420632.87347,0.0,2025-04-11 21:17:12.873,FORWARD,42
179.0,17480.248806506253,24356.33830503682,-31443.674140414496,-19563.118465318497,-34579.355666560616,-26083.63641305404,-14528.119805827118,-31441.617779924607,0.0,0.0,0.0,193.0,0.0,193.0,0.0,0.0,0.0,179.0,193.0,0.0,179.0,1744420632.873518,0.0,2025-04-11 21:17:12.873,FORWARD,42
180.0,17494.41981249092,24362.887366162227,-31436.70039614444,-19551.763779135203,-34578.148672360025,-26084.17285492097,-14483.48337214987,-31433.682910642972,0.0,0.0,0.0,193.0,0.0,193.0,0.0,0.0,0.0,179.0,193.0,0.0,179.0,1744420632.873592,0.0,2025-04-11 21:17:12.873,FORWARD,42
181.0,17514.961065645348,24358.43936901562,-31456.548745220753,-19570.87452064449,-34605.66366978451,-26110.324395933676,-14015.460195000196,-31427.245608239846,0.0,0.0,0.0,193.0,0.0,194.0,0.0,0.0,0.0,179.0,194.0,0.0,179.0,1744420632.8736389,0.0,2025-04-11 21:17:12.873,FORWARD,42
182.0,17508.65787370895,24343.307238019377,-31453.531259719286,-19576.998898625243,-34598.645222025545,-26102.858913285603,-14153.839844923003,-31483.86257694514,0.0,0.0,0.0,193.0,0.0,193.0,0.0,0.0,0.0,179.0,193.0,0.0,179.0,1744420632.8736856,0.0,2025-04-11 21:17:12.873,FORWARD,42
183.0,17483.534512941183,24351.711493934574,-31441.550724691242,-19560.05627632812,-34579.86975668308,-26078.16023566249,-14492.781697843278,-31448.21154453892,0.0,0.0,0.0,193.0,0.0,193.0,0.0,0.0,0.0,179.0,193.0,0.0,179.0,1744420632.8737323,0.0,2025-04-11 21:17:12.873,FORWARD,42
184.0,17489.971815344314,24358.752293437996,-31433.63820715406,-19552.389627979952,-34577.858099682104,-26068.437226824433,-14540.055637366253,-31422.954073304427,0.0,0.0,0.0,193.0,0.0,194.0,0.0,0.0,0.0,180.0,194.0,0.0,180.0,1744420632.8737793,0.0,2025-04-11 21:17:12.873,FORWARD,42
185.0,17513.731719700303,24362.261517317478,-31444.590561937162,-19561.375029250983,-34592.72200974489,-26087.2573956558,-14068.54558808155,-31384.285555396746,0.0,0.0,0.0,193.0,0.0,193.0,0.0,0.0,0.0,179.0,193.0,0.0,179.0,1744420632.8738272,0.0,2025-04-11 21:17:12.873,FORWARD,42
186.0,17501.058280594145,24342.077892074336,-31456.951076620946,-19585.58196849608,-34596.32064060219,-26101.495456873832,-14083.36479465542,-31456.481689987388,0.0,0.0,0.0,193.0,0.0,194.0,0.0,0.0,0.0,179.0,194.0,0.0,179.0,1744420632.873892,0.0,2025-04-11 21:17:12.873,FORWARD,42
187.0,17480.628786161993,24346.25766828748,-31453.03952134127,-19577.133009091976,-34584.876547441076,-26083.569357820674,-14431.202641868907,-31444.299989259245,0.0,0.0,0.0,193.0,0.0,193.0,0.0,0.0,0.0,179.0,193.0,0.0,179.0,1744420632.8739407,0.0,2025-04-11 21:17:12.873,FORWARD,42
188.0,17477.11956228251,24349.990409611513,-31446.021073582302,-19571.67918344488,-34576.38288454806,-26079.099008929614,-14597.790193294311,-31447.943323605457,0.0,0.0,0.0,193.0,0.0,193.0,0.0,0.0,0.0,179.0,193.0,0.0,179.0,1744420632.873988,0.0,2025-04-11 21:17:12.873,FORWARD,42
189.0,17499.13603057099,24350.3480375228,-31455.922896376003,-19578.809389926122,-34585.636506752555,-26101.160180707,-14171.385964320418,-31408.581901619662,0.0,0.0,0.0,193.0,0.0,194.0,0.0,0.0,0.0,179.0,194.0,0.0,179.0,1744420632.874035,0.0,2025-04-11 21:17:12.874,FORWARD,42
190.0,17495.89502762497,24329.940894835105,-31470.384475038587,-19606.994939684268,-34593.884300456564,-26120.606198383117,-14041.164701123798,-31466.919954648016,0.0,0.0,0.0,193.0,0.0,193.0,0.0,0.0,0.0,179.0,193.0,0.0,179.0,1744420632.874172,0.0,2025-04-11 21:17:12.874,FORWARD,42
191.0,17475.398477959454,24330.164412279657,-31469.266887815822,-19602.01050067073,-34592.94552718944,-26109.989119766848,-14386.499152958293,-31473.491367517876,0.0,0.0,0.0,193.0,0.0,193.0,0.0,0.0,0.0,179.0,193.0,0.0,179.0,1744420632.8742208,0.0,2025-04-11 21:17:12.874,FORWARD,42
192.0,17467.530663911184,24342.01083684097,-31459.968562122413,-19592.756878466236,-34585.569451519186,-26094.812285281692,-14613.771690579855,-31455.811137653727,0.0,0.0,0.0,193.0,0.0,194.0,0.0,0.0,0.0,179.0,194.0,0.0,179.0,1744420632.874274,0.0,2025-04-11 21:17:12.874,FORWARD,42
193.0,17491.98347234529,24352.96319162407,-31458.672160944006,-19587.25834933023,-34590.57624227717,-26103.283596430254,-14259.273023518685,-31401.339936416145,0.0,0.0,0.0,193.0,0.0,193.0,0.0,0.0,0.0,179.0,193.0,0.0,179.0,1744420632.8743246,0.0,2025-04-11 21:17:12.874,FORWARD,42
194.0,17502.309978283643,24349.945706122602,-31466.830547670193,-19608.045471673664,-34598.0640766697,-26117.812230326206,-14015.527250233561,-31442.243628769356,0.0,0.0,0.0,193.0,0.0,194.0,0.0,0.0,0.0,180.0,194.0,0.0,180.0,1744420632.874375,0.0,2025-04-11 21:17:12.874,FORWARD,42
195.0,17489.301263010653,24340.71443566256,-31463.45543425744,-19601.65287275945,-34592.5655475337,-26105.719936575882,-14314.437128834383,-31459.677989444495,0.0,0.0,0.0,193.0,0.0,193.0,0.0,0.0,0.0,179.0,193.0,0.0,179.0,1744420632.874458,0.0,2025-04-11 21:17:12.874,FORWARD,42
196.0,17474.146780269955,24344.067197330856,-31450.446718984454,-19588.822971442103,-34584.3624573186,-26093.135904447547,-14619.18081273804,-31462.248440056854,0.0,0.0,0.0,193.0,0.0,193.0,0.0,0.0,0.0,179.0,193.0,0.0,179.0,1744420632.874508,0.0,2025-04-11 21:17:12.874,FORWARD,42
197.0,17486.708460653837,24340.33445600682,-31449.954980606435,-19584.374974295497,-34590.64329751054,-26105.49641913133,-14362.202806735375,-31429.436079196465,0.0,0.0,0.0,193.0,0.0,194.0,0.0,0.0,0.0,179.0,194.0,0.0,179.0,1744420632.8745596,0.0,2025-04-11 21:17:12.874,FORWARD,42
198.0,17509.12726034251,24342.122595563247,-31460.348541778156,-19600.20000936985,-34601.8191697382,-26121.343805950142,-14003.278494272054,-31451.78782365177,0.0,0.0,0.0,193.0,0.0,194.0,0.0,0.0,0.0,179.0,194.0,0.0,179.0,1744420632.8746097,0.0,2025-04-11 21:17:12.874,FORWARD,42
199.0,17489.569483944117,24337.853412372282,-31459.32036153321,-19594.67912848939,-34598.75698074782,-26113.11836399059,-14272.281738791675,-31490.14341713708,0.0,0.0,0.0,193.0,0.0,193.0,0.0,0.0,0.0,179.0,193.0,0.0,179.0,1744420632.8746572,0.0,2025-04-11 21:17:12.874,FORWARD,42
200.0,17466.21191098832,24350.370389267253,-31447.69745441645,-19576.887139902967,-34583.08840788465,-26089.336107890143,-14579.081783185218,-31462.27079180131,0.0,0.0,0.0,193.0,0.0,194.0,0.0,0.0,0.0,180.0,194.0,0.0,180.0,1744420632.8747144,0.0,2025-04-11 21:17:12.874,FORWARD,42
201.0,17481.0758210511,24357.902927148694,-31439.2708467568,-19563.945479863345,-34575.19824209192,-26087.97265147837,-14423.133662120541,-31427.13384951757,0.0,0.0,0.0,193.0,0.0,193.0,0.0,0.0,0.0,179.0,193.0,0.0,179.0,1744420632.8747869,0.0,2025-04-11 21:17:12.874,FORWARD,42
202.0,17505.863905652037,24353.05259860189,-31451.56430620722,-19583.570311495103,-34593.05728591172,-26115.15237273602,-13992.706119144694,-31439.36025373462,0.0,0.0,0.0,193.0,0.0,193.0,0.0,0.0,0.0,179.0,193.0,0.0,179.0,1744420632.8748348,0.0,2025-04-11 21:17:12.874,FORWARD,42
203.0,17492.36345200103,24344.916563620158,-31446.4234049825,-19580.999860882745,-34589.63746901006,-26100.199055695422,-14206.14292694842,-31477.89466117557,0.0,0.0,0.0,193.0,0.0,194.0,0.0,0.0,0.0,179.0,194.0,0.0,179.0,1744420632.8748832,0.0,2025-04-11 21:17:12.874,FORWARD,42
204.0,17466.055448777133,24352.717322435063,-31440.45548921293,-19568.59464271005,-34583.60249800712,-26080.373058363566,-14537.105207098151,-31434.979311821382,0.0,0.0,0.0,193.0,0.0,193.0,0.0,0.0,0.0,179.0,193.0,0.0,179.0,1744420632.8749309,0.0,2025-04-11 21:17:12.874,FORWARD,42
205.0,17483.22158851881,24359.132273093735,-31428.13967801806,-19560.235090283764,-34571.75607344581,-26081.44594209742,-14492.379366443083,-31417.65670986852,0.0,0.0,0.0,193.0,0.0,193.0,0.0,0.0,0.0,179.0,193.0,0.0,179.0,1744420632.8750725,0.0,2025-04-11 21:17:12.875,FORWARD,42
206.0,17505.528629485205,24359.176976582647,-31443.450622969944,-19576.082477102576,-34592.81141672271,-26107.55277962122,-14020.176413080266,-31412.538160388252,0.0,0.0,0.0,193.0,0.0,193.0,0.0,0.0,0.0,179.0,193.0,0.0,179.0,1744420632.8751225,0.0,2025-04-11 21:17:12.875,FORWARD,42
207.0,17492.810486890136,24338.658075172672,-31446.088128815667,-19584.911416162424,-34591.447960310936,-26105.764640064794,-14137.925402870824,-31476.62061174162,0.0,0.0,0.0,193.0,0.0,193.0,0.0,0.0,0.0,179.0,193.0,0.0,179.0,1744420632.8751702,0.0,2025-04-11 21:17:12.875,FORWARD,42
208.0,17466.368373199508,24339.52979320643,-31443.338864247668,-19572.908529389922,-34584.07188464068,-26087.4585613559,-14476.643738346547,-31443.13769854757,0.0,0.0,0.0,193.0,0.0,193.0,0.0,0.0,0.0,179.0,193.0,0.0,179.0,1744420632.8752177,0.0,2025-04-11 21:17:12.875,FORWARD,42
209.0,17465.496655165753,24344.80480489788,-31439.092032801156,-19565.8677298865,-34579.02039039378,-26089.336107890143,-14563.144989388586,-31446.311646260223,0.0,0.0,0.0,193.0,0.0,193.0,0.0,0.0,0.0,179.0,193.0,0.0,179.0,1744420632.875264,0.0,2025-04-11 21:17:12.875,FORWARD,42
210.0,17490.03887057768,24341.96613335206,-31454.201812052946,-19575.076648602088,-34593.48196905637,-26114.079489002168,-14092.305492437541,-31422.998776793338,0.0,0.0,0.0,193.0,0.0,194.0,0.0,0.0,0.0,180.0,194.0,0.0,180.0,1744420632.875338,0.0,2025-04-11 21:17:12.875,FORWARD,42
211.0,17488.586007188085,24328.57743842333,-31461.22025981191,-19591.952215665846,-34596.45475106892,-26106.904579032016,-14084.370623155908,-31467.143472092568,0.0,0.0,0.0,193.0,0.0,193.0,0.0,0.0,0.0,179.0,193.0,0.0,179.0,1744420632.875386,0.0,2025-04-11 21:17:12.875,FORWARD,42
212.0,17463.1720737424,24333.137194292212,-31461.913163890025,-19587.370108052506,-34591.60442252212,-26094.25349167031,-14432.744912236323,-31446.870439871604,0.0,0.0,0.0,193.0,0.0,194.0,0.0,0.0,0.0,179.0,194.0,0.0,179.0,1744420632.8754334,0.0,2025-04-11 21:17:12.875,FORWARD,42
213.0,17454.566652127105,24339.66390367316,-31453.888887630572,-19582.49742776125,-34582.0155241508,-26097.427439382966,-14601.075899729241,-31453.821832397203,0.0,0.0,0.0,193.0,0.0,194.0,0.0,0.0,0.0,180.0,194.0,0.0,180.0,1744420632.875481,0.0,2025-04-11 21:17:12.875,FORWARD,42
214.0,17480.4276204619,24341.787319396415,-31454.60414345314,-19583.9726428953,-34586.6646869975,-26112.760736079304,-14176.593920778505,-31411.2641109543,0.0,0.0,0.0,193.0,0.0,193.0,0.0,0.0,0.0,178.0,193.0,0.0,178.0,1744420632.875528,0.0,2025-04-11 21:17:12.875,FORWARD,42
215.0,17480.36056522853,24327.616313411752,-31467.277582559298,-19611.867619975525,-34600.29925111523,-26129.83746884316,-14041.768198224092,-31471.94909715046,0.0,0.0,0.0,193.0,0.0,194.0,0.0,1.0,0.0,180.0,194.0,1.0,180.0,1744420632.8755753,0.0,2025-04-11 21:17:12.875,FORWARD,42
216.0,17465.74252435476,24326.252856999978,-31457.75573942134,-19598.7247942358,-34585.435341052456,-26116.493477403343,-14387.393222736506,-31473.93840240698,0.0,0.0,0.0,193.0,0.0,193.0,0.0,2.0,0.0,179.0,193.0,2.0,179.0,1744420632.8756647,0.0,2025-04-11 21:17:12.875,FORWARD,42
217.0,17460.0204777742,24330.700854146584,-31448.949152105946,-19591.21460809882,-34573.65597172451,-26113.252474457324,-14606.17209746505,-31467.36698953712,0.0,0.0,0.0,193.0,0.0,194.0,0.0,3.0,0.0,179.0,194.0,3.0,179.0,1744420632.8757095,0.0,2025-04-11 21:17:12.875,FORWARD,42
218.0,17485.613225175526,24336.62406642724,-31451.832527140683,-19588.64415748646,-34584.451864296425,-26124.40599494052,-14256.501407206228,-31422.4176314375,0.0,0.0,0.0,193.0,0.0,194.0,0.0,4.0,0.0,179.0,194.0,4.0,179.0,1744420632.875754,0.0,2025-04-11 21:17:12.875,FORWARD,42
219.0,17491.69289966737,24327.661016900664,-31460.437948755975,-19607.30786410664,-34602.60148079413,-26138.26407650281,-14015.929581633758,-31463.678951701993,0.0,0.0,0.0,193.0,0.0,193.0,0.0,5.0,0.0,179.0,193.0,5.0,179.0,1744420632.8757975,0.0,2025-04-11 21:17:12.875,FORWARD,42
220.0,17468.73765811177,24319.212057496556,-31453.59831495265,-19596.847247701557,-34592.78906497825,-26124.540105407254,-14318.907477725445,-31478.52051002032,0.0,0.0,0.0,193.0,0.0,193.0,0.0,7.0,0.0,179.0,193.0,7.0,179.0,1744420633.349134,0.0,2025-04-11 21:17:13.349,FORWARD,42
221.0,17452.84556780405,24331.460813458063,-31442.75771889183,-19583.570311495103,-34576.38288454806,-26112.44781165693,-14593.006919980875,-31466.27175405881,0.0,0.0,0.0,193.0,0.0,194.0,0.0,7.0,0.0,179.0,194.0,7.0,179.0,1744420633.3492973,0.0,2025-04-11 21:17:13.349,FORWARD,42
222.0,17473.945614569857,24343.083720574825,-31436.476878699887,-19572.88617764547,-34574.28182056926,-26114.012433768803,-14346.668344338936,-31431.917122831004,0.0,0.0,0.0,193.0,0.0,193.0,0.0,8.0,0.0,179.0,193.0,8.0,179.0,1744420633.3493495,0.0,2025-04-11 21:17:13.349,FORWARD,42
223.0,17491.111754311532,24336.892287360704,-31449.373835250597,-19592.57806451059,-34589.63746901006,-26132.586733411164,-13979.250368982599,-31456.727559176394,0.0,0.0,0.0,193.0,0.0,193.0,0.0,9.0,0.0,180.0,193.0,9.0,180.0,1744420633.3493989,0.0,2025-04-11 21:17:13.349,FORWARD,42
224.0,17477.611300660526,24320.62021739724,-31454.85001264215,-19595.908474434433,-34597.12530340258,-26127.73640486436,-14243.000953555222,-31495.418428828532,0.0,0.0,0.0,193.0,0.0,194.0,0.0,10.0,0.0,180.0,194.0,10.0,180.0,1744420633.3494477,0.0,2025-04-11 21:17:13.349,FORWARD,42
225.0,17461.763913841714,24334.634761170717,-31446.378701493588,-19584.21851208431,-34588.631640509564,-26107.93275927696,-14584.245036154394,-31479.727504220904,0.0,0.0,0.0,193.0,0.0,193.0,0.0,10.0,0.0,179.0,193.0,10.0,179.0,1744420633.3495414,0.0,2025-04-11 21:17:13.349,FORWARD,42
226.0,17473.61033840303,24343.86603163076,-31440.83546886867,-19573.802599168135,-34586.99996316433,-26105.854047042616,-14470.742877810346,-31458.60510571064,0.0,0.0,0.0,193.0,0.0,194.0,0.0,11.0,0.0,180.0,194.0,11.0,180.0,1744420633.3495908,0.0,2025-04-11 21:17:13.349,FORWARD,42
227.0,17500.812411405135,24343.642514186206,-31450.200849795445,-19582.7209452058,-34597.39352433605,-26110.50320988932,-14015.571953722472,-31424.78691634976,0.0,0.0,0.0,193.0,0.0,194.0,0.0,11.0,0.0,180.0,194.0,11.0,180.0,1744420633.3496487,0.0,2025-04-11 21:17:13.349,FORWARD,42
228.0,17487.736640898784,24325.604656410775,-31447.85391662764,-19583.704421961836,-34590.01744866579,-26098.16504694999,-14180.237255124719,-31459.812099911225,0.0,0.0,0.0,193.0,0.0,193.0,0.0,12.0,0.0,179.0,193.0,12.0,179.0,1744420633.3496988,0.0,2025-04-11 21:17:13.349,FORWARD,42
229.0,17464.669640620905,24333.628932670228,-31443.092995058658,-19574.74137243526,-34582.216689850895,-26084.195206665423,-14527.382198260093,-31455.83348939818,0.0,0.0,0.0,193.0,0.0,194.0,0.0,12.0,0.0,180.0,194.0,12.0,180.0,1744420633.349748,0.0,2025-04-11 21:17:13.349,FORWARD,42
230.0,17469.899948823448,24340.11093856227,-31437.482707200375,-19565.39834325294,-34575.26529732529,-26077.40027635101,-14511.8253841192,-31422.75290760433,0.0,0.0,0.0,193.0,0.0,194.0,0.0,12.0,0.0,180.0,194.0,12.0,180.0,1744420633.3497972,0.0,2025-04-11 21:17:13.349,FORWARD,42
231.0,17492.542265956672,24343.039017085914,-31450.2232015399,-19576.417753269405,-34589.30219284322,-26098.25445392781,-14035.934392921257,-31400.73643931585,0.0,0.0,0.0,193.0,0.0,193.0,0.0,13.0,0.0,179.0,193.0,13.0,179.0,1744420633.3499787,0.0,2025-04-11 21:17:13.349,FORWARD,42
232.0,17481.500504195752,24330.656150657673,-31453.79948065275,-19585.738430707268,-34590.57624227717,-26093.58293933665,-14135.153786558365,-31461.332018534187,0.0,0.0,0.0,193.0,0.0,194.0,0.0,13.0,0.0,180.0,194.0,13.0,180.0,1744420633.350029,0.0,2025-04-11 21:17:13.350,FORWARD,42
233.0,17461.048658019146,24339.68625541762,-31446.311646260223,-19570.941575877856,-34578.08161712666,-26074.896880972014,-14464.797313785233,-31432.140640275557,0.0,0.0,0.0,193.0,0.0,194.0,0.0,13.0,0.0,179.0,194.0,13.0,179.0,1744420633.350078,0.0,2025-04-11 21:17:13.350,FORWARD,42
234.0,17464.714344109816,24346.77175840995,-31436.856858355626,-19561.48678797326,-34568.51507049979,-26074.606308294096,-14566.229530123417,-31441.438965968966,0.0,0.0,0.0,193.0,0.0,193.0,0.0,14.0,0.0,179.0,193.0,14.0,179.0,1744420633.3503122,0.0,2025-04-11 21:17:13.350,FORWARD,42
235.0,17495.1797718024,24347.598772954796,-31452.257210285334,-19575.635442213472,-34589.79393122124,-26109.385622666556,-14103.660178620838,-31420.45067792543,0.0,0.0,0.0,193.0,0.0,194.0,0.0,14.0,0.0,180.0,194.0,14.0,180.0,1744420633.3503575,0.0,2025-04-11 21:17:13.350,FORWARD,42
236.0,17495.22447529131,24332.243124514,-31456.928724876492,-19589.82879994259,-34594.733666745866,-26107.55277962122,-14067.986794470167,-31469.691570960473,0.0,0.0,0.0,193.0,0.0,193.0,0.0,14.0,0.0,179.0,193.0,14.0,179.0,1744420633.3504012,0.0,2025-04-11 21:17:13.350,FORWARD,42
237.0,17469.207044745333,24332.645455914197,-31451.13962306257,-19575.702497446837,-34589.10102714313,-26090.207825923902,-14415.444662027916,-31450.491422473366,0.0,0.0,0.0,193.0,0.0,194.0,0.0,14.0,0.0,180.0,194.0,14.0,180.0,1744420633.3504443,0.0,2025-04-11 21:17:13.350,FORWARD,42
238.0,17460.176939985387,24343.798976397393,-31437.952093833937,-19565.39834325294,-34572.89601241303,-26085.469256099375,-14593.923341503543,-31446.512811960318,0.0,0.0,0.0,193.0,0.0,194.0,0.0,14.0,0.0,179.0,194.0,14.0,179.0,1744420633.350488,0.0,2025-04-11 21:17:13.350,FORWARD,42
239.0,17487.93780659888,24362.44033127312,-31435.225181010388,-19558.53635770516,-34571.26433506779,-26096.48866611584,-14187.613330794971,-31410.25828245381,0.0,0.0,0.0,193.0,0.0,193.0,0.0,14.0,0.0,179.0,193.0,14.0,179.0,1744420633.3505485,0.0,2025-04-11 21:17:13.350,FORWARD,42
240.0,17494.129239813,24345.2965432759,-31453.911239375026,-19587.817142941614,-34590.263317854806,-26118.88511406006,-14026.077273616467,-31474.474844273907,0.0,0.0,0.0,193.0,0.0,194.0,0.0,15.0,0.0,180.0,194.0,15.0,180.0,1744420633.350592,0.0,2025-04-11 21:17:13.350,FORWARD,42
241.0,17470.525797668197,24329.38210122372,-31455.4758614869,-19585.58196849608,-34589.346896332136,-26113.54304713524,-14354.089123498097,-31487.729428735907,0.0,0.0,0.0,193.0,0.0,194.0,0.0,15.0,0.0,180.0,194.0,15.0,180.0,1744420633.3506353,0.0,2025-04-11 21:17:13.350,FORWARD,42
242.0,17459.059352762622,24339.06040657287,-31437.75092813384,-19567.387648509462,-34567.799814677215,-26093.20295968091,-14593.766879292356,-31460.84028015617,0.0,0.0,0.0,193.0,0.0,193.0,0.0,15.0,0.0,179.0,193.0,15.0,179.0,1744420633.3506782,0.0,2025-04-11 21:17:13.350,FORWARD,42
243.0,17475.21966400381,24342.368464752253,-31444.18823053697,-19566.582985709072,-34579.98151540536,-26103.149485963524,-14264.63744218796,-31404.759753317805,0.0,0.0,0.0,193.0,0.0,194.0,0.0,15.0,0.0,180.0,194.0,15.0,180.0,1744420633.3507211,0.0,2025-04-11 21:17:13.350,FORWARD,42
244.0,17493.79396364617,24334.992389082003,-31457.532221976784,-19590.678166231894,-34596.70062025793,-26122.908428062015,-13987.587569664427,-31445.305817759734,0.0,0.0,0.0,193.0,0.0,193.0,0.0,15.0,0.0,179.0,193.0,15.0,179.0,1744420633.3507645,0.0,2025-04-11 21:17:13.350,FORWARD,42
245.0,17481.098172795555,24332.10901404727,-31449.373835250597,-19581.133971349474,-34589.72687598787,-26109.273863944276,-14294.54407626916,-31468.931611648994,0.0,0.0,0.0,193.0,0.0,194.0,0.0,15.0,0.0,180.0,194.0,15.0,180.0,1744420633.3508077,0.0,2025-04-11 21:17:13.350,FORWARD,42
246.0,17456.958288783826,24338.47926121703,-31439.539067690264,-19568.706401432326,-34582.484910784355,-26095.236968426343,-14598.46074562797,-31461.60023946765,0.0,0.0,0.0,193.0,0.0,194.0,0.0,15.0,0.0,179.0,194.0,15.0,179.0,1744420633.3509424,0.0,2025-04-11 21:17:13.350,FORWARD,42
247.0,17476.56076867113,24350.258630544977,-31432.297102486744,-19557.61993618249,-34574.08065486916,-26094.07467771467,-14397.831487397134,-31424.943378560947,0.0,0.0,0.0,193.0,0.0,193.0,0.0,15.0,0.0,179.0,193.0,15.0,179.0,1744420633.3509865,0.0,2025-04-11 21:17:13.350,FORWARD,42
248.0,17491.447030478364,24339.82036588435,-31447.138660805067,-19576.127180591488,-34586.44116955294,-26110.659672100508,-13977.395174192809,-31420.540084903252,0.0,0.0,0.0,193.0,0.0,194.0,0.0,15.0,0.0,180.0,194.0,15.0,180.0,1744420633.3510292,0.0,2025-04-11 21:17:13.351,FORWARD,42
249.0,17477.54424542716,24331.05848205787,-31442.154221791534,-19569.756933421726,-34581.63554449505,-26088.799666023217,-14216.692950331326,-31449.396186995054,0.0,0.0,0.0,193.0,0.0,193.0,0.0,15.0,0.0,179.0,193.0,15.0,179.0,1744420633.351087,0.0,2025-04-11 21:17:13.351,FORWARD,42
250.0,17462.70268710884,24343.307238019377,-31430.531314674776,-19551.361447735006,-34566.59282047663,-26070.82886348115,-14553.064352639241,-31431.805364108728,0.0,0.0,0.0,193.0,0.0,194.0,0.0,16.0,0.0,179.0,194.0,16.0,179.0,1744420633.3511305,0.0,2025-04-11 21:17:13.351,FORWARD,42
251.0,17474.392649458965,24348.805767155383,-31428.676119884985,-19544.96884882079,-34565.67639895396,-26071.54411930372,-14447.698229276924,-31404.02214575078,0.0,0.0,0.0,193.0,0.0,193.0,0.0,16.0,0.0,179.0,193.0,16.0,179.0,1744420633.3511736,0.0,2025-04-11 21:17:13.351,FORWARD,42
252.0,17503.874600395513,24353.343171279812,-31442.17657353599,-19562.78318915167,-34583.35662881811,-26092.241834669334,-13980.032680038534,-31382.11743618458,0.0,0.0,0.0,193.0,0.0,193.0,0.0,16.0,0.0,179.0,193.0,16.0,179.0,1744420633.3512168,0.0,2025-04-11 21:17:13.351,FORWARD,42
253.0,17483.780382130193,24333.0924908033,-31443.89765785905,-19573.646136956948,-34585.54709977473,-26094.924044003972,-14148.900109398379,-31446.579867193686,0.0,0.0,0.0,193.0,0.0,194.0,0.0,16.0,0.0,180.0,194.0,16.0,180.0,1744420633.3512597,0.0,2025-04-11 21:17:13.351,FORWARD,42
254.0,17460.780437085683,24342.748444407993,-31435.202829265934,-19562.134988562466,-34574.37122754708,-26079.34487811862,-14505.186916015973,-31436.99096882236,0.0,0.0,0.0,193.0,0.0,193.0,0.0,16.0,0.0,179.0,193.0,16.0,179.0,1744420633.3513157,0.0,2025-04-11 21:17:13.351,FORWARD,42
255.0,17470.9728325573,24349.185746811123,-31426.306834972722,-19552.501386702228,-34564.514108242285,-26076.282689128246,-14511.758328885833,-31420.964768047903,0.0,0.0,0.0,193.0,0.0,194.0,0.0,16.0,0.0,180.0,194.0,16.0,180.0,1744420633.3513596,0.0,2025-04-11 21:17:13.351,FORWARD,42
0.0,17494.889199124482,24350.660961945174,-31438.712053145417,-19561.330325762072,-34581.07675088367,-26099.148523706022,-14034.705046976214,-31400.1105904711,0.0,0.0,0.0,193.0,0.0,194.0,0.0,16.0,0.0,180.0,194.0,16.0,180.0,1744420633.3514023,0.0,2025-04-11 21:17:13.351,FORWARD,42
1.0,17493.54809445716,24343.128424063736,-31437.527410689287,-19570.38278226647,-34578.930983415965,-26097.718012060883,-14107.50467866715,-31465.154166836044,0.0,0.0,0.0,193.0,0.0,193.0,0.0,16.0,0.0,179.0,193.0,16.0,179.0,1744420633.3514447,0.0,2025-04-11 21:17:13.351,FORWARD,42
2.0,17469.810541845625,24349.185746811123,-31436.92391358899,-19565.532453719672,-34579.24390783834,-26088.553796834207,-14472.307499922217,-31456.481689987388,0.0,0.0,0.0,193.0,0.0,194.0,0.0,16.0,0.0,180.0,194.0,16.0,180.0,1744420633.351488,0.0,2025-04-11 21:17:13.351,FORWARD,42
3.0,17469.587024401073,24352.62791545724,-31431.380680964077,-19562.716133918304,-34571.68901821244,-26087.123285189067,-14593.40925138107,-31450.714939917918,0.0,0.0,0.0,193.0,0.0,194.0,0.0,16.0,0.0,179.0,194.0,16.0,179.0,1744420633.3515308,0.0,2025-04-11 21:17:13.351,FORWARD,42
4.0,17491.581140945094,24346.503537476485,-31448.591524194664,-19578.362355037018,-34587.64816375353,-26112.201942467924,-14117.875888094413,-31402.859855039103,0.0,0.0,0.0,193.0,0.0,193.0,0.0,16.0,0.0,179.0,193.0,16.0,179.0,1744420633.351574,0.0,2025-04-11 21:17:13.351,FORWARD,42
5.0,17490.485905466783,24334.187726281612,-31452.883059130083,-19596.154343623442,-34583.5130910293,-26117.20873322591,-14060.63307054437,-31464.774187180305,0.0,0.0,0.0,193.0,0.0,194.0,0.0,16.0,0.0,180.0,194.0,16.0,180.0,1744420633.3517103,0.0,2025-04-11 21:17:13.351,FORWARD,42
6.0,17465.78722784367,24336.2440867715,-31450.64788468455,-19586.40898304093,-34577.813396193196,-26103.350651663623,-14402.592408966115,-31457.33105627669,0.0,0.0,0.0,193.0,0.0,193.0,0.0,16.0,0.0,179.0,193.0,16.0,179.0,1744420633.3517544,0.0,2025-04-11 21:17:13.351,FORWARD,42
7.0,17462.054486519635,24346.592944454307,-31441.528372946785,-19575.858959658024,-34569.342085044635,-26089.11259044559,-14592.828106025232,-31441.21544852441,0.0,0.0,0.0,193.0,0.0,194.0,0.0,16.0,0.0,180.0,194.0,16.0,180.0,1744420633.351797,0.0,2025-04-11 21:17:13.351,FORWARD,42
8.0,17486.887274609482,24352.62791545724,-31449.977332350893,-19578.16118933692,-34584.83184395216,-26112.671329101486,-14194.341205876019,-31418.17079999099,0.0,0.0,0.0,193.0,0.0,193.0,0.0,16.0,0.0,179.0,193.0,16.0,179.0,1744420633.3518553,0.0,2025-04-11 21:17:13.351,FORWARD,42
9.0,17495.447992735862,24339.44038622861,-31457.532221976784,-19595.170866867407,-34597.170006891494,-26124.718919362895,-14026.770177694581,-31489.249347358866,0.0,0.0,0.0,193.0,0.0,194.0,0.0,16.0,0.0,180.0,194.0,16.0,180.0,1744420633.3518984,0.0,2025-04-11 21:17:13.351,FORWARD,42
10.0,17475.353774470543,24336.15467979368,-31448.122137561102,-19580.44106727136,-34586.44116955294,-26099.10382021711,-14347.7859315617,-31470.585640738685,0.0,0.0,0.0,193.0,0.0,194.0,0.0,16.0,0.0,179.0,194.0,16.0,179.0,1744420633.3519409,0.0,2025-04-11 21:17:13.351,FORWARD,42
11.0,17461.719210352803,24343.77662465294,-31440.634303168572,-19569.82398865509,-34580.182681105456,-26084.68694504344,-14593.476306614437,-31432.878247842582,0.0,0.0,0.0,193.0,0.0,193.0,0.0,16.0,0.0,179.0,193.0,16.0,179.0,1744420633.351984,0.0,2025-04-11 21:17:13.351,FORWARD,42
12.0,17484.853265864047,24346.61529619876,-31439.561419434718,-19564.146645563444,-34582.66372474,-26093.96291899239,-14299.796736216156,-31395.21555843539,0.0,0.0,0.0,193.0,0.0,193.0,0.0,16.0,0.0,179.0,193.0,16.0,179.0,1744420633.3520272,0.0,2025-04-11 21:17:13.352,FORWARD,42
13.0,17499.158382315443,24340.62502868474,-31445.03759682627,-19579.703459704335,-34583.13311137356,-26101.942491762937,-13967.448647910196,-31405.78793356275,0.0,0.0,0.0,193.0,0.0,194.0,0.0,16.0,0.0,179.0,194.0,16.0,179.0,1744420633.3520846,0.0,2025-04-11 21:17:13.352,FORWARD,42
14.0,17481.2769867512,24333.96420883706,-31441.483669457873,-19573.132046834475,-34574.81826243619,-26091.146599191023,-14250.757008881214,-31436.633340911074,0.0,0.0,0.0,193.0,0.0,194.0,0.0,16.0,0.0,179.0,194.0,16.0,179.0,1744420633.352128,0.0,2025-04-11 21:17:13.352,FORWARD,42
15.0,17463.35088769804,24342.323761263342,-31436.968617077902,-19565.130122319475,-34570.057340867206,-26080.238947896833,-14575.773725005833,-31433.50409668733,0.0,0.0,0.0,193.0,0.0,194.0,0.0,16.0,0.0,180.0,194.0,16.0,180.0,1744420633.3521707,0.0,2025-04-11 21:17:13.352,FORWARD,42
16.0,17474.28089073669,24341.317932762853,-31440.500192701842,-19564.101942074532,-34578.506300271314,-26088.956128234404,-14384.263978512763,-31404.849160295627,0.0,0.0,0.0,193.0,0.0,194.0,0.0,16.0,0.0,179.0,194.0,16.0,179.0,1744420633.3522136,0.0,2025-04-11 21:17:13.352,FORWARD,42
17.0,17494.866847380024,24339.887421117714,-31452.74894866335,-19579.949328893345,-34593.83959696765,-26105.205846453413,-13989.62157840986,-31418.17079999099,0.0,0.0,0.0,193.0,0.0,194.0,0.0,16.0,0.0,180.0,194.0,16.0,180.0,1744420633.3522565,0.0,2025-04-11 21:17:13.352,FORWARD,42
18.0,17477.79011461617,24327.3927959672,-31457.375759765597,-19581.983337638776,-34593.92900394547,-26097.047459727226,-14217.81053755409,-31453.687721930473,0.0,0.0,0.0,193.0,0.0,194.0,0.0,16.0,0.0,180.0,194.0,16.0,180.0,1744420633.3522997,0.0,2025-04-11 21:17:13.352,FORWARD,42
19.0,17460.042829518658,24338.05457807238,-31447.518640460807,-19567.074724087088,-34579.60153574962,-26077.936718217938,-14544.30246881276,-31445.574038693198,0.0,0.0,0.0,193.0,0.0,193.0,0.0,17.0,0.0,179.0,193.0,17.0,179.0,1744420633.3524432,0.0,2025-04-11 21:17:13.352,FORWARD,42
20.0,17472.40334420244,24342.97196185255,-31438.332073489677,-19557.26230827121,-34570.37026528958,-26075.366267605576,-14473.939177267453,-31425.971558805893,0.0,0.0,0.0,193.0,0.0,194.0,0.0,17.0,0.0,180.0,194.0,17.0,180.0,1744420633.3524876,0.0,2025-04-11 21:17:13.352,FORWARD,42
21.0,17490.776478144704,24335.662941415663,-31456.07935858719,-19572.461494500818,-34588.89986144303,-26094.186436436947,-13993.823706367459,-31389.046476965726,0.0,0.0,0.0,193.0,0.0,194.0,0.0,17.0,0.0,180.0,194.0,17.0,180.0,1744420633.3525305,0.0,2025-04-11 21:17:13.352,FORWARD,42
22.0,17478.192446016365,24321.33547321981,-31460.259134800333,-19578.608224226027,-34592.81141672271,-26089.984308479347,-14144.206243062765,-31447.585695694175,0.0,0.0,0.0,193.0,0.0,193.0,0.0,17.0,0.0,179.0,193.0,17.0,179.0,1744420633.3525732,0.0,2025-04-11 21:17:13.352,FORWARD,42
23.0,17459.796960329648,24333.003083825482,-31454.0229980973,-19566.96296536481,-34584.1165881296,-26082.340011875633,-14531.047884350764,-31464.818890669216,0.0,0.0,0.0,193.0,0.0,194.0,0.0,17.0,0.0,180.0,194.0,17.0,180.0,1744420633.3526306,0.0,2025-04-11 21:17:13.352,FORWARD,42
24.0,17463.999088287244,24338.948647850593,-31447.60804743863,-19559.206910038818,-34573.186585090945,-26076.97559320636,-14560.73100098741,-31439.337901990166,0.0,0.0,0.0,193.0,0.0,194.0,0.0,17.0,0.0,180.0,194.0,17.0,180.0,1744420633.352674,0.0,2025-04-11 21:17:13.352,FORWARD,42
25.0,17490.307091511142,24346.034150842926,-31464.3271522912,-19569.53341597717,-34594.0631144122,-26090.811323024194,-14057.727343765182,-31376.97653495986,0.0,0.0,0.0,193.0,0.0,193.0,0.0,17.0,0.0,179.0,193.0,17.0,179.0,1744420633.3527167,0.0,2025-04-11 21:17:13.352,FORWARD,42
26.0,17483.1768850299,24326.789298866905,-31467.098768603657,-19580.73163994928,-34593.97370743439,-26092.443000369432,-14107.50467866715,-31441.349558991144,0.0,0.0,0.0,193.0,0.0,194.0,0.0,17.0,0.0,180.0,194.0,17.0,180.0,1744420633.35276,0.0,2025-04-11 21:17:13.352,FORWARD,42
27.0,17457.047695761645,24329.96324657956,-31463.813062168727,-19572.30503228963,-34587.40229456453,-26085.312793888188,-14450.536900822748,-31437.59446592265,0.0,0.0,0.0,193.0,0.0,193.0,0.0,17.0,0.0,179.0,193.0,17.0,179.0,1744420633.3528028,0.0,2025-04-11 21:17:13.352,FORWARD,42
28.0,17460.489864407762,24344.02249384195,-31452.1230998186,-19560.123331561488,-34575.622925236574,-26078.271994384766,-14591.26348391336,-31439.114384545614,0.0,0.0,0.0,193.0,0.0,193.0,0.0,17.0,0.0,179.0,193.0,17.0,179.0,1744420633.3528588,0.0,2025-04-11 21:17:13.352,FORWARD,42
29.0,17486.954329842847,24341.072063573847,-31463.45543425744,-19567.946442120843,-34585.703561985916,-26098.54502660573,-14125.564888187038,-31388.755904287806,0.0,0.0,0.0,193.0,0.0,194.0,0.0,17.0,0.0,180.0,194.0,17.0,180.0,1744420633.3529022,0.0,2025-04-11 21:17:13.352,FORWARD,42
30.0,17490.55296070015,24330.38792972421,-31464.26009705783,-19580.843398671557,-34587.02231490878,-26096.242796926832,-14035.487358032151,-31437.147431033547,0.0,0.0,0.0,193.0,0.0,193.0,0.0,17.0,0.0,179.0,193.0,17.0,179.0,1744420633.352945,0.0,2025-04-11 21:17:13.352,FORWARD,42
31.0,17468.536492411673,24337.115804805257,-31458.89567838856,-19570.40513401093,-34582.0155241508,-26079.83661649664,-14377.357289476073,-31428.430250695976,0.0,0.0,0.0,193.0,0.0,193.0,0.0,17.0,0.0,179.0,193.0,17.0,179.0,1744420633.3529875,0.0,2025-04-11 21:17:13.352,FORWARD,42
32.0,17453.717285837804,24341.429691485133,-31453.59831495265,-19566.717096175802,-34579.3109630717,-26077.668497284474,-14600.874734029143,-31433.593503665154,0.0,0.0,0.0,193.0,0.0,193.0,0.0,17.0,0.0,179.0,193.0,17.0,179.0,1744420633.3530304,0.0,2025-04-11 21:17:13.353,FORWARD,42
33.0,17478.684184394384,24345.922392120647,-31454.827660897692,-19564.236052541262,-34582.976649162374,-26091.34776489112,-14230.461624915795,-31395.2602619243,0.0,0.0,0.0,193.0,0.0,193.0,0.0,17.0,0.0,179.0,193.0,17.0,179.0,1744420633.3530731,0.0,2025-04-11 21:17:13.353,FORWARD,42
34.0,17487.624882176504,24328.443327956596,-31464.170690080013,-19584.129105106487,-34591.67147775549,-26100.087296973146,-14010.788680409036,-31441.50602120233,0.0,0.0,0.0,193.0,0.0,193.0,0.0,17.0,0.0,180.0,193.0,17.0,180.0,1744420633.3532248,0.0,2025-04-11 21:17:13.353,FORWARD,42
35.0,17468.290623222663,24326.834002355816,-31459.387416766574,-19573.6684887014,-34585.39063756355,-26080.35070661911,-14313.297189867162,-31434.062890298712,0.0,0.0,0.0,193.0,0.0,193.0,0.0,17.0,0.0,179.0,193.0,17.0,179.0,1744420633.3532689,0.0,2025-04-11 21:17:13.353,FORWARD,42
36.0,17450.319820680597,24341.51909846295,-31454.0229980973,-19565.06306708611,-34578.84157643814,-26074.002811193805,-14584.490905343404,-31429.011396051814,0.0,0.0,0.0,193.0,0.0,194.0,0.0,17.0,0.0,180.0,194.0,17.0,180.0,1744420633.3533118,0.0,2025-04-11 21:17:13.353,FORWARD,42
37.0,17466.480131921784,24335.595886182295,-31459.722692933407,-19569.332250277075,-34588.60928876511,-26095.08050621516,-14315.107681168043,-31411.197055720935,0.0,0.0,0.0,193.0,0.0,193.0,0.0,17.0,0.0,179.0,193.0,17.0,179.0,1744420633.3533547,0.0,2025-04-11 21:17:13.353,FORWARD,42
38.0,17492.206989789844,24333.070139058847,-31460.99674236736,-19579.949328893345,-34588.40812306501,-26100.444924884432,-13987.185238264232,-31426.68681462846,0.0,0.0,0.0,193.0,0.0,194.0,0.0,17.0,0.0,180.0,194.0,17.0,180.0,1744420633.3534124,0.0,2025-04-11 21:17:13.353,FORWARD,42
39.0,17478.483018694285,24331.1925925246,-31451.161974807022,-19568.30407003213,-34575.82409093667,-26085.849235755115,-14253.238052515753,-31449.999684095346,0.0,0.0,0.0,193.0,0.0,193.0,0.0,17.0,0.0,179.0,193.0,17.0,179.0,1744420633.3534555,0.0,2025-04-11 21:17:13.353,FORWARD,42
40.0,17459.305221951632,24340.66973217365,-31442.109518302623,-19554.311878003107,-34569.23032632236,-26070.87356697006,-14565.849550467678,-31434.46522169891,0.0,0.0,0.0,193.0,0.0,193.0,0.0,17.0,0.0,179.0,193.0,17.0,179.0,1744420633.3534985,0.0,2025-04-11 21:17:13.353,FORWARD,42
41.0,17478.37125997201,24347.62112469925,-31434.755794376826,-19542.420749952886,-34564.64821870902,-26067.341991346122,-14408.828545669145,-31396.86958752508,0.0,0.0,0.0,193.0,0.0,194.0,0.0,17.0,0.0,180.0,194.0,17.0,180.0,1744420633.3535411,0.0,2025-04-11 21:17:13.353,FORWARD,42
42.0,17496.297359025164,24349.945706122602,-31447.093957316156,-19555.697686159336,-34578.97568690487,-26086.02804971076,-13977.261063726077,-31388.01829672078,0.0,0.0,0.0,193.0,0.0,194.0,0.0,17.0,0.0,180.0,194.0,17.0,180.0,1744420633.3535843,0.0,2025-04-11 21:17:13.353,FORWARD,42
43.0,17478.460666949828,24330.320874490844,-31452.883059130083,-19562.604375196028,-34583.64720149603,-26085.871587499572,-14178.404412079384,-31436.78980312226,0.0,0.0,0.0,193.0,0.0,194.0,0.0,17.0,0.0,180.0,194.0,17.0,180.0,1744420633.353645,0.0,2025-04-11 21:17:13.353,FORWARD,42
44.0,17462.3227074531,24339.216868784057,-31442.288332258267,-19547.360485477508,-34571.04081762324,-26065.106816900592,-14521.213116790428,-31415.533294145265,0.0,0.0,0.0,193.0,0.0,193.0,0.0,17.0,0.0,179.0,193.0,17.0,179.0,1744420633.3536887,0.0,2025-04-11 21:17:13.353,FORWARD,42
45.0,17468.06710577811,24345.475357231542,-31436.588637422163,-19537.995104550733,-34566.74928268782,-26062.893994199516,-14467.457171375416,-31390.387581633044,0.0,0.0,0.0,193.0,0.0,194.0,0.0,17.0,0.0,180.0,194.0,17.0,180.0,1744420633.3537316,0.0,2025-04-11 21:17:13.353,FORWARD,42
46.0,17490.50825721124,24345.721226420552,-31451.296085273756,-19552.233165768765,-34585.502396285825,-26082.228253153356,-14006.251276284609,-31380.575165817165,0.0,0.0,0.0,193.0,0.0,193.0,0.0,17.0,0.0,179.0,193.0,17.0,179.0,1744420633.3537743,0.0,2025-04-11 21:17:13.353,FORWARD,42
47.0,17484.093306552568,24331.304351246876,-31453.12892831909,-19561.330325762072,-34587.22348060888,-26079.434285096442,-14158.913690914356,-31442.355387491632,0.0,0.0,0.0,193.0,0.0,194.0,0.0,17.0,0.0,180.0,194.0,17.0,180.0,1744420633.3538172,0.0,2025-04-11 21:17:13.353,FORWARD,42
48.0,17470.07876277909,24345.922392120647,-31449.105614317134,-19552.948421591333,-34576.09231187014,-26068.90661345799,-14491.842924576154,-31414.616872622595,0.0,0.0,0.0,193.0,0.0,193.0,0.0,17.0,0.0,179.0,193.0,17.0,179.0,1744420633.35386,0.0,2025-04-11 21:17:13.353,FORWARD,42
49.0,17486.99903333176,24364.250822574,-31431.380680964077,-19536.67635162787,-34560.31198028469,-26061.374075576554,-14543.520157756826,-31399.328279415167,0.0,0.0,0.0,193.0,0.0,193.0,0.0,17.0,0.0,179.0,193.0,17.0,179.0,1744420633.3540099,0.0,2025-04-11 21:17:13.354,FORWARD,42
50.0,17501.19239106088,24351.689142190116,-31445.909314860026,-19549.68506690086,-34583.62484975158,-26089.671384056972,-14056.095666419944,-31371.2544883793,0.0,0.0,0.0,193.0,0.0,193.0,0.0,17.0,0.0,179.0,193.0,17.0,179.0,1744420633.3540535,0.0,2025-04-11 21:17:13.354,FORWARD,42
51.0,17490.64236767797,24325.135269777213,-31455.766434164816,-19571.29920378914,-34590.01744866579,-26101.07077372918,-14076.323995151997,-31444.836431126172,0.0,0.0,0.0,193.0,0.0,193.0,0.0,17.0,0.0,179.0,193.0,17.0,179.0,1744420633.3540967,0.0,2025-04-11 21:17:13.354,FORWARD,42
52.0,17469.899948823448,24331.125537291235,-31458.627457455095,-19567.275889787186,-34586.4635212974,-26095.125209704067,-14432.38728432504,-31444.41174798152,0.0,0.0,0.0,193.0,0.0,194.0,0.0,17.0,0.0,180.0,194.0,17.0,180.0,1744420633.3541393,0.0,2025-04-11 21:17:13.354,FORWARD,42
53.0,17467.84358833356,24344.02249384195,-31447.4739369719,-19554.9153751034,-34579.02039039378,-26082.563529320185,-14599.287760172816,-31438.041500811756,0.0,0.0,0.0,193.0,0.0,193.0,0.0,17.0,0.0,179.0,193.0,17.0,179.0,1744420633.3543148,0.0,2025-04-11 21:17:13.354,FORWARD,42
54.0,17488.764821143726,24347.82229039935,-31457.666332443518,-19561.0174013397,-34592.25262311132,-26106.479895887365,-14162.668783982848,-31406.190264962945,0.0,0.0,0.0,193.0,0.0,193.0,0.0,17.0,0.0,180.0,193.0,17.0,180.0,1744420633.354359,0.0,2025-04-11 21:17:13.354,FORWARD,42
55.0,17490.731774655793,24331.393758224698,-31467.299934303755,-19585.738430707268,-34600.99215519335,-26117.946340792936,-14038.929526678268,-31462.874288901603,0.0,0.0,0.0,193.0,0.0,194.0,0.0,17.0,0.0,180.0,194.0,17.0,180.0,1744420633.3544018,0.0,2025-04-11 21:17:13.354,FORWARD,42
56.0,17472.202178502343,24330.454984957574,-31460.214431311422,-19575.076648602088,-34592.073809155685,-26092.1077242026,-14363.074524769132,-31435.64986415504,0.0,0.0,0.0,193.0,0.0,193.0,0.0,17.0,0.0,179.0,193.0,17.0,179.0,1744420633.3544445,0.0,2025-04-11 21:17:13.354,FORWARD,42
57.0,17467.12833251099,24346.48118573203,-31445.21641078191,-19561.687953673358,-34578.4615967824,-26080.373058363566,-14613.592876624212,-31437.058024055725,0.0,0.0,0.0,193.0,0.0,193.0,0.0,17.0,0.0,179.0,193.0,17.0,179.0,1744420633.354488,0.0,2025-04-11 21:17:13.354,FORWARD,42
58.0,17489.70359441085,24351.420921256653,-31455.297047531254,-19566.940613620354,-34589.816282965694,-26102.79185805224,-14250.041753058644,-31402.2116544499,0.0,0.0,0.0,193.0,0.0,194.0,0.0,17.0,0.0,179.0,194.0,17.0,179.0,1744420633.3545473,0.0,2025-04-11 21:17:13.354,FORWARD,42
59.0,17496.744393914272,24338.278095516933,-31464.774187180305,-19587.347756308052,-34599.02520168128,-26108.536256377254,-13997.020005824568,-31432.542971675754,0.0,0.0,0.0,193.0,0.0,193.0,0.0,17.0,0.0,179.0,193.0,17.0,179.0,1744420633.3545907,0.0,2025-04-11 21:17:13.354,FORWARD,42
60.0,17475.420829703908,24333.405415225676,-31457.532221976784,-19574.11552359051,-34587.78227422026,-26082.16119791999,-14303.082442651088,-31419.22133198039,0.0,0.0,0.0,193.0,0.0,193.0,0.0,17.0,0.0,179.0,193.0,17.0,179.0,1744420633.3546336,0.0,2025-04-11 21:17:13.354,FORWARD,42
61.0,17467.1730359999,24344.938915364615,-31449.41853873951,-19563.9678316078,-34577.76869270429,-26073.555776304696,-14587.843667011699,-31412.3146429437,0.0,0.0,0.0,193.0,0.0,193.0,0.0,17.0,0.0,179.0,193.0,17.0,179.0,1744420633.3546765,0.0,2025-04-11 21:17:13.354,FORWARD,42
62.0,17486.127315298,24343.083720574825,-31448.70328291694,-19557.374066993485,-34579.66859098299,-26085.648070055016,-14337.437073878895,-31395.4614276244,0.0,0.0,0.0,193.0,0.0,194.0,0.0,17.0,0.0,179.0,194.0,17.0,179.0,1744420633.3547192,0.0,2025-04-11 21:17:13.354,FORWARD,42
63.0,17498.733699170793,24332.06431055836,-31460.952038878448,-19573.467323001307,-34590.28566959926,-26101.473105129375,-13980.05503178299,-31409.677137097973,0.0,0.0,0.0,193.0,0.0,193.0,0.0,17.0,0.0,179.0,193.0,17.0,179.0,1744420633.354762,0.0,2025-04-11 21:17:13.354,FORWARD,42
64.0,17478.773591372203,24326.990464567003,-31458.403940010543,-19569.19813981034,-34587.35759107561,-26090.29723290172,-14237.480072674762,-31437.616817667105,0.0,0.0,0.0,193.0,0.0,193.0,0.0,17.0,0.0,179.0,193.0,17.0,179.0,1744420633.3549027,0.0,2025-04-11 21:17:13.354,FORWARD,42
65.0,17458.254689962232,24336.489955960507,-31449.93262886198,-19558.424598982885,-34579.73564621635,-26079.2554711408,-14558.048791652775,-31424.295177971744,0.0,0.0,0.0,193.0,0.0,194.0,0.0,17.0,0.0,179.0,194.0,17.0,179.0,1744420633.3549469,0.0,2025-04-11 21:17:13.354,FORWARD,42
66.0,17479.868826850514,24350.079816589336,-31434.822849610195,-19542.957191819813,-34565.564640231685,-26073.62283153806,-14424.497118532316,-31402.03284049426,0.0,0.0,0.0,193.0,0.0,193.0,0.0,17.0,0.0,179.0,193.0,17.0,179.0,1744420633.3549895,0.0,2025-04-11 21:17:13.354,FORWARD,42
67.0,17503.8298969066,24346.592944454307,-31444.858782870626,-19555.295354759142,-34577.36636130409,-26091.59363408013,-13992.124973788856,-31397.160160203002,0.0,0.0,0.0,193.0,0.0,193.0,0.0,17.0,0.0,179.0,193.0,17.0,179.0,1744420633.355048,0.0,2025-04-11 21:17:13.355,FORWARD,42
68.0,17486.283777509187,24330.276171001933,-31451.407843996032,-19562.984354851767,-34582.775483462276,-26087.88324450055,-14182.986519692722,-31442.847125869648,0.0,0.0,0.0,193.0,0.0,193.0,0.0,17.0,0.0,179.0,193.0,17.0,179.0,1744420633.3550916,0.0,2025-04-11 21:17:13.355,FORWARD,42
69.0,17461.808617330626,24338.09928156129,-31449.776166650794,-19555.228299525774,-34576.27112582578,-26076.52855831725,-14514.418186476016,-31424.69750937194,0.0,0.0,0.0,193.0,0.0,193.0,0.0,17.0,0.0,179.0,193.0,17.0,179.0,1744420633.3551345,0.0,2025-04-11 21:17:13.355,FORWARD,42
70.0,17470.74931511275,24342.1449473077,-31440.3213787462,-19544.745331376234,-34566.548116987724,-26071.54411930372,-14484.556255883725,-31405.92204402948,0.0,0.0,0.0,193.0,0.0,194.0,0.0,17.0,0.0,180.0,194.0,17.0,180.0,1744420633.3551774,0.0,2025-04-11 21:17:13.355,FORWARD,42
71.0,17493.212818290333,24340.28975251791,-31453.575963208197,-19556.63645942646,-34583.75896021831,-26091.16895093548,-14006.921828618268,-31379.994020461327,0.0,0.0,0.0,193.0,0.0,193.0,0.0,17.0,0.0,179.0,193.0,17.0,179.0,1744420633.35522,0.0,2025-04-11 21:17:13.355,FORWARD,42
72.0,17484.383879230485,24328.62214191224,-31454.738253919873,-19564.325459519085,-34581.568489261685,-26085.245738654823,-14114.0313880481,-31431.827715853182,0.0,0.0,0.0,193.0,0.0,193.0,0.0,17.0,0.0,179.0,193.0,17.0,179.0,1744420633.3552763,0.0,2025-04-11 21:17:13.355,FORWARD,42
73.0,17463.3732394425,24338.143985050203,-31451.78782365177,-19555.273003014685,-34577.43341653745,-26075.455674583398,-14465.780790541266,-31424.049308782734,0.0,0.0,0.0,193.0,0.0,194.0,0.0,17.0,0.0,180.0,194.0,17.0,180.0,1744420633.3553197,0.0,2025-04-11 21:17:13.355,FORWARD,42
74.0,17472.35864071353,24347.039979343415,-31442.55655319173,-19548.8133488671,-34573.83478568015,-26079.724857774363,-14569.559940047258,-31443.338864247668,0.0,0.0,0.0,193.0,0.0,193.0,0.0,17.0,0.0,179.0,193.0,17.0,179.0,1744420633.355363,0.0,2025-04-11 21:17:13.355,FORWARD,42
75.0,17504.053414351158,24350.750368922996,-31446.199887537947,-19552.389627979952,-34574.527689758266,-26097.44979112742,-14093.043100004566,-31399.194168948434,0.0,0.0,0.0,193.0,0.0,194.0,0.0,17.0,0.0,180.0,194.0,17.0,180.0,1744420633.3554056,0.0,2025-04-11 21:17:13.355,FORWARD,42
76.0,17505.84155390758,24337.67459841664,-31448.70328291694,-19567.63351769847,-34576.49464327034,-26100.15435220651,-14069.93139623778,-31451.586657951673,0.0,0.0,0.0,193.0,0.0,193.0,0.0,17.0,0.0,179.0,193.0,17.0,179.0,1744420633.3554485,0.0,2025-04-11 21:17:13.355,FORWARD,42
77.0,17471.263405235222,24333.807746625873,-31453.41950099701,-19566.024192097688,-34580.540309016746,-26095.2593201708,-14415.310551561184,-31439.203791523432,0.0,0.0,0.0,193.0,0.0,193.0,0.0,17.0,0.0,180.0,193.0,17.0,180.0,1744420633.3554912,0.0,2025-04-11 21:17:13.355,FORWARD,42
78.0,17466.726001110794,24346.39177875421,-31436.834506611172,-19547.62870641097,-34563.530631486254,-26075.187453649934,-14580.17701866353,-31407.509017885808,0.0,0.0,0.0,193.0,0.0,194.0,0.0,17.0,0.0,179.0,194.0,17.0,179.0,1744420633.355534,0.0,2025-04-11 21:17:13.355,FORWARD,42
79.0,17491.13410605599,24348.67165668865,-31450.111442817622,-19553.686029158358,-34580.31679157219,-26098.947358005928,-14137.277202281619,-31366.359456343587,0.0,0.0,0.0,193.0,0.0,193.0,0.0,17.0,0.0,179.0,193.0,17.0,179.0,1744420633.3556647,0.0,2025-04-11 21:17:13.355,FORWARD,42
80.0,17494.55392295765,24330.85731635777,-31463.209565068435,-19577.669450958903,-34596.544158046745,-26111.129058734066,-14022.322180547975,-31445.484631715375,0.0,0.0,0.0,193.0,0.0,194.0,0.0,17.0,0.0,180.0,194.0,17.0,180.0,1744420633.3557084,0.0,2025-04-11 21:17:13.355,FORWARD,42
81.0,17474.929091325892,24332.734862892015,-31453.955942863937,-19566.650040942437,-34583.26722184029,-26095.59459633763,-14362.381620691016,-31449.776166650794,0.0,0.0,0.0,193.0,0.0,193.0,0.0,17.0,0.0,179.0,193.0,17.0,179.0,1744420633.3557513,0.0,2025-04-11 21:17:13.355,FORWARD,42
82.0,17468.849416834048,24352.851432901793,-31436.253361255334,-19550.86970935699,-34563.03889310824,-26079.54604381872,-14588.402460623081,-31430.55366641923,0.0,0.0,0.0,193.0,0.0,193.0,0.0,17.0,0.0,179.0,193.0,17.0,179.0,1744420633.3558087,0.0,2025-04-11 21:17:13.355,FORWARD,42
83.0,17491.536437456183,24362.3509242953,-31437.3709484781,-19543.895965086933,-34566.39165477653,-26085.312793888188,-14227.600601625516,-31372.01444769078,0.0,0.0,0.0,193.0,0.0,194.0,0.0,17.0,0.0,180.0,194.0,17.0,180.0,1744420633.355852,0.0,2025-04-11 21:17:13.355,FORWARD,42
84.0,17501.281798038697,24351.1974038121,-31451.407843996032,-19567.231186298275,-34582.59666950663,-26100.22140743988,-13962.28539494102,-31411.711145843405,0.0,0.0,0.0,193.0,0.0,193.0,0.0,17.0,0.0,179.0,193.0,17.0,179.0,1744420633.830102,0.0,2025-04-11 21:17:13.830,FORWARD,42
85.0,17485.41205947543,24345.274191531444,-31456.28052428729,-19568.080552587577,-34588.83280620966,-26093.851160270115,-14276.372108026995,-31434.420518209998,0.0,0.0,0.0,193.0,0.0,193.0,0.0,17.0,0.0,179.0,193.0,17.0,179.0,1744420633.8302336,0.0,2025-04-11 21:17:13.830,FORWARD,42
86.0,17475.26436749272,24357.14296783721,-31441.550724691242,-19551.04852331263,-34575.779387447765,-26074.49454957182,-14583.6415390541,-31423.73638436036,0.0,0.0,0.0,193.0,0.0,193.0,0.0,17.0,0.0,179.0,193.0,17.0,179.0,1744420633.8302794,0.0,2025-04-11 21:17:13.830,FORWARD,42
87.0,17483.1768850299,24351.845604401304,-31437.817983367204,-19543.67244764238,-34571.376093790066,-26081.580052564153,-14361.375792190527,-31397.137808458545,0.0,0.0,0.0,193.0,0.0,193.0,0.0,17.0,0.0,179.0,193.0,17.0,179.0,1744420633.8303657,0.0,2025-04-11 21:17:13.830,FORWARD,42
88.0,17495.40328924695,24344.290714775412,-31450.402015495543,-19561.710305417815,-34585.010657907806,-26101.808381296207,-13995.67890115725,-31416.069736012192,0.0,0.0,0.0,193.0,0.0,194.0,0.0,17.0,0.0,180.0,194.0,17.0,180.0,1744420633.8304048,0.0,2025-04-11 21:17:13.830,FORWARD,42
89.0,17471.911605824425,24327.661016900664,-31452.503079474343,-19563.856072885523,-34581.4120270505,-26094.141732948035,-14229.701665604314,-31442.55655319173,0.0,0.0,0.0,193.0,0.0,193.0,0.0,17.0,0.0,179.0,193.0,17.0,179.0,1744420633.830443,0.0,2025-04-11 21:17:13.830,FORWARD,42
90.0,17452.82321605959,24334.52300244844,-31440.299027001744,-19553.171939035885,-34565.25171580931,-26075.142750161023,-14552.259689838851,-31424.02695703828,0.0,0.0,0.0,193.0,0.0,193.0,0.0,17.0,0.0,179.0,193.0,17.0,179.0,1744420633.830481,0.0,2025-04-11 21:17:13.830,FORWARD,42
91.0,17463.484998164775,24332.891325103203,-31443.2718090143,-19552.322572746583,-34573.92419265797,-26089.537273590242,-14439.919822206477,-31422.775259348782,0.0,0.0,0.0,193.0,0.0,194.0,0.0,17.0,0.0,180.0,194.0,17.0,180.0,1744420633.8305192,0.0,2025-04-11 21:17:13.830,FORWARD,42
92.0,17488.206027532342,24334.835926870815,-31452.1230998186,-19561.464436228805,-34584.18364336296,-26099.416744639486,-14006.318331517976,-31423.289349471255,0.0,0.0,0.0,193.0,0.0,193.0,0.0,17.0,0.0,179.0,193.0,17.0,179.0,1744420633.8305569,0.0,2025-04-11 21:17:13.830,FORWARD,42
93.0,17477.812466360625,24323.637702898708,-31448.300951516743,-19555.988258837257,-34579.02039039378,-26073.06403792668,-14169.061382897065,-31431.872419342093,0.0,0.0,0.0,193.0,0.0,194.0,0.0,17.0,0.0,180.0,194.0,17.0,180.0,1744420633.8305945,0.0,2025-04-11 21:17:13.830,FORWARD,42
94.0,17461.9203760529,24336.042921071403,-31443.227105525388,-19542.934840075355,-34570.92905890096,-26054.82501445115,-14497.073232778697,-31396.176683446967,0.0,0.0,0.0,193.0,0.0,193.0,0.0,17.0,0.0,179.0,193.0,17.0,179.0,1744420633.830743,0.0,2025-04-11 21:17:13.830,FORWARD,42
95.0,17472.917434324914,24350.213927056066,-31439.114384545614,-19537.637476639447,-34569.09621585563,-26060.837633709627,-14498.950779312943,-31398.97065150388,0.0,0.0,0.0,193.0,0.0,194.0,0.0,17.0,0.0,180.0,194.0,17.0,180.0,1744420633.8307817,0.0,2025-04-11 21:17:13.830,FORWARD,42
96.0,17497.0796700811,24355.377180025243,-31453.821832397203,-19552.166110535396,-34586.10589338611,-26086.072753199667,-14026.904288161313,-31390.655802566507,0.0,0.0,0.0,193.0,0.0,194.0,0.0,17.0,0.0,180.0,194.0,17.0,180.0,1744420633.8308196,0.0,2025-04-11 21:17:13.830,FORWARD,42
97.0,17488.47424846581,24338.30044726139,-31456.3252277762,-19561.419732739894,-34587.84932945363,-26077.288517628735,-14103.280198965098,-31429.860762341115,0.0,0.0,0.0,193.0,0.0,193.0,0.0,17.0,0.0,179.0,193.0,17.0,179.0,1744420633.830874,0.0,2025-04-11 21:17:13.830,FORWARD,42
98.0,17462.36741094201,24332.846621614295,-31456.146413820556,-19556.927032104377,-34583.9154224295,-26068.660744268986,-14452.90618573501,-31411.88995979905,0.0,0.0,0.0,193.0,0.0,194.0,0.0,17.0,0.0,180.0,194.0,17.0,180.0,1744420633.830912,0.0,2025-04-11 21:17:13.830,FORWARD,42
99.0,17468.581195900584,24346.48118573203,-31442.802422380737,-19548.925107589377,-34568.3586082886,-26063.34102908862,-14562.094457399186,-31411.331166187665,0.0,0.0,0.0,193.0,0.0,193.0,0.0,17.0,0.0,179.0,193.0,17.0,179.0,1744420633.8309505,0.0,2025-04-11 21:17:13.830,FORWARD,42
100.0,17496.520876469716,24349.655133444685,-31450.55847770673,-19556.63645942646,-34577.27695432627,-26083.63641305404,-14100.575637886006,-31370.650991279006,0.0,0.0,0.0,193.0,0.0,194.0,0.0,17.0,0.0,180.0,194.0,17.0,180.0,1744420633.8309884,0.0,2025-04-11 21:17:13.830,FORWARD,42
101.0,17490.195332788866,24326.498726188987,-31460.884983645083,-19578.96585213731,-34588.83280620966,-26097.02510798277,-14062.264747889609,-31441.908352602524,0.0,0.0,0.0,193.0,0.0,194.0,0.0,17.0,0.0,180.0,194.0,17.0,180.0,1744420633.8310263,0.0,2025-04-11 21:17:13.831,FORWARD,42
102.0,17466.50248366624,24329.67267390164,-31453.55361146374,-19565.085418830564,-34577.50047177082,-26083.72582003186,-14406.90629564599,-31437.99679732285,0.0,0.0,0.0,193.0,0.0,193.0,0.0,17.0,0.0,179.0,193.0,17.0,179.0,1744420633.8310766,0.0,2025-04-11 21:17:13.831,FORWARD,42
103.0,17455.1701492274,24335.1935547821,-31448.435061983477,-19561.218567039796,-34571.89018391254,-26078.182587406947,-14585.384975121615,-31427.44677393994,0.0,0.0,0.0,193.0,0.0,194.0,0.0,17.0,0.0,180.0,194.0,17.0,180.0,1744420633.8311148,0.0,2025-04-11 21:17:13.831,FORWARD,42
104.0,17482.618091418517,24339.86506937326,-31452.346617263156,-19561.97852635128,-34580.62971599457,-26090.54310209073,-14187.635682539427,-31386.476026353364,0.0,0.0,0.0,193.0,0.0,193.0,0.0,17.0,0.0,179.0,193.0,17.0,179.0,1744420633.8311524,0.0,2025-04-11 21:17:13.831,FORWARD,42
105.0,17480.539379184174,24328.935066334616,-31465.51179474733,-19586.610148741027,-34597.304117358224,-26105.518770875788,-14037.767235966592,-31445.529335204286,0.0,0.0,0.0,193.0,0.0,194.0,0.0,17.0,0.0,180.0,194.0,17.0,180.0,1744420633.83119,0.0,2025-04-11 21:17:13.831,FORWARD,42
106.0,17458.36644868451,24324.151793021178,-31459.78974816677,-19576.127180591488,-34578.34983806012,-26091.146599191023,-14341.102759969564,-31438.13090778958,0.0,0.0,0.0,193.0,0.0,194.0,0.0,17.0,0.0,180.0,194.0,17.0,180.0,1744420633.831228,0.0,2025-04-11 21:17:13.831,FORWARD,42
107.0,17455.393666671953,24335.931162349127,-31448.189192794467,-19561.77736065118,-34565.564640231685,-26078.16023566249,-14583.105097187174,-31430.285445485766,0.0,0.0,0.0,193.0,0.0,194.0,0.0,17.0,0.0,179.0,194.0,17.0,179.0,1744420633.8312657,0.0,2025-04-11 21:17:13.831,FORWARD,42
108.0,17479.93588208388,24342.368464752253,-31450.402015495543,-19555.40711348142,-34570.03498912275,-26086.519788088775,-14270.448895746338,-31390.588747333142,0.0,0.0,0.0,193.0,0.0,194.0,0.0,17.0,0.0,180.0,194.0,17.0,180.0,1744420633.8313155,0.0,2025-04-11 21:17:13.831,FORWARD,42
109.0,17486.194370531364,24327.415147711654,-31463.90246914655,-19578.697631203846,-34581.47908228387,-26102.769506307784,-13969.1473804888,-31420.1154017586,0.0,0.0,0.0,193.0,0.0,194.0,0.0,17.0,0.0,179.0,194.0,17.0,179.0,1744420633.8313596,0.0,2025-04-11 21:17:13.831,FORWARD,42
110.0,17461.87567256399,24318.72031911854,-31459.61093421113,-19571.321555533596,-34577.54517525973,-26082.384715364544,-14253.528625193672,-31418.50607615782,0.0,0.0,0.0,193.0,0.0,193.0,0.0,17.0,0.0,179.0,193.0,17.0,179.0,1744420633.8313973,0.0,2025-04-11 21:17:13.831,FORWARD,42
111.0,17447.74937006824,24335.57353443784,-31447.31747476071,-19556.34588674854,-34568.49271875533,-26068.54898554671,-14572.17509414853,-31411.50998014331,0.0,0.0,0.0,193.0,0.0,194.0,0.0,17.0,0.0,180.0,194.0,17.0,180.0,1744420633.831435,0.0,2025-04-11 21:17:13.831,FORWARD,42
112.0,17465.675469121394,24346.48118573203,-31442.198925280445,-19547.069912799587,-34567.68805595494,-26077.73555251784,-14366.248472481784,-31392.466293867386,0.0,0.0,0.0,193.0,0.0,193.0,0.0,17.0,0.0,179.0,193.0,17.0,179.0,1744420633.8314843,0.0,2025-04-11 21:17:13.831,FORWARD,42
113.0,17482.21576001832,24334.97003733755,-31456.548745220753,-19566.515930475703,-34584.7647887188,-26100.22140743988,-13967.42629616574,-31416.807343579218,0.0,0.0,0.0,193.0,0.0,193.0,0.0,17.0,0.0,179.0,193.0,17.0,179.0,1744420633.8315227,0.0,2025-04-11 21:17:13.831,FORWARD,42
114.0,17467.061277277622,24323.61535115425,-31450.69258817346,-19559.698648416837,-34576.71816071489,-26077.668497284474,-14217.564668365083,-31443.227105525388,0.0,0.0,0.0,193.0,0.0,194.0,0.0,17.0,0.0,180.0,194.0,17.0,180.0,1744420633.8315604,0.0,2025-04-11 21:17:13.831,FORWARD,42
115.0,17450.722152080794,24340.893249618202,-31439.539067690264,-19542.331342975063,-34559.7084831844,-26056.367284818567,-14539.228622821407,-31403.061020739202,0.0,0.0,0.0,193.0,0.0,193.0,0.0,17.0,0.0,179.0,193.0,17.0,179.0,1744420633.8315978,0.0,2025-04-11 21:17:13.831,FORWARD,42
116.0,17460.914547552413,24344.67069443115,-31440.567247935207,-19539.38091270696,-34561.36251227409,-26066.425569823456,-14437.9081652055,-31394.142674701536,0.0,0.0,0.0,193.0,0.0,194.0,0.0,17.0,0.0,180.0,194.0,17.0,180.0,1744420633.8316357,0.0,2025-04-11 21:17:13.831,FORWARD,42
117.0,17486.306129253644,24336.668769916152,-31459.342713277667,-19560.704476917326,-34580.69677122793,-26093.851160270115,-13992.01321506658,-31400.98230850486,0.0,0.0,0.0,193.0,0.0,194.0,0.0,17.0,0.0,180.0,194.0,17.0,180.0,1744420633.8316853,0.0,2025-04-11 21:17:13.831,FORWARD,42
118.0,17475.823161104105,24322.318949975845,-31462.82958541269,-19566.67239268689,-34582.57431776218,-26084.642241554528,-14147.044914608588,-31446.870439871604,0.0,0.0,0.0,193.0,0.0,194.0,0.0,17.0,0.0,179.0,194.0,17.0,179.0,1744420633.8317232,0.0,2025-04-11 21:17:13.831,FORWARD,42
119.0,17455.103093994036,24337.741653650006,-31462.248440056854,-19557.06114257111,-34582.79783520673,-26066.470273312363,-14506.192744516462,-31421.255340725824,0.0,0.0,0.0,193.0,0.0,194.0,0.0,17.0,0.0,180.0,194.0,17.0,180.0,1744420633.8317611,0.0,2025-04-11 21:17:13.831,FORWARD,42
120.0,17461.339230697064,24347.44231074361,-31451.720768418407,-19549.081569800564,-34573.03012287976,-26064.078636655646,-14538.558070487747,-31409.140695231046,0.0,0.0,0.0,193.0,0.0,193.0,0.0,17.0,0.0,179.0,193.0,17.0,179.0,1744420633.8317988,0.0,2025-04-11 21:17:13.831,FORWARD,42
121.0,17478.125390783,24332.265476258457,-31464.818890669216,-19566.180654308875,-34587.91638468699,-26094.678174814962,-14045.97032618169,-31386.520729842276,0.0,0.0,0.0,193.0,0.0,194.0,0.0,17.0,0.0,180.0,194.0,17.0,180.0,1744420633.8318367,0.0,2025-04-11 21:17:13.831,FORWARD,42
122.0,17473.543283169663,24314.451135927575,-31467.36698953712,-19578.854093415033,-34592.54319578924,-26091.54893059122,-14113.69611188127,-31443.18240203648,0.0,0.0,0.0,193.0,0.0,194.0,0.0,17.0,0.0,180.0,194.0,17.0,180.0,1744420633.8318748,0.0,2025-04-11 21:17:13.831,FORWARD,42
123.0,17455.460721905318,24323.48124068752,-31462.56136447923,-19571.03098285568,-34583.89307068504,-26079.367229863077,-14446.804159498712,-31413.49928539983,0.0,0.0,0.0,193.0,0.0,193.0,0.0,17.0,0.0,179.0,193.0,17.0,179.0,1744420633.831925,0.0,2025-04-11 21:17:13.831,FORWARD,42
124.0,17457.539434139664,24334.29948500389,-31453.687721930473,-19565.353639764027,-34577.12049211508,-26077.623793795563,-14558.384067819605,-31413.74515458884,0.0,0.0,0.0,193.0,0.0,194.0,0.0,17.0,0.0,180.0,194.0,17.0,180.0,1744420633.831963,0.0,2025-04-11 21:17:13.831,FORWARD,42
125.0,17481.321690240107,24340.73678740702,-31459.387416766574,-19570.293375288653,-34584.22834685187,-26092.711221302896,-14101.760280342136,-31376.97653495986,0.0,0.0,0.0,193.0,0.0,193.0,0.0,17.0,0.0,179.0,193.0,17.0,179.0,1744420633.8320007,0.0,2025-04-11 21:17:13.832,FORWARD,42
126.0,17476.538416926673,24319.90496157467,-31464.193041824466,-19589.35941330903,-34589.413951565504,-26093.20295968091,-14042.170529624287,-31434.979311821382,0.0,0.0,0.0,193.0,0.0,193.0,0.0,17.0,0.0,180.0,193.0,17.0,180.0,1744420633.8320384,0.0,2025-04-11 21:17:13.832,FORWARD,42
127.0,17453.35965792652,24314.317025460845,-31460.99674236736,-19582.095096361052,-34582.39550380653,-26080.507168830296,-14391.70710941638,-31424.45164018293,0.0,0.0,0.0,193.0,0.0,194.0,0.0,17.0,0.0,180.0,194.0,17.0,180.0,1744420633.8320868,0.0,2025-04-11 21:17:13.832,FORWARD,42
128.0,17451.21389045881,24325.358787221765,-31449.999684095346,-19573.48967474576,-34570.683189711955,-26077.646145540017,-14614.531649891336,-31429.50313442983,0.0,0.0,0.0,193.0,0.0,193.0,0.0,17.0,0.0,179.0,193.0,17.0,179.0,1744420633.8321247,0.0,2025-04-11 21:17:13.832,FORWARD,42
129.0,17471.062239535124,24331.25964775797,-31455.431157997988,-19575.858959658024,-34577.29930607072,-26094.141732948035,-14209.205115938797,-31383.50324434081,0.0,0.0,0.0,193.0,0.0,194.0,0.0,17.0,0.0,180.0,194.0,17.0,180.0,1744420633.8321629,0.0,2025-04-11 21:17:13.832,FORWARD,42
130.0,17475.46553319282,24317.938008062603,-31468.59633548216,-19601.45170705935,-34588.67634399848,-26111.240817456346,-14010.475755986663,-31433.63820715406,0.0,0.0,0.0,193.0,0.0,193.0,0.0,17.0,0.0,179.0,193.0,17.0,179.0,1744420633.832204,0.0,2025-04-11 21:17:13.832,FORWARD,42
131.0,17460.981602785778,24313.646473127184,-31461.913163890025,-19593.0250993997,-34575.5111665143,-26097.047459727226,-14324.338951628084,-31437.50505894483,0.0,0.0,0.0,193.0,0.0,194.0,0.0,17.0,0.0,180.0,194.0,17.0,180.0,1744420633.8322423,0.0,2025-04-11 21:17:13.832,FORWARD,42
132.0,17453.806692815626,24326.923409333638,-31446.490460215864,-19579.9716806378,-34559.73083492885,-26085.312793888188,-14592.626940325135,-31427.536180917763,0.0,0.0,0.0,193.0,0.0,193.0,0.0,17.0,0.0,179.0,193.0,17.0,179.0,1744420633.8322923,0.0,2025-04-11 21:17:13.832,FORWARD,42
133.0,17475.89021633747,24335.32766524883,-31445.35052124864,-19573.8696544015,-34564.536459986746,-26092.286538158245,-14302.0766141506,-31391.415761877986,0.0,0.0,0.0,193.0,0.0,193.0,0.0,17.0,0.0,179.0,193.0,17.0,179.0,1744420633.8323302,0.0,2025-04-11 21:17:13.832,FORWARD,42
134.0,17478.55007392765,24319.457926685565,-31463.52248949081,-19600.378823325496,-34581.03204739476,-26113.78891632425,-13989.889799343324,-31418.371965691087,0.0,0.0,0.0,193.0,0.0,194.0,0.0,17.0,0.0,180.0,194.0,17.0,180.0,1744420633.832368,0.0,2025-04-11 21:17:13.832,FORWARD,42
135.0,17461.853320819537,24311.14307774819,-31457.778091165794,-19590.901683676446,-34572.65014322402,-26095.415782381988,-14262.58108169807,-31431.60419840863,0.0,0.0,0.0,193.0,0.0,193.0,0.0,17.0,0.0,179.0,193.0,17.0,179.0,1744420633.8324056,0.0,2025-04-11 21:17:13.832,FORWARD,42
136.0,17446.475320634287,24329.136232034714,-31442.444794469455,-19572.908529389922,-34561.2060500629,-26073.77929374925,-14580.065259941251,-31412.962843532903,0.0,0.0,0.0,193.0,0.0,193.0,0.0,17.0,0.0,179.0,193.0,17.0,179.0,1744420633.8324435,0.0,2025-04-11 21:17:13.832,FORWARD,42
137.0,17457.517082395207,24338.18868853911,-31438.533239189775,-19562.358506007018,-34561.250753551816,-26079.322526374166,-14403.777051422245,-31391.393410133533,0.0,0.0,0.0,193.0,0.0,194.0,0.0,17.0,0.0,180.0,194.0,17.0,180.0,1744420633.8324811,0.0,2025-04-11 21:17:13.832,FORWARD,42
138.0,17475.46553319282,24334.90298210418,-31451.161974807022,-19576.462456758316,-34573.27599206877,-26096.89099751604,-13986.179409763743,-31398.814189292694,0.0,0.0,0.0,193.0,0.0,193.0,0.0,17.0,0.0,179.0,193.0,17.0,179.0,1744420633.8325334,0.0,2025-04-11 21:17:13.832,FORWARD,42
139.0,17460.109884752022,24322.967150565048,-31450.491422473366,-19575.613090469014,-34568.51507049979,-26087.749134033817,-14205.271208914663,-31449.016207339315,0.0,0.0,0.0,193.0,0.0,194.0,0.0,17.0,0.0,180.0,194.0,17.0,180.0,1744420633.8325715,0.0,2025-04-11 21:17:13.832,FORWARD,42
140.0,17446.855300290026,24335.99821758249,-31439.4720124569,-19556.278831515174,-34556.15455581601,-26062.82693896615,-14544.97302114642,-31412.560512132706,0.0,0.0,0.0,193.0,0.0,193.0,0.0,17.0,0.0,179.0,193.0,17.0,179.0,1744420633.83261,0.0,2025-04-11 21:17:13.832,FORWARD,42
141.0,17465.966041799315,24349.52102297795,-31425.748041361338,-19537.257496983708,-34545.448070221915,-26047.024255636246,-14467.680688819968,-31360.1009678961,0.0,0.0,0.0,193.0,0.0,194.0,0.0,17.0,0.0,180.0,194.0,17.0,180.0,1744420633.8326633,0.0,2025-04-11 21:17:13.832,FORWARD,42
142.0,17484.629748419495,24340.759139151472,-31442.444794469455,-19553.39545648044,-34563.08359659715,-26073.131093160046,-13986.425278952753,-31347.874563679048,0.0,0.0,0.0,193.0,0.0,194.0,0.0,17.0,0.0,179.0,194.0,17.0,179.0,1744420633.8327024,0.0,2025-04-11 21:17:13.832,FORWARD,42
143.0,17471.710440124327,24324.218848254546,-31446.110480560124,-19564.30310777463,-34568.82799492216,-26073.26520362678,-14137.165443559343,-31411.2641109543,0.0,0.0,0.0,193.0,0.0,193.0,0.0,17.0,0.0,179.0,193.0,17.0,179.0,1744420633.8327403,0.0,2025-04-11 21:17:13.832,FORWARD,42
144.0,17452.376181170486,24338.501612961485,-31436.186306021966,-19549.752122134225,-34559.88729714004,-26058.177776119446,-14500.738918869367,-31403.82098005068,0.0,0.0,0.0,193.0,0.0,193.0,0.0,17.0,0.0,179.0,193.0,17.0,179.0,1744420633.8327787,0.0,2025-04-11 21:17:13.832,FORWARD,42
145.0,17455.907756794426,24340.781490895926,-31432.23004725338,-19549.05921805611,-34559.283800039746,-26067.87843321305,-14536.836986164688,-31406.97257601888,0.0,0.0,0.0,193.0,0.0,193.0,0.0,17.0,0.0,180.0,193.0,17.0,180.0,1744420633.8328164,0.0,2025-04-11 21:17:13.832,FORWARD,42
146.0,17488.31778625462,24346.347075265297,-31442.89182935856,-19561.59854669554,-34576.02525663677,-26093.560587592197,-14069.864341004413,-31391.706334555907,0.0,0.0,0.0,193.0,0.0,194.0,0.0,17.0,0.0,180.0,194.0,17.0,180.0,1744420633.8328545,0.0,2025-04-11 21:17:13.832,FORWARD,42
147.0,17487.446068220863,24339.999179839993,-31439.42730896799,-19569.44400899935,-34571.91253565699,-26090.945433490924,-14111.84091709148,-31443.60708518113,0.0,0.0,0.0,193.0,0.0,193.0,0.0,17.0,0.0,179.0,193.0,17.0,179.0,1744420633.832943,0.0,2025-04-11 21:17:13.832,FORWARD,42
148.0,17458.522910895696,24354.192537569113,-31436.029843810782,-19560.90564261742,-34565.005846620305,-26083.74817177632,-14448.972278710877,-31432.945303075947,0.0,0.0,0.0,193.0,0.0,194.0,0.0,17.0,0.0,180.0,194.0,17.0,180.0,1744420633.8329816,0.0,2025-04-11 21:17:13.832,FORWARD,42
149.0,17462.50152140874,24364.496691763008,-31431.045404797245,-19558.938689105355,-34566.72693094336,-26086.095104944125,-14588.871847256643,-31439.159088034525,0.0,0.0,0.0,193.0,0.0,193.0,0.0,17.0,0.0,179.0,193.0,17.0,179.0,1744420633.8330195,0.0,2025-04-11 21:17:13.833,FORWARD,42
150.0,17492.296396767666,24357.657057959685,-31437.817983367204,-19565.130122319475,-34576.44993978142,-26104.73645981985,-14143.602745962471,-31393.427418878964,0.0,0.0,0.0,193.0,0.0,194.0,0.0,17.0,0.0,180.0,194.0,17.0,180.0,1744420633.8330574,0.0,2025-04-11 21:17:13.833,FORWARD,42
151.0,17488.98833858828,24338.63572342822,-31441.796593880248,-19581.379840538484,-34581.03204739476,-26110.68202384496,-14052.720553007193,-31450.13379456208,0.0,0.0,0.0,193.0,0.0,193.0,0.0,17.0,0.0,179.0,193.0,17.0,179.0,1744420633.8330956,0.0,2025-04-11 21:17:13.833,FORWARD,42
152.0,17464.624937131994,24336.82523212734,-31434.46522169891,-19568.661697943415,-34573.83478568015,-26090.386639879544,-14395.976292607344,-31443.338864247668,0.0,0.0,0.0,193.0,0.0,193.0,0.0,17.0,0.0,179.0,193.0,17.0,179.0,1744420633.8331335,0.0,2025-04-11 21:17:13.833,FORWARD,42
153.0,17465.78722784367,24351.666790445663,-31416.852047068125,-19548.18750002235,-34553.829974392655,-26071.432360581442,-14609.569562622257,-31415.242721467344,0.0,0.0,0.0,193.0,0.0,194.0,0.0,17.0,0.0,179.0,194.0,17.0,179.0,1744420633.8331845,0.0,2025-04-11 21:17:13.833,FORWARD,42
154.0,17491.55878920064,24352.292639290412,-31421.92589305948,-19548.299258744628,-34559.7084831844,-26090.140770690534,-14212.937857262834,-31371.83563373514,0.0,0.0,0.0,193.0,0.0,193.0,0.0,17.0,0.0,179.0,193.0,17.0,179.0,1744420633.8332226,0.0,2025-04-11 21:17:13.833,FORWARD,42
155.0,17489.770649644215,24337.42872922763,-31437.885038600572,-19573.8696544015,-34575.488814769844,-26107.105744732115,-13993.890761600824,-31424.563398905208,0.0,0.0,0.0,193.0,0.0,193.0,0.0,17.0,0.0,179.0,193.0,17.0,179.0,1744420633.8332605,0.0,2025-04-11 21:17:13.833,FORWARD,42
156.0,17468.111809267022,24334.031264070425,-31432.07358504219,-19562.045581584644,-34565.89991639852,-26089.939604990435,-14316.985227702287,-31436.722747888896,0.0,0.0,0.0,193.0,0.0,193.0,0.0,17.0,0.0,180.0,193.0,17.0,180.0,1744420633.83331,0.0,2025-04-11 21:17:13.833,FORWARD,42
157.0,17459.372277184997,24344.715397920063,-31419.60131163613,-19545.48293894326,-34549.627846435054,-26079.00960195179,-14605.926228276043,-31442.06481481371,0.0,0.0,0.0,193.0,0.0,193.0,0.0,17.0,0.0,179.0,193.0,17.0,179.0,1744420633.8333488,0.0,2025-04-11 21:17:13.833,FORWARD,42
158.0,17473.006841302737,24342.122595563247,-31430.821887352693,-19553.0154768247,-34560.64725645152,-26096.198093437924,-14324.40600686145,-31415.39918367853,0.0,0.0,0.0,193.0,0.0,193.0,0.0,17.0,0.0,179.0,193.0,17.0,179.0,1744420633.8333876,0.0,2025-04-11 21:17:13.833,FORWARD,42
