Sample Index,EXG Channel 0,EXG Channel 1,EXG Channel 2,EXG Channel 3,EXG Channel 4,EXG Channel 5,EXG Channel 6,EXG Channel 7,Accel Channel 0,Accel Channel 1,Accel Channel 2,Not Used,Digital Channel 0 (D11),Digital Channel 1 (D12),Digital Channel 2 (D13),Digital Channel 3 (D17),Not Used,Digital Channel 4 (D18),Analog Channel 0,Analog Channel 1,Analog Channel 2,Timestamp,Marker Channel,Timestamp (Formatted),Stimulus_Direction,Stimulus_Number
220.0,-2511.643172698399,-22782.88725410548,-36576.931068531405,-25792.370831056935,21085.65224238065,4773.304435408644,15755.118817701199,51009.94420170119,0.0,0.0,0.0,193.0,0.0,192.0,0.0,1.0,0.0,178.0,192.0,1.0,178.0,1744418541.337293,0.0,2025-04-11 20:42:21.337,FORWARD,2
221.0,-2518.6839722018212,-22804.523742738216,-36596.57825190762,-25793.555473513064,20993.227779057954,4572.943398111272,15864.999993443489,50873.06211865689,0.0,0.0,0.0,193.0,0.0,192.0,0.0,1.0,0.0,178.0,192.0,1.0,178.0,1744418541.3373237,0.0,2025-04-11 20:42:21.337,FORWARD,2
222.0,-2524.696591460299,-22788.65400417495,-36616.493656217295,-25753.948182338263,20820.94053279645,4805.088616024091,15657.464046175963,50930.640212373764,0.0,0.0,0.0,193.0,0.0,192.0,0.0,1.0,0.0,178.0,192.0,1.0,178.0,1744418541.337354,0.0,2025-04-11 20:42:21.337,FORWARD,2
223.0,-2494.7676056346427,-22748.55497462213,-36580.19442322188,-25725.203838968737,20781.26618638828,4943.580024669173,15431.4432062439,51011.70998951316,0.0,0.0,0.0,193.0,0.0,193.0,0.0,1.0,0.0,178.0,193.0,1.0,178.0,1744418541.3373845,0.0,2025-04-11 20:42:21.337,FORWARD,2
224.0,-2521.8579199144747,-22795.247768789264,-36581.44612091138,-25785.508845509154,20931.872240528137,4790.738796083784,15749.620288565195,51019.913079728256,0.0,0.0,0.0,193.0,0.0,192.0,0.0,1.0,0.0,179.0,192.0,1.0,179.0,1744418541.3374145,0.0,2025-04-11 20:42:21.337,FORWARD,2
225.0,-2527.8705391729522,-22807.071841606125,-36613.140894549004,-25806.184209130315,20970.38429622463,4584.141622083381,15952.68588694166,50887.6131042973,0.0,0.0,0.0,193.0,0.0,193.0,0.0,1.0,0.0,179.0,193.0,1.0,179.0,1744418541.3374455,0.0,2025-04-11 20:42:21.337,FORWARD,2
226.0,-2520.852091413986,-22766.861053331024,-36628.2953772897,-25767.225118544713,20907.91117047205,4789.822374561117,15766.585262606772,50897.02318871298,0.0,0.0,0.0,193.0,0.0,193.0,0.0,1.0,0.0,179.0,193.0,1.0,179.0,1744418541.337476,0.0,2025-04-11 20:42:21.337,FORWARD,2
227.0,-2504.9823528507177,-22731.21002092481,-36596.935879818906,-25736.357359451933,20875.925824156504,4992.306827581743,15494.072794207668,50994.56620151594,0.0,0.0,0.0,193.0,0.0,193.0,0.0,1.0,0.0,178.0,193.0,1.0,178.0,1744418541.3375063,0.0,2025-04-11 20:42:21.337,FORWARD,2
228.0,-2535.134856120927,-22778.37220172551,-36589.783321593204,-25780.636165217897,21054.672724565593,4901.2458206708225,15717.25496259391,51013.118149413844,0.0,0.0,0.0,193.0,0.0,193.0,0.0,1.0,0.0,178.0,193.0,1.0,178.0,1744418541.3375363,0.0,2025-04-11 20:42:21.337,FORWARD,2
229.0,-2537.5935480110106,-22803.47321074882,-36615.62193818354,-25812.10742141097,21050.180023930076,4652.672070583352,16005.257189900542,50895.43621485665,0.0,0.0,0.0,193.0,0.0,192.0,0.0,1.0,0.0,178.0,192.0,1.0,178.0,1744418541.33758,0.0,2025-04-11 20:42:21.337,FORWARD,2
230.0,-2512.425483754335,-22772.627803400494,-36625.926092377435,-25763.53708070959,20900.244522123878,4740.737943737262,15870.431467346129,50865.9542639201,0.0,0.0,0.0,193.0,0.0,192.0,0.0,1.0,0.0,178.0,192.0,1.0,178.0,1744418541.337611,0.0,2025-04-11 20:42:21.337,FORWARD,2
231.0,-2500.489652215201,-22745.090454231555,-36611.330403248125,-25736.402062940844,20797.02416622927,4946.530454937274,15594.923865190014,50982.51861125453,0.0,0.0,0.0,193.0,0.0,192.0,0.0,1.0,0.0,177.0,192.0,1.0,177.0,1744418541.3376417,0.0,2025-04-11 20:42:21.337,FORWARD,2
232.0,-2492.3759689779245,-22754.277021202688,-36573.10892022955,-25760.094912063472,20939.672999343038,4907.906640518504,15698.032462362346,51001.07055915244,0.0,0.0,0.0,193.0,0.0,192.0,0.0,1.0,0.0,178.0,192.0,1.0,178.0,1744418541.337672,0.0,2025-04-11 20:42:21.337,FORWARD,2
233.0,-2495.728730646221,-22783.110771550033,-36604.4907694448,-25822.05394769358,21007.376433298163,4673.168620248869,16045.423274686727,50898.207831169115,0.0,0.0,0.0,193.0,0.0,193.0,0.0,1.0,0.0,179.0,193.0,1.0,179.0,1744418541.337714,0.0,2025-04-11 20:42:21.337,FORWARD,2
234.0,-2511.754931420676,-22794.62191994452,-36633.838609914616,-25802.943206184293,20900.08805991269,4655.644852595908,15960.285480056464,50832.91838561516,0.0,0.0,0.0,193.0,0.0,192.0,0.0,1.0,0.0,178.0,192.0,1.0,178.0,1744418541.3377447,0.0,2025-04-11 20:42:21.337,FORWARD,2
235.0,-2525.2777368161364,-22768.64919288745,-36619.91347311896,-25756.451577717256,20817.923047294982,4919.015457512791,15675.479552206942,50945.235901503074,0.0,0.0,0.0,193.0,0.0,192.0,0.0,1.0,0.0,178.0,192.0,1.0,178.0,1744418541.3377748,0.0,2025-04-11 20:42:21.337,FORWARD,2
236.0,-2507.485748229712,-22754.187614224866,-36558.71439680033,-25729.115394248416,20976.933357350037,4944.339983980654,15675.0995725512,50990.49818402508,0.0,0.0,0.0,193.0,0.0,192.0,0.0,1.0,0.0,178.0,192.0,1.0,178.0,1744418541.3378055,0.0,2025-04-11 20:42:21.337,FORWARD,2
237.0,-2529.613975240466,-22797.617053701528,-36587.99518203678,-25784.503017008665,21093.8776843402,4752.5620165541195,16080.604920459382,50944.45359044714,0.0,0.0,0.0,193.0,0.0,192.0,0.0,1.0,0.0,178.0,192.0,1.0,178.0,1744418541.3378365,0.0,2025-04-11 20:42:21.337,FORWARD,2
238.0,-2525.456550771779,-22779.959175581836,-36627.49071448931,-25773.595365714475,20928.295961415286,4690.580629179553,16058.65550740427,50840.22740605204,0.0,0.0,0.0,193.0,0.0,192.0,0.0,1.0,0.0,178.0,192.0,1.0,178.0,1744418541.3378673,0.0,2025-04-11 20:42:21.337,FORWARD,2
239.0,-2518.9968966241954,-22739.70368381783,-36625.926092377435,-25730.36709193791,20812.3127594367,4931.823007085683,15790.79220185187,50945.392363714265,0.0,0.0,0.0,193.0,0.0,193.0,0.0,1.0,0.0,179.0,193.0,1.0,179.0,1744418541.3378975,0.0,2025-04-11 20:42:21.337,FORWARD,2
240.0,-2510.5255854756338,-22740.441291384854,-36583.97186803482,-25729.048339015048,20922.775080534826,4957.013423086813,15686.29779652331,51001.49524229709,0.0,0.0,0.0,193.0,0.0,193.0,0.0,1.0,0.0,178.0,193.0,1.0,178.0,1744418541.3379283,0.0,2025-04-11 20:42:21.337,FORWARD,2
241.0,-2536.45360904379,-22788.743411152773,-36586.31880120264,-25784.838293175497,21111.043824081877,4768.476458606298,16084.963510628166,50970.29220703748,0.0,0.0,0.0,193.0,0.0,192.0,0.0,1.0,0.0,178.0,192.0,1.0,178.0,1744418541.3379595,0.0,2025-04-11 20:42:21.337,FORWARD,2
242.0,-2531.424466541346,-22784.787152384182,-36605.42954271192,-25775.42820875981,21011.24328508893,4639.3951343768995,16125.084891925442,50832.73957165952,0.0,0.0,0.0,193.0,0.0,192.0,0.0,1.0,0.0,178.0,192.0,1.0,178.0,1744418541.3379903,0.0,2025-04-11 20:42:21.337,FORWARD,2
243.0,-2519.846262913497,-22758.277983460186,-36634.82208667065,-25757.4797579622,20849.26019302132,4866.690023742917,15883.32842389684,50918.63732560126,0.0,0.0,0.0,193.0,0.0,192.0,0.0,1.0,0.0,178.0,192.0,1.0,178.0,1744418541.3380208,0.0,2025-04-11 20:42:21.338,FORWARD,2
244.0,-2485.625742152422,-22725.73384353326,-36592.62199313903,-25739.28543797558,20882.027850392802,4899.301218903211,15692.824505904258,51000.33295158541,0.0,0.0,0.0,193.0,0.0,192.0,0.0,1.0,0.0,178.0,192.0,1.0,178.0,1744418541.3381388,0.0,2025-04-11 20:42:21.338,FORWARD,2
245.0,-2518.907489646374,-22779.55684418164,-36589.939783804395,-25777.752790183164,21078.41027717713,4794.09155775208,16048.84309158839,50991.54871601448,0.0,0.0,0.0,193.0,0.0,192.0,0.0,1.0,0.0,178.0,192.0,1.0,178.0,1744418541.3381712,0.0,2025-04-11 20:42:21.338,FORWARD,2
246.0,-2538.353507322491,-22787.067030318623,-36632.788077925215,-25782.5360634966,20999.866247161182,4668.362995190978,16185.993395566155,50856.70064171561,0.0,0.0,0.0,193.0,0.0,192.0,0.0,1.0,0.0,179.0,192.0,1.0,179.0,1744418541.3382015,0.0,2025-04-11 20:42:21.338,FORWARD,2
247.0,-2520.06978035805,-22743.302314675133,-36631.02229011325,-25727.394309925356,20858.782036159282,4885.487840829831,15970.857855183824,50901.60529632632,0.0,0.0,0.0,193.0,0.0,192.0,0.0,1.0,0.0,178.0,192.0,1.0,178.0,1744418541.3382325,0.0,2025-04-11 20:42:21.338,FORWARD,2
248.0,-2489.11261428745,-22709.774697992172,-36588.82219658163,-25700.594568323442,20853.97641110139,5010.858775479648,15720.11598588419,50980.66341646474,0.0,0.0,0.0,193.0,0.0,192.0,0.0,1.0,0.0,179.0,192.0,1.0,179.0,1744418541.3382764,0.0,2025-04-11 20:42:21.338,FORWARD,2
249.0,-2501.3390185045027,-22745.2692681872,-36568.32564691611,-25746.773272368107,21058.02548623389,4880.72691926085,16008.297027146464,50987.77127120153,0.0,0.0,0.0,193.0,0.0,193.0,0.0,1.0,0.0,179.0,193.0,1.0,179.0,1744418541.338307,0.0,2025-04-11 20:42:21.338,FORWARD,2
250.0,-2511.263193042659,-22768.425675442897,-36607.061220057156,-25774.869415148427,21048.63775356266,4645.653622824386,16246.946602695776,50871.273979100464,0.0,0.0,0.0,193.0,0.0,192.0,0.0,1.0,0.0,178.0,192.0,1.0,178.0,1744418541.3383367,0.0,2025-04-11 20:42:21.338,FORWARD,2
251.0,-2519.622745468944,-22755.148739236443,-36647.71904322136,-25761.883051619894,20924.04912996878,4802.42875843391,16088.249217063096,50881.26520887199,0.0,0.0,0.0,193.0,0.0,192.0,0.0,1.0,0.0,178.0,192.0,1.0,178.0,1744418541.3383687,0.0,2025-04-11 20:42:21.338,FORWARD,2
252.0,-2486.005721808162,-22705.59492177903,-36609.519911947245,-25721.38169066688,20854.959887857425,4998.542964284774,15806.997216581967,50997.58368701741,0.0,0.0,0.0,193.0,0.0,192.0,0.0,1.0,0.0,178.0,192.0,1.0,178.0,1744418541.3384004,0.0,2025-04-11 20:42:21.338,FORWARD,2
253.0,-2490.6995881437765,-22728.281942401165,-36570.784338806196,-25736.37971119639,21030.890468465146,4886.270151885767,15985.54295129096,51028.18322517672,0.0,0.0,0.0,193.0,0.0,192.0,0.0,1.0,0.0,178.0,192.0,1.0,178.0,1744418541.3384428,0.0,2025-04-11 20:42:21.338,FORWARD,2
254.0,-2520.0027251246843,-22779.400381970452,-36603.30612698867,-25784.68183096431,21028.431776575064,4639.05985821007,16301.641321377912,50937.05516303243,0.0,0.0,0.0,193.0,0.0,193.0,0.0,1.0,0.0,178.0,193.0,1.0,178.0,1744418541.338473,0.0,2025-04-11 20:42:21.338,FORWARD,2
255.0,-2514.8394721555082,-22765.274079474697,-36617.544188206695,-25743.599324655454,20977.894482361615,4751.399725842443,16176.493904172648,50910.18836619716,0.0,0.0,0.0,193.0,0.0,193.0,0.0,1.0,0.0,179.0,193.0,1.0,179.0,1744418541.3385053,0.0,2025-04-11 20:42:21.338,FORWARD,2
0.0,-2500.0873208150056,-22741.469471629796,-36632.43045001393,-25725.829687813486,20872.483655510387,4996.79952821726,15902.90855203969,51047.22691145264,0.0,0.0,0.0,193.0,0.0,193.0,0.0,1.0,0.0,179.0,193.0,1.0,179.0,1744418541.3385384,0.0,2025-04-11 20:42:21.338,FORWARD,2
1.0,-2467.8337535659975,-22726.560858078108,-36587.79401633669,-25723.706272090232,21002.839029173738,4964.635367946073,15969.427343538684,51086.76714739408,0.0,0.0,0.0,193.0,0.0,192.0,0.0,1.0,0.0,179.0,192.0,1.0,179.0,1744418541.3385737,0.0,2025-04-11 20:42:21.338,FORWARD,2
2.0,-2513.5430709771003,-22765.74346610826,-36615.599586439086,-25781.75375244066,21068.01671600541,4729.271498831689,16337.024132850664,51016.135634915314,0.0,0.0,0.0,193.0,0.0,192.0,0.0,1.0,0.0,178.0,192.0,1.0,178.0,1744418541.3386068,0.0,2025-04-11 20:42:21.338,FORWARD,2
3.0,-2514.7053616887765,-22742.296486174644,-36624.4955807323,-25748.226135757704,20940.9917522659,4707.031513098659,16260.357649368962,50936.69753512115,0.0,0.0,0.0,193.0,0.0,192.0,0.0,1.0,0.0,177.0,192.0,1.0,177.0,1744418541.338642,0.0,2025-04-11 20:42:21.338,FORWARD,2
4.0,-2494.097053300983,-22719.654169041416,-36607.95528983537,-25708.574141093988,20872.95304214395,4952.297205006744,15983.173666378698,51065.80121109501,0.0,0.0,0.0,193.0,0.0,192.0,0.0,0.0,0.0,178.0,192.0,0.0,178.0,1744418541.338716,0.0,2025-04-11 20:42:21.338,FORWARD,2
5.0,-2487.1456607753826,-22728.25959065671,-36572.12544347352,-25703.969681736195,20965.265746744364,4978.046414619257,15958.20676782212,51131.64945026034,0.0,0.0,0.0,193.0,0.0,193.0,0.0,0.0,0.0,179.0,193.0,0.0,179.0,1744418541.3387527,0.0,2025-04-11 20:42:21.338,FORWARD,2
6.0,-2510.1232540754386,-22765.74346610826,-36586.00587678026,-25754.708141649742,21107.26637926893,4793.577467629608,16358.548862761125,51093.807946897505,0.0,0.0,0.0,193.0,0.0,193.0,0.0,1.0,0.0,179.0,193.0,1.0,179.0,1744418541.3387887,0.0,2025-04-11 20:42:21.338,FORWARD,2
7.0,-2500.176727792827,-22753.852338058037,-36615.376068994534,-25749.164909024825,20989.360927267186,4681.528172675154,16348.244708567228,50987.815974690435,0.0,0.0,0.0,193.0,0.0,192.0,0.0,0.0,0.0,178.0,192.0,0.0,178.0,1744418541.3388245,0.0,2025-04-11 20:42:21.338,FORWARD,2
8.0,-2485.0893002854946,-22726.203230166822,-36618.05827832917,-25718.207742954226,20868.303879297244,4920.982411024858,16095.178257844242,51103.039217357546,0.0,0.0,0.0,193.0,0.0,192.0,0.0,0.0,0.0,178.0,192.0,0.0,178.0,1744418541.338894,0.0,2025-04-11 20:42:21.338,FORWARD,2
9.0,-2473.0193582796287,-22720.235314397254,-36580.99908602227,-25716.218437697702,20948.9936767809,4925.922146549481,15971.30489007293,51178.78927931658,0.0,0.0,0.0,193.0,0.0,192.0,0.0,0.0,0.0,178.0,192.0,0.0,178.0,1744418541.3389325,0.0,2025-04-11 20:42:21.338,FORWARD,2
10.0,-2496.8463178689863,-22742.475300130285,-36576.61814410903,-25752.607077670942,21114.977731106013,4747.979908940782,16353.407961536404,51154.559988327026,0.0,0.0,0.0,193.0,0.0,192.0,0.0,0.0,0.0,178.0,192.0,0.0,178.0,1744418541.3389654,0.0,2025-04-11 20:42:21.338,FORWARD,2
11.0,-2509.944440119796,-22750.07489324509,-36623.0427173427,-25758.485586462688,21001.609683228697,4647.5535211030865,16430.230907229296,51026.81976876495,0.0,0.0,0.0,193.0,0.0,192.0,0.0,0.0,0.0,178.0,192.0,0.0,178.0,1744418541.3390017,0.0,2025-04-11 20:42:21.339,FORWARD,2
12.0,-2497.4498149692795,-22733.78047153717,-36643.58397049713,-25725.203838968737,20839.514832438806,4890.405224609998,16186.77570662209,51093.316208519485,0.0,0.0,0.0,193.0,0.0,193.0,0.0,0.0,0.0,178.0,193.0,0.0,178.0,1744418541.3390372,0.0,2025-04-11 20:42:21.339,FORWARD,2
13.0,-2456.0990877269614,-22694.374346062465,-36575.187632463894,-25688.524626317576,20891.102658641656,4996.352493328153,15987.822829225403,51181.51619214013,0.0,0.0,0.0,193.0,0.0,193.0,0.0,0.0,0.0,179.0,193.0,0.0,179.0,1744418541.339101,0.0,2025-04-11 20:42:21.339,FORWARD,2
14.0,-2483.7705473626315,-22732.30525640312,-36565.97871374831,-25733.541039650565,21117.32466427382,4840.4937792412975,16332.173804303862,51180.219790961724,0.0,0.0,0.0,193.0,0.0,193.0,0.0,0.0,0.0,179.0,193.0,0.0,179.0,1744418541.3391535,0.0,2025-04-11 20:42:21.339,FORWARD,2
15.0,-2480.976579305718,-22731.478241858273,-36596.086513529604,-25743.66637988882,21056.371457144196,4616.194023632291,16494.291006838204,51044.656460840284,0.0,0.0,0.0,193.0,0.0,192.0,0.0,0.0,0.0,178.0,192.0,0.0,178.0,1744418541.3391988,0.0,2025-04-11 20:42:21.339,FORWARD,2
16.0,-2486.0504252970727,-22713.418032338388,-36621.880426631025,-25717.6713010873,20897.1823331335,4793.443357162876,16304.837620835022,51084.576676437464,0.0,0.0,0.0,193.0,0.0,192.0,0.0,0.0,0.0,178.0,192.0,0.0,178.0,1744418541.3392396,0.0,2025-04-11 20:42:21.339,FORWARD,2
17.0,-2473.3993379353687,-22690.708659971795,-36593.359600706055,-25703.299129402534,20891.639100508582,4946.731620637372,16051.480597434116,51171.949645513254,0.0,0.0,0.0,193.0,0.0,193.0,0.0,0.0,0.0,178.0,193.0,0.0,178.0,1744418541.3392835,0.0,2025-04-11 20:42:21.339,FORWARD,2
18.0,-2478.9649223047404,-22724.63860805495,-36565.06229222564,-25739.79952809805,21087.105105770246,4823.8193778776385,16302.982426045231,51170.47443037921,0.0,0.0,0.0,193.0,0.0,193.0,0.0,0.0,0.0,179.0,193.0,0.0,179.0,1744418541.3393245,0.0,2025-04-11 20:42:21.339,FORWARD,2
19.0,-2494.365274234447,-22750.857204301024,-36603.641403155496,-25765.213461543735,21095.688175641084,4609.3990933178775,16557.859368069097,51043.85179803989,0.0,0.0,0.0,193.0,0.0,193.0,0.0,0.0,0.0,178.0,193.0,0.0,178.0,1744418541.3393953,0.0,2025-04-11 20:42:21.339,FORWARD,2
20.0,-2484.642265396388,-22723.69983478783,-36621.92513011994,-25716.866638286905,20964.930470577536,4781.462822134831,16391.85296199953,51026.216271664656,0.0,0.0,0.0,193.0,0.0,192.0,0.0,0.0,0.0,178.0,192.0,0.0,178.0,1744418541.3394308,0.0,2025-04-11 20:42:21.339,FORWARD,2
21.0,-2468.101974499461,-22705.483163056753,-36615.86780737255,-25695.65483279882,20865.822835662704,4999.772310229816,16111.204458618697,51137.23738637417,0.0,0.0,0.0,193.0,0.0,192.0,0.0,0.0,0.0,178.0,192.0,0.0,178.0,1744418541.3394644,0.0,2025-04-11 20:42:21.339,FORWARD,2
22.0,-2478.495535671179,-22718.44717484083,-36565.50932711474,-25714.76557430811,21075.750419586948,4934.304050720221,16260.581166813514,51153.82238076,0.0,0.0,0.0,193.0,0.0,192.0,0.0,0.0,0.0,178.0,192.0,0.0,178.0,1744418541.3395007,0.0,2025-04-11 20:42:21.339,FORWARD,2
23.0,-2498.1874225363044,-22741.871803029993,-36592.95726930586,-25760.85487137495,21132.434443525606,4694.179260036857,16574.62317641058,51041.41545789426,0.0,0.0,0.0,193.0,0.0,192.0,0.0,0.0,0.0,178.0,192.0,0.0,178.0,1744418541.339553,0.0,2025-04-11 20:42:21.339,FORWARD,2
24.0,-2483.1894020067934,-22715.340282361543,-36619.10881031857,-25732.266990216613,20989.740906922925,4710.160757322402,16447.77702662671,50987.123070612324,0.0,0.0,0.0,193.0,0.0,192.0,0.0,0.0,0.0,178.0,192.0,0.0,178.0,1744418541.339585,0.0,2025-04-11 20:42:21.339,FORWARD,2
25.0,-2460.301215684559,-22691.44626753882,-36612.00095558178,-25692.19031240825,20882.474885281907,4948.072725304691,16149.805921293011,51099.9099731338,0.0,0.0,0.0,193.0,0.0,193.0,0.0,0.0,0.0,178.0,193.0,0.0,178.0,1744418541.339616,0.0,2025-04-11 20:42:21.339,FORWARD,2
26.0,-2467.006739021151,-22709.908808458902,-36572.57247836262,-25697.2641583996,21002.19082858453,4925.676277360472,16177.700898373236,51124.54159552355,0.0,0.0,0.0,193.0,0.0,193.0,0.0,0.0,0.0,179.0,193.0,0.0,179.0,1744418541.3396468,0.0,2025-04-11 20:42:21.339,FORWARD,2
27.0,-2484.239933996193,-22733.579305837073,-36588.97865879282,-25741.43120544329,21070.296593939853,4711.948896878826,16546.504681885803,51051.07141149895,0.0,0.0,0.0,193.0,0.0,192.0,0.0,0.0,0.0,178.0,192.0,0.0,178.0,1744418541.3396773,0.0,2025-04-11 20:42:21.339,FORWARD,2
28.0,-2470.91829430083,-22702.91271244439,-36602.300298488175,-25722.052243000537,20984.443543487017,4636.4447041088,16469.480570492815,50950.60032017235,0.0,0.0,0.0,193.0,0.0,192.0,0.0,0.0,0.0,178.0,192.0,0.0,178.0,1744418541.339708,0.0,2025-04-11 20:42:21.339,FORWARD,2
29.0,-2449.6394335793775,-22670.145055072913,-36592.91256581695,-25683.540187304043,20928.161850948556,4888.170050164467,16178.48320942917,51055.698222601204,0.0,0.0,0.0,193.0,0.0,193.0,0.0,0.0,0.0,179.0,193.0,0.0,179.0,1744418541.339739,0.0,2025-04-11 20:42:21.339,FORWARD,2
30.0,-2439.357631129936,-22664.04302883661,-36551.45007985235,-25679.136893646348,21029.281142864365,4929.811350084705,16112.769080730568,51109.07418836048,0.0,0.0,0.0,193.0,0.0,193.0,0.0,0.0,0.0,179.0,193.0,0.0,179.0,1744418541.3397696,0.0,2025-04-11 20:42:21.339,FORWARD,2
31.0,-2463.2963494415703,-22709.0594421696,-36571.36548416203,-25730.478850660187,21151.835757712815,4725.136426107458,16513.289989625217,51071.03151929755,0.0,0.0,0.0,193.0,0.0,193.0,0.0,0.0,0.0,178.0,193.0,0.0,178.0,1744418541.3398004,0.0,2025-04-11 20:42:21.339,FORWARD,2
32.0,-2457.6413580943777,-22695.469581540776,-36583.34601919008,-25705.154324192325,21028.990570186445,4623.3689336024445,16513.98289370333,50942.84426484636,0.0,0.0,0.0,193.0,0.0,192.0,0.0,0.0,0.0,178.0,192.0,0.0,178.0,1744418541.3398323,0.0,2025-04-11 20:42:21.339,FORWARD,2
33.0,-2463.475163397213,-22680.985651133735,-36599.55103392017,-25682.869634970386,20927.088967214702,4894.227372911856,16266.280861649617,51034.6428793243,0.0,0.0,0.0,193.0,0.0,192.0,0.0,0.0,0.0,178.0,192.0,0.0,178.0,1744418541.3398645,0.0,2025-04-11 20:42:21.339,FORWARD,2
34.0,-2445.7949335330645,-22670.21211030628,-36558.826155522605,-25676.655850011808,21012.45027928952,4939.042620544747,16121.933295957244,51104.00034236912,0.0,0.0,0.0,193.0,0.0,192.0,0.0,0.0,0.0,178.0,192.0,0.0,178.0,1744418541.339918,0.0,2025-04-11 20:42:21.339,FORWARD,2
35.0,-2469.1972099777713,-22712.63572128245,-36556.63568456598,-25716.017271997604,21212.811316586893,4802.540517156186,16505.06454766566,51080.955693835705,0.0,0.0,0.0,193.0,0.0,192.0,0.0,0.0,0.0,178.0,192.0,0.0,178.0,1744418541.3399513,0.0,2025-04-11 20:42:21.339,FORWARD,2
36.0,-2478.9202188158297,-22726.560858078108,-36596.04181004069,-25720.28645518857,21105.947626346067,4643.194930934302,16606.38500528157,50936.13874150977,0.0,0.0,0.0,193.0,0.0,192.0,0.0,0.0,0.0,178.0,192.0,0.0,178.0,1744418541.3399837,0.0,2025-04-11 20:42:21.339,FORWARD,2
37.0,-2477.780279848609,-22701.906883943902,-36620.427563241436,-25694.380783364868,20901.987958191392,4813.135244028002,16374.217435624294,50996.60021026137,0.0,0.0,0.0,193.0,0.0,192.0,0.0,0.0,0.0,179.0,192.0,0.0,179.0,1744418541.8158023,0.0,2025-04-11 20:42:21.815,FORWARD,2
38.0,-2453.2157126922266,-22667.172273060354,-36580.2838301997,-25671.157320875805,20915.488411842398,4942.194216512945,16148.733037559157,51087.4600514722,0.0,0.0,0.0,193.0,0.0,192.0,0.0,0.0,0.0,178.0,192.0,0.0,178.0,1744418541.8159747,0.0,2025-04-11 20:42:21.815,FORWARD,2
39.0,-2454.556817359545,-22685.21013083579,-36558.3791206335,-25707.858885271417,21169.96302246607,4861.191494606912,16467.155989069463,51109.7670924386,0.0,0.0,0.0,193.0,0.0,193.0,0.0,0.0,0.0,179.0,193.0,0.0,179.0,1744418541.81601,0.0,2025-04-11 20:42:21.816,FORWARD,2
40.0,-2460.860009295942,-22697.995328664223,-36601.83091185462,-25735.262123973625,21138.33530406181,4651.040393238115,16648.048656946263,50994.29798058248,0.0,0.0,0.0,193.0,0.0,192.0,0.0,0.0,0.0,178.0,192.0,0.0,178.0,1744418541.8160417,0.0,2025-04-11 20:42:21.816,FORWARD,2
41.0,-2477.176782748316,-22693.39086930643,-36619.33232776312,-25691.340946118948,20978.475627717453,4801.624095633519,16449.945145838876,51029.90430949978,0.0,0.0,0.0,193.0,0.0,192.0,0.0,0.0,0.0,178.0,192.0,0.0,178.0,1744418541.8160727,0.0,2025-04-11 20:42:21.816,FORWARD,2
42.0,-2477.266189726137,-22692.63090999495,-36585.178862235414,-25667.022248151574,20950.334781448222,4966.781135413782,16174.191674493752,51137.48325556317,0.0,0.0,0.0,193.0,0.0,192.0,0.0,0.0,0.0,178.0,192.0,0.0,178.0,1744418541.8161037,0.0,2025-04-11 20:42:21.816,FORWARD,2
43.0,-2476.439175181291,-22728.88543950146,-36551.494783341266,-25698.69467004474,21157.826025226837,4852.854293925082,16395.473944601294,51155.14113368287,0.0,0.0,0.0,193.0,0.0,193.0,0.0,0.0,0.0,178.0,193.0,0.0,178.0,1744418541.8161347,0.0,2025-04-11 20:42:21.816,FORWARD,2
44.0,-2487.950323575774,-22757.070989259602,-36592.33142046111,-25738.748996108654,21112.161411304645,4608.7508927286735,16664.521892609824,51039.58261484893,0.0,0.0,0.0,193.0,0.0,193.0,0.0,0.0,0.0,179.0,193.0,0.0,179.0,1744418541.8161654,0.0,2025-04-11 20:42:21.816,FORWARD,2
45.0,-2522.6402309704104,-22758.501500904742,-36618.21474054036,-25716.687824331264,20996.44643025952,4706.115091575992,16518.989684461318,51026.52919608703,0.0,0.0,0.0,193.0,0.0,193.0,0.0,0.0,0.0,179.0,193.0,0.0,179.0,1744418541.816196,0.0,2025-04-11 20:42:21.816,FORWARD,2
46.0,-2534.330193320536,-22749.203175211333,-36608.82700786913,-25691.206835652214,20946.445577912997,4934.9969547983355,16219.453957015749,51136.54448229605,0.0,0.0,0.0,193.0,0.0,192.0,0.0,0.0,0.0,178.0,192.0,0.0,178.0,1744418541.8162267,0.0,2025-04-11 20:42:21.816,FORWARD,2
47.0,-2537.5488445221004,-22777.74635288076,-36572.41601615143,-25713.37976615188,21119.22456255252,4890.58403856564,16338.231127051251,51174.25187519215,0.0,0.0,0.0,193.0,0.0,192.0,0.0,0.0,0.0,178.0,192.0,0.0,178.0,1744418541.8162577,0.0,2025-04-11 20:42:21.816,FORWARD,2
48.0,-2565.197952413315,-22798.019385101725,-36596.42178969643,-25764.945240610272,21157.80367348238,4641.876178011439,16672.702631080465,51085.44839447122,0.0,0.0,0.0,193.0,0.0,192.0,0.0,0.0,0.0,178.0,192.0,0.0,178.0,1744418541.8162885,0.0,2025-04-11 20:42:21.816,FORWARD,2
49.0,-2550.714022006276,-22747.191518210355,-36611.01747882575,-25716.084327230972,20978.453275972995,4664.250274211201,16548.04695225322,51007.77608248903,0.0,0.0,0.0,193.0,0.0,192.0,0.0,0.0,0.0,178.0,192.0,0.0,178.0,1744418541.8163426,0.0,2025-04-11 20:42:21.816,FORWARD,2
50.0,-2536.78888521062,-22735.59096283805,-36619.354679507574,-25685.97652744967,20861.03956234927,4904.509175361297,16258.770675512635,51130.46480780421,0.0,0.0,0.0,193.0,0.0,192.0,0.0,0.0,0.0,178.0,192.0,0.0,178.0,1744418541.8163743,0.0,2025-04-11 20:42:21.816,FORWARD,2
51.0,-2520.740332691709,-22754.232317713777,-36569.06325448314,-25688.74814376213,21067.189701460567,4889.488803087331,16260.715277280246,51173.8271920475,0.0,0.0,0.0,193.0,0.0,193.0,0.0,0.0,0.0,179.0,193.0,0.0,179.0,1744418541.816405,0.0,2025-04-11 20:42:21.816,FORWARD,2
52.0,-2535.2689665876587,-22805.060184605147,-36583.59188837909,-25732.311693705524,21221.43908994664,4694.268667014679,16640.13613940908,51112.09167386194,0.0,0.0,0.0,193.0,0.0,193.0,0.0,0.0,0.0,179.0,193.0,0.0,179.0,1744418541.816436,0.0,2025-04-11 20:42:21.816,FORWARD,2
53.0,-2534.1513793648937,-22790.240978031277,-36622.77449640924,-25725.874391302397,21061.46765488001,4641.317384400057,16599.254798800328,51016.53796631551,0.0,0.0,0.0,193.0,0.0,193.0,0.0,0.0,0.0,178.0,193.0,0.0,178.0,1744418541.8164797,0.0,2025-04-11 20:42:21.816,FORWARD,2
54.0,-2517.7675506791534,-22736.730901805273,-36615.71134516136,-25678.17576863477,20927.37953989262,4889.041768198224,16314.784147117633,51128.65431650333,0.0,0.0,0.0,193.0,0.0,192.0,0.0,0.0,0.0,178.0,192.0,0.0,178.0,1744418541.816511,0.0,2025-04-11 20:42:21.816,FORWARD,2
55.0,-2497.4498149692795,-22710.668767770385,-36562.26832416873,-25661.635477737844,21025.168421884588,4919.082512746157,16209.35096852195,51178.811631061035,0.0,0.0,0.0,193.0,0.0,192.0,0.0,0.0,0.0,178.0,192.0,0.0,178.0,1744418541.816542,0.0,2025-04-11 20:42:21.816,FORWARD,2
56.0,-2526.954117650285,-22775.60058541305,-36588.598679137074,-25726.679054102788,21203.088307748832,4752.517313065209,16615.124537363594,51154.559988327026,0.0,0.0,0.0,193.0,0.0,193.0,0.0,0.0,0.0,179.0,193.0,0.0,179.0,1744418541.8165724,0.0,2025-04-11 20:42:21.816,FORWARD,2
57.0,-2532.139722363916,-22779.98152732629,-36624.42852549893,-25730.18827798227,21105.925274601614,4582.889924393884,16649.322706380215,51034.12878920184,0.0,0.0,0.0,193.0,0.0,193.0,0.0,0.0,0.0,179.0,193.0,0.0,179.0,1744418541.816603,0.0,2025-04-11 20:42:21.816,FORWARD,2
58.0,-2531.0891903745164,-22765.22937598579,-36627.893045889505,-25715.458478386223,20980.040249829322,4731.104341877025,16391.920017232896,51129.48133104818,0.0,0.0,0.0,193.0,0.0,193.0,0.0,0.0,0.0,179.0,193.0,0.0,179.0,1744418541.8166337,0.0,2025-04-11 20:42:21.816,FORWARD,2
59.0,-2499.5732306925333,-22727.20905866731,-36568.057425982646,-25677.99695467913,21020.005168915413,4861.862046940571,16204.992378353165,51205.23139300721,0.0,0.0,0.0,193.0,0.0,192.0,0.0,0.0,0.0,178.0,192.0,0.0,178.0,1744418541.8166647,0.0,2025-04-11 20:42:21.816,FORWARD,2
60.0,-2522.9308036483294,-22765.676410874894,-36564.39173989198,-25715.033795241572,21197.410964657185,4812.218822505334,16556.428856423958,51187.84173582098,0.0,0.0,0.0,193.0,0.0,192.0,0.0,0.0,0.0,178.0,192.0,0.0,178.0,1744418541.8166952,0.0,2025-04-11 20:42:21.816,FORWARD,2
61.0,-2517.2534605566816,-22763.374181196,-36597.67348738593,-25720.95700752223,21074.99046027547,4623.01130569116,16649.613279058132,51044.030611995535,0.0,0.0,0.0,193.0,0.0,193.0,0.0,0.0,0.0,179.0,193.0,0.0,179.0,1744418541.816726,0.0,2025-04-11 20:42:21.816,FORWARD,2
62.0,-2512.5372424766115,-22743.25761118622,-36604.37901072252,-25681.774399492075,20957.464987929463,4809.313095726144,16420.910229791432,51103.598010968926,0.0,0.0,0.0,193.0,0.0,193.0,0.0,0.0,0.0,179.0,193.0,0.0,179.0,1744418541.8167567,0.0,2025-04-11 20:42:21.816,FORWARD,2
63.0,-2477.333244959503,-22704.656148511905,-36556.21100142133,-25650.5043089991,20986.58931095473,4949.927920094481,16177.075049528486,51207.89125059739,0.0,0.0,0.0,193.0,0.0,193.0,0.0,0.0,0.0,178.0,193.0,0.0,178.0,1744418541.8167872,0.0,2025-04-11 20:42:21.816,FORWARD,2
64.0,-2510.8608616424635,-22748.398512410942,-36549.259608895736,-25696.392440365846,21191.599511098804,4823.640563921996,16465.144332068485,51217.30133501308,0.0,0.0,0.0,193.0,0.0,192.0,0.0,0.0,0.0,178.0,192.0,0.0,178.0,1744418541.8168318,0.0,2025-04-11 20:42:21.816,FORWARD,2
65.0,-2520.561518736067,-22766.07874227509,-36581.60258312256,-25721.627559855886,21166.05146718639,4587.941418640783,16645.34409586717,51072.7526036206,0.0,0.0,0.0,193.0,0.0,192.0,0.0,0.0,0.0,177.0,192.0,0.0,177.0,1744418541.816863,0.0,2025-04-11 20:42:21.816,FORWARD,2
66.0,-2506.6587336848656,-22736.2168116828,-36585.737655846795,-25676.722905245177,21037.0148464459,4751.17620839789,16453.16379704044,51090.14226080683,0.0,0.0,0.0,193.0,0.0,192.0,0.0,0.0,0.0,178.0,192.0,0.0,178.0,1744418541.816894,0.0,2025-04-11 20:42:21.816,FORWARD,2
67.0,-2491.0348643106063,-22708.0089101802,-36555.13811768748,-25645.855146152397,20977.179226539043,4926.413884927498,16157.517273130094,51193.04969227907,0.0,0.0,0.0,193.0,0.0,192.0,0.0,0.0,0.0,178.0,192.0,0.0,178.0,1744418541.8169248,0.0,2025-04-11 20:42:21.816,FORWARD,2
68.0,-2520.516815247156,-22757.898003804446,-36533.25575986574,-25690.33511761846,21166.81142649787,4806.899107324971,16344.780188176655,51214.41795997834,0.0,0.0,0.0,193.0,0.0,193.0,0.0,0.0,0.0,179.0,193.0,0.0,179.0,1744418541.816968,0.0,2025-04-11 20:42:21.816,FORWARD,2
69.0,-2537.615899755466,-22797.594701957074,-36580.350885433065,-25742.168813010314,21157.133121148723,4554.637319402375,16619.23725834337,51105.54261273654,0.0,0.0,0.0,193.0,0.0,193.0,0.0,0.0,0.0,179.0,193.0,0.0,179.0,1744418541.8169992,0.0,2025-04-11 20:42:21.816,FORWARD,2
70.0,-2528.854015928986,-22754.1205589915,-36602.456760699366,-25707.724774804687,21009.768069954884,4667.4465736683105,16459.534044210202,51076.70886238919,0.0,0.0,0.0,193.0,0.0,193.0,0.0,0.0,0.0,179.0,193.0,0.0,179.0,1744418541.8170297,0.0,2025-04-11 20:42:21.817,FORWARD,2
71.0,-2502.9259923608297,-22696.58716876354,-36579.68033309941,-25665.770550462075,20963.499958932396,4899.323570647665,16145.022647979577,51191.90975331185,0.0,0.0,0.0,193.0,0.0,192.0,0.0,0.0,0.0,178.0,192.0,0.0,178.0,1744418541.8170607,0.0,2025-04-11 20:42:21.817,FORWARD,2
72.0,-2487.860916597953,-22731.590000580552,-36535.28976861117,-25672.6101842654,21158.764798493958,4842.304270542178,16202.980721352187,51207.757140130656,0.0,0.0,0.0,193.0,0.0,192.0,0.0,0.0,0.0,178.0,192.0,0.0,178.0,1744418541.8170915,0.0,2025-04-11 20:42:21.817,FORWARD,2
73.0,-2504.6694284283435,-22777.299317991652,-36554.355806631545,-25709.155286449826,21263.30390731143,4642.479675111732,16544.38126616255,51116.13733960836,0.0,0.0,0.0,193.0,0.0,192.0,0.0,0.0,0.0,178.0,192.0,0.0,178.0,1744418541.8171222,0.0,2025-04-11 20:42:21.817,FORWARD,2
74.0,-2512.939573876807,-22757.696838104348,-36590.833853582604,-25698.292338644547,21064.038105492367,4635.707096541774,16442.479663190803,51030.77602753354,0.0,0.0,0.0,193.0,0.0,192.0,0.0,0.0,0.0,178.0,192.0,0.0,178.0,1744418541.8171527,0.0,2025-04-11 20:42:21.817,FORWARD,2
75.0,-2497.5168702026454,-22718.670692285385,-36593.516062917246,-25670.263251097593,20943.338685433708,4866.958244676381,16141.62518282237,51137.97499394119,0.0,0.0,0.0,193.0,0.0,192.0,0.0,0.0,0.0,178.0,192.0,0.0,178.0,1744418541.8171835,0.0,2025-04-11 20:42:21.817,FORWARD,2
76.0,-2479.8589920829527,-22724.05746269911,-36548.2761321397,-25675.806483722507,21102.214885022033,4858.3975265499985,16116.121842398865,51188.042901521076,0.0,0.0,0.0,193.0,0.0,192.0,0.0,0.0,0.0,179.0,192.0,0.0,179.0,1744418541.8172145,0.0,2025-04-11 20:42:21.817,FORWARD,2
77.0,-2491.101919543972,-22759.753198594237,-36552.724129286304,-25723.03571975657,21240.05809307791,4647.754686803185,16486.490248023303,51121.434703044266,0.0,0.0,0.0,193.0,0.0,193.0,0.0,0.0,0.0,179.0,193.0,0.0,179.0,1744418541.8172452,0.0,2025-04-11 20:42:21.817,FORWARD,2
78.0,-2483.390567706891,-22739.949553006834,-36566.82808003761,-25688.32346061748,21109.300388014366,4591.405939031356,16445.564203925635,51009.921849956736,0.0,0.0,0.0,193.0,0.0,192.0,0.0,0.0,0.0,178.0,192.0,0.0,178.0,1744418541.8172758,0.0,2025-04-11 20:42:21.817,FORWARD,2
79.0,-2474.9639600472406,-22715.317930617086,-36571.58900160659,-25647.79974792001,21004.06837511878,4859.3362998171215,16177.05269778403,51121.769979211094,0.0,0.0,0.0,193.0,0.0,192.0,0.0,0.0,0.0,178.0,192.0,0.0,178.0,1744418541.81732,0.0,2025-04-11 20:42:21.817,FORWARD,2
80.0,-2463.7433843306762,-22713.2615701272,-36529.813591219616,-25635.88626812533,21080.667803367116,4896.39549212402,16052.642888145792,51181.73970958468,0.0,0.0,0.0,193.0,0.0,192.0,0.0,0.0,0.0,178.0,192.0,0.0,178.0,1744418541.8173556,0.0,2025-04-11 20:42:21.817,FORWARD,2
81.0,-2504.0882830725054,-22765.318782963608,-36545.07983268259,-25697.84530375544,21232.100872051822,4702.002370596215,16436.86937533252,51145.64164228936,0.0,0.0,0.0,193.0,0.0,192.0,0.0,0.0,0.0,178.0,192.0,0.0,178.0,1744418541.8173864,0.0,2025-04-11 20:42:21.817,FORWARD,2
82.0,-2498.1203673029386,-22756.35573343703,-36577.44515865388,-25702.18154217977,21108.115745558232,4549.8763978333955,16471.849855405075,51001.51759404154,0.0,0.0,0.0,193.0,0.0,192.0,0.0,0.0,0.0,178.0,192.0,0.0,178.0,1744418541.8174171,0.0,2025-04-11 20:42:21.817,FORWARD,2
83.0,-2497.986256836207,-22740.038959984657,-36595.61712689604,-25685.99887919413,20988.712726677983,4764.073164948602,16237.73768398019,51101.87692664587,0.0,0.0,0.0,193.0,0.0,192.0,0.0,0.0,0.0,178.0,192.0,0.0,178.0,1744418541.8174615,0.0,2025-04-11 20:42:21.817,FORWARD,2
84.0,-2482.7647188621427,-22729.35482613502,-36570.40435915045,-25671.447893553723,21008.471668776474,4865.035994653224,16038.94126879469,51193.74259635718,0.0,0.0,0.0,193.0,0.0,192.0,0.0,0.0,0.0,178.0,192.0,0.0,178.0,1744418541.8174927,0.0,2025-04-11 20:42:21.817,FORWARD,2
85.0,-2502.657771427366,-22758.300335204643,-36552.254742652745,-25699.298167145036,21212.408985186696,4758.641691045963,16360.538168017647,51181.672654351314,0.0,0.0,0.0,193.0,0.0,192.0,0.0,0.0,0.0,178.0,192.0,0.0,178.0,1744418541.8175237,0.0,2025-04-11 20:42:21.817,FORWARD,2
86.0,-2519.846262913497,-22771.465512688817,-36590.67739137142,-25724.488583146165,21152.930993191123,4547.618871643409,16487.607835246068,51049.37267892035,0.0,0.0,0.0,193.0,0.0,192.0,0.0,0.0,0.0,178.0,192.0,0.0,178.0,1744418541.817554,0.0,2025-04-11 20:42:21.817,FORWARD,2
87.0,-2508.9609633637624,-22734.428672126374,-36617.275967273235,-25697.51002758861,20991.082011590246,4698.828422883561,16267.443152361293,51098.837089399945,0.0,0.0,0.0,193.0,0.0,192.0,0.0,0.0,0.0,178.0,192.0,0.0,178.0,1744418541.817585,0.0,2025-04-11 20:42:21.817,FORWARD,2
88.0,-2461.0164715071287,-22661.76315090217,-36570.56082136164,-25651.5548409885,20932.274571928334,4827.172139545934,15989.007471681532,51182.879648551905,0.0,0.0,0.0,193.0,0.0,192.0,0.0,0.0,0.0,179.0,192.0,0.0,179.0,1744418541.8176155,0.0,2025-04-11 20:42:21.817,FORWARD,2
89.0,-2466.850276809964,-22704.76790723418,-36544.81161174913,-25680.70151575822,21127.293542300886,4747.242301373756,16243.415027071838,51184.86895380842,0.0,0.0,0.0,193.0,0.0,193.0,0.0,0.0,0.0,179.0,193.0,0.0,179.0,1744418541.8176465,0.0,2025-04-11 20:42:21.817,FORWARD,2
90.0,-2480.39543394988,-22746.163337965412,-36570.94080101738,-25716.397251653347,21228.032854560955,4554.123229279903,16461.25512853326,51049.30562368699,0.0,0.0,0.0,193.0,0.0,193.0,0.0,0.0,0.0,179.0,193.0,0.0,179.0,1744418541.8176818,0.0,2025-04-11 20:42:21.817,FORWARD,2
91.0,-2489.3361317320027,-22734.54043084865,-36614.66081317196,-25697.51002758861,21088.893245326668,4697.062635071592,16282.865856035454,51054.647690611804,0.0,0.0,0.0,193.0,0.0,193.0,0.0,0.0,0.0,179.0,193.0,0.0,179.0,1744418541.8177128,0.0,2025-04-11 20:42:21.817,FORWARD,2
92.0,-2457.1049162274503,-22689.30050007111,-36587.704609358865,-25672.252556354113,21015.624227002172,4857.346994560599,15974.367079063308,51151.09546793646,0.0,0.0,0.0,193.0,0.0,193.0,0.0,0.0,0.0,178.0,193.0,0.0,178.0,1744418541.8177433,0.0,2025-04-11 20:42:21.817,FORWARD,2
93.0,-2464.9503785312627,-22716.837849240048,-36541.99529194776,-25681.528530303065,21211.827839830858,4777.260694177234,16128.258839638096,51161.55608434154,0.0,0.0,0.0,193.0,0.0,192.0,0.0,0.0,0.0,178.0,192.0,0.0,178.0,1744418541.8177743,0.0,2025-04-11 20:42:21.817,FORWARD,2
94.0,-2495.393454479391,-22763.061256773624,-36586.922298302925,-25733.630446628387,21225.127127781765,4548.401182699345,16444.044285302673,51064.43775468323,0.0,0.0,0.0,193.0,0.0,192.0,0.0,0.0,0.0,178.0,192.0,0.0,178.0,1744418541.8178053,0.0,2025-04-11 20:42:21.817,FORWARD,2
95.0,-2485.0893002854946,-22742.296486174644,-36601.78620836571,-25704.439068369757,21071.101256740243,4595.608066988953,16302.22246673375,51012.33583835791,0.0,0.0,0.0,193.0,0.0,192.0,0.0,0.0,0.0,178.0,192.0,0.0,178.0,1744418541.81785,0.0,2025-04-11 20:42:21.817,FORWARD,2
96.0,-2467.1184977434277,-22703.695023500328,-36584.19538547938,-25659.93674515924,20960.817749597758,4823.640563921996,16014.443756871673,51128.83313045897,0.0,0.0,0.0,193.0,0.0,192.0,0.0,0.0,0.0,178.0,192.0,0.0,178.0,1744418541.817881,0.0,2025-04-11 20:42:21.817,FORWARD,2
97.0,-2456.881398782897,-22711.004043937213,-36537.41318433442,-25652.65007646681,21125.818327166835,4816.845633607582,16074.860522134368,51160.66201456333,0.0,0.0,0.0,193.0,0.0,192.0,0.0,0.0,0.0,178.0,192.0,0.0,178.0,1744418541.8179119,0.0,2025-04-11 20:42:21.817,FORWARD,2
98.0,-2487.7491578756762,-22758.009762526723,-36569.21971669432,-25709.937597505763,21248.328238526374,4641.20562567778,16452.984983084796,51090.097557317924,0.0,0.0,0.0,193.0,0.0,192.0,0.0,0.0,0.0,178.0,192.0,0.0,178.0,1744418541.8179424,0.0,2025-04-11 20:42:21.817,FORWARD,2
99.0,-2491.1242712884273,-22739.346055906542,-36603.26142349976,-25690.46922808519,21090.12259127171,4629.761532516663,16383.448706084337,51004.19980337618,0.0,0.0,0.0,193.0,0.0,192.0,0.0,0.0,0.0,178.0,192.0,0.0,178.0,1744418541.818169,0.0,2025-04-11 20:42:21.818,FORWARD,2
100.0,-2469.1525064888606,-22704.454982811807,-36597.60643215256,-25657.83568118044,21003.576636740763,4835.91167162796,16099.246275335108,51122.68640073376,0.0,0.0,0.0,193.0,0.0,192.0,0.0,0.0,0.0,177.0,192.0,0.0,177.0,1744418541.8182003,0.0,2025-04-11 20:42:21.818,FORWARD,2
101.0,-2447.3372039004807,-22705.281997356655,-36537.9719779458,-25653.566497989475,21142.98446690851,4826.121607556535,16038.360123438852,51163.65714832034,0.0,0.0,0.0,193.0,0.0,192.0,0.0,0.0,0.0,178.0,192.0,0.0,178.0,1744418541.8182318,0.0,2025-04-11 20:42:21.818,FORWARD,2
102.0,-2481.714186872743,-22746.968000765803,-36561.17308869041,-25715.79375455305,21252.329200783875,4661.679823598841,16446.614735915035,51122.52993852257,0.0,0.0,0.0,193.0,0.0,192.0,0.0,0.0,0.0,178.0,192.0,0.0,178.0,1744418541.8182628,0.0,2025-04-11 20:42:21.818,FORWARD,2
103.0,-2464.525695386612,-22708.0089101802,-36566.62691433751,-25685.529492560567,21130.2886760579,4585.706244195252,16431.616715385524,51007.127881899825,0.0,0.0,0.0,193.0,0.0,192.0,0.0,0.0,0.0,179.0,192.0,0.0,179.0,1744418541.818294,0.0,2025-04-11 20:42:21.818,FORWARD,2
104.0,-2466.649111109866,-22696.54246527463,-36587.77166459223,-25661.635477737844,21009.477497276963,4829.675534924929,16172.7164593597,51120.07124663249,0.0,0.0,0.0,193.0,0.0,193.0,0.0,0.0,0.0,179.0,193.0,0.0,179.0,1744418541.818325,0.0,2025-04-11 20:42:21.818,FORWARD,2
105.0,-2435.133151427883,-22680.91859590037,-36539.402489590946,-25639.484898982635,21079.88549231118,4845.589976977108,16025.664332588236,51193.11674751243,0.0,0.0,0.0,193.0,0.0,192.0,0.0,0.0,0.0,178.0,192.0,0.0,178.0,1744418541.8183556,0.0,2025-04-11 20:42:21.818,FORWARD,2
106.0,-2460.815305807031,-22726.471451100286,-36538.01668143472,-25692.771457764087,21281.11824764231,4678.533038918143,16400.927770248385,51182.454965407254,0.0,0.0,0.0,193.0,0.0,192.0,0.0,0.0,0.0,178.0,192.0,0.0,178.0,1744418541.8183866,0.0,2025-04-11 20:42:21.818,FORWARD,2
107.0,-2478.160259504349,-22727.387872622952,-36582.56370813414,-25705.601359081433,21181.09419120481,4562.505133450643,16476.409611273957,51065.51063841709,0.0,0.0,0.0,193.0,0.0,192.0,0.0,0.0,0.0,177.0,192.0,0.0,177.0,1744418541.8184175,0.0,2025-04-11 20:42:21.818,FORWARD,2
108.0,-2471.29827395657,-22696.073078641068,-36591.86203382755,-25664.22828009466,21036.143128412143,4783.742700069273,16230.562774010037,51140.59014804246,0.0,0.0,0.0,193.0,0.0,193.0,0.0,0.0,0.0,179.0,193.0,0.0,179.0,1744418541.818448,0.0,2025-04-11 20:42:21.818,FORWARD,2
109.0,-2449.1923986902716,-22681.54444474512,-36551.74065253027,-25643.84348915142,21054.493910609952,4877.128288403545,15997.769355508013,51213.45683496676,0.0,0.0,0.0,193.0,0.0,193.0,0.0,0.0,0.0,179.0,193.0,0.0,179.0,1744418541.8184788,0.0,2025-04-11 20:42:21.818,FORWARD,2
110.0,-2466.693814598777,-22731.67940755837,-36538.70958551283,-25693.352603119925,21253.02210486199,4746.012955428714,16320.796766376112,51223.44806473829,0.0,0.0,0.0,193.0,0.0,193.0,0.0,0.0,0.0,179.0,193.0,0.0,179.0,1744418541.8185258,0.0,2025-04-11 20:42:21.818,FORWARD,2
111.0,-2474.0922420134834,-22737.82613728358,-36570.87374578402,-25713.603283596432,21175.66271730217,4528.5081301341215,16483.048079377186,51097.719502177184,0.0,0.0,0.0,193.0,0.0,192.0,0.0,0.0,0.0,178.0,192.0,0.0,178.0,1744418541.8185568,0.0,2025-04-11 20:42:21.818,FORWARD,2
112.0,-2465.10684074245,-22698.21884610878,-36592.51023441675,-25692.011498452604,21062.808759547326,4675.7837743501395,16272.584053586013,51133.437589816764,0.0,0.0,0.0,193.0,0.0,193.0,0.0,0.0,0.0,179.0,193.0,0.0,179.0,1744418541.8185873,0.0,2025-04-11 20:42:21.818,FORWARD,2
113.0,-2443.1350759428833,-22672.96137487428,-36560.05550146765,-25658.66269572529,21076.108047498234,4815.325714984621,15993.142544405764,51224.252727538675,0.0,0.0,0.0,193.0,0.0,193.0,0.0,0.0,0.0,178.0,193.0,0.0,178.0,1744418541.8186183,0.0,2025-04-11 20:42:21.818,FORWARD,2
114.0,-2461.977596518707,-22703.270340355677,-36535.93796920037,-25675.06887615548,21294.35048035985,4758.8428567460605,16233.26733508913,51245.46453302676,0.0,0.0,0.0,193.0,0.0,192.0,0.0,0.0,0.0,178.0,192.0,0.0,178.0,1744418541.818738,0.0,2025-04-11 20:42:21.818,FORWARD,2
115.0,-2472.2817507126038,-22731.657055813917,-36568.4821091273,-25696.07951594347,21280.827674964392,4568.651863175853,16474.330899039614,51124.09456063445,0.0,0.0,0.0,193.0,0.0,192.0,0.0,0.0,0.0,178.0,192.0,0.0,178.0,1744418541.8187697,0.0,2025-04-11 20:42:21.818,FORWARD,2
116.0,-2471.208866978749,-22709.573532292074,-36598.254632741766,-25677.92989944576,21113.70368167206,4694.849812370517,16317.444004707815,51124.45218854573,0.0,0.0,0.0,193.0,0.0,192.0,0.0,0.0,0.0,178.0,192.0,0.0,178.0,1744418541.8188004,0.0,2025-04-11 20:42:21.818,FORWARD,2
117.0,-2454.623872592911,-22680.15863658889,-36601.45093219887,-25666.7093237292,21024.00613117291,4870.243951111312,16023.78678605399,51239.25074806819,0.0,0.0,0.0,193.0,0.0,192.0,0.0,0.0,0.0,178.0,192.0,0.0,178.0,1744418541.8188314,0.0,2025-04-11 20:42:21.818,FORWARD,2
118.0,-2462.402279663358,-22708.97003519178,-36566.20223119286,-25684.233091382157,21192.001842499,4778.959426755837,16149.783569548557,51255.54516977611,0.0,0.0,0.0,193.0,0.0,193.0,0.0,0.0,0.0,179.0,193.0,0.0,179.0,1744418541.818862,0.0,2025-04-11 20:42:21.818,FORWARD,2
119.0,-2491.817175366542,-22753.114730491012,-36583.68129535691,-25727.349606436444,21268.60127074734,4530.788008068563,16471.268710049237,51151.38604061437,0.0,0.0,0.0,193.0,0.0,193.0,0.0,0.0,0.0,179.0,193.0,0.0,179.0,1744418541.8188932,0.0,2025-04-11 20:42:21.818,FORWARD,2
120.0,-2479.1884397492936,-22721.464660342295,-36590.27505997122,-25686.311803616503,21155.479092059028,4557.721860137208,16342.545013731125,51083.41438572579,0.0,0.0,0.0,193.0,0.0,192.0,0.0,0.0,0.0,178.0,192.0,0.0,178.0,1744418541.8189237,0.0,2025-04-11 20:42:21.818,FORWARD,2
121.0,-2464.8609715534417,-22674.34718303051,-36586.69878085837,-25653.342980544923,21053.64454432065,4791.856383306549,16049.871271833334,51202.05744529456,0.0,0.0,0.0,193.0,0.0,192.0,0.0,0.0,0.0,178.0,192.0,0.0,178.0,1744418541.8189545,0.0,2025-04-11 20:42:21.818,FORWARD,2
122.0,-2455.8755702824083,-22684.606633735497,-36547.024434450206,-25654.862899167885,21185.832761029335,4774.332615653589,16072.22301628864,51241.24005332471,0.0,0.0,0.0,193.0,0.0,192.0,0.0,0.0,0.0,179.0,192.0,0.0,179.0,1744418541.8189847,0.0,2025-04-11 20:42:21.818,FORWARD,2
123.0,-2473.8687245689302,-22732.104090703022,-36571.901926028964,-25706.27191141509,21264.175625345186,4577.592560957975,16467.31245128065,51175.4812211372,0.0,0.0,0.0,193.0,0.0,193.0,0.0,0.0,0.0,179.0,193.0,0.0,179.0,1744418541.819016,0.0,2025-04-11 20:42:21.819,FORWARD,2
124.0,-2468.660768110844,-22714.62502653897,-36599.39457170899,-25690.84920774093,21123.76196667695,4539.527540150588,16420.552601880147,51085.40369098231,0.0,0.0,0.0,193.0,0.0,193.0,0.0,0.0,0.0,179.0,193.0,0.0,179.0,1744418541.8190465,0.0,2025-04-11 20:42:21.819,FORWARD,2
125.0,-2460.904712784852,-22694.642566995928,-36589.04571402618,-25652.828890422454,21025.25782886241,4807.122624769524,16134.696142041224,51189.00402653265,0.0,0.0,0.0,193.0,0.0,192.0,0.0,0.0,0.0,178.0,192.0,0.0,178.0,1744418541.8190916,0.0,2025-04-11 20:42:21.819,FORWARD,2
126.0,-2440.4081631193358,-22676.738819687227,-36534.97684418879,-25642.45768099519,21137.687103472603,4819.438435964398,16037.26488796054,51220.7882071481,0.0,0.0,0.0,193.0,0.0,192.0,0.0,0.0,0.0,178.0,192.0,0.0,178.0,1744418541.8191228,0.0,2025-04-11 20:42:21.819,FORWARD,2
127.0,-2473.533448402101,-22725.510326088708,-36551.338321130075,-25702.65092881333,21346.921783318732,4624.3077068695675,16444.424264958416,51186.2324102202,0.0,0.0,0.0,193.0,0.0,193.0,0.0,0.0,0.0,178.0,193.0,0.0,178.0,1744418541.8191535,0.0,2025-04-11 20:42:21.819,FORWARD,2
128.0,-2462.625797107911,-22710.53465730365,-36575.746426075275,-25686.825893738973,21240.43807273365,4535.817150571007,16464.16085531245,51055.38529817883,0.0,0.0,0.0,193.0,0.0,193.0,0.0,0.0,0.0,179.0,193.0,0.0,179.0,1744418541.8191843,0.0,2025-04-11 20:42:21.819,FORWARD,2
129.0,-2449.6841370682882,-22678.549310988106,-36586.76583609174,-25660.920221915272,21083.752344101948,4778.266522677723,16202.399575996349,51135.069267162,0.0,0.0,0.0,193.0,0.0,192.0,0.0,0.0,0.0,178.0,192.0,0.0,178.0,1744418541.8192856,0.0,2025-04-11 20:42:21.819,FORWARD,2
130.0,-2428.2264623911933,-22658.946831100802,-36543.85048673755,-25657.522756758066,21127.405301023162,4808.374322459022,16036.773149582525,51198.21294524824,0.0,0.0,0.0,193.0,0.0,192.0,0.0,0.0,0.0,177.0,192.0,0.0,177.0,1744418541.819317,0.0,2025-04-11 20:42:21.819,FORWARD,2
131.0,-2459.921236028819,-22703.404450822407,-36536.98850118977,-25700.70632704572,21277.20669236263,4682.824573853562,16415.657569844436,51181.51619214013,0.0,0.0,0.0,193.0,0.0,193.0,0.0,0.0,0.0,179.0,193.0,0.0,179.0,1744418541.8193517,0.0,2025-04-11 20:42:21.819,FORWARD,2
132.0,-2478.3390734599916,-22721.554067320118,-36570.42671089491,-25707.501257360134,21205.502296150007,4510.716141547697,16517.89444898301,51041.19194044971,0.0,0.0,0.0,193.0,0.0,193.0,0.0,0.0,0.0,178.0,193.0,0.0,178.0,1744418541.8193824,0.0,2025-04-11 20:42:21.819,FORWARD,2
133.0,-2475.0533670250616,-22692.653261739408,-36578.898022043475,-25666.351695817913,21092.402469206154,4716.888632403449,16288.632606104924,51100.35700802291,0.0,0.0,0.0,193.0,0.0,192.0,0.0,0.0,0.0,178.0,192.0,0.0,178.0,1744418541.8194132,0.0,2025-04-11 20:42:21.819,FORWARD,2
134.0,-2460.547084873567,-22659.95265960129,-36544.56574256012,-25653.007704378095,21110.75325140396,4836.626927450529,16055.28039399152,51178.07402349401,0.0,0.0,0.0,193.0,0.0,192.0,0.0,0.0,0.0,178.0,192.0,0.0,178.0,1744418541.819444,0.0,2025-04-11 20:42:21.819,FORWARD,2
135.0,-2466.0009105206623,-22693.43557279534,-36516.603710246534,-25689.396344351335,21310.1308119453,4694.715701903785,16358.995897650231,51170.09445072347,0.0,0.0,0.0,193.0,0.0,192.0,0.0,0.0,0.0,178.0,192.0,0.0,178.0,1744418541.819475,0.0,2025-04-11 20:42:21.819,FORWARD,2
136.0,-2480.171916505327,-22729.89126800195,-36560.14490844547,-25723.259237201124,21232.05616856291,4470.438298039234,16553.009039522298,51042.82361779495,0.0,0.0,0.0,193.0,0.0,193.0,0.0,0.0,0.0,179.0,193.0,0.0,179.0,1744418541.8195057,0.0,2025-04-11 20:42:21.819,FORWARD,2
137.0,-2478.428480437813,-22708.388889835944,-36587.14581574748,-25688.90460597332,21071.88356779618,4617.2669073661455,16356.157226104408,51071.74677512012,0.0,0.0,0.0,193.0,0.0,192.0,0.0,0.0,0.0,178.0,192.0,0.0,178.0,1744418541.8195364,0.0,2025-04-11 20:42:21.819,FORWARD,2
138.0,-2435.133151427883,-22655.705828154783,-36547.225600150305,-25636.042730336518,21038.78063425787,4787.363682671033,16066.791542386001,51164.01477623163,0.0,0.0,0.0,193.0,0.0,192.0,0.0,0.0,0.0,178.0,192.0,0.0,178.0,1744418541.8195672,0.0,2025-04-11 20:42:21.819,FORWARD,2
139.0,-2442.8445032649643,-22684.226654079754,-36519.30827132562,-25657.098073613415,21264.645011978748,4750.528007808686,16297.528600398136,51185.96418928674,0.0,0.0,0.0,193.0,0.0,192.0,0.0,0.0,0.0,178.0,192.0,0.0,178.0,1744418541.819598,0.0,2025-04-11 20:42:21.819,FORWARD,2
140.0,-2456.7696400606205,-22699.425840309363,-36556.70273979935,-25697.666489799798,21288.851951223845,4541.785066340574,16569.79519960823,51080.463955457686,0.0,0.0,0.0,193.0,0.0,193.0,0.0,0.0,0.0,178.0,193.0,0.0,178.0,1744418541.8196435,0.0,2025-04-11 20:42:21.819,FORWARD,2
141.0,-2469.7783553336094,-22695.3578228185,-36605.04956305618,-25689.217530395694,21147.052484399377,4636.556462831076,16421.089043747073,51070.71859487517,0.0,0.0,0.0,193.0,0.0,192.0,0.0,0.0,0.0,178.0,192.0,0.0,178.0,1744418541.8196752,0.0,2025-04-11 20:42:21.819,FORWARD,2
142.0,-2452.411049891836,-22666.792293404615,-36580.95438253336,-25657.88038466935,21079.103181255243,4821.740665643295,16122.939124457733,51183.72901484121,0.0,0.0,0.0,193.0,0.0,192.0,0.0,0.0,0.0,178.0,192.0,0.0,178.0,1744418541.819706,0.0,2025-04-11 20:42:21.819,FORWARD,2
143.0,-2452.500456869657,-22686.528883758652,-36543.89519022646,-25671.3584865759,21258.36417178681,4746.772914740195,16225.9806663967,51212.24984076618,0.0,0.0,0.0,193.0,0.0,192.0,0.0,0.0,0.0,178.0,192.0,0.0,178.0,1744418541.819737,0.0,2025-04-11 20:42:21.819,FORWARD,2
144.0,-2477.176782748316,-22720.615294052994,-36582.07196975613,-25722.90160928984,21301.525390330004,4521.489682375155,16578.937063090452,51133.88462470587,0.0,0.0,0.0,193.0,0.0,192.0,0.0,0.0,0.0,178.0,192.0,0.0,178.0,1744418541.819816,0.0,2025-04-11 20:42:21.819,FORWARD,2
145.0,-2480.1942682497825,-22703.829133967058,-36607.620013668544,-25696.571254321487,21154.987353681012,4562.862761361928,16489.59714050259,51076.619455411375,0.0,0.0,0.0,193.0,0.0,192.0,0.0,0.0,0.0,179.0,192.0,0.0,179.0,1744418541.8198478,0.0,2025-04-11 20:42:21.819,FORWARD,2
146.0,-2450.2429306796707,-22660.690267168316,-36594.61129839555,-25655.242878823625,21051.029390219377,4801.8699648225265,16189.614378167915,51192.580305645504,0.0,0.0,0.0,193.0,0.0,192.0,0.0,0.0,0.0,178.0,192.0,0.0,178.0,1744418541.8198788,0.0,2025-04-11 20:42:21.819,FORWARD,2
147.0,-2428.047648435551,-22660.511453212675,-36545.57157106061,-25659.154434103304,21182.345888894306,4783.854458791549,16176.069221027998,51220.02824783662,0.0,0.0,0.0,193.0,0.0,192.0,0.0,0.0,0.0,179.0,192.0,0.0,179.0,1744418541.81991,0.0,2025-04-11 20:42:21.819,FORWARD,2
148.0,-2444.431477121291,-22687.847636681516,-36563.922353258415,-25702.449763113233,21289.433096579683,4598.156165856858,16550.103312743107,51146.55806381203,0.0,0.0,0.0,193.0,0.0,193.0,0.0,0.0,0.0,179.0,193.0,0.0,179.0,1744418541.8199408,0.0,2025-04-11 20:42:21.819,FORWARD,2
149.0,-2425.700715267744,-22658.52214795615,-36581.84845231157,-25672.543129032034,21138.111786617254,4546.814208843018,16494.73804172731,51032.7429810456,0.0,0.0,0.0,193.0,0.0,193.0,0.0,0.0,0.0,178.0,193.0,0.0,178.0,1744418541.8199723,0.0,2025-04-11 20:42:21.819,FORWARD,2
150.0,-2420.045723920551,-22626.693263851794,-36590.74444660478,-25652.247745066616,21043.563907571308,4789.665912349929,16225.578334996502,51147.34037486796,0.0,0.0,0.0,193.0,0.0,192.0,0.0,0.0,0.0,178.0,192.0,0.0,178.0,1744418541.8200028,0.0,2025-04-11 20:42:21.820,FORWARD,2
151.0,-2419.3081163535257,-22644.686418138317,-36543.2246378928,-25648.090320597927,21214.28653172094,4799.925363054916,16125.353112858906,51203.17503251732,0.0,0.0,0.0,193.0,0.0,192.0,0.0,0.0,0.0,178.0,192.0,0.0,178.0,1744418541.8200336,0.0,2025-04-11 20:42:21.820,FORWARD,2
152.0,-2456.7696400606205,-22714.423860838877,-36556.14394618797,-25701.75685903512,21372.38042025333,4609.533203784609,16529.629114822044,51181.15856422884,0.0,0.0,0.0,193.0,0.0,193.0,0.0,0.0,0.0,178.0,193.0,0.0,178.0,1744418541.8200643,0.0,2025-04-11 20:42:21.820,FORWARD,2
153.0,-2463.475163397213,-22701.68336649935,-36580.79792032217,-25694.98428046516,21239.58870644435,4497.908591974806,16558.731086102856,51056.99462377961,0.0,0.0,0.0,193.0,0.0,193.0,0.0,0.0,0.0,179.0,193.0,0.0,179.0,1744418541.8200953,0.0,2025-04-11 20:42:21.820,FORWARD,2
154.0,-2451.8299045359977,-22664.333601514532,-36595.21479549585,-25662.149567860317,21096.157562274642,4757.077068934092,16306.022263291154,51144.568758555506,0.0,0.0,0.0,193.0,0.0,192.0,0.0,0.0,0.0,178.0,192.0,0.0,178.0,1744418541.8201265,0.0,2025-04-11 20:42:21.820,FORWARD,2
155.0,-2427.9358897132743,-22645.91576408336,-36555.115765943025,-25645.631628707844,21131.629780725216,4841.7231251863395,16121.28509536804,51215.71436115675,0.0,0.0,0.0,193.0,0.0,192.0,0.0,0.0,0.0,178.0,192.0,0.0,178.0,1744418541.820172,0.0,2025-04-11 20:42:21.820,FORWARD,2
156.0,-2453.081602225495,-22687.557064003595,-36550.89128624097,-25687.65290828382,21317.618646337825,4706.5397747206425,16475.984928129306,51195.70954986925,0.0,0.0,0.0,193.0,0.0,193.0,0.0,0.0,0.0,179.0,193.0,0.0,179.0,1744418541.820203,0.0,2025-04-11 20:42:21.820,FORWARD,2
157.0,-2457.6413580943777,-22689.814590193582,-36588.30810645915,-25706.674242815287,21251.010447861012,4531.592670868954,16592.124592319084,51058.6039493804,0.0,0.0,0.0,193.0,0.0,193.0,0.0,0.0,0.0,178.0,193.0,0.0,178.0,1744418541.8202336,0.0,2025-04-11 20:42:21.820,FORWARD,2
158.0,-2432.0262589485956,-22662.612517191472,-36599.46162694236,-25671.045562153526,21103.868914111725,4721.873071416983,16360.269947084184,51108.73891219365,0.0,0.0,0.0,193.0,0.0,192.0,0.0,0.0,0.0,178.0,192.0,0.0,178.0,1744418542.2967765,0.0,2025-04-11 20:42:22.296,FORWARD,2
159.0,-2418.7046192532325,-22649.71556064076,-36572.84069929608,-25652.73948344463,21102.88543735569,4836.33635477261,16111.718548741168,51200.492823182685,0.0,0.0,0.0,193.0,0.0,193.0,0.0,0.0,0.0,179.0,193.0,0.0,179.0,1744418542.2969947,0.0,2025-04-11 20:42:22.296,FORWARD,2
160.0,-2439.0000032186513,-22684.606633735497,-36551.070100196615,-25684.54601580453,21299.938416473677,4719.928469649371,16391.517685832703,51204.29261974009,0.0,0.0,0.0,193.0,0.0,193.0,0.0,0.0,0.0,179.0,193.0,0.0,179.0,1744418542.2970307,0.0,2025-04-11 20:42:22.297,FORWARD,2
161.0,-2447.0689829670173,-22694.977843162756,-36578.16041447645,-25705.4672486147,21275.59736676185,4492.722987261175,16587.542484705744,51068.28225472954,0.0,0.0,0.0,193.0,0.0,193.0,0.0,0.0,0.0,178.0,193.0,0.0,178.0,1744418542.2970624,0.0,2025-04-11 20:42:22.297,FORWARD,2
162.0,-2426.728895512688,-22649.827319363038,-36581.691990100386,-25652.158338088793,21159.725923505535,4660.897512542905,16395.742165534757,51074.808964110496,0.0,0.0,0.0,193.0,0.0,192.0,0.0,0.0,0.0,178.0,192.0,0.0,178.0,1744418542.297094,0.0,2025-04-11 20:42:22.297,FORWARD,2
163.0,-2404.6900754797553,-22617.037310247102,-36566.67161782642,-25631.818250634464,21109.52390545892,4848.629814223029,16115.451290065204,51177.09054673798,0.0,0.0,0.0,193.0,0.0,192.0,0.0,0.0,0.0,177.0,192.0,0.0,177.0,1744418542.2971256,0.0,2025-04-11 20:42:22.297,FORWARD,2
164.0,-2409.786273215565,-22644.48525243822,-36528.02545166319,-25656.65103872431,21282.459352309626,4754.976004955292,16299.026167276643,51178.36459617193,0.0,0.0,0.0,193.0,0.0,192.0,0.0,0.0,0.0,178.0,192.0,0.0,178.0,1744418542.2971568,0.0,2025-04-11 20:42:22.297,FORWARD,2
165.0,-2429.7016775252437,-22687.1547326034,-36558.87085901152,-25694.827818253973,21323.921838274222,4512.504281104121,16594.47152548689,51063.454277927194,0.0,0.0,0.0,193.0,0.0,193.0,0.0,0.0,0.0,178.0,193.0,0.0,178.0,1744418542.297188,0.0,2025-04-11 20:42:22.297,FORWARD,2
166.0,-2429.724029269699,-22671.083828340034,-36589.939783804395,-25668.720980730177,21183.016441227966,4580.274770292613,16463.803227401164,51042.95772826168,0.0,0.0,0.0,193.0,0.0,193.0,0.0,0.0,0.0,178.0,193.0,0.0,178.0,1744418542.29722,0.0,2025-04-11 20:42:22.297,FORWARD,2
167.0,-2415.687133751766,-22624.636903361905,-36577.62397260952,-25646.36923627487,21106.729937402004,4803.211069489846,16176.53860766156,51163.724203553706,0.0,0.0,0.0,193.0,0.0,192.0,0.0,0.0,0.0,178.0,192.0,0.0,178.0,1744418542.297252,0.0,2025-04-11 20:42:22.297,FORWARD,2
168.0,-2420.5151105541127,-22648.374455973444,-36547.09148968357,-25668.162187118793,21274.524483027995,4775.874886021004,16263.866873248444,51189.92044805532,0.0,0.0,0.0,193.0,0.0,192.0,0.0,0.0,0.0,178.0,192.0,0.0,178.0,1744418542.2972834,0.0,2025-04-11 20:42:22.297,FORWARD,2
169.0,-2415.8659477074084,-22690.64160473843,-36552.85823975304,-25689.6645652848,21348.37464670833,4573.010453344637,16611.168278595003,51096.82543239897,0.0,0.0,0.0,193.0,0.0,193.0,0.0,0.0,0.0,179.0,193.0,0.0,179.0,1744418542.2973144,0.0,2025-04-11 20:42:22.297,FORWARD,2
170.0,-2409.6074592599225,-22669.76507541717,-36574.539431874684,-25654.237050323136,21217.527534666962,4574.373909756411,16526.119890942562,51029.90430949978,0.0,0.0,0.0,193.0,0.0,193.0,0.0,0.0,0.0,179.0,193.0,0.0,179.0,1744418542.297366,0.0,2025-04-11 20:42:22.297,FORWARD,2
171.0,-2416.1565203853274,-22639.500813424685,-36578.406283665456,-25629.985407589127,21086.0769255253,4799.366569443532,16240.64341075938,51150.69313653626,0.0,0.0,0.0,193.0,0.0,193.0,0.0,0.0,0.0,179.0,193.0,0.0,179.0,1744418542.2973986,0.0,2025-04-11 20:42:22.297,FORWARD,2
172.0,-2415.173043629294,-22641.95950531477,-36536.9214459564,-25630.67831166724,21199.95906352509,4803.680456123407,16222.292628561572,51191.954456800755,0.0,0.0,0.0,193.0,0.0,192.0,0.0,0.0,0.0,178.0,192.0,0.0,178.0,1744418542.2974308,0.0,2025-04-11 20:42:22.297,FORWARD,2
173.0,-2435.110799683428,-22676.15767433139,-36552.18768741938,-25674.823006966475,21352.196795010186,4618.831529478018,16610.453022772435,51132.92349969429,0.0,0.0,0.0,193.0,0.0,192.0,0.0,0.0,0.0,178.0,192.0,0.0,178.0,1744418542.2974622,0.0,2025-04-11 20:42:22.297,FORWARD,2
174.0,-2423.532596055579,-22661.897261368904,-36568.43740563839,-25649.945515387717,21252.64212520625,4571.758755655141,16580.635795669055,51028.74201878811,0.0,0.0,0.0,193.0,0.0,192.0,0.0,0.0,0.0,179.0,192.0,0.0,179.0,1744418542.2975087,0.0,2025-04-11 20:42:22.297,FORWARD,2
175.0,-2407.9981336591404,-22625.352159184476,-36572.14779521797,-25616.26143649357,21138.0894348728,4822.634735421507,16300.076699266041,51138.26556661911,0.0,0.0,0.0,193.0,0.0,193.0,0.0,0.0,0.0,178.0,193.0,0.0,178.0,1744418542.29754,0.0,2025-04-11 20:42:22.297,FORWARD,2
176.0,-2396.5093370091126,-22618.177249214325,-36539.15662040193,-25621.156468529283,21217.527534666962,4855.648261981995,16183.11002053142,51213.054503566564,0.0,0.0,0.0,193.0,0.0,192.0,0.0,0.0,0.0,178.0,192.0,0.0,178.0,1744418542.297572,0.0,2025-04-11 20:42:22.297,FORWARD,2
177.0,-2421.498587310146,-22665.71940967076,-36547.292655383666,-25680.142722146837,21375.28614703252,4676.364919705978,16580.255816013316,51208.56180293105,0.0,0.0,0.0,193.0,0.0,192.0,0.0,0.0,0.0,178.0,192.0,0.0,178.0,1744418542.2976034,0.0,2025-04-11 20:42:22.297,FORWARD,2
178.0,-2410.1215493823947,-22657.091636311012,-36570.00202775026,-25664.78707370604,21255.592555474348,4504.859984500406,16620.980694410886,51080.955693835705,0.0,0.0,0.0,193.0,0.0,193.0,0.0,0.0,0.0,179.0,193.0,0.0,179.0,1744418542.2976344,0.0,2025-04-11 20:42:22.297,FORWARD,2
179.0,-2397.470462020691,-22626.089766751502,-36583.18955697889,-25625.35859648688,21116.89998112917,4731.171397110391,16386.309729374618,51170.921465268315,0.0,0.0,0.0,193.0,0.0,193.0,0.0,0.0,0.0,179.0,193.0,0.0,179.0,1744418542.2976663,0.0,2025-04-11 20:42:22.297,FORWARD,2
180.0,-2377.1303745663613,-22609.638882832394,-36541.838829736575,-25610.092355023906,21148.12536813323,4828.513244213253,16203.58421845248,51260.90958844538,0.0,0.0,0.0,193.0,0.0,193.0,0.0,0.0,0.0,179.0,193.0,0.0,179.0,1744418542.2977016,0.0,2025-04-11 20:42:22.297,FORWARD,2
181.0,-2408.087540636962,-22650.72138914125,-36532.18287613188,-25655.019361379073,21365.540786450005,4682.511649431187,16553.32196394467,51263.52474254665,0.0,0.0,0.0,193.0,0.0,192.0,0.0,0.0,0.0,178.0,192.0,0.0,178.0,1744418542.2977333,0.0,2025-04-11 20:42:22.297,FORWARD,2
182.0,-2403.6842469792664,-22639.657275635873,-36559.630818323,-25662.328381815958,21337.288181458498,4488.1855831367475,16688.281796965814,51134.44341831725,0.0,0.0,0.0,193.0,0.0,192.0,0.0,0.0,0.0,178.0,192.0,0.0,178.0,1744418542.2977655,0.0,2025-04-11 20:42:22.297,FORWARD,2
183.0,-2390.6531799618224,-22611.941112511293,-36583.90481280146,-25623.413994719267,21206.73164209505,4685.640893654931,16477.21427407435,51189.69693061077,0.0,0.0,0.0,193.0,0.0,193.0,0.0,0.0,0.0,179.0,193.0,0.0,179.0,1744418542.2977972,0.0,2025-04-11 20:42:22.297,FORWARD,2
184.0,-2376.4151187437915,-22596.65251930386,-36568.32564691611,-25601.4422299197,21179.95425223759,4841.790180419705,16233.826128700512,51294.86188827299,0.0,0.0,0.0,193.0,0.0,192.0,0.0,0.0,0.0,178.0,192.0,0.0,178.0,1744418542.297829,0.0,2025-04-11 20:42:22.297,FORWARD,2
185.0,-2402.209031845216,-22650.386112974422,-36570.53846961719,-25640.378968760848,21373.319193520452,4737.586347769064,16516.55334431569,51304.517841877685,0.0,0.0,0.0,193.0,0.0,192.0,0.0,0.0,0.0,178.0,192.0,0.0,178.0,1744418542.2978773,0.0,2025-04-11 20:42:22.297,FORWARD,2
186.0,-2403.460729534713,-22661.025543335145,-36606.10009504558,-25663.088341127437,21362.031562570523,4527.144673722348,16741.657762725088,51172.35197691345,0.0,0.0,0.0,193.0,0.0,192.0,0.0,0.0,0.0,178.0,192.0,0.0,178.0,1744418542.2979095,0.0,2025-04-11 20:42:22.297,FORWARD,2
187.0,-2406.7687877140984,-22630.247191220187,-36637.124316349546,-25640.423672249755,21203.66945310467,4675.873181327961,16597.82428715519,51193.85435507946,0.0,0.0,0.0,193.0,0.0,192.0,0.0,1.0,0.0,178.0,192.0,1.0,178.0,1744418542.2979407,0.0,2025-04-11 20:42:22.297,FORWARD,2
188.0,-2394.698845708233,-22598.23949316019,-36629.77059242375,-25614.383889959325,21132.032112125413,4850.060325868169,16307.586885403025,51294.99599873972,0.0,0.0,0.0,193.0,0.0,193.0,0.0,1.0,0.0,179.0,193.0,1.0,179.0,1744418542.2979732,0.0,2025-04-11 20:42:22.297,FORWARD,2
189.0,-2400.2197265886934,-22643.90410708238,-36596.712362374354,-25631.840602378918,21307.917989244223,4783.697996580362,16479.382393286516,51311.20101346982,0.0,0.0,0.0,193.0,0.0,193.0,0.0,3.0,0.0,179.0,193.0,3.0,179.0,1744418542.2980187,0.0,2025-04-11 20:42:22.298,FORWARD,2
190.0,-2427.5112065686235,-22682.01383137868,-36629.01063311227,-25671.380838320358,21325.79938480847,4568.160124797836,16806.164897223105,51213.501538455675,0.0,0.0,0.0,193.0,0.0,192.0,0.0,4.0,0.0,178.0,192.0,4.0,178.0,1744418542.2980509,0.0,2025-04-11 20:42:22.298,FORWARD,2
191.0,-2424.9407559562633,-22659.595031690005,-36650.80358395619,-25638.210849548683,21205.68111010565,4628.219262149246,16684.079669008217,51168.03809023358,0.0,0.0,0.0,193.0,0.0,192.0,0.0,5.0,0.0,178.0,192.0,5.0,178.0,1744418542.2980828,0.0,2025-04-11 20:42:22.298,FORWARD,2
192.0,-2397.2245928316825,-22625.150993484378,-36628.27302554525,-25599.229407218627,21134.893135415692,4843.243043809301,16393.506991089223,51278.81333575408,0.0,0.0,0.0,193.0,0.0,192.0,0.0,6.0,0.0,178.0,192.0,6.0,178.0,1744418542.2981155,0.0,2025-04-11 20:42:22.298,FORWARD,2
193.0,-2385.4228717592805,-22623.027577761124,-36578.272173198726,-25609.287692223515,21304.073489197912,4787.944828026871,16444.156044024952,51298.6616848304,0.0,0.0,0.0,193.0,0.0,193.0,0.0,7.0,0.0,179.0,193.0,7.0,179.0,1744418542.2981486,0.0,2025-04-11 20:42:22.298,FORWARD,2
194.0,-2397.7386829541547,-22649.402636218387,-36586.45291166937,-25653.566497989475,21413.977016684654,4565.52261895211,16806.723690834486,51216.31785825704,0.0,0.0,0.0,193.0,0.0,193.0,0.0,8.0,0.0,179.0,193.0,8.0,179.0,1744418542.2981806,0.0,2025-04-11 20:42:22.298,FORWARD,2
195.0,-2394.47532826368,-22633.599952888486,-36608.75995263576,-25623.346939485902,21267.059000379923,4565.924950352305,16733.924059143552,51132.56587178301,0.0,0.0,0.0,193.0,0.0,193.0,0.0,9.0,0.0,179.0,193.0,9.0,179.0,1744418542.2982128,0.0,2025-04-11 20:42:22.298,FORWARD,2
196.0,-2381.8018891575207,-22594.462048347243,-36613.31970850464,-25585.25956693406,21116.765870662435,4819.3043254976665,16447.620564415523,51245.75510570468,0.0,0.0,0.0,193.0,0.0,193.0,0.0,9.0,0.0,179.0,193.0,9.0,179.0,1744418542.2982445,0.0,2025-04-11 20:42:22.298,FORWARD,2
197.0,-2372.7941361420317,-22591.1316384234,-36564.637609080986,-25584.20903494466,21246.942430370145,4832.491854726298,16393.23877015576,51292.44789987182,0.0,0.0,0.0,193.0,0.0,192.0,0.0,10.0,0.0,178.0,192.0,10.0,178.0,1744418542.2982764,0.0,2025-04-11 20:42:22.298,FORWARD,2
198.0,-2406.9923051586516,-22662.25488928019,-36587.279926214214,-25660.65200098181,21428.639761047336,4624.039485936104,16800.979292509473,51267.43629782633,0.0,0.0,0.0,193.0,0.0,192.0,0.0,11.0,0.0,178.0,192.0,11.0,178.0,1744418542.2983084,0.0,2025-04-11 20:42:22.298,FORWARD,2
199.0,-2402.14197661185,-22651.97308683075,-36615.443124227895,-25639.998989105105,21289.20957913513,4531.749133080141,16787.56824583629,51153.39769761535,0.0,0.0,0.0,193.0,0.0,193.0,0.0,11.0,0.0,179.0,193.0,11.0,179.0,1744418542.2983408,0.0,2025-04-11 20:42:22.298,FORWARD,2
200.0,-2389.982627628163,-22615.785612557604,-36615.71134516136,-25581.258604676557,21145.0408273984,4803.658104378951,16525.8516700091,51258.11562038847,0.0,0.0,0.0,193.0,0.0,193.0,0.0,12.0,0.0,179.0,193.0,12.0,179.0,1744418542.2983875,0.0,2025-04-11 20:42:22.298,FORWARD,2
201.0,-2387.6133427159,-22616.970255013737,-36580.79792032217,-25578.10700870836,21222.444918447127,4852.67547996944,16409.06380523012,51338.000755071735,0.0,0.0,0.0,193.0,0.0,193.0,0.0,12.0,0.0,179.0,193.0,12.0,179.0,1744418542.29842,0.0,2025-04-11 20:42:22.298,FORWARD,2
202.0,-2416.0894651519616,-22648.039179806612,-36580.52969938871,-25630.2983320115,21416.01102543009,4672.252198726202,16798.40884189711,51310.798682069624,0.0,0.0,0.0,193.0,0.0,192.0,0.0,12.0,0.0,178.0,192.0,12.0,178.0,1744418542.298452,0.0,2025-04-11 20:42:22.298,FORWARD,2
203.0,-2421.9903256881626,-22642.518298926152,-36619.95817660787,-25639.3507885159,21288.002584934544,4477.657911498298,16864.748819440465,51164.17123844281,0.0,0.0,0.0,193.0,0.0,193.0,0.0,13.0,0.0,179.0,193.0,13.0,179.0,1744418542.2984836,0.0,2025-04-11 20:42:22.298,FORWARD,2
204.0,-2399.8397469329534,-22600.273501905624,-36636.63257797153,-25597.463619406655,21108.94276010308,4696.481489715754,16631.15073813805,51240.547149246595,0.0,0.0,0.0,193.0,0.0,193.0,0.0,13.0,0.0,179.0,193.0,13.0,179.0,1744418542.2985353,0.0,2025-04-11 20:42:22.298,FORWARD,2
205.0,-2369.597836684923,-22582.436809830288,-36601.36152522106,-25584.790180300497,21163.704534018583,4828.66970642444,16413.780023310188,51323.58387989806,0.0,0.0,0.0,193.0,0.0,193.0,0.0,13.0,0.0,179.0,193.0,13.0,179.0,1744418542.298568,0.0,2025-04-11 20:42:22.298,FORWARD,2
206.0,-2383.2547525471155,-22623.899295794883,-36586.00587678026,-25624.620988919854,21388.876007661343,4708.953763121815,16745.5022627714,51327.115455522,0.0,0.0,0.0,193.0,0.0,193.0,0.0,14.0,0.0,179.0,193.0,14.0,179.0,1744418542.2985995,0.0,2025-04-11 20:42:22.298,FORWARD,2
207.0,-2392.3295607959703,-22635.81277558956,-36610.14576079199,-25638.16614605977,21335.902373302266,4517.779292795574,16926.283171925923,51217.61425943545,0.0,0.0,0.0,193.0,0.0,192.0,0.0,14.0,0.0,178.0,192.0,14.0,178.0,1744418542.2986312,0.0,2025-04-11 20:42:22.298,FORWARD,2
208.0,-2404.198337101738,-22633.175269743835,-36632.229284313835,-25612.126363769337,21205.077613005356,4684.389195965433,16735.399274277603,51269.984396694235,0.0,0.0,0.0,193.0,0.0,192.0,0.0,14.0,0.0,178.0,192.0,14.0,178.0,1744418542.298663,0.0,2025-04-11 20:42:22.298,FORWARD,2
209.0,-2376.526877466068,-22607.068432220036,-36606.502426445775,-25592.21095945966,21173.516949834462,4833.184758804412,16488.524256768735,51373.11534561102,0.0,0.0,0.0,193.0,0.0,192.0,0.0,14.0,0.0,178.0,192.0,14.0,178.0,1744418542.298695,0.0,2025-04-11 20:42:22.298,FORWARD,2
210.0,-2377.175078055272,-22629.263714464156,-36579.21094646584,-25616.35084347139,21357.203585768177,4747.532874051675,16793.7149755615,51403.51371807024,0.0,0.0,0.0,193.0,0.0,192.0,0.0,14.0,0.0,178.0,192.0,14.0,178.0,1744418542.2987273,0.0,2025-04-11 20:42:22.298,FORWARD,2
211.0,-2385.020540359085,-22641.4454151923,-36601.07095254314,-25638.434366993235,21373.47565573164,4513.51010960461,17165.379782364344,51300.62863834246,0.0,0.0,0.0,193.0,0.0,192.0,0.0,14.0,0.0,178.0,192.0,14.0,178.0,1744418542.2987592,0.0,2025-04-11 20:42:22.298,FORWARD,2
212.0,-2399.593877743945,-22632.1917929878,-36641.594665240606,-25624.755099386588,21207.558656639892,4663.199742221802,17186.97156750817,51326.37784795497,0.0,0.0,0.0,193.0,0.0,192.0,0.0,15.0,0.0,178.0,192.0,15.0,178.0,1744418542.298791,0.0,2025-04-11 20:42:22.298,FORWARD,2
213.0,-2378.538534467046,-22593.456219846754,-36621.947481864394,-25598.089468251404,21119.984521864,4869.573398777652,17083.66180463574,51445.62440462404,0.0,0.0,0.0,193.0,0.0,192.0,0.0,15.0,0.0,178.0,192.0,15.0,178.0,1744418542.2988236,0.0,2025-04-11 20:42:22.298,FORWARD,2
214.0,-2381.37720601287,-22614.086879979,-36579.70268484386,-25615.32266322645,21294.797515248956,4800.394749688477,17392.317043819075,51479.71081491838,0.0,0.0,0.0,193.0,0.0,192.0,0.0,15.0,0.0,179.0,192.0,15.0,179.0,1744418542.298856,0.0,2025-04-11 20:42:22.298,FORWARD,2
215.0,-2398.275124821082,-22646.80983386157,-36606.16715027895,-25660.830814937453,21340.059797770955,4565.634377674386,17854.81934008829,51403.60312504806,0.0,0.0,0.0,193.0,0.0,193.0,0.0,15.0,0.0,179.0,193.0,15.0,179.0,1744418542.2989032,0.0,2025-04-11 20:42:22.298,FORWARD,2
216.0,-2397.336351553959,-22630.403653431375,-36639.426546028444,-25637.137965814825,21160.150606650186,4596.837412933995,17848.29263070734,51370.41078453193,0.0,0.0,0.0,193.0,0.0,193.0,0.0,15.0,0.0,179.0,193.0,15.0,179.0,1744418542.2989411,0.0,2025-04-11 20:42:22.298,FORWARD,2
217.0,-2364.9710255826744,-22585.074315676015,-36610.391629981,-25596.72601183963,21152.61806876875,4809.335447470599,17621.24361053033,51489.67969294545,0.0,0.0,0.0,193.0,0.0,192.0,0.0,15.0,0.0,178.0,192.0,15.0,178.0,1744418542.2989736,0.0,2025-04-11 20:42:22.298,FORWARD,2
218.0,-2349.3248044639595,-22585.119019164922,-36560.2790189122,-25597.463619406655,21335.03065526851,4773.617359831019,17722.98875129089,51529.46579807589,0.0,0.0,0.0,193.0,0.0,192.0,0.0,15.0,0.0,178.0,192.0,15.0,178.0,1744418542.2990055,0.0,2025-04-11 20:42:22.299,FORWARD,2
219.0,-2371.497734963624,-22614.779784057115,-36588.21869948134,-25650.325495043457,21425.62227554587,4573.569246956021,18180.037221913008,51472.290035759215,0.0,0.0,0.0,193.0,0.0,192.0,0.0,15.0,0.0,178.0,192.0,15.0,178.0,1744418542.299052,0.0,2025-04-11 20:42:22.299,FORWARD,2
220.0,-2373.1964675422273,-22608.00720548716,-36627.42365925595,-25652.113634599882,21296.809172249934,4489.973722693172,18186.87685571633,51381.899581181955,0.0,0.0,0.0,193.0,0.0,192.0,0.0,15.0,0.0,178.0,192.0,15.0,178.0,1744418542.2990844,0.0,2025-04-11 20:42:22.299,FORWARD,2
221.0,-2350.732964364644,-22580.98394644069,-36626.26136854427,-25601.598692130887,21163.883347974224,4770.510467351731,17962.46534138505,51498.776852938754,0.0,0.0,0.0,193.0,0.0,192.0,0.0,15.0,0.0,179.0,192.0,15.0,179.0,1744418542.299116,0.0,2025-04-11 20:42:22.299,FORWARD,2
222.0,-2339.467685159169,-22581.453333074252,-36573.95828651885,-25588.5899768579,21283.487532554573,4830.971936103337,17936.805538750355,51551.214045430905,0.0,0.0,0.0,193.0,0.0,193.0,0.0,15.0,0.0,179.0,193.0,15.0,179.0,1744418542.299148,0.0,2025-04-11 20:42:22.299,FORWARD,2
223.0,-2362.1323540368503,-22620.27831319312,-36576.774606320214,-25635.327474513946,21430.070272692476,4660.182256720335,18381.269977244137,51519.34045783764,0.0,0.0,0.0,193.0,0.0,193.0,0.0,16.0,0.0,179.0,193.0,16.0,179.0,1744418542.2991798,0.0,2025-04-11 20:42:22.299,FORWARD,2
224.0,-2358.265502246082,-22592.293929135078,-36599.59573740909,-25621.558799929477,21317.037500981987,4554.682022891286,18432.41076855788,51409.593392562085,0.0,0.0,0.0,193.0,0.0,193.0,0.0,16.0,0.0,179.0,193.0,16.0,179.0,1744418542.299212,0.0,2025-04-11 20:42:22.299,FORWARD,2
225.0,-2356.7679353675767,-22561.448521786755,-36623.847380143096,-25598.603558373878,21142.47037678604,4794.404482174455,18209.608579827378,51512.12084437857,0.0,0.0,0.0,193.0,0.0,193.0,0.0,16.0,0.0,179.0,193.0,16.0,179.0,1744418542.2992437,0.0,2025-04-11 20:42:22.299,FORWARD,2
226.0,-2337.9030630472976,-22556.41937928431,-36581.3343621891,-25588.142941968792,21205.77051708347,4839.264433296255,18078.493246852548,51579.28783646677,0.0,0.0,0.0,193.0,0.0,193.0,0.0,16.0,0.0,179.0,193.0,16.0,179.0,1744418542.2992754,0.0,2025-04-11 20:42:22.299,FORWARD,2
227.0,-2352.789324854532,-22604.587388585496,-36563.67648406941,-25622.989311574616,21415.742804496625,4680.1870680078355,18474.767324300687,51562.7698973143,0.0,0.0,0.0,193.0,0.0,192.0,0.0,16.0,0.0,178.0,192.0,16.0,178.0,1744418542.299307,0.0,2025-04-11 20:42:22.299,FORWARD,2
228.0,-2372.3471012529258,-22631.722406354238,-36615.644289927994,-25647.084492097438,21313.66238756924,4483.581123778954,18596.517276348743,51431.94513701739,0.0,0.0,0.0,193.0,0.0,192.0,0.0,16.0,0.0,178.0,192.0,16.0,178.0,1744418542.2993393,0.0,2025-04-11 20:42:22.299,FORWARD,2
229.0,-2353.9963190551184,-22585.81192324304,-36622.863903387064,-25606.20315148868,21187.263272674474,4685.886762843938,18384.01924181214,51496.49697500432,0.0,0.0,0.0,193.0,0.0,192.0,0.0,16.0,0.0,178.0,192.0,16.0,178.0,1744418542.2993708,0.0,2025-04-11 20:42:22.299,FORWARD,2
230.0,-2324.670830329756,-22551.03260887058,-36578.16041447645,-25575.424799373723,21192.71709832157,4818.991401075292,18167.49789327358,51577.231475976885,0.0,0.0,0.0,193.0,0.0,192.0,0.0,16.0,0.0,178.0,192.0,16.0,178.0,1744418542.29951,0.0,2025-04-11 20:42:22.299,FORWARD,2
231.0,-2344.0274410280517,-22596.47370534822,-36555.831021765596,-25616.30613998248,21401.281225834042,4714.362885279999,18499.6671676239,51586.90978132603,0.0,0.0,0.0,193.0,0.0,193.0,0.0,16.0,0.0,179.0,193.0,16.0,179.0,1744418542.2995431,0.0,2025-04-11 20:42:22.299,FORWARD,2
232.0,-2353.057545787996,-22612.164629955845,-36592.018496038734,-25638.635532693334,21373.341545264906,4507.586897323954,18696.049594408225,51453.40281169448,0.0,0.0,0.0,193.0,0.0,193.0,0.0,16.0,0.0,179.0,193.0,16.0,179.0,1744418542.2995749,0.0,2025-04-11 20:42:22.299,FORWARD,2
233.0,-2344.7650485950767,-22590.550493067563,-36614.07966781613,-25602.604520631376,21225.998845815524,4663.445611410811,18515.15692653143,51477.20741953939,0.0,0.0,0.0,193.0,0.0,192.0,0.0,16.0,0.0,178.0,192.0,16.0,178.0,1744418542.2996063,0.0,2025-04-11 20:42:22.299,FORWARD,2
234.0,-2321.5862895949235,-22558.587498496476,-36583.74835059027,-25578.889319764297,21194.594644855817,4798.316037454133,18247.494786679126,51573.54343814176,0.0,0.0,0.0,193.0,0.0,192.0,0.0,16.0,0.0,178.0,192.0,16.0,178.0,1744418542.2996552,0.0,2025-04-11 20:42:22.299,FORWARD,2
235.0,-2348.4083829412916,-22601.2346269172,-36558.71439680033,-25606.001985788585,21401.37063281186,4745.789437984162,18498.90720831242,51597.370397731116,0.0,0.0,0.0,193.0,0.0,192.0,0.0,16.0,0.0,178.0,192.0,16.0,178.0,1744418542.2996871,0.0,2025-04-11 20:42:22.299,FORWARD,2
236.0,-2361.0594703029956,-22619.451298648277,-36594.63365014001,-25634.03107333554,21385.27737680404,4543.036764030071,18790.306900776257,51483.063576586675,0.0,0.0,0.0,193.0,0.0,192.0,0.0,16.0,0.0,178.0,192.0,16.0,178.0,1744418542.2997189,0.0,2025-04-11 20:42:22.299,FORWARD,2
237.0,-2345.3908974398255,-22588.42707734431,-36608.111752046556,-25592.747401326586,21230.715063895594,4657.053012496593,18655.659992177487,51470.412489224975,0.0,0.0,0.0,193.0,0.0,192.0,0.0,16.0,0.0,179.0,192.0,16.0,179.0,1744418542.2997503,0.0,2025-04-11 20:42:22.299,FORWARD,2
238.0,-2325.2072721966833,-22561.001486897647,-36594.76776060674,-25573.569604583932,21140.726940718527,4818.85729060856,18379.593596409988,51584.987531302875,0.0,0.0,0.0,193.0,0.0,192.0,0.0,16.0,0.0,179.0,192.0,16.0,179.0,1744418542.2997816,0.0,2025-04-11 20:42:22.299,FORWARD,2
239.0,-2328.2918129315153,-22575.127789393402,-36553.10410894205,-25582.487950621602,21332.32609418942,4750.125676408491,18511.938275329863,51607.89806936956,0.0,0.0,0.0,193.0,0.0,192.0,0.0,16.0,0.0,178.0,192.0,16.0,178.0,1744418542.2998135,0.0,2025-04-11 20:42:22.299,FORWARD,2
240.0,-2342.596929382912,-22603.76037404065,-36565.41992013692,-25621.581151673934,21442.52019435408,4551.977461812194,18864.11236096768,51508.87984143256,0.0,0.0,0.0,193.0,0.0,193.0,0.0,16.0,0.0,179.0,193.0,16.0,179.0,1744418542.299846,0.0,2025-04-11 20:42:22.299,FORWARD,2
241.0,-2327.1295222198396,-22572.04324865857,-36582.384894178496,-25589.14877046928,21314.131774202797,4591.584752986998,18764.49063593038,51434.694401585395,0.0,0.0,0.0,193.0,0.0,193.0,0.0,16.0,0.0,179.0,193.0,16.0,179.0,1744418542.2998781,0.0,2025-04-11 20:42:22.299,FORWARD,2
242.0,-2306.051827198485,-22533.26297202861,-36574.74059757478,-25557.006961942552,21196.67335709016,4841.589014719608,18487.440763406845,51546.98956572886,0.0,0.0,0.0,193.0,0.0,192.0,0.0,16.0,0.0,178.0,192.0,16.0,178.0,1744418542.2999108,0.0,2025-04-11 20:42:22.299,FORWARD,2
243.0,-2305.850661498387,-22551.725512948695,-36540.34126285807,-25568.80868301495,21317.015149237533,4823.327639499622,18516.788603876663,51594.777595374304,0.0,0.0,0.0,193.0,0.0,192.0,0.0,16.0,0.0,178.0,192.0,16.0,178.0,1744418542.2999427,0.0,2025-04-11 20:42:22.299,FORWARD,2
244.0,-2337.344269435915,-22604.743850796684,-36569.06325448314,-25628.867820366362,21449.09160722394,4630.4097331058665,18932.55340248983,51553.605682087626,0.0,0.0,0.0,193.0,0.0,192.0,0.0,17.0,0.0,178.0,192.0,17.0,178.0,1744418542.299975,0.0,2025-04-11 20:42:22.299,FORWARD,2
245.0,-2328.0682954869626,-22576.08891440498,-36586.5870221361,-25603.744459598598,21332.057873255955,4571.982273099694,18901.149201530123,51459.303672230686,0.0,0.0,0.0,193.0,0.0,192.0,0.0,17.0,0.0,178.0,192.0,17.0,178.0,1744418542.300072,0.0,2025-04-11 20:42:22.300,FORWARD,2
246.0,-2293.3336846034153,-22535.878126129883,-36578.115710987535,-25559.711523021644,21231.20680227361,4785.329673925599,18616.05270100268,51548.19655992944,0.0,0.0,0.0,193.0,0.0,192.0,0.0,17.0,0.0,178.0,192.0,17.0,178.0,1744418542.300108,0.0,2025-04-11 20:42:22.300,FORWARD,2
247.0,-2288.729225245622,-22536.59338195245,-36543.582265804085,-25560.918517222228,21334.65067561277,4804.529822412708,18539.58738322108,51607.11575831363,0.0,0.0,0.0,193.0,0.0,192.0,0.0,17.0,0.0,178.0,192.0,17.0,178.0,1744418542.30014,0.0,2025-04-11 20:42:22.300,FORWARD,2
248.0,-2325.3190309189595,-22580.3804493404,-36548.61140830653,-25607.320738711445,21486.30726174203,4658.5282276306425,18944.08690262877,51576.96325504342,0.0,0.0,0.0,193.0,0.0,193.0,0.0,17.0,0.0,179.0,193.0,17.0,179.0,1744418542.3001723,0.0,2025-04-11 20:42:22.300,FORWARD,2
249.0,-2326.6154320973674,-22574.03255391509,-36570.784338806196,-25593.149732726783,21369.541748707503,4540.935700051272,18979.42501061261,51449.62536688154,0.0,0.0,0.0,193.0,0.0,193.0,0.0,17.0,0.0,179.0,193.0,17.0,179.0,1744418542.3002212,0.0,2025-04-11 20:42:22.300,FORWARD,2
250.0,-2305.7836062650213,-22538.98501860917,-36575.8358330531,-25545.942848437175,21239.20872678861,4780.725214567807,18730.4712808694,51537.445370846435,0.0,0.0,0.0,193.0,0.0,193.0,0.0,17.0,0.0,179.0,193.0,17.0,179.0,1744418542.300253,0.0,2025-04-11 20:42:22.300,FORWARD,2
251.0,-2280.436728052703,-22517.70615788772,-36533.38987033247,-25521.870019658807,21297.03268969449,4873.753174990795,18556.68646772939,51609.797967648265,0.0,0.0,0.0,193.0,0.0,193.0,0.0,17.0,0.0,179.0,193.0,17.0,179.0,1744418542.3002849,0.0,2025-04-11 20:42:22.300,FORWARD,2
252.0,-2309.762216778066,-22569.808074213037,-36531.60173077604,-25575.849482518373,21486.195503019753,4729.025629642681,18939.3706845487,51605.66289492403,0.0,0.0,0.0,193.0,0.0,193.0,0.0,17.0,0.0,179.0,193.0,17.0,179.0,1744418542.3003168,0.0,2025-04-11 20:42:22.300,FORWARD,2
253.0,-2312.6455918128004,-22572.087952147478,-36569.443234138875,-25595.071982749938,21399.224865344153,4522.897842275839,19054.549223726895,51461.15886702047,0.0,0.0,0.0,193.0,0.0,192.0,0.0,17.0,0.0,178.0,192.0,17.0,178.0,1744418542.300349,0.0,2025-04-11 20:42:22.300,FORWARD,2
254.0,-2296.9099637162644,-22535.945181363248,-36584.687123857395,-25555.68820901969,21253.692657195646,4712.775911423673,18838.474910077442,51517.14998688102,0.0,0.0,0.0,193.0,0.0,193.0,0.0,17.0,0.0,179.0,193.0,17.0,179.0,1744418542.3003805,0.0,2025-04-11 20:42:22.300,FORWARD,2
255.0,-2266.8468674238766,-22510.12891651737,-36546.62210305001,-25530.85542092984,21250.451654249628,4835.2411192943,18611.761166067263,51616.63760145159,0.0,0.0,0.0,193.0,0.0,193.0,0.0,17.0,0.0,179.0,193.0,17.0,179.0,1744418542.300412,0.0,2025-04-11 20:42:22.300,FORWARD,2
0.0,-2283.1636408762506,-22551.904326904336,-36520.872893437496,-25571.06620920494,21473.7679331026,4729.986754654259,18906.133640543656,51618.87277589712,0.0,0.0,0.0,193.0,0.0,193.0,0.0,17.0,0.0,179.0,193.0,17.0,179.0,1744418542.300444,0.0,2025-04-11 20:42:22.300,FORWARD,2
1.0,-2291.187917135706,-22551.256126315133,-36539.98363494678,-25585.840712289897,21455.417150904796,4529.759827823618,19099.87856148226,51480.47077422986,0.0,0.0,0.0,193.0,0.0,192.0,0.0,17.0,0.0,178.0,192.0,17.0,178.0,1744418542.3004751,0.0,2025-04-11 20:42:22.300,FORWARD,2
2.0,-2299.793338750999,-22535.520498218597,-36577.66867609843,-25567.221709158624,21289.522503557506,4684.232733754246,18927.88188789867,51505.638838486535,0.0,0.0,0.0,193.0,0.0,192.0,0.0,17.0,0.0,178.0,192.0,17.0,178.0,1744418542.3005114,0.0,2025-04-11 20:42:22.300,FORWARD,2
3.0,-2276.3687105618374,-22508.07255602748,-36555.47339385431,-25532.934133164184,21249.646991449237,4852.809590436172,18651.97195434236,51596.69984539746,0.0,0.0,0.0,193.0,0.0,192.0,0.0,17.0,0.0,178.0,192.0,17.0,178.0,1744418542.3005433,0.0,2025-04-11 20:42:22.300,FORWARD,2
4.0,-2280.0120449080523,-22533.955876106727,-36517.006041646724,-25549.206203127647,21481.188712261763,4780.054662234147,18855.618698074664,51611.65316243806,0.0,0.0,0.0,193.0,0.0,192.0,0.0,17.0,0.0,178.0,192.0,17.0,178.0,1744418542.3007984,0.0,2025-04-11 20:42:22.300,FORWARD,2
5.0,-2297.6922747722,-22559.928603163793,-36555.47339385431,-25596.234273461614,21512.704671943746,4548.4235344438,19145.811396337915,51495.37938778155,0.0,0.0,0.0,193.0,0.0,192.0,0.0,17.0,0.0,178.0,192.0,17.0,178.0,1744418542.300832,0.0,2025-04-11 20:42:22.300,FORWARD,2
6.0,-2297.5805160499235,-22518.68963464375,-36586.27409771372,-25577.145883696783,21354.9907630671,4621.804311490573,18998.93808352209,51456.353241962584,0.0,0.0,0.0,193.0,0.0,193.0,0.0,17.0,0.0,179.0,193.0,17.0,179.0,1744418542.3008635,0.0,2025-04-11 20:42:22.300,FORWARD,2
7.0,-2264.768155189533,-22490.526436630065,-36561.486013112786,-25532.174173852705,21260.44288402115,4829.653183180473,18694.663786251996,51561.071164735695,0.0,0.0,0.0,193.0,0.0,193.0,0.0,17.0,0.0,179.0,193.0,17.0,179.0,1744418542.3008952,0.0,2025-04-11 20:42:22.300,FORWARD,2
8.0,-2271.719547715133,-22532.83828888396,-36527.19843711835,-25551.3296188509,21429.15385116981,4782.111022724035,18789.14461006458,51582.93117081299,0.0,0.0,0.0,193.0,0.0,193.0,0.0,17.0,0.0,179.0,193.0,17.0,179.0,1744418542.3009443,0.0,2025-04-11 20:42:22.300,FORWARD,2
9.0,-2287.321065344938,-22559.973306652704,-36550.488954840774,-25588.76879081354,21490.35292748844,4574.686834178786,19149.141806261756,51494.35120753661,0.0,0.0,0.0,193.0,0.0,192.0,0.0,17.0,0.0,178.0,192.0,17.0,178.0,1744418542.3009765,0.0,2025-04-11 20:42:22.300,FORWARD,2
10.0,-2273.217114593639,-22528.099719059435,-36559.13907994498,-25541.91953443522,21369.787617896513,4591.830622176007,19062.573499986353,51417.2376891658,0.0,0.0,0.0,193.0,0.0,192.0,0.0,17.0,0.0,178.0,192.0,17.0,178.0,1744418542.3010077,0.0,2025-04-11 20:42:22.301,FORWARD,2
11.0,-2260.253102809561,-22498.21543672269,-36563.788242791685,-25516.773821922998,21273.675116738694,4834.548215216186,18781.679127416508,51533.42205684448,0.0,0.0,0.0,193.0,0.0,192.0,0.0,17.0,0.0,178.0,192.0,17.0,178.0,1744418542.3010397,0.0,2025-04-11 20:42:22.301,FORWARD,2
12.0,-2249.1666375597283,-22499.69065185674,-36529.47831505279,-25535.884563432286,21385.545597737506,4818.790235375194,18762.724848118407,51566.10030723814,0.0,0.0,0.0,193.0,0.0,193.0,0.0,17.0,0.0,179.0,193.0,17.0,179.0,1744418542.3010712,0.0,2025-04-11 20:42:22.301,FORWARD,2
13.0,-2260.7895446764883,-22524.344625990943,-36553.797013020165,-25602.604520631376,21502.892256127867,4600.368988557933,19154.305059230934,51507.76225420979,0.0,0.0,0.0,193.0,0.0,192.0,0.0,17.0,0.0,179.0,192.0,17.0,179.0,1744418542.301103,0.0,2025-04-11 20:42:22.301,FORWARD,2
14.0,-2264.522286000524,-22525.46221321371,-36571.901926028964,-25571.088560949393,21378.057763344976,4509.352685135923,19127.572372862385,51396.27175286672,0.0,0.0,0.0,193.0,0.0,193.0,0.0,17.0,0.0,179.0,193.0,17.0,179.0,1744418542.3011348,0.0,2025-04-11 20:42:22.301,FORWARD,2
15.0,-2272.859486682354,-22520.343663733445,-36577.825138309614,-25530.520144763013,21255.30198279643,4762.508542836731,18865.498169123908,51510.66798098898,0.0,0.0,0.0,193.0,0.0,193.0,0.0,17.0,0.0,178.0,193.0,17.0,178.0,1744418542.3011665,0.0,2025-04-11 20:42:22.301,FORWARD,2
16.0,-2266.7127569571444,-22516.365053220397,-36529.813591219616,-25515.298606788947,21368.737085907112,4816.800930118672,18762.36722020712,51574.16928698651,0.0,0.0,0.0,193.0,0.0,193.0,0.0,17.0,0.0,179.0,193.0,17.0,179.0,1744418542.3011985,0.0,2025-04-11 20:42:22.301,FORWARD,2
17.0,-2314.366676135859,-22575.351306837954,-36541.79412624766,-25568.42870335921,21543.706541503256,4660.361070675978,19178.020260098012,51552.35398439813,0.0,0.0,0.0,193.0,0.0,193.0,0.0,17.0,0.0,178.0,193.0,17.0,178.0,1744418542.301231,0.0,2025-04-11 20:42:22.301,FORWARD,2
18.0,-2315.5289668475352,-22572.646745758862,-36568.057425982646,-25561.25379338906,21432.730130282656,4528.306964434024,19239.889888750302,51410.442758851386,0.0,0.0,0.0,193.0,0.0,193.0,0.0,17.0,0.0,178.0,193.0,17.0,178.0,1744418542.3012624,0.0,2025-04-11 20:42:22.301,FORWARD,2
19.0,-2299.726283517633,-22531.69834991674,-36576.41697840893,-25518.696071946153,21292.74115475907,4758.172304412402,19005.822420814326,51477.02860558374,0.0,0.0,0.0,193.0,0.0,192.0,0.0,17.0,0.0,178.0,192.0,17.0,178.0,1744418542.301294,0.0,2025-04-11 20:42:22.301,FORWARD,2
20.0,-2279.9449896746864,-22499.802410579017,-36534.39569883295,-25499.56297869241,21319.093861471876,4827.306250012666,18817.888953434107,51548.0177459738,0.0,0.0,0.0,193.0,0.0,192.0,0.0,17.0,0.0,178.0,192.0,17.0,178.0,1744418542.3013406,0.0,2025-04-11 20:42:22.301,FORWARD,2
21.0,-2308.3540568773815,-22553.357190293933,-36518.52596026969,-25536.845688443864,21532.664779742336,4708.462024743799,19169.347783249355,51526.87299571908,0.0,0.0,0.0,193.0,0.0,192.0,0.0,17.0,0.0,178.0,192.0,17.0,178.0,1744418542.301378,0.0,2025-04-11 20:42:22.301,FORWARD,2
22.0,-2331.89044378882,-22599.625301316417,-36557.59680957756,-25559.599764299368,21474.01380229161,4536.867682560406,19315.617598964884,51381.92193292641,0.0,0.0,0.0,193.0,0.0,192.0,0.0,17.0,0.0,178.0,192.0,17.0,178.0,1744418542.7769024,0.0,2025-04-11 20:42:22.776,FORWARD,2
23.0,-2334.4832461456353,-22587.868283732925,-36587.30227795867,-25536.75628146604,21335.924725046723,4722.5659754950975,19117.715253557595,51427.74300905979,0.0,0.0,0.0,193.0,0.0,192.0,0.0,17.0,0.0,179.0,192.0,17.0,179.0,1744418542.7770643,0.0,2025-04-11 20:42:22.777,FORWARD,2
24.0,-2300.7097602736667,-22543.075387844492,-36547.13619317248,-25507.475496229592,21327.69928308717,4855.603558493085,18870.080276737248,51518.088760148145,0.0,0.0,0.0,193.0,0.0,193.0,0.0,17.0,0.0,179.0,193.0,17.0,179.0,1744418542.777106,0.0,2025-04-11 20:42:22.777,FORWARD,2
25.0,-2309.8069202669767,-22565.78476021108,-36516.98368990227,-25531.19069709667,21535.704616988256,4756.808848000628,19154.640335397762,51526.42596082997,0.0,0.0,0.0,193.0,0.0,193.0,0.0,17.0,0.0,179.0,193.0,17.0,179.0,1744418542.7771456,0.0,2025-04-11 20:42:22.777,FORWARD,2
26.0,-2333.0527345004957,-22599.491190849687,-36567.18570794889,-25570.082732448904,21493.124543800895,4545.271938475602,19403.303492463052,51403.46901458133,0.0,0.0,0.0,193.0,0.0,193.0,0.0,17.0,0.0,179.0,193.0,17.0,179.0,1744418542.7771947,0.0,2025-04-11 20:42:22.777,FORWARD,2
27.0,-2335.17615022375,-22577.89940570586,-36596.62295539653,-25548.021560671517,21310.331977645397,4671.514591159176,19240.448682361686,51400.429177335405,0.0,0.0,0.0,193.0,0.0,192.0,0.0,17.0,0.0,179.0,192.0,17.0,179.0,1744418542.777234,0.0,2025-04-11 20:42:22.777,FORWARD,2
28.0,-2301.380312607326,-22535.051111585035,-36570.04673123917,-25512.057603842928,21226.758805127003,4847.825151422639,18953.876966700194,51498.642742472024,0.0,0.0,0.0,193.0,0.0,192.0,0.0,17.0,0.0,178.0,192.0,17.0,178.0,1744418542.7772727,0.0,2025-04-11 20:42:22.777,FORWARD,2
29.0,-2289.0868531569067,-22538.001541853137,-36519.241216092254,-25524.82044992691,21458.077008494976,4759.625167801996,19109.132183686757,51505.14710010852,0.0,0.0,0.0,193.0,0.0,192.0,0.0,17.0,0.0,178.0,192.0,17.0,178.0,1744418542.777311,0.0,2025-04-11 20:42:22.777,FORWARD,2
30.0,-2304.4201498532475,-22547.94806813575,-36544.18576290438,-25568.316944636936,21523.92524766031,4529.536310379066,19411.975969311712,51397.210526133844,0.0,0.0,0.0,193.0,0.0,192.0,0.0,17.0,0.0,178.0,192.0,17.0,178.0,1744418542.7773497,0.0,2025-04-11 20:42:22.777,FORWARD,2
31.0,-2318.233527926627,-22555.391199039364,-36578.31687668763,-25543.95354318065,21389.166580339264,4619.3903230894,19294.942235343726,51361.06775534961,0.0,0.0,0.0,193.0,0.0,192.0,0.0,17.0,0.0,179.0,192.0,17.0,179.0,1744418542.7773883,0.0,2025-04-11 20:42:22.777,FORWARD,2
32.0,-2286.7399199890997,-22533.330027261978,-36550.578361818596,-25493.773876878487,21301.346576374362,4853.658956725473,18993.90894101965,51466.7468031343,0.0,0.0,0.0,193.0,0.0,193.0,0.0,17.0,0.0,179.0,193.0,17.0,179.0,1744418542.7774272,0.0,2025-04-11 20:42:22.777,FORWARD,2
33.0,-2276.793393706488,-22547.07635010199,-36507.88652990896,-25495.450257712637,21450.499767124627,4821.4724447098315,19050.861185891772,51491.06550110168,0.0,0.0,0.0,193.0,0.0,193.0,0.0,17.0,0.0,179.0,193.0,17.0,179.0,1744418542.777466,0.0,2025-04-11 20:42:22.777,FORWARD,2
34.0,-2289.466832812647,-22575.84304521597,-36529.746535986254,-25543.506508291546,21535.995189666177,4590.62362797542,19420.916667093836,51405.16774715993,0.0,0.0,0.0,193.0,0.0,193.0,0.0,17.0,0.0,179.0,193.0,17.0,179.0,1744418542.7775044,0.0,2025-04-11 20:42:22.777,FORWARD,2
35.0,-2288.505707801069,-22566.36590556692,-36565.24110618128,-25534.185830853683,21387.959586138677,4563.354499739945,19351.760369749114,51314.62083037148,0.0,0.0,0.0,193.0,0.0,193.0,0.0,17.0,0.0,179.0,193.0,17.0,179.0,1744418542.777563,0.0,2025-04-11 20:42:22.777,FORWARD,2
36.0,-2273.7759082050216,-22524.67990215777,-36567.18570794889,-25514.09161258836,21273.451599294138,4800.841784577583,19060.517139496464,51415.3377908871,0.0,0.0,0.0,193.0,0.0,193.0,0.0,17.0,0.0,179.0,193.0,17.0,179.0,1744418542.7776022,0.0,2025-04-11 20:42:22.777,FORWARD,2
37.0,-2266.7127569571444,-22505.79267809304,-36522.951605671835,-25504.413307239214,21426.941028468733,4811.771787616228,19011.410356928154,51459.638948397514,0.0,0.0,0.0,193.0,0.0,193.0,0.0,17.0,0.0,178.0,193.0,17.0,178.0,1744418542.777641,0.0,2025-04-11 20:42:22.777,FORWARD,2
38.0,-2300.1956701511945,-22561.51557702012,-36536.69792851185,-25554.414159585736,21583.93968152281,4636.914090742361,19415.753414124658,51424.72552355832,0.0,0.0,0.0,193.0,0.0,192.0,0.0,17.0,0.0,178.0,192.0,17.0,178.0,1744418542.7776792,0.0,2025-04-11 20:42:22.777,FORWARD,2
39.0,-2307.88467024382,-22566.924699178304,-36575.05352199716,-25541.04781640146,21434.026531461066,4546.009546042627,19413.451184445763,51311.9609727813,0.0,0.0,0.0,193.0,0.0,193.0,0.0,17.0,0.0,179.0,193.0,17.0,179.0,1744418542.7777345,0.0,2025-04-11 20:42:22.777,FORWARD,2
40.0,-2295.12182415984,-22532.659474928318,-36584.03892326819,-25501.060545570916,21248.23883154855,4766.107173694036,19152.025181296493,51412.677933296916,0.0,0.0,0.0,193.0,0.0,193.0,0.0,17.0,0.0,179.0,193.0,17.0,179.0,1744418542.777792,0.0,2025-04-11 20:42:22.777,FORWARD,2
41.0,-2263.270588311027,-22507.960797305204,-36521.074059137594,-25476.674792370177,21370.636984185814,4818.81258711965,19008.2364092155,51467.66322465697,0.0,0.0,0.0,193.0,0.0,193.0,0.0,17.0,0.0,179.0,193.0,17.0,179.0,1744418542.777825,0.0,2025-04-11 20:42:22.777,FORWARD,2
42.0,-2286.7175682446446,-22549.75855943663,-36524.002137661235,-25536.465708788124,21587.18068446883,4662.104506743492,19393.759297580636,51439.723544087836,0.0,0.0,0.0,193.0,0.0,193.0,0.0,17.0,0.0,179.0,193.0,17.0,179.0,1744418542.7778573,0.0,2025-04-11 20:42:22.777,FORWARD,2
43.0,-2292.730187503122,-22545.064693101012,-36572.170146962424,-25551.284915361994,21424.86231623439,4507.2069176682135,19475.85725496498,51302.03679824314,0.0,0.0,0.0,193.0,0.0,193.0,0.0,17.0,0.0,179.0,193.0,17.0,179.0,1744418542.7778893,0.0,2025-04-11 20:42:22.777,FORWARD,2
44.0,-2284.057710654463,-22519.69546314424,-36581.133196489005,-25515.119792833306,21315.003492236556,4739.374487325488,19249.90347026628,51381.58665675958,0.0,0.0,0.0,193.0,0.0,193.0,0.0,17.0,0.0,179.0,193.0,17.0,179.0,1744418542.7779207,0.0,2025-04-11 20:42:22.777,FORWARD,2
45.0,-2258.3979080197705,-22491.152285474815,-36527.936044685375,-25489.52704543198,21419.073214420463,4840.717296685851,19048.33543876832,51471.395965981006,0.0,0.0,0.0,193.0,0.0,193.0,0.0,17.0,0.0,179.0,193.0,17.0,179.0,1744418542.7779524,0.0,2025-04-11 20:42:22.777,FORWARD,2
46.0,-2287.3881205783036,-22545.55643147903,-36521.7222597268,-25529.29079881797,21610.89588533591,4735.529987279176,19392.529951635595,51469.429012468936,0.0,0.0,0.0,193.0,0.0,193.0,0.0,17.0,0.0,179.0,193.0,17.0,179.0,1744418542.777984,0.0,2025-04-11 20:42:22.777,FORWARD,2
47.0,-2301.603830051879,-22572.311469592034,-36562.84946952456,-25555.24117413058,21525.55692500555,4522.271993431091,19567.275889787186,51338.80541787212,0.0,0.0,0.0,193.0,0.0,193.0,0.0,17.0,0.0,178.0,193.0,17.0,178.0,1744418542.7780159,0.0,2025-04-11 20:42:22.778,FORWARD,2
48.0,-2286.3599403333596,-22525.193992280245,-36580.99908602227,-25516.080917844884,21368.33475450692,4702.069425829581,19362.265689643107,51365.046365862654,0.0,0.0,0.0,193.0,0.0,192.0,0.0,17.0,0.0,178.0,192.0,17.0,178.0,1744418542.778047,0.0,2025-04-11 20:42:22.778,FORWARD,2
49.0,-2252.0723643389183,-22503.222227480677,-36548.03026295069,-25488.52121693149,21342.630248383313,4850.216788079356,19083.2041601186,51445.870273813045,0.0,0.0,0.0,193.0,0.0,192.0,0.0,17.0,0.0,178.0,192.0,17.0,178.0,1744418542.7780788,0.0,2025-04-11 20:42:22.778,FORWARD,2
50.0,-2256.721527185622,-22534.93935286276,-36510.70284971033,-25517.690243445664,21553.31779161904,4738.838045458561,19325.519421758585,51450.98882329331,0.0,0.0,0.0,193.0,0.0,192.0,0.0,17.0,0.0,178.0,192.0,17.0,178.0,1744418542.7781234,0.0,2025-04-11 20:42:22.778,FORWARD,2
51.0,-2283.029530409519,-22559.168643852314,-36553.864068253526,-25561.186738155695,21521.913590659333,4512.504281104121,19589.806448198135,51343.186359785366,0.0,0.0,0.0,193.0,0.0,193.0,0.0,17.0,0.0,179.0,193.0,17.0,179.0,1744418542.7781553,0.0,2025-04-11 20:42:22.778,FORWARD,2
52.0,-2278.894457685287,-22522.93646609026,-36582.451949411865,-25526.072147616407,21369.7429144076,4646.927672258338,19438.328676024517,51343.25341501873,0.0,0.0,0.0,193.0,0.0,193.0,0.0,17.0,0.0,179.0,193.0,17.0,179.0,1744418542.7781868,0.0,2025-04-11 20:42:22.778,FORWARD,2
53.0,-2258.6214254643232,-22504.518628659087,-36561.687178812885,-25494.489132701055,21313.528277102505,4838.392715262498,19143.956201548124,51445.91497730195,0.0,0.0,0.0,193.0,0.0,193.0,0.0,17.0,0.0,179.0,193.0,17.0,179.0,1744418542.7782185,0.0,2025-04-11 20:42:22.778,FORWARD,2
54.0,-2292.7078357586665,-22561.873204931406,-36523.35393707203,-25520.663025458223,21503.898084628356,4747.063487418114,19298.339700500932,51482.571838208656,0.0,0.0,0.0,193.0,0.0,193.0,0.0,17.0,0.0,179.0,193.0,17.0,179.0,1744418542.7782636,0.0,2025-04-11 20:42:22.778,FORWARD,2
55.0,-2311.8409290124096,-22586.19190289878,-36550.73482402979,-25551.10610140635,21537.001018166666,4527.435246400267,19625.70334979336,51397.0317121782,0.0,0.0,0.0,193.0,0.0,193.0,0.0,17.0,0.0,179.0,193.0,17.0,179.0,1744418542.7782955,0.0,2025-04-11 20:42:22.778,FORWARD,2
56.0,-2309.9186789892533,-22566.4776642892,-36581.267306955735,-25525.267484816013,21374.95087086569,4601.643037991887,19520.24781945322,51350.56243545561,0.0,0.0,0.0,193.0,0.0,193.0,0.0,17.0,0.0,178.0,193.0,17.0,178.0,1744418542.7783267,0.0,2025-04-11 20:42:22.778,FORWARD,2
57.0,-2277.665111740245,-22509.972454306182,-36567.990370749285,-25478.127655759774,21259.54881424294,4834.5035117272755,19225.71888276564,51474.815782882666,0.0,0.0,0.0,193.0,0.0,193.0,0.0,17.0,0.0,178.0,193.0,17.0,178.0,1744418542.7783587,0.0,2025-04-11 20:42:22.778,FORWARD,2
58.0,-2267.6738819687225,-22508.005500794116,-36521.74461147125,-25483.156798262215,21430.249086648117,4810.408331204454,19259.58177561543,51526.67183001898,0.0,0.0,0.0,193.0,0.0,192.0,0.0,17.0,0.0,178.0,192.0,17.0,178.0,1744418542.7783902,0.0,2025-04-11 20:42:22.778,FORWARD,2
59.0,-2269.5290767585134,-22554.0724461165,-36544.43163209339,-25535.34812156536,21509.7765934201,4581.90644763785,19644.65762909146,51468.445535712905,0.0,0.0,0.0,193.0,0.0,192.0,0.0,17.0,0.0,178.0,192.0,17.0,178.0,1744418542.7784216,0.0,2025-04-11 20:42:22.778,FORWARD,2
60.0,-2275.049957638974,-22547.389274524365,-36574.1818039634,-25520.10423184684,21382.617519213858,4565.7237846522075,19597.428393057395,51385.00647366125,0.0,0.0,0.0,193.0,0.0,192.0,0.0,17.0,0.0,178.0,192.0,17.0,178.0,1744418542.778453,0.0,2025-04-11 20:42:22.778,FORWARD,2
61.0,-2275.11701287234,-22515.336872975455,-36563.028283480206,-25483.112094773307,21327.721634831625,4825.38399998951,19324.58064849146,51505.57178325317,0.0,0.0,0.0,193.0,0.0,192.0,0.0,17.0,0.0,178.0,192.0,17.0,178.0,1744418542.7784846,0.0,2025-04-11 20:42:22.778,FORWARD,2
62.0,-2262.1977045771723,-22507.670224627283,-36512.043954377645,-25477.211234237104,21442.654304820815,4814.968087073336,19252.831548789927,51562.747545569844,0.0,0.0,0.0,193.0,0.0,193.0,0.0,17.0,0.0,179.0,193.0,17.0,179.0,1744418542.7785163,0.0,2025-04-11 20:42:22.778,FORWARD,2
63.0,-2291.2549723690718,-22556.642896728863,-36525.90203593994,-25536.33159832139,21573.03203022862,4619.457378322766,19643.36122791305,51520.458045060404,0.0,0.0,0.0,193.0,0.0,193.0,0.0,17.0,0.0,179.0,193.0,17.0,179.0,1744418542.7785475,0.0,2025-04-11 20:42:22.778,FORWARD,2
64.0,-2276.860448939854,-22543.65653320033,-36540.11774541351,-25513.309301532427,21460.222775962684,4527.971688267194,19641.103701723063,51392.382549331494,0.0,0.0,0.0,193.0,0.0,192.0,0.0,17.0,0.0,178.0,192.0,17.0,178.0,1744418542.7785792,0.0,2025-04-11 20:42:22.778,FORWARD,2
65.0,-2270.087870369896,-22509.30190197252,-36556.76979503272,-25478.887615071253,21294.64105303777,4760.630996302485,19383.946881764758,51495.82642267066,0.0,0.0,0.0,193.0,0.0,192.0,0.0,17.0,0.0,178.0,192.0,17.0,178.0,1744418542.778627,0.0,2025-04-11 20:42:22.778,FORWARD,2
66.0,-2240.449457222159,-22482.859788281894,-36520.49291378175,-25464.38133291976,21353.873175844335,4813.76109287275,19229.876307234324,51578.93020855549,0.0,0.0,0.0,193.0,0.0,192.0,0.0,17.0,0.0,178.0,192.0,17.0,178.0,1744418542.7786589,0.0,2025-04-11 20:42:22.778,FORWARD,2
67.0,-2269.439669780692,-22546.89753614635,-36526.28201559568,-25522.13824059227,21572.22736742823,4638.903395998883,19607.799602484658,51570.369490429104,0.0,0.0,0.0,193.0,0.0,192.0,0.0,17.0,0.0,179.0,192.0,17.0,179.0,1744418542.77869,0.0,2025-04-11 20:42:22.778,FORWARD,2
68.0,-2293.154870647773,-22558.945126407758,-36564.74936780326,-25535.526935521,21477.85830233792,4498.199164652725,19717.725481715857,51455.12389601754,0.0,0.0,0.0,193.0,0.0,192.0,0.0,17.0,0.0,178.0,192.0,17.0,178.0,1744418542.7787216,0.0,2025-04-11 20:42:22.778,FORWARD,2
69.0,-2271.0042918925633,-22519.762518377607,-36568.99619924977,-25486.509559930513,21294.238721637576,4712.038303856648,19484.149752157897,51522.29088810574,0.0,0.0,0.0,193.0,0.0,192.0,0.0,17.0,0.0,179.0,192.0,17.0,179.0,1744418542.7787669,0.0,2025-04-11 20:42:22.778,FORWARD,2
70.0,-2240.471808966614,-22485.765515061084,-36512.55804450012,-25447.438710622635,21333.086053500898,4842.48308449782,19239.46520560565,51595.51520294133,0.0,0.0,0.0,193.0,0.0,193.0,0.0,17.0,0.0,179.0,193.0,17.0,179.0,1744418542.7788155,0.0,2025-04-11 20:42:22.778,FORWARD,2
71.0,-2277.1063181288623,-22531.541887705553,-36502.343297284046,-25495.137333290262,21555.888242231398,4732.378391310977,19561.77736065118,51605.5287844573,0.0,0.0,0.0,193.0,0.0,193.0,0.0,17.0,0.0,179.0,193.0,17.0,179.0,1744418542.7788491,0.0,2025-04-11 20:42:22.778,FORWARD,2
72.0,-2270.9148849147423,-22519.293131744045,-36532.71931799881,-25503.139257805262,21507.69788118576,4513.398350882334,19739.13845290404,51464.265759499765,0.0,0.0,0.0,193.0,0.0,192.0,0.0,17.0,0.0,178.0,192.0,17.0,178.0,1744418542.7788827,0.0,2025-04-11 20:42:22.778,FORWARD,2
73.0,-2261.0577656099517,-22494.63915760984,-36560.45783286784,-25465.52127188698,21341.959696049656,4686.713777388785,19549.8638808565,51496.63108547105,0.0,0.0,0.0,193.0,0.0,192.0,0.0,17.0,0.0,178.0,192.0,17.0,178.0,1744418542.7789168,0.0,2025-04-11 20:42:22.778,FORWARD,2
74.0,-2234.570948430413,-22472.26506141008,-36542.03999543667,-25448.109262956295,21299.044346695468,4850.395602034999,19275.272700223053,51599.49381345437,0.0,0.0,0.0,193.0,0.0,192.0,0.0,17.0,0.0,178.0,192.0,17.0,178.0,1744418542.7789507,0.0,2025-04-11 20:42:22.778,FORWARD,2
75.0,-2259.0014051200637,-22516.901495087328,-36524.98561441727,-25496.076106557382,21520.326616803006,4741.453199559832,19507.395566391417,51623.432531766004,0.0,0.0,0.0,193.0,0.0,192.0,0.0,17.0,0.0,178.0,192.0,17.0,178.0,1744418542.7789843,0.0,2025-04-11 20:42:22.778,FORWARD,2
76.0,-2275.1617163612505,-22538.850908142438,-36551.0253967077,-25522.42881327019,21531.234268097196,4521.735551564164,19785.294805204252,51522.80497822821,0.0,0.0,0.0,193.0,0.0,192.0,0.0,17.0,0.0,179.0,192.0,17.0,179.0,1744418542.779018,0.0,2025-04-11 20:42:22.779,FORWARD,2
77.0,-2266.668053468234,-22510.374785706375,-36563.96705674733,-25477.837083081853,21399.604844999893,4647.799390292095,19636.432187131904,51514.378370568564,0.0,0.0,0.0,193.0,0.0,193.0,0.0,17.0,0.0,179.0,193.0,17.0,179.0,1744418542.7790515,0.0,2025-04-11 20:42:22.779,FORWARD,2
78.0,-2240.9635473446306,-22478.165921946278,-36545.86214373853,-25448.399835634213,21328.816870309936,4853.256625325278,19341.120939388387,51630.67449696952,0.0,0.0,0.0,193.0,0.0,193.0,0.0,17.0,0.0,179.0,193.0,17.0,179.0,1744418542.7790856,0.0,2025-04-11 20:42:22.779,FORWARD,2
79.0,-2234.0345065634856,-22492.806314564506,-36508.0206403757,-25469.656344611212,21514.49281150017,4787.140165226479,19453.080827365022,51659.105915916676,0.0,0.0,0.0,193.0,0.0,193.0,0.0,17.0,0.0,179.0,193.0,17.0,179.0,1744418542.7791195,0.0,2025-04-11 20:42:22.779,FORWARD,2
80.0,-2249.7477829155664,-22520.522477689086,-36534.06042266612,-25515.879752144785,21580.586919854515,4536.465351160211,19795.10722102013,51570.90593229603,0.0,0.0,0.0,193.0,0.0,192.0,0.0,17.0,0.0,178.0,192.0,17.0,178.0,1744418542.7791667,0.0,2025-04-11 20:42:22.779,FORWARD,2
81.0,-2260.9683586321307,-22515.22511425318,-36570.225545194815,-25496.880769357776,21414.8040312295,4568.987139342683,19694.77024016026,51512.52317577877,0.0,0.0,0.0,193.0,0.0,192.0,0.0,17.0,0.0,178.0,192.0,17.0,178.0,1744418542.7792013,0.0,2025-04-11 20:42:22.779,FORWARD,2
82.0,-2250.3512800158596,-22487.777172062062,-36561.50836485724,-25463.308449185904,21289.768372746512,4799.120700254524,19392.46289640223,51629.33339230221,0.0,0.0,0.0,193.0,0.0,192.0,0.0,17.0,0.0,178.0,192.0,17.0,178.0,1744418542.7792532,0.0,2025-04-11 20:42:22.779,FORWARD,2
83.0,-2226.054933792941,-22469.359334630888,-36489.87102387798,-25440.42026286367,21462.547357386036,4778.780612800195,19372.83806477047,51663.777430507835,0.0,0.0,0.0,193.0,0.0,192.0,0.0,17.0,0.0,178.0,192.0,17.0,178.0,1744418542.7792912,0.0,2025-04-11 20:42:22.779,FORWARD,2
84.0,-2249.63602419329,-22502.775192591573,-36493.84963439103,-25488.632975653767,21596.210789228775,4596.457433278255,19765.401752639027,51612.614287449636,0.0,0.0,0.0,193.0,0.0,192.0,0.0,17.0,0.0,179.0,192.0,17.0,179.0,1744418542.7793555,0.0,2025-04-11 20:42:22.779,FORWARD,2
85.0,-2251.7147364276334,-22503.378689691865,-36523.8233237056,-25482.75446686202,21457.652325350326,4549.8763978333955,19734.489290057336,51518.848719459624,0.0,0.0,0.0,193.0,0.0,193.0,0.0,17.0,0.0,179.0,193.0,17.0,179.0,1744418542.7793875,0.0,2025-04-11 20:42:22.779,FORWARD,2
86.0,-2230.0335443059857,-22476.60129983441,-36525.70087023984,-25440.59907681931,21323.40774815175,4790.85055480606,19460.926289668834,51634.83192143821,0.0,0.0,0.0,193.0,0.0,193.0,0.0,17.0,0.0,179.0,193.0,17.0,179.0,1744418542.7794187,0.0,2025-04-11 20:42:22.779,FORWARD,2
87.0,-2204.239631204561,-22475.55076784501,-36475.632962659955,-25430.98782670353,21399.850714188902,4814.006962061759,19364.724381533193,51700.210773969986,0.0,0.0,0.0,193.0,0.0,193.0,0.0,17.0,0.0,179.0,193.0,17.0,179.0,1744418542.7794504,0.0,2025-04-11 20:42:22.779,FORWARD,2
88.0,-2228.960660572131,-22526.333931247467,-36483.83605287505,-25482.799170350932,21530.720177974723,4624.642983036397,19747.162729163498,51658.72593626093,0.0,0.0,0.0,193.0,0.0,193.0,0.0,17.0,0.0,179.0,193.0,17.0,179.0,1744418542.779482,0.0,2025-04-11 20:42:22.779,FORWARD,2
89.0,-2250.1948178046728,-22520.54482943354,-36518.52596026969,-25491.76221987751,21450.231546191164,4490.59957153792,19777.494046389347,51530.65044053202,0.0,0.0,0.0,193.0,0.0,193.0,0.0,17.0,0.0,179.0,193.0,17.0,179.0,1744418542.7795136,0.0,2025-04-11 20:42:22.779,FORWARD,2
90.0,-2241.5670444449242,-22483.530340615554,-36524.96326267281,-25469.90221380022,21367.8430161289,4700.080120573059,19529.747310846724,51625.332430044706,0.0,0.0,0.0,193.0,0.0,193.0,0.0,17.0,0.0,179.0,193.0,17.0,179.0,1744418542.7795453,0.0,2025-04-11 20:42:22.779,FORWARD,2
91.0,-2228.826550105399,-22467.012401463082,-36493.871986135484,-25462.41437940769,21405.90803693629,4738.882748947472,19348.474663314184,51699.651980358605,0.0,0.0,0.0,193.0,0.0,193.0,0.0,17.0,0.0,179.0,193.0,17.0,179.0,1744418542.7795768,0.0,2025-04-11 20:42:22.779,FORWARD,2
92.0,-2265.1928383341838,-22526.22217252519,-36495.86129139201,-25506.559074706922,21571.489759861204,4593.685816965797,19711.087013612632,51685.57038135176,0.0,0.0,0.0,193.0,0.0,193.0,0.0,17.0,0.0,179.0,193.0,17.0,179.0,1744418542.779608,0.0,2025-04-11 20:42:22.779,FORWARD,2
93.0,-2259.247274309072,-22528.993788837648,-36517.74364921375,-25496.411382724214,21498.44425898126,4445.829027393941,19815.514363707825,51535.03138244527,0.0,0.0,0.0,193.0,0.0,193.0,0.0,17.0,0.0,179.0,193.0,17.0,179.0,1744418542.7796395,0.0,2025-04-11 20:42:22.779,FORWARD,2
94.0,-2242.1705415452175,-22495.399116921322,-36531.17704763139,-25454.926545015165,21369.228824285132,4678.130707517947,19598.79184946917,51594.35291222965,0.0,0.0,0.0,193.0,0.0,193.0,0.0,17.0,0.0,179.0,193.0,17.0,179.0,1744418542.7796712,0.0,2025-04-11 20:42:22.779,FORWARD,2
95.0,-2225.473788437103,-22471.750971287605,-36508.288861309156,-25437.022797706464,21357.9411933352,4836.984555361814,19363.271518143596,51696.09805299021,0.0,0.0,0.0,193.0,0.0,193.0,0.0,17.0,0.0,179.0,193.0,17.0,179.0,1744418542.7797146,0.0,2025-04-11 20:42:22.779,FORWARD,2
96.0,-2253.4581724951477,-22519.047262555036,-36503.28207055117,-25484.43084769617,21545.897012459878,4724.287059818156,19653.79949257368,51701.99891352641,0.0,0.0,0.0,193.0,0.0,193.0,0.0,17.0,0.0,179.0,193.0,17.0,179.0,1744418542.7797465,0.0,2025-04-11 20:42:22.779,FORWARD,2
97.0,-2265.8410389233877,-22523.539963190553,-36539.78246924668,-25504.65917642822,21500.947654360254,4508.771539780086,19854.853433949167,51564.669795593,0.0,0.0,0.0,193.0,0.0,193.0,0.0,18.0,0.0,178.0,193.0,18.0,178.0,1744418542.7797782,0.0,2025-04-11 20:42:22.779,FORWARD,2
98.0,-2259.046108608974,-22498.39425067833,-36555.85337351005,-25461.252088696016,21348.575812408428,4680.276474985656,19680.353364986582,51580.91951381201,0.0,0.0,0.0,193.0,0.0,192.0,0.0,17.0,0.0,178.0,192.0,17.0,178.0,1744418542.77981,0.0,2025-04-11 20:42:22.779,FORWARD,2
99.0,-2227.7760181159997,-22462.854976994393,-36521.87872193798,-25429.71377726958,21317.17161144872,4842.237215308812,19397.581445882493,51683.11168946167,0.0,0.0,0.0,193.0,0.0,192.0,0.0,18.0,0.0,178.0,192.0,18.0,178.0,1744418542.7798548,0.0,2025-04-11 20:42:22.779,FORWARD,2
100.0,-2256.989748119086,-22507.06672752699,-36508.08769560906,-25465.387161420247,21508.524895730603,4771.113964452024,19598.814201213623,51705.798710083815,0.0,0.0,0.0,193.0,0.0,193.0,0.0,17.0,0.0,179.0,193.0,17.0,179.0,1744418542.7798872,0.0,2025-04-11 20:42:22.779,FORWARD,2
101.0,-2275.11701287234,-22530.290190016054,-36536.2732453672,-25500.23353102607,21538.07390190052,4556.783086870085,19895.265387924363,51597.05747330874,0.0,0.0,0.0,193.0,0.0,193.0,0.0,17.0,0.0,179.0,193.0,17.0,179.0,1744418542.779919,0.0,2025-04-11 20:42:22.779,FORWARD,2
102.0,-2268.120916857829,-22491.35345117491,-36556.05453921015,-25470.908042300707,21412.457098061695,4634.254233152179,19759.836168269656,51564.49098163736,0.0,0.0,0.0,193.0,0.0,193.0,0.0,17.0,0.0,179.0,193.0,17.0,179.0,1744418542.7799504,0.0,2025-04-11 20:42:22.779,FORWARD,2
103.0,-2237.789599631977,-22451.567346044463,-36542.06234718113,-25443.102472198305,21304.922855487213,4834.369401260544,19470.8951676959,51677.411994625574,0.0,0.0,0.0,193.0,0.0,193.0,0.0,17.0,0.0,179.0,193.0,17.0,179.0,1744418542.779982,0.0,2025-04-11 20:42:22.779,FORWARD,2
104.0,-2222.858634335832,-22469.247575908612,-36507.12657059748,-25460.46977764008,21448.53281361256,4767.761202783729,19564.325459519085,51716.16991951107,0.0,0.0,0.0,193.0,0.0,193.0,0.0,17.0,0.0,179.0,193.0,17.0,179.0,1744418542.7800136,0.0,2025-04-11 20:42:22.780,FORWARD,2
105.0,-2266.086908112396,-22522.08709980096,-36539.58130354658,-25522.093537103363,21530.27314308562,4524.2836504320685,19913.7502805889,51627.96993589043,0.0,0.0,0.0,193.0,0.0,192.0,0.0,17.0,0.0,178.0,192.0,17.0,178.0,1744418542.7800453,0.0,2025-04-11 20:42:22.780,FORWARD,2
106.0,-2248.227864292606,-22489.721773829675,-36557.5297543442,-25475.46779816959,21384.204493070185,4554.927892080294,19803.399718213048,51535.52312082328,0.0,0.0,0.0,193.0,0.0,192.0,0.0,17.0,0.0,178.0,192.0,17.0,178.0,1744418542.7800765,0.0,2025-04-11 20:42:22.780,FORWARD,2
107.0,-2225.987878559575,-22459.16693915927,-36553.88641999798,-25434.944085472118,21248.50705248202,4819.349028986577,19499.013662220677,51640.218691851944,0.0,0.0,0.0,193.0,0.0,192.0,0.0,17.0,0.0,178.0,192.0,17.0,178.0,1744418542.780108,0.0,2025-04-11 20:42:22.780,FORWARD,2
108.0,-2227.1725210157065,-22473.516759099577,-36505.22667231878,-25436.88868723973,21441.268496664587,4834.279994282722,19492.57635981755,51712.9065648206,0.0,0.0,0.0,193.0,0.0,193.0,0.0,17.0,0.0,179.0,193.0,17.0,179.0,1744418542.7801397,0.0,2025-04-11 20:42:22.780,FORWARD,2
109.0,-2262.4212220217255,-22525.573971935984,-36529.16539063041,-25495.42790596818,21600.882303819933,4630.543843572598,19892.583178589724,51668.873628243644,0.0,0.0,0.0,193.0,0.0,193.0,0.0,17.0,0.0,179.0,193.0,17.0,179.0,1744418542.7801712,0.0,2025-04-11 20:42:22.780,FORWARD,2
110.0,-2263.270588311027,-22509.950102561725,-36564.19057419188,-25487.493036686545,21450.589174102446,4533.358458680923,19875.953480714976,51555.95261525543,0.0,0.0,0.0,193.0,0.0,193.0,0.0,17.0,0.0,179.0,193.0,17.0,179.0,1744418542.7802143,0.0,2025-04-11 20:42:22.780,FORWARD,2
111.0,-2244.2269020351055,-22474.656698066796,-36576.036998753196,-25452.825481036365,21302.64297755277,4777.014824988226,19608.492506562772,51668.22542765444,0.0,0.0,0.0,193.0,0.0,193.0,0.0,17.0,0.0,179.0,193.0,17.0,179.0,1744418542.7802465,0.0,2025-04-11 20:42:22.780,FORWARD,2
112.0,-2202.4738433925922,-22451.366180344365,-36527.98074817428,-25428.03739643543,21370.257004530074,4843.57831997613,19477.779504988135,51737.672297677076,0.0,0.0,0.0,193.0,0.0,193.0,0.0,17.0,0.0,179.0,193.0,17.0,179.0,1744418542.7802777,0.0,2025-04-11 20:42:22.780,FORWARD,2
113.0,-2244.8080473909436,-22503.98218679216,-36540.69889076935,-25481.90510057272,21537.82803271151,4711.658324200907,19868.44329457799,51713.37595145416,0.0,0.0,0.0,193.0,0.0,193.0,0.0,17.0,0.0,179.0,193.0,17.0,179.0,1744418542.78031,0.0,2025-04-11 20:42:22.780,FORWARD,2
114.0,-2256.5874167188904,-22520.477774200175,-36573.42184465192,-25483.13444651776,21420.302560365508,4570.350595754457,19924.903801072098,51577.56675214371,0.0,0.0,0.0,193.0,0.0,193.0,0.0,17.0,0.0,179.0,193.0,17.0,179.0,1744418542.7803564,0.0,2025-04-11 20:42:22.780,FORWARD,2
115.0,-2252.765268417033,-22486.92780577276,-36591.683219871906,-25449.42801587916,21281.766448231512,4795.969104286326,19679.459295208373,51653.96501469195,0.0,0.0,0.0,193.0,0.0,192.0,0.0,17.0,0.0,178.0,192.0,17.0,178.0,1744418542.7803884,0.0,2025-04-11 20:42:22.780,FORWARD,2
116.0,-2244.0704398239186,-22472.756799788094,-36555.51809734322,-25443.37069313177,21327.095785986876,4868.925198188448,19471.453961307285,51720.886137591144,0.0,0.0,0.0,193.0,0.0,192.0,0.0,17.0,0.0,178.0,192.0,17.0,178.0,1744418542.7804203,0.0,2025-04-11 20:42:22.780,FORWARD,2
117.0,-2259.8060679204546,-22530.31254176051,-36542.55408555914,-25479.066429026894,21521.35479704795,4733.741847722751,19816.542543952768,51713.33124796525,0.0,0.0,0.0,193.0,0.0,193.0,0.0,17.0,0.0,179.0,193.0,17.0,179.0,1744418542.780452,0.0,2025-04-11 20:42:22.780,FORWARD,2
118.0,-2251.468867238625,-22534.514669718108,-36577.981600520805,-25487.113057030805,21421.308388865997,4524.171891709792,19962.633545712655,51579.86898182261,0.0,0.0,0.0,193.0,0.0,193.0,0.0,17.0,0.0,179.0,193.0,17.0,179.0,1744418542.7804835,0.0,2025-04-11 20:42:22.780,FORWARD,2
119.0,-2236.8731781093097,-22493.543922131532,-36589.3362867041,-25447.505765856,21289.83542797988,4700.057768828603,19750.739008276345,51620.34799103117,0.0,0.0,0.0,193.0,0.0,193.0,0.0,17.0,0.0,179.0,193.0,17.0,179.0,1744418542.7805152,0.0,2025-04-11 20:42:22.780,FORWARD,2
120.0,-2217.5612708999242,-22468.889947997326,-36554.44521360937,-25423.812916733375,21332.12492848932,4856.922311415949,19487.99425220421,51706.648076373116,0.0,0.0,0.0,193.0,0.0,193.0,0.0,17.0,0.0,179.0,193.0,17.0,179.0,1744418542.7805471,0.0,2025-04-11 20:42:22.780,FORWARD,2
121.0,-2255.5592364739464,-22506.507933915607,-36546.935027472384,-25463.934298030654,21521.26539007013,4771.94097899687,19756.773979279278,51712.012495042385,0.0,0.0,0.0,193.0,0.0,193.0,0.0,17.0,0.0,179.0,193.0,17.0,179.0,1744418542.780579,0.0,2025-04-11 20:42:22.780,FORWARD,2
122.0,-2265.818687178932,-22518.35435847692,-36574.42767315241,-25490.555225676922,21498.466610725714,4530.475083646189,19979.710278476512,51576.29270270976,0.0,0.0,0.0,193.0,0.0,192.0,0.0,18.0,0.0,178.0,192.0,18.0,178.0,1744418542.7806108,0.0,2025-04-11 20:42:22.780,FORWARD,2
123.0,-2243.0646113234297,-22493.67803259826,-36601.51798743224,-25461.76617881849,21343.524318161526,4646.502989113687,19804.71847113591,51571.53178114078,0.0,0.0,0.0,193.0,0.0,192.0,0.0,18.0,0.0,178.0,192.0,18.0,178.0,1744418542.7806463,0.0,2025-04-11 20:42:22.780,FORWARD,2
124.0,-2220.444645934659,-22451.76851174456,-36589.85037682657,-25439.347379129813,21248.50705248202,4815.415121962443,19517.275037440664,51678.21665742596,0.0,0.0,0.0,193.0,0.0,192.0,0.0,17.0,0.0,178.0,192.0,17.0,178.0,1744418542.7806778,0.0,2025-04-11 20:42:22.780,FORWARD,2
125.0,-2235.82264611991,-22474.187311433234,-36556.83685026608,-25465.56597537589,21430.874935492866,4723.013010384204,19677.537045185214,51692.164145966075,0.0,0.0,0.0,193.0,0.0,192.0,0.0,17.0,0.0,178.0,192.0,17.0,178.0,1744418542.7807224,0.0,2025-04-11 20:42:22.780,FORWARD,2
126.0,-2234.258024008039,-22516.543867176042,-36571.49959462877,-25487.828312853377,21486.195503019753,4498.802661753019,19976.245758085937,51568.17901947249,0.0,0.0,0.0,193.0,0.0,192.0,0.0,17.0,0.0,178.0,192.0,17.0,178.0,1744418542.7807543,0.0,2025-04-11 20:42:22.780,FORWARD,2
127.0,-2228.737143127578,-22498.528361145065,-36595.05833328466,-25445.65057106621,21341.13268150481,4639.350430887989,19855.658096749557,51518.1111118926,0.0,0.0,0.0,193.0,0.0,192.0,0.0,17.0,0.0,179.0,192.0,17.0,179.0,1744418542.780786,0.0,2025-04-11 20:42:22.780,FORWARD,2
128.0,-2207.257116706028,-22454.4507210792,-36586.11763550254,-25405.909169424674,21239.119319810787,4881.576285550152,19553.39545648044,51631.14388360309,0.0,0.0,0.0,193.0,0.0,193.0,0.0,17.0,0.0,179.0,193.0,17.0,179.0,1744418542.780818,0.0,2025-04-11 20:42:22.780,FORWARD,2
129.0,-2197.8917357792543,-22451.299125111,-36537.18966688987,-25405.305672324383,21413.462926562184,4854.597729992596,19602.68105300439,51666.25847414237,0.0,0.0,0.0,193.0,0.0,193.0,0.0,17.0,0.0,179.0,193.0,17.0,179.0,1744418542.7808635,0.0,2025-04-11 20:42:22.780,FORWARD,2
130.0,-2221.7410471130665,-22496.74022158864,-36572.23720219579,-25474.32785920237,21538.655047256358,4639.909224499372,19976.670441230588,51598.130357042595,0.0,0.0,0.0,193.0,0.0,193.0,0.0,17.0,0.0,179.0,193.0,17.0,179.0,1744418542.7808952,0.0,2025-04-11 20:42:22.780,FORWARD,2
131.0,-2210.5651748854134,-22471.572157331964,-36610.65985091446,-25470.483359156056,21384.964452381668,4590.847145419973,19907.782364819333,51513.260783345795,0.0,0.0,0.0,193.0,0.0,193.0,0.0,17.0,0.0,179.0,193.0,17.0,179.0,1744418542.7809267,0.0,2025-04-11 20:42:22.780,FORWARD,2
132.0,-2194.181346199673,-22433.64124699131,-36592.666696627944,-25419.65549226469,21269.316526569906,4826.948622101381,19619.69073053488,51616.34702877367,0.0,0.0,0.0,193.0,0.0,193.0,0.0,17.0,0.0,178.0,193.0,17.0,178.0,1744418542.7809587,0.0,2025-04-11 20:42:22.780,FORWARD,2
133.0,-2196.818852045399,-22450.025075677047,-36537.770812245704,-25408.92665492614,21405.393946813816,4834.771732660739,19566.582985709072,51663.576264807736,0.0,0.0,0.0,193.0,0.0,192.0,0.0,17.0,0.0,179.0,192.0,17.0,179.0,1744418542.7809908,0.0,2025-04-11 20:42:22.780,FORWARD,2
134.0,-2226.121989026307,-22495.823800065973,-36559.29554215617,-25462.61554510779,21532.754186720158,4640.780942533129,19957.7608654214,51616.90582238505,0.0,0.0,0.0,193.0,0.0,192.0,0.0,18.0,0.0,178.0,192.0,18.0,178.0,1744418542.7810493,0.0,2025-04-11 20:42:22.781,FORWARD,2
135.0,-2228.8712535943096,-22484.670279582773,-36599.26046124226,-25454.390103148235,21385.724411693147,4537.806455827529,19965.986307380954,51505.214155341884,0.0,0.0,0.0,193.0,0.0,192.0,0.0,18.0,0.0,178.0,192.0,18.0,178.0,1744418542.7810836,0.0,2025-04-11 20:42:22.781,FORWARD,2
136.0,-2216.4213319327037,-22467.437084607733,-36621.67926093093,-25430.473736581058,21237.711159910104,4775.5172581097195,19710.14824034551,51610.379113004106,0.0,0.0,0.0,193.0,0.0,192.0,0.0,17.0,0.0,179.0,192.0,17.0,179.0,1744418542.781118,0.0,2025-04-11 20:42:22.781,FORWARD,2
137.0,-2191.4544333761255,-22448.39339833181,-36570.851394039564,-25407.65260549219,21297.055041438944,4841.991346119803,19546.511119188206,51669.49947708839,0.0,0.0,0.0,193.0,0.0,193.0,0.0,17.0,0.0,179.0,193.0,17.0,179.0,1744418542.7811515,0.0,2025-04-11 20:42:22.781,FORWARD,2
138.0,-2221.2716604795055,-22495.577930876963,-36571.36548416203,-25458.100492727815,21502.199352049753,4702.516460718687,19920.634617881136,51655.48493331492,0.0,0.0,0.0,193.0,0.0,193.0,0.0,17.0,0.0,179.0,193.0,17.0,179.0,1744418542.7811852,0.0,2025-04-11 20:42:22.781,FORWARD,2
139.0,-2216.5554423994354,-22485.720811572173,-36600.556862420664,-25460.872109040276,21409.327853837953,4533.358458680923,19980.87256918819,51511.56205076719,0.0,0.0,0.0,193.0,0.0,193.0,0.0,18.0,0.0,179.0,193.0,18.0,179.0,1744418542.7812188,0.0,2025-04-11 20:42:22.781,FORWARD,2
