Sample Index,EXG Channel 0,EXG Channel 1,EXG Channel 2,EXG Channel 3,EXG Channel 4,EXG Channel 5,EXG Channel 6,EXG Channel 7,Accel Channel 0,Accel Channel 1,Accel Channel 2,Not Used,Digital Channel 0 (D11),Digital Channel 1 (D12),Digital Channel 2 (D13),Digital Channel 3 (D17),Not Used,Digital Channel 4 (D18),Analog Channel 0,Analog Channel 1,Analog Channel 2,Timestamp,Marker Channel,Timestamp (Formatted),Stimulus_Direction,Stimulus_Number
149.0,21151.209908868066,26210.14728667108,-32115.0311368741,-22849.316638626653,-36448.0509100021,-29136.035339359685,-14189.356766862486,-37900.243747263405,0.0,0.0,0.0,193.0,0.0,193.0,0.0,1.0,0.0,179.0,193.0,1.0,179.0,1744420495.7745676,0.0,2025-04-11 21:14:55.774,FORWARD,25
150.0,21165.09034217481,26192.981146929404,-32131.70553823776,-22873.635336594027,-36464.41238694339,-29157.470662292322,-13833.606402111818,-37927.62463422115,0.0,0.0,0.0,193.0,0.0,193.0,0.0,2.0,0.0,179.0,193.0,2.0,179.0,1744420495.7746105,0.0,2025-04-11 21:14:55.774,FORWARD,25
151.0,21151.43342631262,26175.41267578753,-32132.13022138241,-22873.56828136066,-36459.204430485304,-29145.177202841904,-14085.376451656397,-37934.19604709101,0.0,0.0,0.0,193.0,0.0,193.0,0.0,1.0,0.0,179.0,193.0,1.0,179.0,1744420495.774672,0.0,2025-04-11 21:14:55.774,FORWARD,25
152.0,21132.166222592143,26189.047239905267,-32125.022366645622,-22863.1970719334,-36447.06743324607,-29128.703967178342,-14394.411670495472,-37913.27481428085,0.0,0.0,0.0,193.0,0.0,194.0,0.0,1.0,0.0,179.0,194.0,1.0,179.0,1744420495.774715,0.0,2025-04-11 21:14:55.774,FORWARD,25
153.0,21138.581173250815,26193.741106240883,-32124.173000356317,-22861.56539458816,-36446.77686056815,-29136.325912037602,-14272.505256236227,-37904.17765428754,0.0,0.0,0.0,193.0,0.0,193.0,0.0,1.0,0.0,179.0,193.0,1.0,179.0,1744420495.7747664,0.0,2025-04-11 21:14:55.774,FORWARD,25
154.0,21151.56753677935,26183.012268902337,-32147.55292505657,-22888.834522823636,-36468.0557212896,-29163.6844472509,-13836.780349824472,-37920.22620680645,0.0,0.0,0.0,193.0,0.0,193.0,0.0,1.0,0.0,179.0,193.0,1.0,179.0,1744420495.7748084,0.0,2025-04-11 21:14:55.774,FORWARD,25
155.0,21136.345998805285,26162.806291914738,-32148.22347739023,-22891.896711814014,-36460.657293874894,-29151.882726178497,-14029.452387029218,-37951.11631764368,0.0,0.0,0.0,193.0,0.0,193.0,0.0,1.0,0.0,179.0,193.0,1.0,179.0,1744420495.774856,0.0,2025-04-11 21:14:55.774,FORWARD,25
156.0,21114.128364816712,26174.652716476052,-32144.624846532926,-22881.503150642297,-36454.734081594244,-29140.505688250745,-14379.279539499228,-37947.69650074202,0.0,0.0,0.0,193.0,0.0,193.0,0.0,1.0,0.0,179.0,193.0,1.0,179.0,1744420495.7749016,0.0,2025-04-11 21:14:55.774,FORWARD,25
157.0,21122.174992820623,26183.83928344718,-32140.55682904206,-22873.47887438284,-36451.13545073694,-29137.756423682742,-14367.74603936029,-37928.51870399937,0.0,0.0,0.0,193.0,0.0,193.0,0.0,1.0,0.0,178.0,193.0,1.0,178.0,1744420495.7749703,0.0,2025-04-11 21:14:55.774,FORWARD,25
158.0,21146.56074602136,26181.067667134725,-32155.487794338205,-22888.29808095671,-36467.36281721149,-29156.15190936946,-13880.679175934694,-37907.48571246692,0.0,0.0,0.0,193.0,0.0,193.0,0.0,1.0,0.0,179.0,193.0,1.0,179.0,1744420495.7750173,0.0,2025-04-11 21:14:55.775,FORWARD,25
159.0,21137.977676150524,26164.46032100443,-32158.058244950564,-22899.04927003971,-36472.59312541403,-29155.257839591246,-13963.76061007507,-37942.823820450765,0.0,0.0,0.0,193.0,0.0,193.0,0.0,1.0,0.0,179.0,193.0,1.0,179.0,1744420495.7750618,0.0,2025-04-11 21:14:55.775,FORWARD,25
160.0,21116.56470496234,26173.401018786553,-32147.910552967856,-22884.900615799503,-36459.29383746313,-29140.215115572824,-14329.256335408252,-37936.14064885863,0.0,0.0,0.0,193.0,0.0,193.0,0.0,1.0,0.0,180.0,193.0,1.0,180.0,1744420495.7751071,0.0,2025-04-11 21:14:55.775,FORWARD,25
161.0,21123.65020795467,26182.073495635213,-32135.55003828407,-22875.267013939265,-36445.435755900835,-29132.86139164703,-14410.057891614188,-37914.90649162608,0.0,0.0,0.0,193.0,0.0,193.0,0.0,1.0,0.0,179.0,193.0,1.0,179.0,1744420495.7751904,0.0,2025-04-11 21:14:55.775,FORWARD,25
162.0,21151.321667590342,26181.42529504601,-32149.475175079726,-22890.063868768677,-36463.49596542072,-29164.422054817922,-13940.693609797194,-37911.73254391343,0.0,0.0,0.0,193.0,0.0,193.0,0.0,1.0,0.0,179.0,193.0,1.0,179.0,1744420495.7752404,0.0,2025-04-11 21:14:55.775,FORWARD,25
163.0,21148.393589066698,26164.08034134869,-32149.9892652022,-22903.027880552756,-36462.78070959815,-29164.131482140005,-13918.118347897334,-37956.90541945761,0.0,0.0,0.0,193.0,0.0,193.0,0.0,1.0,0.0,179.0,193.0,1.0,179.0,1744420495.775287,0.0,2025-04-11 21:14:55.775,FORWARD,25
164.0,21127.070024856333,26172.864576919626,-32139.729814497212,-22885.526464644252,-36446.28512219014,-29141.3774062845,-14245.034962300655,-37915.8005614043,0.0,0.0,0.0,193.0,0.0,194.0,0.0,1.0,0.0,179.0,194.0,1.0,179.0,1744420495.7753353,0.0,2025-04-11 21:14:55.775,FORWARD,25
165.0,21124.052539354867,26181.045315390267,-32126.855209690955,-22872.405990648986,-36436.606816840984,-29130.939141623872,-14418.931534162944,-37903.57415718724,0.0,0.0,0.0,193.0,0.0,193.0,0.0,1.0,0.0,179.0,193.0,1.0,179.0,1744420495.775386,0.0,2025-04-11 21:14:55.775,FORWARD,25
166.0,21152.03692341291,26182.341716568677,-32131.32555858202,-22873.34476391611,-36446.28512219014,-29146.227734831304,-14007.39121525183,-37879.5907353867,0.0,0.0,0.0,193.0,0.0,193.0,0.0,1.0,0.0,179.0,193.0,1.0,179.0,1744420495.775474,0.0,2025-04-11 21:14:55.775,FORWARD,25
167.0,21153.802711224882,26164.773245426804,-32141.763823242647,-22893.416630436976,-36456.768090339676,-29156.218964602827,-13855.287594233465,-37922.84136090772,0.0,0.0,0.0,193.0,0.0,194.0,0.0,1.0,0.0,180.0,194.0,1.0,180.0,1744420495.775532,0.0,2025-04-11 21:14:55.775,FORWARD,25
168.0,21130.199269080076,26158.80532965724,-32144.133108154907,-22890.75677284679,-36458.10919500699,-29153.268534334726,-14180.885455713924,-37928.42929702155,0.0,0.0,0.0,193.0,0.0,194.0,0.0,1.0,0.0,179.0,194.0,1.0,179.0,1744420495.7755833,0.0,2025-04-11 21:14:55.775,FORWARD,25
169.0,21119.17985906361,26170.204719329446,-32140.10979415295,-22884.475932654852,-36458.98091304075,-29147.56883949862,-14433.61663027008,-37931.96087264548,0.0,0.0,0.0,193.0,0.0,194.0,0.0,1.0,0.0,179.0,194.0,1.0,179.0,1744420495.7756476,0.0,2025-04-11 21:14:55.775,FORWARD,25
170.0,21141.151623863178,26176.37380079911,-32143.619018032437,-22883.090124498623,-36463.048930531615,-29160.801072216163,-14132.583335946005,-37911.88900612462,0.0,0.0,0.0,193.0,0.0,193.0,0.0,1.0,0.0,179.0,193.0,1.0,179.0,1744420495.7757072,0.0,2025-04-11 21:14:55.775,FORWARD,25
171.0,21151.254612356977,26165.019114615814,-32155.17486991583,-22900.949168318413,-36471.63200040245,-29174.502691567268,-13846.145730751245,-37945.59543676322,0.0,0.0,0.0,193.0,0.0,194.0,0.0,1.0,0.0,180.0,194.0,1.0,180.0,1744420495.7757657,0.0,2025-04-11 21:14:55.775,FORWARD,25
172.0,21138.983504651012,26160.057027346735,-32145.250695377672,-22884.319470443665,-36463.943000309824,-29154.96726691333,-14138.394789504384,-37941.37095706117,0.0,0.0,0.0,193.0,0.0,194.0,0.0,1.0,0.0,179.0,194.0,1.0,179.0,1744420495.775834,0.0,2025-04-11 21:14:55.775,FORWARD,25
173.0,21128.344074290286,26185.64977474806,-32133.40427081636,-22867.265089424265,-36453.59414262702,-29136.325912037602,-14431.157938379996,-37919.75682017289,0.0,0.0,0.0,193.0,0.0,193.0,0.0,1.0,0.0,179.0,193.0,1.0,179.0,1744420495.7758827,0.0,2025-04-11 21:14:55.775,FORWARD,25
174.0,21140.458719785063,26183.347545069166,-32138.88044820791,-22869.410856891973,-36460.85845957499,-29149.91577266643,-14213.139022962932,-37904.62468917664,0.0,0.0,0.0,193.0,0.0,193.0,0.0,1.0,0.0,179.0,193.0,1.0,179.0,1744420495.7759316,0.0,2025-04-11 21:14:55.775,FORWARD,25
175.0,21155.38968508121,26165.55555648274,-32155.532497827116,-22893.90836881499,-36479.477462706265,-29167.30542985266,-13841.83184407137,-37930.50800925589,0.0,0.0,0.0,193.0,0.0,193.0,0.0,1.0,0.0,179.0,193.0,1.0,179.0,1744420495.7759762,0.0,2025-04-11 21:14:55.775,FORWARD,25
176.0,21140.861051185257,26157.039541845268,-32153.476137337228,-22892.410801936487,-36476.23645976025,-29158.34238032608,-14087.522219124106,-37951.58570427725,0.0,0.0,0.0,193.0,0.0,193.0,0.0,1.0,0.0,179.0,193.0,1.0,179.0,1744420495.7761116,0.0,2025-04-11 21:14:55.776,FORWARD,25
177.0,21119.51513523044,26169.22124257341,-32150.860983235954,-22884.520636143763,-36472.36960796948,-29153.67086573492,-14416.159917850486,-37953.48560255594,0.0,0.0,0.0,193.0,0.0,193.0,0.0,1.0,0.0,179.0,193.0,1.0,179.0,1744420495.776168,0.0,2025-04-11 21:14:55.776,FORWARD,25
178.0,21137.91062091716,26176.396152543566,-32139.908628452857,-22868.71795281386,-36459.629113629955,-29141.5785719846,-14322.640219049481,-37910.88317762413,0.0,0.0,0.0,193.0,0.0,193.0,0.0,1.0,0.0,179.0,193.0,1.0,179.0,1744420495.7762203,0.0,2025-04-11 21:14:55.776,FORWARD,25
179.0,21156.23905137051,26170.539995496274,-32154.973704215732,-22886.688755355928,-36472.12373878047,-29161.561031527643,-13862.350745481343,-37904.423523476544,0.0,0.0,0.0,193.0,0.0,193.0,0.0,1.0,0.0,179.0,193.0,1.0,179.0,1744420495.7762766,0.0,2025-04-11 21:14:55.776,FORWARD,25
180.0,21138.625876739727,26153.41855924351,-32156.5383263276,-22893.506037414794,-36470.536764924145,-29158.364732070535,-14021.49516600313,-37940.83451519424,0.0,0.0,0.0,193.0,0.0,193.0,0.0,1.0,0.0,179.0,193.0,1.0,179.0,1744420495.7763338,0.0,2025-04-11 21:14:55.776,FORWARD,25
181.0,21117.905809629658,26167.276640805798,-32145.07188142203,-22877.0998569846,-36461.12668050846,-29139.164583583428,-14370.137676017008,-37923.84718940821,0.0,0.0,0.0,193.0,0.0,193.0,0.0,0.0,0.0,179.0,193.0,0.0,179.0,1744420495.7764723,0.0,2025-04-11 21:14:55.776,FORWARD,25
182.0,21127.56176323435,26177.51373976633,-32134.49950629467,-22865.0969702121,-36448.07326174656,-29131.207362557336,-14356.547815388181,-37897.6956483955,0.0,0.0,0.0,193.0,0.0,193.0,0.0,0.0,0.0,178.0,193.0,0.0,178.0,1744420495.776531,0.0,2025-04-11 21:14:55.776,FORWARD,25
183.0,21151.500481545983,26173.624536231106,-32155.331332127018,-22886.48758965583,-36469.486232934745,-29164.310296095646,-13882.109687579834,-37906.189311288515,0.0,0.0,0.0,193.0,0.0,193.0,0.0,1.0,0.0,179.0,193.0,1.0,179.0,1744420495.7765777,0.0,2025-04-11 21:14:55.776,FORWARD,25
184.0,21155.702609503584,26166.31551579422,-32148.31288436805,-22889.661537368484,-36460.74670085272,-29154.252011090757,-13944.51575809905,-37945.46132629649,0.0,0.0,0.0,193.0,0.0,193.0,0.0,0.0,0.0,180.0,193.0,0.0,180.0,1744420495.7766397,0.0,2025-04-11 21:14:55.776,FORWARD,25
185.0,21146.113711132253,26186.499141037362,-32125.53645676809,-22859.933717242922,-36440.09368897601,-29117.036356572673,-14285.312805809119,-37898.05327630678,0.0,0.0,0.0,193.0,0.0,194.0,0.0,1.0,0.0,179.0,194.0,1.0,179.0,1744420495.7766898,0.0,2025-04-11 21:14:55.776,FORWARD,25
186.0,21137.173013350133,26180.441818289975,-32129.939750425787,-22864.068789967157,-36447.44741290181,-29132.883743391485,-14394.478725728837,-37912.268985780356,0.0,0.0,0.0,193.0,0.0,193.0,0.0,0.0,0.0,179.0,193.0,0.0,179.0,1744420495.7767391,0.0,2025-04-11 21:14:55.776,FORWARD,25
187.0,21158.0942461603,26174.675068220506,-32146.79296574509,-22880.00558376379,-36469.620343401475,-29163.907964695452,-13960.296089684498,-37913.319517769756,0.0,0.0,0.0,193.0,0.0,193.0,0.0,1.0,0.0,179.0,193.0,1.0,179.0,1744420495.7768457,0.0,2025-04-11 21:14:55.776,FORWARD,25
188.0,21153.869766458247,26159.54293722426,-32149.922209968834,-22894.57892114865,-36464.43473868784,-29162.522156539224,-13918.811251975449,-37948.81408796478,0.0,0.0,0.0,193.0,0.0,194.0,0.0,0.0,0.0,179.0,194.0,0.0,179.0,1744420495.776892,0.0,2025-04-11 21:14:55.776,FORWARD,25
189.0,21129.0369783684,26164.393265771065,-32141.964988942742,-22878.262147696274,-36449.5037733917,-29143.143194096472,-14239.9611163093,-37925.25534930889,0.0,0.0,0.0,193.0,0.0,194.0,0.0,0.0,0.0,179.0,194.0,0.0,179.0,1744420495.7769358,0.0,2025-04-11 21:14:55.776,FORWARD,25
190.0,21116.810574151346,26170.718809451915,-32137.36052958495,-22874.372944161052,-36440.540723865124,-29141.62327547351,-14433.326057592161,-37924.294224297315,0.0,0.0,0.0,193.0,0.0,193.0,0.0,0.0,0.0,179.0,193.0,0.0,179.0,1744420495.7769814,0.0,2025-04-11 21:14:55.776,FORWARD,25
191.0,21136.167184849644,26166.337867538678,-32146.54709655608,-22882.352516931598,-36452.61066587098,-29162.477453050313,-14026.0102183831,-37902.009535075376,0.0,0.0,0.0,193.0,0.0,193.0,0.0,0.0,0.0,179.0,193.0,0.0,179.0,1744420495.7770612,0.0,2025-04-11 21:14:55.777,FORWARD,25
192.0,21142.917411675146,26146.824794629192,-32152.89499198139,-22901.91029332999,-36462.624247386964,-29169.942935698386,-13850.236099986567,-37947.54003853083,0.0,0.0,0.0,193.0,0.0,193.0,0.0,0.0,0.0,179.0,193.0,0.0,179.0,1744420495.777114,0.0,2025-04-11 21:14:55.777,FORWARD,25
193.0,21124.94660913308,26149.015265585815,-32145.250695377672,-22888.029860023245,-36454.28704670513,-29151.167470355926,-14171.877702698435,-37934.19604709101,0.0,0.0,0.0,193.0,0.0,193.0,0.0,0.0,0.0,178.0,193.0,0.0,178.0,1744420495.77717,0.0,2025-04-11 21:14:55.777,FORWARD,25
194.0,21120.140984075188,26169.04242861777,-32130.386785314895,-22868.0474004802,-36439.51254362018,-29131.207362557336,-14431.828490713657,-37918.907453883585,0.0,0.0,0.0,193.0,0.0,193.0,0.0,0.0,0.0,179.0,193.0,0.0,179.0,1744420495.7772207,0.0,2025-04-11 21:14:55.777,FORWARD,25
195.0,21147.231298355022,26176.41850428802,-32131.45966904875,-22863.24177542231,-36448.40853791339,-29140.05865336164,-14125.497832953673,-37894.45464544948,0.0,0.0,0.0,193.0,0.0,193.0,0.0,0.0,0.0,179.0,193.0,0.0,179.0,1744420495.7772715,0.0,2025-04-11 21:14:55.777,FORWARD,25
196.0,21160.441179328107,26167.32134429471,-32140.51212555315,-22882.263109953776,-36458.7573955962,-29149.87106917752,-13832.35470442232,-37920.717945184464,0.0,0.0,0.0,193.0,0.0,193.0,0.0,0.0,0.0,179.0,193.0,0.0,179.0,1744420495.777747,0.0,2025-04-11 21:14:55.777,FORWARD,25
197.0,21138.067083128346,26162.761588425827,-32140.422718575326,-22877.278670940243,-36455.2034682278,-29140.662150461932,-14106.185925744287,-37926.57410223175,0.0,0.0,0.0,193.0,0.0,193.0,0.0,0.0,0.0,180.0,193.0,0.0,180.0,1744420495.777792,0.0,2025-04-11 21:14:55.777,FORWARD,25
198.0,21121.303274786864,26175.41267578753,-32134.857134205955,-22867.488606868817,-36449.99551176972,-29129.843906145565,-14409.18617358043,-37916.247596293404,0.0,0.0,0.0,193.0,0.0,193.0,0.0,0.0,0.0,179.0,193.0,0.0,179.0,1744420495.7778337,0.0,2025-04-11 21:14:55.777,FORWARD,25
199.0,21146.583097765815,26178.94425141147,-32131.437317304295,-22861.00660097678,-36449.615532113974,-29139.857487661542,-14234.86491857349,-37910.50319796839,0.0,0.0,0.0,193.0,0.0,193.0,0.0,0.0,0.0,179.0,193.0,0.0,179.0,1744420495.7778757,0.0,2025-04-11 21:14:55.777,FORWARD,25
200.0,21161.46935957305,26167.053123361246,-32149.54223031309,-22883.358345432087,-36466.356988711,-29162.410397816944,-13827.437320642153,-37927.579930732245,0.0,0.0,0.0,193.0,0.0,194.0,0.0,0.0,0.0,180.0,194.0,0.0,180.0,1744420496.25171,0.0,2025-04-11 21:14:56.251,FORWARD,25
201.0,21142.068045385844,26158.201832556944,-32146.301227367072,-22877.658650595982,-36458.80209908511,-29143.836098174586,-14051.602965784428,-37926.77526793185,0.0,0.0,0.0,193.0,0.0,194.0,0.0,0.0,0.0,179.0,194.0,0.0,179.0,1744420496.2518394,0.0,2025-04-11 21:14:56.251,FORWARD,25
202.0,21125.483051000007,26178.988954900382,-32134.208933616752,-22859.75490328728,-36447.961503024286,-29122.020795586206,-14395.864533885067,-37903.28358450933,0.0,0.0,0.0,193.0,0.0,193.0,0.0,0.0,0.0,179.0,193.0,0.0,179.0,1744420496.251928,0.0,2025-04-11 21:14:56.251,FORWARD,25
203.0,21136.32364706083,26186.09680963717,-32137.964026685244,-22858.95024048689,-36455.33757869453,-29134.314255036625,-14313.431300333894,-37895.281659994325,0.0,0.0,0.0,193.0,0.0,193.0,0.0,0.0,0.0,179.0,193.0,0.0,179.0,1744420496.2519789,0.0,2025-04-11 21:14:56.251,FORWARD,25
204.0,21165.67148753065,26178.430161288998,-32155.331332127018,-22881.927833786947,-36471.609648658,-29159.884650693497,-13849.565547652906,-37899.819064118754,0.0,0.0,0.0,193.0,0.0,194.0,0.0,0.0,0.0,179.0,194.0,0.0,179.0,1744420496.2520561,0.0,2025-04-11 21:14:56.252,FORWARD,25
205.0,21154.38385658072,26161.1746145695,-32154.638428048904,-22888.812171079182,-36470.26854399068,-29155.906040180453,-14016.041340356034,-37939.71692797148,0.0,0.0,0.0,193.0,0.0,194.0,0.0,0.0,0.0,180.0,194.0,0.0,180.0,1744420496.2521048,0.0,2025-04-11 21:14:56.252,FORWARD,25
206.0,21119.246914296975,26170.160015840534,-32150.07867218002,-22880.51967388626,-36461.104328764006,-29146.94299065387,-14350.244623451785,-37926.30588129829,0.0,0.0,0.0,193.0,0.0,193.0,0.0,0.0,0.0,179.0,193.0,0.0,179.0,1744420496.25217,0.0,2025-04-11 21:14:56.252,FORWARD,25
207.0,21134.736673204505,26183.70517298045,-32139.059262163555,-22870.349630159097,-36448.63205535794,-29143.76904294122,-14380.08420229962,-37920.62853820664,0.0,0.0,0.0,193.0,0.0,193.0,0.0,0.0,0.0,180.0,193.0,0.0,180.0,1744420496.2522194,0.0,2025-04-11 21:14:56.252,FORWARD,25
208.0,21164.509196818974,26186.409734059544,-32152.962047214754,-22882.553682631697,-36459.74087235223,-29161.449272805366,-13897.353577298354,-37899.059104807275,0.0,0.0,0.0,193.0,0.0,194.0,0.0,0.0,0.0,179.0,194.0,0.0,179.0,1744420496.25226,0.0,2025-04-11 21:14:56.252,FORWARD,25
209.0,21148.28183034442,26159.095902335157,-32161.94744848579,-22902.022052052267,-36464.12181426547,-29165.71845599633,-13944.985144732613,-37950.33400658775,0.0,0.0,0.0,193.0,0.0,193.0,0.0,0.0,0.0,179.0,193.0,0.0,179.0,1744420496.2523,0.0,2025-04-11 21:14:56.252,FORWARD,25
210.0,21119.761004419448,26164.79559717126,-32156.56067807206,-22892.2543397253,-36456.8574973175,-29156.15190936946,-14279.411945272917,-37932.31850055677,0.0,0.0,0.0,193.0,0.0,194.0,0.0,0.0,0.0,179.0,194.0,0.0,179.0,1744420496.25234,0.0,2025-04-11 21:14:56.252,FORWARD,25
211.0,21121.146812575676,26181.492350279375,-32143.619018032437,-22881.234929708833,-36448.60970361349,-29147.05474937615,-14406.950999134899,-37923.69072719702,0.0,0.0,0.0,193.0,0.0,193.0,0.0,0.0,0.0,179.0,193.0,0.0,179.0,1744420496.2525182,0.0,2025-04-11 21:14:56.252,FORWARD,25
212.0,21149.466472800552,26182.699344479963,-32149.7880995021,-22886.48758965583,-36456.81279382858,-29161.650438505465,-13961.704249585182,-37891.370104714646,0.0,0.0,0.0,193.0,0.0,194.0,0.0,0.0,0.0,179.0,194.0,0.0,179.0,1744420496.252644,0.0,2025-04-11 21:14:56.252,FORWARD,25
213.0,21140.726940718527,26159.051198846246,-32160.9416199853,-22908.369947477575,-36470.3579509685,-29174.145063655982,-13901.04161513348,-37954.983169434454,0.0,0.0,0.0,193.0,0.0,194.0,0.0,0.0,0.0,179.0,194.0,0.0,179.0,1744420496.2527015,0.0,2025-04-11 21:14:56.252,FORWARD,25
214.0,21116.005911350956,26162.247498303357,-32152.40325360337,-22890.488551913328,-36460.63494213044,-29155.459005291345,-14243.515043677693,-37932.58672149023,0.0,0.0,0.0,193.0,0.0,193.0,0.0,0.0,0.0,179.0,193.0,0.0,179.0,1744420496.2527547,0.0,2025-04-11 21:14:56.252,FORWARD,25
215.0,21114.530696216905,26176.329097310198,-32140.9368086978,-22878.262147696274,-36448.40853791339,-29146.51830750922,-14428.47572904536,-37919.62270970616,0.0,0.0,0.0,193.0,0.0,193.0,0.0,0.0,0.0,179.0,193.0,0.0,179.0,1744420496.2528076,0.0,2025-04-11 21:14:56.252,FORWARD,25
216.0,21147.38776056621,26186.454437548455,-32144.580143044015,-22875.043496494713,-36457.796270584615,-29162.075121650116,-14045.63505001486,-37901.24957576389,0.0,0.0,0.0,193.0,0.0,194.0,0.0,0.0,0.0,179.0,194.0,0.0,179.0,1744420496.2528596,0.0,2025-04-11 21:14:56.252,FORWARD,25
217.0,21154.294449602898,26172.417542030522,-32151.84445999199,-22891.069697269166,-36468.59216315653,-29174.033304933706,-13863.55773968193,-37956.12310840167,0.0,0.0,0.0,193.0,0.0,193.0,0.0,0.0,0.0,179.0,193.0,0.0,179.0,1744420496.2529376,0.0,2025-04-11 21:14:56.252,FORWARD,25
218.0,21127.874687656724,26168.59539372866,-32146.54709655608,-22879.178569218944,-36462.06545377558,-29161.851604205563,-14179.365537090962,-37958.87237296967,0.0,0.0,0.0,193.0,0.0,193.0,0.0,0.0,0.0,179.0,193.0,0.0,179.0,1744420496.2529905,0.0,2025-04-11 21:14:56.252,FORWARD,25
219.0,21116.98938810699,26178.94425141147,-32136.01942491763,-22864.940508000913,-36455.06935776107,-29134.44836550336,-14435.784749482245,-37916.09113408222,0.0,0.0,0.0,193.0,0.0,193.0,0.0,0.0,0.0,179.0,193.0,0.0,179.0,1744420496.2530491,0.0,2025-04-11 21:14:56.253,FORWARD,25
220.0,21140.861051185257,26179.90537642305,-32141.853230220466,-22864.49347311181,-36467.58633465604,-29143.947856896863,-14157.796103691591,-37887.77147385734,0.0,0.0,0.0,193.0,0.0,194.0,0.0,0.0,0.0,179.0,194.0,0.0,179.0,1744420496.2531211,0.0,2025-04-11 21:14:56.253,FORWARD,25
221.0,21152.171033879644,26170.27177456281,-32151.576239058526,-22881.52550238675,-36470.045026546126,-29156.084854136094,-13850.705486620127,-37921.83553240723,0.0,0.0,0.0,193.0,0.0,194.0,0.0,0.0,0.0,179.0,194.0,0.0,179.0,1744420496.2531736,0.0,2025-04-11 21:14:56.253,FORWARD,25
222.0,21135.60839123826,26165.354390782642,-32143.149631398875,-22874.3505924166,-36447.35800592399,-29144.86427841953,-14110.74568161317,-37929.65864296659,0.0,0.0,0.0,193.0,0.0,193.0,0.0,0.0,0.0,179.0,193.0,0.0,179.0,1744420496.2532256,0.0,2025-04-11 21:14:56.253,FORWARD,25
223.0,21119.626893952714,26174.697419964963,-32136.39940457337,-22864.269955667252,-36441.14422096541,-29133.397833513958,-14403.866458400067,-37920.11444808417,0.0,0.0,0.0,193.0,0.0,193.0,0.0,0.0,0.0,179.0,193.0,0.0,179.0,1744420496.2532773,0.0,2025-04-11 21:14:56.253,FORWARD,25
224.0,21133.261458070454,26173.401018786553,-32140.892105208888,-22864.024086478246,-36451.69424434832,-29141.779737684697,-14227.310028947597,-37893.35940997117,0.0,0.0,0.0,193.0,0.0,194.0,0.0,0.0,0.0,179.0,194.0,0.0,179.0,1744420496.2533293,0.0,2025-04-11 21:14:56.253,FORWARD,25
225.0,21148.460644300063,26167.32134429471,-32156.158346671862,-22883.492455898817,-36470.02267480167,-29164.399703073468,-13823.145785706734,-37920.874407395655,0.0,0.0,0.0,193.0,0.0,193.0,0.0,0.0,0.0,179.0,193.0,0.0,179.0,1744420496.2533808,0.0,2025-04-11 21:14:56.253,FORWARD,25
226.0,21136.725978461025,26161.50989073633,-32146.68120702281,-22874.596461605604,-36458.66798861838,-29138.114051594028,-14053.34640185194,-37927.31170979878,0.0,0.0,0.0,193.0,0.0,193.0,0.0,0.0,0.0,179.0,193.0,0.0,179.0,1744420496.253448,0.0,2025-04-11 21:14:56.253,FORWARD,25
227.0,21121.683254442603,26176.887890921582,-32136.68997725129,-22858.838481764615,-36449.68258734734,-29120.389118240968,-14387.974368092344,-37907.12808455564,0.0,0.0,0.0,193.0,0.0,193.0,0.0,0.0,0.0,179.0,193.0,0.0,179.0,1744420496.2535,0.0,2025-04-11 21:14:56.253,FORWARD,25
228.0,21132.166222592143,26183.816931702728,-32130.722061481723,-22852.021199705745,-36447.58152336854,-29118.33275775108,-14317.611076547037,-37891.705380881474,0.0,0.0,0.0,193.0,0.0,193.0,0.0,0.0,0.0,179.0,193.0,0.0,179.0,1744420496.2535522,0.0,2025-04-11 21:14:56.253,FORWARD,25
229.0,21149.17590012263,26179.0783618782,-32150.12337566893,-22876.921043028957,-36470.49206143523,-29148.842888932573,-13849.632602886273,-37895.95221232798,0.0,0.0,0.0,193.0,0.0,193.0,0.0,0.0,0.0,179.0,193.0,0.0,179.0,1744420496.2536302,0.0,2025-04-11 21:14:56.253,FORWARD,25
230.0,21143.833833197812,26165.354390782642,-32146.189468644796,-22881.637261109026,-36468.12277652297,-29142.606752229545,-14002.943218105223,-37933.19021859053,0.0,0.0,0.0,193.0,0.0,193.0,0.0,0.0,0.0,179.0,193.0,0.0,179.0,1744420496.253671,0.0,2025-04-11 21:14:56.253,FORWARD,25
231.0,21125.147774833178,26171.50112050785,-32139.93098019731,-22871.400162148497,-36458.17625024036,-29131.00619685724,-14345.50605362726,-37908.17861654504,0.0,0.0,0.0,193.0,0.0,193.0,0.0,0.0,0.0,180.0,193.0,0.0,180.0,1744420496.2537117,0.0,2025-04-11 21:14:56.253,FORWARD,25
232.0,21129.75223419097,26177.066704877223,-32135.103003394965,-22868.852063280592,-36454.242343216225,-29134.761289925733,-14384.152219790485,-37910.391439246116,0.0,0.0,0.0,193.0,0.0,194.0,0.0,0.0,0.0,179.0,194.0,0.0,179.0,1744420496.2537649,0.0,2025-04-11 21:14:56.253,FORWARD,25
233.0,21155.18851938111,26177.04435313277,-32150.950390213777,-22886.979328033845,-36470.31324747959,-29165.338476340592,-13921.985199688103,-37909.65383167909,0.0,0.0,0.0,193.0,0.0,193.0,0.0,0.0,0.0,179.0,193.0,0.0,179.0,1744420496.2538056,0.0,2025-04-11 21:14:56.253,FORWARD,25
234.0,21144.61614425375,26158.000666856846,-32151.84445999199,-22900.2562642403,-36465.97700905526,-29165.025551918217,-13954.439932637208,-37953.32914034476,0.0,0.0,0.0,193.0,0.0,193.0,0.0,0.0,0.0,179.0,193.0,0.0,179.0,1744420496.2538464,0.0,2025-04-11 21:14:56.253,FORWARD,25
235.0,21130.065158613346,26169.22124257341,-32134.36539582794,-22877.077505240144,-36450.30843619209,-29142.67380746291,-14294.477021035795,-37923.91424464157,0.0,0.0,0.0,193.0,0.0,194.0,0.0,0.0,0.0,180.0,194.0,0.0,180.0,1744420496.2539048,0.0,2025-04-11 21:14:56.253,FORWARD,25
236.0,21130.109862102254,26183.86163519164,-32123.994186400676,-22866.862758024068,-36444.29581693361,-29139.321045794615,-14427.805176711701,-37923.668375452566,0.0,0.0,0.0,193.0,0.0,194.0,0.0,0.0,0.0,179.0,194.0,0.0,179.0,1744420496.253946,0.0,2025-04-11 21:14:56.253,FORWARD,25
237.0,21151.813405968358,26184.778056714305,-32137.047605162577,-22877.05515349569,-36460.03144503015,-29164.086778651093,-13985.397098707808,-37911.82195089125,0.0,0.0,0.0,193.0,0.0,193.0,0.0,0.0,0.0,179.0,193.0,0.0,179.0,1744420496.253986,0.0,2025-04-11 21:14:56.253,FORWARD,25
238.0,21154.89794670319,26169.60122222915,-32141.450898820272,-22895.49534267132,-36464.524145665666,-29165.651400762967,-13898.694681965671,-37958.13476540265,0.0,0.0,0.0,193.0,0.0,193.0,0.0,0.0,0.0,179.0,193.0,0.0,179.0,1744420496.2540262,0.0,2025-04-11 21:14:56.254,FORWARD,25
239.0,21130.065158613346,26175.41267578753,-32130.900875437364,-22878.66447909647,-36450.84487805902,-29138.33756903858,-14233.38970343944,-37919.667413195064,0.0,0.0,0.0,193.0,0.0,194.0,0.0,0.0,0.0,180.0,194.0,0.0,180.0,1744420496.2540662,0.0,2025-04-11 21:14:56.254,FORWARD,25
240.0,21120.967998620035,26188.309632338245,-32120.619072987924,-22867.488606868817,-36437.07620347455,-29126.647606688453,-14434.465996559382,-37904.11059905417,0.0,0.0,0.0,193.0,0.0,193.0,0.0,0.0,0.0,179.0,193.0,0.0,179.0,1744420496.2541184,0.0,2025-04-11 21:14:56.254,FORWARD,25
241.0,21143.18563260861,26187.57202477122,-32134.186581872298,-22876.76458081777,-36454.13058449395,-29147.233563331793,-14069.171436926299,-37886.29625872329,0.0,0.0,0.0,193.0,0.0,193.0,0.0,0.0,0.0,179.0,193.0,0.0,179.0,1744420496.2541587,0.0,2025-04-11 21:14:56.254,FORWARD,25
242.0,21145.107882631768,26170.830568174195,-32146.07770992252,-22899.071621784165,-36467.452224189314,-29158.230621603805,-13860.942585580658,-37919.10861958368,0.0,0.0,0.0,193.0,0.0,193.0,0.0,0.0,0.0,179.0,193.0,0.0,179.0,1744420496.2541993,0.0,2025-04-11 21:14:56.254,FORWARD,25
243.0,21126.55593473386,26170.003553629347,-32137.7852127296,-22885.794685577715,-36454.97995078325,-29145.020740630716,-14184.215865637765,-37925.14359058662,0.0,0.0,0.0,193.0,0.0,194.0,0.0,0.0,0.0,180.0,194.0,0.0,180.0,1744420496.2542393,0.0,2025-04-11 21:14:56.254,FORWARD,25
244.0,21118.889286385693,26182.498178779864,-32130.65500624836,-22872.42834239344,-36446.57569486806,-29135.25302830375,-14454.604918313613,-37925.07653535325,0.0,0.0,0.0,193.0,0.0,194.0,0.0,0.0,0.0,180.0,194.0,0.0,180.0,1744420496.2542796,0.0,2025-04-11 21:14:56.254,FORWARD,25
245.0,21133.887306915203,26186.94617592647,-32137.44993656277,-22870.953127259392,-36457.5056979067,-29143.34435979657,-14189.08854592902,-37902.054238564284,0.0,0.0,0.0,193.0,0.0,193.0,0.0,0.0,0.0,179.0,193.0,0.0,179.0,1744420496.2543197,0.0,2025-04-11 21:14:56.254,FORWARD,25
246.0,21141.41984479664,26164.974411126903,-32155.532497827116,-22895.830618838147,-36473.73306438125,-29156.107205880548,-13847.531538907473,-37915.353526515195,0.0,0.0,0.0,193.0,0.0,193.0,0.0,0.0,0.0,179.0,193.0,0.0,179.0,1744420496.2543597,0.0,2025-04-11 21:14:56.254,FORWARD,25
247.0,21127.338245789797,26152.1221580651,-32145.518916311135,-22884.610043121582,-36458.53387815164,-29139.164583583428,-14115.484251437694,-37921.47790449594,0.0,0.0,0.0,193.0,0.0,194.0,0.0,0.0,0.0,179.0,194.0,0.0,179.0,1744420496.2544117,0.0,2025-04-11 21:14:56.254,FORWARD,25
248.0,21110.641492681683,26164.03563785978,-32137.06995690703,-22872.67421158245,-36450.91193329238,-29130.000368356752,-14421.501984775305,-37908.93857585652,0.0,0.0,0.0,193.0,0.0,193.0,0.0,0.0,0.0,179.0,193.0,0.0,179.0,1744420496.254452,0.0,2025-04-11 21:14:56.254,FORWARD,25
249.0,21128.880516157213,26174.540957753776,-32131.616131259936,-22864.202900433887,-36450.531953636644,-29133.598999214057,-14269.44306724585,-37890.36427621416,0.0,0.0,0.0,193.0,0.0,193.0,0.0,0.0,0.0,179.0,193.0,0.0,179.0,1744420496.254492,0.0,2025-04-11 21:14:56.254,FORWARD,25
250.0,21135.56368774935,26158.55946046823,-32161.612172318957,-22899.83158109565,-36488.015829088195,-29175.374409601023,-13867.469294961607,-37927.848151665705,0.0,0.0,0.0,193.0,0.0,193.0,0.0,0.0,0.0,179.0,193.0,0.0,179.0,1744420496.2545452,0.0,2025-04-11 21:14:56.254,FORWARD,25
251.0,21128.724053946025,26149.149376052545,-32152.090329181,-22900.30096772921,-36476.191756271335,-29168.870051964528,-14086.047003990056,-37963.34272186074,0.0,0.0,0.0,193.0,0.0,194.0,0.0,0.0,0.0,179.0,194.0,0.0,179.0,1744420496.254586,0.0,2025-04-11 21:14:56.254,FORWARD,25
252.0,21119.582190463807,26177.491388021874,-32127.749279469168,-22873.188301704922,-36451.716596092774,-29139.14223183897,-14403.933513633432,-37923.48956149692,0.0,0.0,0.0,193.0,0.0,193.0,0.0,0.0,0.0,179.0,193.0,0.0,179.0,1744420496.254626,0.0,2025-04-11 21:14:56.254,FORWARD,25
253.0,21127.204135323067,26182.94521366897,-32127.481058535705,-22869.76848480326,-36460.63494213044,-29145.981865642294,-14358.805341578167,-37915.08530558173,0.0,0.0,0.0,193.0,0.0,193.0,0.0,0.0,0.0,179.0,193.0,0.0,179.0,1744420496.2546663,0.0,2025-04-11 21:14:56.254,FORWARD,25
254.0,21148.259478599964,26179.681858978496,-32146.658855278358,-22887.53812164523,-36484.64071567544,-29169.495900809277,-13896.213638331134,-37920.382669017636,0.0,0.0,0.0,193.0,0.0,193.0,0.0,0.0,0.0,179.0,193.0,0.0,179.0,1744420496.2547064,0.0,2025-04-11 21:14:56.254,FORWARD,25
255.0,21141.352789563276,26160.99580061386,-32137.382881329406,-22887.96280478988,-36465.46291893279,-29156.286019836192,-14020.15406133581,-37948.14353563113,0.0,0.0,0.0,193.0,0.0,194.0,0.0,0.0,0.0,179.0,194.0,0.0,179.0,1744420496.2547584,0.0,2025-04-11 21:14:56.254,FORWARD,25
0.0,21119.112803830245,26166.36021928313,-32131.21379985974,-22873.121246471554,-36457.84097407353,-29139.34339753907,-14345.662515838447,-37916.381706760134,0.0,0.0,0.0,193.0,0.0,193.0,0.0,0.0,0.0,179.0,193.0,0.0,179.0,1744420496.254799,0.0,2025-04-11 21:14:56.254,FORWARD,25
1.0,21125.885382400204,26179.2795275783,-32117.713346208737,-22856.91623174146,-36448.296779191114,-29128.86042938953,-14402.838278155123,-37897.40507571758,0.0,0.0,0.0,193.0,0.0,193.0,0.0,0.0,0.0,179.0,193.0,0.0,179.0,1744420496.2548387,0.0,2025-04-11 21:14:56.254,FORWARD,25
2.0,21148.1924233666,26179.57010025622,-32128.442183547282,-22866.77335104625,-36462.288971220136,-29151.6815604784,-13934.56923181644,-37889.31374422476,0.0,0.0,0.0,193.0,0.0,193.0,0.0,0.0,0.0,179.0,193.0,0.0,179.0,1744420496.2548797,0.0,2025-04-11 21:14:56.254,FORWARD,25
3.0,21138.491766272997,26156.74896916735,-32135.77355572862,-22884.721801843858,-36468.68157013435,-29157.42595880341,-13944.672220310238,-37938.778154704356,0.0,0.0,0.0,193.0,0.0,194.0,0.0,0.0,0.0,180.0,194.0,0.0,180.0,1744420496.2549195,0.0,2025-04-11 21:14:56.254,FORWARD,25
4.0,21110.485030470496,26155.005533099837,-32134.58891327249,-22879.446790152408,-36466.73696836674,-29152.57563025661,-14293.426489046395,-37937.63821573713,0.0,0.0,0.0,193.0,0.0,194.0,0.0,0.0,0.0,179.0,194.0,0.0,179.0,1744420496.2549596,0.0,2025-04-11 21:14:56.254,FORWARD,25
5.0,21109.725071159017,26167.23193731689,-32122.854247433457,-22870.036705736722,-36451.91776179287,-29143.92550515241,-14443.250232130318,-37919.71211668398,0.0,0.0,0.0,193.0,0.0,193.0,0.0,0.0,0.0,179.0,193.0,0.0,179.0,1744420496.2550027,0.0,2025-04-11 21:14:56.255,FORWARD,25
6.0,21137.731806961514,26171.411713530033,-32132.085517893498,-22873.076542982646,-36461.05962527509,-29161.20340361636,-14011.950971120712,-37888.68789538001,0.0,0.0,0.0,193.0,0.0,193.0,0.0,0.0,0.0,179.0,193.0,0.0,179.0,1744420496.2550557,0.0,2025-04-11 21:14:56.255,FORWARD,25
7.0,21142.313914574854,26155.541974966764,-32134.857134205955,-22886.10761000009,-36460.21025898579,-29161.53867978319,-13896.75008019806,-37925.54592198681,0.0,0.0,0.0,193.0,0.0,194.0,0.0,0.0,0.0,179.0,194.0,0.0,179.0,1744420496.2550964,0.0,2025-04-11 21:14:56.255,FORWARD,25
8.0,21119.738652674994,26153.530317965786,-32127.615169002434,-22874.216481949865,-36448.0509100021,-29146.428900531402,-14219.978656766256,-37907.5974711892,0.0,0.0,0.0,193.0,0.0,193.0,0.0,0.0,0.0,179.0,193.0,0.0,179.0,1744420496.2551365,0.0,2025-04-11 21:14:56.255,FORWARD,25
9.0,21107.400489735664,26158.872384890605,-32123.30128232256,-22869.85789178108,-36445.61456985647,-29143.970208641316,-14448.81581649969,-37919.063916094776,0.0,0.0,0.0,193.0,0.0,193.0,0.0,0.0,0.0,179.0,193.0,0.0,179.0,1744420496.25519,0.0,2025-04-11 21:14:56.255,FORWARD,25
10.0,21121.482088742505,26154.759663910827,-32138.70163425227,-22878.262147696274,-36464.43473868784,-29163.036246661693,-14110.544515913072,-37901.294279252805,0.0,0.0,0.0,193.0,0.0,194.0,0.0,0.0,0.0,179.0,194.0,0.0,179.0,1744420496.2552302,0.0,2025-04-11 21:14:56.255,FORWARD,25
11.0,21128.05350161237,26141.169803282002,-32152.716178025745,-22903.743136375328,-36473.956581825805,-29177.29665962418,-13872.476085719596,-37936.095945369714,0.0,0.0,0.0,193.0,0.0,194.0,0.0,0.0,0.0,179.0,194.0,0.0,179.0,1744420496.2552705,0.0,2025-04-11 21:14:56.255,FORWARD,25
12.0,21108.540428702883,26143.896716105548,-32146.480041322717,-22892.455505425394,-36461.77488109766,-29159.571726271122,-14163.9428334168,-37925.83649466473,0.0,0.0,0.0,193.0,0.0,193.0,0.0,0.0,0.0,179.0,193.0,0.0,179.0,1744420496.255311,0.0,2025-04-11 21:14:56.255,FORWARD,25
13.0,21093.676518640106,26149.372893497097,-32135.192410372787,-22875.401124405995,-36448.14031697992,-29142.85262141855,-14456.258947403307,-37918.99686086141,0.0,0.0,0.0,193.0,0.0,193.0,0.0,0.0,0.0,179.0,193.0,0.0,179.0,1744420496.2553508,0.0,2025-04-11 21:14:56.255,FORWARD,25
14.0,21106.014681579432,26148.858803374627,-32140.288608108596,-22875.848159295103,-36456.343407195025,-29154.855508191053,-14201.42670886835,-37896.55570942828,0.0,0.0,0.0,193.0,0.0,193.0,0.0,0.0,0.0,179.0,193.0,0.0,179.0,1744420496.2554033,0.0,2025-04-11 21:14:56.255,FORWARD,25
15.0,21128.47818475702,26138.487593947364,-32151.732701269713,-22897.931682816947,-36468.36864571198,-29173.92154621143,-13837.40619866922,-37924.584796975236,0.0,0.0,0.0,193.0,0.0,194.0,0.0,0.0,0.0,179.0,194.0,0.0,179.0,1744420496.2554436,0.0,2025-04-11 21:14:56.255,FORWARD,25
16.0,21111.289693270886,26129.390433954053,-32149.206954146262,-22893.148409503512,-36465.842898588526,-29158.767063470732,-14099.16747798532,-37938.04054713733,0.0,0.0,0.0,193.0,0.0,193.0,0.0,0.0,0.0,179.0,193.0,0.0,179.0,1744420496.2554836,0.0,2025-04-11 21:14:56.255,FORWARD,25
17.0,21095.844637852268,26148.791748141262,-32134.477154550215,-22874.596461605604,-36454.89054380543,-29136.884705648987,-14433.393112825528,-37920.82970390674,0.0,0.0,0.0,193.0,0.0,193.0,0.0,0.0,0.0,179.0,193.0,0.0,179.0,1744420496.255524,0.0,2025-04-11 21:14:56.255,FORWARD,25
18.0,21112.921370616124,26156.74896916735,-32128.710404480746,-22867.734476057827,-36454.42115717187,-29140.282170806193,-14302.50129729525,-37894.588755916215,0.0,0.0,0.0,193.0,0.0,193.0,0.0,0.0,0.0,179.0,193.0,0.0,179.0,1744420496.255564,0.0,2025-04-11 21:14:56.255,FORWARD,25
19.0,21139.76581570695,26152.3233237652,-32142.12145115393,-22885.772333833258,-36467.251058489215,-29163.527985039713,-13857.478065190086,-37895.52752918333,0.0,0.0,0.0,193.0,0.0,194.0,0.0,0.0,0.0,180.0,194.0,0.0,180.0,1744420496.2556045,0.0,2025-04-11 21:14:56.255,FORWARD,25
20.0,21122.33145503181,26140.856878859628,-32139.819221475034,-22886.778162333747,-36463.473613676266,-29158.208269859348,-14048.20550062722,-37931.64794822311,0.0,0.0,0.0,193.0,0.0,194.0,0.0,0.0,0.0,180.0,194.0,0.0,180.0,1744420496.2556443,0.0,2025-04-11 21:14:56.255,FORWARD,25
21.0,21099.84560010977,26152.18921329847,-32131.236151604196,-22875.691697083916,-36456.343407195025,-29148.105281365548,-14384.733365146323,-37918.52747422784,0.0,0.0,0.0,193.0,0.0,193.0,0.0,0.0,0.0,179.0,193.0,0.0,179.0,1744420496.2557847,0.0,2025-04-11 21:14:56.255,FORWARD,25
22.0,21110.641492681683,26163.141568081566,-32120.887293921387,-22867.600365591094,-36443.84878204451,-29153.33558956809,-14357.21836772184,-37919.533302728334,0.0,0.0,0.0,193.0,0.0,193.0,0.0,0.0,0.0,179.0,193.0,0.0,179.0,1744420496.2558248,0.0,2025-04-11 21:14:56.255,FORWARD,25
23.0,21139.251725584476,26162.001629114347,-32137.69580575178,-22883.648918110004,-36463.473613676266,-29174.25682237826,-13880.030975345491,-37910.592604946214,0.0,0.0,0.0,193.0,0.0,193.0,0.0,0.0,0.0,179.0,193.0,0.0,179.0,1744420496.255864,0.0,2025-04-11 21:14:56.255,FORWARD,25
24.0,21129.931048146613,26143.337922494167,-32140.892105208888,-22893.796610092715,-36463.31715146508,-29167.596002530576,-13968.923863044247,-37929.815105177775,0.0,0.0,0.0,193.0,0.0,193.0,0.0,0.0,0.0,179.0,193.0,0.0,179.0,1744420496.255918,0.0,2025-04-11 21:14:56.255,FORWARD,25
25.0,21105.70175715706,26152.61389644312,-32130.610302759447,-22877.837464551623,-36449.88375304744,-29151.592153500576,-14329.748073786268,-37916.33700327123,0.0,0.0,0.0,193.0,0.0,193.0,0.0,0.0,0.0,179.0,193.0,0.0,179.0,1744420496.2559571,0.0,2025-04-11 21:14:56.255,FORWARD,25
26.0,21106.104088557255,26161.08520759168,-32124.463573034238,-22871.802493548694,-36448.47559314675,-29153.134423867992,-14410.639036970024,-37923.57896847474,0.0,0.0,0.0,193.0,0.0,194.0,0.0,0.0,0.0,179.0,194.0,0.0,179.0,1744420496.255996,0.0,2025-04-11 21:14:56.255,FORWARD,25
27.0,21139.89992617368,26171.724637952404,-32125.625863745914,-22869.76848480326,-36451.716596092774,-29159.214098359836,-13953.679973325727,-37895.7957501168,0.0,0.0,0.0,193.0,0.0,193.0,0.0,0.0,0.0,179.0,193.0,0.0,179.0,1744420496.256035,0.0,2025-04-11 21:14:56.256,FORWARD,25
28.0,21134.110824359755,26148.88115511908,-32130.49854403717,-22884.878264055045,-36457.3045322066,-29160.018761160227,-13923.169842144232,-37923.62367196366,0.0,0.0,0.0,193.0,0.0,193.0,0.0,0.0,0.0,179.0,193.0,0.0,179.0,1744420496.2560844,0.0,2025-04-11 21:14:56.256,FORWARD,25
29.0,21110.105050814756,26154.0220563438,-32124.68709047879,-22874.127074972042,-36451.35896818149,-29145.266609819726,-14272.661718447414,-37907.798636889296,0.0,0.0,0.0,193.0,0.0,193.0,0.0,0.0,0.0,179.0,193.0,0.0,179.0,1744420496.2561362,0.0,2025-04-11 21:14:56.256,FORWARD,25
30.0,21107.04286182438,26174.898585665058,-32111.566616483527,-22859.08435095362,-36436.763279052175,-29134.87304864801,-14437.796406483223,-37901.584851930726,0.0,0.0,0.0,193.0,0.0,193.0,0.0,0.0,0.0,179.0,193.0,0.0,179.0,1744420496.2561755,0.0,2025-04-11 21:14:56.256,FORWARD,25
31.0,21139.072911628835,26183.23578634689,-32116.0816688635,-22857.363266630564,-36446.70980533479,-29148.552316254656,-14015.124918833366,-37874.27102020634,0.0,0.0,0.0,193.0,0.0,193.0,0.0,0.0,0.0,179.0,193.0,0.0,179.0,1744420496.2562141,0.0,2025-04-11 21:14:56.256,FORWARD,25
32.0,21140.36931280724,26159.14060582407,-32128.330424825006,-22881.52550238675,-36456.72338685076,-29161.024589660716,-13878.175780555699,-37922.46138125198,0.0,0.0,0.0,193.0,0.0,193.0,0.0,0.0,0.0,179.0,193.0,0.0,179.0,1744420496.256253,0.0,2025-04-11 21:14:56.256,FORWARD,25
33.0,21119.157507319156,26158.782977912782,-32121.513142766136,-22866.77335104625,-36445.90514253439,-29145.08779586408,-14212.446118884816,-37917.02990734934,0.0,0.0,0.0,193.0,0.0,194.0,0.0,0.0,0.0,179.0,194.0,0.0,179.0,1744420496.256292,0.0,2025-04-11 21:14:56.256,FORWARD,25
34.0,21109.45685022555,26168.014248372823,-32108.415020515327,-22849.942487471402,-36432.091764461016,-29130.737975923777,-14450.022810700275,-37908.02215433385,0.0,0.0,0.0,193.0,0.0,193.0,0.0,0.0,0.0,179.0,193.0,0.0,179.0,1744420496.2563312,0.0,2025-04-11 21:14:56.256,FORWARD,25
35.0,21130.020455124435,26170.003553629347,-32116.282834563597,-22854.56929857365,-36439.490191875724,-29150.027531388707,-14114.724292126215,-37891.370104714646,0.0,0.0,0.0,193.0,0.0,193.0,0.0,0.0,0.0,179.0,193.0,0.0,179.0,1744420496.2563703,0.0,2025-04-11 21:14:56.256,FORWARD,25
36.0,21136.681274972114,26150.13285280858,-32133.896009194377,-22883.24658670981,-36457.3045322066,-29168.445368819877,-13865.41293447172,-37936.520628514365,0.0,0.0,0.0,193.0,0.0,193.0,0.0,0.0,0.0,179.0,193.0,0.0,179.0,1744420496.2564988,0.0,2025-04-11 21:14:56.256,FORWARD,25
37.0,21114.50834447245,26142.89088760506,-32128.129259124908,-22874.439999394417,-36445.79338381212,-29147.09945286506,-14152.722257700236,-37914.41475324807,0.0,0.0,0.0,193.0,0.0,194.0,0.0,0.0,0.0,180.0,194.0,0.0,180.0,1744420496.2565389,0.0,2025-04-11 21:14:56.256,FORWARD,25
38.0,21100.739669887982,26157.240707545367,-32119.054450876054,-22864.158196944976,-36431.600026083,-29134.29190329217,-14427.022865655765,-37898.50031119589,0.0,0.0,0.0,193.0,0.0,193.0,0.0,0.0,0.0,179.0,193.0,0.0,179.0,1744420496.2565784,0.0,2025-04-11 21:14:56.256,FORWARD,25
39.0,21117.57053346283,26158.55946046823,-32126.11760212393,-22868.71795281386,-36441.25597968769,-29151.994484900773,-14193.402432608895,-37896.60041291719,0.0,0.0,0.0,193.0,0.0,193.0,0.0,0.0,0.0,179.0,193.0,0.0,179.0,1744420496.2566328,0.0,2025-04-11 21:14:56.256,FORWARD,25
40.0,21131.585077236305,26145.438986472964,-32144.64719827738,-22893.796610092715,-36460.880811319454,-29170.05469442066,-13825.537422363452,-37923.42250626356,0.0,0.0,0.0,193.0,0.0,193.0,0.0,0.0,0.0,179.0,193.0,0.0,179.0,1744420496.2566726,0.0,2025-04-11 21:14:56.256,FORWARD,25
41.0,21116.408242751153,26141.236858515367,-32138.165192385342,-22881.458447153385,-36453.21416297128,-29142.025606873707,-14084.795306300559,-37914.45945673698,0.0,0.0,0.0,193.0,0.0,193.0,0.0,0.0,0.0,179.0,193.0,0.0,179.0,1744420496.2567117,0.0,2025-04-11 21:14:56.256,FORWARD,25
42.0,21105.500591456963,26154.98318135538,-32126.654043990857,-22861.833615521624,-36441.792421554615,-29119.696214162854,-14404.335845033627,-37882.943497055,0.0,0.0,0.0,193.0,0.0,193.0,0.0,0.0,0.0,179.0,193.0,0.0,179.0,1744420496.2567515,0.0,2025-04-11 21:14:56.256,FORWARD,25
43.0,21114.933027617102,26152.278620276287,-32125.69291897928,-22857.89970849749,-36445.68162508984,-29130.737975923777,-14302.25542810624,-37882.87644182163,0.0,0.0,0.0,193.0,0.0,193.0,0.0,0.0,0.0,179.0,193.0,0.0,179.0,1744420496.2568176,0.0,2025-04-11 21:14:56.256,FORWARD,25
44.0,21144.8396616983,26149.68581791947,-32137.20406737376,-22875.848159295103,-36461.81958458657,-29152.396816300967,-13857.232196001078,-37889.134930269116,0.0,0.0,0.0,193.0,0.0,193.0,0.0,0.0,0.0,179.0,193.0,0.0,179.0,1744420496.256871,0.0,2025-04-11 21:14:56.256,FORWARD,25
45.0,21128.120556845734,26135.64892240154,-32134.58891327249,-22883.112476243077,-36457.88567756244,-29151.01100814474,-14027.217212583688,-37923.668375452566,0.0,0.0,0.0,193.0,0.0,194.0,0.0,0.0,0.0,179.0,194.0,0.0,179.0,1744420496.2569127,0.0,2025-04-11 21:14:56.256,FORWARD,25
46.0,21109.210981036544,26156.03371334478,-32119.993224143178,-22867.555662102182,-36438.663177330876,-29132.369653269012,-14372.015222551254,-37907.82098863375,0.0,0.0,0.0,193.0,0.0,193.0,0.0,0.0,0.0,179.0,193.0,0.0,179.0,1744420496.256953,0.0,2025-04-11 21:14:56.256,FORWARD,25
47.0,21119.1351555747,26169.26594606232,-32111.432506016794,-22856.46919685235,-36430.16951443786,-29130.626217201498,-14371.635242895514,-37894.432293705024,0.0,0.0,0.0,193.0,0.0,193.0,0.0,0.0,0.0,179.0,193.0,0.0,179.0,1744420496.2569933,0.0,2025-04-11 21:14:56.256,FORWARD,25
48.0,21138.84939418428,26163.856823904138,-32132.912532438342,-22874.685868583427,-36456.186944983834,-29162.231583861303,-13884.143696325267,-37893.962907071465,0.0,0.0,0.0,193.0,0.0,193.0,0.0,0.0,0.0,179.0,193.0,0.0,179.0,1744420496.2570376,0.0,2025-04-11 21:14:56.257,FORWARD,25
49.0,21132.99323713699,26151.831585387183,-32132.219628360228,-22880.586729119626,-36454.17528798286,-29155.481357035802,-13979.138610260321,-37935.87242792516,0.0,0.0,0.0,193.0,0.0,194.0,0.0,0.0,0.0,179.0,194.0,0.0,179.0,1744420496.2570777,0.0,2025-04-11 21:14:56.257,FORWARD,25
50.0,21104.94179784558,26154.2232220439,-32132.06316614904,-22871.46721738186,-36454.17528798286,-29145.981865642294,-14328.965762730333,-37922.684898696534,0.0,0.0,0.0,193.0,0.0,193.0,0.0,0.0,0.0,179.0,193.0,0.0,179.0,1744420496.257118,0.0,2025-04-11 21:14:56.257,FORWARD,25
51.0,21111.915542115636,26166.94136463897,-32114.002956629152,-22856.022161963247,-36431.91295050537,-29137.309388793637,-14427.179327866952,-37914.97354685945,0.0,0.0,0.0,193.0,0.0,193.0,0.0,0.0,0.0,179.0,193.0,0.0,179.0,1744420496.2572787,0.0,2025-04-11 21:14:56.257,FORWARD,25
52.0,21134.334341804308,26160.23584130238,-32130.20797135925,-22870.28257492573,-36450.531953636644,-29161.225755360814,-13934.32336262743,-37884.88809882261,0.0,0.0,0.0,193.0,0.0,193.0,0.0,0.0,0.0,179.0,193.0,0.0,179.0,1744420496.2573185,0.0,2025-04-11 21:14:56.257,FORWARD,25
53.0,21134.60256273777,26145.707207406427,-32131.54907602657,-22880.564377375173,-36457.08101476205,-29158.632953004,-13914.564420528939,-37932.29614881231,0.0,0.0,0.0,193.0,0.0,193.0,0.0,0.0,0.0,179.0,193.0,0.0,179.0,1744420496.2573578,0.0,2025-04-11 21:14:56.257,FORWARD,25
54.0,21112.80961189385,26154.379684255087,-32120.619072987924,-22862.705333555383,-36442.66413958838,-29136.504725993243,-14254.19917752733,-37905.11642755466,0.0,0.0,0.0,193.0,0.0,193.0,0.0,0.0,0.0,179.0,193.0,0.0,179.0,1744420496.2574117,0.0,2025-04-11 21:14:56.257,FORWARD,25
55.0,21104.159486789642,26157.106597078633,-32116.484000263692,-22860.470159109853,-36433.81284878407,-29136.080042848593,-14427.805176711701,-37897.718000139954,0.0,0.0,0.0,193.0,0.0,193.0,0.0,0.0,0.0,179.0,193.0,0.0,179.0,1744420496.2574513,0.0,2025-04-11 21:14:56.257,FORWARD,25
56.0,21129.059330112857,26158.872384890605,-32126.36347131294,-22864.895804512,-36448.67675884685,-29155.257839591246,-14021.24929681412,-37877.62378187463,0.0,0.0,0.0,193.0,0.0,193.0,0.0,0.0,0.0,179.0,193.0,0.0,179.0,1744420496.25749,0.0,2025-04-11 21:14:56.257,FORWARD,25
57.0,21128.455833012562,26143.248515516345,-32137.338177840495,-22886.308775700185,-36455.67285486136,-29167.39483683048,-13867.066963561412,-37924.137762086124,0.0,0.0,0.0,193.0,0.0,194.0,0.0,0.0,0.0,179.0,194.0,0.0,179.0,1744420496.2575293,0.0,2025-04-11 21:14:56.257,FORWARD,25
58.0,21111.51321071544,26148.434120229977,-32127.21283760224,-22870.90842377048,-36446.37452916796,-29148.105281365548,-14190.317891874063,-37921.32144228476,0.0,0.0,0.0,193.0,0.0,194.0,0.0,0.0,0.0,180.0,194.0,0.0,180.0,1744420496.2575681,0.0,2025-04-11 21:14:56.257,FORWARD,25
59.0,21112.072004326823,26167.924841395004,-32107.11861933692,-22850.680095038428,-36430.52714234914,-29126.021757843708,-14449.218147899885,-37900.243747263405,0.0,0.0,0.0,193.0,0.0,193.0,0.0,0.0,0.0,179.0,193.0,0.0,179.0,1744420496.2576194,0.0,2025-04-11 21:14:56.257,FORWARD,25
60.0,21125.304237044365,26165.041466360268,-32119.993224143178,-22861.252470165786,-36448.14031697992,-29157.023627403218,-14137.053684837067,-37898.81323561826,0.0,0.0,0.0,193.0,0.0,193.0,0.0,0.0,0.0,179.0,193.0,0.0,179.0,1744420496.2576587,0.0,2025-04-11 21:14:56.257,FORWARD,25
61.0,21131.31685630284,26150.334018508678,-32130.610302759447,-22878.798589563205,-36453.43768041583,-29160.398740815966,-13846.704524362627,-37919.71211668398,0.0,0.0,0.0,193.0,0.0,193.0,0.0,0.0,0.0,178.0,193.0,0.0,178.0,1744420496.2576978,0.0,2025-04-11 21:14:56.257,FORWARD,25
62.0,21113.971902605525,26143.919067850005,-32123.07776487801,-22867.041571979713,-36441.21127619878,-29138.15875508294,-14127.285972510097,-37906.27871826634,0.0,0.0,0.0,193.0,0.0,193.0,0.0,0.0,0.0,179.0,193.0,0.0,179.0,1744420496.2577364,0.0,2025-04-11 21:14:56.257,FORWARD,25
63.0,21096.895169841668,26152.9715243544,-32114.137067095886,-22856.200975918888,-36432.985834239225,-29124.3230252651,-14425.972333666365,-37894.63345940512,0.0,0.0,0.0,193.0,0.0,193.0,0.0,0.0,0.0,180.0,193.0,0.0,180.0,1744420496.2577755,0.0,2025-04-11 21:14:56.257,FORWARD,25
64.0,21115.111841572743,26163.74506518186,-32109.10792459344,-22846.075635680634,-36424.939206235314,-29129.016891600717,-14210.210944439286,-37874.49453765089,0.0,0.0,0.0,193.0,0.0,194.0,0.0,0.0,0.0,179.0,194.0,0.0,179.0,1744420496.7314005,0.0,2025-04-11 21:14:56.731,FORWARD,25
65.0,21126.667693456136,26150.624591186595,-32133.7842504721,-22874.48470288333,-36451.649540859406,-29156.844813447573,-13824.330428162864,-37909.4973694679,0.0,0.0,0.0,193.0,0.0,193.0,0.0,0.0,0.0,179.0,193.0,0.0,179.0,1744420496.731612,0.0,2025-04-11 21:14:56.731,FORWARD,25
66.0,21110.97676884851,26138.39818696954,-32129.89504693688,-22869.99200224781,-36449.45906990279,-29139.902191150453,-14074.513503851118,-37923.109581841185,0.0,0.0,0.0,193.0,0.0,193.0,0.0,0.0,0.0,179.0,193.0,0.0,179.0,1744420496.7318192,0.0,2025-04-11 21:14:56.731,FORWARD,25
67.0,21098.59390242027,26150.646942931053,-32118.473305520216,-22856.893879997002,-36437.523238363654,-29125.86529563252,-14398.27852228624,-37904.244709520906,0.0,0.0,0.0,193.0,0.0,194.0,0.0,0.0,0.0,180.0,194.0,0.0,180.0,1744420496.7318683,0.0,2025-04-11 21:14:56.731,FORWARD,25
68.0,21113.36840550523,26157.196004056455,-32116.50635200815,-22855.48572009632,-36434.70691856229,-29136.10239459305,-14299.528515282693,-37898.5450146848,0.0,0.0,0.0,193.0,0.0,194.0,0.0,0.0,0.0,179.0,194.0,0.0,179.0,1744420496.7319152,0.0,2025-04-11 21:14:56.731,FORWARD,25
69.0,21137.307123816863,26156.70426567844,-32130.766764970635,-22870.61785109256,-36450.12962223645,-29155.928391924906,-13853.477102932586,-37899.1485117851,0.0,0.0,0.0,193.0,0.0,194.0,0.0,0.0,0.0,180.0,194.0,0.0,180.0,1744420496.731983,0.0,2025-04-11 21:14:56.731,FORWARD,25
70.0,21122.242048053988,26143.18146028298,-32133.136049882898,-22877.05515349569,-36454.21999147177,-29151.078063378107,-14020.198764824721,-37939.35930006019,0.0,0.0,0.0,193.0,0.0,193.0,0.0,0.0,0.0,179.0,193.0,0.0,179.0,1744420496.7320304,0.0,2025-04-11 21:14:56.732,FORWARD,25
71.0,21104.539466445385,26167.298992550255,-32122.78719220009,-22861.677153310437,-36448.07326174656,-29137.53290623819,-14378.296062743195,-37929.99391913342,0.0,0.0,0.0,193.0,0.0,193.0,0.0,0.0,0.0,179.0,193.0,0.0,179.0,1744420496.7320836,0.0,2025-04-11 21:14:56.732,FORWARD,25
72.0,21113.189591549588,26169.712980951426,-32111.8795409059,-22851.462406094364,-36438.3502529085,-29138.33756903858,-14396.557437963182,-37918.68393643903,0.0,0.0,0.0,193.0,0.0,193.0,0.0,0.0,0.0,179.0,193.0,0.0,179.0,1744420496.7321308,0.0,2025-04-11 21:14:56.732,FORWARD,25
73.0,21144.10205413128,26160.9734488694,-32122.988357900187,-22857.92206024195,-36447.961503024286,-29149.647551732967,-13903.813231445936,-37872.281714949815,0.0,0.0,0.0,193.0,0.0,194.0,0.0,0.0,0.0,179.0,194.0,0.0,179.0,1744420496.7321768,0.0,2025-04-11 21:14:56.732,FORWARD,25
74.0,21137.84356568379,26144.857841117126,-32126.251712590663,-22866.058095223678,-36450.24138095872,-29148.61937148802,-13950.99776399109,-37910.27968052384,0.0,0.0,0.0,193.0,0.0,193.0,0.0,0.0,0.0,179.0,193.0,0.0,179.0,1744420496.73224,0.0,2025-04-11 21:14:56.732,FORWARD,25
75.0,21115.71533867304,26159.341771524167,-32117.199256086264,-22852.870565995046,-36440.183095953835,-29134.135441080984,-14302.747166484258,-37902.613032175665,0.0,0.0,0.0,193.0,0.0,193.0,0.0,0.0,0.0,178.0,193.0,0.0,178.0,1744420496.7322867,0.0,2025-04-11 21:14:56.732,FORWARD,25
76.0,21118.017568351934,26170.383533285087,-32103.74350592417,-22839.906554210967,-36427.08497370303,-29125.775888654698,-14417.143394606519,-37893.381761715624,0.0,0.0,0.0,193.0,0.0,193.0,0.0,0.0,0.0,179.0,193.0,0.0,179.0,1744420496.7323337,0.0,2025-04-11 21:14:56.732,FORWARD,25
77.0,21134.155527848667,26163.186271570477,-32128.64334924738,-22858.77142653125,-36457.63980837343,-29158.789415215186,-13965.9957845206,-37894.231128004925,0.0,0.0,0.0,193.0,0.0,194.0,0.0,0.0,0.0,179.0,194.0,0.0,179.0,1744420496.73238,0.0,2025-04-11 21:14:56.732,FORWARD,25
78.0,21127.18178357861,26140.767471881805,-32137.762860985145,-22877.81511280717,-36460.322017708066,-29161.136348382992,-13906.003702402557,-37928.272834810356,0.0,0.0,0.0,193.0,0.0,193.0,0.0,0.0,0.0,179.0,193.0,0.0,179.0,1744420496.7324264,0.0,2025-04-11 21:14:56.732,FORWARD,25
79.0,21110.70854791505,26156.771320911805,-32122.720136966724,-22855.66453405196,-36440.20544769829,-29133.44253700287,-14231.087473760543,-37897.8968140956,0.0,0.0,0.0,193.0,0.0,193.0,0.0,0.0,0.0,179.0,193.0,0.0,179.0,1744420496.7324724,0.0,2025-04-11 21:14:56.732,FORWARD,25
80.0,21108.003986835956,26174.965640898426,-32108.862055404432,-22840.130071655523,-36428.29196790361,-29119.38328974048,-14431.962601180388,-37890.29722098079,0.0,0.0,0.0,193.0,0.0,193.0,0.0,0.0,0.0,179.0,193.0,0.0,179.0,1744420496.732519,0.0,2025-04-11 21:14:56.732,FORWARD,25
81.0,21132.70266445907,26172.641059475074,-32119.92616890981,-22842.834632734615,-36444.27346518916,-29139.05282486115,-14046.484416304162,-37880.68597086501,0.0,0.0,0.0,193.0,0.0,193.0,0.0,0.0,0.0,179.0,193.0,0.0,179.0,1744420496.7326467,0.0,2025-04-11 21:14:56.732,FORWARD,25
82.0,21139.9893331515,26155.765492411316,-32133.40427081636,-22865.23108067883,-36455.62815137245,-29149.111109866037,-13867.201074028144,-37929.23395982194,0.0,0.0,0.0,193.0,0.0,194.0,0.0,0.0,0.0,180.0,194.0,0.0,180.0,1744420496.7326937,0.0,2025-04-11 21:14:56.732,FORWARD,25
83.0,21117.838754396293,26153.619724943608,-32127.570465513527,-22853.027028206234,-36444.76520356717,-29128.391042755968,-14190.876685485446,-37907.441008978014,0.0,0.0,0.0,193.0,0.0,193.0,0.0,0.0,0.0,179.0,193.0,0.0,179.0,1744420496.7327404,0.0,2025-04-11 21:14:56.732,FORWARD,25
84.0,21106.618178679728,26171.74698969686,-32115.478171763203,-22838.923077454936,-36430.37068013796,-29110.643757658454,-14441.037409429242,-37886.340962212205,0.0,0.0,0.0,193.0,0.0,193.0,0.0,0.0,0.0,179.0,193.0,0.0,179.0,1744420496.732882,0.0,2025-04-11 21:14:56.732,FORWARD,25
85.0,21128.075853356822,26179.234824089388,-32119.434430531794,-22838.52074605474,-36437.612645341476,-29123.51836246471,-14136.673705181325,-37869.46539514844,0.0,0.0,0.0,193.0,0.0,193.0,0.0,0.0,0.0,178.0,193.0,0.0,178.0,1744420496.7329285,0.0,2025-04-11 21:14:56.732,FORWARD,25
86.0,21128.098205101276,26153.955001110437,-32144.915419210844,-22869.366153403065,-36462.82541308706,-29149.468737777323,-13834.366361423297,-37917.588700960725,0.0,0.0,0.0,193.0,0.0,193.0,0.0,0.0,0.0,179.0,193.0,0.0,179.0,1744420496.7329752,0.0,2025-04-11 21:14:56.732,FORWARD,25
87.0,21104.047728067366,26137.191192768958,-32140.802698231066,-22861.56539458816,-36451.381319925946,-29131.252066046247,-14115.730120626704,-37912.827779391744,0.0,0.0,0.0,193.0,0.0,194.0,0.0,0.0,0.0,179.0,194.0,0.0,179.0,1744420496.733022,0.0,2025-04-11 21:14:56.733,FORWARD,25
88.0,21088.73678311548,26146.757739395827,-32130.096212636974,-22850.56833631615,-36444.228761700244,-29118.511571706724,-14429.258040101295,-37900.042581563306,0.0,0.0,0.0,193.0,0.0,194.0,0.0,0.0,0.0,179.0,194.0,0.0,179.0,1744420496.7330685,0.0,2025-04-11 21:14:56.733,FORWARD,25
89.0,21114.530696216905,26161.66635294752,-32124.0835933785,-22842.834632734615,-36440.38426165393,-29124.74770840975,-14244.453816944817,-37882.40705518807,0.0,0.0,0.0,193.0,0.0,193.0,0.0,0.0,0.0,179.0,193.0,0.0,179.0,1744420496.733135,0.0,2025-04-11 21:14:56.733,FORWARD,25
90.0,21132.52385050343,26155.184347055478,-32141.294436609085,-22864.314659156164,-36456.11988975047,-29142.070310362615,-13821.894088017236,-37883.681104622025,0.0,0.0,0.0,193.0,0.0,193.0,0.0,0.0,0.0,178.0,193.0,0.0,178.0,1744420496.7331817,0.0,2025-04-11 21:14:56.733,FORWARD,25
91.0,21109.166277547632,26144.924896350494,-32137.114660395942,-22857.22915616383,-36450.21902921427,-29126.20057179935,-14047.82552097148,-37912.87248288065,0.0,0.0,0.0,193.0,0.0,193.0,0.0,0.0,0.0,179.0,193.0,0.0,179.0,1744420496.7332284,0.0,2025-04-11 21:14:56.733,FORWARD,25
92.0,21083.64058537967,26151.205736542433,-32133.963064427742,-22846.299153125186,-36447.58152336854,-29115.270568760705,-14395.663368184969,-37908.156264800586,0.0,0.0,0.0,193.0,0.0,193.0,0.0,0.0,0.0,179.0,193.0,0.0,179.0,1744420496.7332752,0.0,2025-04-11 21:14:56.733,FORWARD,25
93.0,21103.108954800246,26160.057027346735,-32122.675433477812,-22834.81035647516,-36440.11604072047,-29109.81674311361,-14327.624658063014,-37872.281714949815,0.0,0.0,0.0,193.0,0.0,194.0,0.0,0.0,0.0,180.0,194.0,0.0,180.0,1744420496.733322,0.0,2025-04-11 21:14:56.733,FORWARD,25
94.0,21125.61716146674,26153.351504010145,-32136.04177666209,-22854.032856706723,-36453.03534901564,-29136.90705739344,-13851.353687209332,-37870.15829922656,0.0,0.0,0.0,193.0,0.0,194.0,0.0,0.0,0.0,179.0,194.0,0.0,179.0,1744420496.7333684,0.0,2025-04-11 21:14:56.733,FORWARD,25
95.0,21117.011739851445,26139.739291636863,-32134.723023739225,-22859.866662009557,-36456.41046242839,-29138.561086483132,-14003.233790783142,-37924.4506865085,0.0,0.0,0.0,193.0,0.0,194.0,0.0,0.0,0.0,179.0,194.0,0.0,179.0,1744420496.7334783,0.0,2025-04-11 21:14:56.733,FORWARD,25
96.0,21094.972919818512,26154.111463321624,-32126.855209690955,-22845.203917646875,-36447.179191968346,-29119.42799322939,-14352.144521730486,-37898.992049573906,0.0,0.0,0.0,193.0,0.0,193.0,0.0,0.0,0.0,178.0,193.0,0.0,178.0,1744420496.7335255,0.0,2025-04-11 21:14:56.733,FORWARD,25
97.0,21103.198361778064,26163.968582626414,-32117.534532253092,-22836.91142045396,-36436.38329939643,-29115.807010627632,-14380.598292422092,-37881.155357498574,0.0,0.0,0.0,193.0,0.0,193.0,0.0,0.0,0.0,179.0,193.0,0.0,179.0,1744420496.7335718,0.0,2025-04-11 21:14:56.733,FORWARD,25
98.0,21131.830946425314,26167.18723382798,-32133.873657449923,-22853.228193906332,-36453.34827343801,-29145.020740630716,-13908.998836159568,-37883.479938921926,0.0,0.0,0.0,193.0,0.0,194.0,0.0,0.0,0.0,179.0,194.0,0.0,179.0,1744420496.7336185,0.0,2025-04-11 21:14:56.733,FORWARD,25
99.0,21134.088472615298,26158.55946046823,-32127.77163121362,-22854.81516776266,-36447.02272975716,-29130.134478823482,-13948.404961634275,-37909.31855551226,0.0,0.0,0.0,193.0,0.0,193.0,0.0,0.0,0.0,179.0,193.0,0.0,179.0,1744420496.7336812,0.0,2025-04-11 21:14:56.733,FORWARD,25
100.0,21111.60261769326,26160.392303513567,-32122.183695099797,-22841.113548411555,-36440.07133723156,-29110.8225716141,-14277.10971559402,-37880.037770275805,0.0,0.0,0.0,193.0,0.0,193.0,0.0,0.0,0.0,179.0,193.0,0.0,179.0,1744420496.733729,0.0,2025-04-11 21:14:56.733,FORWARD,25
101.0,21109.166277547632,26166.248460560855,-32117.86980841992,-22833.916286696945,-36435.17630519585,-29108.18506576837,-14398.144411819509,-37877.4896714079,0.0,0.0,0.0,193.0,0.0,193.0,0.0,0.0,0.0,179.0,193.0,0.0,179.0,1744420496.7337751,0.0,2025-04-11 21:14:56.733,FORWARD,25
102.0,21149.086493144812,26175.010344387334,-32118.36154679794,-22833.312789596654,-36442.30651167709,-29121.86433337502,-13968.253310710588,-37863.65394159007,0.0,0.0,0.0,193.0,0.0,193.0,0.0,0.0,0.0,179.0,193.0,0.0,179.0,1744420496.7338219,0.0,2025-04-11 21:14:56.733,FORWARD,25
103.0,21150.18172862312,26154.737312166373,-32121.20021834376,-22850.322467127142,-36444.944017522816,-29129.598036956555,-13895.27486506401,-37915.04060209282,0.0,0.0,0.0,193.0,0.0,194.0,0.0,0.0,0.0,180.0,194.0,0.0,180.0,1744420496.7338686,0.0,2025-04-11 21:14:56.733,FORWARD,25
104.0,21120.722129431026,26151.36219875362,-32118.56271249804,-22843.505185068272,-36439.57959885354,-29120.255007774238,-14234.931973806855,-37904.89291011011,0.0,0.0,0.0,193.0,0.0,193.0,0.0,0.0,0.0,179.0,193.0,0.0,179.0,1744420496.7339284,0.0,2025-04-11 21:14:56.733,FORWARD,25
105.0,21118.0846235853,26166.76255068333,-32107.20802631474,-22832.128147140524,-36429.074278959546,-29107.53686517917,-14434.086016903642,-37886.11744476765,0.0,0.0,0.0,193.0,0.0,193.0,0.0,0.0,0.0,178.0,193.0,0.0,178.0,1744420496.7339752,0.0,2025-04-11 21:14:56.733,FORWARD,25
106.0,21144.28086808692,26172.1269693526,-32112.058354861543,-22833.268086107742,-36434.371642395454,-29122.51253396422,-14051.0665239175,-37858.78126129881,0.0,0.0,0.0,193.0,0.0,193.0,0.0,0.0,0.0,179.0,193.0,0.0,179.0,1744420496.734022,0.0,2025-04-11 21:14:56.734,FORWARD,25
107.0,21142.98446690851,26148.90350686354,-32125.31293932354,-22858.503205597783,-36448.296779191114,-29139.857487661542,-13849.342030208354,-37906.59164268871,0.0,0.0,0.0,193.0,0.0,194.0,0.0,0.0,0.0,180.0,194.0,0.0,180.0,1744420496.7340689,0.0,2025-04-11 21:14:56.734,FORWARD,25
108.0,21120.85623989776,26144.455509716932,-32121.40138404386,-22848.690789781904,-36438.77493605315,-29128.167525311415,-14155.069190868044,-37903.77532288734,0.0,0.0,0.0,193.0,0.0,193.0,0.0,0.0,0.0,179.0,193.0,0.0,179.0,1744420496.7341156,0.0,2025-04-11 21:14:56.734,FORWARD,25
109.0,21113.927199116613,26160.392303513567,-32114.02530837361,-22840.17477514443,-36428.582540581534,-29116.656376916933,-14425.234726099341,-37900.6460786636,0.0,0.0,0.0,193.0,0.0,194.0,0.0,0.0,0.0,179.0,194.0,0.0,179.0,1744420496.7341611,0.0,2025-04-11 21:14:56.734,FORWARD,25
110.0,21135.161356349156,26169.13183559559,-32119.97087239872,-22841.89585946749,-36436.67387207435,-29129.888609634476,-14148.117798342444,-37878.18257548602,0.0,0.0,0.0,193.0,0.0,194.0,0.0,0.0,0.0,179.0,194.0,0.0,179.0,1744420496.7343507,0.0,2025-04-11 21:14:56.734,FORWARD,25
111.0,21144.07970238682,26160.66052444703,-32129.336253325495,-22858.592612575605,-36445.569866367565,-29139.701025450355,-13831.438282899653,-37906.45753222198,0.0,0.0,0.0,193.0,0.0,193.0,0.0,0.0,0.0,179.0,193.0,0.0,179.0,1744420496.7343943,0.0,2025-04-11 21:14:56.734,FORWARD,25
112.0,21117.771699162924,26142.823832371694,-32126.899913179866,-22854.39048461801,-36442.59708435501,-29128.05576658914,-14097.625207617904,-37912.60426194719,0.0,0.0,0.0,193.0,0.0,193.0,0.0,0.0,0.0,179.0,193.0,0.0,179.0,1744420496.7344365,0.0,2025-04-11 21:14:56.734,FORWARD,25
113.0,21097.588073919782,26154.17851855499,-32119.054450876054,-22845.13686241351,-36436.51740986317,-29114.53296119368,-14411.533106748237,-37902.85890136468,0.0,0.0,0.0,193.0,0.0,194.0,0.0,0.0,0.0,180.0,194.0,0.0,180.0,1744420496.734478,0.0,2025-04-11 21:14:56.734,FORWARD,25
114.0,21116.922332873623,26162.47101574791,-32115.00878512964,-22837.13493789851,-36434.5504563511,-29116.47756296129,-14252.209872270809,-37875.88034580712,0.0,0.0,0.0,193.0,0.0,194.0,0.0,0.0,0.0,179.0,194.0,0.0,179.0,1744420496.7345357,0.0,2025-04-11 21:14:56.734,FORWARD,25
115.0,21132.233277825508,26153.619724943608,-32133.806602216555,-22859.1961096759,-36454.06352926058,-29135.878877148498,-13840.848367315337,-37880.596563887186,0.0,0.0,0.0,193.0,0.0,194.0,0.0,0.0,0.0,179.0,194.0,0.0,179.0,1744420496.734578,0.0,2025-04-11 21:14:56.734,FORWARD,25
116.0,21122.823193409826,26142.019169571304,-32126.96696841323,-22854.032856706723,-36440.02663374265,-29120.836153130076,-14047.244375615643,-37889.02317154684,0.0,0.0,0.0,193.0,0.0,193.0,0.0,0.0,0.0,179.0,193.0,0.0,179.0,1744420496.7346196,0.0,2025-04-11 21:14:56.734,FORWARD,25
117.0,21107.489896713483,26162.739236681373,-32118.69682296477,-22839.705388510873,-36428.96252023727,-29109.682632646876,-14373.445734196393,-37878.853127819675,0.0,0.0,0.0,193.0,0.0,193.0,0.0,1.0,0.0,179.0,193.0,1.0,179.0,1744420496.7346613,0.0,2025-04-11 21:14:56.734,FORWARD,25
118.0,21117.235257295997,26167.544861739265,-32113.958253140245,-22833.357493085565,-36426.30266264709,-29114.28709200467,-14320.136823670486,-37874.807462073266,0.0,0.0,0.0,193.0,0.0,194.0,0.0,2.0,0.0,180.0,194.0,2.0,180.0,1744420496.7347038,0.0,2025-04-11 21:14:56.734,FORWARD,25
119.0,21144.10205413128,26155.83254764468,-32129.112735880943,-22851.551813072183,-36443.02176749966,-29137.219981815815,-13856.852216345336,-37872.95226728347,0.0,0.0,0.0,193.0,0.0,193.0,0.0,4.0,0.0,179.0,193.0,4.0,179.0,1744420496.734759,0.0,2025-04-11 21:14:56.734,FORWARD,25
120.0,21127.382949278708,26137.660579402516,-32131.32555858202,-22859.66549630946,-36439.44548838681,-29129.776850912196,-13976.031717781034,-37902.70243915349,0.0,0.0,0.0,193.0,0.0,193.0,0.0,5.0,0.0,179.0,193.0,5.0,179.0,1744420496.7348015,0.0,2025-04-11 21:14:56.734,FORWARD,25
121.0,21101.007890821445,26147.093015562656,-32129.559770770047,-22853.38465611752,-36438.9537500088,-29120.23265602978,-14319.846250992567,-37894.3428867272,0.0,0.0,0.0,193.0,0.0,193.0,0.0,6.0,0.0,179.0,193.0,6.0,179.0,1744420496.734844,0.0,2025-04-11 21:14:56.734,FORWARD,25
122.0,21110.46267872604,26161.55459422524,-32116.707517708248,-22841.60528678957,-36431.82354352755,-29115.248217016248,-14384.599254679591,-37883.43523543301,0.0,0.0,0.0,193.0,0.0,193.0,0.0,7.0,0.0,179.0,193.0,7.0,179.0,1744420496.734886,0.0,2025-04-11 21:14:56.734,FORWARD,25
123.0,21140.12344361823,26159.56528896872,-32128.933921925298,-22851.52946132773,-36447.00037801271,-29137.95758938284,-13916.687836252195,-37868.30310443677,0.0,0.0,0.0,193.0,0.0,194.0,0.0,8.0,0.0,179.0,194.0,8.0,179.0,1744420496.7349284,0.0,2025-04-11 21:14:56.734,FORWARD,25
124.0,21139.51994651794,26142.041521315758,-32129.492715536682,-22864.068789967157,-36441.032462243136,-29136.996464371263,-13932.579926559918,-37913.11835206966,0.0,0.0,0.0,193.0,0.0,193.0,0.0,9.0,0.0,179.0,193.0,9.0,179.0,1744420496.7349703,0.0,2025-04-11 21:14:56.734,FORWARD,25
125.0,21115.827097395315,26151.161033053522,-32127.749279469168,-22854.47989159583,-36441.5018488767,-29125.775888654698,-14270.627709701981,-37905.339944999214,0.0,0.0,0.0,193.0,0.0,193.0,0.0,9.0,0.0,179.0,193.0,9.0,179.0,1744420496.735026,0.0,2025-04-11 21:14:56.735,FORWARD,25
126.0,21113.70368167206,26167.03077161679,-32119.12150610942,-22844.063978679656,-36436.94209300782,-29117.975129839797,-14425.19002261043,-37904.55763394328,0.0,0.0,0.0,193.0,0.0,193.0,0.0,10.0,0.0,179.0,193.0,10.0,179.0,1744420496.7350683,0.0,2025-04-11 21:14:56.735,FORWARD,25
127.0,21140.302257573876,26171.50112050785,-32132.912532438342,-22849.65191479348,-36452.38714842643,-29134.738938181275,-13987.922845831257,-37875.187441729,0.0,0.0,0.0,193.0,0.0,193.0,0.0,11.0,0.0,179.0,193.0,11.0,179.0,1744420496.7351108,0.0,2025-04-11 21:14:56.735,FORWARD,25
128.0,21136.569516249838,26153.731483665884,-32135.661797006345,-22859.173757931443,-36452.32009319307,-29129.374519512003,-13885.685966692683,-37906.45753222198,0.0,0.0,0.0,193.0,0.0,193.0,0.0,11.0,0.0,180.0,193.0,11.0,180.0,1744420496.735158,0.0,2025-04-11 21:14:56.735,FORWARD,25
129.0,21121.66090269815,26156.570155211706,-32125.581160257003,-22843.57224030164,-36439.22197094226,-29113.169504781905,-14215.016569497177,-37890.5430901698,0.0,0.0,0.0,193.0,0.0,193.0,0.0,12.0,0.0,179.0,193.0,12.0,179.0,1744420496.735216,0.0,2025-04-11 21:14:56.735,FORWARD,25
130.0,21115.31300727284,26166.27081230531,-32116.372241541416,-22832.888106452003,-36431.42121212735,-29109.10148729104,-14441.417389084983,-37893.06883729325,0.0,0.0,0.0,193.0,0.0,193.0,0.0,12.0,0.0,179.0,193.0,12.0,179.0,1744420496.7352586,0.0,2025-04-11 21:14:56.735,FORWARD,25
131.0,21135.451929027073,26167.433103016985,-32127.749279469168,-22835.99499893129,-36447.02272975716,-29126.357034010536,-14087.544570868562,-37873.01932251684,0.0,0.0,0.0,193.0,0.0,193.0,0.0,12.0,0.0,179.0,193.0,12.0,179.0,1744420496.7353013,0.0,2025-04-11 21:14:56.735,FORWARD,25
132.0,21143.833833197812,26153.932649365983,-32137.673454007323,-22855.79864451869,-36456.52222115066,-29133.531943980688,-13852.583033154373,-37902.36716298666,0.0,0.0,0.0,193.0,0.0,194.0,0.0,13.0,0.0,180.0,194.0,13.0,180.0,1744420496.7353437,0.0,2025-04-11 21:14:56.735,FORWARD,25
133.0,21130.400434780175,26152.010399342824,-32123.748317211666,-22838.699560010384,-36439.02080524216,-29110.934330336375,-14140.18292906081,-37889.201985502485,0.0,0.0,0.0,193.0,0.0,194.0,0.0,13.0,0.0,180.0,194.0,13.0,180.0,1744420496.735386,0.0,2025-04-11 21:14:56.735,FORWARD,25
134.0,21121.37033002023,26168.953021639947,-32107.990337370677,-22820.996978401778,-36425.58740682452,-29093.052934772128,-14419.42327254096,-37864.190383457,0.0,0.0,0.0,193.0,0.0,193.0,0.0,13.0,0.0,179.0,193.0,13.0,179.0,1744420496.735441,0.0,2025-04-11 21:14:56.735,FORWARD,25
135.0,21140.36931280724,26178.497216522363,-32114.07001186252,-22822.069862135635,-36437.7020523193,-29108.989728568762,-14166.80385670708,-37851.98633098439,0.0,0.0,0.0,193.0,0.0,194.0,0.0,13.0,0.0,180.0,194.0,13.0,180.0,1744420496.735484,0.0,2025-04-11 21:14:56.735,FORWARD,25
136.0,21152.595717024295,26167.142530339068,-32130.27502659262,-22847.32733337013,-36456.94690429531,-29131.96732186882,-13837.093274246845,-37897.673296651046,0.0,0.0,0.0,193.0,0.0,194.0,0.0,14.0,0.0,180.0,194.0,14.0,180.0,1744420496.735526,0.0,2025-04-11 21:14:56.735,FORWARD,25
137.0,21130.42278652463,26157.50892847883,-32123.45774453375,-22841.158251900466,-36440.36190990948,-29116.365804239013,-14100.441527419272,-37898.16503502906,0.0,0.0,0.0,193.0,0.0,194.0,0.0,14.0,0.0,180.0,194.0,14.0,180.0,1744420496.7355683,0.0,2025-04-11 21:14:56.735,FORWARD,25
138.0,21108.920408358623,26169.400056529055,-32122.831895689,-22837.0902344096,-36436.02567148515,-29110.263778002714,-14402.212429310373,-37883.90462206658,0.0,0.0,0.0,193.0,0.0,193.0,0.0,14.0,0.0,179.0,193.0,14.0,179.0,1744420496.7356112,0.0,2025-04-11 21:14:56.735,FORWARD,25
139.0,21122.42086200963,26171.836396674684,-32125.469401534727,-22833.201030874377,-36441.233627943235,-29118.33275775108,-14274.360451026017,-37880.75302609838,0.0,0.0,0.0,193.0,0.0,194.0,0.0,14.0,0.0,180.0,194.0,14.0,180.0,1744420496.7356532,0.0,2025-04-11 21:14:56.735,FORWARD,25
140.0,21140.57047850734,26155.586678455675,-32141.853230220466,-22850.166004915955,-36455.02465427216,-29137.443499260367,-13835.439245157153,-37886.40801744557,0.0,0.0,0.0,193.0,0.0,194.0,0.0,14.0,0.0,180.0,194.0,14.0,180.0,1744420496.7357097,0.0,2025-04-11 21:14:56.735,FORWARD,25
141.0,21123.47139399903,26139.560477681218,-32136.198238873276,-22848.199051403888,-36446.28512219014,-29125.44061248787,-14024.467948015685,-37913.0512968363,0.0,0.0,0.0,193.0,0.0,194.0,0.0,14.0,0.0,179.0,194.0,14.0,179.0,1744420496.7357523,0.0,2025-04-11 21:14:56.735,FORWARD,25
142.0,21101.0302425659,26148.814099885716,-32128.531590525105,-22838.43133907692,-36438.84199128652,-29111.895455347953,-14375.233873752819,-37897.718000139954,0.0,0.0,0.0,193.0,0.0,194.0,0.0,15.0,0.0,180.0,194.0,15.0,180.0,1744420496.7357945,0.0,2025-04-11 21:14:56.735,FORWARD,25
143.0,21110.12740255921,26151.898640620548,-32126.385823057393,-22837.0902344096,-36435.77980229614,-29118.04218507316,-14346.489530383293,-37890.43133144752,0.0,0.0,0.0,193.0,0.0,193.0,0.0,15.0,0.0,179.0,193.0,15.0,179.0,1744420496.7358508,0.0,2025-04-11 21:14:56.735,FORWARD,25
144.0,21134.98254239351,26146.534221951275,-32142.277913365117,-22855.86569975206,-36454.57761938305,-29146.227734831304,-13870.352669996342,-37895.348715227694,0.0,0.0,0.0,193.0,0.0,194.0,0.0,15.0,0.0,179.0,194.0,15.0,179.0,1744420496.7358935,0.0,2025-04-11 21:14:56.735,FORWARD,25
145.0,21124.99131262199,26133.50315493383,-32138.478116807717,-22861.923022499446,-36451.04604375912,-29138.650493460955,-13993.53313368954,-37940.298073327314,0.0,0.0,0.0,193.0,0.0,194.0,0.0,15.0,0.0,179.0,194.0,15.0,179.0,1744420496.7359364,0.0,2025-04-11 21:14:56.735,FORWARD,25
146.0,21111.289693270886,26157.93361162348,-32123.70361372276,-22839.168946643942,-36436.4503546298,-29112.23073151478,-14338.532309357204,-37897.31566873976,0.0,0.0,0.0,193.0,0.0,194.0,0.0,15.0,0.0,180.0,194.0,15.0,180.0,1744420496.7359788,0.0,2025-04-11 21:14:56.735,FORWARD,25
147.0,21112.094356071277,26162.806291914738,-32117.51218050864,-22831.99403667379,-36428.33667139252,-29106.374574467492,-14384.219275023852,-37857.39545314258,0.0,0.0,0.0,193.0,0.0,193.0,0.0,15.0,0.0,179.0,193.0,15.0,179.0,1744420496.7360215,0.0,2025-04-11 21:14:56.736,FORWARD,25
148.0,21143.945591920092,26161.286373291776,-32129.582122514505,-22843.862812979558,-36441.27833143215,-29131.699100935355,-13904.84141169088,-37851.5839995842,0.0,0.0,0.0,193.0,0.0,193.0,0.0,15.0,0.0,179.0,193.0,15.0,179.0,1744420496.7360637,0.0,2025-04-11 21:14:56.736,FORWARD,25
149.0,21139.072911628835,26141.661541660018,-32135.79590747308,-22860.604269576583,-36448.14031697992,-29136.571781226612,-13918.1854031307,-37909.92205261255,0.0,0.0,0.0,193.0,0.0,193.0,0.0,15.0,0.0,179.0,193.0,15.0,179.0,1744420496.7361312,0.0,2025-04-11 21:14:56.736,FORWARD,25
150.0,21115.31300727284,26151.630419687084,-32131.236151604196,-22848.087292681612,-36444.228761700244,-29123.071327575606,-14269.82304690159,-37901.54014844181,0.0,0.0,0.0,193.0,0.0,193.0,0.0,15.0,0.0,180.0,193.0,15.0,180.0,1744420496.7361743,0.0,2025-04-11 21:14:56.736,FORWARD,25
151.0,21108.94276010308,26160.16878606901,-32123.725965467213,-22840.912382711456,-36436.09272671852,-29117.706908906333,-14433.124891892063,-37895.63928790561,0.0,0.0,0.0,193.0,0.0,194.0,0.0,15.0,0.0,180.0,194.0,15.0,180.0,1744420496.7362173,0.0,2025-04-11 21:14:56.736,FORWARD,25
152.0,21131.22744932502,26156.190175555967,-32140.154497641863,-22851.842385750104,-36453.28121820465,-29140.796260928662,-14009.894610630825,-37883.56934589975,0.0,0.0,0.0,193.0,0.0,194.0,0.0,16.0,0.0,180.0,194.0,16.0,180.0,1744420496.7362597,0.0,2025-04-11 21:14:56.736,FORWARD,25
153.0,21131.115690602743,26142.64501841605,-32144.02134943263,-22864.180548689434,-36455.561096139085,-29136.191801570872,-13882.735536424583,-37909.609128190175,0.0,0.0,0.0,193.0,0.0,194.0,0.0,16.0,0.0,180.0,194.0,16.0,180.0,1744420496.7363024,0.0,2025-04-11 21:14:56.736,FORWARD,25
154.0,21112.541390960385,26145.93072485098,-32133.247808605174,-22846.85794673657,-36448.4532414023,-29119.316234507114,-14205.293560659118,-37890.5430901698,0.0,0.0,0.0,193.0,0.0,193.0,0.0,16.0,0.0,179.0,193.0,16.0,179.0,1744420496.7363443,0.0,2025-04-11 21:14:56.736,FORWARD,25
155.0,21106.126440301712,26161.55459422524,-32119.83676193199,-22832.57518202963,-36438.797287797606,-29108.38623146847,-14435.225955870863,-37881.82590983223,0.0,0.0,0.0,193.0,0.0,194.0,0.0,16.0,0.0,180.0,194.0,16.0,180.0,1744420496.736401,0.0,2025-04-11 21:14:56.736,FORWARD,25
156.0,21128.634646968207,26170.495292007363,-32123.30128232256,-22827.344873827085,-36446.93332277934,-29119.04801357365,-14085.532913867584,-37849.34882513867,0.0,0.0,0.0,193.0,0.0,194.0,0.0,16.0,0.0,180.0,194.0,16.0,180.0,1744420496.736444,0.0,2025-04-11 21:14:56.736,FORWARD,25
157.0,21147.633629755215,26160.280544791287,-32134.208933616752,-22846.075635680634,-36462.98187529825,-29132.95079862485,-13858.036858801468,-37898.075628051236,0.0,0.0,0.0,193.0,0.0,194.0,0.0,16.0,0.0,180.0,194.0,16.0,180.0,1744420496.7364864,0.0,2025-04-11 21:14:56.736,FORWARD,25
158.0,21132.99323713699,26153.731483665884,-32126.02819514611,-22837.51491755425,-36444.42992740034,-29117.52809495069,-14148.967164631746,-37891.101883781186,0.0,0.0,0.0,193.0,0.0,194.0,0.0,16.0,0.0,179.0,194.0,16.0,179.0,1744420496.7365425,0.0,2025-04-11 21:14:56.736,FORWARD,25
159.0,21112.295521771375,26161.286373291776,-32117.623939230914,-22829.401234316974,-36430.28127316014,-29104.519379677702,-14409.633208469537,-37875.76858708484,0.0,0.0,0.0,193.0,0.0,193.0,0.0,16.0,0.0,179.0,193.0,16.0,179.0,1744420496.7365851,0.0,2025-04-11 21:14:56.736,FORWARD,25
160.0,21130.825117924825,26169.22124257341,-32118.473305520216,-22826.09317613759,-36436.204485440794,-29108.47563844629,-14179.52199930215,-37855.04851997477,0.0,0.0,0.0,193.0,0.0,194.0,0.0,16.0,0.0,180.0,194.0,16.0,180.0,1744420496.7366278,0.0,2025-04-11 21:14:56.736,FORWARD,25
161.0,21144.8396616983,26156.70426567844,-32133.40427081636,-22847.886126981513,-36449.79434606962,-29122.691347919867,-13816.775538536971,-37879.12134875314,0.0,0.0,0.0,193.0,0.0,194.0,0.0,16.0,0.0,180.0,194.0,16.0,180.0,1744420496.7366705,0.0,2025-04-11 21:14:56.736,FORWARD,25
162.0,21123.963132377045,26137.727634635885,-32134.477154550215,-22848.86960373755,-36443.22293319976,-29112.90128384844,-14074.513503851118,-37891.437159948015,0.0,0.0,0.0,193.0,0.0,194.0,0.0,16.0,0.0,179.0,194.0,16.0,179.0,1744420496.7367125,0.0,2025-04-11 21:14:56.736,FORWARD,25
163.0,21105.70175715706,26154.111463321624,-32127.637520746892,-22838.18546988791,-36436.78563079663,-29101.233673242772,-14407.8003654242,-37885.06691277825,0.0,0.0,0.0,193.0,0.0,193.0,0.0,16.0,0.0,179.0,193.0,16.0,179.0,1744420496.7367685,0.0,2025-04-11 21:14:56.736,FORWARD,25
164.0,21126.868859156235,26163.45449250394,-32117.91451190883,-22829.110661639057,-36427.86728475896,-29104.85465584453,-14286.16217209842,-37871.20883121596,0.0,0.0,0.0,193.0,0.0,193.0,0.0,16.0,0.0,179.0,193.0,16.0,179.0,1744420496.7368112,0.0,2025-04-11 21:14:56.736,FORWARD,25
165.0,21145.934897176612,26162.51571923682,-32133.024291160622,-22846.097987425088,-36441.14422096541,-29129.016891600717,-13830.790082310448,-37876.34973244068,0.0,0.0,0.0,193.0,0.0,194.0,0.0,16.0,0.0,180.0,194.0,16.0,180.0,1744420496.7368536,0.0,2025-04-11 21:14:56.736,FORWARD,25
166.0,21124.65603645516,26130.59742815464,-32140.98151218671,-22857.631487564027,-36447.13448847944,-29136.43767075988,-14016.15309907831,-37922.28256729634,0.0,0.0,0.0,193.0,0.0,194.0,0.0,16.0,0.0,180.0,194.0,16.0,180.0,1744420496.736896,0.0,2025-04-11 21:14:56.736,FORWARD,25
167.0,21107.802821135858,26141.862707360116,-32131.660834748847,-22845.673304280437,-36441.25597968769,-29123.406603742435,-14359.900577056478,-37905.58581418822,0.0,0.0,0.0,193.0,0.0,194.0,0.0,16.0,0.0,180.0,194.0,16.0,180.0,1744420496.7369385,0.0,2025-04-11 21:14:56.736,FORWARD,25
168.0,21122.84554515428,26162.359257025633,-32114.919378151822,-22830.76469072875,-36430.43773537132,-29116.47756296129,-14348.523539128726,-37879.43427317551,0.0,0.0,0.0,193.0,0.0,193.0,0.0,16.0,0.0,179.0,193.0,16.0,179.0,1744420496.736981,0.0,2025-04-11 21:14:56.736,FORWARD,25
169.0,21149.265307100453,26159.028847101792,-32130.69970973727,-22847.126167670034,-36446.39688091241,-29141.109185351037,-13868.184550784177,-37866.04557824678,0.0,0.0,0.0,193.0,0.0,193.0,0.0,16.0,0.0,179.0,193.0,16.0,179.0,1744420496.7370276,0.0,2025-04-11 21:14:56.737,FORWARD,25
170.0,21141.777472707927,26146.93655335147,-32132.376090571415,-22857.0950456971,-36447.62622685745,-29143.81374643013,-13969.52736014454,-37921.03086960684,0.0,0.0,0.0,193.0,0.0,193.0,0.0,16.0,0.0,180.0,193.0,16.0,180.0,1744420496.7370844,0.0,2025-04-11 21:14:56.737,FORWARD,25
171.0,21117.14585031818,26154.46909123291,-32118.11567760893,-22834.251562863778,-36431.98000573874,-29118.66803391791,-14306.390500830472,-37889.11257852466,0.0,0.0,0.0,193.0,0.0,194.0,0.0,16.0,0.0,180.0,194.0,16.0,180.0,1744420496.73713,0.0,2025-04-11 21:14:56.737,FORWARD,25
172.0,21118.777527663413,26161.286373291776,-32105.01755535812,-22821.578123757616,-36422.48051434523,-29108.497990190746,-14386.56620819166,-37870.20300271547,0.0,0.0,0.0,193.0,0.0,194.0,0.0,16.0,0.0,180.0,194.0,16.0,180.0,1744420496.7371728,0.0,2025-04-11 21:14:56.737,FORWARD,25
173.0,21143.990295409,26163.208623314935,-32122.675433477812,-22836.46438556485,-36446.64275010142,-29135.789470170675,-13930.255345136566,-37866.98435151391,0.0,0.0,0.0,193.0,0.0,193.0,0.0,16.0,0.0,179.0,193.0,16.0,179.0,1744420496.737229,0.0,2025-04-11 21:14:56.737,FORWARD,25
174.0,21130.869821413737,26142.287390504767,-32132.577256271514,-22856.133920685523,-36453.59414262702,-29140.416281272923,-13920.979371187614,-37922.77430567436,0.0,0.0,0.0,193.0,0.0,194.0,0.0,17.0,0.0,179.0,194.0,17.0,179.0,1744420496.7372718,0.0,2025-04-11 21:14:56.737,FORWARD,25
175.0,21118.17403056312,26151.853937131636,-32121.110811365943,-22838.23017337682,-36438.104383719496,-29119.338586251568,-14263.005764842721,-37903.68591590952,0.0,0.0,0.0,193.0,0.0,193.0,0.0,17.0,0.0,179.0,193.0,17.0,179.0,1744420496.737314,0.0,2025-04-11 21:14:56.737,FORWARD,25
176.0,21119.55983871935,26163.789768670773,-32105.866921647423,-22823.32155982513,-36425.430944613334,-29109.660280902423,-14450.000458955821,-37902.277756008836,0.0,0.0,0.0,193.0,0.0,194.0,0.0,17.0,0.0,180.0,194.0,17.0,180.0,1744420496.7373564,0.0,2025-04-11 21:14:56.737,FORWARD,25
177.0,21139.810519195857,26161.1746145695,-32120.84259043248,-22830.161193628453,-36445.569866367565,-29139.56691498362,-14028.312448061997,-37891.504215181376,0.0,0.0,0.0,193.0,0.0,194.0,0.0,16.0,0.0,180.0,194.0,16.0,180.0,1744420496.7373989,0.0,2025-04-11 21:14:56.737,FORWARD,25
178.0,21143.632667497717,26146.98125684038,-32129.559770770047,-22845.405083346974,-36455.292875205625,-29135.521249237212,-13879.069850333912,-37909.40796249008,0.0,0.0,0.0,193.0,0.0,194.0,0.0,17.0,0.0,180.0,194.0,17.0,180.0,1744420496.737454,0.0,2025-04-11 21:14:56.737,FORWARD,25
179.0,21119.112803830245,26143.18146028298,-32122.720136966724,-22831.3905395735,-36444.11700297797,-29111.13549603647,-14210.054482228099,-37884.32930521123,0.0,0.0,0.0,193.0,0.0,193.0,0.0,17.0,0.0,179.0,193.0,17.0,179.0,1744420496.7374969,0.0,2025-04-11 21:14:56.737,FORWARD,25
180.0,21104.85239086776,26152.41273074302,-32117.86980841992,-22826.137879626498,-36433.87990401744,-29103.80412385513,-14432.923726191966,-37882.98820054391,0.0,0.0,0.0,193.0,0.0,194.0,0.0,17.0,0.0,179.0,194.0,17.0,179.0,1744420496.7375393,0.0,2025-04-11 21:14:56.737,FORWARD,25
181.0,21131.674484214127,26162.202794814446,-32117.176904341806,-22820.684053979407,-36436.31624416307,-29110.397888469448,-14094.875943049901,-37847.20305767096,0.0,0.0,0.0,193.0,0.0,193.0,0.0,17.0,0.0,179.0,193.0,17.0,179.0,1744420496.737582,0.0,2025-04-11 21:14:56.737,FORWARD,25
182.0,21140.168147107142,26145.908373106526,-32129.135087625396,-22843.57224030164,-36446.620398356965,-29125.798240399152,-13813.132204190757,-37881.13300575412,0.0,0.0,0.0,193.0,0.0,194.0,0.0,17.0,0.0,180.0,194.0,17.0,180.0,1744420496.7376244,0.0,2025-04-11 21:14:56.737,FORWARD,25
183.0,21126.75710043396,26147.070663818202,-32118.69682296477,-22829.669455250438,-36436.6515203299,-29103.535902921667,-14107.348216455963,-37873.44400566149,0.0,0.0,0.0,193.0,0.0,193.0,0.0,17.0,0.0,179.0,193.0,17.0,179.0,1744420496.7376668,0.0,2025-04-11 21:14:56.737,FORWARD,25
184.0,21109.79212639238,26165.041466360268,-32111.74543043917,-22818.694748722883,-36431.376508638445,-29094.975184795283,-14417.210449839886,-37874.76275858435,0.0,0.0,0.0,193.0,0.0,193.0,0.0,17.0,0.0,179.0,193.0,17.0,179.0,1744420497.21244,0.0,2025-04-11 21:14:57.212,FORWARD,25
185.0,21129.32755104632,26163.141568081566,-32114.69586070727,-22819.47705977882,-36434.103421461994,-29113.43772571537,-14216.96117126479,-37879.83660457571,0.0,0.0,0.0,193.0,0.0,194.0,0.0,17.0,0.0,180.0,194.0,17.0,180.0,1744420497.2125733,0.0,2025-04-11 21:14:57.212,FORWARD,25
186.0,21146.113711132253,26151.11632956461,-32129.291549836584,-22840.644161777993,-36445.45810764529,-29127.38521425548,-13828.018465997991,-37883.681104622025,0.0,0.0,0.0,193.0,0.0,194.0,0.0,17.0,0.0,179.0,194.0,17.0,179.0,1744420497.2126245,0.0,2025-04-11 21:14:57.212,FORWARD,25
187.0,21118.55401021886,26138.107614291624,-32128.64334924738,-22841.828804234126,-36441.367738409965,-29114.95764433833,-14059.291965877053,-37878.24963071938,0.0,0.0,0.0,193.0,0.0,194.0,0.0,17.0,0.0,180.0,194.0,17.0,180.0,1744420497.212674,0.0,2025-04-11 21:14:57.212,FORWARD,25
188.0,21102.527809444407,26151.853937131636,-32118.585064242492,-22832.888106452003,-36430.1471626934,-29100.607824398023,-14387.527333203238,-37866.51496488035,0.0,0.0,0.0,193.0,0.0,193.0,0.0,17.0,0.0,179.0,193.0,17.0,179.0,1744420497.2127671,0.0,2025-04-11 21:14:57.212,FORWARD,25
189.0,21119.537486974896,26159.341771524167,-32113.913549651334,-22830.38471107301,-36427.28613940312,-29106.86631284551,-14288.374994799495,-37856.546086853275,0.0,0.0,0.0,193.0,0.0,193.0,0.0,17.0,0.0,179.0,193.0,17.0,179.0,1744420497.212816,0.0,2025-04-11 21:14:57.212,FORWARD,25
190.0,21136.100129616276,26154.2232220439,-32136.377052828917,-22859.978420731833,-36448.52029663567,-29141.556220240145,-13837.070922502391,-37880.6412673761,0.0,0.0,0.0,193.0,0.0,193.0,0.0,17.0,0.0,179.0,193.0,17.0,179.0,1744420497.212864,0.0,2025-04-11 21:14:57.212,FORWARD,25
191.0,21125.281885299908,26132.02793979978,-32130.65500624836,-22858.27968815323,-36438.39495639741,-29134.537772481177,-14023.149195092821,-37920.092096339715,0.0,0.0,0.0,193.0,0.0,194.0,0.0,17.0,0.0,180.0,194.0,17.0,180.0,1744420497.2129123,0.0,2025-04-11 21:14:57.212,FORWARD,25
192.0,21097.342204730776,26142.287390504767,-32123.07776487801,-22841.2923623672,-36428.18020918134,-29113.90711234893,-14367.388411449005,-37889.80548260277,0.0,0.0,0.0,193.0,0.0,193.0,0.0,17.0,0.0,179.0,193.0,17.0,179.0,1744420497.2129605,0.0,2025-04-11 21:14:57.212,FORWARD,25
193.0,21102.818382122325,26150.110501064122,-32117.378070041905,-22834.586839030606,-36422.90519748988,-29113.840057115565,-14366.382582948518,-37876.193270229494,0.0,0.0,0.0,193.0,0.0,193.0,0.0,17.0,0.0,179.0,193.0,17.0,179.0,1744420497.213028,0.0,2025-04-11 21:14:57.213,FORWARD,25
194.0,21136.547164505384,26156.25723078933,-32120.753183454657,-22841.71704551185,-36430.9965289827,-29127.496972977755,-13886.490629493073,-37855.18263044151,0.0,0.0,0.0,193.0,0.0,193.0,0.0,17.0,0.0,179.0,193.0,17.0,179.0,1744420497.213076,0.0,2025-04-11 21:14:57.213,FORWARD,25
195.0,21126.51123124495,26140.3204369927,-32120.954349154756,-22849.540156071205,-36432.47174411675,-29128.838077645076,-13960.407848406774,-37903.50710195388,0.0,0.0,0.0,193.0,0.0,194.0,0.0,17.0,0.0,180.0,194.0,17.0,180.0,1744420497.213124,0.0,2025-04-11 21:14:57.213,FORWARD,25
196.0,21104.383004234198,26152.278620276287,-32119.523837509616,-22838.923077454936,-36432.53879935012,-29119.42799322939,-14311.754919499746,-37897.874462351145,0.0,0.0,0.0,193.0,0.0,194.0,0.0,17.0,0.0,180.0,194.0,17.0,180.0,1744420497.2131722,0.0,2025-04-11 21:14:57.213,FORWARD,25
197.0,21108.51807695843,26165.846129160658,-32108.862055404432,-22829.110661639057,-36422.435810856325,-29110.308481491626,-14412.538935248725,-37881.35652319867,0.0,0.0,0.0,193.0,0.0,194.0,0.0,17.0,0.0,180.0,194.0,17.0,180.0,1744420497.21322,0.0,2025-04-11 21:14:57.213,FORWARD,25
198.0,21132.255629569965,26165.242632060366,-32123.63655848939,-22838.74426349929,-36443.91583727787,-29133.308426536136,-13947.488540111606,-37864.90563927956,0.0,0.0,0.0,193.0,0.0,193.0,0.0,17.0,0.0,179.0,193.0,17.0,179.0,1744420497.213267,0.0,2025-04-11 21:14:57.213,FORWARD,25
199.0,21130.601600480273,26149.350541752643,-32127.92809342481,-22850.769502016246,-36452.47655540425,-29134.269551547713,-13910.675216993717,-37913.20775904748,0.0,0.0,0.0,193.0,0.0,193.0,0.0,17.0,0.0,179.0,193.0,17.0,179.0,1744420497.2133324,0.0,2025-04-11 21:14:57.213,FORWARD,25
200.0,21109.32273975882,26152.859765632125,-32119.74735495417,-22833.782176230216,-36444.78755531163,-29118.645682173454,-14254.355639738518,-37894.566404171754,0.0,0.0,0.0,193.0,0.0,193.0,0.0,17.0,0.0,179.0,193.0,17.0,179.0,1744420497.2133806,0.0,2025-04-11 21:14:57.213,FORWARD,25
201.0,21108.406318236153,26166.919012894516,-32104.950500124756,-22816.57133299963,-36431.22004642726,-29107.358051223524,-14448.011153699299,-37893.62763090463,0.0,0.0,0.0,193.0,0.0,194.0,0.0,17.0,0.0,180.0,194.0,17.0,180.0,1744420497.2134285,0.0,2025-04-11 21:14:57.213,FORWARD,25
202.0,21136.32364706083,26168.930669895493,-32113.17594208431,-22819.365301056543,-36445.145183222914,-29124.680653176387,-14052.429980329274,-37873.2875434503,0.0,0.0,0.0,193.0,0.0,194.0,0.0,17.0,0.0,180.0,194.0,17.0,180.0,1744420497.2134764,0.0,2025-04-11 21:14:57.213,FORWARD,25
203.0,21143.02917039742,26152.725655165395,-32120.41790728783,-22839.23600187731,-36455.2034682278,-29128.48044973379,-13890.201019072656,-37906.77045664436,0.0,0.0,0.0,193.0,0.0,194.0,0.0,17.0,0.0,179.0,194.0,17.0,179.0,1744420497.2135396,0.0,2025-04-11 21:14:57.213,FORWARD,25
204.0,21125.818327166835,26158.2241843014,-32109.778476927102,-22822.025158646724,-36442.574732610556,-29104.117048277505,-14207.52873510465,-37878.5402033973,0.0,0.0,0.0,193.0,0.0,193.0,0.0,17.0,0.0,179.0,193.0,17.0,179.0,1744420497.2135875,0.0,2025-04-11 21:14:57.213,FORWARD,25
205.0,21114.865972383737,26175.949117654458,-32098.244976788163,-22807.474173006318,-36431.600026083,-29097.456228429823,-14447.653525788013,-37879.92601155353,0.0,0.0,0.0,193.0,0.0,193.0,0.0,17.0,0.0,179.0,193.0,17.0,179.0,1744420497.2136354,0.0,2025-04-11 21:14:57.213,FORWARD,25
206.0,21127.986446379,26170.674105963008,-32107.431543759292,-22810.156382340956,-36444.809907056086,-29115.33762399407,-14140.51820522764,-37860.4352903885,0.0,0.0,0.0,193.0,0.0,193.0,0.0,17.0,0.0,179.0,193.0,17.0,179.0,1744420497.2136831,0.0,2025-04-11 21:14:57.213,FORWARD,25
207.0,21141.017513396444,26153.195041798957,-32118.853285175956,-22831.99403667379,-36455.605799628,-29127.206400299838,-13853.700620377138,-37882.943497055,0.0,0.0,0.0,193.0,0.0,194.0,0.0,17.0,0.0,180.0,194.0,17.0,180.0,1744420497.2137313,0.0,2025-04-11 21:14:57.213,FORWARD,25
208.0,21125.840678911292,26144.835489372672,-32108.43737225978,-22822.740414469292,-36443.759375066686,-29112.945987337353,-14147.335487286507,-37892.39828495959,0.0,0.0,0.0,193.0,0.0,193.0,0.0,17.0,0.0,179.0,193.0,17.0,179.0,1744420497.2137935,0.0,2025-04-11 21:14:57.213,FORWARD,25
209.0,21108.89805661417,26162.85099540365,-32097.194444798763,-22809.59758872957,-36434.595159840006,-29102.060687787616,-14455.566043325192,-37887.07856977923,0.0,0.0,0.0,193.0,0.0,193.0,0.0,17.0,0.0,179.0,193.0,17.0,179.0,1744420497.2138417,0.0,2025-04-11 21:14:57.213,FORWARD,25
210.0,21119.7833561639,26161.97927736989,-32102.87178789041,-22810.782231185705,-36433.65638657289,-29116.455211216835,-14222.414996911884,-37858.17776419852,0.0,0.0,0.0,193.0,0.0,193.0,0.0,17.0,0.0,179.0,193.0,17.0,179.0,1744420497.2138896,0.0,2025-04-11 21:14:57.213,FORWARD,25
211.0,21141.017513396444,26154.51379472182,-32115.567578741025,-22832.508126796263,-36446.79921231261,-29136.012987615228,-13840.848367315337,-37886.58683140121,0.0,0.0,0.0,193.0,0.0,193.0,0.0,17.0,0.0,179.0,193.0,17.0,179.0,1744420497.2139375,0.0,2025-04-11 21:14:57.213,FORWARD,25
212.0,21119.89511488618,26141.21450677091,-32114.852322918458,-22831.79287097369,-36444.49698263371,-29127.586379955577,-14079.095611464456,-37904.91526185456,0.0,0.0,0.0,193.0,0.0,193.0,0.0,17.0,0.0,180.0,193.0,17.0,180.0,1744420497.2139857,0.0,2025-04-11 21:14:57.213,FORWARD,25
213.0,21098.526847186906,26159.677047690995,-32103.184712312785,-22817.912437666946,-36425.27448240214,-29110.129667535984,-14402.726519432847,-37882.563517399256,0.0,0.0,0.0,193.0,0.0,194.0,0.0,17.0,0.0,179.0,194.0,17.0,179.0,1744420497.2140336,0.0,2025-04-11 21:14:57.214,FORWARD,25
214.0,21106.17114379062,26161.442835502963,-32103.36352626843,-22813.397385286975,-36425.989738224715,-29110.599054169543,-14304.691768251869,-37853.50624960736,0.0,0.0,0.0,193.0,0.0,193.0,0.0,17.0,0.0,179.0,193.0,17.0,179.0,1744420497.2140956,0.0,2025-04-11 21:14:57.214,FORWARD,25
215.0,21130.355731291264,26152.010399342824,-32120.507314265647,-22836.866716965047,-36444.20640995579,-29137.130574837993,-13848.671477874695,-37864.32449392373,0.0,0.0,0.0,193.0,0.0,193.0,0.0,17.0,0.0,179.0,193.0,17.0,179.0,1744420497.2141435,0.0,2025-04-11 21:14:57.214,FORWARD,25
216.0,21121.772661420426,26139.113442792113,-32115.858151418946,-22839.213650132853,-36437.523238363654,-29127.42991774439,-14003.144383805322,-37892.46534019295,0.0,0.0,0.0,193.0,0.0,193.0,0.0,17.0,0.0,179.0,193.0,17.0,179.0,1744420497.2141964,0.0,2025-04-11 21:14:57.214,FORWARD,25
217.0,21099.26445475393,26146.131890551078,-32113.69003220678,-22830.049434906177,-36434.818677284566,-29118.355109495536,-14352.546853130681,-37880.55186039828,0.0,0.0,0.0,193.0,0.0,194.0,0.0,17.0,0.0,180.0,194.0,17.0,180.0,1744420497.2142584,0.0,2025-04-11 21:14:57.214,FORWARD,25
218.0,21103.667748411626,26152.18921329847,-32115.58993048548,-22832.61988551854,-36435.35511915149,-29129.598036956555,-14381.000623822287,-37893.56057567127,0.0,0.0,0.0,193.0,0.0,194.0,0.0,17.0,0.0,180.0,194.0,17.0,180.0,1744420497.214306,0.0,2025-04-11 21:14:57.214,FORWARD,25
219.0,21132.590905736794,26154.08911157717,-32122.49661952217,-22840.912382711456,-36438.17143895286,-29142.763214440733,-13906.450737291663,-37880.70832260947,0.0,0.0,0.0,193.0,0.0,194.0,0.0,17.0,0.0,180.0,194.0,17.0,180.0,1744420497.214354,0.0,2025-04-11 21:14:57.214,FORWARD,25
220.0,21117.57053346283,26131.84912584414,-32124.418869545327,-22850.680095038428,-36438.5514186086,-29133.33077828059,-13951.400095391286,-37903.35063974269,0.0,0.0,0.0,193.0,0.0,193.0,0.0,17.0,0.0,179.0,193.0,17.0,179.0,1744420497.2144015,0.0,2025-04-11 21:14:57.214,FORWARD,25
221.0,21094.101201784757,26148.679989418983,-32115.478171763203,-22835.14563264199,-36431.71178480527,-29114.510609449222,-14302.344835084063,-37880.75302609838,0.0,0.0,0.0,193.0,0.0,193.0,0.0,17.0,0.0,179.0,193.0,17.0,179.0,1744420497.2144485,0.0,2025-04-11 21:14:57.214,FORWARD,25
222.0,21092.51422792843,26154.670256933005,-32109.420849015816,-22831.32348434013,-36428.69429930381,-29113.52713269319,-14431.090883146631,-37884.28460172231,0.0,0.0,0.0,193.0,0.0,194.0,0.0,17.0,0.0,180.0,194.0,17.0,180.0,1744420497.2145104,0.0,2025-04-11 21:14:57.214,FORWARD,25
223.0,21118.531658474407,26150.781053397783,-32120.9319974103,-22840.733568755815,-36443.22293319976,-29134.71658643682,-13986.62644465285,-37869.24187770389,0.0,0.0,0.0,193.0,0.0,194.0,0.0,17.0,0.0,180.0,194.0,17.0,180.0,1744420497.2145584,0.0,2025-04-11 21:14:57.214,FORWARD,25
224.0,21120.811536408848,26134.531335178774,-32122.69778522227,-22854.122263684545,-36444.251113444705,-29134.649531203453,-13918.833603719904,-37907.28454676682,0.0,0.0,0.0,193.0,0.0,194.0,0.0,17.0,0.0,180.0,194.0,17.0,180.0,1744420497.214606,0.0,2025-04-11 21:14:57.214,FORWARD,25
225.0,21098.012757064433,26138.55464918073,-32121.133163110397,-22844.46631007985,-36436.4503546298,-29121.70787116383,-14251.360505981507,-37894.47699719393,0.0,0.0,0.0,193.0,0.0,193.0,0.0,17.0,0.0,179.0,193.0,17.0,179.0,1744420497.214654,0.0,2025-04-11 21:14:57.214,FORWARD,25
226.0,21098.23627450899,26155.430216244487,-32109.30909029354,-22829.75886222826,-36425.45329635779,-29108.5203419352,-14451.654488045513,-37886.51977616784,0.0,0.0,0.0,193.0,0.0,193.0,0.0,17.0,0.0,179.0,193.0,17.0,179.0,1744420497.214702,0.0,2025-04-11 21:14:57.214,FORWARD,25
227.0,21130.199269080076,26160.392303513567,-32113.064183362032,-22825.869658693035,-36435.26571217367,-29117.975129839797,-14066.489227591663,-37857.06017697575,0.0,0.0,0.0,193.0,0.0,193.0,0.0,17.0,0.0,179.0,193.0,17.0,179.0,1744420497.214749,0.0,2025-04-11 21:14:57.214,FORWARD,25
228.0,21129.685178957603,26138.822870114192,-32128.106907380454,-22849.137824671012,-36451.49307864822,-29129.933313123383,-13871.917292108214,-37904.95996534347,0.0,0.0,0.0,193.0,0.0,193.0,0.0,17.0,0.0,179.0,193.0,17.0,179.0,1744420497.2147968,0.0,2025-04-11 21:14:57.214,FORWARD,25
229.0,21106.394661235176,26135.961846823913,-32123.480096278203,-22836.263219864755,-36445.23459020074,-29110.688461147365,-14191.547237819104,-37890.99012505891,0.0,0.0,0.0,193.0,0.0,194.0,0.0,17.0,0.0,180.0,194.0,17.0,180.0,1744420497.214858,0.0,2025-04-11 21:14:57.214,FORWARD,25
230.0,21100.851428610258,26151.228088286887,-32107.967985626223,-22820.616998746038,-36425.90033124689,-29096.98684179626,-14449.039333944242,-37881.42357843203,0.0,0.0,0.0,193.0,0.0,193.0,0.0,17.0,0.0,179.0,193.0,17.0,179.0,1744420497.214906,0.0,2025-04-11 21:14:57.214,FORWARD,25
231.0,21123.449042254575,26157.30776277873,-32113.108886850943,-22819.320597567632,-36436.897389518905,-29113.86240886002,-14157.840807180502,-37867.520793380834,0.0,0.0,0.0,193.0,0.0,193.0,0.0,17.0,0.0,179.0,193.0,17.0,179.0,1744420497.214954,0.0,2025-04-11 21:14:57.214,FORWARD,25
232.0,21121.28092304241,26137.392358469053,-32135.192410372787,-22851.10477818308,-36462.04310203113,-29146.071272620116,-13846.235137729067,-37916.51581722687,0.0,0.0,0.0,193.0,0.0,193.0,0.0,17.0,0.0,179.0,193.0,17.0,179.0,1744420497.2150152,0.0,2025-04-11 21:14:57.215,FORWARD,25
233.0,21107.869876369226,26136.99002706886,-32118.07097412002,-22833.692769252393,-36441.97123551026,-29116.3211007501,-14120.60280091796,-37901.227224019436,0.0,0.0,0.0,193.0,0.0,194.0,0.0,17.0,0.0,180.0,194.0,17.0,180.0,1744420497.215063,0.0,2025-04-11 21:14:57.215,FORWARD,25
234.0,21092.31306222833,26152.636248187573,-32107.25272980365,-22818.359472556054,-36432.76231679467,-29099.28907147516,-14419.311513818684,-37874.04750276179,0.0,0.0,0.0,193.0,0.0,194.0,0.0,17.0,0.0,180.0,194.0,17.0,180.0,1744420497.2151113,0.0,2025-04-11 21:14:57.215,FORWARD,25
235.0,21107.93693160259,26164.013286115325,-32104.30229953555,-22810.715175952337,-36431.68943306082,-29105.65931864492,-14233.926145306366,-37848.67827280501,0.0,0.0,0.0,193.0,0.0,194.0,0.0,17.0,0.0,179.0,194.0,17.0,179.0,1744420497.2151587,0.0,2025-04-11 21:14:57.215,FORWARD,25
236.0,21131.31685630284,26162.113387836624,-32113.01947987312,-22827.434280804908,-36440.808944798584,-29124.501839220746,-13826.92323051968,-37861.0387874888,0.0,0.0,0.0,193.0,0.0,193.0,0.0,17.0,0.0,179.0,193.0,17.0,179.0,1744420497.2152066,0.0,2025-04-11 21:14:57.215,FORWARD,25
237.0,21117.12349857372,26142.779128882783,-32109.040869360077,-22824.863830192546,-36437.00914824118,-29113.169504781905,-14052.608794284915,-37883.390531944104,0.0,0.0,0.0,193.0,0.0,193.0,0.0,17.0,0.0,179.0,193.0,17.0,179.0,1744420497.2152677,0.0,2025-04-11 21:14:57.215,FORWARD,25
238.0,21097.073983797312,26149.059969074726,-32101.530683223093,-22810.89398990798,-36426.704994047286,-29094.416391183902,-14389.784859393223,-37864.50330787937,0.0,0.0,0.0,193.0,0.0,194.0,0.0,17.0,0.0,180.0,194.0,17.0,180.0,1744420497.215316,0.0,2025-04-11 21:14:57.215,FORWARD,25
239.0,21107.64635892467,26157.88890813457,-32097.909700621334,-22805.12723983851,-36422.59227306751,-29101.34543196505,-14324.875393495011,-37859.407110143555,0.0,0.0,0.0,193.0,0.0,194.0,0.0,17.0,0.0,180.0,194.0,17.0,180.0,1744420497.2153635,0.0,2025-04-11 21:14:57.215,FORWARD,25
240.0,21134.289638315397,26157.643038945564,-32113.5782734845,-22820.348777812575,-36436.40565114089,-29125.507667721235,-13865.390582727265,-37862.78222355631,0.0,0.0,0.0,193.0,0.0,193.0,0.0,17.0,0.0,179.0,193.0,17.0,179.0,1744420497.2154105,0.0,2025-04-11 21:14:57.215,FORWARD,25
241.0,21121.862068398248,26142.957942838424,-32112.147761839362,-22822.293379580187,-36429.36485163747,-29112.38719372597,-13991.543828433018,-37875.7909388293,0.0,0.0,0.0,193.0,0.0,193.0,0.0,17.0,0.0,179.0,193.0,17.0,179.0,1744420497.2154577,0.0,2025-04-11 21:14:57.215,FORWARD,25
242.0,21104.539466445385,26154.714960421916,-32107.69976469276,-22809.731699196305,-36423.888674245914,-29100.227844742283,-14332.40793137645,-37861.55287761127,0.0,0.0,0.0,193.0,0.0,193.0,0.0,17.0,0.0,179.0,193.0,17.0,179.0,1744420497.2155051,0.0,2025-04-11 21:14:57.215,FORWARD,25
243.0,21110.50738221495,26166.18140532749,-32104.570520469013,-22804.948425882867,-36421.47468584475,-29105.41344945591,-14379.950091832889,-37869.46539514844,0.0,0.0,0.0,193.0,0.0,193.0,0.0,17.0,0.0,179.0,193.0,17.0,179.0,1744420497.2155528,0.0,2025-04-11 21:14:57.215,FORWARD,25
244.0,21132.456795270064,26167.500158250354,-32115.612282229937,-22813.799716687172,-36434.61751158447,-29122.020795586206,-13910.652865249262,-37845.683139048,0.0,0.0,0.0,193.0,0.0,194.0,0.0,17.0,0.0,180.0,194.0,17.0,180.0,1744420497.215614,0.0,2025-04-11 21:14:57.215,FORWARD,25
245.0,21124.27605679942,26146.735387651373,-32119.032099131597,-22828.08248139411,-36439.490191875724,-29122.445478730857,-13947.130912200322,-37889.35844771367,0.0,0.0,0.0,193.0,0.0,194.0,0.0,17.0,0.0,180.0,194.0,17.0,180.0,1744420497.2156625,0.0,2025-04-11 21:14:57.215,FORWARD,25
246.0,21096.023451807912,26154.200870299446,-32115.969910141222,-22821.89104817999,-36431.48826736072,-29115.225865271794,-14288.39734654395,-37883.9940290444,0.0,0.0,0.0,193.0,0.0,194.0,0.0,17.0,0.0,180.0,194.0,17.0,180.0,1744420497.2157097,0.0,2025-04-11 21:14:57.215,FORWARD,25
247.0,21090.346108716265,26158.492405234865,-32106.336308280985,-22816.839553933092,-36421.96642422276,-29111.314309992114,-14410.303760803195,-37878.31668595275,0.0,0.0,0.0,193.0,0.0,193.0,0.0,17.0,0.0,179.0,193.0,17.0,179.0,1744420497.2157707,0.0,2025-04-11 21:14:57.215,FORWARD,25
248.0,21116.341187517784,26154.0220563438,-32117.959215397743,-22824.528554025717,-36434.43869762882,-29129.307464278638,-13963.782961819526,-37849.25941816085,0.0,0.0,0.0,193.0,0.0,193.0,0.0,17.0,0.0,179.0,193.0,17.0,179.0,1744420497.215819,0.0,2025-04-11 21:14:57.215,FORWARD,25
249.0,21110.015643836934,26133.25728574482,-32131.347910326473,-22845.628600791526,-36446.79921231261,-29140.885667906485,-13878.22048404461,-37905.74227639941,0.0,0.0,0.0,193.0,0.0,193.0,0.0,17.0,0.0,179.0,193.0,17.0,179.0,1744420497.2158668,0.0,2025-04-11 21:14:57.215,FORWARD,25
250.0,21093.207132006544,26141.46037595992,-32119.881465420898,-22824.282684836708,-36435.33276740703,-29113.303615248635,-14223.465528901283,-37883.882270322116,0.0,0.0,0.0,193.0,0.0,194.0,0.0,17.0,0.0,180.0,194.0,17.0,180.0,1744420497.2159145,0.0,2025-04-11 21:14:57.215,FORWARD,25
251.0,21090.971957561014,26151.56336445372,-32102.625918701404,-22807.1836003284,-36420.69237478881,-29095.71279236231,-14449.665182788991,-37872.25936320536,0.0,0.0,0.0,193.0,0.0,194.0,0.0,17.0,0.0,180.0,194.0,17.0,180.0,1744420497.215963,0.0,2025-04-11 21:14:57.215,FORWARD,25
252.0,21107.51224845794,26151.98804759837,-32113.7794391846,-22813.88912366499,-36433.410517383876,-29117.796315884152,-14067.070372947499,-37853.28273216281,0.0,0.0,0.0,193.0,0.0,194.0,0.0,17.0,0.0,180.0,194.0,17.0,180.0,1744420497.2160244,0.0,2025-04-11 21:14:57.216,FORWARD,25
253.0,21113.971902605525,26137.74998638034,-32125.69291897928,-22836.822013476136,-36442.59708435501,-29131.654397446444,-13842.681210360672,-37898.83558736272,0.0,0.0,0.0,193.0,0.0,193.0,0.0,17.0,0.0,179.0,193.0,17.0,179.0,1744420497.2160728,0.0,2025-04-11 21:14:57.216,FORWARD,25
254.0,21095.777582618903,26137.325303235688,-32121.580197999505,-22825.0873476371,-36443.44645064431,-29111.76134488122,-14174.51520854416,-37904.021192076354,0.0,0.0,0.0,193.0,0.0,193.0,0.0,17.0,0.0,179.0,193.0,17.0,179.0,1744420497.2161205,0.0,2025-04-11 21:14:57.216,FORWARD,25
255.0,21084.26643422442,26153.1726900545,-32110.337270538483,-22812.503315508762,-36436.6515203299,-29094.304632461626,-14467.546578353236,-37890.16311051406,0.0,0.0,0.0,193.0,0.0,193.0,0.0,17.0,0.0,179.0,193.0,17.0,179.0,1744420497.2161715,0.0,2025-04-11 21:14:57.216,FORWARD,25
0.0,21112.541390960385,26162.47101574791,-32105.531645480594,-22805.350757283064,-36424.670985301855,-29101.09956277604,-14169.955452675278,-37854.08739496319,0.0,0.0,0.0,193.0,0.0,193.0,0.0,17.0,0.0,179.0,193.0,17.0,179.0,1744420497.216219,0.0,2025-04-11 21:14:57.216,FORWARD,25
1.0,21124.544277732883,26157.866556390116,-32120.037927632085,-22827.61309476055,-36434.43869762882,-29116.432859472377,-13810.293532644931,-37874.85216556217,0.0,0.0,0.0,193.0,0.0,193.0,0.0,17.0,0.0,180.0,193.0,17.0,180.0,1744420497.2162669,0.0,2025-04-11 21:14:57.216,FORWARD,25
2.0,21107.22167578002,26150.959867353424,-32110.44902926076,-22815.297283565676,-36425.27448240214,-29090.750705093233,-14083.945940011257,-37860.815270044244,0.0,0.0,0.0,193.0,0.0,193.0,0.0,17.0,0.0,179.0,193.0,17.0,179.0,1744420497.2163286,0.0,2025-04-11 21:14:57.216,FORWARD,25
3.0,21087.88741682618,26158.425350001497,-32100.770723911613,-22801.84153340358,-36419.32891837703,-29076.534995619655,-14395.484554229326,-37845.504325092355,0.0,0.0,0.0,193.0,0.0,193.0,0.0,17.0,0.0,179.0,193.0,17.0,179.0,1744420497.2163773,0.0,2025-04-11 21:14:57.216,FORWARD,25
4.0,21110.283864770397,26164.214451815424,-32096.456837231737,-22797.482943234798,-36419.53008407713,-29085.542748635144,-14240.318744220585,-37835.60250229866,0.0,0.0,0.0,193.0,0.0,194.0,0.0,17.0,0.0,180.0,194.0,17.0,180.0,1744420497.2164247,0.0,2025-04-11 21:14:57.216,FORWARD,25
5.0,21127.89703940118,26150.110501064122,-32112.661851961835,-22821.600475502073,-36433.969310995264,-29111.269606503203,-13830.03012299897,-37848.231237915905,0.0,0.0,0.0,193.0,0.0,194.0,0.0,17.0,0.0,180.0,194.0,17.0,180.0,1744420497.2164726,0.0,2025-04-11 21:14:57.216,FORWARD,25
6.0,21107.28873101339,26133.83843110066,-32108.54913098206,-22822.94158016939,-36426.05679345808,-29105.815780856108,-14041.879956946368,-37875.276848706824,0.0,0.0,0.0,193.0,0.0,194.0,0.0,17.0,0.0,180.0,194.0,17.0,180.0,1744420497.2165344,0.0,2025-04-11 21:14:57.216,FORWARD,25
7.0,21085.540483658373,26146.690684162462,-32102.625918701404,-22811.69865270837,-36419.910063732874,-29092.382382438467,-14364.907367814467,-37846.35369138166,0.0,0.0,0.0,193.0,0.0,194.0,0.0,17.0,0.0,180.0,194.0,17.0,180.0,1744420497.2165823,0.0,2025-04-11 21:14:57.216,FORWARD,25
8.0,21098.146867531166,26159.878213391094,-32092.902909863344,-22806.803620672657,-36411.68462177332,-29096.942138307353,-14324.249544650263,-37845.10199369216,0.0,0.0,0.0,193.0,0.0,194.0,0.0,17.0,0.0,180.0,194.0,17.0,180.0,1744420497.2166295,0.0,2025-04-11 21:14:57.216,FORWARD,25
9.0,21124.343112032784,26154.625553444097,-32105.26342454713,-22822.583952258105,-36426.123848691444,-29124.211266542825,-13864.116533293312,-37853.618008329635,0.0,0.0,0.0,193.0,0.0,194.0,0.0,17.0,0.0,180.0,194.0,17.0,180.0,1744420497.2166765,0.0,2025-04-11 21:14:57.216,FORWARD,25
10.0,21108.89805661417,26128.675178131485,-32114.338232795984,-22837.045530920688,-36432.427040627845,-29131.274417790704,-13986.090002785922,-37900.42256121905,0.0,0.0,0.0,193.0,0.0,194.0,0.0,17.0,0.0,180.0,194.0,17.0,180.0,1744420497.216724,0.0,2025-04-11 21:14:57.216,FORWARD,25
11.0,21085.629890636195,26145.41663472851,-32108.370317026416,-22825.199106359378,-36424.670985301855,-29118.04218507316,-14347.517710628237,-37892.89002333761,0.0,0.0,0.0,193.0,0.0,193.0,0.0,17.0,0.0,179.0,193.0,17.0,179.0,1744420497.216786,0.0,2025-04-11 21:14:57.216,FORWARD,25
12.0,21094.0788500403,26164.75089368235,-32097.932052365788,-22811.966873641835,-36414.478589830236,-29111.537827436667,-14415.288199816729,-37889.53726166931,0.0,0.0,0.0,193.0,0.0,193.0,0.0,17.0,0.0,179.0,193.0,17.0,179.0,1744420497.216834,0.0,2025-04-11 21:14:57.216,FORWARD,25
13.0,21115.380062506207,26160.727579680395,-32118.98739564269,-22830.831745962114,-36437.34442440801,-29142.49499350727,-13922.298124110475,-37880.01541853135,0.0,0.0,0.0,193.0,0.0,193.0,0.0,17.0,0.0,179.0,193.0,17.0,179.0,1744420497.216882,0.0,2025-04-11 21:14:57.216,FORWARD,25
14.0,21112.831963638302,26138.2193730139,-32117.601587486457,-22836.620847776037,-36437.746755808206,-29132.660225946933,-13939.441912107697,-37910.100866568195,0.0,0.0,0.0,193.0,0.0,194.0,0.0,17.0,0.0,180.0,194.0,17.0,180.0,1744420497.2169304,0.0,2025-04-11 21:14:57.216,FORWARD,25
15.0,21092.760097117436,26145.081358561678,-32108.97381412671,-22819.432356289908,-36427.73317429223,-29113.95181583784,-14284.485791264271,-37885.33513371171,0.0,0.0,0.0,193.0,0.0,193.0,0.0,17.0,0.0,179.0,193.0,17.0,179.0,1744420497.216978,0.0,2025-04-11 21:14:57.216,FORWARD,25
16.0,21092.380117461696,26157.75479766784,-32098.803770399547,-22808.211780573343,-36418.859531743474,-29100.7195831203,-14431.917897691477,-37869.84537480419,0.0,0.0,0.0,193.0,0.0,193.0,0.0,17.0,0.0,179.0,193.0,17.0,179.0,1744420497.217026,0.0,2025-04-11 21:14:57.217,FORWARD,25
17.0,21112.139059560188,26155.40786450003,-32112.885369406387,-22815.029062632213,-36440.02663374265,-29119.785621140676,-13991.38736622183,-37847.15835418205,0.0,0.0,0.0,193.0,0.0,193.0,0.0,17.0,0.0,179.0,193.0,17.0,179.0,1744420497.2170868,0.0,2025-04-11 21:14:57.217,FORWARD,25
18.0,21117.12349857372,26136.833564857672,-32121.82606718851,-22831.904629695968,-36451.76129958168,-29126.4240892439,-13910.60816176035,-37902.009535075376,0.0,0.0,0.0,193.0,0.0,193.0,0.0,17.0,0.0,179.0,193.0,17.0,179.0,1744420497.2171354,0.0,2025-04-11 21:14:57.217,FORWARD,25
19.0,21098.817419864827,26142.957942838424,-32111.611319972435,-22813.95617889836,-36437.27736917465,-29106.374574467492,-14249.594718169537,-37889.53726166931,0.0,0.0,0.0,193.0,0.0,193.0,0.0,17.0,0.0,179.0,193.0,17.0,179.0,1744420497.217188,0.0,2025-04-11 21:14:57.217,FORWARD,25
20.0,21090.927254072103,26159.028847101792,-32097.842645387966,-22800.61218745854,-36423.329880634534,-29100.160789508915,-14456.504816592314,-37884.77634010033,0.0,0.0,0.0,193.0,0.0,193.0,0.0,17.0,0.0,179.0,193.0,17.0,179.0,1744420497.217236,0.0,2025-04-11 21:14:57.217,FORWARD,25
21.0,21116.408242751153,26161.062855847224,-32105.39753501386,-22805.41781251643,-36435.33276740703,-29118.265702517714,-14089.913855780824,-37866.49261313589,0.0,0.0,0.0,193.0,0.0,193.0,0.0,17.0,0.0,179.0,193.0,17.0,179.0,1744420497.2172976,0.0,2025-04-11 21:14:57.217,FORWARD,25
22.0,21123.3372835323,26143.51673644981,-32113.891197906876,-22823.23215284731,-36441.61360759898,-29122.24431303076,-13877.304062521944,-37897.02509606184,0.0,0.0,0.0,193.0,0.0,193.0,0.0,17.0,0.0,179.0,193.0,17.0,179.0,1744420497.2173464,0.0,2025-04-11 21:14:57.217,FORWARD,25
23.0,21095.844637852268,26132.40791945552,-32113.35475603995,-22818.582990000607,-36433.52227610615,-29111.6719379034,-14163.696964227793,-37883.65875287756,0.0,0.0,0.0,193.0,0.0,194.0,0.0,17.0,0.0,180.0,194.0,17.0,180.0,1744420497.2173946,0.0,2025-04-11 21:14:57.217,FORWARD,25
24.0,21077.113875998723,26145.483689961875,-32103.83291290199,-22808.79292592918,-36421.8993689894,-29094.349335950537,-14426.799348211212,-37858.222467687425,0.0,0.0,0.0,193.0,0.0,193.0,0.0,17.0,0.0,180.0,193.0,17.0,180.0,1744420497.2174425,0.0,2025-04-11 21:14:57.217,FORWARD,25
25.0,21107.17697229111,26157.218355800913,-32097.59677619896,-22795.828914145102,-36420.08887768852,-29092.449437671836,-14170.044859653099,-37823.48785680388,0.0,0.0,0.0,193.0,0.0,194.0,0.0,17.0,0.0,180.0,194.0,17.0,180.0,1744420497.21749,0.0,2025-04-11 21:14:57.217,FORWARD,25
26.0,21115.156545061654,26133.570210167196,-32118.518009009127,-22822.226324346822,-36438.64082558642,-29114.152981537936,-13822.944620006636,-37853.14862169607,0.0,0.0,0.0,193.0,0.0,194.0,0.0,17.0,0.0,180.0,194.0,17.0,180.0,1744420497.2175517,0.0,2025-04-11 21:14:57.217,FORWARD,25
27.0,21095.218789007522,26120.91912280549,-32117.51218050864,-22820.549943512673,-36433.43286912833,-29106.195760511848,-14103.302550709554,-37874.29337195079,0.0,0.0,0.0,193.0,0.0,194.0,0.0,17.0,0.0,180.0,194.0,17.0,180.0,1744420497.2176,0.0,2025-04-11 21:14:57.217,FORWARD,25
28.0,21073.269375952408,26130.396262454542,-32115.522875252114,-22816.303112066165,-36428.89546500391,-29100.183141253372,-14419.557383007692,-37870.71709283794,0.0,0.0,0.0,193.0,0.0,194.0,0.0,17.0,0.0,180.0,194.0,17.0,180.0,1744420497.2176485,0.0,2025-04-11 21:14:57.217,FORWARD,25
29.0,21094.637643651684,26143.0697015607,-32108.45972400424,-22805.90955089445,-36423.598101568,-29100.69723137584,-14273.555788225627,-37846.688967548485,0.0,0.0,0.0,193.0,0.0,194.0,0.0,17.0,0.0,179.0,194.0,17.0,179.0,1744420497.217696,0.0,2025-04-11 21:14:57.217,FORWARD,25
30.0,21116.98938810699,26144.142585294558,-32120.39555554337,-22821.980455157813,-36439.35608140899,-29120.880856618984,-13845.251660973032,-37863.22925844542,0.0,0.0,0.0,193.0,0.0,194.0,0.0,17.0,0.0,179.0,194.0,17.0,179.0,1744420497.217744,0.0,2025-04-11 21:14:57.217,FORWARD,25
31.0,21097.766887875427,26122.12611700608,-32125.871732934924,-22828.8871441945,-36441.18892445433,-29114.6223681715,-14046.663230259805,-37886.899755823586,0.0,0.0,0.0,193.0,0.0,193.0,0.0,17.0,0.0,179.0,193.0,17.0,179.0,1744420497.2177892,0.0,2025-04-11 21:14:57.217,FORWARD,25
32.0,21075.236329464475,26132.27380898879,-32119.657947976346,-22820.147612112476,-36429.52131384866,-29103.55825466612,-14391.662405927469,-37874.7404068399,0.0,0.0,0.0,193.0,0.0,193.0,0.0,17.0,0.0,179.0,193.0,17.0,179.0,1744420497.2178469,0.0,2025-04-11 21:14:57.217,FORWARD,25
33.0,21087.149809259154,26144.455509716932,-32110.605491471946,-22808.882332907004,-36420.93824397782,-29100.630176142477,-14357.84421656659,-37870.38181667111,0.0,0.0,0.0,193.0,0.0,193.0,0.0,17.0,0.0,179.0,193.0,17.0,179.0,1744420497.2178898,0.0,2025-04-11 21:14:57.217,FORWARD,25
34.0,21108.719242658528,26144.589620183662,-32130.6326545039,-22828.8871441945,-36443.15587796639,-29124.881818876485,-13878.689870678172,-37862.44694738948,0.0,0.0,0.0,193.0,0.0,193.0,0.0,17.0,0.0,179.0,193.0,17.0,179.0,1744420497.2179322,0.0,2025-04-11 21:14:57.217,FORWARD,25
35.0,21097.051632052855,26128.49636417584,-32132.711366738247,-22837.58197278762,-36444.27346518916,-29121.774926397196,-13990.649758654805,-37892.4429884485,0.0,0.0,0.0,193.0,0.0,193.0,0.0,17.0,0.0,180.0,193.0,17.0,180.0,1744420497.2179883,0.0,2025-04-11 21:14:57.217,FORWARD,25
36.0,21075.37043993121,26140.45454745943,-32125.1341253679,-22822.718062724838,-36434.5504563511,-29104.027641299683,-14329.189280174885,-37872.97461902793,0.0,0.0,0.0,193.0,0.0,194.0,0.0,17.0,0.0,180.0,194.0,17.0,180.0,1744420497.2180312,0.0,2025-04-11 21:14:57.218,FORWARD,25
37.0,21087.954472059548,26159.98997211337,-32113.064183362032,-22810.514010252242,-36420.87118874445,-29099.132609263972,-14410.035539869732,-37874.82981381772,0.0,0.0,0.0,193.0,0.0,194.0,0.0,17.0,0.0,180.0,194.0,17.0,180.0,1744420497.2180736,0.0,2025-04-11 21:14:57.218,FORWARD,25
38.0,21112.36257700474,26157.575983712195,-32128.59864575847,-22821.823992946625,-36440.965407009775,-29125.01592934322,-13938.704304540672,-37868.25840094786,0.0,0.0,0.0,193.0,0.0,194.0,0.0,17.0,0.0,179.0,194.0,17.0,179.0,1744420497.218116,0.0,2025-04-11 21:14:57.218,FORWARD,25
39.0,21103.198361778064,26127.222314741888,-32136.086480150996,-22839.32540885513,-36448.00620651319,-29126.20057179935,-13938.972525474135,-37910.27968052384,0.0,0.0,0.0,193.0,0.0,194.0,0.0,17.0,0.0,179.0,194.0,17.0,179.0,1744420497.2181585,0.0,2025-04-11 21:14:57.218,FORWARD,25
40.0,21082.433591179084,26132.340864222155,-32128.330424825006,-22825.646141248482,-36439.71370932028,-29106.48633318977,-14290.766631456214,-37887.25738373487,0.0,0.0,0.0,193.0,0.0,194.0,0.0,17.0,0.0,180.0,194.0,17.0,180.0,1744420497.218204,0.0,2025-04-11 21:14:57.218,FORWARD,25
41.0,21079.773733588903,26142.667370160507,-32119.948520654267,-22820.505240023762,-36432.359985394476,-29108.788562868664,-14458.561177082203,-37901.87542460864,0.0,0.0,0.0,193.0,0.0,194.0,0.0,17.0,0.0,180.0,194.0,17.0,180.0,1744420497.2182605,0.0,2025-04-11 21:14:57.218,FORWARD,25
42.0,21103.868914111725,26145.014303328313,-32131.012634159644,-22827.926019182923,-36446.68745359033,-29129.173353811904,-14039.801244712025,-37879.54603189779,0.0,0.0,0.0,193.0,0.0,193.0,0.0,17.0,0.0,180.0,193.0,17.0,180.0,1744420497.2183032,0.0,2025-04-11 21:14:57.218,FORWARD,25
43.0,21101.209056521544,26127.535239164263,-32135.684148750803,-22841.404121089476,-36449.07909024705,-29123.853638631543,-13910.652865249262,-37889.4925581804,0.0,0.0,0.0,193.0,0.0,193.0,0.0,17.0,0.0,179.0,193.0,17.0,179.0,1744420497.218346,0.0,2025-04-11 21:14:57.218,FORWARD,25
44.0,21077.94089054357,26127.98227405337,-32125.178828856806,-22825.0873476371,-36431.73413654973,-29103.446495943845,-14228.67348535937,-37860.189421199495,0.0,0.0,0.0,193.0,0.0,193.0,0.0,17.0,0.0,179.0,193.0,17.0,179.0,1744420497.218388,0.0,2025-04-11 21:14:57.218,FORWARD,25
45.0,21076.800951576348,26146.89184986256,-32109.890235649378,-22810.17873408541,-36420.87118874445,-29087.979088780772,-14453.33086887966,-37850.041729216784,0.0,0.0,0.0,193.0,0.0,193.0,0.0,18.0,0.0,179.0,193.0,18.0,179.0,1744420497.2184308,0.0,2025-04-11 21:14:57.218,FORWARD,25
46.0,21109.725071159017,26153.284448776776,-32113.44416301777,-22809.217609073832,-36429.36485163747,-29101.7701151097,-14101.402652430852,-37830.05926967374,0.0,0.0,0.0,193.0,0.0,194.0,0.0,17.0,0.0,180.0,194.0,17.0,180.0,1744420497.2184744,0.0,2025-04-11 21:14:57.218,FORWARD,25
47.0,21119.202210808064,26138.487593947364,-32123.167171855832,-22827.300170338174,-36440.2501511872,-29110.554350680635,-13857.343954723354,-37873.10872949466,0.0,0.0,0.0,193.0,0.0,194.0,0.0,17.0,0.0,180.0,194.0,17.0,180.0,1744420497.2185333,0.0,2025-04-11 21:14:57.218,FORWARD,25
48.0,21091.620158150217,26128.98810255386,-32121.84841893297,-22821.9357516689,-36437.00914824118,-29100.38430695347,-14172.61531026546,-37877.84729931919,0.0,0.0,0.0,193.0,0.0,194.0,0.0,17.0,0.0,180.0,194.0,17.0,180.0,1744420497.218577,0.0,2025-04-11 21:14:57.218,FORWARD,25
49.0,21078.544387643862,26151.74217840936,-32111.253692061153,-22812.95035039787,-36429.700127804295,-29093.09763826104,-14457.510645092803,-37873.4887091504,0.0,0.0,0.0,193.0,0.0,193.0,0.0,17.0,0.0,179.0,193.0,17.0,179.0,1744420497.6948855,0.0,2025-04-11 21:14:57.694,FORWARD,25
50.0,21098.728012887004,26147.69651266295,-32111.34309903897,-22808.815277673635,-36436.0480232296,-29107.246292501248,-14216.447081142316,-37862.89398227858,0.0,0.0,0.0,193.0,0.0,194.0,0.0,17.0,0.0,179.0,194.0,17.0,179.0,1744420497.695238,0.0,2025-04-11 21:14:57.695,FORWARD,25
51.0,21115.424765995118,26138.308779991723,-32124.798849201066,-22826.89783893798,-36450.956636781295,-29123.563065953622,-13870.822056629904,-37884.8433953337,0.0,0.0,0.0,193.0,0.0,193.0,0.0,17.0,0.0,179.0,193.0,17.0,179.0,1744420497.6953075,0.0,2025-04-11 21:14:57.695,FORWARD,25
52.0,21100.180876276598,26131.82677409968,-32117.087497363987,-22819.99114990129,-36440.6524825874,-29105.592263411556,-14134.37147550243,-37889.38079945812,0.0,0.0,0.0,193.0,0.0,193.0,0.0,17.0,0.0,179.0,193.0,17.0,179.0,1744420497.6953626,0.0,2025-04-11 21:14:57.695,FORWARD,25
53.0,21086.79218134787,26146.668332418005,-32102.29064253457,-22803.85319040456,-36423.598101568,-29087.733219591766,-14446.29006937624,-37866.134985224606,0.0,0.0,0.0,193.0,0.0,193.0,0.0,17.0,0.0,179.0,193.0,17.0,179.0,1744420497.695418,0.0,2025-04-11 21:14:57.695,FORWARD,25
54.0,21101.14200128818,26157.643038945564,-32098.714363421725,-22797.594701957074,-36418.21133115427,-29093.34350745005,-14286.028061631689,-37843.67148204702,0.0,0.0,0.0,193.0,0.0,193.0,0.0,17.0,0.0,179.0,193.0,17.0,179.0,1744420497.695475,0.0,2025-04-11 21:14:57.695,FORWARD,25
55.0,21119.55983871935,26144.36610273911,-32120.328500310006,-22823.768594714238,-36440.183095953835,-29120.634987429978,-13842.927079549681,-37850.756985039356,0.0,0.0,0.0,193.0,0.0,194.0,0.0,17.0,0.0,180.0,194.0,17.0,180.0,1744420497.6955984,0.0,2025-04-11 21:14:57.695,FORWARD,25
56.0,21102.41605072213,26124.316587962698,-32121.60254974396,-22829.33417908361,-36437.56794185257,-29118.086888562073,-14034.861509187402,-37888.419674446544,0.0,0.0,0.0,193.0,0.0,194.0,0.0,17.0,0.0,180.0,194.0,17.0,180.0,1744420497.695666,0.0,2025-04-11 21:14:57.695,FORWARD,25
57.0,21082.679460368094,26144.880192861583,-32108.43737225978,-22808.36824278453,-36421.96642422276,-29098.03737378566,-14374.69743188589,-37871.07472074923,0.0,0.0,0.0,193.0,0.0,194.0,0.0,17.0,0.0,179.0,194.0,17.0,179.0,1744420497.695717,0.0,2025-04-11 21:14:57.695,FORWARD,25
58.0,21091.351937216754,26154.312629021722,-32098.982584355188,-22799.06991709112,-36415.28325263062,-29094.684612117366,-14357.106608999564,-37866.49261313589,0.0,0.0,0.0,193.0,0.0,194.0,0.0,17.0,0.0,180.0,194.0,17.0,180.0,1744420497.6957612,0.0,2025-04-11 21:14:57.695,FORWARD,25
59.0,21122.309103287353,26153.932649365983,-32112.34892753946,-22812.65977771995,-36432.67290981685,-29117.81866762861,-13876.097068321356,-37858.40128164307,0.0,0.0,0.0,193.0,0.0,193.0,0.0,17.0,0.0,179.0,193.0,17.0,179.0,1744420497.6958044,0.0,2025-04-11 21:14:57.695,FORWARD,25
60.0,21105.768812390426,26126.26118973031,-32124.865904434435,-22832.485775051806,-36441.63595934343,-29126.491144477266,-13975.67408986975,-37912.447799736,0.0,0.0,0.0,193.0,0.0,193.0,0.0,17.0,0.0,179.0,193.0,17.0,179.0,1744420497.6958477,0.0,2025-04-11 21:14:57.695,FORWARD,25
61.0,21083.350012701754,26135.49246019035,-32115.41111652984,-22813.352681798064,-36429.856590015486,-29104.027641299683,-14336.69946631187,-37892.30887798177,0.0,0.0,0.0,193.0,0.0,193.0,0.0,17.0,0.0,179.0,193.0,17.0,179.0,1744420497.6958916,0.0,2025-04-11 21:14:57.695,FORWARD,25
62.0,21093.65416689565,26150.55753595323,-32101.73184892319,-22798.824047902115,-36416.266729386654,-29091.868292315998,-14418.931534162944,-37875.05333126227,0.0,0.0,0.0,193.0,0.0,194.0,0.0,17.0,0.0,180.0,194.0,17.0,180.0,1744420497.6959703,0.0,2025-04-11 21:14:57.695,FORWARD,25
