Sample Index,EXG Channel 0,EXG Channel 1,EXG Channel 2,EXG Channel 3,EXG Channel 4,EXG Channel 5,EXG Channel 6,EXG Channel 7,Accel Channel 0,Accel Channel 1,Accel Channel 2,Not Used,Digital Channel 0 (D11),Digital Channel 1 (D12),Digital Channel 2 (D13),Digital Channel 3 (D17),Not Used,Digital Channel 4 (D18),Analog Channel 0,Analog Channel 1,Analog Channel 2,Timestamp,Marker Channel,Timestamp (Formatted),Stimulus_Direction,Stimulus_Number
93.0,12382.933483473478,1271.7248525291507,-59294.90885673867,-56147.51501649798,-33984.911022771725,-31257.90879224644,-8570.575245687396,-20940.58942086571,0.0,0.0,0.0,193.0,1.0,154.0,0.0,10.0,3.0,250.0,410.0,10.0,1018.0,1744252814.0240552,0.0,2025-04-09 22:40:14.024,FORWARD,30
94.0,12310.178555271454,1227.200177574179,-59336.23723223653,-56211.15043296223,-34026.59702618087,-31299.81831310014,-8667.872389301347,-20990.165590067576,0.0,0.0,0.0,193.0,1.0,155.0,0.0,9.0,3.0,251.0,411.0,9.0,1019.0,1744252814.0240643,0.0,2025-04-09 22:40:14.024,FORWARD,30
95.0,12408.16860296352,1232.3410787988996,-59323.116758241275,-56139.11076058278,-34064.01384639905,-31332.496563493798,-8495.54043955093,-21017.278256091864,0.0,0.0,0.0,193.0,1.0,154.0,0.0,8.0,3.0,249.0,410.0,8.0,1017.0,1744252814.0240731,0.0,2025-04-09 22:40:14.024,FORWARD,30
96.0,12444.758408636859,1253.3293668424328,-59299.08863295182,-56189.53629607395,-33993.695258342654,-31251.918524732417,-8796.372568174907,-20944.23275521192,0.0,0.0,0.0,193.0,1.0,154.0,0.0,8.0,3.0,251.0,410.0,8.0,1019.0,1744252814.024087,0.0,2025-04-09 22:40:14.024,FORWARD,30
97.0,12391.673015555503,1267.5897798049189,-59284.47059207805,-56126.05734182088,-33975.14331044475,-31239.66976877091,-8577.526638212996,-20916.226019409423,0.0,0.0,0.0,193.0,1.0,155.0,0.0,7.0,3.0,251.0,411.0,7.0,1019.0,1744252814.024096,0.0,2025-04-09 22:40:14.024,FORWARD,30
98.0,12325.020113589779,1244.299262082489,-59325.70956059809,-56192.73259553106,-34007.59804339386,-31269.509347618743,-8648.13579894731,-20958.739037363415,0.0,0.0,0.0,193.0,1.0,154.0,0.0,7.0,3.0,250.0,410.0,7.0,1018.0,1744252814.0241048,0.0,2025-04-09 22:40:14.024,FORWARD,30
99.0,12391.650663811048,1240.879445180827,-59314.868964537265,-56120.33529524032,-34054.89433466129,-31313.519932451243,-8485.884485946237,-20996.91581689308,0.0,0.0,0.0,193.0,1.0,155.0,0.0,6.0,3.0,251.0,411.0,6.0,1019.0,1744252814.024114,0.0,2025-04-09 22:40:14.024,FORWARD,30
100.0,12460.069353588744,1264.4158320922652,-59306.263542921966,-56180.21561863609,-34012.78364810749,-31260.166318436426,-8735.799340701025,-20958.023781540847,0.0,0.0,0.0,193.0,1.0,155.0,0.0,6.0,3.0,252.0,411.0,6.0,1020.0,1744252814.0241227,0.0,2025-04-09 22:40:14.024,FORWARD,30
101.0,12416.215230967431,1279.391500877321,-59268.578501770324,-56114.92617308214,-33966.20261266263,-31231.08669890007,-8614.854051453358,-20928.519478859842,0.0,0.0,0.0,193.0,1.0,155.0,0.0,6.0,3.0,251.0,411.0,6.0,1019.0,1744252814.0241315,0.0,2025-04-09 22:40:14.024,FORWARD,30
102.0,12340.711038197403,1259.230227378634,-59315.137185470725,-56183.52367681547,-33999.372601434305,-31257.484109101788,-8627.37102834833,-20951.608830882175,0.0,0.0,0.0,193.0,1.0,155.0,0.0,5.0,3.0,252.0,411.0,5.0,1020.0,1744252814.0241408,0.0,2025-04-09 22:40:14.024,FORWARD,30
103.0,12375.132724658577,1246.6238435058408,-59303.78249928743,-56125.54325169841,-34034.9342268627,-31301.11471427855,-8515.522899093974,-20977.4027439836,0.0,0.0,0.0,193.0,1.0,154.0,0.0,5.0,3.0,250.0,410.0,5.0,1018.0,1744252814.02415,0.0,2025-04-09 22:40:14.024,FORWARD,30
104.0,12464.0926675907,1259.7219657566507,-59310.44331913511,-56175.47704881157,-34022.19373252317,-31281.71340009134,-8658.529360119028,-20963.72347637695,0.0,0.0,0.0,193.0,1.0,155.0,0.0,5.0,3.0,251.0,411.0,5.0,1019.0,1744252814.0241587,0.0,2025-04-09 22:40:14.024,FORWARD,30
105.0,12426.564088650239,1279.3020938994998,-59258.5872719988,-56117.31780973886,-33953.77504274548,-31221.408393550922,-8666.553636378483,-20895.930635444,0.0,0.0,0.0,193.0,1.0,155.0,0.0,5.0,3.0,252.0,411.0,5.0,1020.0,1744252814.0241675,0.0,2025-04-09 22:40:14.024,FORWARD,30
106.0,12358.838302950657,1273.065957196469,-59298.999225973996,-56160.68019398215,-33978.58547909087,-31252.00793171024,-8591.295312797465,-20927.20072593698,0.0,0.0,0.0,193.0,1.0,154.0,0.0,5.0,3.0,250.0,410.0,5.0,1018.0,1744252814.0241764,0.0,2025-04-09 22:40:14.024,FORWARD,30
107.0,12355.105561626622,1243.069916137447,-59298.48513585152,-56125.6997139096,-34013.990642308076,-31297.516083421244,-8562.372155472298,-20973.44648521501,0.0,0.0,0.0,193.0,1.0,155.0,0.0,4.0,3.0,250.0,411.0,4.0,1018.0,1744252814.0241852,0.0,2025-04-09 22:40:14.024,FORWARD,30
108.0,12471.155818838575,1271.68014904024,-59302.10611845328,-56132.11466456827,-34017.49986618756,-31294.565653153142,-8582.1758010597,-20978.76620039537,0.0,0.0,0.0,193.0,1.0,154.0,0.0,4.0,3.0,252.0,410.0,4.0,1020.0,1744252814.024194,0.0,2025-04-09 22:40:14.024,FORWARD,30
109.0,12443.46200745845,1286.1417277028238,-59252.10526610676,-56100.576353141834,-33941.772155972976,-31213.115896358002,-8723.192956828232,-20895.841228466183,0.0,0.0,0.0,193.0,1.0,154.0,0.0,4.0,3.0,250.0,410.0,4.0,1018.0,1744252814.0242028,0.0,2025-04-09 22:40:14.024,FORWARD,30
110.0,12373.9704339469,1279.905590999793,-59295.847630005796,-56126.794949387906,-33973.712798799614,-31251.00210320975,-8567.155428785734,-20918.058862454756,0.0,0.0,0.0,193.0,1.0,155.0,0.0,4.0,3.0,251.0,411.0,4.0,1019.0,1744252814.0242114,0.0,2025-04-09 22:40:14.024,FORWARD,30
111.0,12342.454474264918,1241.035907392014,-59307.76110980048,-56128.29251626641,-34006.18988349317,-31286.004935026758,-8601.84533618037,-20944.67979010103,0.0,0.0,0.0,193.0,1.0,154.0,0.0,4.0,3.0,249.0,410.0,4.0,1017.0,1744252814.024225,0.0,2025-04-09 22:40:14.024,FORWARD,30
112.0,12450.525158706327,1257.2185703776563,-59315.51716512647,-56110.32171372434,-34036.47649723011,-31310.457743460865,-8521.40140788572,-20972.91004334808,0.0,0.0,0.0,193.0,1.0,155.0,0.0,4.0,3.0,252.0,411.0,4.0,1020.0,1744252814.0242338,0.0,2025-04-09 22:40:14.024,FORWARD,30
113.0,12443.484359202905,1275.3458351309105,-59273.94292043959,-56120.51410919597,-33957.8654119808,-31227.71158548732,-8786.247227936654,-20904.781926248306,0.0,0.0,0.0,193.0,1.0,154.0,0.0,4.0,3.0,250.0,410.0,4.0,1018.0,1744252814.0242426,0.0,2025-04-09 22:40:14.024,FORWARD,30
114.0,12384.676919540992,1277.6927682987175,-59299.15568818518,-56111.90868758067,-33972.01406622101,-31253.75136777775,-8572.050460821445,-20924.540868346798,0.0,0.0,0.0,193.0,1.0,154.0,0.0,4.0,3.0,250.0,410.0,4.0,1018.0,1744252814.0242512,0.0,2025-04-09 22:40:14.024,FORWARD,30
115.0,12322.002628088312,1235.1126951113577,-59331.94569730112,-56153.147656100715,-34011.10726727334,-31292.755161852263,-8658.529360119028,-20969.91490959107,0.0,0.0,0.0,193.0,1.0,155.0,0.0,4.0,3.0,252.0,411.0,4.0,1020.0,1744252814.02426,0.0,2025-04-09 22:40:14.024,FORWARD,30
116.0,12429.447463684972,1249.4178115627542,-59328.36941818827,-56102.029216531424,-34048.61349446935,-31327.15449656898,-8498.557925052397,-20993.183075569043,0.0,0.0,0.0,193.0,1.0,155.0,0.0,4.0,3.0,251.0,411.0,4.0,1019.0,1744252814.024269,0.0,2025-04-09 22:40:14.024,FORWARD,30
117.0,12445.294850503786,1265.913398970771,-59297.07697595084,-56140.58597571683,-33969.55537433093,-31236.94285594736,-8806.74377760217,-20911.107469929157,0.0,0.0,0.0,193.0,1.0,154.0,0.0,4.0,3.0,249.0,410.0,4.0,1017.0,1744252814.0242777,0.0,2025-04-09 22:40:14.024,FORWARD,30
118.0,12394.981073734889,1279.3691491328657,-59290.14793516969,-56088.70757683606,-33956.68076952467,-31233.008948923227,-8565.099068295845,-20898.90341745656,0.0,0.0,0.0,193.0,1.0,154.0,0.0,3.0,3.0,251.0,410.0,3.0,1019.0,1744252814.0242865,0.0,2025-04-09 22:40:14.024,FORWARD,30
119.0,12325.087168823144,1241.8852736813158,-59327.34123794332,-56147.67147870916,-33993.292926942464,-31266.223641183813,-8661.166865964755,-20944.411569167565,0.0,0.0,0.0,193.0,1.0,154.0,0.0,3.0,3.0,249.0,410.0,3.0,1017.0,1744252814.024295,0.0,2025-04-09 22:40:14.024,FORWARD,30
120.0,12411.901344287557,1247.808485961972,-59315.36070291528,-56074.15659119566,-34034.822468140424,-31304.020441057735,-8473.00988113998,-20973.893520104113,0.0,0.0,0.0,193.0,1.0,155.0,0.0,3.0,3.0,252.0,411.0,3.0,1020.0,1744252814.024304,0.0,2025-04-09 22:40:14.024,FORWARD,30
121.0,12453.18501629651,1265.935750715226,-59303.11194695377,-56135.91446112567,-33981.49120587006,-31235.199419879846,-8774.35609988643,-20917.455365354464,0.0,0.0,0.0,193.0,1.0,155.0,0.0,3.0,3.0,252.0,411.0,3.0,1020.0,1744252814.0243127,0.0,2025-04-09 22:40:14.024,FORWARD,30
122.0,12407.0286639963,1283.0124834790806,-59277.943882697095,-56068.09926844827,-33953.46211832311,-31213.56293124711,-8589.373062774308,-20889.47098129642,0.0,0.0,0.0,193.0,1.0,154.0,0.0,3.0,3.0,250.0,410.0,3.0,1018.0,1744252814.0243216,0.0,2025-04-09 22:40:14.024,FORWARD,30
123.0,12327.858785135602,1255.519837799053,-59325.26252570898,-56143.96108912958,-33986.76621756151,-31249.012797953226,-8649.074572214433,-20931.224039938934,0.0,0.0,0.0,193.0,1.0,155.0,0.0,3.0,3.0,251.0,411.0,3.0,1019.0,1744252814.0243304,0.0,2025-04-09 22:40:14.024,FORWARD,30
124.0,12382.285282884275,1243.1816748597234,-59320.63571460673,-56080.28096917641,-34035.9847588521,-31297.784304354707,-8499.094366919324,-20969.669040402063,0.0,0.0,0.0,193.0,1.0,155.0,0.0,3.0,3.0,252.0,411.0,3.0,1020.0,1744252814.0243392,0.0,2025-04-09 22:40:14.024,FORWARD,30
125.0,12456.649536687082,1261.9571402021816,-59320.34514192881,-56140.02718210545,-34003.082991013885,-31253.86312650003,-8729.742017953637,-20943.785720322816,0.0,0.0,0.0,193.0,1.0,154.0,0.0,3.0,3.0,250.0,410.0,3.0,1018.0,1744252814.0243475,0.0,2025-04-09 22:40:14.024,FORWARD,30
126.0,12400.83723078218,1270.0484716950027,-59286.52695256793,-56082.29262617739,-33960.03353119297,-31216.155733603926,-8643.129008189322,-20890.543865030275,0.0,0.0,0.0,193.0,1.0,155.0,0.0,3.0,3.0,252.0,411.0,3.0,1020.0,1744252814.0243995,0.0,2025-04-09 22:40:14.024,FORWARD,30
127.0,12338.386456774051,1262.8959134693043,-59320.83688030683,-56139.647202449705,-33974.562165088915,-31246.531754318687,-8616.061045653945,-20924.47381311343,0.0,0.0,0.0,193.0,1.0,154.0,0.0,3.0,3.0,250.0,410.0,3.0,1018.0,1744252814.1418111,0.0,2025-04-09 22:40:14.141,FORWARD,30
128.0,12360.045297151244,1235.783247445017,-59317.662932594176,-56094.29551294989,-34020.78557262249,-31299.706554377863,-8527.570489355385,-20968.015011312367,0.0,0.0,0.0,193.0,1.0,154.0,0.0,3.0,3.0,251.0,410.0,3.0,1019.0,1744252814.1418436,0.0,2025-04-09 22:40:14.141,FORWARD,30
129.0,12466.998394369888,1269.2885123835222,-59311.94088601362,-56124.93975459811,-34006.435752682184,-31273.28679243169,-8654.28252867252,-20949.57482213674,0.0,0.0,0.0,193.0,1.0,155.0,0.0,3.0,3.0,252.0,411.0,3.0,1020.0,1744252814.1418543,0.0,2025-04-09 22:40:14.141,FORWARD,30
130.0,12432.532004419805,1287.4381288812315,-59261.89533017819,-56080.28096917641,-33940.498106539024,-31218.502666771732,-8696.81789837097,-20899.685728512493,0.0,0.0,0.0,193.0,1.0,154.0,0.0,3.0,3.0,249.0,410.0,3.0,1017.0,1744252814.141864,0.0,2025-04-09 22:40:14.141,FORWARD,30
131.0,12363.889797197557,1277.4245473652538,-59304.94478999911,-56127.621963932754,-33968.66130455271,-31248.386949108477,-8596.592676233373,-20924.831441024715,0.0,0.0,0.0,193.0,1.0,154.0,0.0,3.0,3.0,250.0,410.0,3.0,1018.0,1744252814.1418889,0.0,2025-04-09 22:40:14.141,FORWARD,30
132.0,12353.004497647822,1249.2166458626564,-59308.141089456214,-56106.56662065585,-34009.11796201682,-31288.038943772193,-8588.188420318178,-20961.220080997955,0.0,0.0,0.0,193.0,1.0,154.0,0.0,3.0,3.0,249.0,410.0,3.0,1017.0,1744252814.141898,0.0,2025-04-09 22:40:14.141,FORWARD,30
133.0,12453.90027211908,1255.67630001024,-59328.145900743715,-56129.34304825581,-34038.21993329763,-31311.57533068363,-8592.569362231417,-20989.11505807818,0.0,0.0,0.0,193.0,1.0,154.0,0.0,3.0,3.0,250.0,410.0,3.0,1018.0,1744252814.1419072,0.0,2025-04-09 22:40:14.141,FORWARD,30
134.0,12435.84006259919,1276.843402009416,-59272.60181577228,-56106.924248567135,-33952.679807267166,-31226.370480820002,-8777.351233643441,-20911.867429240636,0.0,0.0,0.0,193.0,1.0,155.0,0.0,3.0,3.0,252.0,411.0,3.0,1020.0,1744252814.1419163,0.0,2025-04-09 22:40:14.141,FORWARD,30
135.0,12375.199779891942,1278.162154932279,-59301.83789751982,-56117.206051016576,-33971.16469993171,-31253.41609161092,-8592.815231420425,-20931.67107482804,0.0,0.0,0.0,193.0,1.0,154.0,0.0,3.0,3.0,250.0,410.0,3.0,1018.0,1744252814.1419256,0.0,2025-04-09 22:40:14.141,FORWARD,30
136.0,12326.182404301455,1234.7327154556174,-59324.34610418631,-56138.23904254902,-34015.041174297476,-31294.610356642053,-8650.728601304127,-20974.2511480154,0.0,0.0,0.0,193.0,1.0,154.0,0.0,3.0,3.0,250.0,410.0,3.0,1018.0,1744252814.1419346,0.0,2025-04-09 22:40:14.141,FORWARD,30
137.0,12441.785626624302,1251.2506546080895,-59325.79896757591,-56111.416949202656,-34046.780651424015,-31321.745374410795,-8541.205053473122,-20999.888598905636,0.0,0.0,0.0,193.0,1.0,155.0,0.0,3.0,3.0,252.0,411.0,3.0,1020.0,1744252814.1419437,0.0,2025-04-09 22:40:14.141,FORWARD,30
138.0,12439.773969623324,1268.1485734163016,-59285.40936534517,-56132.85227213529,-33967.007275463024,-31244.18482115088,-8821.138301031388,-20941.14821447709,0.0,0.0,0.0,193.0,1.0,154.0,0.0,3.0,3.0,250.0,410.0,3.0,1018.0,1744252814.1419525,0.0,2025-04-09 22:40:14.141,FORWARD,30
139.0,12381.838247995169,1274.742338030617,-59299.02157771845,-56114.76971087095,-33969.37656037528,-31266.156585950448,-8586.288522039476,-20945.462101156965,0.0,0.0,0.0,193.0,1.0,155.0,0.0,3.0,3.0,252.0,411.0,3.0,1020.0,1744252814.141961,0.0,2025-04-09 22:40:14.141,FORWARD,30
140.0,12326.115349068088,1243.6063580043744,-59322.6026681188,-56151.98536538904,-33996.377467677295,-31289.536510650698,-8674.756726593581,-20961.018915297856,0.0,0.0,0.0,193.0,1.0,154.0,0.0,3.0,3.0,250.0,410.0,3.0,1018.0,1744252814.14197,0.0,2025-04-09 22:40:14.141,FORWARD,30
141.0,12421.177318236509,1244.9027591827821,-59328.39176993272,-56103.862059576764,-34047.9876456246,-31337.078671107134,-8504.481137333052,-21000.737965194938,0.0,0.0,0.0,193.0,1.0,154.0,0.0,3.0,3.0,250.0,410.0,3.0,1018.0,1744252814.1420083,0.0,2025-04-09 22:40:14.142,FORWARD,30
142.0,12438.231699255908,1260.3478146013993,-59309.124566212246,-56159.4061445482,-33985.179243705184,-31266.33539990609,-8835.108141315954,-20956.19093849551,0.0,0.0,0.0,193.0,1.0,154.0,0.0,3.0,3.0,252.0,410.0,3.0,1020.0,1744252814.1420171,0.0,2025-04-09 22:40:14.142,FORWARD,30
143.0,12379.938349716467,1262.6276925358407,-59307.314074911366,-56115.97670507154,-33979.25603142453,-31270.80574879715,-8617.737426488093,-20947.2949442023,0.0,0.0,0.0,193.0,1.0,154.0,0.0,3.0,3.0,250.0,410.0,3.0,1018.0,1744252814.1420264,0.0,2025-04-09 22:40:14.142,FORWARD,30
144.0,12309.932686082446,1227.9154333967488,-59339.23236599355,-56174.62768252226,-34006.41340093772,-31295.057391531158,-8711.190070055733,-20976.3522119942,0.0,0.0,0.0,193.0,1.0,154.0,0.0,3.0,3.0,252.0,410.0,3.0,1020.0,1744252814.1420352,0.0,2025-04-09 22:40:14.142,FORWARD,30
145.0,12393.997596978856,1230.619994475841,-59325.150766986706,-56100.844574075294,-34044.6348839563,-31336.07284260665,-8530.632678345763,-21008.494020520928,0.0,0.0,0.0,193.0,1.0,154.0,0.0,3.0,3.0,250.0,410.0,3.0,1018.0,1744252814.1420443,0.0,2025-04-09 22:40:14.142,FORWARD,30
146.0,12447.619431927138,1254.9833959321256,-59311.38209240224,-56158.42266779217,-33991.057752496934,-31268.727036562806,-8810.655332881848,-20953.66519137206,0.0,0.0,0.0,193.0,1.0,154.0,0.0,3.0,3.0,249.0,410.0,3.0,1017.0,1744252814.1420531,0.0,2025-04-09 22:40:14.142,FORWARD,30
147.0,12405.68755932898,1276.2622566535779,-59279.754373997974,-56087.88056229122,-33954.13267065676,-31243.603675795042,-8640.692668043694,-20922.216286923445,0.0,0.0,0.0,193.0,1.0,154.0,0.0,3.0,3.0,250.0,410.0,3.0,1018.0,1744252814.142062,0.0,2025-04-09 22:40:14.142,FORWARD,30
148.0,12334.340791027642,1256.682128510729,-59317.77469131645,-56149.63843222123,-33975.3668278893,-31264.32374290511,-8670.308729446975,-20944.635086612117,0.0,0.0,0.0,193.0,1.0,154.0,0.0,2.0,3.0,252.0,410.0,2.0,1020.0,1744252814.1420708,0.0,2025-04-09 22:40:14.142,FORWARD,30
149.0,12368.628367022082,1231.8940439097935,-59317.61822910527,-56092.753242582476,-34029.8827326158,-31322.773554655738,-8536.153559226223,-20999.15099133861,0.0,0.0,0.0,193.0,1.0,154.0,0.0,2.0,3.0,250.0,410.0,2.0,1018.0,1744252814.1420798,0.0,2025-04-09 22:40:14.142,FORWARD,30
150.0,12451.016897084344,1256.3021488549887,-59320.45690065109,-56151.87360666676,-34011.91193007373,-31289.603565884063,-8751.177340886277,-20978.229758528443,0.0,0.0,0.0,193.0,1.0,154.0,0.0,2.0,3.0,251.0,410.0,2.0,1019.0,1744252814.1420884,0.0,2025-04-09 22:40:14.142,FORWARD,30
151.0,12409.93439077549,1271.6577972957848,-59272.37829832773,-56086.785326812904,-33956.56901080239,-31237.3228356031,-8703.590476940928,-20917.254199654366,0.0,0.0,0.0,193.0,1.0,154.0,0.0,2.0,3.0,250.0,410.0,2.0,1018.0,1744252814.1420975,0.0,2025-04-09 22:40:14.142,FORWARD,30
152.0,12345.49431151084,1258.1126401558686,-59310.21980169056,-56142.19530131761,-33973.69044705516,-31262.960286493337,-8644.693630301193,-20938.53306037582,0.0,0.0,0.0,193.0,1.0,153.0,0.0,2.0,3.0,250.0,409.0,2.0,1018.0,1744252814.1421063,0.0,2025-04-09 22:40:14.142,FORWARD,30
153.0,12350.29993656873,1224.428561261721,-59315.31599942637,-56111.97574281404,-34020.91968308922,-31323.15353431148,-8572.430440477186,-20997.184037826544,0.0,0.0,0.0,193.0,1.0,155.0,0.0,2.0,3.0,252.0,411.0,2.0,1020.0,1744252814.1421149,0.0,2025-04-09 22:40:14.142,FORWARD,30
154.0,12453.788513396801,1252.3235383419442,-59318.26642969447,-56142.754094929,-34021.38906972278,-31309.742487638294,-8662.016232254056,-20990.67968019005,0.0,0.0,0.0,193.0,1.0,155.0,0.0,2.0,3.0,250.0,411.0,2.0,1018.0,1744252814.6018653,0.0,2025-04-09 22:40:14.601,FORWARD,30
155.0,12424.440672926983,1267.880352482838,-59265.3374988243,-56098.31882695184,-33953.55152530093,-31235.400585579944,-8749.25509086312,-20915.175487420023,0.0,0.0,0.0,193.0,1.0,155.0,0.0,2.0,3.0,250.0,411.0,2.0,1018.0,1744252814.6019032,0.0,2025-04-09 22:40:14.601,FORWARD,30
156.0,12354.010326148311,1261.9347884577262,-59301.39086263071,-56132.807568646385,-33973.91396449971,-31262.692065559873,-8611.635400251795,-20933.77213880684,0.0,0.0,0.0,193.0,1.0,155.0,0.0,2.0,3.0,251.0,411.0,2.0,1019.0,1744252814.6019623,0.0,2025-04-09 22:40:14.601,FORWARD,30
157.0,12322.717883910882,1221.5898897158968,-59318.6017058613,-56130.72885641204,-34021.41142146724,-31309.876598105027,-8625.471130069629,-20984.53295046484,0.0,0.0,0.0,193.0,1.0,155.0,0.0,2.0,3.0,252.0,411.0,2.0,1020.0,1744252814.6019824,0.0,2025-04-09 22:40:14.601,FORWARD,30
158.0,12438.768141122835,1241.2594248365672,-59321.97681927405,-56127.5996121883,-34039.18105830921,-31320.493676721297,-8594.491612254575,-21005.521238508372,0.0,0.0,0.0,193.0,1.0,155.0,0.0,2.0,3.0,251.0,411.0,2.0,1019.0,1744252814.6020024,0.0,2025-04-09 22:40:14.602,FORWARD,30
159.0,12421.669056614526,1257.9338262002261,-59270.36664132675,-56116.69196089411,-33958.35715035882,-31235.534696046678,-8808.308399714042,-20936.00731325237,0.0,0.0,0.0,193.0,1.0,154.0,0.0,2.0,3.0,251.0,410.0,2.0,1019.0,1744252814.6020203,0.0,2025-04-09 22:40:14.602,FORWARD,30
160.0,12359.195930861943,1257.129163399835,-59299.28979865192,-56124.73858889802,-33977.64670582375,-31261.820347526118,-8602.873516425314,-20949.86539481466,0.0,0.0,0.0,193.0,1.0,155.0,0.0,2.0,3.0,252.0,411.0,2.0,1020.0,1744252814.6020298,0.0,2025-04-09 22:40:14.602,FORWARD,30
161.0,12301.014340044778,1204.1778807852127,-59327.94473504362,-56157.59565324732,-34023.17720927921,-31304.355717224567,-8673.370918437353,-20987.68454643304,0.0,0.0,0.0,193.0,1.0,154.0,0.0,2.0,3.0,251.0,410.0,2.0,1019.0,1744252814.6020384,0.0,2025-04-09 22:40:14.602,FORWARD,30
162.0,12418.65157111306,1224.5179682395421,-59320.658066351185,-56113.652123648186,-34051.47451775963,-31325.05343259018,-8538.232271460565,-21005.208314085998,0.0,0.0,0.0,193.0,1.0,154.0,0.0,2.0,3.0,251.0,410.0,2.0,1019.0,1744252814.6020477,0.0,2025-04-09 22:40:14.602,FORWARD,30
163.0,12417.60103912366,1238.3089945684667,-59288.60566480228,-56148.677307209655,-33980.44067388066,-31247.828155497096,-8835.666934927338,-20953.15110124959,0.0,0.0,0.0,193.0,1.0,154.0,0.0,2.0,3.0,251.0,410.0,2.0,1019.0,1744252814.6020565,0.0,2025-04-09 22:40:14.602,FORWARD,30
164.0,12362.325175085685,1244.5674830159526,-59299.98270273003,-56125.11856855376,-33986.095665227855,-31265.262516172235,-8607.679141483206,-20959.409589697076,0.0,0.0,0.0,193.0,1.0,154.0,0.0,2.0,3.0,252.0,410.0,2.0,1020.0,1744252814.6020656,0.0,2025-04-09 22:40:14.602,FORWARD,30
165.0,12302.824831345659,1208.71528490964,-59334.62790663575,-56179.6121215358,-34023.73600289059,-31303.081667790615,-8709.714854921682,-20998.145162838122,0.0,0.0,0.0,193.0,1.0,154.0,0.0,2.0,3.0,250.0,410.0,2.0,1018.0,1744252814.6020744,0.0,2025-04-09 22:40:14.602,FORWARD,30
166.0,12412.057806498744,1235.2468055780896,-59317.238249449525,-56106.11958576675,-34056.19073583969,-31333.3459297831,-8534.320716180888,-21025.838974218248,0.0,0.0,0.0,193.0,1.0,154.0,0.0,2.0,3.0,251.0,410.0,2.0,1019.0,1744252814.6020832,0.0,2025-04-09 22:40:14.602,FORWARD,30
167.0,12436.778835866313,1254.4022505762878,-59295.75822302797,-56158.91440617018,-33988.330839673385,-31256.366521879023,-8838.684420428805,-20962.38237170963,0.0,0.0,0.0,193.0,1.0,155.0,0.0,2.0,3.0,252.0,411.0,2.0,1020.0,1744252814.602092,0.0,2025-04-09 22:40:14.602,FORWARD,30
168.0,12371.042355423255,1246.4673812946537,-59297.367548628754,-56114.970876571046,-33983.88284252678,-31255.65126605645,-8609.400225806265,-20938.644819098095,0.0,0.0,0.0,193.0,1.0,154.0,0.0,2.0,3.0,251.0,410.0,2.0,1019.0,1744252814.6021006,0.0,2025-04-09 22:40:14.602,FORWARD,30
169.0,12307.049311047711,1221.4334275047097,-59329.73287460004,-56175.45469706711,-34004.200578236654,-31281.1322547355,-8687.854848844392,-20966.539796178316,0.0,0.0,0.0,193.0,1.0,155.0,0.0,2.0,3.0,252.0,411.0,2.0,1020.0,1744252814.6021094,0.0,2025-04-09 22:40:14.602,FORWARD,30
170.0,12379.40190784954,1218.1253693253243,-59319.607534361785,-56103.88441132122,-34044.21020081165,-31325.96985411285,-8504.592896055328,-20998.256921560398,0.0,0.0,0.0,193.0,1.0,154.0,0.0,2.0,3.0,249.0,410.0,2.0,1017.0,1744252814.602118,0.0,2025-04-09 22:40:14.602,FORWARD,30
171.0,12430.967382307934,1233.0116311325587,-59317.662932594176,-56169.643243508726,-34004.73702010358,-31267.56474585113,-8775.093707453456,-20953.844005327705,0.0,0.0,0.0,193.0,1.0,155.0,0.0,2.0,3.0,251.0,411.0,2.0,1019.0,1744252814.6021326,0.0,2025-04-09 22:40:14.602,FORWARD,30
172.0,12380.9218264725,1246.4450295501983,-59289.276217135935,-56105.180812499624,-33973.28811565496,-31239.13332690398,-8642.033772711013,-20918.79647002178,0.0,0.0,0.0,193.0,1.0,155.0,0.0,2.0,3.0,252.0,411.0,2.0,1020.0,1744252814.6021414,0.0,2025-04-09 22:40:14.602,FORWARD,30
173.0,12315.945305340923,1237.6831457237179,-59328.72704609955,-56169.03974640844,-33995.63986011027,-31268.212946440333,-8673.348566692897,-20958.29200247431,0.0,0.0,0.0,193.0,1.0,154.0,0.0,2.0,3.0,250.0,410.0,2.0,1018.0,1744252814.60215,0.0,2025-04-09 22:40:14.602,FORWARD,30
174.0,12348.668259223494,1219.9135088817488,-59322.04387450741,-56108.57827765683,-34037.41527049724,-31312.692917906395,-8546.100085508835,-20985.96346210998,0.0,0.0,0.0,193.0,1.0,155.0,0.0,2.0,3.0,252.0,411.0,2.0,1020.0,1744252814.6021588,0.0,2025-04-09 22:40:14.602,FORWARD,30
175.0,12430.430940441007,1235.783247445017,-59329.889336811226,-56167.85510395231,-34023.579540679406,-31291.65992637395,-8719.370808526375,-20979.704973662494,0.0,0.0,0.0,193.0,1.0,155.0,0.0,2.0,3.0,252.0,411.0,2.0,1020.0,1744252814.6021678,0.0,2025-04-09 22:40:14.602,FORWARD,30
176.0,12383.425221851496,1244.0533928934806,-59290.192638658606,-56117.38486497222,-33973.31046739942,-31247.157603163436,-8702.361130995885,-20932.699255072985,0.0,0.0,0.0,193.0,1.0,154.0,0.0,2.0,3.0,249.0,410.0,2.0,1017.0,1744252814.6021764,0.0,2025-04-09 22:40:14.602,FORWARD,30
177.0,12321.689703665937,1239.0466021354916,-59328.280011210445,-56166.223426607066,-33994.65638335424,-31268.324705162613,-8646.973508235635,-20955.073351272746,0.0,0.0,0.0,193.0,1.0,154.0,0.0,2.0,3.0,250.0,410.0,2.0,1018.0,1744252814.6021852,0.0,2025-04-09 22:40:14.602,FORWARD,30
178.0,12324.975410100868,1208.7599883985506,-59329.621115877766,-56133.03108609094,-34037.52702921951,-31315.844513874596,-8597.911429156236,-20999.039232616335,0.0,0.0,0.0,193.0,1.0,155.0,0.0,2.0,3.0,252.0,411.0,2.0,1020.0,1744252814.6021938,0.0,2025-04-09 22:40:14.602,FORWARD,30
179.0,12438.768141122835,1237.6607939792627,-59327.654162365696,-56149.34785954331,-34031.76027915005,-31303.305185235167,-8640.04446745449,-20984.10826732019,0.0,0.0,0.0,193.0,1.0,155.0,0.0,2.0,3.0,252.0,411.0,2.0,1020.0,1744252814.602203,0.0,2025-04-09 22:40:14.602,FORWARD,30
180.0,12407.430995396495,1252.9493871866928,-59279.82142923134,-56120.4470539626,-33963.38629286126,-31234.573571035096,-8751.937300197756,-20918.863525255147,0.0,0.0,0.0,193.0,1.0,154.0,0.0,2.0,3.0,249.0,410.0,2.0,1017.0,1744252814.6022117,0.0,2025-04-09 22:40:14.602,FORWARD,30
181.0,12335.39132301704,1246.9814714171257,-59324.74843558651,-56156.54512125792,-33998.23266246708,-31268.637629584984,-8625.269964369532,-20947.42905466903,0.0,0.0,0.0,193.0,1.0,155.0,0.0,2.0,3.0,252.0,411.0,2.0,1020.0,1744252814.60222,0.0,2025-04-09 22:40:14.602,FORWARD,30
182.0,12306.110537780589,1207.4412354756876,-59335.209051991595,-56155.181664846146,-34033.12373556182,-31308.781362626716,-8649.968641992646,-20978.609738184183,0.0,0.0,0.0,193.0,1.0,154.0,0.0,2.0,3.0,250.0,410.0,2.0,1018.0,1744252814.6022289,0.0,2025-04-09 22:40:14.602,FORWARD,30
183.0,12417.60103912366,1224.3838577728102,-59338.293592726426,-56145.101028096804,-34050.69220670369,-31331.937769882414,-8575.35851900083,-21008.941055410036,0.0,0.0,0.0,193.0,1.0,155.0,0.0,2.0,3.0,251.0,411.0,2.0,1019.0,1744252814.6022377,0.0,2025-04-09 22:40:14.602,FORWARD,30
184.0,12405.799318051259,1244.2769103380335,-59291.66785379266,-56144.38577227423,-33971.99171447656,-31243.268399628214,-8809.64950438136,-20932.1404614616,0.0,0.0,0.0,193.0,1.0,155.0,0.0,2.0,3.0,252.0,411.0,2.0,1020.0,1744252814.6022463,0.0,2025-04-09 22:40:14.602,FORWARD,30
185.0,12359.084172139666,1258.783192489528,-59303.73779579852,-56129.05247557789,-33976.05973196742,-31251.918524732417,-8608.41674905023,-20935.783795807816,0.0,0.0,0.0,193.0,1.0,155.0,0.0,2.0,3.0,252.0,411.0,2.0,1020.0,1744252814.602255,0.0,2025-04-09 22:40:14.602,FORWARD,30
186.0,12307.921029081468,1216.9854303581037,-59323.60849661929,-56157.99798464752,-34007.53098816049,-31292.41988568543,-8674.577912637938,-20970.20548226899,0.0,0.0,0.0,193.0,1.0,154.0,0.0,2.0,3.0,249.0,410.0,2.0,1017.0,1744252814.6022687,0.0,2025-04-09 22:40:14.602,FORWARD,30
187.0,12412.326027432207,1224.6073752173634,-59327.14007224323,-56122.39165573021,-34047.048872357474,-31332.63067396053,-8515.321733393876,-20999.419212272074,0.0,0.0,0.0,193.0,1.0,155.0,0.0,2.0,3.0,251.0,411.0,2.0,1019.0,1744252814.6022775,0.0,2025-04-09 22:40:14.602,FORWARD,30
188.0,12423.79247233778,1244.7910004605055,-59293.45599334908,-56159.76377245948,-33973.24341216605,-31250.666827042918,-8827.776769134614,-20943.271630200343,0.0,0.0,0.0,193.0,1.0,155.0,0.0,2.0,3.0,252.0,411.0,2.0,1020.0,1744252814.602286,0.0,2025-04-09 22:40:14.602,FORWARD,30
189.0,12372.472867068394,1261.1748291462457,-59291.377281114736,-56117.34016148331,-33966.180260918176,-31249.638646797976,-8594.916295399225,-20932.229868439423,0.0,0.0,0.0,193.0,1.0,154.0,0.0,2.0,3.0,249.0,410.0,2.0,1017.0,1744252814.6022947,0.0,2025-04-09 22:40:14.602,FORWARD,30
190.0,12312.0561018057,1235.0232881335364,-59317.68528433863,-56165.82109520687,-33994.544624631955,-31274.829062799105,-8685.61967439886,-20959.47664493044,0.0,0.0,0.0,193.0,1.0,154.0,0.0,2.0,3.0,251.0,410.0,2.0,1019.0,1744252814.6023035,0.0,2025-04-09 22:40:14.602,FORWARD,30
191.0,12399.473774370406,1228.653040963774,-59318.82522330585,-56109.025312545935,-34047.607665968855,-31327.91445588046,-8507.051587945412,-21003.26371231839,0.0,0.0,0.0,193.0,1.0,154.0,0.0,2.0,3.0,252.0,410.0,2.0,1020.0,1744252814.602312,0.0,2025-04-09 22:40:14.602,FORWARD,30
192.0,12434.74482712088,1244.9027591827821,-59305.011845232475,-56172.4595633101,-33993.985831020575,-31264.882536516496,-8830.771902891625,-20966.539796178316,0.0,0.0,0.0,193.0,1.0,154.0,0.0,2.0,3.0,249.0,410.0,2.0,1017.0,1744252814.6023211,0.0,2025-04-09 22:40:14.602,FORWARD,30
193.0,12384.565160818716,1255.4304308212318,-59291.13141192573,-56116.71431263856,-33979.166624446705,-31256.61239106803,-8636.691705786194,-20950.37948493713,0.0,0.0,0.0,193.0,1.0,154.0,0.0,2.0,3.0,249.0,410.0,2.0,1017.0,1744252814.6023297,0.0,2025-04-09 22:40:14.602,FORWARD,30
194.0,12323.142567055533,1237.3031660679778,-59324.5025663975,-56177.06402266789,-33999.372601434305,-31279.008839012247,-8702.137613551333,-20977.82742712825,0.0,0.0,0.0,193.0,1.0,155.0,0.0,2.0,3.0,252.0,411.0,2.0,1020.0,1744252814.6023386,0.0,2025-04-09 22:40:14.602,FORWARD,30
195.0,12380.139515416566,1223.8250641614277,-59319.78634831743,-56112.28866723641,-34046.66889270173,-31332.496563493798,-8533.247832447032,-21022.486212549953,0.0,0.0,0.0,193.0,1.0,154.0,0.0,2.0,3.0,249.0,410.0,2.0,1017.0,1744252814.602355,0.0,2025-04-09 22:40:14.602,FORWARD,30
196.0,12443.104379547165,1246.2885673390113,-59318.04291224992,-56175.789973233936,-34010.10143877285,-31279.47822564581,-8790.315245427519,-20987.43867724403,0.0,0.0,0.0,193.0,1.0,155.0,0.0,2.0,3.0,251.0,411.0,2.0,1019.0,1744252814.6023636,0.0,2025-04-09 22:40:14.602,FORWARD,30
197.0,12399.071442970211,1263.7899832475166,-59276.53572279641,-56105.605495644275,-33959.98882770405,-31234.70768150183,-8666.911264289769,-20922.2386386679,0.0,0.0,0.0,193.0,1.0,155.0,0.0,2.0,3.0,252.0,411.0,2.0,1020.0,1744252814.6023726,0.0,2025-04-09 22:40:14.602,FORWARD,30
198.0,12331.747988670826,1246.869712694849,-59315.31599942637,-56168.57035977487,-33984.46398788261,-31261.261553914734,-8661.032755498023,-20947.473758157943,0.0,0.0,0.0,193.0,1.0,154.0,0.0,2.0,3.0,250.0,410.0,2.0,1018.0,1744252814.6023815,0.0,2025-04-09 22:40:14.602,FORWARD,30
199.0,12358.525378528284,1227.7589711855617,-59313.5502116144,-56116.356684727274,-34037.14704956378,-31309.630728916018,-8566.462524707618,-20994.81475291428,0.0,0.0,0.0,193.0,1.0,154.0,0.0,2.0,3.0,250.0,410.0,2.0,1018.0,1744252814.60239,0.0,2025-04-09 22:40:14.602,FORWARD,30
200.0,12449.27346101683,1248.4119830622653,-59314.868964537265,-56156.38865904673,-34022.90898834574,-31276.885423288993,-8715.146328824321,-20970.451351457996,0.0,0.0,0.0,193.0,1.0,155.0,0.0,2.0,3.0,252.0,411.0,2.0,1020.0,1744252814.6023989,0.0,2025-04-09 22:40:14.602,FORWARD,30
201.0,12404.50291687285,1253.776401731539,-59275.35108034028,-56112.91451608116,-33965.57676381788,-31229.56678027711,-8730.926660409768,-20926.708987558963,0.0,0.0,0.0,193.0,1.0,155.0,0.0,2.0,3.0,252.0,411.0,2.0,1020.0,1744252814.6024125,0.0,2025-04-09 22:40:14.602,FORWARD,30
202.0,12344.510834754807,1247.7861342175167,-59311.4491476356,-56156.232196835546,-33981.60296459233,-31254.645437555962,-8639.865653498848,-20950.357133192676,0.0,0.0,0.0,193.0,1.0,154.0,0.0,2.0,3.0,250.0,410.0,2.0,1018.0,1744252814.6024213,0.0,2025-04-09 22:40:14.602,FORWARD,30
203.0,12334.609011961105,1212.6715436782295,-59320.56865937336,-56134.193376802614,-34029.83802912689,-31297.158455509958,-8609.020246150523,-20985.024688842856,0.0,0.0,0.0,193.0,1.0,155.0,0.0,2.0,3.0,252.0,411.0,2.0,1020.0,1744252814.60243,0.0,2025-04-09 22:40:14.602,FORWARD,30
204.0,12445.630126670614,1241.0582591364694,-59322.55796462989,-56146.03980136393,-34033.95075010666,-31298.343097966088,-8630.366162105342,-20995.26178780339,0.0,0.0,0.0,193.0,1.0,154.0,0.0,2.0,3.0,249.0,410.0,2.0,1017.0,1744252814.6024387,0.0,2025-04-09 22:40:14.602,FORWARD,30
205.0,12398.937332503478,1241.9970324035924,-59288.158629913174,-56136.83088264834,-33970.33768538686,-31238.283960614677,-8781.151030200843,-20937.013141752857,0.0,0.0,0.0,193.0,1.0,154.0,0.0,2.0,3.0,251.0,410.0,2.0,1019.0,1744252814.6024475,0.0,2025-04-09 22:40:14.602,FORWARD,30
206.0,12329.758683414304,1232.8998724102823,-59323.966124530576,-56162.647147494215,-33991.750656575045,-31268.212946440333,-8626.991048692591,-20961.28713623132,0.0,0.0,0.0,193.0,1.0,155.0,0.0,2.0,3.0,252.0,411.0,2.0,1020.0,1744252814.602456,0.0,2025-04-09 22:40:14.602,FORWARD,30
207.0,12294.979369041845,1198.008799315548,-59333.59972639081,-56163.16123761669,-34030.7320989051,-31301.405286956466,-8665.681918344728,-20995.39589827012,0.0,0.0,0.0,193.0,1.0,154.0,0.0,2.0,3.0,251.0,410.0,2.0,1019.0,1744252814.602465,0.0,2025-04-09 22:40:14.602,FORWARD,30
208.0,12424.41832118253,1234.3527357998773,-59320.76982507346,-56130.17006280066,-34043.919628133735,-31310.703612649875,-8568.943568342158,-21002.39199428463,0.0,0.0,0.0,193.0,1.0,154.0,0.0,2.0,3.0,251.0,410.0,2.0,1019.0,1744252814.6024735,0.0,2025-04-09 22:40:14.602,FORWARD,30
209.0,12412.191916965476,1244.0310411490252,-59278.97206294204,-56143.06701935137,-33963.83332775037,-31231.690196000363,-8812.018789293623,-20938.689522587007,0.0,0.0,0.0,193.0,1.0,155.0,0.0,2.0,3.0,252.0,411.0,2.0,1020.0,1744252814.6024823,0.0,2025-04-09 22:40:14.602,FORWARD,30
210.0,12342.342715542642,1232.6316514768187,-59303.82720277634,-56135.1992053031,-33983.927546015686,-31253.393739866468,-8591.384719775286,-20948.367827936152,0.0,0.0,0.0,193.0,1.0,154.0,0.0,2.0,3.0,249.0,410.0,2.0,1017.0,1744252814.602491,0.0,2025-04-09 22:40:14.602,FORWARD,30
211.0,12273.611101342573,1181.5355636519866,-59328.05649376589,-56171.4090313207,-34020.562055177936,-31284.641478614987,-8678.087136517423,-20979.593214940218,0.0,0.0,0.0,193.0,1.0,155.0,0.0,2.0,3.0,251.0,411.0,2.0,1019.0,1744252814.6024995,0.0,2025-04-09 22:40:14.602,FORWARD,30
212.0,12376.83145723718,1189.135156766791,-59324.860194308785,-56121.408178974176,-34060.951657408674,-31322.326519766633,-8521.937849752647,-21015.87009619118,0.0,0.0,0.0,193.0,1.0,155.0,0.0,2.0,3.0,252.0,411.0,2.0,1020.0,1744252814.6025083,0.0,2025-04-09 22:40:14.602,FORWARD,30
213.0,12391.225980666397,1202.7250173956177,-59293.72421428254,-56163.630624250254,-33988.464950140115,-31239.625065281998,-8841.388981507896,-20950.491243659406,0.0,0.0,0.0,193.0,1.0,154.0,0.0,2.0,3.0,250.0,410.0,2.0,1018.0,1744252814.6025171,0.0,2025-04-09 22:40:14.602,FORWARD,30
214.0,12327.434101990952,1197.1370812817909,-59293.23247590452,-56121.07290280735,-33986.83327279488,-31243.402510094944,-8613.781167719504,-20940.209441209965,0.0,0.0,0.0,193.0,1.0,154.0,0.0,2.0,3.0,250.0,410.0,2.0,1018.0,1744252814.602526,0.0,2025-04-09 22:40:14.602,FORWARD,30
215.0,12247.548967307685,1151.3160051484115,-59330.85046182281,-56185.93766521665,-34023.02074706802,-31282.13808323599,-8706.093872319922,-20986.18697955453,0.0,0.0,0.0,193.0,1.0,154.0,0.0,2.0,3.0,250.0,410.0,2.0,1018.0,1744252814.6025348,0.0,2025-04-09 22:40:14.602,FORWARD,30
216.0,12319.67804666496,1143.9846329670709,-59329.263487966484,-56126.05734182088,-34071.30051509148,-31336.38576702902,-8527.794006799937,-21024.58727652875,0.0,0.0,0.0,193.0,1.0,154.0,0.0,2.0,3.0,250.0,410.0,2.0,1018.0,1744252814.602548,0.0,2025-04-09 22:40:14.602,FORWARD,30
217.0,12359.575910517682,1160.6143308418193,-59310.06333947937,-56186.94349371714,-34006.16753174872,-31270.80574879715,-8824.714580144237,-20982.11896206367,0.0,0.0,0.0,193.0,1.0,154.0,0.0,2.0,3.0,252.0,410.0,2.0,1020.0,1744252814.6025567,0.0,2025-04-09 22:40:14.602,FORWARD,30
218.0,12304.098880779611,1165.9563977666376,-59292.4948683375,-56128.314868010864,-33981.35709540333,-31255.09247244507,-8620.0843596559,-20957.15206350709,0.0,0.0,0.0,193.0,1.0,155.0,0.0,2.0,3.0,250.0,411.0,2.0,1018.0,1744252814.6025653,0.0,2025-04-09 22:40:14.602,FORWARD,30
219.0,12235.657839257461,1143.5823015668752,-59330.33637170034,-56191.07856644137,-34010.414363195225,-31273.264440687235,-8670.152267235788,-20973.04415381481,0.0,0.0,0.0,193.0,1.0,155.0,0.0,2.0,3.0,251.0,411.0,2.0,1019.0,1744252814.602574,0.0,2025-04-09 22:40:14.602,FORWARD,30
220.0,12280.115458979066,1120.1576733777135,-59322.78148207444,-56122.68222840813,-34054.15672709426,-31321.365394755056,-8502.245962887522,-21005.007148385903,0.0,0.0,0.0,193.0,1.0,155.0,0.0,2.0,3.0,252.0,411.0,2.0,1020.0,1744252814.6025827,0.0,2025-04-09 22:40:14.602,FORWARD,30
221.0,12344.82375917718,1130.7076967606183,-59328.95056354411,-56186.429403594666,-34031.22383728312,-31282.451007658365,-8730.68079122076,-20986.72342142146,0.0,0.0,0.0,193.0,1.0,154.0,0.0,2.0,3.0,250.0,410.0,2.0,1018.0,1744252814.6025915,0.0,2025-04-09 22:40:14.602,FORWARD,30
222.0,12305.57409591366,1147.8961882467495,-59289.38797585821,-56124.760940642474,-33986.654458839235,-31243.51426881722,-8666.307767189475,-20951.161795993066,0.0,0.0,0.0,193.0,1.0,154.0,0.0,2.0,3.0,251.0,410.0,2.0,1019.0,1744252814.6026003,0.0,2025-04-09 22:40:14.602,FORWARD,30
223.0,12233.579127023117,1134.3286793623781,-59328.19060423262,-56185.021243693984,-34004.02176428101,-31268.123539462515,-8642.860787255859,-20970.63016541364,0.0,0.0,0.0,193.0,1.0,155.0,0.0,2.0,3.0,252.0,411.0,2.0,1020.0,1744252814.602609,0.0,2025-04-09 22:40:14.602,FORWARD,30
224.0,12247.61602254105,1108.7582837055068,-59326.804796076394,-56138.462559993575,-34046.31126479045,-31311.552978939177,-8546.97180354259,-20996.69229944853,0.0,0.0,0.0,193.0,1.0,154.0,0.0,2.0,3.0,250.0,410.0,2.0,1018.0,1744252814.6026175,0.0,2025-04-09 22:40:14.602,FORWARD,30
225.0,12348.400038290029,1134.3733828512886,-59335.141996758226,-56183.210752393104,-34043.53964847799,-31300.645327644987,-8672.834476570426,-20999.173343083068,0.0,0.0,0.0,193.0,1.0,154.0,0.0,2.0,3.0,249.0,410.0,2.0,1017.0,1744252814.6026263,0.0,2025-04-09 22:40:14.602,FORWARD,30
226.0,12311.877287850057,1148.589092324864,-59291.511391581465,-56143.15642632919,-33977.82551977939,-31245.57062930711,-8724.06467486199,-20953.66519137206,0.0,0.0,0.0,193.0,1.0,155.0,0.0,2.0,3.0,251.0,411.0,2.0,1019.0,1744252814.602635,0.0,2025-04-09 22:40:14.602,FORWARD,30
227.0,12247.213691140854,1141.816513754906,-59330.71635135607,-56184.55185706042,-33999.61847062331,-31276.728961077806,-8613.08826364139,-20985.58348245424,0.0,0.0,0.0,193.0,1.0,154.0,0.0,2.0,3.0,252.0,410.0,2.0,1020.0,1744252814.6026435,0.0,2025-04-09 22:40:14.602,FORWARD,30
228.0,12217.262353570743,1097.269487055479,-59346.16140677469,-56173.755964488504,-34052.12271834883,-31321.43244998842,-8602.89586816977,-21011.287988577842,0.0,0.0,0.0,193.0,1.0,155.0,0.0,2.0,3.0,250.0,411.0,2.0,1018.0,1744252814.6026523,0.0,2025-04-09 22:40:14.602,FORWARD,30
229.0,12330.58569795915,1124.717429246596,-59349.670630654175,-56178.60629303531,-34065.712578977655,-31325.96985411285,-8600.303065812954,-21015.937151424547,0.0,0.0,0.0,193.0,1.0,155.0,0.0,2.0,3.0,253.0,411.0,2.0,1021.0,1744252814.602661,0.0,2025-04-09 22:40:14.602,FORWARD,30
230.0,12315.453566962906,1142.7552870220288,-59301.77084228645,-56163.65297599471,-33990.431903652185,-31249.437481097877,-8788.303588426541,-20950.938278548514,0.0,0.0,0.0,193.0,1.0,155.0,0.0,2.0,3.0,249.0,411.0,2.0,1017.0,1744252814.6026697,0.0,2025-04-09 22:40:14.602,FORWARD,30
231.0,12265.89974950549,1155.3169674059116,-59320.389845417725,-56164.882321939745,-33999.998450279054,-31264.547260349664,-8609.869612439825,-20960.616583897663,0.0,0.0,0.0,193.0,1.0,154.0,0.0,2.0,3.0,249.0,410.0,2.0,1017.0,1744252814.6026828,0.0,2025-04-09 22:40:14.602,FORWARD,30
232.0,12227.521804275728,1123.0410484124482,-59336.3042874699,-56179.34390060233,-34038.175229808716,-31305.80858061416,-8665.301938688986,-21011.44445078903,0.0,0.0,0.0,193.0,1.0,155.0,0.0,2.0,3.0,252.0,411.0,2.0,1020.0,1744252814.6026914,0.0,2025-04-09 22:40:14.602,FORWARD,30
233.0,12339.861671908102,1138.8213799978948,-59340.08173228285,-56153.43822877863,-34074.809738970966,-31336.363415284566,-8555.040783290957,-21032.142166154645,0.0,0.0,0.0,193.0,1.0,154.0,0.0,2.0,3.0,249.0,410.0,2.0,1017.0,1744252814.6027005,0.0,2025-04-09 22:40:14.602,FORWARD,30
234.0,12333.178500315966,1146.5327318349757,-59307.47053712256,-56182.562551803894,-33998.947918289654,-31255.71832128982,-8825.69805690027,-20951.22885122643,0.0,0.0,0.0,193.0,1.0,154.0,0.0,2.0,3.0,251.0,410.0,2.0,1019.0,1744252814.6027088,0.0,2025-04-09 22:40:14.602,FORWARD,30
235.0,12286.597464871105,1164.8835140327828,-59311.96323775807,-56156.0533828799,-33993.58349962038,-31264.971943494314,-8587.853144151348,-20953.77695009434,0.0,0.0,0.0,193.0,1.0,155.0,0.0,2.0,3.0,252.0,411.0,2.0,1020.0,1744252814.6027176,0.0,2025-04-09 22:40:14.602,FORWARD,30
236.0,12226.024237397223,1133.2110921396127,-59342.78629336194,-56200.71216830161,-34034.26367452904,-31299.594795655586,-8681.842229585915,-20997.385203526643,0.0,0.0,0.0,193.0,1.0,154.0,0.0,2.0,3.0,250.0,410.0,2.0,1018.0,1744252814.602726,0.0,2025-04-09 22:40:14.602,FORWARD,30
237.0,12333.312610782697,1149.818438269906,-59333.21974673507,-56139.46838849407,-34068.8418232014,-31333.211819316366,-8504.771710010971,-21018.328788081264,0.0,0.0,0.0,193.0,1.0,154.0,0.0,2.0,3.0,249.0,410.0,2.0,1017.0,1744252814.6027346,0.0,2025-04-09 22:40:14.602,FORWARD,30
238.0,12358.368916317097,1168.4821448900873,-59303.201353931596,-56186.496458828035,-33993.91877578721,-31250.845640998563,-8808.084882269488,-20948.926621547536,0.0,0.0,0.0,193.0,1.0,154.0,0.0,2.0,3.0,251.0,410.0,2.0,1019.0,1744252814.6027431,0.0,2025-04-09 22:40:14.602,FORWARD,30
239.0,12305.439985446928,1175.5005926490537,-59295.422946861145,-56138.10493208229,-33985.53687161647,-31255.383045122988,-8584.835658649881,-20941.77406332184,0.0,0.0,0.0,193.0,1.0,155.0,0.0,2.0,3.0,252.0,411.0,2.0,1020.0,1744252814.6027517,0.0,2025-04-09 22:40:14.602,FORWARD,30
240.0,12249.247699886288,1151.5842260818752,-59321.3509704293,-56195.05717695441,-34009.07325852791,-31278.941783778882,-8673.52738064854,-20970.33959273572,0.0,0.0,0.0,193.0,1.0,154.0,0.0,2.0,3.0,249.0,410.0,2.0,1017.0,1744252814.6027603,0.0,2025-04-09 22:40:14.602,FORWARD,30
241.0,12333.022038104778,1158.915598263216,-59309.16926970116,-56122.12343479675,-34052.927381149224,-31321.119525566046,-8490.421890070664,-21000.40268902811,0.0,0.0,0.0,193.0,1.0,155.0,0.0,2.0,3.0,252.0,411.0,2.0,1020.0,1744252814.6027691,0.0,2025-04-09 22:40:14.602,FORWARD,30
242.0,12375.915035714512,1176.4170141717213,-59311.89618252471,-56196.08535719936,-34015.532912675495,-31273.66677208743,-8785.151992458343,-20979.21323528448,0.0,0.0,0.0,193.0,1.0,154.0,0.0,2.0,3.0,250.0,410.0,2.0,1018.0,1744252814.6027775,0.0,2025-04-09 22:40:14.602,FORWARD,30
243.0,12321.86851762158,1186.8329270878944,-59294.01478696046,-56138.663725693674,-33991.281269941486,-31261.61918182602,-8630.500272572073,-20963.902290332593,0.0,0.0,0.0,193.0,1.0,155.0,0.0,2.0,3.0,252.0,411.0,2.0,1020.0,1744252814.6027863,0.0,2025-04-09 22:40:14.602,FORWARD,30
244.0,12247.928946963424,1161.262531431023,-59345.71437188559,-56215.50902313102,-34031.49205821658,-31298.454856688364,-8688.994787811613,-21008.985758898947,0.0,0.0,0.0,193.0,1.0,155.0,0.0,2.0,3.0,250.0,411.0,2.0,1018.0,1744252814.602795,0.0,2025-04-09 22:40:14.602,FORWARD,30
245.0,12296.566342898172,1148.3208713914003,-59338.96414506008,-56148.96787988757,-34080.42002682925,-31339.939694397417,-8562.707431639128,-21035.383169100664,0.0,0.0,0.0,193.0,1.0,155.0,0.0,2.0,3.0,252.0,411.0,2.0,1020.0,1744252814.6028037,0.0,2025-04-09 22:40:14.602,FORWARD,30
246.0,12387.515591086816,1174.1818397261907,-59330.85046182281,-56199.05813921191,-34036.61060769685,-31291.347001951577,-8736.224023845676,-20985.695241176516,0.0,0.0,0.0,193.0,1.0,155.0,0.0,2.0,3.0,250.0,411.0,2.0,1018.0,1744252814.6028168,0.0,2025-04-09 22:40:14.602,FORWARD,30
247.0,12335.30191603922,1177.8251740724056,-59293.52304858244,-56145.99509787501,-33982.452330881635,-31255.584210823086,-8657.90351127428,-20945.05976975677,0.0,0.0,0.0,193.0,1.0,154.0,0.0,2.0,3.0,249.0,410.0,2.0,1017.0,1744252814.6028252,0.0,2025-04-09 22:40:14.602,FORWARD,30
248.0,12270.839485030114,1173.9806740260929,-59333.57737464635,-56201.47212761309,-34007.03924978247,-31282.495711147276,-8623.57123179093,-20974.809941626783,0.0,0.0,0.0,193.0,1.0,154.0,0.0,2.0,3.0,251.0,410.0,2.0,1019.0,1744252814.602834,0.0,2025-04-09 22:40:14.602,FORWARD,30
249.0,12285.14460148151,1156.233388928579,-59326.73774084303,-56154.06407762338,-34047.49590724658,-31323.511162222763,-8561.992175816558,-21007.063508875788,0.0,0.0,0.0,193.0,1.0,155.0,0.0,2.0,3.0,252.0,411.0,2.0,1020.0,1744252814.6028423,0.0,2025-04-09 22:40:14.602,FORWARD,30
250.0,12391.31538764422,1186.005912543048,-59329.53170889994,-56182.67431052617,-34046.9371136352,-31313.162304539957,-8645.811217523958,-21003.86720941868,0.0,0.0,0.0,193.0,1.0,155.0,0.0,2.0,3.0,252.0,411.0,2.0,1020.0,1744252814.6028545,0.0,2025-04-09 22:40:14.602,FORWARD,30
251.0,12353.630346492571,1198.7911103714837,-59287.8457054908,-56152.29828981141,-33985.26865068301,-31250.733882276283,-8735.598175000927,-20945.685618601517,0.0,0.0,0.0,193.0,1.0,154.0,0.0,2.0,3.0,249.0,410.0,2.0,1017.0,1744252814.602863,0.0,2025-04-09 22:40:14.602,FORWARD,30
252.0,12294.554685897194,1198.7017033936625,-59323.250868708004,-56182.584903548355,-34004.08881951438,-31275.209042454844,-8609.55668801745,-20973.06650555927,0.0,0.0,0.0,193.0,1.0,155.0,0.0,2.0,3.0,252.0,411.0,2.0,1020.0,1744252814.6028717,0.0,2025-04-09 22:40:14.602,FORWARD,30
253.0,12271.398278641496,1160.9272552641935,-59339.83586309384,-56178.673348268676,-34053.97791313862,-31325.187543056913,-8638.077513942422,-21039.607648802717,0.0,0.0,0.0,193.0,1.0,154.0,0.0,2.0,3.0,249.0,410.0,2.0,1017.0,1744252814.6028805,0.0,2025-04-09 22:40:14.602,FORWARD,30
254.0,12388.096736442654,1187.6822933771962,-59339.6570491382,-56171.252569109514,-34066.472538289134,-31331.11075533757,-8598.93960940118,-21042.0663406928,0.0,0.0,0.0,193.0,1.0,154.0,0.0,2.0,3.0,250.0,410.0,2.0,1018.0,1744252814.602889,0.0,2025-04-09 22:40:14.602,FORWARD,30
255.0,12361.92284368549,1198.0982062933692,-59293.52304858244,-56163.697679483616,-33987.570880361905,-31245.347111862557,-8783.475611624195,-20941.662304599562,0.0,0.0,0.0,193.0,1.0,155.0,0.0,2.0,3.0,252.0,411.0,2.0,1020.0,1744252814.602898,0.0,2025-04-09 22:40:14.602,FORWARD,30
0.0,12305.060005791189,1201.2498022615675,-59320.72512158455,-56167.67628999666,-34005.29581371496,-31273.75617906525,-8584.969769116613,-20965.645726400107,0.0,0.0,0.0,193.0,1.0,154.0,0.0,2.0,3.0,249.0,410.0,2.0,1017.0,1744252814.6029067,0.0,2025-04-09 22:40:14.602,FORWARD,30
1.0,12276.09214497711,1179.23333397309,-59327.587107132334,-56178.47218256858,-34031.9837965946,-31300.84649334508,-8652.874368771836,-20996.178209326055,0.0,0.0,0.0,193.0,1.0,155.0,0.0,2.0,3.0,252.0,411.0,2.0,1020.0,1744252814.6029155,0.0,2025-04-09 22:40:14.602,FORWARD,30
2.0,12387.850867253646,1191.6162004013302,-59327.74356934352,-56136.987344859524,-34066.22666910013,-31322.773554655738,-8519.702675307117,-21013.67962523456,0.0,0.0,0.0,193.0,1.0,154.0,0.0,2.0,3.0,249.0,410.0,2.0,1017.0,1744252814.602924,0.0,2025-04-09 22:40:14.602,FORWARD,30
3.0,12384.386346863073,1206.8377383753943,-59294.528877082936,-56167.45277255211,-33995.25988045453,-31244.18482115088,-8816.89146958488,-20954.96159255047,0.0,0.0,0.0,193.0,1.0,155.0,0.0,2.0,3.0,252.0,411.0,2.0,1020.0,1744252814.6029327,0.0,2025-04-09 22:40:14.602,FORWARD,30
4.0,12328.261116535798,1219.4664739926427,-59302.03906321992,-56137.16615881517,-34000.266671212514,-31259.4287108694,-8590.89298139727,-20964.416380455063,0.0,0.0,0.0,193.0,1.0,154.0,0.0,2.0,3.0,250.0,410.0,2.0,1018.0,1744252814.6029415,0.0,2025-04-09 22:40:14.602,FORWARD,30
5.0,12278.9978717563,1193.3819882132993,-59316.56769711587,-56174.78414473345,-34020.53970343348,-31280.305240190657,-8687.228999999643,-20992.11019183519,0.0,0.0,0.0,193.0,1.0,154.0,0.0,2.0,3.0,251.0,410.0,2.0,1019.0,1744252814.602955,0.0,2025-04-09 22:40:14.602,FORWARD,30
6.0,12377.010271192823,1199.4393109606876,-59310.666836579665,-56114.72500738204,-34059.67760797472,-31326.77451691324,-8489.43841331463,-21020.005168915413,0.0,0.0,0.0,193.0,1.0,154.0,0.0,2.0,3.0,250.0,410.0,2.0,1018.0,1744252814.602964,0.0,2025-04-09 22:40:14.602,FORWARD,30
7.0,12395.852791768646,1207.776511642517,-59299.692130052106,-56180.752060503015,-34005.36286894833,-31262.312085904134,-8810.141242759377,-20975.122866049154,0.0,0.0,0.0,193.0,1.0,155.0,0.0,2.0,3.0,251.0,411.0,2.0,1019.0,1744252814.6029725,0.0,2025-04-09 22:40:14.602,FORWARD,30
8.0,12339.615802719094,1213.2079855451568,-59290.14793516969,-56130.63944943422,-33996.24335721056,-31265.977771994803,-8602.493536769574,-20968.77497062385,0.0,0.0,0.0,193.0,1.0,156.0,0.0,2.0,3.0,251.0,412.0,2.0,1019.0,1744252814.602981,0.0,2025-04-09 22:40:14.602,FORWARD,30
9.0,12284.585807870128,1200.7357121390953,-59310.30920866838,-56182.04846168143,-34004.91583405922,-31278.159472722946,-8667.827685812437,-20982.9012731196,0.0,0.0,0.0,193.0,1.0,154.0,0.0,2.0,3.0,249.0,410.0,2.0,1017.0,1744252814.60299,0.0,2025-04-09 22:40:14.602,FORWARD,30
10.0,12366.840227465658,1213.5656134564417,-59292.53957182641,-56099.928152552624,-34042.42206125522,-31313.139952795504,-8478.82133469836,-21007.465840275985,0.0,0.0,0.0,193.0,1.0,155.0,0.0,2.0,3.0,251.0,411.0,2.0,1019.0,1744252814.6029987,0.0,2025-04-09 22:40:14.602,FORWARD,30
11.0,12420.998504280866,1233.2798520660224,-59291.17611541464,-56165.59757776232,-34009.58734865038,-31260.546298092166,-8758.888692723358,-20974.586424182227,0.0,0.0,0.0,193.0,1.0,154.0,0.0,2.0,3.0,250.0,410.0,2.0,1018.0,1744252814.6030076,0.0,2025-04-09 22:40:14.603,FORWARD,30
12.0,12369.92476820049,1236.9231864122376,-59264.77870521292,-56103.14680375419,-33980.217156436105,-31241.971998449804,-8617.357446832353,-20946.602040124184,0.0,0.0,0.0,193.0,1.0,155.0,0.0,2.0,3.0,251.0,411.0,2.0,1019.0,1744252814.6030169,0.0,2025-04-09 22:40:14.603,FORWARD,30
13.0,12307.496345936817,1224.741485684095,-59300.02740621894,-56162.13305737175,-34001.16074099073,-31263.832004527096,-8633.89773772928,-20971.278366002844,0.0,0.0,0.0,193.0,1.0,155.0,0.0,2.0,3.0,252.0,411.0,2.0,1020.0,1744252814.6030257,0.0,2025-04-09 22:40:14.603,FORWARD,30
14.0,12342.25330856482,1208.0223808315254,-59296.36172012827,-56103.75030085448,-34051.3404072929,-31311.709441150364,-8518.383922384253,-21013.031424645356,0.0,0.0,0.0,193.0,1.0,154.0,0.0,2.0,3.0,251.0,410.0,2.0,1019.0,1744252814.6030345,0.0,2025-04-09 22:40:14.603,FORWARD,30
15.0,12421.065559514233,1223.4450845056874,-59306.68822606662,-56163.58592076134,-34039.851610642865,-31288.53068215021,-8700.662398417282,-21002.794325684827,0.0,0.0,0.0,193.0,1.0,155.0,0.0,2.0,3.0,252.0,411.0,2.0,1020.0,1744252814.6030433,0.0,2025-04-09 22:40:14.603,FORWARD,30
16.0,12381.815896250713,1237.750200957084,-59261.09066737779,-56110.12054802425,-33980.06069422492,-31237.434594325376,-8686.603151154894,-20958.00142979639,0.0,0.0,0.0,193.0,1.0,155.0,0.0,2.0,3.0,250.0,411.0,2.0,1018.0,1744252814.6030524,0.0,2025-04-09 22:40:14.603,FORWARD,30
17.0,12315.028883818255,1225.4790932511203,-59299.759185285475,-56160.63549049324,-34001.20544447964,-31264.502556860753,-8624.0853219134,-20986.164627810078,0.0,0.0,0.0,193.0,1.0,155.0,0.0,2.0,3.0,252.0,411.0,2.0,1020.0,1744252814.6030607,0.0,2025-04-09 22:40:14.603,FORWARD,30
18.0,12314.157165784498,1195.7289213811066,-59300.76501378597,-56125.92323135415,-34040.6339216988,-31305.76387712525,-8558.326489725887,-21008.78459319885,0.0,0.0,0.0,193.0,1.0,155.0,0.0,2.0,3.0,250.0,411.0,2.0,1018.0,1744252815.0822694,0.0,2025-04-09 22:40:15.082,FORWARD,30
19.0,12409.867335542123,1208.5811744429082,-59318.10996748328,-56161.171932360165,-34055.430776528214,-31308.2896242487,-8602.068853624924,-21001.96731113998,0.0,0.0,0.0,193.0,1.0,155.0,0.0,2.0,3.0,251.0,411.0,2.0,1019.0,1744252815.0823112,0.0,2025-04-09 22:40:15.082,FORWARD,30
20.0,12379.983053205378,1225.3226310399332,-59264.84576044629,-56127.51020521048,-33978.80899653542,-31234.014777423716,-8720.220174815677,-20934.554449862775,0.0,0.0,0.0,193.0,1.0,155.0,0.0,2.0,3.0,251.0,411.0,2.0,1019.0,1744252815.0823648,0.0,2025-04-09 22:40:15.082,FORWARD,30
21.0,12315.67708440746,1219.4217705037322,-59298.48513585152,-56154.041725878924,-34001.8759968133,-31260.00985622524,-8575.403222489742,-20956.794435595802,0.0,0.0,0.0,193.0,1.0,155.0,0.0,2.0,3.0,252.0,411.0,2.0,1020.0,1744252815.082385,0.0,2025-04-09 22:40:15.082,FORWARD,30
22.0,12288.0503282607,1185.0447875314699,-59306.7999847889,-56150.890129910724,-34038.89048563129,-31299.52774042222,-8595.65390296625,-20991.841970901725,0.0,0.0,0.0,193.0,1.0,156.0,0.0,2.0,3.0,250.0,412.0,2.0,1018.0,1744252815.082409,0.0,2025-04-09 22:40:15.082,FORWARD,30
23.0,12400.88193427109,1204.1778807852127,-59309.03515923443,-56140.407161761184,-34058.11298586285,-31317.789115642205,-8522.295477663933,-21008.02463388737,0.0,0.0,0.0,193.0,1.0,154.0,0.0,2.0,3.0,250.0,410.0,2.0,1018.0,1744252815.0824273,0.0,2025-04-09 22:40:15.082,FORWARD,30
24.0,12382.665262540015,1216.5607472134527,-59269.15964712616,-56147.67147870916,-33982.29586867045,-31239.066271670614,-8756.720573511193,-20944.925659290035,0.0,0.0,0.0,193.0,1.0,155.0,0.0,2.0,3.0,250.0,411.0,2.0,1018.0,1744252815.082445,0.0,2025-04-09 22:40:15.082,FORWARD,30
25.0,12324.39426474503,1226.3508112848774,-59290.77378401444,-56144.22931006305,-33990.58836586337,-31258.42288236891,-8549.698716366138,-20956.1462350066,0.0,0.0,0.0,193.0,1.0,155.0,0.0,2.0,3.0,249.0,411.0,2.0,1017.0,1744252815.082454,0.0,2025-04-09 22:40:15.082,FORWARD,30
26.0,12274.639281587515,1187.168203254724,-59312.74554881401,-56173.82301972187,-34023.847761612866,-31290.47528391782,-8622.94538294618,-20985.091744076224,0.0,0.0,0.0,193.0,1.0,155.0,0.0,2.0,3.0,252.0,411.0,2.0,1020.0,1744252815.082464,0.0,2025-04-09 22:40:15.082,FORWARD,30
27.0,12395.785736535281,1213.520909967531,-59305.7494527995,-56123.73276039753,-34056.39190153979,-31317.52089470874,-8482.352910322299,-21015.87009619118,0.0,0.0,0.0,193.0,1.0,155.0,0.0,2.0,3.0,250.0,411.0,2.0,1018.0,1744252815.082473,0.0,2025-04-09 22:40:15.082,FORWARD,30
28.0,12401.463079626928,1229.1224275973354,-59275.48519080701,-56165.84344695133,-33983.25699368203,-31245.548277562655,-8791.969274517212,-20968.327935734742,0.0,0.0,0.0,193.0,1.0,155.0,0.0,2.0,3.0,249.0,411.0,2.0,1017.0,1744252815.082482,0.0,2025-04-09 22:40:15.082,FORWARD,30
29.0,12340.800445175224,1229.81533167545,-59280.26846412045,-56130.17006280066,-33979.81482503591,-31247.67169328591,-8538.411085416208,-20946.065598257257,0.0,0.0,0.0,193.0,1.0,155.0,0.0,2.0,3.0,252.0,411.0,2.0,1020.0,1744252815.082491,0.0,2025-04-09 22:40:15.082,FORWARD,30
30.0,12265.47506636084,1185.4471189316653,-59316.41123490468,-56189.33513037385,-34016.91872083172,-31281.020496013225,-8613.80351946396,-20970.116075291167,0.0,0.0,0.0,193.0,1.0,155.0,0.0,2.0,3.0,250.0,411.0,2.0,1018.0,1744252815.0825,0.0,2025-04-09 22:40:15.082,FORWARD,30
31.0,12359.710020984414,1187.7269968661067,-59304.18483068763,-56120.62586791824,-34054.00026488308,-31321.76772615525,-8424.171319505134,-21000.805020428303,0.0,0.0,0.0,193.0,1.0,155.0,0.0,2.0,3.0,251.0,411.0,2.0,1019.0,1744252815.0825088,0.0,2025-04-09 22:40:15.082,FORWARD,30
32.0,12408.928562275001,1221.5898897158968,-59278.88265596422,-56170.96199643159,-33987.772046062004,-31244.14011766197,-8737.073390134978,-20943.85277555618,0.0,0.0,0.0,193.0,1.0,155.0,0.0,2.0,3.0,249.0,411.0,2.0,1017.0,1744252815.0825174,0.0,2025-04-09 22:40:15.082,FORWARD,30
33.0,12359.397096562041,1234.7327154556174,-59263.52700752342,-56111.97574281404,-33973.73515054407,-31237.680463514385,-8541.205053473122,-20929.927638760524,0.0,0.0,0.0,193.0,1.0,154.0,0.0,2.0,3.0,250.0,410.0,2.0,1018.0,1744252815.0825264,0.0,2025-04-09 22:40:15.082,FORWARD,30
34.0,12292.34186319612,1211.039866332992,-59301.61438007527,-56176.907560456704,-34005.98871779307,-31265.061350472137,-8617.871536954824,-20972.01597356987,0.0,0.0,0.0,193.0,1.0,155.0,0.0,2.0,3.0,251.0,411.0,2.0,1019.0,1744252815.0825353,0.0,2025-04-09 22:40:15.082,FORWARD,30
35.0,12351.462227280406,1201.8532993618608,-59294.61828406076,-56108.15359451218,-34047.92059039123,-31313.072897562135,-8440.063409812858,-21005.476535019465,0.0,0.0,0.0,193.0,1.0,155.0,0.0,2.0,3.0,251.0,411.0,2.0,1019.0,1744252815.082549,0.0,2025-04-09 22:40:15.082,FORWARD,30
36.0,12408.25800994134,1215.4655117351429,-59294.61828406076,-56176.68404301215,-34008.737982361075,-31268.01178074024,-8679.987034796124,-20967.85854910118,0.0,0.0,0.0,193.0,1.0,154.0,0.0,2.0,3.0,250.0,410.0,2.0,1018.0,1744252815.0825582,0.0,2025-04-09 22:40:15.082,FORWARD,30
37.0,12354.613823248605,1221.0981513378802,-59265.784533713406,-56115.887298093716,-33970.82942376488,-31238.060443170125,-8562.103934538834,-20925.3902346361,0.0,0.0,0.0,193.0,1.0,155.0,0.0,2.0,3.0,252.0,411.0,2.0,1020.0,1744252815.082567,0.0,2025-04-09 22:40:15.082,FORWARD,30
38.0,12290.352557939597,1206.8377383753943,-59308.58812434532,-56180.64030178074,-34000.87016831281,-31266.916545261927,-8577.236065535077,-20963.544662421307,0.0,0.0,0.0,193.0,1.0,155.0,0.0,2.0,3.0,250.0,411.0,2.0,1018.0,1744252815.082576,0.0,2025-04-09 22:40:15.082,FORWARD,30
39.0,12328.752854913815,1199.7298836386067,-59298.48513585152,-56120.20118477359,-34050.87102065933,-31311.15064753898,-8498.446166330119,-21013.880790934658,0.0,0.0,0.0,193.0,1.0,155.0,0.0,2.0,3.0,250.0,411.0,2.0,1018.0,1744252815.0825849,0.0,2025-04-09 22:40:15.082,FORWARD,30
40.0,12418.584515879693,1221.299317037978,-59301.90495275318,-56166.73751672954,-34036.431793741205,-31285.87082456003,-8637.876348242326,-20992.19959881301,0.0,0.0,0.0,193.0,1.0,155.0,0.0,2.0,3.0,251.0,411.0,2.0,1019.0,1744252815.082594,0.0,2025-04-09 22:40:15.082,FORWARD,30
41.0,12373.501047313339,1230.7317531981175,-59255.16745509714,-56119.44122546211,-33965.53206032897,-31231.04199541116,-8623.168900390732,-20929.994693993893,0.0,0.0,0.0,193.0,1.0,154.0,0.0,2.0,3.0,249.0,410.0,2.0,1017.0,1744252815.0826027,0.0,2025-04-09 22:40:15.082,FORWARD,30
42.0,12319.074549564666,1229.9047386532711,-59285.78934500091,-56159.51790327048,-33977.490243612556,-31249.012797953226,-8530.140939967745,-20948.43488316952,0.0,0.0,0.0,193.0,1.0,154.0,0.0,2.0,3.0,250.0,410.0,2.0,1018.0,1744252815.0826116,0.0,2025-04-09 22:40:15.082,FORWARD,30
43.0,12316.414691974485,1201.2498022615675,-59287.4433740906,-56129.25364127799,-34022.730174390104,-31287.14487399398,-8498.177945396656,-20976.799246883304,0.0,0.0,0.0,193.0,1.0,154.0,0.0,2.0,3.0,250.0,410.0,2.0,1018.0,1744252815.0826204,0.0,2025-04-09 22:40:15.082,FORWARD,30
44.0,12420.976152536412,1221.9028141382712,-59298.46278410707,-56147.626775220255,-34043.53964847799,-31294.610356642053,-8532.264355690999,-20992.289005790833,0.0,0.0,0.0,193.0,1.0,155.0,0.0,2.0,3.0,252.0,411.0,2.0,1020.0,1744252815.0826292,0.0,2025-04-09 22:40:15.082,FORWARD,30
45.0,12386.934445730978,1233.10103811038,-59257.42498128712,-56131.48881572352,-33976.39500813425,-31228.426841309887,-8688.391290711319,-20931.313446916753,0.0,0.0,0.0,193.0,1.0,155.0,0.0,2.0,3.0,250.0,411.0,2.0,1018.0,1744252815.0826385,0.0,2025-04-09 22:40:15.082,FORWARD,30
46.0,12328.864613636091,1232.743410199095,-59287.39867060169,-56148.252624065004,-33988.64376409576,-31254.42192011141,-8521.848442774826,-20950.312429703765,0.0,0.0,0.0,193.0,1.0,154.0,0.0,2.0,3.0,249.0,410.0,2.0,1017.0,1744252815.082647,0.0,2025-04-09 22:40:15.082,FORWARD,30
47.0,12282.529447380239,1185.7600433540397,-59312.65614183619,-56160.32256607086,-34035.9847588521,-31305.696821891885,-8563.869722350802,-20995.977043625957,0.0,0.0,0.0,193.0,1.0,155.0,0.0,2.0,3.0,252.0,411.0,2.0,1020.0,1744252815.082656,0.0,2025-04-09 22:40:15.082,FORWARD,30
48.0,12399.987864492878,1206.0777790639138,-59312.902011025195,-56137.43437974863,-34056.280142817515,-31321.521856966243,-8474.753317207495,-21000.380337283652,0.0,0.0,0.0,193.0,1.0,155.0,0.0,2.0,3.0,250.0,411.0,2.0,1018.0,1744252815.0826647,0.0,2025-04-09 22:40:15.082,FORWARD,30
49.0,12390.756594032837,1224.4062095172656,-59266.410382558155,-56145.190435074626,-33971.92465924319,-31235.93702744687,-8721.516575994085,-20930.10645271617,0.0,0.0,0.0,193.0,1.0,155.0,0.0,2.0,3.0,251.0,411.0,2.0,1019.0,1744252815.0826735,0.0,2025-04-09 22:40:15.082,FORWARD,30
50.0,12332.619706704583,1231.424657276232,-59285.074089178335,-56131.131187812236,-33987.86145303982,-31258.95932423584,-8513.824166515371,-20953.464025671965,0.0,0.0,0.0,193.0,1.0,155.0,0.0,2.0,3.0,249.0,411.0,2.0,1017.0,1744252815.0826876,0.0,2025-04-09 22:40:15.082,FORWARD,30
51.0,12280.271921190253,1197.6958748931736,-59305.81650803286,-56159.294385825924,-34020.40559296675,-31286.51902514923,-8599.073719867913,-20979.168531795567,0.0,0.0,0.0,193.0,1.0,154.0,0.0,2.0,3.0,250.0,410.0,2.0,1018.0,1744252815.0826962,0.0,2025-04-09 22:40:15.082,FORWARD,30
52.0,12387.31442538672,1207.776511642517,-59301.12264169725,-56105.20316424408,-34048.21116306915,-31318.169095297948,-8413.889517055693,-20988.757430166894,0.0,0.0,0.0,193.0,1.0,155.0,0.0,2.0,3.0,252.0,411.0,2.0,1020.0,1744252815.0827053,0.0,2025-04-09 22:40:15.082,FORWARD,30
53.0,12407.185126207487,1223.4450845056874,-59267.617376758746,-56140.854196650296,-33971.05294120943,-31232.02547216719,-8716.9568201252,-20916.51659208734,0.0,0.0,0.0,193.0,1.0,155.0,0.0,2.0,3.0,250.0,411.0,2.0,1018.0,1744252815.082714,0.0,2025-04-09 22:40:15.082,FORWARD,30
54.0,12360.358221573619,1238.1301806128242,-59259.97308015503,-56088.886390791704,-33962.42516784968,-31230.23733261077,-8476.742622464017,-20902.77026924733,0.0,0.0,0.0,193.0,1.0,155.0,0.0,2.0,3.0,251.0,411.0,2.0,1019.0,1744252815.082723,0.0,2025-04-09 22:40:15.082,FORWARD,30
55.0,12281.657729346482,1193.2702294910227,-59305.19065918811,-56156.63452823574,-34003.53002590299,-31273.264440687235,-8576.118478312312,-20944.411569167565,0.0,0.0,0.0,193.0,1.0,154.0,0.0,2.0,3.0,250.0,410.0,2.0,1018.0,1744252815.0827315,0.0,2025-04-09 22:40:15.082,FORWARD,30
56.0,12360.425276806984,1195.23718300309,-59306.7999847889,-56092.10504199327,-34055.81075618396,-31323.66762443395,-8411.47552865452,-20979.302642262297,0.0,0.0,0.0,193.0,1.0,154.0,0.0,2.0,3.0,249.0,410.0,2.0,1017.0,1744252815.0827408,0.0,2025-04-09 22:40:15.082,FORWARD,30
57.0,12405.732262817892,1220.2040815596679,-59290.41615610316,-56147.22444382006,-33998.09855200035,-31252.790242766172,-8726.97040164118,-20930.866412027648,0.0,0.0,0.0,193.0,1.0,155.0,0.0,2.0,3.0,251.0,411.0,2.0,1019.0,1744252815.0827496,0.0,2025-04-09 22:40:15.082,FORWARD,30
58.0,12357.92188142799,1231.5140642540532,-59267.48326629201,-56080.996224998984,-33970.42709236468,-31240.496783315753,-8539.349858683332,-20912.247408896375,0.0,0.0,0.0,193.0,1.0,155.0,0.0,2.0,3.0,252.0,411.0,2.0,1020.0,1744252815.0827584,0.0,2025-04-09 22:40:15.082,FORWARD,30
59.0,12285.122249737055,1202.6803139067072,-59310.77859530194,-56147.71618219807,-33998.21031072263,-31268.99525749627,-8587.450812751153,-20941.930525533026,0.0,0.0,0.0,193.0,1.0,154.0,0.0,2.0,3.0,249.0,410.0,2.0,1017.0,1744252815.0827672,0.0,2025-04-09 22:40:15.082,FORWARD,30
60.0,12346.835416178157,1202.300334250967,-59298.999225973996,-56070.177980682616,-34042.19854381067,-31310.636557416507,-8432.843796353793,-20972.172435781056,0.0,0.0,0.0,193.0,1.0,155.0,0.0,2.0,3.0,250.0,411.0,2.0,1018.0,1744252815.082776,0.0,2025-04-09 22:40:15.082,FORWARD,30
61.0,12424.775949093813,1236.8337794344163,-59292.293702637406,-56119.95531558458,-34005.27346197051,-31263.65319057145,-8665.57015962245,-20948.61369712516,0.0,0.0,0.0,193.0,1.0,154.0,0.0,2.0,3.0,249.0,410.0,2.0,1017.0,1744252815.082785,0.0,2025-04-09 22:40:15.082,FORWARD,30
62.0,12377.077326426188,1244.5674830159526,-59255.59213824179,-56057.05750668735,-33959.13946141475,-31227.532771531674,-8576.833734134882,-20905.877161726614,0.0,0.0,0.0,193.0,1.0,154.0,0.0,2.0,3.0,251.0,410.0,2.0,1019.0,1744252815.082794,0.0,2025-04-09 22:40:15.082,FORWARD,30
63.0,12315.207697773898,1231.2905468095003,-59290.21499040306,-56109.60645790178,-33975.7691592895,-31243.201344394845,-8555.331355968876,-20923.04330146829,0.0,0.0,0.0,193.0,1.0,155.0,0.0,2.0,3.0,250.0,411.0,2.0,1018.0,1744252815.082803,0.0,2025-04-09 22:40:15.082,FORWARD,30
64.0,12341.53805274225,1214.1914623011903,-59284.02355718894,-56053.79415199687,-34017.276348743006,-31283.4344844144,-8468.874808415749,-20961.53300542033,0.0,0.0,0.0,193.0,1.0,154.0,0.0,2.0,3.0,251.0,410.0,2.0,1019.0,1744252815.0828116,0.0,2025-04-09 22:40:15.082,FORWARD,30
65.0,12433.291963731286,1234.8891776668047,-59295.355891627776,-56097.02242577344,-34013.141276018774,-31267.52004236222,-8582.287559781977,-20943.80807206727,0.0,0.0,0.0,193.0,1.0,155.0,0.0,2.0,3.0,252.0,411.0,2.0,1020.0,1744252815.0828252,0.0,2025-04-09 22:40:15.082,FORWARD,30
66.0,12381.25710263933,1233.10103811038,-59263.50465577897,-56066.57934982531,-33961.64285679375,-31220.111992372513,-8622.654810268261,-20894.32130984322,0.0,0.0,0.0,193.0,1.0,155.0,0.0,2.0,3.0,252.0,411.0,2.0,1020.0,1744252815.082834,0.0,2025-04-09 22:40:15.082,FORWARD,30
67.0,12310.491479693828,1220.651116448774,-59308.52106911196,-56113.80858585937,-33990.230737952086,-31251.158565420934,-8530.677381834672,-20930.732301560914,0.0,0.0,0.0,193.0,1.0,154.0,0.0,2.0,3.0,250.0,410.0,2.0,1018.0,1744252815.0828428,0.0,2025-04-09 22:40:15.082,FORWARD,30
68.0,12308.122194781567,1199.0146278160369,-59302.776670786945,-56081.75618431046,-34021.07614530041,-31278.71826633433,-8521.088483463345,-20955.34157220621,0.0,0.0,0.0,193.0,1.0,155.0,0.0,2.0,3.0,251.0,411.0,2.0,1019.0,1744252815.0828516,0.0,2025-04-09 22:40:15.082,FORWARD,30
69.0,12414.225925710909,1219.4217705037322,-59311.89618252471,-56094.87665830573,-34034.26367452904,-31296.845531087583,-8506.045759444924,-20977.78272363934,0.0,0.0,0.0,193.0,1.0,154.0,0.0,2.0,3.0,250.0,410.0,2.0,1018.0,1744252815.0828605,0.0,2025-04-09 22:40:15.082,FORWARD,30
70.0,12389.460192854429,1235.783247445017,-59260.97890865552,-56081.57737035482,-33954.065615423395,-31222.3695185625,-8683.250389486599,-20918.081214199214,0.0,0.0,0.0,193.0,1.0,154.0,0.0,2.0,3.0,249.0,410.0,2.0,1017.0,1744252815.0828693,0.0,2025-04-09 22:40:15.082,FORWARD,30
71.0,12332.642058449037,1236.0961718673911,-59288.784478757916,-56092.08269024881,-33970.24827840904,-31245.101242673547,-8491.114794148778,-20924.1385369466,0.0,0.0,0.0,193.0,1.0,155.0,0.0,1.0,3.0,252.0,411.0,1.0,1020.0,1744252815.082878,0.0,2025-04-09 22:40:15.082,FORWARD,30
72.0,12300.544953411218,1207.4412354756876,-59296.78640327292,-56097.20123972908,-34001.38425843528,-31272.66094358694,-8541.40621917322,-20946.043246512803,0.0,0.0,0.0,193.0,1.0,155.0,0.0,2.0,3.0,252.0,411.0,2.0,1020.0,1744252815.0828867,0.0,2025-04-09 22:40:15.082,FORWARD,30
73.0,12414.292980944274,1228.9659653861481,-59300.76501378597,-56069.66389056014,-34036.61060769685,-31301.315879978643,-8438.789360378905,-20975.39108698262,0.0,0.0,0.0,193.0,1.0,155.0,0.0,2.0,3.0,250.0,411.0,2.0,1018.0,1744252815.0828958,0.0,2025-04-09 22:40:15.082,FORWARD,30
74.0,12406.961608762933,1242.8687504373493,-59263.057620889864,-56092.41796641564,-33962.82749924988,-31220.98371040627,-8725.20461382921,-20911.66626354054,0.0,0.0,0.0,193.0,1.0,155.0,0.0,1.0,3.0,251.0,411.0,1.0,1019.0,1744252815.0829048,0.0,2025-04-09 22:40:15.082,FORWARD,30
75.0,12347.371858045086,1249.1272388848352,-59277.250978618984,-56072.14493419468,-33966.35907487381,-31237.166373391912,-8489.751337737005,-20919.936408989004,0.0,0.0,0.0,193.0,1.0,155.0,0.0,2.0,3.0,249.0,411.0,2.0,1017.0,1744252815.0829136,0.0,2025-04-09 22:40:15.082,FORWARD,30
76.0,12283.490572391818,1202.881479606805,-59313.661970336674,-56123.26337376397,-34004.51350265903,-31277.37716166701,-8573.83860037787,-20958.359057707676,0.0,0.0,0.0,193.0,1.0,155.0,0.0,1.0,3.0,250.0,411.0,1.0,1018.0,1744252815.0829227,0.0,2025-04-09 22:40:15.082,FORWARD,30
77.0,12388.968454476411,1212.6268401893187,-59307.29172316691,-56066.5346463364,-34045.439546756694,-31315.0398510742,-8406.915772785636,-20987.23751154393,0.0,0.0,0.0,193.0,1.0,155.0,0.0,2.0,3.0,252.0,411.0,2.0,1020.0,1744252815.0829315,0.0,2025-04-09 22:40:15.082,FORWARD,30
78.0,12396.568047591216,1225.3449827843885,-59292.91955148215,-56127.46550172156,-33988.28613618447,-31254.354864878045,-8729.362038297897,-20944.29981044529,0.0,0.0,0.0,193.0,1.0,155.0,0.0,2.0,3.0,250.0,411.0,2.0,1018.0,1744252815.0829403,0.0,2025-04-09 22:40:15.082,FORWARD,30
79.0,12343.370895787584,1230.1729595867348,-59289.32092062485,-56080.929169765615,-33982.83231053738,-31258.42288236891,-8510.225535658066,-20935.85085104118,0.0,0.0,0.0,193.0,1.0,154.0,0.0,2.0,3.0,250.0,410.0,2.0,1018.0,1744252815.082949,0.0,2025-04-09 22:40:15.082,FORWARD,30
80.0,12287.200961971399,1204.6696191632295,-59312.32086566936,-56132.025257590445,-33997.763275833524,-31275.61137385504,-8582.622835948807,-20955.18510999502,0.0,0.0,0.0,193.0,1.0,155.0,0.0,1.0,3.0,252.0,411.0,1.0,1020.0,1744252815.0829628,0.0,2025-04-09 22:40:15.082,FORWARD,30
81.0,12372.942253701956,1216.5607472134527,-59296.02644396144,-56056.76693400943,-34036.25297978556,-31316.224493530335,-8407.072234996824,-20988.1539330666,0.0,0.0,0.0,193.0,1.0,154.0,0.0,5.0,3.0,249.0,410.0,5.0,1017.0,1744252815.0829716,0.0,2025-04-09 22:40:15.082,FORWARD,30
82.0,12416.0811205007,1234.330384055422,-59290.55026656989,-56126.079693565334,-33992.55531937544,-31259.451062613854,-8698.337816993931,-20948.032551769324,0.0,0.0,0.0,193.0,1.0,154.0,0.0,15.0,3.0,251.0,410.0,15.0,1019.0,1744252815.0829804,0.0,2025-04-09 22:40:15.082,FORWARD,30
83.0,12371.534093801272,1248.2555208510782,-59256.910891164654,-56058.64448054368,-33951.51751655549,-31228.225675609792,-8523.949506753625,-20902.502048313865,0.0,0.0,0.0,193.0,1.0,155.0,0.0,26.0,3.0,253.0,411.0,26.0,1021.0,1744252815.0829892,0.0,2025-04-09 22:40:15.082,FORWARD,30
84.0,12300.902581322502,1221.6569449492629,-59294.528877082936,-56124.73858889802,-33975.23271742257,-31250.95739972084,-8550.346916955343,-20923.177411935023,0.0,0.0,0.0,193.0,1.0,154.0,0.0,35.0,3.0,250.0,410.0,35.0,1018.0,1744252815.0829985,0.0,2025-04-09 22:40:15.082,FORWARD,30
85.0,12337.112407340099,1198.7240551381178,-59295.69116779461,-56072.01082372795,-34033.4813634731,-31309.988356827304,-8422.204365993068,-20980.44258122952,0.0,0.0,0.0,193.0,1.0,154.0,0.0,39.0,3.0,250.0,410.0,39.0,1018.0,1744252815.083007,0.0,2025-04-09 22:40:15.083,FORWARD,30
86.0,12417.466928656928,1226.4849217516091,-59296.629941061736,-56127.689019166115,-34005.42992418169,-31271.185728452892,-8625.471130069629,-20954.313391961266,0.0,0.0,0.0,193.0,1.0,155.0,0.0,39.0,3.0,252.0,411.0,39.0,1020.0,1744252815.083016,0.0,2025-04-09 22:40:15.083,FORWARD,30
87.0,12371.847018223647,1239.2477678355895,-59250.67475446162,-56062.57838756781,-33945.30373159692,-31220.13434411697,-8558.326489725887,-20898.0316994228,0.0,0.0,0.0,193.0,1.0,154.0,0.0,39.0,3.0,249.0,410.0,39.0,1017.0,1744252815.0830247,0.0,2025-04-09 22:40:15.083,FORWARD,30
88.0,12304.724729624359,1224.5179682395421,-59292.45016484859,-56119.55298418439,-33971.23175516507,-31250.51036483173,-8520.417931129687,-20934.777967307327,0.0,0.0,0.0,193.0,1.0,154.0,0.0,38.0,3.0,251.0,410.0,38.0,1019.0,1744252815.0830336,0.0,2025-04-09 22:40:15.083,FORWARD,30
89.0,12314.425386717963,1197.0029708150591,-59295.49000209451,-56080.83976278779,-34018.9303778327,-31300.690031133898,-8462.48220950153,-20978.83325562874,0.0,0.0,0.0,193.0,1.0,155.0,0.0,38.0,3.0,252.0,411.0,38.0,1020.0,1744252815.0830424,0.0,2025-04-09 22:40:15.083,FORWARD,30
90.0,12414.605905366649,1222.6627734497517,-59301.27910390843,-56107.30422822288,-34016.717555131625,-31278.539452378685,-8547.351783198332,-20958.537871663317,0.0,0.0,0.0,193.0,1.0,154.0,0.0,38.0,3.0,251.0,410.0,38.0,1019.0,1744252815.0830514,0.0,2025-04-09 22:40:15.083,FORWARD,30
91.0,12384.073422440699,1239.5159887690531,-59252.61935622923,-56067.20519867006,-33948.701196754126,-31212.51239925771,-8633.115426673345,-20900.959777946446,0.0,0.0,0.0,193.0,1.0,154.0,0.0,39.0,3.0,252.0,410.0,39.0,1020.0,1744252815.08306,0.0,2025-04-09 22:40:15.083,FORWARD,30
92.0,12322.427311232963,1238.4431050351984,-59291.01965320345,-56103.213858987554,-33973.019894721496,-31242.061405427627,-8510.449053102619,-20921.41162412305,0.0,0.0,0.0,193.0,1.0,155.0,0.0,39.0,3.0,252.0,411.0,39.0,1020.0,1744252815.0830688,0.0,2025-04-09 22:40:15.083,FORWARD,30
93.0,12297.125136509554,1203.261459262545,-59306.040025477414,-56098.899972307685,-34021.83610461189,-31290.899967062473,-8524.105968964812,-20967.2997554898,0.0,0.0,0.0,193.0,1.0,154.0,0.0,39.0,3.0,249.0,410.0,39.0,1017.0,1744252815.0830777,0.0,2025-04-09 22:40:15.083,FORWARD,30
94.0,12414.337684433185,1224.8532444063717,-59305.52593535494,-56091.1886204706,-34035.15774430725,-31297.96311831035,-8496.72508200706,-20982.454238230497,0.0,0.0,0.0,193.0,1.0,154.0,0.0,39.0,3.0,251.0,410.0,39.0,1019.0,1744252815.0830865,0.0,2025-04-09 22:40:15.083,FORWARD,30
95.0,12392.16475393352,1240.678279480729,-59255.860359175254,-56084.12546922272,-33950.33287409936,-31216.491009770754,-8685.329101720941,-20904.580760548208,0.0,0.0,0.0,193.0,1.0,155.0,0.0,40.0,3.0,252.0,411.0,40.0,1020.0,1744252815.0831,0.0,2025-04-09 22:40:15.083,FORWARD,30
96.0,12328.082302580155,1235.4032677892767,-59283.040080432904,-56092.395614671186,-33965.04032195095,-31245.23535314028,-8478.173134109156,-20921.009292722858,0.0,0.0,0.0,193.0,1.0,155.0,0.0,40.0,3.0,250.0,411.0,40.0,1018.0,1744252815.083109,0.0,2025-04-09 22:40:15.083,FORWARD,30
97.0,12279.221389200853,1191.6385521457855,-59301.100289952796,-56111.46165269156,-34002.0771625134,-31284.03798151469,-8544.155483741222,-20964.170511266057,0.0,0.0,0.0,193.0,1.0,154.0,0.0,40.0,3.0,249.0,410.0,40.0,1017.0,1744252815.083118,0.0,2025-04-09 22:40:15.083,FORWARD,30
98.0,12402.781832549792,1218.7735699145283,-59293.746566026995,-56065.95350098056,-34031.5814651944,-31305.38389746951,-8422.51729041544,-20984.421191742564,0.0,0.0,0.0,193.0,1.0,155.0,0.0,40.0,3.0,251.0,411.0,40.0,1019.0,1744252815.0831265,0.0,2025-04-09 22:40:15.083,FORWARD,30
99.0,12412.25897219884,1247.9202446842487,-59257.961423154055,-56093.82612631633,-33956.23373463556,-31217.83211443807,-8716.889764891836,-20914.773156019826,0.0,0.0,0.0,193.0,1.0,154.0,0.0,41.0,3.0,249.0,410.0,41.0,1017.0,1744252815.0831354,0.0,2025-04-09 22:40:15.083,FORWARD,30
100.0,12363.219244863898,1260.548980301497,-59266.566844769346,-56062.958367223546,-33958.15598465872,-31224.872913941494,-8469.634767727228,-20904.55840880375,0.0,0.0,0.0,193.0,1.0,155.0,0.0,41.0,3.0,251.0,411.0,41.0,1019.0,1744252815.0831442,0.0,2025-04-09 22:40:15.083,FORWARD,30
101.0,12300.455546433395,1218.2594797920563,-59301.3461591418,-56120.00001907349,-33995.81867406591,-31270.00108599676,-8556.98538505857,-20952.189976238013,0.0,0.0,0.0,193.0,1.0,155.0,0.0,41.0,3.0,252.0,411.0,41.0,1020.0,1744252815.0831535,0.0,2025-04-09 22:40:15.083,FORWARD,30
102.0,12396.635102824583,1218.5947559588858,-59286.325786867834,-56051.55897755134,-34031.24618902757,-31302.567577668142,-8379.601941061252,-20974.47466545995,0.0,0.0,0.0,193.0,1.0,154.0,0.0,41.0,3.0,250.0,410.0,41.0,1018.0,1744252815.0831623,0.0,2025-04-09 22:40:15.083,FORWARD,30
103.0,12404.189992450476,1223.2886222945003,-59274.07703090633,-56114.970876571046,-33979.72541805809,-31234.75238499074,-8709.558392710494,-20928.564182348753,0.0,0.0,0.0,193.0,1.0,154.0,0.0,41.0,3.0,249.0,410.0,41.0,1017.0,1744252815.0831711,0.0,2025-04-09 22:40:15.083,FORWARD,30
104.0,12349.808198190714,1231.1117328538578,-59265.06927789084,-56062.24311140098,-33966.62729580728,-31233.634797767976,-8497.485041318541,-20917.030682209814,0.0,0.0,0.0,193.0,1.0,154.0,0.0,42.0,3.0,252.0,410.0,42.0,1020.0,1744252815.08318,0.0,2025-04-09 22:40:15.083,FORWARD,30
105.0,12270.347746652096,1193.940781824682,-59308.94575225661,-56132.092312823814,-34001.85364506884,-31270.85045228606,-8578.577170202396,-20959.275479230342,0.0,0.0,0.0,193.0,1.0,154.0,0.0,42.0,3.0,252.0,410.0,42.0,1020.0,1744252815.083189,0.0,2025-04-09 22:40:15.083,FORWARD,30
106.0,12344.510834754807,1198.6122964158412,-59296.42877536164,-56060.11969567773,-34047.22768631312,-31313.274063262234,-8413.934220544603,-20993.674813947062,0.0,0.0,0.0,193.0,1.0,155.0,0.0,42.0,3.0,251.0,411.0,42.0,1019.0,1744252815.0831978,0.0,2025-04-09 22:40:15.083,FORWARD,30
107.0,12406.69338782947,1224.4956164950868,-59287.26456013496,-56124.02333307545,-34000.57959563489,-31256.120652690013,-8679.070613273456,-20952.94993554949,0.0,0.0,0.0,193.0,1.0,155.0,0.0,42.0,3.0,252.0,411.0,42.0,1020.0,1744252815.083207,0.0,2025-04-09 22:40:15.083,FORWARD,30
108.0,12366.616710021104,1241.3041283254777,-59250.80886492835,-56057.482189832,-33958.692426525646,-31223.196533107348,-8525.156500954212,-20908.581722805706,0.0,0.0,0.0,193.0,1.0,154.0,0.0,42.0,3.0,248.0,410.0,42.0,1016.0,1744252815.0832157,0.0,2025-04-09 22:40:15.083,FORWARD,30
109.0,12293.191229485421,1219.8688053928383,-59291.89137123721,-56125.476196465046,-33986.87797628379,-31255.114824189524,-8550.07869602188,-20945.61856336815,0.0,0.0,0.0,193.0,1.0,154.0,0.0,42.0,3.0,249.0,410.0,42.0,1017.0,1744252815.0832248,0.0,2025-04-09 22:40:15.083,FORWARD,30
110.0,12334.340791027642,1209.6764099212182,-59283.06243217736,-56063.56186432384,-34036.11886931883,-31299.795961355685,-8441.918604602648,-20986.745773165916,0.0,0.0,0.0,193.0,1.0,155.0,0.0,42.0,3.0,252.0,411.0,42.0,1020.0,1744252815.0832872,0.0,2025-04-09 22:40:15.083,FORWARD,30
111.0,12423.07721651521,1236.4090962897656,-59283.822391488844,-56113.89799283719,-34013.275386485504,-31268.95055400736,-8606.740368216082,-20965.42220895555,0.0,0.0,0.0,193.0,1.0,154.0,0.0,42.0,3.0,250.0,410.0,42.0,1018.0,1744252815.0832963,0.0,2025-04-09 22:40:15.083,FORWARD,30
112.0,12379.983053205378,1251.943558686204,-59239.67769618961,-56059.672660788616,-33953.68563576766,-31218.88264642747,-8573.346861999853,-20909.162868161544,0.0,0.0,0.0,193.0,1.0,155.0,0.0,42.0,3.0,251.0,411.0,42.0,1019.0,1744252815.0833051,0.0,2025-04-09 22:40:15.083,FORWARD,30
113.0,12317.44287221943,1237.5490352569861,-59275.32872859582,-56109.04766429039,-33968.99658071954,-31239.490954815265,-8495.92041920667,-20928.564182348753,0.0,0.0,0.0,193.0,1.0,154.0,0.0,43.0,3.0,252.0,410.0,43.0,1020.0,1744252815.0833142,0.0,2025-04-09 22:40:15.083,FORWARD,30
114.0,12321.488537965839,1213.9008896232713,-59272.73592623901,-56072.30139640587,-34009.60970039484,-31282.13808323599,-8456.022555353948,-20967.00918281188,0.0,0.0,0.0,193.0,1.0,154.0,0.0,43.0,3.0,249.0,410.0,43.0,1017.0,1744252815.0833232,0.0,2025-04-09 22:40:15.083,FORWARD,30
115.0,12426.564088650239,1243.6063580043744,-59280.760202498466,-56096.038949017406,-34018.48334294359,-31276.639554099987,-8515.947582238625,-20966.763313622872,0.0,0.0,0.0,193.0,1.0,155.0,0.0,42.0,3.0,251.0,411.0,42.0,1019.0,1744252815.083332,0.0,2025-04-09 22:40:15.083,FORWARD,30
116.0,12397.9762074919,1250.8706749523492,-59231.8322338858,-56065.72998353601,-33944.43201356316,-31207.03622186616,-8626.275792870021,-20898.679900012005,0.0,0.0,0.0,193.0,1.0,154.0,0.0,43.0,3.0,253.0,410.0,43.0,1021.0,1744252815.083341,0.0,2025-04-09 22:40:15.083,FORWARD,30
117.0,12332.865575893591,1237.0125933900588,-59271.931263438615,-56100.12931825272,-33971.835252265366,-31241.681425771887,-8484.67749174565,-20924.786737535804,0.0,0.0,0.0,193.0,1.0,154.0,0.0,43.0,3.0,249.0,410.0,43.0,1017.0,1744252815.0833497,0.0,2025-04-09 22:40:15.083,FORWARD,30
118.0,12296.67810162045,1196.6453429037742,-59288.13627816871,-56106.18664100011,-34021.679642400704,-31292.218719985336,-8525.514128865496,-20979.839084129228,0.0,0.0,0.0,193.0,1.0,155.0,0.0,43.0,3.0,252.0,411.0,43.0,1020.0,1744252815.0833588,0.0,2025-04-09 22:40:15.083,FORWARD,30
119.0,12409.710873330936,1217.5665757139416,-59289.05269969138,-56092.99911177148,-34038.376395508814,-31307.730830637316,-8460.515255989463,-20994.457125002995,0.0,0.0,0.0,193.0,1.0,155.0,0.0,43.0,3.0,250.0,411.0,43.0,1018.0,1744252815.0833676,0.0,2025-04-09 22:40:15.083,FORWARD,30
120.0,12395.338701646175,1230.5752909869304,-59245.1315218367,-56096.933018795615,-33957.083100924865,-31225.118783130503,-8678.869447573357,-20919.310560144255,0.0,0.0,0.0,193.0,1.0,154.0,0.0,43.0,3.0,250.0,410.0,43.0,1018.0,1744252815.0833764,0.0,2025-04-09 22:40:15.083,FORWARD,30
121.0,12339.280526552264,1238.5772155019304,-59267.08093489182,-56092.172097226634,-33973.4669296106,-31246.956437463337,-8472.62990148424,-20934.152118462578,0.0,0.0,0.0,193.0,1.0,155.0,0.0,43.0,3.0,251.0,411.0,43.0,1019.0,1744252815.0833855,0.0,2025-04-09 22:40:15.083,FORWARD,30
122.0,12291.179572484443,1202.6803139067072,-59283.48711532201,-56116.33433298282,-34004.625261381305,-31275.030228499203,-8553.632623390273,-20958.359057707676,0.0,0.0,0.0,193.0,1.0,155.0,0.0,43.0,3.0,252.0,411.0,43.0,1020.0,1744252815.083394,0.0,2025-04-09 22:40:15.083,FORWARD,30
123.0,12402.670073827514,1222.7298286831176,-59277.40744083017,-56066.71346029204,-34036.47649723011,-31310.591853927595,-8406.04405475188,-20987.81865689977,0.0,0.0,0.0,193.0,1.0,154.0,0.0,43.0,3.0,251.0,410.0,43.0,1019.0,1744252815.083403,0.0,2025-04-09 22:40:15.083,FORWARD,30
124.0,12414.337684433185,1241.1029626253799,-59244.326859036315,-56102.83387933182,-33958.96064745911,-31232.4725070563,-8702.562296695984,-20936.923734775035,0.0,0.0,0.0,193.0,1.0,155.0,0.0,43.0,3.0,253.0,411.0,43.0,1021.0,1744252815.0834167,0.0,2025-04-09 22:40:15.083,FORWARD,30
125.0,12351.752799958325,1241.9523289146816,-59254.3851440412,-56073.463687117546,-33962.045188193944,-31240.496783315753,-8460.828180411838,-20922.99859797938,0.0,0.0,0.0,193.0,1.0,154.0,0.0,43.0,3.0,249.0,410.0,43.0,1017.0,1744252815.0834255,0.0,2025-04-09 22:40:15.083,FORWARD,30
126.0,12284.988139270323,1208.1564912982574,-59292.94190322661,-56133.433417491135,-34001.29485145746,-31274.20321395436,-8566.015489818512,-20958.49316817441,0.0,0.0,0.0,193.0,1.0,154.0,0.0,43.0,3.0,249.0,410.0,43.0,1017.0,1744252815.083435,0.0,2025-04-09 22:40:15.083,FORWARD,30
127.0,12380.474791583394,1218.550052469975,-59282.50363856598,-56064.72415503552,-34042.80204091097,-31315.710403407862,-8398.578572103808,-20999.77684018336,0.0,0.0,0.0,193.0,1.0,155.0,0.0,43.0,3.0,252.0,411.0,43.0,1020.0,1744252815.0834439,0.0,2025-04-09 22:40:15.083,FORWARD,30
128.0,12412.46013789894,1231.6481747207852,-59269.04788840388,-56128.27016452196,-33982.36292390381,-31251.4267863544,-8697.197878026709,-20947.697275602495,0.0,0.0,0.0,193.0,1.0,154.0,0.0,43.0,3.0,249.0,410.0,43.0,1017.0,1744252815.0834527,0.0,2025-04-09 22:40:15.083,FORWARD,30
129.0,12361.162884374009,1236.6773172232292,-59251.54647249538,-56069.50742834895,-33957.4630805806,-31238.820402481608,-8480.162439365678,-20916.96362697645,0.0,0.0,0.0,193.0,1.0,154.0,0.0,43.0,3.0,250.0,410.0,43.0,1018.0,1744252815.0834615,0.0,2025-04-09 22:40:15.083,FORWARD,30
130.0,12291.358386440086,1210.3693139993327,-59292.96425497106,-56137.00969660398,-33987.86145303982,-31267.698856317864,-8550.59278614435,-20957.710857118473,0.0,0.0,0.0,193.0,1.0,154.0,0.0,43.0,3.0,250.0,410.0,43.0,1018.0,1744252815.0834703,0.0,2025-04-09 22:40:15.083,FORWARD,30
131.0,12349.517625512795,1208.2235465316232,-59287.35396711278,-56070.20033242707,-34037.325863519414,-31320.091345321103,-8398.913848270637,-21010.125697866166,0.0,0.0,0.0,193.0,1.0,154.0,0.0,43.0,3.0,251.0,410.0,43.0,1019.0,1744252815.0834792,0.0,2025-04-09 22:40:15.083,FORWARD,30
132.0,12419.389178680085,1233.905700910771,-59278.16740014165,-56124.87269936475,-33995.05871475443,-31262.021513226216,-8645.788865779503,-20960.326011219742,0.0,0.0,0.0,193.0,1.0,155.0,0.0,43.0,3.0,251.0,411.0,43.0,1019.0,1744252815.083488,0.0,2025-04-09 22:40:15.083,FORWARD,30
133.0,12371.534093801272,1245.1709801162458,-59242.516367735436,-56058.823294499314,-33952.16571714469,-31221.94483541785,-8522.429588130664,-20909.364033861642,0.0,0.0,0.0,193.0,1.0,154.0,0.0,44.0,3.0,250.0,410.0,44.0,1018.0,1744252815.0834968,0.0,2025-04-09 22:40:15.083,FORWARD,30
134.0,12301.528430167251,1227.9601368856595,-59284.47059207805,-56123.75511214198,-33980.574784347395,-31249.012797953226,-8528.68807657815,-20942.154042977578,0.0,0.0,0.0,193.0,1.0,154.0,0.0,44.0,3.0,251.0,410.0,44.0,1019.0,1744252815.0835056,0.0,2025-04-09 22:40:15.083,FORWARD,30
135.0,12323.880174622558,1198.008799315548,-59290.50556308098,-56078.44812613108,-34039.87396238732,-31306.1885602699,-8440.91277610216,-20993.920683136068,0.0,0.0,0.0,193.0,1.0,155.0,0.0,43.0,3.0,252.0,411.0,43.0,1020.0,1744252815.0835147,0.0,2025-04-09 22:40:15.083,FORWARD,30
136.0,12418.204536223953,1222.3051455384668,-59290.393804358704,-56119.57533592884,-34016.49403768707,-31271.543356364175,-8566.887207852269,-20954.067522772257,0.0,0.0,0.0,193.0,1.0,155.0,0.0,43.0,3.0,251.0,411.0,43.0,1019.0,1744252815.0835235,0.0,2025-04-09 22:40:15.083,FORWARD,30
137.0,12383.157000918032,1238.5995672463855,-59240.86233864574,-56069.14980043767,-33949.10352815432,-31213.473524269288,-8562.863893850314,-20894.634234265595,0.0,0.0,0.0,193.0,1.0,155.0,0.0,43.0,3.0,251.0,411.0,43.0,1019.0,1744252815.0835323,0.0,2025-04-09 22:40:15.083,FORWARD,30
138.0,12313.665427406482,1229.6588694642628,-59284.35883335577,-56120.715274896065,-33975.54564184495,-31244.073062428604,-8485.236285357034,-20927.111318959156,0.0,0.0,0.0,193.0,1.0,154.0,0.0,44.0,3.0,249.0,410.0,44.0,1017.0,1744252815.255234,0.0,2025-04-09 22:40:15.255,FORWARD,30
139.0,12306.043482547222,1201.3392092393888,-59290.10323168078,-56094.87665830573,-34023.75835463504,-31289.42475192842,-8465.834971169827,-20973.893520104113,0.0,0.0,0.0,193.0,1.0,154.0,0.0,44.0,3.0,250.0,410.0,44.0,1018.0,1744252815.2552958,0.0,2025-04-09 22:40:15.255,FORWARD,30
140.0,12418.070425757222,1228.2060060746678,-59294.61828406076,-56107.080710778326,-34034.59895069587,-31292.19636824088,-8499.384939597243,-20986.879883632646,0.0,0.0,0.0,193.0,1.0,155.0,0.0,44.0,3.0,251.0,411.0,44.0,1019.0,1744252815.255308,0.0,2025-04-09 22:40:15.255,FORWARD,30
141.0,12380.787716005769,1234.8221224334386,-59256.24033883099,-56094.139050738704,-33967.29784814094,-31230.5726087776,-8644.42540936773,-20932.878069028626,0.0,0.0,0.0,193.0,1.0,154.0,0.0,44.0,3.0,249.0,410.0,44.0,1017.0,1744252815.2553182,0.0,2025-04-09 22:40:15.255,FORWARD,30
142.0,12321.265020521287,1235.0679916224472,-59287.57748455733,-56116.06611204936,-33985.96155476112,-31256.925315490404,-8484.588084767829,-20958.023781540847,0.0,0.0,0.0,193.0,1.0,154.0,0.0,44.0,3.0,250.0,410.0,44.0,1018.0,1744252815.255328,0.0,2025-04-09 22:40:15.255,FORWARD,30
143.0,12298.868572577068,1207.62004943133,-59287.599836301786,-56108.66768463465,-34006.48045617109,-31282.20513846936,-8509.44322460213,-20977.939185850526,0.0,0.0,0.0,193.0,1.0,154.0,0.0,44.0,3.0,250.0,410.0,44.0,1018.0,1744252815.2553375,0.0,2025-04-09 22:40:15.255,FORWARD,30
144.0,12427.256992728353,1240.0524306359805,-59275.17226638464,-56072.189637683594,-34021.25495925605,-31289.178882739412,-8405.66407509614,-20972.61947067016,0.0,0.0,0.0,193.0,1.0,154.0,0.0,44.0,3.0,249.0,410.0,44.0,1017.0,1744252815.255347,0.0,2025-04-09 22:40:15.255,FORWARD,30
145.0,12403.40768139454,1243.427544048732,-59245.91383289264,-56098.98937928551,-33955.473775324084,-31223.46475404081,-8660.161037464266,-20926.418414881042,0.0,0.0,0.0,193.0,1.0,155.0,0.0,44.0,3.0,252.0,411.0,44.0,1020.0,1744252815.2553563,0.0,2025-04-09 22:40:15.255,FORWARD,30
146.0,12342.946212642933,1241.6394044923072,-59267.952652925575,-56090.56277162585,-33969.82359526439,-31242.195515894357,-8444.95844184857,-20930.732301560914,0.0,0.0,0.0,193.0,1.0,155.0,0.0,44.0,3.0,252.0,411.0,44.0,1020.0,1744252815.2553658,0.0,2025-04-09 22:40:15.255,FORWARD,30
147.0,12283.557627625183,1196.6229911593189,-59295.914685239164,-56128.96306860007,-34010.839046339875,-31271.565708108632,-8528.285745177955,-20953.061694271768,0.0,0.0,0.0,193.0,1.0,154.0,0.0,44.0,3.0,249.0,410.0,44.0,1017.0,1744252815.255375,0.0,2025-04-09 22:40:15.255,FORWARD,30
148.0,12399.987864492878,1225.903776395771,-59281.095478665295,-56068.72511729302,-34040.70097693217,-31297.71724912134,-8371.979996201992,-20976.039287571824,0.0,0.0,0.0,193.0,1.0,155.0,0.0,44.0,3.0,250.0,411.0,44.0,1018.0,1744252815.255384,0.0,2025-04-09 22:40:15.255,FORWARD,30
149.0,12415.07529200021,1243.8522271933828,-59249.9371468946,-56113.20508875908,-33966.62729580728,-31219.150867360935,-8677.237770228121,-20922.573914834727,0.0,0.0,0.0,193.0,1.0,155.0,0.0,44.0,3.0,252.0,411.0,44.0,1020.0,1744252815.2553933,0.0,2025-04-09 22:40:15.255,FORWARD,30
150.0,12356.357259316119,1247.1379336283128,-59251.68058296211,-56074.29070166239,-33965.30854288441,-31231.265512855713,-8440.510444701964,-20935.202650451978,0.0,0.0,0.0,193.0,1.0,154.0,0.0,44.0,3.0,250.0,410.0,44.0,1018.0,1744252815.255402,0.0,2025-04-09 22:40:15.255,FORWARD,30
151.0,12287.759755582782,1212.5821367004082,-59283.263597877456,-56129.521862211455,-33996.980964777584,-31253.349036377556,-8535.25948944801,-20949.083083758724,0.0,0.0,0.0,193.0,1.0,155.0,0.0,44.0,3.0,252.0,411.0,44.0,1020.0,1744252815.255411,0.0,2025-04-09 22:40:15.255,FORWARD,30
152.0,12374.104544413633,1215.2419942905897,-59272.04302216089,-56055.80580899785,-34037.10234607486,-31290.743504851285,-8349.98587965797,-20965.556319422285,0.0,0.0,0.0,193.0,1.0,155.0,0.0,44.0,3.0,251.0,411.0,44.0,1019.0,1744252815.2554204,0.0,2025-04-09 22:40:15.255,FORWARD,30
153.0,12409.822632053212,1228.3177647969444,-59264.242263345994,-56126.504376709985,-33983.9722495046,-31239.334492604077,-8657.411772896263,-20938.398949909086,0.0,0.0,0.0,193.0,1.0,154.0,0.0,44.0,3.0,250.0,410.0,44.0,1018.0,1744252815.2554293,0.0,2025-04-09 22:40:15.255,FORWARD,30
154.0,12355.798465704736,1236.2526340785782,-59247.38904802669,-56070.647367316174,-33965.465005095604,-31229.14209713246,-8470.171209594157,-20920.025815966823,0.0,0.0,0.0,193.0,1.0,155.0,0.0,44.0,3.0,250.0,411.0,44.0,1018.0,1744252815.2554436,0.0,2025-04-09 22:40:15.255,FORWARD,30
155.0,12293.884133563535,1224.6967821951846,-59283.08478392182,-56134.93098436964,-33989.60488910734,-31250.555068320642,-8528.621021344785,-20948.971325036448,0.0,0.0,0.0,193.0,1.0,154.0,0.0,44.0,3.0,250.0,410.0,44.0,1018.0,1744252815.2554529,0.0,2025-04-09 22:40:15.255,FORWARD,30
156.0,12362.436933807961,1224.8532444063717,-59260.97890865552,-56054.79998049736,-34022.64076741228,-31285.66965885993,-8377.299711382355,-20977.045116072313,0.0,0.0,0.0,193.0,1.0,154.0,0.0,44.0,3.0,249.0,410.0,44.0,1017.0,1744252815.2554617,0.0,2025-04-09 22:40:15.255,FORWARD,30
157.0,12419.724454846913,1230.4858840091092,-59276.87099896324,-56131.17589130114,-34009.855569583844,-31265.597792339064,-8606.360388560342,-20971.21131076948,0.0,0.0,0.0,193.0,1.0,155.0,0.0,44.0,3.0,252.0,411.0,44.0,1020.0,1744252815.255471,0.0,2025-04-09 22:40:15.255,FORWARD,30
158.0,12372.383460090574,1242.1534946147794,-59243.87982414721,-56076.14589645218,-33968.03545570796,-31233.634797767976,-8528.621021344785,-20934.28622892931,0.0,0.0,0.0,193.0,1.0,155.0,0.0,44.0,3.0,250.0,411.0,44.0,1018.0,1744252815.25548,0.0,2025-04-09 22:40:15.255,FORWARD,30
159.0,12302.310741223186,1230.6423462202963,-59282.66010077717,-56134.1486733137,-33989.82840655189,-31251.33737937658,-8502.089500676335,-20944.29981044529,0.0,0.0,0.0,193.0,1.0,154.0,0.0,44.0,3.0,250.0,410.0,44.0,1018.0,1744252815.2554889,0.0,2025-04-09 22:40:15.255,FORWARD,30
160.0,12326.450625234918,1212.9621163561483,-59272.49005705,-56079.72217556503,-34028.16164829274,-31290.072952517625,-8416.124691501223,-20974.34055499322,0.0,0.0,0.0,193.0,1.0,155.0,0.0,44.0,3.0,251.0,411.0,44.0,1019.0,1744252815.2554977,0.0,2025-04-09 22:40:15.255,FORWARD,30
161.0,12435.035399798799,1249.5072185405754,-59266.835065702806,-56109.13707126821,-34009.43088643919,-31266.00012373926,-8521.513166607996,-20960.370714708653,0.0,0.0,0.0,193.0,1.0,155.0,0.0,44.0,3.0,252.0,411.0,44.0,1020.0,1744252815.2555065,0.0,2025-04-09 22:40:15.255,FORWARD,30
162.0,12391.874181255602,1253.038794164514,-59223.60679192624,-56072.07787896132,-33946.5107257975,-31214.881684169974,-8567.446001463652,-20911.71096702945,0.0,0.0,0.0,193.0,1.0,154.0,0.0,44.0,3.0,249.0,410.0,44.0,1017.0,1744252815.2555156,0.0,2025-04-09 22:40:15.255,FORWARD,30
163.0,12321.555593199206,1236.9008346677822,-59269.271405848434,-56120.26824000695,-33976.12678720079,-31247.716396774817,-8463.800962424393,-20943.450444155987,0.0,0.0,0.0,193.0,1.0,155.0,0.0,44.0,3.0,252.0,411.0,44.0,1020.0,1744252815.2555244,0.0,2025-04-09 22:40:15.255,FORWARD,30
164.0,12310.916162838479,1207.5306424535088,-59272.288891349905,-56099.324655452336,-34015.68937488668,-31289.983545539802,-8466.661985714672,-20993.0042616134,0.0,0.0,0.0,193.0,1.0,154.0,0.0,44.0,3.0,249.0,410.0,44.0,1017.0,1744252815.2555332,0.0,2025-04-09 22:40:15.255,FORWARD,30
165.0,12421.713760103436,1236.6996689676844,-59277.92153095264,-56106.20899274457,-34030.37447099382,-31298.67837413292,-8458.302433288389,-21003.26371231839,0.0,0.0,0.0,193.0,1.0,155.0,0.0,44.0,3.0,251.0,411.0,44.0,1019.0,1744252815.255542,0.0,2025-04-09 22:40:15.255,FORWARD,30
166.0,12378.664300282515,1231.067029364947,-59246.070295103826,-56109.00296080148,-33968.549545830436,-31232.740727989763,-8639.150397676278,-20927.401891637077,0.0,0.0,0.0,193.0,1.0,155.0,0.0,44.0,3.0,252.0,411.0,44.0,1020.0,1744252815.2555509,0.0,2025-04-09 22:40:15.255,FORWARD,30
167.0,12321.376779243563,1229.3459450418884,-59270.612510515755,-56119.307114995376,-33980.95476400313,-31256.388873623477,-8454.234415797522,-20940.835290054714,0.0,0.0,0.0,193.0,1.0,154.0,0.0,44.0,3.0,250.0,410.0,44.0,1018.0,1744252815.2555594,0.0,2025-04-09 22:40:15.255,FORWARD,30
168.0,12284.138772981021,1195.5724591699195,-59283.330653110825,-56128.82895813334,-34013.20833125214,-31291.548167651676,-8495.696901762116,-20975.234624771434,0.0,0.0,0.0,193.0,1.0,155.0,0.0,44.0,3.0,252.0,411.0,44.0,1020.0,1744252815.2555685,0.0,2025-04-09 22:40:15.255,FORWARD,30
169.0,12408.816803552725,1229.81533167545,-59271.4395250606,-56087.634693102205,-34030.620340182824,-31304.33336548011,-8390.822516777816,-20992.49017149093,0.0,0.0,0.0,193.0,1.0,155.0,0.0,44.0,3.0,250.0,411.0,44.0,1018.0,1744252815.2555819,0.0,2025-04-09 22:40:15.255,FORWARD,30
170.0,12408.034492496789,1248.322576084444,-59232.52513796391,-56109.82997534633,-33957.59719104734,-31224.04589939665,-8673.57208413745,-20940.43295865452,0.0,0.0,0.0,193.0,1.0,154.0,0.0,44.0,3.0,250.0,410.0,44.0,1018.0,1744252815.2555907,0.0,2025-04-09 22:40:15.255,FORWARD,30
171.0,12339.81696841919,1238.5325120130196,-59264.21991160154,-56107.03600728941,-33980.03834248047,-31255.114824189524,-8447.372430249743,-20951.38531343762,0.0,0.0,0.0,193.0,1.0,155.0,0.0,44.0,3.0,251.0,411.0,44.0,1019.0,1744252815.2555993,0.0,2025-04-09 22:40:15.255,FORWARD,30
172.0,12282.797668313702,1200.9592295836485,-59288.40449910218,-56148.43143802064,-34006.18988349317,-31279.90290879046,-8527.212861444099,-20970.741924135917,0.0,0.0,0.0,193.0,1.0,155.0,0.0,44.0,3.0,252.0,411.0,44.0,1020.0,1744252815.255608,0.0,2025-04-09 22:40:15.255,FORWARD,30
173.0,12392.678844055992,1228.7424479415952,-59273.22766461703,-56075.967082496536,-34040.276293787516,-31303.126371279526,-8361.318214096811,-20987.416325499576,0.0,0.0,0.0,193.0,1.0,155.0,0.0,44.0,3.0,249.0,411.0,44.0,1017.0,1744252815.255617,0.0,2025-04-09 22:40:15.255,FORWARD,30
174.0,12415.924658289512,1244.7686487160504,-59250.115960850235,-56124.09038830881,-33976.372656389794,-31229.5220767882,-8683.00452029759,-20936.253182441378,0.0,0.0,0.0,193.0,1.0,155.0,0.0,44.0,3.0,251.0,411.0,44.0,1019.0,1744252815.255643,0.0,2025-04-09 22:40:15.255,FORWARD,30
175.0,12360.425276806984,1251.5635790304636,-59249.288946305394,-56081.75618431046,-33969.75654003102,-31239.04391992616,-8453.429752997132,-20933.90624927357,0.0,0.0,0.0,193.0,1.0,154.0,0.0,44.0,3.0,249.0,410.0,44.0,1017.0,1744252815.2556517,0.0,2025-04-09 22:40:15.255,FORWARD,30
176.0,12286.95509278239,1216.9854303581037,-59287.175153157135,-56144.4528275076,-34002.77006659151,-31268.503519118254,-8535.281841192465,-20964.081104288234,0.0,0.0,0.0,193.0,1.0,154.0,0.0,44.0,3.0,249.0,410.0,44.0,1017.0,1744252815.2556608,0.0,2025-04-09 22:40:15.255,FORWARD,30
177.0,12363.68863149746,1213.3197442674332,-59278.68149026412,-56071.273216160924,-34049.61932296983,-31313.139952795504,-8362.100525152746,-20993.697165691516,0.0,0.0,0.0,193.0,1.0,155.0,0.0,44.0,3.0,252.0,411.0,44.0,1020.0,1744252815.2556694,0.0,2025-04-09 22:40:15.255,FORWARD,30
178.0,12411.878992543101,1224.0485816059806,-59273.607644272764,-56138.619022204766,-34006.68162187119,-31259.18284168039,-8660.339851419909,-20965.57867116674,0.0,0.0,0.0,193.0,1.0,154.0,0.0,44.0,3.0,251.0,410.0,44.0,1019.0,1744252815.354271,0.0,2025-04-09 22:40:15.354,FORWARD,30
179.0,12358.793599461747,1233.9280526552263,-59248.12665559372,-56077.19642844158,-33976.797339534445,-31238.3733675925,-8495.160459895189,-20937.48252838642,0.0,0.0,0.0,193.0,1.0,154.0,0.0,44.0,3.0,249.0,410.0,44.0,1017.0,1744252815.3542993,0.0,2025-04-09 22:40:15.354,FORWARD,30
180.0,12292.699491107403,1222.6627734497517,-59279.30733910887,-56137.143807070715,-33994.00818276503,-31255.941838734372,-8526.810530043904,-20957.979078051936,0.0,0.0,0.0,193.0,1.0,155.0,0.0,44.0,3.0,252.0,411.0,44.0,1020.0,1744252815.3543108,0.0,2025-04-09 22:40:15.354,FORWARD,30
181.0,12335.793654417235,1201.9874098285925,-59275.641653018196,-56078.29166391989,-34042.5338199775,-31305.20508351387,-8391.023682477913,-20991.841970901725,0.0,0.0,0.0,193.0,1.0,154.0,0.0,44.0,3.0,250.0,410.0,44.0,1018.0,1744252815.354321,0.0,2025-04-09 22:40:15.354,FORWARD,30
182.0,12414.69531234447,1226.4178665182433,-59274.658176262164,-56136.8979378817,-34011.5766539069,-31266.983600495292,-8595.385682032786,-20969.087895046225,0.0,0.0,0.0,193.0,1.0,154.0,0.0,44.0,3.0,249.0,410.0,44.0,1017.0,1744252815.3543303,0.0,2025-04-09 22:40:15.354,FORWARD,30
183.0,12369.20951237792,1239.5383405135085,-59230.558184451846,-56074.80479178486,-33952.54569680044,-31215.351070803532,-8526.989343999547,-20913.387347863598,0.0,0.0,0.0,193.0,1.0,155.0,0.0,44.0,3.0,251.0,411.0,44.0,1019.0,1744252815.3543396,0.0,2025-04-09 22:40:15.354,FORWARD,30
184.0,12296.476935920351,1221.0534478489694,-59278.703842008574,-56137.65789719319,-33981.93824075916,-31248.94574271986,-8488.790212725427,-20947.58551688022,0.0,0.0,0.0,193.0,1.0,154.0,0.0,44.0,3.0,249.0,410.0,44.0,1017.0,1744252815.3543808,0.0,2025-04-09 22:40:15.354,FORWARD,30
185.0,12310.62559016056,1195.460700447643,-59279.0391181754,-56095.41310017266,-34026.12763954731,-31298.074877032624,-8426.76412186195,-20997.318148293274,0.0,0.0,0.0,193.0,1.0,154.0,0.0,44.0,3.0,250.0,410.0,44.0,1018.0,1744252815.35439,0.0,2025-04-09 22:40:15.354,FORWARD,30
186.0,12415.567030378226,1225.4120380177544,-59283.35300485528,-56125.23032727603,-34024.048927312964,-31284.03798151469,-8515.25467816051,-20986.991642354926,0.0,0.0,0.0,193.0,1.0,155.0,0.0,44.0,3.0,252.0,411.0,44.0,1020.0,1744252815.3543992,0.0,2025-04-09 22:40:15.354,FORWARD,30
187.0,12371.109410656622,1232.9892793881036,-59242.27049854642,-56095.07782400583,-33962.40281610523,-31223.017719151703,-8596.279751810998,-20918.37178687713,0.0,0.0,0.0,193.0,1.0,154.0,0.0,44.0,3.0,250.0,410.0,44.0,1018.0,1744252815.3544085,0.0,2025-04-09 22:40:15.354,FORWARD,30
188.0,12314.224221017865,1233.1457415992907,-59276.60277802977,-56127.44314997711,-33984.50869137153,-31249.504536331242,-8475.714442219072,-20942.958705777968,0.0,0.0,0.0,193.0,1.0,154.0,0.0,44.0,3.0,250.0,410.0,44.0,1018.0,1744252815.3544176,0.0,2025-04-09 22:40:15.354,FORWARD,30
189.0,12296.320473709164,1201.138043539291,-59280.044946675895,-56112.64629514769,-34021.43377321169,-31287.010763527247,-8477.144953864212,-20979.123828306656,0.0,0.0,0.0,193.0,1.0,155.0,0.0,44.0,3.0,252.0,411.0,44.0,1020.0,1744252815.3544264,0.0,2025-04-09 22:40:15.354,FORWARD,30
190.0,12401.574838349205,1212.3139157669445,-59294.95356022759,-56116.580202171834,-34052.234477071106,-31310.48009520532,-8443.885558114715,-21002.34729079572,0.0,0.0,0.0,193.0,1.0,154.0,0.0,44.0,3.0,249.0,410.0,44.0,1017.0,1744252815.3544354,0.0,2025-04-09 22:40:15.354,FORWARD,30
191.0,12383.447573595951,1229.0330206195142,-59246.5843852263,-56109.96408581306,-33972.41639762121,-31229.902056443938,-8656.13772346231,-20938.71187433146,0.0,0.0,0.0,193.0,1.0,155.0,0.0,44.0,3.0,251.0,411.0,44.0,1019.0,1744252815.3544443,0.0,2025-04-09 22:40:15.354,FORWARD,30
192.0,12323.34373275563,1230.7094014536622,-59269.87490294873,-56110.81345210236,-33981.893537270254,-31250.219792153814,-8451.015764595957,-20961.175377509044,0.0,0.0,0.0,193.0,1.0,155.0,0.0,44.0,3.0,252.0,411.0,44.0,1020.0,1744252815.354453,0.0,2025-04-09 22:40:15.354,FORWARD,30
193.0,12274.549874609695,1195.5054039365536,-59292.070185192846,-56133.232251791036,-34023.08780230139,-31280.439350657387,-8517.73572179505,-20977.425095728053,0.0,0.0,0.0,193.0,1.0,154.0,0.0,44.0,3.0,250.0,410.0,44.0,1018.0,1744252815.354462,0.0,2025-04-09 22:40:15.354,FORWARD,30
194.0,12391.360091133129,1216.069008835436,-59281.028423431926,-56087.47823089102,-34040.54451472098,-31301.271176489736,-8377.344414871266,-20987.081049332744,0.0,0.0,0.0,193.0,1.0,154.0,0.0,44.0,3.0,249.0,410.0,44.0,1017.0,1744252815.3544707,0.0,2025-04-09 22:40:15.354,FORWARD,30
195.0,12391.896533000057,1230.3741252868326,-59242.27049854642,-56119.508280695474,-33955.31731311289,-31223.12947787398,-8660.943348520203,-20925.457289869464,0.0,0.0,0.0,193.0,1.0,154.0,0.0,44.0,3.0,250.0,410.0,44.0,1018.0,1744252815.3544796,0.0,2025-04-09 22:40:15.354,FORWARD,30
196.0,12329.892793881036,1235.6714887227404,-59256.82148418683,-56098.22941997402,-33966.85081325183,-31237.434594325376,-8424.126616016223,-20921.90336250107,0.0,0.0,0.0,193.0,1.0,154.0,0.0,44.0,3.0,249.0,410.0,44.0,1017.0,1744252815.3544886,0.0,2025-04-09 22:40:15.354,FORWARD,30
197.0,12265.877397761036,1192.0855870348917,-59286.03521418992,-56150.554853743895,-34000.847816568355,-31273.890289531984,-8529.02335274498,-20966.87507234515,0.0,0.0,0.0,193.0,1.0,154.0,0.0,44.0,3.0,251.0,410.0,44.0,1019.0,1744252815.3544977,0.0,2025-04-09 22:40:15.354,FORWARD,30
198.0,12366.683765254471,1206.1001308083692,-59274.524065795435,-56081.085631976806,-34039.47163098713,-31311.240054516802,-8356.445533805554,-20995.127677336655,0.0,0.0,0.0,193.0,1.0,154.0,0.0,44.0,3.0,250.0,410.0,44.0,1018.0,1744252815.3545065,0.0,2025-04-09 22:40:15.354,FORWARD,30
199.0,12398.557352847738,1228.653040963774,-59253.78164694091,-56135.310964025375,-33978.87605176879,-31239.37919609299,-8681.439898185718,-20947.071426757746,0.0,0.0,0.0,193.0,1.0,154.0,0.0,44.0,3.0,249.0,410.0,44.0,1017.0,1744252815.3545206,0.0,2025-04-09 22:40:15.354,FORWARD,30
200.0,12349.428218534973,1236.1185236118465,-59242.27049854642,-56080.72800406552,-33964.414473106204,-31237.479297814287,-8454.972023364548,-20932.31927541724,0.0,0.0,0.0,193.0,1.0,155.0,0.0,44.0,3.0,252.0,411.0,44.0,1020.0,1744252815.3545296,0.0,2025-04-09 22:40:15.354,FORWARD,30
201.0,12271.107705963577,1201.3839127282993,-59288.985644458015,-56152.63356597824,-34000.49018865707,-31269.03996098518,-8528.553966111418,-20962.739999620917,0.0,0.0,0.0,193.0,1.0,154.0,0.0,44.0,3.0,250.0,410.0,44.0,1018.0,1744252815.3545384,0.0,2025-04-09 22:40:15.354,FORWARD,30
202.0,12344.510834754807,1207.329476753411,-59277.85447571927,-56078.559884853355,-34045.26073280105,-31309.809542871662,-8366.03443217688,-20993.58540696924,0.0,0.0,0.0,193.0,1.0,154.0,0.0,44.0,3.0,250.0,410.0,44.0,1018.0,1744252815.3545475,0.0,2025-04-09 22:40:15.354,FORWARD,30
203.0,12411.051977998255,1238.7560294575728,-59265.56101626885,-56134.79687390291,-33997.49505490006,-31248.52105957521,-8645.073609956933,-20953.173452994044,0.0,0.0,0.0,193.0,1.0,154.0,0.0,44.0,3.0,251.0,410.0,44.0,1019.0,1744252815.3545563,0.0,2025-04-09 22:40:15.354,FORWARD,30
204.0,12365.1191431426,1244.1875033602123,-59233.553318208855,-56071.00499522746,-33961.4640428381,-31222.771849962697,-8502.40242509871,-20920.361092133655,0.0,0.0,0.0,193.0,1.0,155.0,0.0,44.0,3.0,252.0,411.0,44.0,1020.0,1744252815.82387,0.0,2025-04-09 22:40:15.823,FORWARD,30
205.0,12287.849162560602,1217.7900931584948,-59275.82046697384,-56137.38967625972,-33987.10149372834,-31249.839812498074,-8516.573431083374,-20947.473758157943,0.0,0.0,0.0,193.0,1.0,154.0,0.0,44.0,3.0,251.0,410.0,44.0,1019.0,1744252815.823917,0.0,2025-04-09 22:40:15.823,FORWARD,30
206.0,12317.018189074779,1193.2478777465676,-59276.98275768552,-56085.37716691222,-34038.175229808716,-31302.96990906834,-8389.123784199213,-20980.554339951796,0.0,0.0,0.0,193.0,1.0,155.0,0.0,44.0,3.0,252.0,411.0,44.0,1020.0,1744252815.8239439,0.0,2025-04-09 22:40:15.823,FORWARD,30
207.0,12405.195820950965,1220.4723024931316,-59280.35787109827,-56138.5519669714,-34022.305491245446,-31276.326629677613,-8573.704489911139,-20972.954746836993,0.0,0.0,0.0,193.0,1.0,155.0,0.0,44.0,3.0,252.0,411.0,44.0,1020.0,1744252815.8239698,0.0,2025-04-09 22:40:15.823,FORWARD,30
208.0,12370.058878667222,1239.1583608577682,-59227.16071929464,-56076.70469006356,-33954.914981712696,-31216.84863768204,-8549.318736710398,-20916.427185109518,0.0,0.0,0.0,193.0,1.0,155.0,0.0,44.0,3.0,250.0,411.0,44.0,1018.0,1744252815.823996,0.0,2025-04-09 22:40:15.823,FORWARD,30
209.0,12298.086261521134,1226.1272938403242,-59271.81950471634,-56134.08161808034,-33980.01599073601,-31250.264495642725,-8481.302378332899,-20952.346438449196,0.0,0.0,0.0,193.0,1.0,155.0,0.0,44.0,3.0,251.0,411.0,44.0,1019.0,1744252815.82402,0.0,2025-04-09 22:40:15.824,FORWARD,30
210.0,12305.037654046733,1204.2896395074893,-59267.97500467003,-56093.13322223821,-34018.61745341033,-31285.803769326663,-8434.162549276656,-20974.67583116005,0.0,0.0,0.0,193.0,1.0,155.0,0.0,44.0,3.0,252.0,411.0,44.0,1020.0,1744252815.824036,0.0,2025-04-09 22:40:15.824,FORWARD,30
211.0,12409.487355886384,1227.848378163383,-59280.73785075401,-56117.96601032806,-34032.54259020598,-31280.95344077986,-8489.103137147802,-20969.557281679783,0.0,0.0,0.0,193.0,1.0,155.0,0.0,44.0,3.0,249.0,411.0,44.0,1017.0,1744252815.8240514,0.0,2025-04-09 22:40:15.824,FORWARD,30
212.0,12376.250311881342,1241.6617562367626,-59235.363809509734,-56091.68035884862,-33962.894554483246,-31212.64650972444,-8606.494499027074,-20910.258103639855,0.0,0.0,0.0,193.0,1.0,154.0,0.0,44.0,3.0,251.0,410.0,44.0,1019.0,1744252815.824067,0.0,2025-04-09 22:40:15.824,FORWARD,30
213.0,12314.827718118158,1235.135046855813,-59271.28306284941,-56120.31294349587,-33983.94989776014,-31241.45790832733,-8456.380183265232,-20935.47087138544,0.0,0.0,0.0,193.0,1.0,154.0,0.0,44.0,3.0,251.0,410.0,44.0,1019.0,1744252815.8240826,0.0,2025-04-09 22:40:15.824,FORWARD,30
214.0,12292.0512905182,1198.2546685045563,-59283.956501955574,-56119.91061209567,-34024.339499990885,-31288.664792616943,-8490.06426215938,-20986.924587121557,0.0,0.0,0.0,193.0,1.0,155.0,0.0,44.0,3.0,250.0,411.0,44.0,1018.0,1744252815.8241343,0.0,2025-04-09 22:40:15.824,FORWARD,30
215.0,12406.067538984722,1215.0631803349472,-59289.05269969138,-56107.5948009008,-34047.65236945777,-31309.407211471465,-8424.551299160874,-20997.385203526643,0.0,0.0,0.0,193.0,1.0,154.0,0.0,44.0,3.0,250.0,410.0,44.0,1018.0,1744252815.8241503,0.0,2025-04-09 22:40:15.824,FORWARD,30
216.0,12389.035509709778,1233.10103811038,-59243.36573402474,-56111.126376524735,-33964.68269403967,-31223.330643574078,-8653.85784552787,-20922.395100879086,0.0,0.0,0.0,193.0,1.0,154.0,0.0,44.0,3.0,251.0,410.0,44.0,1019.0,1744252815.824166,0.0,2025-04-09 22:40:15.824,FORWARD,30
217.0,12331.882099137558,1238.3089945684667,-59265.44925754658,-56105.6949026221,-33979.323086657896,-31243.022530439204,-8442.678563914129,-20939.248316198387,0.0,0.0,0.0,193.0,1.0,155.0,0.0,44.0,3.0,251.0,411.0,44.0,1019.0,1744252815.8241813,0.0,2025-04-09 22:40:15.824,FORWARD,30
218.0,12276.785049055225,1195.8630318478386,-59287.35396711278,-56138.06022859338,-34017.07518304291,-31285.401437926466,-8525.670591076683,-20985.047040587313,0.0,0.0,0.0,193.0,1.0,154.0,0.0,45.0,3.0,250.0,410.0,45.0,1018.0,1744252815.8241968,0.0,2025-04-09 22:40:15.824,FORWARD,30
219.0,12376.45147758144,1201.8532993618608,-59288.784478757916,-56095.614265872755,-34057.84476492939,-31317.16326679746,-8375.511571825931,-20999.933302394547,0.0,0.0,0.0,193.0,1.0,154.0,0.0,44.0,3.0,250.0,410.0,44.0,1018.0,1744252815.824212,0.0,2025-04-09 22:40:15.824,FORWARD,30
220.0,12389.817820765713,1219.488825737098,-59250.80886492835,-56130.48298722303,-33974.80803427792,-31234.730033246284,-8672.633310870327,-20938.443653397997,0.0,0.0,0.0,193.0,1.0,155.0,0.0,44.0,3.0,251.0,411.0,44.0,1019.0,1744252815.8242276,0.0,2025-04-09 22:40:15.824,FORWARD,30
221.0,12331.099788081621,1222.0592763494583,-59255.860359175254,-56096.75420483997,-33973.17635693269,-31247.4258240969,-8429.915717830148,-20945.506804645873,0.0,0.0,0.0,193.0,1.0,154.0,0.0,44.0,3.0,249.0,410.0,44.0,1017.0,1744252815.8242428,0.0,2025-04-09 22:40:15.824,FORWARD,30
222.0,12263.150484937489,1184.2177729866235,-59288.73977526901,-56151.605385733295,-34008.26859572752,-31277.71243783384,-8525.983515499058,-20976.95570909449,0.0,0.0,0.0,193.0,1.0,154.0,0.0,44.0,3.0,251.0,410.0,44.0,1019.0,1744252815.8242583,0.0,2025-04-09 22:40:15.824,FORWARD,30
223.0,12357.631308750071,1193.4713951911206,-59280.51433330945,-56080.996224998984,-34048.658197958255,-31310.48009520532,-8353.338641326267,-20997.11698259318,0.0,0.0,0.0,193.0,1.0,155.0,0.0,44.0,3.0,251.0,411.0,44.0,1019.0,1744252815.8242736,0.0,2025-04-09 22:40:15.824,FORWARD,30
224.0,12400.144326704065,1221.9475176271817,-59259.32487956582,-56137.72495242655,-33978.16079594622,-31238.32866410359,-8656.182426951222,-20943.830423811727,0.0,0.0,0.0,193.0,1.0,154.0,0.0,44.0,3.0,252.0,410.0,44.0,1020.0,1744252815.824289,0.0,2025-04-09 22:40:15.824,FORWARD,30
225.0,12345.896642911035,1229.4353520197096,-59248.0819521048,-56083.61137910025,-33960.14528991524,-31233.61244602352,-8448.825293639338,-20932.498089372886,0.0,0.0,0.0,193.0,1.0,154.0,0.0,45.0,3.0,250.0,410.0,45.0,1018.0,1744252815.8243046,0.0,2025-04-09 22:40:15.824,FORWARD,30
226.0,12280.584845612628,1210.7716453995283,-59284.247074633495,-56147.000926375506,-33985.08983672736,-31254.04194045567,-8518.607439828807,-20962.427075198542,0.0,0.0,0.0,193.0,1.0,155.0,0.0,44.0,3.0,251.0,411.0,44.0,1019.0,1744252815.82432,0.0,2025-04-09 22:40:15.824,FORWARD,30
227.0,12342.25330856482,1203.23910751809,-59276.200446629584,-56075.609454585254,-34033.45901172865,-31297.739600865796,-8357.18314137258,-20990.12088657867,0.0,0.0,0.0,193.0,1.0,155.0,0.0,44.0,3.0,252.0,411.0,44.0,1020.0,1744252815.8243356,0.0,2025-04-09 22:40:15.824,FORWARD,30
228.0,12405.352283162152,1220.0252676040254,-59274.63582451771,-56144.69869669661,-33996.28806069947,-31256.52298409021,-8604.304028070454,-20960.86245308667,0.0,0.0,0.0,193.0,1.0,155.0,0.0,44.0,3.0,250.0,411.0,44.0,1018.0,1744252815.8243608,0.0,2025-04-09 22:40:15.824,FORWARD,30
229.0,12365.879102454079,1234.0845148664137,-59232.793358897376,-56078.15755345316,-33950.7128537551,-31216.98274814877,-8480.788288210428,-20911.19687690698,0.0,0.0,0.0,193.0,1.0,155.0,0.0,44.0,3.0,252.0,411.0,44.0,1020.0,1744252815.8243766,0.0,2025-04-09 22:40:15.824,FORWARD,30
230.0,12296.43223243144,1216.9630786136483,-59273.22766461703,-56140.38481001673,-33977.80316803493,-31244.922428717906,-8477.703747475594,-20939.9412202765,0.0,0.0,0.0,193.0,1.0,155.0,0.0,44.0,3.0,252.0,411.0,44.0,1020.0,1744252815.824392,0.0,2025-04-09 22:40:15.824,FORWARD,30
231.0,12313.754834384303,1195.4383487031876,-59273.87586520623,-56087.500582635475,-34027.71461340364,-31292.19636824088,-8378.909036983137,-20982.565996952773,0.0,0.0,0.0,193.0,1.0,154.0,0.0,44.0,3.0,249.0,410.0,44.0,1017.0,1744252815.8244076,0.0,2025-04-09 22:40:15.824,FORWARD,30
232.0,12401.59719009366,1220.4052472597657,-59280.98371994302,-56133.142844813214,-34020.33853773338,-31275.320801177124,-8529.246870189532,-20994.926511636557,0.0,0.0,0.0,193.0,1.0,155.0,0.0,44.0,3.0,252.0,411.0,44.0,1020.0,1744252815.8244228,0.0,2025-04-09 22:40:15.824,FORWARD,30
233.0,12360.380573318074,1225.6132037178522,-59234.3803327537,-56082.65025408867,-33960.39115910425,-31213.451172524834,-8548.134094254267,-20928.81005153776,0.0,0.0,0.0,193.0,1.0,154.0,0.0,44.0,3.0,250.0,410.0,44.0,1018.0,1744252815.824438,0.0,2025-04-09 22:40:15.824,FORWARD,30
234.0,12297.57217139866,1216.8736716358271,-59271.037193660406,-56123.643353419706,-33983.435807637674,-31232.40545182293,-8454.927319875636,-20930.754653305372,0.0,0.0,0.0,193.0,1.0,154.0,0.0,45.0,3.0,251.0,410.0,45.0,1019.0,1744252815.8244534,0.0,2025-04-09 22:40:15.824,FORWARD,30
235.0,12294.554685897194,1190.5433166674754,-59271.39482157169,-56097.558867640364,-34023.356023234846,-31278.89708028997,-8438.543491189897,-20976.48632246093,0.0,0.0,0.0,193.0,1.0,155.0,0.0,44.0,3.0,251.0,411.0,44.0,1019.0,1744252815.8244689,0.0,2025-04-09 22:40:15.824,FORWARD,30
236.0,12410.068501242222,1219.9805641151147,-59269.137295381704,-56106.1419375112,-34027.602854681354,-31278.941783778882,-8464.62797696924,-20985.96346210998,0.0,0.0,0.0,193.0,1.0,155.0,0.0,44.0,3.0,250.0,411.0,44.0,1018.0,1744252815.824484,0.0,2025-04-09 22:40:15.824,FORWARD,30
237.0,12379.714832271915,1235.5597300004638,-59217.616524412224,-56082.1361639662,-33946.0636909084,-31199.436628751355,-8594.022225621013,-20902.032661680303,0.0,0.0,0.0,193.0,1.0,154.0,0.0,44.0,3.0,249.0,410.0,44.0,1017.0,1744252815.8244991,0.0,2025-04-09 22:40:15.824,FORWARD,30
238.0,12315.006532073801,1229.8600351643604,-59254.25103357447,-56105.24786773299,-33965.733226029064,-31226.90692268693,-8415.185918234101,-20922.95389449047,0.0,0.0,0.0,193.0,1.0,155.0,0.0,44.0,3.0,251.0,411.0,44.0,1019.0,1744252815.8245149,0.0,2025-04-09 22:40:15.824,FORWARD,30
239.0,12282.127115980044,1194.588982413886,-59269.696088993085,-56114.05445504838,-34009.14031376127,-31269.24112668528,-8473.859247429282,-20971.837159614224,0.0,0.0,0.0,193.0,1.0,155.0,0.0,44.0,3.0,251.0,411.0,44.0,1019.0,1744252815.8245301,0.0,2025-04-09 22:40:15.824,FORWARD,30
240.0,12399.719643559414,1217.1865960582013,-59270.03136515991,-56091.3897861707,-34031.91674136123,-31295.057391531158,-8380.94304572857,-20996.893465148623,0.0,0.0,0.0,193.0,1.0,154.0,0.0,44.0,3.0,249.0,410.0,44.0,1017.0,1744252815.8245456,0.0,2025-04-09 22:40:15.824,FORWARD,30
241.0,12390.890704499569,1229.1894828307013,-59230.64759142967,-56107.080710778326,-33950.10935665481,-31211.2159980793,-8620.486691056096,-20920.47285085593,0.0,0.0,0.0,193.0,1.0,154.0,0.0,44.0,3.0,251.0,410.0,44.0,1019.0,1744252815.824561,0.0,2025-04-09 22:40:15.824,FORWARD,30
242.0,12331.345657270629,1229.9270903977265,-59252.8875771627,-56096.798908328885,-33965.35324637333,-31232.98659717877,-8397.952723259059,-20935.917906274546,0.0,0.0,0.0,193.0,1.0,154.0,0.0,44.0,3.0,251.0,410.0,44.0,1019.0,1744252815.8245764,0.0,2025-04-09 22:40:15.824,FORWARD,30
243.0,12275.488647876817,1193.4043399577547,-59277.049812918885,-56131.80174014589,-34000.3784299348,-31265.597792339064,-8498.1555936522,-20973.53589219283,0.0,0.0,0.0,193.0,1.0,154.0,0.0,45.0,3.0,250.0,410.0,45.0,1018.0,1744252815.8246,0.0,2025-04-09 22:40:15.824,FORWARD,30
244.0,12383.536980573772,1209.6317064323075,-59274.12173439524,-56076.97291099703,-34045.0372153565,-31303.036964301704,-8353.852731448738,-21010.237456588442,0.0,0.0,0.0,193.0,1.0,154.0,0.0,44.0,3.0,251.0,410.0,44.0,1019.0,1744252815.8246152,0.0,2025-04-09 22:40:15.824,FORWARD,30
245.0,12391.807126022235,1219.9358606262042,-59254.943937652584,-56130.68415292313,-33983.83813903786,-31231.824306467093,-8671.314557947464,-20951.921755304546,0.0,0.0,0.0,193.0,1.0,154.0,0.0,44.0,3.0,252.0,410.0,44.0,1020.0,1744252815.8246305,0.0,2025-04-09 22:40:15.824,FORWARD,30
246.0,12339.325230041175,1229.5247589975309,-59248.663097460645,-56087.500582635475,-33965.755577773525,-31237.591056536563,-8416.415264179142,-20933.660380084562,0.0,0.0,0.0,193.0,1.0,154.0,0.0,45.0,3.0,250.0,410.0,45.0,1018.0,1744252815.8246458,0.0,2025-04-09 22:40:15.824,FORWARD,30
247.0,12278.841409545113,1206.167186041735,-59271.48422854951,-56134.66276343617,-33986.58740360587,-31254.1760509224,-8497.105061662802,-20948.680752358527,0.0,0.0,0.0,193.0,1.0,153.0,0.0,45.0,3.0,249.0,409.0,45.0,1017.0,1744252815.8246615,0.0,2025-04-09 22:40:15.824,FORWARD,30
248.0,12365.812047220714,1207.3071250089556,-59261.26948133344,-56062.109000934244,-34025.25592151355,-31296.733772365307,-8320.906260121616,-20976.016935827367,0.0,0.0,0.0,193.0,1.0,154.0,0.0,44.0,3.0,251.0,410.0,44.0,1019.0,1744252815.8246756,0.0,2025-04-09 22:40:15.824,FORWARD,30
249.0,12413.756539077347,1225.8367211624052,-59246.80790267085,-56124.403312731185,-33965.44265335115,-31231.578437278087,-8615.926935187214,-20923.04330146829,0.0,0.0,0.0,193.0,1.0,154.0,0.0,44.0,3.0,249.0,410.0,44.0,1017.0,1744252815.8246844,0.0,2025-04-09 22:40:15.824,FORWARD,30
250.0,12359.0171169063,1234.5315497555198,-59227.965382095026,-56061.66196604514,-33943.62735076277,-31217.072155126592,-8428.753427118472,-20899.641025023586,0.0,0.0,0.0,193.0,1.0,155.0,0.0,44.0,3.0,251.0,411.0,44.0,1019.0,1744252815.8246932,0.0,2025-04-09 22:40:15.824,FORWARD,30
251.0,12289.14556373901,1214.7949594014835,-59265.80688545787,-56123.95627784208,-33971.49997609854,-31239.37919609299,-8489.460765059086,-20926.016083480845,0.0,0.0,0.0,193.0,1.0,155.0,0.0,44.0,3.0,250.0,411.0,44.0,1018.0,1744252815.824702,0.0,2025-04-09 22:40:15.824,FORWARD,30
252.0,12337.447683506929,1209.0282093320143,-59262.54353076739,-56054.5317595639,-34021.25495925605,-31289.38004843951,-8351.103466880735,-20964.125807777145,0.0,0.0,0.0,193.0,1.0,154.0,0.0,44.0,3.0,249.0,410.0,44.0,1017.0,1744252815.8247108,0.0,2025-04-09 22:40:15.824,FORWARD,30
253.0,12407.296884929763,1221.1428548267907,-59267.6397285032,-56117.831899861325,-33989.046095495956,-31256.634742812486,-8571.089335809867,-20946.646743613095,0.0,0.0,0.0,193.0,1.0,154.0,0.0,44.0,3.0,251.0,410.0,44.0,1019.0,1744252815.8247197,0.0,2025-04-09 22:40:15.824,FORWARD,30
254.0,12361.319346585196,1229.7706281865392,-59231.16168155214,-56056.72223052052,-33941.72745248407,-31217.452134782332,-8480.453012043597,-20897.964644189437,0.0,0.0,0.0,193.0,1.0,155.0,0.0,44.0,3.0,252.0,411.0,44.0,1020.0,1744252815.8247285,0.0,2025-04-09 22:40:15.824,FORWARD,30
255.0,12302.53425866774,1226.8649014073494,-59266.16451336915,-56106.1419375112,-33960.34645561534,-31236.652283269443,-8467.91368340417,-20922.171583434534,0.0,0.0,0.0,193.0,1.0,154.0,0.0,45.0,3.0,250.0,410.0,45.0,1018.0,1744252815.8247373,0.0,2025-04-09 22:40:15.824,FORWARD,30
0.0,12320.259192020798,1204.4013982297658,-59262.63293774521,-56052.72126826302,-34005.42992418169,-31280.014667512736,-8383.491144596475,-20951.877051815638,0.0,0.0,0.0,193.0,1.0,154.0,0.0,44.0,3.0,251.0,410.0,44.0,1019.0,1744252815.8247457,0.0,2025-04-09 22:40:15.824,FORWARD,30
1.0,12414.963533277934,1227.8260264189275,-59271.41717331615,-56088.66287334715,-34000.8254648239,-31264.457853371845,-8496.30039886241,-20942.109339488667,0.0,0.0,0.0,193.0,1.0,155.0,0.0,44.0,3.0,252.0,411.0,44.0,1020.0,1744252815.8247545,0.0,2025-04-09 22:40:15.824,FORWARD,30
2.0,12374.775096747291,1240.2535963360783,-59228.926507106604,-56045.412247826134,-33938.44174604914,-31204.532826487164,-8547.68705936516,-20884.66535623853,0.0,0.0,0.0,193.0,1.0,154.0,0.0,44.0,3.0,249.0,410.0,44.0,1017.0,1744252815.824768,0.0,2025-04-09 22:40:15.824,FORWARD,30
3.0,12316.347636741119,1240.2088928471676,-59262.83410344531,-56077.509352863955,-33959.72060677059,-31230.103222144036,-8443.863206370259,-20910.302807128766,0.0,0.0,0.0,193.0,1.0,153.0,0.0,44.0,3.0,249.0,409.0,44.0,1017.0,1744252815.8247766,0.0,2025-04-09 22:40:15.824,FORWARD,30
4.0,12299.852049333102,1203.8426046183831,-59271.61833901624,-56057.14691366517,-34004.87113057031,-31272.750350564762,-8441.605680180273,-20944.18805172301,0.0,0.0,0.0,193.0,1.0,154.0,0.0,44.0,3.0,252.0,410.0,44.0,1020.0,1744252815.8247857,0.0,2025-04-09 22:40:15.824,FORWARD,30
5.0,12409.129727975098,1225.166168828746,-59279.4414495756,-56060.924358478114,-34020.04796505546,-31282.696876847374,-8426.317086972844,-20957.353229207187,0.0,0.0,0.0,193.0,1.0,154.0,0.0,44.0,3.0,249.0,410.0,44.0,1017.0,1744252815.8247945,0.0,2025-04-09 22:40:15.824,FORWARD,30
6.0,12378.26196888232,1230.3070700534668,-59239.05184734486,-56056.05167818686,-33944.78964147445,-31217.69800397134,-8601.018321635524,-20908.89464722808,0.0,0.0,0.0,193.0,1.0,154.0,0.0,44.0,3.0,249.0,410.0,44.0,1017.0,1744252815.824803,0.0,2025-04-09 22:40:15.824,FORWARD,30
