Sample Index,EXG Channel 0,EXG Channel 1,EXG Channel 2,EXG Channel 3,EXG Channel 4,EXG Channel 5,EXG Channel 6,EXG Channel 7,Accel Channel 0,Accel Channel 1,Accel Channel 2,Not Used,Digital Channel 0 (D11),Digital Channel 1 (D12),Digital Channel 2 (D13),Digital Channel 3 (D17),Not Used,Digital Channel 4 (D18),Analog Channel 0,Analog Channel 1,Analog Channel 2,Timestamp,Marker Channel,Timestamp (Formatted),Stimulus_Direction,Stimulus_Number
88.0,10829.554299063004,286.43760519476,-54521.64912481894,-50643.934386245535,-31335.089365850614,-28721.701052391658,-1324.6537833993177,-18539.408569265433,0.0,0.0,0.0,193.0,1.0,154.0,0.0,10.0,3.0,252.0,410.0,10.0,1020.0,1744252974.4508443,0.0,2025-04-09 22:42:54.450,FORWARD,50
89.0,10783.777926418536,297.88169835587723,-54548.091238509565,-50665.16854347808,-31345.572334000153,-28738.755433411057,-1290.1873934492344,-18548.461025769833,0.0,0.0,0.0,193.0,1.0,154.0,0.0,9.0,3.0,249.0,410.0,9.0,1017.0,1744252974.4508529,0.0,2025-04-09 22:42:54.450,FORWARD,50
90.0,10765.181275031719,260.33076767096134,-54549.23117747679,-50653.81385729479,-31379.54698557222,-28772.484215794113,-1303.2855157000442,-18569.33755509109,0.0,0.0,0.0,193.0,1.0,154.0,0.0,8.0,3.0,251.0,410.0,8.0,1019.0,1744252974.4508612,0.0,2025-04-09 22:42:54.450,FORWARD,50
91.0,10868.491037904148,273.7641660886009,-54554.595596146064,-50650.505799115395,-31403.955090517415,-28789.203320646684,-1320.6975246307284,-18589.09649718958,0.0,0.0,0.0,193.0,1.0,154.0,0.0,8.0,3.0,252.0,410.0,8.0,1020.0,1744252974.45087,0.0,2025-04-09 22:42:54.450,FORWARD,50
92.0,10839.500825345616,278.4580324242154,-54530.1204359675,-50665.57087487828,-31345.460575277877,-28729.390052484283,-1355.4991907476415,-18543.968325134316,0.0,0.0,0.0,193.0,1.0,155.0,0.0,7.0,3.0,251.0,411.0,7.0,1019.0,1744252974.4508784,0.0,2025-04-09 22:42:54.450,FORWARD,50
93.0,10801.212287093675,300.31803850150567,-54541.74334308426,-50648.96352874798,-31345.885258422528,-28731.06643331843,-1282.5878003344299,-18535.00527560774,0.0,0.0,0.0,193.0,1.0,155.0,0.0,7.0,3.0,251.0,411.0,7.0,1019.0,1744252974.450887,0.0,2025-04-09 22:42:54.450,FORWARD,50
94.0,10762.387306974806,268.1538782303188,-54555.46731417982,-50665.056784755805,-31377.11064542659,-28757.8885266648,-1323.6479548988289,-18563.14612187697,0.0,0.0,0.0,193.0,1.0,155.0,0.0,6.0,3.0,252.0,411.0,6.0,1020.0,1744252974.4508955,0.0,2025-04-09 22:42:54.450,FORWARD,50
95.0,10864.9147587913,292.696093642246,-54548.20299723184,-50618.34163884421,-31407.35255567462,-28781.402561831783,-1300.7597685765945,-18586.593101810588,0.0,0.0,0.0,193.0,1.0,155.0,0.0,6.0,3.0,252.0,411.0,6.0,1020.0,1744252974.4509091,0.0,2025-04-09 22:42:54.450,FORWARD,50
96.0,10866.837008814457,312.72325667420114,-54519.63746781796,-50655.73610731794,-31339.090328108112,-28706.25599697304,-1366.3397868084655,-18531.18312730588,0.0,0.0,0.0,193.0,1.0,155.0,0.0,6.0,3.0,252.0,411.0,6.0,1020.0,1744252974.450918,0.0,2025-04-09 22:42:54.450,FORWARD,50
97.0,10833.28704038704,332.5492540060585,-54514.541270082154,-50612.30666784128,-31326.1933715574,-28706.837142328877,-1255.877465710338,-18519.515516700212,0.0,0.0,0.0,193.0,1.0,154.0,0.0,5.0,3.0,249.0,410.0,5.0,1017.0,1744252974.4509265,0.0,2025-04-09 22:42:54.450,FORWARD,50
98.0,10768.22111227764,284.47065168269296,-54553.43330543439,-50676.098546516725,-31368.415816833476,-28760.30251506597,-1328.9900218236473,-18587.509523333254,0.0,0.0,0.0,193.0,1.0,154.0,0.0,5.0,3.0,249.0,410.0,5.0,1017.0,1744252974.4509351,0.0,2025-04-09 22:42:54.450,FORWARD,50
99.0,10853.984755752654,287.9798755621762,-54535.61896510351,-50608.5962782617,-31398.098933470123,-28799.328660884938,-1281.581971833941,-18609.25777068827,0.0,0.0,0.0,193.0,1.0,154.0,0.0,5.0,3.0,249.0,410.0,5.0,1017.0,1744252974.4509437,0.0,2025-04-09 22:42:54.450,FORWARD,50
100.0,10864.825351813479,288.9186488292991,-54536.04364824816,-50683.161697764604,-31360.369188829565,-28732.6310554303,-1385.092900406468,-18536.90517388644,0.0,0.0,0.0,193.0,1.0,154.0,0.0,5.0,3.0,249.0,410.0,5.0,1017.0,1744252974.450952,0.0,2025-04-09 22:42:54.450,FORWARD,50
101.0,10819.160737891287,304.92249785929897,-54522.230270174776,-50627.95288896,-31342.10781360958,-28731.06643331843,-1284.3982916353098,-18529.10441507154,0.0,0.0,0.0,193.0,1.0,154.0,0.0,5.0,3.0,250.0,410.0,5.0,1018.0,1744252974.4509604,0.0,2025-04-09 22:42:54.450,FORWARD,50
102.0,10756.50879818306,274.4347184222601,-54559.065945037124,-50695.09752930373,-31367.141767399524,-28761.688323222203,-1335.941414349248,-18569.739886491287,0.0,0.0,0.0,193.0,1.0,155.0,0.0,4.0,3.0,253.0,411.0,4.0,1021.0,1744252974.4509687,0.0,2025-04-09 22:42:54.450,FORWARD,50
103.0,10828.727284518158,276.46872716769303,-54532.13209296848,-50610.07149339575,-31393.941509001437,-28792.913710226265,-1273.8482682524048,-18596.78549728221,0.0,0.0,0.0,193.0,1.0,155.0,0.0,4.0,3.0,252.0,411.0,4.0,1020.0,1744252974.4509776,0.0,2025-04-09 22:42:54.450,FORWARD,50
104.0,10860.444409900238,274.792346333545,-54551.60046238905,-50696.438633971055,-31376.77536925976,-28764.281125579015,-1382.4106910718313,-18580.87105523003,0.0,0.0,0.0,193.0,1.0,155.0,0.0,4.0,3.0,251.0,411.0,4.0,1019.0,1744252974.450986,0.0,2025-04-09 22:42:54.450,FORWARD,50
105.0,10818.937220446733,288.9186488292991,-54515.32358113809,-50630.657450039085,-31330.73077568183,-28731.759337396546,-1279.905590999793,-18535.184089563383,0.0,0.0,0.0,193.0,1.0,155.0,0.0,4.0,3.0,251.0,411.0,4.0,1019.0,1744252974.4509945,0.0,2025-04-09 22:42:54.450,FORWARD,50
106.0,10768.779905889023,280.9167243142992,-54546.81718907561,-50685.93331407706,-31348.54511601271,-28749.238401560593,-1311.6227163818737,-18551.813787438132,0.0,0.0,0.0,193.0,1.0,155.0,0.0,4.0,3.0,251.0,411.0,4.0,1019.0,1744252974.451003,0.0,2025-04-09 22:42:54.451,FORWARD,50
107.0,10807.04609239651,273.7865178330562,-54526.87943302148,-50614.27362135334,-31383.793817018726,-28777.22278561864,-1274.6976345417065,-18565.068371900128,0.0,0.0,0.0,193.0,1.0,154.0,0.0,4.0,3.0,249.0,410.0,4.0,1017.0,1744252974.4510117,0.0,2025-04-09 22:42:54.451,FORWARD,50
108.0,10867.10522974792,282.213125492707,-54548.18064548739,-50677.6631686286,-31388.800607776717,-28761.688323222203,-1370.966597910714,-18571.997412681274,0.0,0.0,0.0,193.0,1.0,154.0,0.0,4.0,3.0,249.0,410.0,4.0,1017.0,1744252974.45102,0.0,2025-04-09 22:42:54.451,FORWARD,50
109.0,10828.369656606872,290.1703465187963,-54512.26139214771,-50633.02673495135,-31333.144764083,-28715.666081388725,-1307.8899750578375,-18528.05388308214,0.0,0.0,0.0,193.0,1.0,154.0,0.0,4.0,3.0,249.0,410.0,4.0,1017.0,1744252974.9027767,0.0,2025-04-09 22:42:54.902,FORWARD,50
110.0,10773.630234435825,280.6932068697461,-54555.69083162437,-50684.905133832115,-31353.082520137137,-28746.712654437146,-1306.7276843461616,-18557.28996482968,0.0,0.0,0.0,193.0,1.0,154.0,0.0,4.0,3.0,252.0,410.0,4.0,1020.0,1744252974.902851,0.0,2025-04-09 22:42:54.902,FORWARD,50
111.0,10772.55735070197,254.89929376832174,-54549.99113678827,-50649.03058398135,-31386.565433331187,-28782.430742076725,-1299.619829609374,-18583.57561630912,0.0,0.0,0.0,193.0,1.0,154.0,0.0,4.0,3.0,251.0,410.0,4.0,1019.0,1744252974.9028714,0.0,2025-04-09 22:42:54.902,FORWARD,50
112.0,10867.954596037222,277.02752077907576,-54553.053325778645,-50667.20255222351,-31389.381753132555,-28778.675649008233,-1338.4671614726976,-18588.649462300476,0.0,0.0,0.0,193.0,1.0,154.0,0.0,4.0,3.0,249.0,410.0,4.0,1017.0,1744252974.9028919,0.0,2025-04-09 22:42:54.902,FORWARD,50
113.0,10831.498900830615,281.922552814788,-54515.88237474947,-50652.24923518291,-31326.841572146604,-28721.857514602845,-1325.1678735217897,-18535.76523491922,0.0,0.0,0.0,193.0,1.0,154.0,0.0,3.0,3.0,250.0,410.0,3.0,1018.0,1744252974.902912,0.0,2025-04-09 22:42:54.902,FORWARD,50
114.0,10782.682690940224,291.1314715303745,-54543.88911055197,-50669.77300283587,-31342.934828154426,-28744.052796846965,-1293.3166376729773,-18555.323011317614,0.0,0.0,0.0,193.0,1.0,154.0,0.0,3.0,3.0,250.0,410.0,3.0,1018.0,1744252974.9029295,0.0,2025-04-09 22:42:54.902,FORWARD,50
115.0,10763.057859308465,263.0576804945088,-54544.15733148543,-50662.26281669889,-31372.886165724536,-28776.641640262802,-1312.8297105824604,-18583.665023286943,0.0,0.0,0.0,193.0,1.0,154.0,0.0,3.0,3.0,250.0,410.0,3.0,1018.0,1744252974.902939,0.0,2025-04-09 22:42:54.902,FORWARD,50
116.0,10864.154799479818,283.37541620438293,-54541.78804657317,-50640.06753445477,-31391.706334555907,-28783.436570577214,-1298.9939807646253,-18580.267558129737,0.0,0.0,0.0,193.0,1.0,154.0,0.0,3.0,3.0,249.0,410.0,3.0,1017.0,1744252974.902948,0.0,2025-04-09 22:42:54.902,FORWARD,50
117.0,10843.546491092025,290.5726779189918,-54510.74147352475,-50655.199665451015,-31326.77451691324,-28708.53587490748,-1336.5002079606304,-18524.634066180475,0.0,0.0,0.0,193.0,1.0,154.0,0.0,3.0,3.0,250.0,410.0,3.0,1018.0,1744252974.9029567,0.0,2025-04-09 22:42:54.902,FORWARD,50
118.0,10798.775946948046,299.26750651210625,-54525.80654928763,-50638.36880187617,-31333.569447227652,-28719.68939539068,-1267.0756896824469,-18533.44065349587,0.0,0.0,0.0,193.0,1.0,154.0,0.0,3.0,3.0,249.0,410.0,3.0,1017.0,1744252974.9029655,0.0,2025-04-09 22:42:54.902,FORWARD,50
119.0,10751.323193469429,263.52706712807026,-54545.94547104186,-50668.02956676836,-31363.520784797765,-28751.36181728385,-1312.2038617377118,-18565.828331211607,0.0,0.0,0.0,193.0,1.0,154.0,0.0,3.0,3.0,249.0,410.0,3.0,1017.0,1744252974.9029748,0.0,2025-04-09 22:42:54.902,FORWARD,50
120.0,10851.190787695741,278.97212254668744,-54534.65784009193,-50611.859632952175,-31390.365229888586,-28778.049800163484,-1271.7919077625165,-18583.4862093313,0.0,0.0,0.0,193.0,1.0,154.0,0.0,3.0,3.0,250.0,410.0,3.0,1018.0,1744252974.902984,0.0,2025-04-09 22:42:54.902,FORWARD,50
121.0,10848.039191727543,280.02265453608686,-54524.30898240912,-50668.633063868656,-31339.760880441772,-28714.459087188137,-1356.5720744814962,-18536.7263599308,0.0,0.0,0.0,193.0,1.0,154.0,0.0,3.0,3.0,249.0,410.0,3.0,1017.0,1744252974.9029925,0.0,2025-04-09 22:42:54.902,FORWARD,50
122.0,10812.94695293271,304.2519455256397,-54519.83863351806,-50623.7507610024,-31330.574313470643,-28720.404651213248,-1256.39155583281,-18531.250182539246,0.0,0.0,0.0,193.0,1.0,154.0,0.0,3.0,3.0,250.0,410.0,3.0,1018.0,1744252974.903001,0.0,2025-04-09 22:42:54.903,FORWARD,50
123.0,10753.871292337333,271.2607707096065,-54554.21561649032,-50684.16752626509,-31367.4546918219,-28751.987666128596,-1329.3476497349322,-18570.879825458505,0.0,0.0,0.0,193.0,1.0,154.0,0.0,3.0,3.0,250.0,410.0,3.0,1018.0,1744252974.90301,0.0,2025-04-09 22:42:54.903,FORWARD,50
124.0,10844.038229470043,284.06832028249744,-54522.565546341604,-50596.81690893375,-31385.73841878634,-28765.06343663495,-1260.0572419234804,-18558.072275885617,0.0,0.0,0.0,193.0,1.0,154.0,0.0,3.0,3.0,249.0,410.0,3.0,1017.0,1744252974.9030187,0.0,2025-04-09 22:42:54.903,FORWARD,50
125.0,10867.507561148115,287.309323228517,-54523.30315390863,-50672.56697089279,-31345.90761016698,-28721.812811113934,-1359.7013187052391,-18536.65930469743,0.0,0.0,0.0,193.0,1.0,154.0,0.0,3.0,3.0,249.0,410.0,3.0,1017.0,1744252974.9030335,0.0,2025-04-09 22:42:54.903,FORWARD,50
126.0,10823.586383293437,302.8214338805001,-54504.88531647746,-50614.00540041988,-31321.790077899706,-28711.7768778535,-1255.9221691992486,-18522.018912079206,0.0,0.0,0.0,193.0,1.0,154.0,0.0,3.0,3.0,250.0,410.0,3.0,1018.0,1744252974.9030423,0.0,2025-04-09 22:42:54.903,FORWARD,50
127.0,10762.722583141636,279.1509365023299,-54543.196206473855,-50683.00523555341,-31347.673397978953,-28742.510526479546,-1313.6567251273068,-18561.20152010936,0.0,0.0,0.0,193.0,1.0,154.0,0.0,3.0,3.0,252.0,410.0,3.0,1020.0,1744252974.903051,0.0,2025-04-09 22:42:54.903,FORWARD,50
128.0,10817.551412290504,277.5639626460031,-54526.05241847663,-50608.3951125616,-31383.905575741006,-28788.51041656857,-1265.6898815262177,-18596.405517626466,0.0,0.0,0.0,193.0,1.0,155.0,0.0,3.0,3.0,251.0,411.0,3.0,1019.0,1744252974.9030595,0.0,2025-04-09 22:42:54.903,FORWARD,50
129.0,10862.567825623491,286.30349472802817,-54543.26326170722,-50686.82738385527,-31368.460520322387,-28755.22866907462,-1364.484592018675,-18574.321994104623,0.0,0.0,0.0,193.0,1.0,155.0,0.0,3.0,3.0,252.0,411.0,3.0,1020.0,1744252974.9030683,0.0,2025-04-09 22:42:54.903,FORWARD,50
130.0,10824.279287371552,299.93805884576545,-54506.80756650062,-50623.05785692428,-31323.15353431148,-28713.63207264329,-1270.6072653063852,-18520.342531245056,0.0,0.0,0.0,193.0,1.0,155.0,0.0,3.0,3.0,252.0,411.0,3.0,1020.0,1744252974.903077,0.0,2025-04-09 22:42:54.903,FORWARD,50
131.0,10764.93540584271,283.77774760457845,-54551.578110644594,-50687.27441874438,-31349.506241024286,-28742.532878224003,-1302.5926116219298,-18542.49311000027,0.0,0.0,0.0,193.0,1.0,155.0,0.0,3.0,3.0,252.0,411.0,3.0,1020.0,1744252974.9030857,0.0,2025-04-09 22:42:54.903,FORWARD,50
132.0,10791.265760811062,266.32103518498366,-54537.16123547092,-50628.89166222711,-31385.06786645268,-28785.515282811557,-1285.001788735603,-18580.58048255211,0.0,0.0,0.0,193.0,1.0,155.0,0.0,3.0,3.0,251.0,411.0,3.0,1019.0,1744252974.9030943,0.0,2025-04-09 22:42:54.903,FORWARD,50
133.0,10870.502694905126,286.728177872679,-54545.49843615275,-50670.018872024884,-31378.764674516282,-28768.41619830325,-1357.577902981985,-18575.886616216496,0.0,0.0,0.0,193.0,1.0,155.0,0.0,3.0,3.0,251.0,411.0,3.0,1019.0,1744252974.9031029,0.0,2025-04-09 22:42:54.903,FORWARD,50
134.0,10833.085874686942,291.98083781967614,-54509.73564502426,-50632.57970006224,-31322.639444189008,-28726.730194894102,-1312.0921030154352,-18542.38135127799,0.0,0.0,0.0,193.0,1.0,155.0,0.0,3.0,3.0,252.0,411.0,3.0,1020.0,1744252974.9031117,0.0,2025-04-09 22:42:54.903,FORWARD,50
135.0,10777.295920526496,288.24809649563986,-54550.28170946619,-50670.35414819171,-31345.795851444705,-28747.45026200417,-1301.6314866103514,-18543.834214667586,0.0,0.0,0.0,193.0,1.0,154.0,0.0,3.0,3.0,250.0,410.0,3.0,1018.0,1744252974.9031208,0.0,2025-04-09 22:42:54.903,FORWARD,50
136.0,10770.098658811887,259.9060845263105,-54548.89590130996,-50638.97229897646,-31385.649011808517,-28784.88943396681,-1315.0201815390803,-18567.705877745855,0.0,0.0,0.0,193.0,1.0,155.0,0.0,3.0,3.0,251.0,411.0,3.0,1019.0,1744252974.9031296,0.0,2025-04-09 22:42:54.903,FORWARD,50
137.0,10860.980851767166,274.18884923325174,-54562.41870670542,-50654.35029916171,-31406.436134151954,-28802.50260859759,-1362.0482518730464,-18595.44439261489,0.0,0.0,0.0,193.0,1.0,155.0,0.0,3.0,3.0,251.0,411.0,3.0,1019.0,1744252974.9031384,0.0,2025-04-09 22:42:54.903,FORWARD,50
138.0,10838.897328245323,287.9798755621762,-54516.217650916304,-50637.720601286965,-31322.550037211186,-28731.5805234409,-1337.1037050609239,-18528.120938315504,0.0,0.0,0.0,193.0,1.0,155.0,0.0,3.0,3.0,251.0,411.0,3.0,1019.0,1744252974.9031472,0.0,2025-04-09 22:42:54.903,FORWARD,50
139.0,10791.511630000072,299.7145414012124,-54537.205938959836,-50637.586490820235,-31323.30999652267,-28747.562020726447,-1263.0970791694022,-18531.205479050335,0.0,0.0,0.0,193.0,1.0,155.0,0.0,3.0,3.0,249.0,411.0,3.0,1017.0,1744252974.9031558,0.0,2025-04-09 22:42:54.903,FORWARD,50
140.0,10752.753705114568,262.2530176941178,-54554.886168823985,-50647.33185140275,-31366.82884297715,-28790.656184036277,-1309.6334111253514,-18573.986717937794,0.0,0.0,0.0,193.0,1.0,155.0,0.0,3.0,3.0,251.0,411.0,3.0,1019.0,1744252974.9031696,0.0,2025-04-09 22:42:54.903,FORWARD,50
141.0,10854.76706680859,280.35793070291646,-54553.32154671211,-50617.04523766581,-31397.07075322518,-28813.54437035851,-1317.7694461070832,-18600.652349072978,0.0,0.0,0.0,193.0,1.0,154.0,0.0,3.0,3.0,248.0,410.0,3.0,1016.0,1744252974.9031785,0.0,2025-04-09 22:42:54.903,FORWARD,50
142.0,10840.014915468088,283.2413057376511,-54528.06407547761,-50641.67686005555,-31335.312883295166,-28735.26856127603,-1373.2017723562446,-18531.361941261523,0.0,0.0,0.0,193.0,1.0,154.0,0.0,2.0,3.0,249.0,410.0,2.0,1017.0,1744252974.903187,0.0,2025-04-09 22:42:54.903,FORWARD,50
143.0,10800.98876964912,303.64844842534643,-54531.528595868185,-50608.66333349507,-31327.132144824525,-28737.12375606582,-1277.2233816651562,-18519.4708132113,0.0,0.0,0.0,193.0,1.0,154.0,0.0,2.0,3.0,250.0,410.0,2.0,1018.0,1744252974.9031956,0.0,2025-04-09 22:42:54.903,FORWARD,50
144.0,10752.440780692194,269.5396863865479,-54556.2272734913,-50647.62242408066,-31360.235078362835,-28769.109102381364,-1323.938527576748,-18545.91292690193,0.0,0.0,0.0,193.0,1.0,155.0,0.0,2.0,3.0,252.0,411.0,2.0,1020.0,1744252974.9032047,0.0,2025-04-09 22:42:54.903,FORWARD,50
145.0,10860.600872111425,295.42300646579343,-54527.72879931078,-50571.380623743615,-31369.846328478616,-28784.107122910875,-1263.4323553362317,-18555.39006655098,0.0,0.0,0.0,193.0,1.0,155.0,0.0,2.0,3.0,251.0,411.0,2.0,1019.0,1744252974.903213,0.0,2025-04-09 22:42:54.903,FORWARD,50
146.0,10856.152874964819,292.986666320165,-54524.97953474278,-50634.434894852035,-31323.15353431148,-28723.444488459172,-1352.83933315746,-18513.413490463914,0.0,0.0,0.0,193.0,1.0,155.0,0.0,2.0,3.0,252.0,411.0,2.0,1020.0,1744252974.9032216,0.0,2025-04-09 22:42:54.903,FORWARD,50
147.0,10809.929467431244,305.23542228167327,-54527.348819655046,-50591.31837979775,-31320.42662148793,-28730.954674596152,-1260.906608212782,-18516.3192172431,0.0,0.0,0.0,193.0,1.0,155.0,0.0,2.0,3.0,252.0,411.0,2.0,1020.0,1744252974.9032302,0.0,2025-04-09 22:42:54.903,FORWARD,50
148.0,10746.875196322822,269.6737968532797,-54563.71510788383,-50653.79150555033,-31352.72489222585,-28757.46384352015,-1325.9278328332703,-18546.4270170244,0.0,0.0,0.0,193.0,1.0,155.0,0.0,2.0,3.0,251.0,411.0,2.0,1019.0,1744252974.9032388,0.0,2025-04-09 22:42:54.903,FORWARD,50
149.0,10819.920697202766,271.10430849841936,-54545.38667743048,-50574.375757500624,-31389.158235688003,-28788.421009590747,-1281.0231782225583,-18562.72143873232,0.0,0.0,0.0,193.0,1.0,154.0,0.0,2.0,3.0,249.0,410.0,2.0,1017.0,1744252974.903247,0.0,2025-04-09 22:42:54.903,FORWARD,50
150.0,10850.252014428617,283.82245109348906,-54545.721953597305,-50646.795409535815,-31350.042682891213,-28733.25690427505,-1379.3485020814542,-18527.65155168194,0.0,0.0,0.0,193.0,1.0,154.0,0.0,2.0,3.0,250.0,410.0,2.0,1018.0,1744252974.903256,0.0,2025-04-09 22:42:54.903,FORWARD,50
151.0,10812.924601188255,301.1674047908074,-54521.20208992984,-50581.46126049296,-31315.017499329748,-28715.643729644267,-1257.5538465444859,-18504.584551404067,0.0,0.0,0.0,193.0,1.0,154.0,0.0,2.0,3.0,249.0,410.0,2.0,1017.0,1744252974.9032648,0.0,2025-04-09 22:42:54.903,FORWARD,50
152.0,10750.473827180127,276.93811380125453,-54572.007605076746,-50657.74776431892,-31354.043645148715,-28751.473576006127,-1318.8870333298485,-18549.891537414973,0.0,0.0,0.0,193.0,1.0,154.0,0.0,2.0,3.0,249.0,410.0,2.0,1017.0,1744252974.9032807,0.0,2025-04-09 22:42:54.903,FORWARD,50
153.0,10802.03930163852,269.80790732001157,-54553.9250438124,-50583.51762098284,-31393.181549689958,-28784.93413745572,-1285.135899202335,-18560.061581142138,0.0,0.0,0.0,193.0,1.0,154.0,0.0,2.0,3.0,249.0,410.0,2.0,1017.0,1744252974.9032896,0.0,2025-04-09 22:42:54.903,FORWARD,50
154.0,10862.813694812501,282.213125492707,-54561.56934041612,-50648.74001130343,-31370.941563956927,-28754.871041163333,-1376.0180921576134,-18548.01399088073,0.0,0.0,0.0,193.0,1.0,154.0,0.0,2.0,3.0,250.0,410.0,2.0,1018.0,1744252974.9032984,0.0,2025-04-09 22:42:54.903,FORWARD,50
155.0,10817.931391946244,288.0245790510868,-54529.96397375631,-50596.325170555734,-31324.382880256522,-28725.322034993416,-1291.9084777722928,-18515.536906187168,0.0,0.0,0.0,193.0,1.0,154.0,0.0,2.0,3.0,252.0,410.0,2.0,1020.0,1744252974.903312,0.0,2025-04-09 22:42:54.903,FORWARD,50
156.0,10757.84990285038,277.8992388128327,-54571.69468065437,-50654.12678171716,-31347.78515670123,-28745.72917768111,-1307.5546988910078,-18532.412473250923,0.0,0.0,0.0,193.0,1.0,154.0,0.0,2.0,3.0,250.0,410.0,2.0,1018.0,1744252974.9033208,0.0,2025-04-09 22:42:54.903,FORWARD,50
157.0,10777.027699593033,265.89635204033283,-54553.545064156664,-50595.87813566663,-31376.417741348476,-28770.249041348583,-1282.6548555677957,-18552.90902291644,0.0,0.0,0.0,193.0,1.0,155.0,0.0,2.0,3.0,252.0,411.0,2.0,1020.0,1744252974.9033291,0.0,2025-04-09 22:42:54.903,FORWARD,50
158.0,10849.112075461397,276.46872716769303,-54574.309834755644,-50643.82262752326,-31389.426456621466,-28768.30443958097,-1354.4263070137868,-18560.19569160887,0.0,0.0,0.0,193.0,1.0,155.0,0.0,2.0,3.0,252.0,411.0,2.0,1020.0,1744252974.903338,0.0,2025-04-09 22:42:54.903,FORWARD,50
159.0,10820.077159413953,282.5484016595366,-54540.64810760595,-50620.12977840064,-31336.989264129315,-28726.43962221618,-1332.9909840811472,-18528.29975227115,0.0,0.0,0.0,193.0,1.0,155.0,0.0,2.0,3.0,252.0,411.0,2.0,1020.0,1744252974.9033465,0.0,2025-04-09 22:42:54.903,FORWARD,50
160.0,10773.004385591077,282.6601603818131,-54574.443945222374,-50654.12678171716,-31350.288552080223,-28752.412349273247,-1305.3418761899325,-18559.636897997487,0.0,0.0,0.0,193.0,1.0,155.0,0.0,2.0,3.0,249.0,411.0,2.0,1017.0,1744252974.9033554,0.0,2025-04-09 22:42:54.903,FORWARD,50
161.0,10755.45826619366,254.20638969020723,-54575.31566325613,-50637.07240069776,-31387.83948276514,-28785.85055897839,-1315.7801408505609,-18594.550322836676,0.0,0.0,0.0,193.0,1.0,154.0,0.0,2.0,3.0,249.0,410.0,2.0,1017.0,1744252974.9033637,0.0,2025-04-09 22:42:54.903,FORWARD,50
162.0,10851.77193305158,269.986721275654,-54579.696605169374,-50633.56317681828,-31406.413782407497,-28780.08380890892,-1330.8899201023485,-18562.72143873232,0.0,0.0,0.0,193.0,1.0,154.0,0.0,2.0,3.0,250.0,410.0,2.0,1018.0,1744252974.9033723,0.0,2025-04-09 22:42:54.903,FORWARD,50
163.0,10830.00133395211,281.2520004811288,-54536.982421515284,-50626.745894759406,-31328.58500821412,-28704.557264394436,-1334.1532747928234,-18488.334833185058,0.0,0.0,0.0,193.0,1.0,155.0,0.0,2.0,3.0,252.0,411.0,2.0,1020.0,1744252974.9033809,0.0,2025-04-09 22:42:54.903,FORWARD,50
164.0,10781.341586272907,290.8632505969108,-54561.099953782556,-50628.82460699375,-31339.805583930683,-28728.384223983794,-1279.5703148329635,-18518.532039944177,0.0,0.0,0.0,193.0,1.0,155.0,0.0,2.0,3.0,249.0,411.0,2.0,1017.0,1744252974.9033892,0.0,2025-04-09 22:42:54.903,FORWARD,50
165.0,10736.526338640017,250.25013092161788,-54583.608160449054,-50653.61269159469,-31380.77633151726,-28768.527957025526,-1321.904518831315,-18554.652458983954,0.0,0.0,0.0,193.0,1.0,155.0,0.0,2.0,3.0,252.0,411.0,2.0,1020.0,1744252974.9033985,0.0,2025-04-09 22:42:54.903,FORWARD,50
166.0,10835.52221483257,267.68449159675737,-54580.881247625504,-50619.123949900146,-31411.711145843405,-28793.673669537744,-1311.1086262594017,-18579.149970906972,0.0,0.0,0.0,193.0,1.0,155.0,0.0,2.0,3.0,252.0,411.0,2.0,1020.0,1744252974.903407,0.0,2025-04-09 22:42:54.903,FORWARD,50
167.0,10830.627182796858,275.46289866720423,-54557.188398502876,-50657.07721198526,-31351.182621858436,-28726.171401282718,-1389.0715109195128,-18540.95083963285,0.0,0.0,0.0,193.0,1.0,155.0,0.0,2.0,3.0,251.0,411.0,2.0,1019.0,1744252974.903416,0.0,2025-04-09 22:42:54.903,FORWARD,50
168.0,10787.13068808683,284.85063133843323,-54565.61500616253,-50628.556386060285,-31344.186525843925,-28739.560096211448,-1292.9590097616924,-18545.979982135294,0.0,0.0,0.0,193.0,1.0,154.0,0.0,2.0,3.0,249.0,410.0,2.0,1017.0,1744252974.9034245,0.0,2025-04-09 22:42:54.903,FORWARD,50
169.0,10742.382495687307,257.4697443806821,-54581.4847447258,-50666.3084824453,-31361.10679639659,-28753.574639984923,-1324.7208386326836,-18543.543641989665,0.0,0.0,0.0,193.0,1.0,154.0,0.0,2.0,3.0,250.0,410.0,2.0,1018.0,1744252974.903433,0.0,2025-04-09 22:42:54.903,FORWARD,50
170.0,10841.847758513422,285.4988319276371,-54553.38860194547,-50586.66921695104,-31383.615003063085,-28775.389942573303,-1269.9367129727261,-18555.926508417906,0.0,0.0,0.0,193.0,1.0,154.0,0.0,2.0,3.0,249.0,410.0,2.0,1017.0,1744252974.9034464,0.0,2025-04-09 22:42:54.903,FORWARD,50
171.0,10847.592156838436,287.17521276178513,-54551.46635192232,-50656.69723232952,-31342.510145009775,-28719.957616324144,-1370.676025232795,-18518.129708543984,0.0,0.0,0.0,193.0,1.0,154.0,0.0,2.0,3.0,249.0,410.0,2.0,1017.0,1744252974.9034548,0.0,2025-04-09 22:42:54.903,FORWARD,50
172.0,10800.385272548829,290.4832709411706,-54548.292404209664,-50611.18908061851,-31333.144764083,-28727.423098972216,-1274.876448497349,-18520.27547601169,0.0,0.0,0.0,193.0,1.0,155.0,0.0,2.0,3.0,252.0,411.0,2.0,1020.0,1744252974.9034634,0.0,2025-04-09 22:42:54.903,FORWARD,50
173.0,10743.231861976608,261.44835489372673,-54582.60233194856,-50675.58445639425,-31361.44207256342,-28755.16161384125,-1335.1143998044015,-18551.09853161556,0.0,0.0,0.0,193.0,1.0,155.0,0.0,2.0,3.0,252.0,411.0,2.0,1020.0,1744252974.9034724,0.0,2025-04-09 22:42:54.903,FORWARD,50
174.0,10816.411473323284,267.90800904131044,-54559.51297992623,-50592.838298420706,-31392.265128167288,-28789.158617157773,-1276.5304775870416,-18570.745714991775,0.0,0.0,0.0,193.0,1.0,155.0,0.0,2.0,3.0,251.0,411.0,2.0,1019.0,1744252974.9034808,0.0,2025-04-09 22:42:54.903,FORWARD,50
175.0,10852.19661619623,279.70973011371257,-54563.44688695036,-50666.666110356586,-31357.910496939483,-28742.801099157467,-1379.4379090592754,-18546.181147835392,0.0,0.0,0.0,193.0,1.0,154.0,0.0,2.0,3.0,250.0,410.0,2.0,1018.0,1744252974.9034896,0.0,2025-04-09 22:42:54.903,FORWARD,50
176.0,10813.125766888354,296.94292508875435,-54533.696715080354,-50600.84022293571,-31321.231284288322,-28715.084936032887,-1276.6422363093182,-18514.75459513123,0.0,0.0,0.0,193.0,1.0,154.0,0.0,2.0,3.0,250.0,410.0,2.0,1018.0,1744252974.9034982,0.0,2025-04-09 22:42:54.903,FORWARD,50
177.0,10748.484521923605,269.80790732001157,-54579.65190168046,-50673.371633693176,-31352.3002090812,-28748.6349044603,-1323.8267688544713,-18550.85266242655,0.0,0.0,0.0,193.0,1.0,154.0,0.0,2.0,3.0,250.0,410.0,2.0,1018.0,1744252974.9035068,0.0,2025-04-09 22:42:54.903,FORWARD,50
178.0,10791.310464299973,262.7671078165898,-54562.10578228305,-50601.95781015847,-31389.24764266582,-28788.68923052421,-1293.4283963952537,-18586.347232621578,0.0,0.0,0.0,193.0,1.0,154.0,0.0,2.0,3.0,249.0,410.0,2.0,1017.0,1744252974.903515,0.0,2025-04-09 22:42:54.903,FORWARD,50
179.0,10862.456066901215,281.38611094786063,-54571.80643937665,-50660.49702888692,-31378.36234311609,-28761.64361973329,-1386.8586882184372,-18574.34434584908,0.0,0.0,0.0,193.0,1.0,154.0,0.0,2.0,3.0,250.0,410.0,2.0,1018.0,1744252974.903524,0.0,2025-04-09 22:42:54.903,FORWARD,50
180.0,10828.257897884596,298.4851954561705,-54531.93092726838,-50608.61863000615,-31325.3440052681,-28725.612607671334,-1311.6897716152396,-18541.86726115552,0.0,0.0,0.0,193.0,1.0,154.0,0.0,2.0,3.0,250.0,410.0,2.0,1018.0,1744252974.9035327,0.0,2025-04-09 22:42:54.903,FORWARD,50
181.0,10766.634138421314,289.32098022949464,-54573.77339288872,-50663.89449404413,-31348.902743923994,-28749.97600912762,-1314.5731466499742,-18552.57374674961,0.0,0.0,0.0,193.0,1.0,155.0,0.0,2.0,3.0,252.0,411.0,2.0,1020.0,1744252974.9035413,0.0,2025-04-09 22:42:54.903,FORWARD,50
182.0,10773.786696647012,261.85068629392225,-54557.65778513644,-50614.00540041988,-31378.138825671536,-28770.27139309304,-1297.675227841762,-18546.918755402417,0.0,0.0,0.0,193.0,1.0,155.0,0.0,2.0,3.0,252.0,411.0,2.0,1020.0,1744252974.90355,0.0,2025-04-09 22:42:54.903,FORWARD,50
183.0,10854.141217963841,275.46289866720423,-54569.95124458686,-50647.3542031472,-31385.626660064063,-28771.321925082437,-1348.7936674110495,-18553.82544443911,0.0,0.0,0.0,193.0,1.0,155.0,0.0,2.0,3.0,251.0,411.0,2.0,1019.0,1744252974.9035585,0.0,2025-04-09 22:42:54.903,FORWARD,50
184.0,10817.819633223968,281.5425731590478,-54532.869700535506,-50626.43297033703,-31327.78034541373,-28721.365776224826,-1335.6955451602394,-18522.242429523758,0.0,0.0,0.0,193.0,1.0,155.0,0.0,2.0,3.0,251.0,411.0,2.0,1019.0,1744252974.9035668,0.0,2025-04-09 22:42:54.903,FORWARD,50
185.0,10772.84792337989,287.6445993953466,-54557.70248862535,-50643.33088914525,-31340.63259847553,-28737.615494443835,-1305.8783180568598,-18539.296810543157,0.0,0.0,0.0,193.0,1.0,154.0,0.0,2.0,3.0,249.0,410.0,2.0,1017.0,1744252974.9035804,0.0,2025-04-09 22:42:54.903,FORWARD,50
186.0,10746.182292244708,248.21612217618494,-54564.16214277293,-50636.62536580865,-31374.339029114133,-28776.41812281825,-1318.1717775072786,-18574.433752826902,0.0,0.0,0.0,193.0,1.0,154.0,0.0,2.0,3.0,249.0,410.0,2.0,1017.0,1744252974.9035888,0.0,2025-04-09 22:42:54.903,FORWARD,50
187.0,10848.665040572292,275.664064367302,-54561.859913094035,-50622.16378714607,-31392.645107823028,-28777.803930974478,-1322.485664187153,-18572.62326152602,0.0,0.0,0.0,193.0,1.0,154.0,0.0,2.0,3.0,249.0,410.0,2.0,1017.0,1744252974.903597,0.0,2025-04-09 22:42:54.903,FORWARD,50
188.0,10836.170415421775,288.29279998455047,-54521.15738644092,-50626.56708080377,-31317.833819131116,-28701.472723659605,-1336.5002079606304,-18507.95966481682,0.0,0.0,0.0,193.0,1.0,154.0,0.0,2.0,3.0,249.0,410.0,2.0,1017.0,1744252974.903606,0.0,2025-04-09 22:42:54.903,FORWARD,50
189.0,10791.13165034433,303.8049106365336,-54541.96686052882,-50621.090903412216,-31328.652063447484,-28720.382299468794,-1269.8696577393603,-18521.370711490003,0.0,0.0,0.0,193.0,1.0,154.0,0.0,2.0,3.0,250.0,410.0,2.0,1018.0,1744252974.9036143,0.0,2025-04-09 22:42:54.903,FORWARD,50
190.0,10750.540882413494,271.5513433875255,-54554.34972695705,-50645.02962172385,-31357.977552172848,-28753.909916151755,-1317.4788734291642,-18557.04409564067,0.0,0.0,0.0,193.0,1.0,154.0,0.0,2.0,3.0,250.0,410.0,2.0,1018.0,1744252974.903623,0.0,2025-04-09 22:42:54.903,FORWARD,50
191.0,10839.612584067892,272.534820143559,-54553.79093334567,-50609.08801663972,-31395.64024158004,-28795.84178874991,-1297.9434487752258,-18594.147991436483,0.0,0.0,0.0,193.0,1.0,155.0,0.0,2.0,3.0,252.0,411.0,2.0,1020.0,1744252974.9036317,0.0,2025-04-09 22:42:54.903,FORWARD,50
192.0,10834.784607265545,276.4463754232377,-54537.407104659935,-50660.31821493128,-31335.06701410616,-28731.334654251892,-1373.0453101450576,-18550.360924048535,0.0,0.0,0.0,193.0,1.0,155.0,0.0,2.0,3.0,251.0,411.0,2.0,1019.0,1744252974.90364,0.0,2025-04-09 22:42:54.903,FORWARD,50
193.0,10791.332816044429,293.6795703982795,-54541.9221570399,-50624.01898193586,-31332.58597047162,-28739.917724122733,-1277.9609892321814,-18551.925546160408,0.0,0.0,0.0,193.0,1.0,154.0,0.0,2.0,3.0,251.0,410.0,2.0,1019.0,1744252974.9036486,0.0,2025-04-09 22:42:54.903,FORWARD,50
194.0,10730.26785019253,254.407555390305,-54579.02605283571,-50681.552372163824,-31375.07663668116,-28775.859329206865,-1350.7606209231164,-18584.648500042975,0.0,0.0,0.0,193.0,1.0,154.0,0.0,2.0,3.0,251.0,410.0,2.0,1019.0,1744252974.903657,0.0,2025-04-09 22:42:54.903,FORWARD,50
195.0,10818.579592535449,266.7680700740898,-54558.015413047724,-50604.12592937064,-31406.816113807694,-28804.51426559857,-1301.9891145216363,-18597.031366471216,0.0,0.0,0.0,193.0,1.0,154.0,0.0,2.0,3.0,249.0,410.0,2.0,1017.0,1744252974.9036655,0.0,2025-04-09 22:42:54.903,FORWARD,50
196.0,10835.656325299302,277.29574171253944,-54551.33224145559,-50669.63889236914,-31355.608267260584,-28740.565924711937,-1388.9150487083255,-18545.823519924106,0.0,0.0,0.0,193.0,1.0,154.0,0.0,2.0,3.0,249.0,410.0,2.0,1017.0,1744252974.903674,0.0,2025-04-09 22:42:54.903,FORWARD,50
197.0,10804.676807484248,300.3850937348716,-54530.74628481225,-50604.28239158182,-31330.30609253718,-28724.986758826588,-1277.9609892321814,-18519.403757977936,0.0,0.0,0.0,193.0,1.0,154.0,0.0,2.0,3.0,248.0,410.0,2.0,1016.0,1744252974.9036827,0.0,2025-04-09 22:42:54.903,FORWARD,50
198.0,10749.691516124192,279.4638609247042,-54562.5304654277,-50663.22394171047,-31348.63452299053,-28741.728215423613,-1322.910347331804,-18544.19184257887,0.0,0.0,0.0,193.0,1.0,154.0,0.0,2.0,3.0,250.0,410.0,2.0,1018.0,1744252974.9036913,0.0,2025-04-09 22:42:54.903,FORWARD,50
199.0,10805.749691218101,276.0663957674975,-54544.20203497435,-50588.27854255182,-31384.464369352387,-28782.229576376627,-1272.3507013738993,-18580.49107557429,0.0,0.0,0.0,193.0,1.0,154.0,0.0,2.0,3.0,250.0,410.0,2.0,1018.0,1744252974.9036996,0.0,2025-04-09 22:42:54.903,FORWARD,50
200.0,10839.500825345616,272.46776491019307,-54568.006642819244,-50677.283188972855,-31379.994020461327,-28762.761206956056,-1397.967505212725,-18583.463857586845,0.0,0.0,0.0,193.0,1.0,154.0,0.0,2.0,3.0,250.0,410.0,2.0,1018.0,1744252974.9037132,0.0,2025-04-09 22:42:54.903,FORWARD,50
201.0,10809.773005220057,296.87586985538843,-54523.59372658655,-50602.04721713629,-31328.763822169763,-28718.460049445635,-1295.2165359516785,-18531.071368583605,0.0,0.0,0.0,193.0,1.0,155.0,0.0,2.0,3.0,252.0,411.0,2.0,1020.0,1744252974.9037218,0.0,2025-04-09 22:42:54.903,FORWARD,50
202.0,10757.000536561078,290.30445698552813,-54558.7753723592,-50657.23367419645,-31348.813336946172,-28734.82152638692,-1322.3515537204212,-18543.990676878773,0.0,0.0,0.0,193.0,1.0,155.0,0.0,2.0,3.0,252.0,411.0,2.0,1020.0,1744252974.9037304,0.0,2025-04-09 22:42:54.903,FORWARD,50
203.0,10797.881877169833,285.23061099417345,-54534.76959881421,-50586.2892372953,-31374.406084347498,-28771.07605589343,-1282.2748759120557,-18572.5338545482,0.0,0.0,0.0,193.0,1.0,155.0,0.0,2.0,3.0,251.0,411.0,2.0,1019.0,1744252974.9037387,0.0,2025-04-09 22:42:54.903,FORWARD,50
204.0,10871.732040850167,299.0439890675532,-54548.515921654216,-50643.174426934056,-31371.612116290584,-28758.044988875987,-1363.6352257293734,-18574.09847666007,0.0,0.0,0.0,193.0,1.0,154.0,0.0,2.0,3.0,249.0,410.0,2.0,1017.0,1744252974.903747,0.0,2025-04-09 22:42:54.903,FORWARD,50
205.0,10832.303563631007,310.1304543173855,-54507.768691512196,-50596.459281022464,-31316.135086552513,-28711.709822620134,-1307.778216335561,-18528.076234826593,0.0,0.0,0.0,193.0,1.0,154.0,0.0,2.0,3.0,249.0,410.0,2.0,1017.0,1744252974.903756,0.0,2025-04-09 22:42:54.903,FORWARD,50
206.0,10774.010214091566,308.2529077831397,-54546.68307860888,-50641.09571469972,-31339.023272874747,-28744.097500335873,-1310.6168878813849,-18555.6806392289,0.0,0.0,0.0,193.0,1.0,154.0,0.0,2.0,3.0,250.0,410.0,2.0,1018.0,1744252974.9037645,0.0,2025-04-09 22:42:54.903,FORWARD,50
207.0,10767.75172564408,276.8487068234333,-54545.81136057513,-50614.653601009086,-31380.374000117066,-28787.549291556992,-1317.4341699402535,-18592.337500135603,0.0,0.0,0.0,193.0,1.0,154.0,0.0,2.0,3.0,250.0,410.0,2.0,1018.0,1744252974.9037764,0.0,2025-04-09 22:42:54.903,FORWARD,50
208.0,10857.493979632138,289.43273895177117,-54554.64029963497,-50634.83722625223,-31393.896805512526,-28784.710620011167,-1365.2445513301554,-18597.567808338143,0.0,0.0,0.0,193.0,1.0,154.0,0.0,2.0,3.0,249.0,410.0,2.0,1017.0,1744252974.9037852,0.0,2025-04-09 22:42:54.903,FORWARD,50
209.0,10825.642743783324,298.082864055975,-54517.22347941679,-50619.28041211134,-31330.462554748367,-28718.281235489994,-1352.705222690728,-18528.344455760056,0.0,0.0,0.0,193.0,1.0,154.0,0.0,2.0,3.0,250.0,410.0,2.0,1018.0,1744252974.9037936,0.0,2025-04-09 22:42:54.903,FORWARD,50
210.0,10777.854714137879,303.2908205140615,-54544.55966288563,-50635.194854163514,-31340.0961566086,-28739.247171789073,-1297.2058412082006,-18541.330819288592,0.0,0.0,0.0,193.0,1.0,154.0,0.0,2.0,3.0,250.0,410.0,2.0,1018.0,1744252974.9038022,0.0,2025-04-09 22:42:54.903,FORWARD,50
211.0,10746.964603300645,262.16361071629655,-54555.579072902096,-50638.3017466428,-31376.73066577085,-28775.613460017856,-1323.8491205989267,-18573.15970339295,0.0,0.0,0.0,193.0,1.0,155.0,0.0,2.0,3.0,251.0,411.0,2.0,1019.0,1744252974.903811,0.0,2025-04-09 22:42:54.903,FORWARD,50
212.0,10846.76514229359,277.4298521792713,-54556.11551476902,-50619.25806036688,-31400.53527361575,-28792.243157892604,-1326.1066467889127,-18589.09649718958,0.0,0.0,0.0,193.0,1.0,154.0,0.0,2.0,3.0,250.0,410.0,2.0,1018.0,1744252974.9038196,0.0,2025-04-09 22:42:54.903,FORWARD,50
213.0,10833.868185742878,291.8914308418549,-54523.616078331004,-50635.10544718569,-31330.261389048268,-28715.420212199715,-1361.7576791951276,-18521.974208590294,0.0,0.0,0.0,193.0,1.0,155.0,0.0,2.0,3.0,251.0,411.0,2.0,1019.0,1744252974.903828,0.0,2025-04-09 22:42:54.903,FORWARD,50
214.0,10796.27255156905,310.59984095094694,-54533.696715080354,-50612.70899924148,-31330.775479170738,-28725.232628015594,-1283.8842015128378,-18525.461080725323,0.0,0.0,0.0,193.0,1.0,155.0,0.0,2.0,3.0,252.0,411.0,2.0,1020.0,1744252974.9038367,0.0,2025-04-09 22:42:54.903,FORWARD,50
215.0,10751.993745803089,276.98281729016514,-54552.98627054528,-50644.24731066791,-31366.672380765962,-28756.03333187501,-1339.1824172952674,-18564.263709099738,0.0,0.0,0.0,193.0,1.0,155.0,0.0,2.0,3.0,252.0,411.0,2.0,1020.0,1744252974.9038503,0.0,2025-04-09 22:42:54.903,FORWARD,50
216.0,10849.33559290595,298.3510849894387,-54538.07765699359,-50586.691568695496,-31391.035782222247,-28783.101294410386,-1296.9823237636476,-18586.72721227732,0.0,0.0,0.0,193.0,1.0,155.0,0.0,2.0,3.0,251.0,411.0,2.0,1019.0,1744252974.9038591,0.0,2025-04-09 22:42:54.903,FORWARD,50
217.0,10848.016839983087,299.7368931456677,-54531.19331970136,-50649.03058398135,-31342.599551987598,-28724.562075681937,-1386.2998946070547,-18545.667057712923,0.0,0.0,0.0,193.0,1.0,154.0,0.0,2.0,3.0,249.0,410.0,2.0,1017.0,1744252974.9038675,0.0,2025-04-09 22:42:54.903,FORWARD,50
218.0,10808.81188020848,312.6114979519246,-54530.58982260106,-50606.22699334944,-31335.335235039624,-28729.16653503973,-1285.3147131579774,-18533.66417094042,0.0,0.0,0.0,193.0,1.0,154.0,0.0,2.0,3.0,249.0,410.0,2.0,1017.0,1744252974.9038763,0.0,2025-04-09 22:42:54.903,FORWARD,50
219.0,10751.211434747152,277.27338996808413,-54559.356517715045,-50660.988767264935,-31358.64810450651,-28753.664046962745,-1333.5944811814406,-18558.67577298591,0.0,0.0,0.0,193.0,1.0,154.0,0.0,2.0,3.0,251.0,410.0,2.0,1019.0,1744252974.903885,0.0,2025-04-09 22:42:54.903,FORWARD,50
220.0,10828.481415329148,278.01099753510925,-54541.13984598397,-50586.557458228766,-31389.337049643644,-28792.153750914786,-1279.771480533061,-18587.82244775563,0.0,0.0,0.0,193.0,1.0,154.0,0.0,2.0,3.0,250.0,410.0,2.0,1018.0,1744252975.371374,0.0,2025-04-09 22:42:55.371,FORWARD,50
221.0,10849.33559290595,283.15189875982986,-54548.247700720756,-50665.459116156,-31354.848307949105,-28742.01878810153,-1392.3795690988982,-18552.596098494065,0.0,0.0,0.0,193.0,1.0,155.0,0.0,2.0,3.0,252.0,411.0,2.0,1020.0,1744252975.3714087,0.0,2025-04-09 22:42:55.371,FORWARD,50
222.0,10810.845888953912,301.6144396799135,-54529.44988363384,-50601.75664445837,-31332.96595012736,-28723.55624718145,-1291.0144079940806,-18526.980999348285,0.0,0.0,0.0,193.0,1.0,155.0,0.0,2.0,3.0,250.0,411.0,2.0,1018.0,1744252975.3714285,0.0,2025-04-09 22:42:55.371,FORWARD,50
223.0,10755.905301082767,286.52701217258124,-54564.83269510659,-50666.12966848966,-31358.424587061952,-28747.472613748625,-1340.5235219625858,-18555.121845617516,0.0,0.0,0.0,193.0,1.0,154.0,0.0,2.0,3.0,249.0,410.0,2.0,1017.0,1744252975.371446,0.0,2025-04-09 22:42:55.371,FORWARD,50
224.0,10816.925563445755,291.2208785081957,-54540.826921561595,-50587.63034196262,-31385.671363552974,-28786.61051828987,-1283.392463134821,-18583.620319798032,0.0,0.0,0.0,193.0,1.0,154.0,0.0,2.0,3.0,249.0,410.0,2.0,1017.0,1744252975.3714635,0.0,2025-04-09 22:42:55.371,FORWARD,50
225.0,10870.659157116314,304.81073913702244,-54549.52175015471,-50654.86438928419,-31364.995999931816,-28748.746663182577,-1377.158031124834,-18558.09462763007,0.0,0.0,0.0,193.0,1.0,155.0,0.0,2.0,3.0,252.0,411.0,2.0,1020.0,1744252975.371484,0.0,2025-04-09 22:42:55.371,FORWARD,50
226.0,10814.422168066762,296.2947244995504,-54522.54319459715,-50602.38249330312,-31328.763822169763,-28719.957616324144,-1298.837518553438,-18523.024740579694,0.0,0.0,0.0,193.0,1.0,154.0,0.0,2.0,3.0,250.0,410.0,2.0,1018.0,1744252975.3715017,0.0,2025-04-09 22:42:55.371,FORWARD,50
227.0,10742.74012359859,272.7806893325674,-54568.81130561964,-50666.867276056684,-31359.69863649591,-28752.993494629085,-1334.287385259555,-18567.124732390017,0.0,0.0,0.0,193.0,1.0,155.0,0.0,2.0,3.0,252.0,411.0,2.0,1020.0,1744252975.371519,0.0,2025-04-09 22:42:55.371,FORWARD,50
228.0,10752.261966736552,242.94111048473246,-54559.66944213742,-50616.10646439868,-31395.908462513504,-28792.734896270624,-1315.4448646837313,-18597.3889943825,0.0,0.0,0.0,193.0,1.0,155.0,0.0,2.0,3.0,249.0,411.0,2.0,1017.0,1744252975.3715367,0.0,2025-04-09 22:42:55.371,FORWARD,50
229.0,10822.245278626118,248.90902625429945,-54570.822962620616,-50661.30169168731,-31394.768523546285,-28776.328715840427,-1381.4495660602531,-18582.81565699764,0.0,0.0,0.0,193.0,1.0,155.0,0.0,2.0,3.0,251.0,411.0,2.0,1019.0,1744252975.3715456,0.0,2025-04-09 22:42:55.371,FORWARD,50
230.0,10776.312443770463,246.07035470847546,-54537.675325593395,-50629.29399362731,-31342.3983862875,-28722.796287869965,-1339.8976731178373,-18523.538830702168,0.0,0.0,0.0,193.0,1.0,154.0,0.0,2.0,3.0,250.0,410.0,2.0,1018.0,1744252975.371587,0.0,2025-04-09 22:42:55.371,FORWARD,50
231.0,10727.02684724651,246.4950378531263,-54567.1796282744,-50664.296825444326,-31350.64617999151,-28744.566886969435,-1318.0600187850023,-18548.975115892306,0.0,0.0,0.0,193.0,1.0,154.0,0.0,2.0,3.0,249.0,410.0,2.0,1017.0,1744252975.3715959,0.0,2025-04-09 22:42:55.371,FORWARD,50
232.0,10711.090053449876,209.1899763572188,-54566.196151518365,-50640.82749376625,-31386.520729842276,-28783.36951534385,-1320.3622484638988,-18581.54160756369,0.0,0.0,0.0,193.0,1.0,154.0,0.0,2.0,3.0,250.0,410.0,2.0,1018.0,1744252975.3716044,0.0,2025-04-09 22:42:55.371,FORWARD,50
233.0,10800.720548715657,224.9926596871209,-54573.058137066146,-50650.97518574896,-31404.782105062262,-28784.822378733443,-1357.4661442597085,-18589.498828589778,0.0,0.0,0.0,193.0,1.0,155.0,0.0,2.0,3.0,252.0,411.0,2.0,1020.0,1744252975.3716133,0.0,2025-04-09 22:42:55.371,FORWARD,50
234.0,10774.948987358688,233.08399117994205,-54535.28368893667,-50643.84497926772,-31342.420738031953,-28718.43769770118,-1372.285350833577,-18542.694275700364,0.0,0.0,0.0,193.0,1.0,155.0,0.0,2.0,3.0,252.0,411.0,2.0,1020.0,1744252975.371622,0.0,2025-04-09 22:42:55.371,FORWARD,50
235.0,10724.635210589793,236.88378773734425,-54561.859913094035,-50656.45136314051,-31351.473194536353,-28747.785538171,-1320.4069519528093,-18577.87592147302,0.0,0.0,0.0,193.0,1.0,155.0,0.0,2.0,3.0,251.0,411.0,2.0,1019.0,1744252975.3716307,0.0,2025-04-09 22:42:55.371,FORWARD,50
236.0,10680.199942612642,193.58845872741446,-54579.80836389165,-50672.678729615065,-31389.202939176914,-28785.045896177995,-1346.1114580764126,-18594.550322836676,0.0,0.0,0.0,193.0,1.0,154.0,0.0,2.0,3.0,249.0,410.0,2.0,1017.0,1744252975.3716393,0.0,2025-04-09 22:42:55.371,FORWARD,50
237.0,10780.492219983606,207.13361586733055,-54579.1825150469,-50642.950909489504,-31421.724727359382,-28802.03322196403,-1339.0259550840801,-18592.337500135603,0.0,0.0,0.0,193.0,1.0,155.0,0.0,2.0,3.0,250.0,411.0,2.0,1018.0,1744252975.3716478,0.0,2025-04-09 22:42:55.371,FORWARD,50
238.0,10773.049089079988,214.5990985154031,-54547.1748169869,-50669.88476155815,-31350.690883480416,-28732.96633159713,-1390.546726053563,-18544.3259530456,0.0,0.0,0.0,193.0,1.0,155.0,0.0,2.0,3.0,249.0,411.0,2.0,1017.0,1744252975.3716564,0.0,2025-04-09 22:42:55.371,FORWARD,50
239.0,10729.865518792334,229.30654636699515,-54552.293366467165,-50641.58745307773,-31347.382825301032,-28745.840936403387,-1301.8550040549046,-18550.986772893284,0.0,0.0,0.0,193.0,1.0,155.0,0.0,2.0,3.0,252.0,411.0,2.0,1020.0,1744252975.371665,0.0,2025-04-09 22:42:55.371,FORWARD,50
240.0,10674.388489054261,192.60498197138097,-54578.5343144577,-50682.379386708664,-31384.956107730402,-28775.948736184688,-1367.7255949646944,-18586.86132274405,0.0,0.0,0.0,193.0,1.0,155.0,0.0,2.0,3.0,250.0,411.0,2.0,1018.0,1744252975.3716733,0.0,2025-04-09 22:42:55.371,FORWARD,50
241.0,10777.966472860155,222.57867128594773,-54558.35068921455,-50612.70899924148,-31408.894826042037,-28805.162466187772,-1327.9841933231585,-18619.941904537907,0.0,0.0,0.0,193.0,1.0,154.0,0.0,2.0,3.0,251.0,410.0,2.0,1019.0,1744252975.371682,0.0,2025-04-09 22:42:55.371,FORWARD,50
242.0,10783.576760718437,224.3891625868276,-54551.93573855588,-50675.98678779445,-31355.384749816032,-28737.6825496772,-1403.1307581819008,-18550.360924048535,0.0,0.0,0.0,193.0,1.0,155.0,0.0,2.0,3.0,251.0,411.0,2.0,1019.0,1744252975.3716908,0.0,2025-04-09 22:42:55.371,FORWARD,50
243.0,10735.02877176151,226.601985287903,-54548.60532863204,-50629.539862816324,-31343.538325254718,-28736.386148498794,-1287.7063498146952,-18521.95185684584,0.0,0.0,0.0,193.0,1.0,154.0,0.0,2.0,3.0,250.0,410.0,2.0,1018.0,1744252975.3716996,0.0,2025-04-09 22:42:55.371,FORWARD,50
244.0,10682.144544380253,203.8255576879451,-54576.58971269008,-50688.03437805586,-31367.365284844076,-28758.49202376509,-1349.6206819558959,-18558.00522065225,0.0,0.0,0.0,193.0,1.0,154.0,0.0,2.0,3.0,250.0,410.0,2.0,1018.0,1744252975.3717082,0.0,2025-04-09 22:42:55.371,FORWARD,50
245.0,10757.179350516719,210.55343276899254,-54556.58490140259,-50607.32222882775,-31399.59650034863,-28794.07600093794,-1296.714102830184,-18586.123715177026,0.0,0.0,0.0,193.0,1.0,155.0,0.0,2.0,3.0,250.0,411.0,2.0,1018.0,1744252975.371722,0.0,2025-04-09 22:42:55.371,FORWARD,50
246.0,10781.833324650923,213.77208397055674,-54570.688852153886,-50692.57178218029,-31373.534366313743,-28758.782596443012,-1408.5622320845405,-18576.937148205896,0.0,0.0,0.0,193.0,1.0,155.0,0.0,2.0,3.0,250.0,411.0,2.0,1018.0,1744252975.3717303,0.0,2025-04-09 22:42:55.371,FORWARD,50
247.0,10743.567138143437,233.84395049142248,-54543.330316940584,-50625.449493581,-31341.146688598,-28740.02948284501,-1303.5313848890526,-18552.216118838325,0.0,0.0,0.0,193.0,1.0,155.0,0.0,2.0,3.0,252.0,411.0,2.0,1020.0,1744252975.3717391,0.0,2025-04-09 22:42:55.371,FORWARD,50
248.0,10689.364157839318,221.30462185199522,-54581.52944821471,-50690.22484901248,-31369.30988661169,-28760.34721855488,-1357.5331994930746,-18573.226758626315,0.0,0.0,0.0,193.0,1.0,155.0,0.0,2.0,3.0,251.0,411.0,2.0,1019.0,1744252975.3717475,0.0,2025-04-09 22:42:55.371,FORWARD,50
249.0,10739.990859030588,217.66128750578017,-54559.53533167068,-50613.49131029741,-31402.569282361186,-28786.945794456697,-1317.4565216847088,-18582.659194786454,0.0,0.0,0.0,193.0,1.0,155.0,0.0,2.0,3.0,251.0,411.0,2.0,1019.0,1744252975.3717563,0.0,2025-04-09 22:42:55.371,FORWARD,50
250.0,10804.81091795098,232.9275289687549,-54568.18545677489,-50675.338587205246,-31383.72676178536,-28754.200488829672,-1400.1356244248898,-18570.701011502864,0.0,0.0,0.0,193.0,1.0,154.0,0.0,2.0,3.0,250.0,410.0,2.0,1018.0,1744252975.371765,0.0,2025-04-09 22:42:55.371,FORWARD,50
251.0,10769.159885544765,242.7175930401794,-54532.69088657986,-50620.5991650342,-31332.876543149538,-28717.230703500594,-1306.3477046904213,-18528.009179593228,0.0,0.0,0.0,193.0,1.0,154.0,0.0,2.0,3.0,249.0,410.0,2.0,1017.0,1744252975.3717732,0.0,2025-04-09 22:42:55.371,FORWARD,50
252.0,10714.621629073814,237.7555057711012,-54574.55570394465,-50679.18308725156,-31358.24577310631,-28746.936171881698,-1329.906443346315,-18559.234566597293,0.0,0.0,0.0,193.0,1.0,154.0,0.0,2.0,3.0,250.0,410.0,2.0,1018.0,1744252975.3717818,0.0,2025-04-09 22:42:55.371,FORWARD,50
253.0,10728.300896680463,222.73513349713488,-54563.44688695036,-50627.371743604155,-31395.416724135488,-28787.795160745998,-1321.6362978978514,-18595.712613548352,0.0,0.0,0.0,193.0,1.0,154.0,0.0,2.0,3.0,250.0,410.0,2.0,1018.0,1744252975.3717906,0.0,2025-04-09 22:42:55.371,FORWARD,50
254.0,10805.861449940377,234.73802026963477,-54582.356462759555,-50670.19768598052,-31411.733497587862,-28785.738800256113,-1394.2347638886886,-18602.216971184847,0.0,0.0,0.0,193.0,1.0,155.0,0.0,2.0,3.0,252.0,411.0,2.0,1020.0,1744252975.3717992,0.0,2025-04-09 22:42:55.371,FORWARD,50
255.0,10772.803219890979,243.79047677403412,-54544.60436637454,-50641.81097052228,-31357.083482394635,-28731.06643331843,-1373.4252898007978,-18556.306488073646,0.0,0.0,0.0,193.0,1.0,155.0,0.0,2.0,3.0,250.0,411.0,2.0,1018.0,1744252975.3718076,0.0,2025-04-09 22:42:55.371,FORWARD,50
0.0,10726.445701890672,249.62428207686926,-54576.18738128989,-50670.421203425074,-31370.762750001282,-28755.139262096796,-1343.585710952963,-18582.77095350873,0.0,0.0,0.0,193.0,1.0,155.0,0.0,2.0,3.0,252.0,411.0,2.0,1020.0,1744252975.3718162,0.0,2025-04-09 22:42:55.371,FORWARD,50
1.0,10721.394207643772,223.8303689754449,-54566.86670385203,-50648.29297641433,-31391.214596177888,-28784.688268266713,-1342.0434405855467,-18604.49684911929,0.0,0.0,0.0,193.0,1.0,155.0,0.0,2.0,3.0,252.0,411.0,2.0,1020.0,1744252975.3718245,0.0,2025-04-09 22:42:55.371,FORWARD,50
2.0,10812.23169711014,235.20740690319622,-54575.44977372287,-50649.41056363709,-31415.913273801005,-28797.808742261976,-1366.4962490196526,-18610.30830267767,0.0,0.0,0.0,193.0,1.0,155.0,0.0,2.0,3.0,250.0,411.0,2.0,1018.0,1744252975.371833,0.0,2025-04-09 22:42:55.371,FORWARD,50
3.0,10783.889685140812,238.22489240466268,-54542.726819840296,-50652.38334564964,-31352.836650948127,-28723.15391578125,-1385.450528317753,-18536.793415164164,0.0,0.0,0.0,193.0,1.0,155.0,0.0,2.0,3.0,252.0,411.0,2.0,1020.0,1744252975.3718417,0.0,2025-04-09 22:42:55.371,FORWARD,50
4.0,10732.726542082613,243.87988375185537,-54569.72772714231,-50657.278377685354,-31365.331276098645,-28751.630038217314,-1326.0172398110915,-18562.408514309947,0.0,0.0,0.0,193.0,1.0,154.0,0.0,2.0,3.0,249.0,410.0,2.0,1017.0,1744252975.3719049,0.0,2025-04-09 22:42:55.371,FORWARD,50
5.0,10699.333035866384,212.72155198115732,-54579.1825150469,-50674.17629649357,-31395.2602619243,-28779.569718786446,-1366.9656356532141,-18587.576578566623,0.0,0.0,0.0,193.0,1.0,154.0,0.0,2.0,3.0,249.0,410.0,2.0,1017.0,1744252975.3719137,0.0,2025-04-09 22:42:55.371,FORWARD,50
6.0,10804.252124339597,237.24141564862916,-54565.10091604006,-50628.08699942673,-31410.437096409452,-28800.446248107703,-1328.7665043790942,-18602.4404886294,0.0,0.0,0.0,193.0,1.0,154.0,0.0,2.0,3.0,250.0,410.0,2.0,1018.0,1744252975.371922,0.0,2025-04-09 22:42:55.371,FORWARD,50
7.0,10798.66418822577,245.06452620798663,-54543.330316940584,-50668.25308421291,-31349.81916544666,-28727.06547106093,-1387.7527579966495,-18546.181147835392,0.0,0.0,0.0,193.0,1.0,155.0,0.0,2.0,3.0,252.0,411.0,2.0,1020.0,1744252975.3719308,0.0,2025-04-09 22:42:55.371,FORWARD,50
8.0,10755.70413538267,255.3910321463385,-54551.06402052212,-50638.838188509726,-31351.2496770918,-28737.794308399476,-1295.8870882853375,-18544.370656534513,0.0,0.0,0.0,193.0,1.0,155.0,0.0,2.0,3.0,251.0,411.0,2.0,1019.0,1744252975.3719397,0.0,2025-04-09 22:42:55.371,FORWARD,50
9.0,10706.396187114262,230.51354056758174,-54570.30887249814,-50681.88764833065,-31377.53532857124,-28765.73398896861,-1351.0064901121248,-18578.72528776232,0.0,0.0,0.0,193.0,1.0,155.0,0.0,2.0,3.0,252.0,411.0,2.0,1020.0,1744252975.3719485,0.0,2025-04-09 22:42:55.371,FORWARD,50
10.0,10801.659321982781,250.987738488643,-54547.1748169869,-50607.72456022794,-31405.45265739592,-28792.310213125973,-1305.3642279343878,-18598.193657182892,0.0,0.0,0.0,193.0,1.0,155.0,0.0,2.0,3.0,251.0,411.0,2.0,1019.0,1744252975.3719573,0.0,2025-04-09 22:42:55.371,FORWARD,50
11.0,10806.889630185322,247.41145937579387,-54555.444962435366,-50690.850697857226,-31372.506186068797,-28748.053759104463,-1423.8508252919705,-18575.43958132739,0.0,0.0,0.0,193.0,1.0,154.0,0.0,2.0,3.0,250.0,410.0,2.0,1018.0,1744252975.3719656,0.0,2025-04-09 22:42:55.371,FORWARD,50
12.0,10768.958719844666,259.1237734703748,-54541.89980529545,-50635.79835126381,-31354.177755615445,-28744.835107902898,-1321.3010217310216,-18564.509578288744,0.0,0.0,0.0,193.0,1.0,154.0,0.0,2.0,3.0,249.0,410.0,2.0,1017.0,1744252975.3719745,0.0,2025-04-09 22:42:55.371,FORWARD,50
13.0,10712.207640672641,233.5533778135035,-54570.666500409425,-50693.287038002854,-31371.522709312765,-28766.51630002455,-1358.5613797380186,-18581.876883730518,0.0,0.0,0.0,193.0,1.0,154.0,0.0,2.0,3.0,250.0,410.0,2.0,1018.0,1744252975.3719833,0.0,2025-04-09 22:42:55.371,FORWARD,50
14.0,10774.412545491761,230.6700027787689,-54554.662651379425,-50620.174481889546,-31407.64312835254,-28809.94573950121,-1305.3642279343878,-18614.73394807982,0.0,0.0,0.0,193.0,1.0,154.0,0.0,2.0,3.0,250.0,410.0,2.0,1018.0,1744252975.371992,0.0,2025-04-09 22:42:55.371,FORWARD,50
15.0,10813.393987821817,245.73507854164583,-54562.41870670542,-50696.4162822266,-31381.64804955102,-28767.11979712484,-1420.8109880460488,-18590.996395468283,0.0,0.0,0.0,193.0,1.0,155.0,0.0,2.0,3.0,252.0,411.0,2.0,1020.0,1744252975.3720005,0.0,2025-04-09 22:42:55.372,FORWARD,50
16.0,10775.060746080964,262.2977211830284,-54530.56747085661,-50627.88583372663,-31341.928999653937,-28735.559133953946,-1319.1552542633121,-18546.38231353549,0.0,0.0,0.0,193.0,1.0,155.0,0.0,2.0,3.0,252.0,411.0,2.0,1020.0,1744252975.3720093,0.0,2025-04-09 22:42:55.372,FORWARD,50
17.0,10718.756701798047,247.83614252044472,-54571.94054984338,-50692.4153199691,-31364.660723764984,-28763.565869756447,-1358.9413593937588,-18590.750526279277,0.0,0.0,0.0,193.0,1.0,154.0,0.0,2.0,3.0,251.0,410.0,2.0,1019.0,1744252975.372018,0.0,2025-04-09 22:42:55.372,FORWARD,50
18.0,10751.859635336355,230.24531963411806,-54557.45661943634,-50628.06464768227,-31399.037706737246,-28804.51426559857,-1316.5624519064966,-18615.337445180114,0.0,0.0,0.0,193.0,1.0,154.0,0.0,2.0,3.0,249.0,410.0,2.0,1017.0,1744252975.3720264,0.0,2025-04-09 22:42:55.372,FORWARD,50
19.0,10821.395912336817,240.28125289455093,-54566.3302619851,-50683.94400882054,-31387.235985664844,-28771.768959971545,-1392.7148452657277,-18582.659194786454,0.0,0.0,0.0,193.0,1.0,154.0,0.0,2.0,3.0,250.0,410.0,2.0,1018.0,1744252975.37204,0.0,2025-04-09 22:42:55.372,FORWARD,50
20.0,10779.396984505294,248.30552915400617,-54532.48972087976,-50635.30661288579,-31342.286627565223,-28727.177229783207,-1338.2883475170552,-18539.699141943354,0.0,0.0,0.0,193.0,1.0,155.0,0.0,2.0,3.0,252.0,411.0,2.0,1020.0,1744252975.3720486,0.0,2025-04-09 22:42:55.372,FORWARD,50
21.0,10716.45447211915,241.04121220603136,-54578.1319830575,-50688.950799578524,-31366.02418017676,-28755.251020819072,-1339.6518039288287,-18560.553319520157,0.0,0.0,0.0,193.0,1.0,155.0,0.0,2.0,3.0,251.0,411.0,2.0,1019.0,1744252975.3720572,0.0,2025-04-09 22:42:55.372,FORWARD,50
22.0,10729.329076925407,224.09858990890862,-54559.69179388187,-50640.6039763217,-31386.811302520193,-28779.681477508722,-1305.386579678843,-18564.06254339964,0.0,0.0,0.0,193.0,1.0,154.0,0.0,2.0,3.0,249.0,410.0,2.0,1017.0,1744252975.372066,0.0,2025-04-09 22:42:55.372,FORWARD,50
23.0,10822.535851304037,246.8303140199559,-54566.129096285,-50663.67097659958,-31395.372020646577,-28775.009962917564,-1354.7839349250717,-18577.920624961927,0.0,0.0,0.0,193.0,1.0,154.0,0.0,2.0,3.0,249.0,410.0,2.0,1017.0,1744252975.3720748,0.0,2025-04-09 22:42:55.372,FORWARD,50
24.0,10795.914923657767,261.3365961714502,-54524.55485159813,-50638.97229897646,-31332.004825115782,-28708.848799329855,-1338.7353824061613,-18522.15302254594,0.0,0.0,0.0,193.0,1.0,154.0,0.0,2.0,3.0,249.0,410.0,2.0,1017.0,1744252975.3720834,0.0,2025-04-09 22:42:55.372,FORWARD,50
25.0,10744.12593175482,266.90218054082163,-54558.305985725645,-50661.36874692068,-31350.601476502598,-28732.854572874854,-1312.2485652266223,-18542.24724081126,0.0,0.0,0.0,193.0,1.0,155.0,0.0,2.0,3.0,251.0,411.0,2.0,1019.0,1744252975.372092,0.0,2025-04-09 22:42:55.372,FORWARD,50
26.0,10723.517623367026,233.10634292439735,-54562.41870670542,-50654.842037539725,-31384.419665863476,-28763.275297078526,-1340.1211905623902,-18572.176226636915,0.0,0.0,0.0,193.0,1.0,154.0,0.0,2.0,3.0,250.0,410.0,2.0,1018.0,1744252975.3721006,0.0,2025-04-09 22:42:55.372,FORWARD,50
27.0,10819.607772780391,248.52904659855923,-54568.20780851934,-50645.0072699794,-31406.905520785516,-28779.815587975456,-1347.5643214660074,-18587.956558222362,0.0,0.0,0.0,193.0,1.0,155.0,0.0,2.0,3.0,252.0,411.0,2.0,1020.0,1744252975.372109,0.0,2025-04-09 22:42:55.372,FORWARD,50
28.0,10790.70696719968,248.26082566509555,-54543.08444775158,-50666.57670337876,-31347.025197389747,-28719.577636668404,-1386.769281240616,-18547.05286586915,0.0,0.0,0.0,193.0,1.0,155.0,0.0,2.0,3.0,251.0,411.0,2.0,1019.0,1744252975.3721178,0.0,2025-04-09 22:42:55.372,FORWARD,50
29.0,10738.873271807823,245.8244855194671,-54572.72286089932,-50667.26960745688,-31366.851194721607,-28747.249096304073,-1330.576995679974,-18571.326860347614,0.0,0.0,0.0,193.0,1.0,154.0,0.0,2.0,3.0,250.0,410.0,2.0,1018.0,1744252975.3721263,0.0,2025-04-09 22:42:55.372,FORWARD,50
30.0,10698.684835277181,216.90132819429974,-54585.73157617231,-50690.73893913495,-31396.847235780628,-28777.200433874183,-1377.515659036119,-18601.769936295743,0.0,0.0,0.0,193.0,1.0,154.0,0.0,2.0,3.0,249.0,410.0,2.0,1017.0,1744252975.3721347,0.0,2025-04-09 22:42:55.372,FORWARD,50
31.0,10801.726377216146,241.04121220603136,-54567.02316606321,-50633.652583796094,-31414.2145412224,-28795.908843983278,-1327.4477514562311,-18600.272369417235,0.0,0.0,0.0,193.0,1.0,155.0,0.0,2.0,3.0,252.0,411.0,2.0,1020.0,1744252975.3721433,0.0,2025-04-09 22:42:55.372,FORWARD,50
32.0,10797.658359725281,241.91293023978835,-54556.60725314704,-50690.87304960169,-31360.369188829565,-28740.54357296748,-1403.3766273709093,-18569.739886491287,0.0,0.0,0.0,193.0,1.0,155.0,0.0,2.0,3.0,251.0,411.0,2.0,1019.0,1744252975.372152,0.0,2025-04-09 22:42:55.372,FORWARD,50
33.0,10756.41939120524,252.44060187823797,-54554.05915427914,-50648.71765955898,-31352.121395125556,-28741.571753212425,-1302.324390688466,-18550.316220559624,0.0,0.0,0.0,193.0,1.0,155.0,0.0,2.0,3.0,252.0,411.0,2.0,1020.0,1744252975.3721604,0.0,2025-04-09 22:42:55.372,FORWARD,50
34.0,10697.299027120951,219.73999974012372,-54581.998834848266,-50700.573706695286,-31382.385657118044,-28772.12658788283,-1364.8422199299598,-18587.129543677514,0.0,0.0,0.0,193.0,1.0,155.0,0.0,2.0,3.0,251.0,411.0,2.0,1019.0,1744252975.3721735,0.0,2025-04-09 22:42:55.372,FORWARD,50
35.0,10786.728356686635,238.35900287139452,-54558.46244793683,-50622.32024935725,-31410.481799898364,-28807.934082500233,-1317.6129838958961,-18621.372416183047,0.0,0.0,0.0,193.0,1.0,155.0,0.0,2.0,3.0,249.0,411.0,2.0,1017.0,1744252975.3721824,0.0,2025-04-09 22:42:55.372,FORWARD,50
36.0,10801.905191171789,239.2977761385174,-54565.10091604006,-50703.300619518835,-31378.272936138266,-28764.50464302357,-1432.0539155070683,-18603.78159329672,0.0,0.0,0.0,193.0,1.0,154.0,0.0,2.0,3.0,250.0,410.0,2.0,1018.0,1744252975.372191,0.0,2025-04-09 22:42:55.372,FORWARD,50
37.0,10762.186141274708,252.1947326892296,-54547.91242455393,-50643.30853740079,-31356.63644750553,-28749.573677727425,-1322.9774025651698,-18570.924528947417,0.0,0.0,0.0,193.0,1.0,154.0,0.0,2.0,3.0,250.0,410.0,2.0,1018.0,1744252975.3721995,0.0,2025-04-09 22:42:55.372,FORWARD,50
38.0,10695.801460242446,221.8857672078332,-54592.01241636425,-50712.576593467784,-31392.98038398986,-28774.45116930618,-1388.579772541496,-18593.20921816936,0.0,0.0,0.0,193.0,1.0,154.0,0.0,2.0,3.0,249.0,410.0,2.0,1017.0,1744252975.372208,0.0,2025-04-09 22:42:55.372,FORWARD,50
39.0,10752.261966736552,221.72930499664605,-54569.68302365339,-50630.858615739184,-31424.541047160754,-28806.235349921626,-1332.8121701255047,-18609.190715454904,0.0,0.0,0.0,193.0,1.0,155.0,0.0,2.0,3.0,252.0,411.0,2.0,1020.0,1744252975.3722167,0.0,2025-04-09 22:42:55.372,FORWARD,50
40.0,10807.716644730168,239.8342180054448,-54569.12423004201,-50697.019779326896,-31387.705372298406,-28757.553250497967,-1414.284278665099,-18572.15387489246,0.0,0.0,0.0,193.0,1.0,155.0,0.0,2.0,3.0,252.0,411.0,2.0,1020.0,1744252975.3722253,0.0,2025-04-09 22:42:55.372,FORWARD,50
41.0,10775.485429225617,258.45322113671557,-54525.78419754317,-50625.74006625892,-31334.15059258349,-28718.571808167915,-1307.487643657642,-18523.918810357907,0.0,0.0,0.0,193.0,1.0,155.0,0.0,2.0,3.0,252.0,411.0,2.0,1020.0,1744252975.3722336,0.0,2025-04-09 22:42:55.372,FORWARD,50
42.0,10706.575001069905,234.38039235834987,-54578.22139003532,-50697.31035200481,-31370.91921221247,-28754.446358018682,-1346.2679202875997,-18557.692296229878,0.0,0.0,0.0,193.0,1.0,155.0,0.0,2.0,3.0,252.0,411.0,2.0,1020.0,1744252975.3722425,0.0,2025-04-09 22:42:55.372,FORWARD,50
43.0,10736.816911317936,220.63406951833602,-54560.49645668226,-50634.90428148559,-31404.26801493979,-28796.46763759466,-1314.5731466499742,-18602.038157229206,0.0,0.0,0.0,193.0,1.0,155.0,0.0,2.0,3.0,251.0,411.0,2.0,1019.0,1744252975.3722508,0.0,2025-04-09 22:42:55.372,FORWARD,50
44.0,10813.393987821817,234.22393014716272,-54571.53821844319,-50686.91679083309,-31400.512921871297,-28783.54832929949,-1390.6808365202949,-18608.274293932234,0.0,0.0,0.0,193.0,1.0,154.0,0.0,2.0,3.0,250.0,410.0,2.0,1018.0,1744252975.3722596,0.0,2025-04-09 22:42:55.372,FORWARD,50
45.0,10778.435859493717,250.42894487726034,-54527.5723370996,-50637.96647047597,-31341.81724093166,-28725.277331504505,-1330.9569753357143,-18533.41830175141,0.0,0.0,0.0,193.0,1.0,154.0,0.0,2.0,3.0,249.0,410.0,2.0,1017.0,1744252975.372268,0.0,2025-04-09 22:42:55.372,FORWARD,50
46.0,10728.345600169374,256.7097850692016,-54561.882264838496,-50675.11506976069,-31366.851194721607,-28744.07514859142,-1337.1037050609239,-18546.449368768855,0.0,0.0,0.0,193.0,1.0,154.0,0.0,2.0,3.0,249.0,410.0,2.0,1017.0,1744252975.3722763,0.0,2025-04-09 22:42:55.372,FORWARD,50
47.0,10727.965620513633,227.2278341326516,-54555.8249420911,-50641.83332226674,-31401.83167479416,-28778.563890285957,-1339.4059347398204,-18578.904101717962,0.0,0.0,0.0,193.0,1.0,154.0,0.0,2.0,3.0,252.0,410.0,2.0,1020.0,1744252975.372285,0.0,2025-04-09 22:42:55.372,FORWARD,50
48.0,10819.18308963574,244.9304157412548,-54562.9775003168,-50657.03250849635,-31409.11834348659,-28781.089637409408,-1363.9481501517475,-18583.91089247595,0.0,0.0,0.0,193.0,1.0,154.0,0.0,2.0,3.0,250.0,410.0,2.0,1018.0,1744252975.3722932,0.0,2025-04-09 22:42:55.372,FORWARD,50
49.0,10794.23854282362,256.0615844799977,-54523.5713748421,-50644.582586834746,-31342.264275820766,-28717.20835175614,-1361.4671065172085,-18532.23365929528,0.0,0.0,0.0,193.0,1.0,155.0,0.0,2.0,3.0,251.0,411.0,2.0,1019.0,1744252975.3723066,0.0,2025-04-09 22:42:55.372,FORWARD,50
50.0,10742.65071662077,259.1237734703748,-54554.99792754626,-50661.39109866513,-31360.190374873924,-28740.074186333917,-1325.391390966343,-18551.322049060112,0.0,0.0,0.0,193.0,1.0,155.0,0.0,2.0,3.0,252.0,411.0,2.0,1020.0,1744252975.3723152,0.0,2025-04-09 22:42:55.372,FORWARD,50
51.0,10715.895678507768,230.62529928985828,-54558.41774444792,-50660.18410446455,-31385.31373564169,-28770.249041348583,-1337.4836847166641,-18579.39584009598,0.0,0.0,0.0,193.0,1.0,155.0,0.0,2.0,3.0,252.0,411.0,2.0,1020.0,1744252975.3723238,0.0,2025-04-09 22:42:55.372,FORWARD,50
52.0,10813.505746544093,244.48338085214866,-54560.92113982691,-50639.59814782121,-31411.44292490994,-28795.171236416252,-1333.5050742036194,-18606.57556135363,0.0,0.0,0.0,193.0,1.0,155.0,0.0,1.0,3.0,251.0,411.0,1.0,1019.0,1744252975.3723323,0.0,2025-04-09 22:42:55.372,FORWARD,50
53.0,10788.158868331775,239.6107005608917,-54545.6772501084,-50674.779793593865,-31361.196203374413,-28736.788479898987,-1401.4767290922082,-18560.463912542335,0.0,0.0,0.0,193.0,1.0,155.0,0.0,2.0,3.0,249.0,411.0,2.0,1017.0,1744252975.372341,0.0,2025-04-09 22:42:55.372,FORWARD,50
54.0,10748.529225412516,259.43669789274907,-54549.40999143243,-50649.03058398135,-31349.97562765785,-28742.30936077945,-1304.805434323005,-18551.925546160408,0.0,0.0,0.0,193.0,1.0,154.0,0.0,2.0,3.0,249.0,410.0,2.0,1017.0,1744252975.3723493,0.0,2025-04-09 22:42:55.372,FORWARD,50
55.0,10701.970541712111,223.763313742079,-54567.89488409697,-50683.161697764604,-31382.475064095863,-28773.780616972523,-1356.7285366926833,-18591.86811350204,0.0,0.0,0.0,193.0,1.0,155.0,0.0,1.0,3.0,251.0,411.0,1.0,1019.0,1744252975.3723578,0.0,2025-04-09 22:42:55.372,FORWARD,50
56.0,10801.346397560406,245.69037505273522,-54549.65586062144,-50617.62638302164,-31408.447791152932,-28793.6960212822,-1317.4565216847088,-18598.461878116355,0.0,0.0,0.0,193.0,1.0,154.0,0.0,2.0,3.0,249.0,410.0,2.0,1017.0,1744252975.3723662,0.0,2025-04-09 22:42:55.372,FORWARD,50
57.0,10802.75455746109,246.4950378531263,-54536.40127615944,-50674.757441849404,-31353.26133409278,-28720.650520402258,-1397.1851941567893,-18532.61363895102,0.0,0.0,0.0,193.0,1.0,154.0,0.0,2.0,3.0,250.0,410.0,2.0,1018.0,1744252975.3723748,0.0,2025-04-09 22:42:55.372,FORWARD,50
58.0,10762.186141274708,261.761279316101,-54532.2214999463,-50626.79059824832,-31343.82889793264,-28723.31037799244,-1293.4060446507985,-18521.5718771901,0.0,0.0,0.0,193.0,1.0,154.0,0.0,2.0,3.0,252.0,410.0,2.0,1020.0,1744252975.3723834,0.0,2025-04-09 22:42:55.372,FORWARD,50
59.0,10706.753815025546,236.6826220372465,-54560.94349157137,-50683.429918698064,-31369.5557558007,-28757.01680863104,-1353.1075540909237,-18566.38712482299,0.0,0.0,0.0,193.0,1.0,155.0,0.0,2.0,3.0,252.0,411.0,2.0,1020.0,1744252975.3723917,0.0,2025-04-09 22:42:55.372,FORWARD,50
60.0,10784.247313052096,244.05869770749783,-54541.251604706245,-50608.10453988368,-31401.943433516437,-28796.042954450008,-1304.872489556371,-18600.361776395057,0.0,0.0,0.0,193.0,1.0,155.0,0.0,2.0,3.0,252.0,411.0,2.0,1020.0,1744252975.3724003,0.0,2025-04-09 22:42:55.372,FORWARD,50
61.0,10812.969304677166,248.84197102093353,-54543.08444775158,-50682.44644194203,-31363.498433053308,-28744.54453522498,-1407.80227277306,-18572.846778970576,0.0,0.0,0.0,193.0,1.0,155.0,0.0,2.0,3.0,252.0,411.0,2.0,1020.0,1744252975.3724089,0.0,2025-04-09 22:42:55.372,FORWARD,50
62.0,10771.618577434849,261.9400932717435,-54524.30898240912,-50625.18127264753,-31338.509182752274,-28734.083918819895,-1306.1465389903235,-18549.131578103494,0.0,0.0,0.0,193.0,1.0,155.0,0.0,2.0,3.0,252.0,411.0,2.0,1020.0,1744252975.3724172,0.0,2025-04-09 22:42:55.372,FORWARD,50
63.0,10710.866536005324,240.39301161682747,-54561.61404390503,-50688.79433736734,-31366.001828432305,-28751.205355072663,-1355.320376791999,-18557.28996482968,0.0,0.0,0.0,193.0,1.0,154.0,0.0,2.0,3.0,249.0,410.0,2.0,1017.0,1744252975.3724256,0.0,2025-04-09 22:42:55.372,FORWARD,50
64.0,10768.064650066453,242.27055815107326,-54536.490683137265,-50606.85284219418,-31398.25539568131,-28782.430742076725,-1310.7509983481168,-18582.793305253184,0.0,0.0,0.0,193.0,1.0,154.0,0.0,2.0,3.0,249.0,410.0,2.0,1017.0,1744252975.3724391,0.0,2025-04-09 22:42:55.372,FORWARD,50
65.0,10823.51932806007,254.1393344568413,-54547.465389664816,-50679.04897678483,-31379.077598938657,-28753.37347428483,-1405.3882843718868,-18571.349212092067,0.0,0.0,0.0,193.0,1.0,154.0,0.0,2.0,3.0,250.0,410.0,2.0,1018.0,1744252975.3724477,0.0,2025-04-09 22:42:55.372,FORWARD,50
66.0,10782.41447000676,263.14708747233004,-54512.708427036814,-50621.96262144597,-31335.983435628827,-28716.53779942248,-1321.748056620128,-18526.913944114916,0.0,0.0,0.0,193.0,1.0,154.0,0.0,2.0,3.0,249.0,410.0,2.0,1017.0,1744252975.3724563,0.0,2025-04-09 22:42:55.372,FORWARD,50
67.0,10723.227050689107,253.93816875674355,-54554.461485679334,-50681.30650297481,-31362.71612199737,-28743.35989276885,-1348.614853455407,-18561.089761387084,0.0,0.0,0.0,193.0,1.0,154.0,0.0,2.0,3.0,250.0,410.0,2.0,1018.0,1744252975.372465,0.0,2025-04-09 22:42:55.372,FORWARD,50
68.0,10754.251271993075,248.35023264291678,-54531.21567144581,-50618.92278420005,-31386.610136820098,-28772.93125068322,-1316.8083210955049,-18583.217988397835,0.0,0.0,0.0,193.0,1.0,155.0,0.0,2.0,3.0,252.0,411.0,2.0,1020.0,1744252975.3724732,0.0,2025-04-09 22:42:55.372,FORWARD,50
69.0,10830.157796163297,260.5766368599697,-54548.35945944303,-50666.531999889856,-31395.68494506895,-28767.767997714043,-1384.6905690062724,-18585.81079075465,0.0,0.0,0.0,193.0,1.0,155.0,0.0,2.0,3.0,251.0,411.0,2.0,1019.0,1744252975.3724816,0.0,2025-04-09 22:42:55.372,FORWARD,50
70.0,10780.447516494694,252.66411932279104,-54525.56068009862,-50647.46596186948,-31351.048511391702,-28734.150974053264,-1359.7236704496945,-18560.91094743144,0.0,0.0,0.0,193.0,1.0,154.0,0.0,2.0,3.0,251.0,410.0,2.0,1019.0,1744252975.37249,0.0,2025-04-09 22:42:55.372,FORWARD,50
71.0,10730.26785019253,249.7583925436011,-54560.00471830425,-50682.28997973085,-31365.845366221118,-28755.049855118974,-1342.065792330002,-18578.47941857331,0.0,0.0,0.0,193.0,1.0,155.0,0.0,2.0,3.0,251.0,411.0,2.0,1019.0,1744252975.3724985,0.0,2025-04-09 22:42:55.372,FORWARD,50
72.0,10722.9811815001,224.12094165336393,-54552.53923565617,-50655.825514295764,-31392.823921778672,-28784.80002698899,-1342.5351789635633,-18602.284026418212,0.0,0.0,0.0,193.0,1.0,155.0,0.0,2.0,3.0,251.0,411.0,2.0,1019.0,1744252975.372507,0.0,2025-04-09 22:42:55.372,FORWARD,50
73.0,10816.925563445755,241.1976744172185,-54558.95418631485,-50664.140363233135,-31412.06877375469,-28798.32283238445,-1372.8888479338705,-18618.176116725936,0.0,0.0,0.0,193.0,1.0,154.0,0.0,2.0,3.0,248.0,410.0,2.0,1016.0,1744252975.3725157,0.0,2025-04-09 22:42:55.372,FORWARD,50
74.0,10787.555371231481,244.34927038541682,-54522.7667120417,-50660.49702888692,-31347.069900878658,-28725.322034993416,-1379.6390747593732,-18537.508670986732,0.0,0.0,0.0,193.0,1.0,154.0,0.0,2.0,3.0,250.0,410.0,2.0,1018.0,1744252975.372524,0.0,2025-04-09 22:42:55.372,FORWARD,50
75.0,10743.03069627651,257.6262065918692,-54540.55870062813,-50659.44649689752,-31349.528592768744,-28734.843878131378,-1311.7344751041503,-18527.204516792837,0.0,0.0,0.0,193.0,1.0,155.0,0.0,2.0,3.0,252.0,411.0,2.0,1020.0,1744252975.3725326,0.0,2025-04-09 22:42:55.372,FORWARD,50
76.0,10713.615800573327,225.75261899860132,-54548.80649433214,-50670.55531389181,-31378.630564049552,-28771.65720124927,-1342.7139929192058,-18567.325898090112,0.0,0.0,0.0,193.0,1.0,155.0,0.0,2.0,3.0,252.0,411.0,2.0,1020.0,1744252975.3725412,0.0,2025-04-09 22:42:55.372,FORWARD,50
77.0,10805.369711562362,239.11896218287495,-54555.93670081338,-50645.36489789068,-31418.193151735446,-28807.5988063334,-1344.1221528198903,-18607.02259624274,0.0,0.0,0.0,193.0,1.0,154.0,0.0,2.0,3.0,250.0,410.0,2.0,1018.0,1744252975.3725498,0.0,2025-04-09 22:42:55.372,FORWARD,50
78.0,10781.207475806175,233.35221211340573,-54546.88424430898,-50695.92454384858,-31371.522709312765,-28755.049855118974,-1423.2473281916773,-18578.345308106578,0.0,0.0,0.0,193.0,1.0,155.0,0.0,2.0,3.0,252.0,411.0,2.0,1020.0,1744252975.3725584,0.0,2025-04-09 22:42:55.372,FORWARD,50
79.0,10744.237690477097,249.53487509904804,-54549.16412224342,-50663.62627311066,-31360.92798244095,-28754.088730107396,-1320.1387310193456,-18560.799188709163,0.0,0.0,0.0,193.0,1.0,155.0,0.0,2.0,3.0,251.0,411.0,2.0,1019.0,1744252975.3725715,0.0,2025-04-09 22:42:55.372,FORWARD,50
80.0,10701.367044611818,223.1374648973304,-54562.485761938784,-50695.253991514925,-31379.189357660933,-28765.55517501297,-1356.1026878479347,-18570.544549291677,0.0,0.0,0.0,193.0,1.0,154.0,0.0,3.0,3.0,250.0,410.0,3.0,1018.0,1744252975.37258,0.0,2025-04-09 22:42:55.372,FORWARD,50
81.0,10800.027644637543,246.42798261976037,-54542.81622681812,-50622.63317377963,-31402.79279980574,-28791.237329392115,-1299.4410156537315,-18596.3384623931,0.0,0.0,0.0,193.0,1.0,154.0,0.0,12.0,3.0,250.0,410.0,12.0,1018.0,1744252975.3725884,0.0,2025-04-09 22:42:55.372,FORWARD,50
82.0,10799.446499281705,248.03730822054249,-54544.93964254137,-50695.72337814848,-31364.280744109245,-28737.995474099574,-1404.8965459938702,-18563.995488166274,0.0,0.0,0.0,193.0,1.0,154.0,0.0,24.0,3.0,252.0,410.0,24.0,1020.0,1744252975.3725967,0.0,2025-04-09 22:42:55.372,FORWARD,50
83.0,10761.359126729862,259.34729091492784,-54535.66366859242,-50642.54857808931,-31349.953275913394,-28732.36283449684,-1300.0221610095693,-18536.391083763967,0.0,0.0,0.0,193.0,1.0,155.0,0.0,33.0,3.0,249.0,411.0,33.0,1017.0,1744252975.3726053,0.0,2025-04-09 22:42:55.372,FORWARD,50
84.0,10700.092995177865,223.1598166417857,-54570.91236959844,-50707.346285265245,-31379.926965227958,-28762.917669167244,-1361.0200716281024,-18572.086819659093,0.0,0.0,0.0,193.0,1.0,155.0,0.0,39.0,3.0,250.0,411.0,39.0,1018.0,1744252975.8223708,0.0,2025-04-09 22:42:55.822,FORWARD,50
85.0,10771.886798368312,229.86533997837782,-54547.84536932056,-50626.27650812585,-31412.69462259944,-28799.41806786276,-1311.4439024262313,-18603.06633747415,0.0,0.0,0.0,193.0,1.0,155.0,0.0,39.0,3.0,252.0,411.0,39.0,1020.0,1744252975.822412,0.0,2025-04-09 22:42:55.822,FORWARD,50
86.0,10809.370673819862,244.84100876343356,-54550.125247255004,-50698.13736654966,-31379.725799527863,-28747.562020726447,-1411.9373454972917,-18566.05184865616,0.0,0.0,0.0,193.0,1.0,155.0,0.0,38.0,3.0,252.0,411.0,38.0,1020.0,1744252975.8224332,0.0,2025-04-09 22:42:55.822,FORWARD,50
87.0,10768.981071589122,263.7058810837127,-54525.13599695397,-50635.01604020787,-31346.91343866747,-28732.809869385943,-1305.7665593345832,-18544.415360023424,0.0,0.0,0.0,193.0,1.0,155.0,0.0,38.0,3.0,252.0,411.0,38.0,1020.0,1744252975.8224533,0.0,2025-04-09 22:42:55.822,FORWARD,50
88.0,10711.470033105616,248.48434310964862,-54562.642224149975,-50699.098491561235,-31370.092197667625,-28757.44149177569,-1352.772277924094,-18578.926453462416,0.0,0.0,0.0,193.0,1.0,155.0,0.0,38.0,3.0,251.0,411.0,38.0,1019.0,1744252975.822471,0.0,2025-04-09 22:42:55.822,FORWARD,50
89.0,10758.56515867295,238.15783717129676,-54543.822055318604,-50625.449493581,-31404.223311450878,-28788.800989246487,-1307.0629605129911,-18591.421078612933,0.0,0.0,0.0,193.0,1.0,155.0,0.0,38.0,3.0,249.0,411.0,38.0,1017.0,1744252975.822491,0.0,2025-04-09 22:42:55.822,FORWARD,50
90.0,10816.657342512292,243.4104971182939,-54560.92113982691,-50693.89053510315,-31395.81905553568,-28764.102311623374,-1385.8081562290379,-18573.874959215518,0.0,0.0,0.0,193.0,1.0,154.0,0.0,39.0,3.0,249.0,410.0,39.0,1017.0,1744252975.8225083,0.0,2025-04-09 22:42:55.822,FORWARD,50
91.0,10772.914978613255,250.20542743270727,-54529.87456677849,-50645.78958103533,-31352.121395125556,-28733.234552530594,-1314.6849053722508,-18552.886671171986,0.0,0.0,0.0,193.0,1.0,155.0,0.0,39.0,3.0,249.0,411.0,39.0,1017.0,1744252975.8225267,0.0,2025-04-09 22:42:55.822,FORWARD,50
92.0,10716.83445177489,242.53877908453694,-54567.06786955212,-50697.64562817164,-31372.26031687979,-28758.670837720736,-1328.0065450676138,-18576.40070633897,0.0,0.0,0.0,193.0,1.0,154.0,0.0,39.0,3.0,249.0,410.0,39.0,1017.0,1744252975.822536,0.0,2025-04-09 22:42:55.822,FORWARD,50
93.0,10735.609917117348,227.04902017700914,-54551.376944944495,-50646.12485720216,-31401.45169513842,-28792.77959975953,-1312.0250477820694,-18601.121735706536,0.0,0.0,0.0,193.0,1.0,154.0,0.0,39.0,3.0,250.0,410.0,39.0,1018.0,1744252975.8225446,0.0,2025-04-09 22:42:55.822,FORWARD,50
94.0,10815.696217500714,242.91875874027716,-54562.910445083435,-50678.24431398443,-31411.040593509748,-28782.833073476922,-1375.0569671460353,-18590.415250112444,0.0,0.0,0.0,193.0,1.0,154.0,0.0,40.0,3.0,250.0,410.0,40.0,1018.0,1744252975.822585,0.0,2025-04-09 22:42:55.822,FORWARD,50
95.0,10778.949949616188,249.62428207686926,-54523.45961611982,-50647.17538919156,-31346.220534589356,-28715.844895344366,-1336.8131323830048,-18516.00629282073,0.0,0.0,0.0,193.0,1.0,154.0,0.0,40.0,3.0,250.0,410.0,40.0,1018.0,1744252975.8225944,0.0,2025-04-09 22:42:55.822,FORWARD,50
96.0,10728.971449014121,252.5076571116039,-54560.31764272662,-50677.19378199503,-31364.437206320432,-28742.331712523905,-1307.711161102195,-18544.840043168075,0.0,0.0,0.0,193.0,1.0,155.0,0.0,40.0,3.0,252.0,411.0,40.0,1020.0,1744252975.8226037,0.0,2025-04-09 22:42:55.822,FORWARD,50
97.0,10727.518585624526,238.9624999716878,-54546.99600303126,-50648.67295607006,-31385.134921686047,-28761.487157522104,-1321.904518831315,-18564.643688755477,0.0,0.0,0.0,193.0,1.0,154.0,0.0,40.0,3.0,249.0,410.0,40.0,1017.0,1744252975.8226123,0.0,2025-04-09 22:42:55.822,FORWARD,50
98.0,10831.387142108339,261.15778221580774,-54547.688907109376,-50638.97229897646,-31403.038668994748,-28776.35106758488,-1337.260167272111,-18587.129543677514,0.0,0.0,0.0,193.0,1.0,154.0,0.0,41.0,3.0,250.0,410.0,41.0,1018.0,1744252975.822621,0.0,2025-04-09 22:42:55.822,FORWARD,50
99.0,10802.128708616341,266.23162820716243,-54519.39159862895,-50650.796371793316,-31339.090328108112,-28708.71468886312,-1350.8500279009377,-18518.777909133187,0.0,0.0,0.0,193.0,1.0,155.0,0.0,41.0,3.0,252.0,411.0,41.0,1020.0,1744252975.8226297,0.0,2025-04-09 22:42:55.822,FORWARD,50
100.0,10749.199777746175,268.3997474193272,-54543.79970357415,-50653.61269159469,-31352.769595714763,-28731.558171696448,-1294.9259632737594,-18532.926563373396,0.0,0.0,0.0,193.0,1.0,155.0,0.0,41.0,3.0,252.0,411.0,41.0,1020.0,1744252975.8226388,0.0,2025-04-09 22:42:55.822,FORWARD,50
101.0,10704.764509769024,229.06067717798678,-54562.55281717215,-50679.1607355071,-31385.872529253073,-28769.958468670666,-1333.192149781245,-18568.354078335058,0.0,0.0,0.0,193.0,1.0,155.0,0.0,41.0,3.0,251.0,411.0,41.0,1019.0,1744252975.8226473,0.0,2025-04-09 22:42:55.822,FORWARD,50
102.0,10804.654455739792,242.82935176245593,-54558.19422700337,-50636.603014064196,-31415.913273801005,-28795.618271305357,-1309.0746175139686,-18589.811753012153,0.0,0.0,0.0,193.0,1.0,154.0,0.0,41.0,3.0,250.0,410.0,41.0,1018.0,1744252975.8226562,0.0,2025-04-09 22:42:55.822,FORWARD,50
103.0,10806.979037163144,261.6495205938245,-54526.767674299204,-50668.07427025727,-31346.578162500642,-28718.21418025663,-1379.2367433591776,-18532.032493595183,0.0,0.0,0.0,193.0,1.0,154.0,0.0,41.0,3.0,251.0,410.0,41.0,1019.0,1744252975.8226647,0.0,2025-04-09 22:42:55.822,FORWARD,50
104.0,10768.601091933382,275.57465738948076,-54525.00188648723,-50627.32704011525,-31337.3468920406,-28726.64078791628,-1284.6888643132288,-18524.678769669386,0.0,0.0,0.0,193.0,1.0,154.0,0.0,42.0,3.0,249.0,410.0,42.0,1017.0,1744252975.8226736,0.0,2025-04-09 22:42:55.822,FORWARD,50
105.0,10714.755739540547,242.53877908453694,-54551.71222111133,-50676.54558140583,-31363.72195049786,-28761.80008194448,-1341.4175917407981,-18561.492092787277,0.0,0.0,0.0,193.0,1.0,154.0,0.0,42.0,3.0,249.0,410.0,42.0,1017.0,1744252975.8226824,0.0,2025-04-09 22:42:55.822,FORWARD,50
106.0,10800.98876964912,255.83806703544465,-54534.14374996946,-50600.75081595789,-31390.92402349997,-28791.103218925386,-1290.1426899603237,-18575.32782260511,0.0,0.0,0.0,193.0,1.0,155.0,0.0,42.0,3.0,251.0,411.0,42.0,1019.0,1744252975.822691,0.0,2025-04-09 22:42:55.822,FORWARD,50
107.0,10805.459118540182,250.6077588329028,-54540.51399713922,-50675.58445639425,-31353.238982348324,-28740.96825611213,-1399.576830813507,-18536.90517388644,0.0,0.0,0.0,193.0,1.0,154.0,0.0,42.0,3.0,251.0,410.0,42.0,1019.0,1744252975.8226995,0.0,2025-04-09 22:42:55.822,FORWARD,50
108.0,10761.9402720857,258.5649798589921,-54532.75794181323,-50618.140473144114,-31339.850287419595,-28740.700035178666,-1303.1067017444018,-18522.600057435044,0.0,0.0,0.0,193.0,1.0,154.0,0.0,42.0,3.0,250.0,410.0,42.0,1018.0,1744252975.8227084,0.0,2025-04-09 22:42:55.822,FORWARD,50
109.0,10698.841297488369,230.58059580094766,-54570.241817264774,-50681.08298553026,-31366.11358715458,-28767.07509363593,-1360.5953884834514,-18546.941107146875,0.0,0.0,0.0,193.0,1.0,154.0,0.0,42.0,3.0,249.0,410.0,42.0,1017.0,1744252975.822723,0.0,2025-04-09 22:42:55.822,FORWARD,50
110.0,10770.61274893436,240.37065987237216,-54542.503302395744,-50590.334903041716,-31391.34870664462,-28796.17706491674,-1301.609134865896,-18569.538720791188,0.0,0.0,0.0,193.0,1.0,154.0,0.0,42.0,3.0,250.0,410.0,42.0,1018.0,1744252975.8227315,0.0,2025-04-09 22:42:55.822,FORWARD,50
111.0,10817.909040201788,249.0878402099419,-54552.04749727816,-50662.061650998796,-31364.101930153603,-28759.29668656548,-1404.002476215658,-18561.313278831636,0.0,0.0,0.0,193.0,1.0,154.0,0.0,42.0,3.0,251.0,410.0,42.0,1019.0,1744252975.8227408,0.0,2025-04-09 22:42:55.822,FORWARD,50
112.0,10783.8449816519,272.3113026990059,-54515.79296777165,-50588.30089429628,-31320.42662148793,-28717.655386645245,-1299.1057394869017,-18507.33381597207,0.0,0.0,0.0,193.0,1.0,154.0,0.0,43.0,3.0,250.0,410.0,43.0,1018.0,1744252975.8227491,0.0,2025-04-09 22:42:55.822,FORWARD,50
113.0,10724.881079778801,257.9167792697882,-54558.90948282593,-50649.678784570555,-31349.3497788131,-28737.906067121756,-1336.5672631939965,-18510.775984618187,0.0,0.0,0.0,193.0,1.0,154.0,0.0,43.0,3.0,252.0,410.0,43.0,1020.0,1744252975.822758,0.0,2025-04-09 22:42:55.822,FORWARD,50
114.0,10759.593338917892,243.9692907296766,-54545.2749187082,-50580.455431992465,-31385.045514708225,-28778.049800163484,-1304.6042686229073,-18539.542679732167,0.0,0.0,0.0,193.0,1.0,155.0,0.0,42.0,3.0,252.0,411.0,42.0,1020.0,1744252975.8227668,0.0,2025-04-09 22:42:55.822,FORWARD,50
115.0,10835.05282819901,265.27050319558424,-54548.78414258768,-50626.030638936834,-31365.666552265473,-28749.752491683066,-1372.4865165336748,-18535.385255263478,0.0,0.0,0.0,193.0,1.0,155.0,0.0,43.0,3.0,252.0,411.0,43.0,1020.0,1744252975.8227754,0.0,2025-04-09 22:42:55.822,FORWARD,50
116.0,10786.571894475448,263.3482531724278,-54518.60928757302,-50583.94230412749,-31316.71623190835,-28714.12381102131,-1305.744207590128,-18495.37563268848,0.0,0.0,0.0,193.0,1.0,155.0,0.0,43.0,3.0,252.0,411.0,43.0,1020.0,1744252975.822784,0.0,2025-04-09 22:42:55.822,FORWARD,50
117.0,10725.216355945631,252.64176757833573,-54561.70345088285,-50634.94898497451,-31340.185563586423,-28743.91868638023,-1309.901632058815,-18524.589362691568,0.0,0.0,0.0,193.0,1.0,154.0,0.0,43.0,3.0,251.0,410.0,43.0,1019.0,1744252975.822793,0.0,2025-04-09 22:42:55.822,FORWARD,50
118.0,10731.698361837669,233.2181016466739,-54551.1757792444,-50589.6419989636,-31371.992095946327,-28773.400637316783,-1297.7646348195833,-18543.163662333925,0.0,0.0,0.0,193.0,1.0,154.0,0.0,43.0,3.0,252.0,410.0,43.0,1020.0,1744252975.8228016,0.0,2025-04-09 22:42:55.822,FORWARD,50
119.0,10827.721456017669,252.64176757833573,-54561.21171250483,-50612.418426563556,-31385.91723274198,-28768.72912272562,-1348.4136877553092,-18548.505729258744,0.0,0.0,0.0,193.0,1.0,155.0,0.0,43.0,3.0,252.0,411.0,43.0,1020.0,1744252975.8228106,0.0,2025-04-09 22:42:55.822,FORWARD,50
120.0,10782.682690940224,253.98287224565416,-54534.61313660302,-50601.644885736096,-31336.564580984665,-28718.63886340128,-1351.6993941902392,-18517.682673654876,0.0,0.0,0.0,193.0,1.0,155.0,0.0,43.0,3.0,252.0,411.0,43.0,1020.0,1744252975.8228195,0.0,2025-04-09 22:42:55.822,FORWARD,50
121.0,10734.291164194485,262.3647764163943,-54561.457581693845,-50616.57585103224,-31346.131127611534,-28730.887619362788,-1313.4779111716641,-18523.80705163563,0.0,0.0,0.0,193.0,1.0,155.0,0.0,43.0,3.0,251.0,411.0,43.0,1019.0,1744252975.8228288,0.0,2025-04-09 22:42:55.822,FORWARD,50
122.0,10723.495271622573,235.94501447022137,-54555.04263103517,-50601.82369969174,-31368.5052238113,-28758.804948187466,-1328.744152634639,-18553.043133383173,0.0,0.0,0.0,193.0,1.0,155.0,0.0,43.0,3.0,252.0,411.0,43.0,1020.0,1744252975.8228376,0.0,2025-04-09 22:42:55.822,FORWARD,50
123.0,10824.815729238479,257.06741298048655,-54555.579072902096,-50583.22704830492,-31392.265128167288,-28773.490044294602,-1330.576995679974,-18563.548453277166,0.0,0.0,0.0,193.0,1.0,154.0,0.0,43.0,3.0,249.0,410.0,43.0,1017.0,1744252975.8228464,0.0,2025-04-09 22:42:55.822,FORWARD,50
124.0,10805.794394707013,268.1762299747741,-54525.96301149882,-50598.47093802344,-31326.95333086888,-28698.29877594695,-1363.7469844516497,-18489.340661685546,0.0,0.0,0.0,193.0,1.0,154.0,0.0,43.0,3.0,249.0,410.0,43.0,1017.0,1744252975.82286,0.0,2025-04-09 22:42:55.822,FORWARD,50
125.0,10756.978184816622,277.407500434816,-54548.448866420855,-50588.72557744093,-31338.68799670792,-28713.54266566547,-1298.1222627308682,-18497.074365267083,0.0,0.0,0.0,193.0,1.0,154.0,0.0,43.0,3.0,249.0,410.0,43.0,1017.0,1744252975.8228683,0.0,2025-04-09 22:42:55.822,FORWARD,50
126.0,10711.626495316803,243.0975726959196,-54564.095087539565,-50615.279449853835,-31367.030008677248,-28745.148032325273,-1340.970556851692,-18538.93918263187,0.0,0.0,0.0,193.0,1.0,153.0,0.0,43.0,3.0,250.0,409.0,43.0,1018.0,1744252975.8228772,0.0,2025-04-09 22:42:55.822,FORWARD,50
127.0,10818.66899951327,267.1256979853747,-54542.995040773756,-50553.81215260174,-31383.16796817398,-28761.867137177844,-1292.355512661399,-18547.05286586915,0.0,0.0,0.0,193.0,1.0,155.0,0.0,43.0,3.0,252.0,411.0,43.0,1020.0,1744252975.8228855,0.0,2025-04-09 22:42:55.822,FORWARD,50
128.0,10818.110205901887,271.9313230432657,-54531.75211331274,-50609.87032769565,-31332.96595012736,-28699.975156781096,-1383.4388713167752,-18512.29590324115,0.0,0.0,0.0,193.0,1.0,155.0,0.0,43.0,3.0,251.0,411.0,43.0,1019.0,1744252975.8228943,0.0,2025-04-09 22:42:55.822,FORWARD,50
129.0,10773.116144313353,280.84966908093327,-54535.90953778142,-50571.5370859548,-31325.16519131246,-28707.53004640699,-1283.3477596459104,-18514.10639454203,0.0,0.0,0.0,193.0,1.0,155.0,0.0,44.0,3.0,251.0,411.0,44.0,1019.0,1744252975.822903,0.0,2025-04-09 22:42:55.822,FORWARD,50
130.0,10695.935570709178,228.1219039108639,-54583.20582904886,-50642.77209553386,-31366.001828432305,-28752.769977184533,-1342.803399897027,-18541.91196464443,0.0,0.0,0.0,193.0,1.0,154.0,0.0,43.0,3.0,251.0,410.0,43.0,1019.0,1744252975.8229115,0.0,2025-04-09 22:42:55.822,FORWARD,50
131.0,10787.398909020294,241.57765407295872,-54557.65778513644,-50562.350518983665,-31394.232081679354,-28774.02648616153,-1282.9454282457148,-18535.541717474665,0.0,0.0,0.0,193.0,1.0,155.0,0.0,43.0,3.0,251.0,411.0,43.0,1019.0,1744252975.82292,0.0,2025-04-09 22:42:55.822,FORWARD,50
132.0,10814.578630277949,254.36285190139438,-54552.762753100724,-50631.75268551739,-31351.16027011398,-28718.124773278807,-1385.0481969175573,-18504.00340604823,0.0,0.0,0.0,193.0,1.0,154.0,0.0,44.0,3.0,249.0,410.0,44.0,1017.0,1744252975.8229287,0.0,2025-04-09 22:42:55.822,FORWARD,50
133.0,10765.918882598744,264.3317299284613,-54541.56452912862,-50579.47195523643,-31333.614150716563,-28718.191828512172,-1283.2583526680892,-18497.18612398936,0.0,0.0,0.0,193.0,1.0,155.0,0.0,44.0,3.0,251.0,411.0,44.0,1019.0,1744252975.822937,0.0,2025-04-09 22:42:55.822,FORWARD,50
134.0,10696.293198620462,234.96153771418784,-54585.10572732756,-50655.5572933623,-31367.789967988727,-28753.149956840272,-1347.2290452991779,-18543.878918156497,0.0,0.0,0.0,193.0,1.0,154.0,0.0,44.0,3.0,250.0,410.0,44.0,1018.0,1744252975.8229456,0.0,2025-04-09 22:42:55.822,FORWARD,50
135.0,10759.749801129079,235.20740690319622,-54560.65291889345,-50577.34853951318,-31398.903596270517,-28789.829169491433,-1303.5760883779633,-18579.842874985086,0.0,0.0,0.0,193.0,1.0,154.0,0.0,43.0,3.0,249.0,410.0,43.0,1017.0,1744252975.822954,0.0,2025-04-09 22:42:55.822,FORWARD,50
136.0,10812.52226978806,245.6456715638246,-54570.264169009235,-50651.19870319351,-31375.478968081352,-28759.07316912093,-1402.2590401481439,-18573.517331304232,0.0,0.0,0.0,193.0,1.0,154.0,0.0,43.0,3.0,251.0,410.0,43.0,1019.0,1744252975.8229628,0.0,2025-04-09 22:42:55.822,FORWARD,50
137.0,10780.827496150434,267.3939189188384,-54525.11364520951,-50576.43211799051,-31320.20310404338,-28704.19963648315,-1296.1106057298907,-18493.878065809975,0.0,0.0,0.0,193.0,1.0,154.0,0.0,44.0,3.0,251.0,410.0,44.0,1019.0,1744252975.8229716,0.0,2025-04-09 22:42:55.822,FORWARD,50
138.0,10721.349504154863,260.7778025600675,-54564.27390149521,-50635.060743696784,-31345.192354344414,-28727.043119316473,-1328.0288968120692,-18514.396967219946,0.0,0.0,0.0,193.0,1.0,154.0,0.0,44.0,3.0,250.0,410.0,44.0,1018.0,1744252975.82298,0.0,2025-04-09 22:42:55.822,FORWARD,50
139.0,10757.693440639192,250.16072394379665,-54541.720991339804,-50570.598312687674,-31371.54506105722,-28766.11396862435,-1295.261239440589,-18552.037304882684,0.0,0.0,0.0,193.0,1.0,155.0,0.0,44.0,3.0,249.0,411.0,44.0,1017.0,1744252975.8229933,0.0,2025-04-09 22:42:55.822,FORWARD,50
140.0,10834.583441565448,262.90121828332167,-54552.56158740063,-50621.06855166776,-31367.96878194437,-28758.916706909742,-1369.580789754485,-18562.855549199052,0.0,0.0,0.0,193.0,1.0,155.0,0.0,44.0,3.0,252.0,411.0,44.0,1020.0,1744252975.823002,0.0,2025-04-09 22:42:55.823,FORWARD,50
141.0,10787.711833442669,265.91870378478814,-54523.347857397544,-50586.42334776204,-31323.48881047831,-28714.660252888236,-1329.101780545924,-18513.972284075295,0.0,0.0,0.0,193.0,1.0,155.0,0.0,44.0,3.0,251.0,411.0,44.0,1019.0,1744252975.8230104,0.0,2025-04-09 22:42:55.823,FORWARD,50
142.0,10735.475806650617,261.13543047135244,-54559.334165970584,-50628.578737804746,-31342.48779326532,-28736.386148498794,-1327.291289245044,-18531.876031383996,0.0,0.0,0.0,193.0,1.0,155.0,0.0,44.0,3.0,251.0,411.0,44.0,1019.0,1744252975.8230188,0.0,2025-04-09 22:42:55.823,FORWARD,50
143.0,10728.055027491455,229.06067717798678,-54556.38373570249,-50600.61670549116,-31375.098988425612,-28772.305401838472,-1321.3010217310216,-18558.161682863436,0.0,0.0,0.0,193.0,1.0,155.0,0.0,44.0,3.0,251.0,411.0,44.0,1019.0,1744252975.8230276,0.0,2025-04-09 22:42:55.823,FORWARD,50
144.0,10815.137423889331,243.58931107393636,-54565.61500616253,-50614.07245565325,-31387.2583374093,-28771.299573337983,-1340.0094318401136,-18552.752560705252,0.0,0.0,0.0,193.0,1.0,154.0,0.0,44.0,3.0,251.0,410.0,44.0,1019.0,1744252975.823036,0.0,2025-04-09 22:42:55.823,FORWARD,50
145.0,10787.04128110901,256.28510192455076,-54526.298287665646,-50601.46607178046,-31320.359566254567,-28706.323052206404,-1333.974460837181,-18497.208475733816,0.0,0.0,0.0,193.0,1.0,154.0,0.0,44.0,3.0,249.0,410.0,44.0,1017.0,1744252975.8230443,0.0,2025-04-09 22:42:55.823,FORWARD,50
146.0,10743.768303843535,266.29868344052835,-54550.57228214411,-50611.72552248544,-31333.547095483198,-28726.77489838301,-1288.131032959346,-18507.110298527517,0.0,0.0,0.0,193.0,1.0,154.0,0.0,44.0,3.0,250.0,410.0,44.0,1018.0,1744252975.8230531,0.0,2025-04-09 22:42:55.823,FORWARD,50
147.0,10718.913164009235,236.52615982605934,-54551.376944944495,-50609.55740327328,-31358.312828339676,-28755.988628386098,-1309.6334111253514,-18533.66417094042,0.0,0.0,0.0,193.0,1.0,153.0,0.0,44.0,3.0,249.0,409.0,44.0,1017.0,1744252975.8230617,0.0,2025-04-09 22:42:55.823,FORWARD,50
148.0,10819.607772780391,258.9449595147323,-54544.380848929984,-50578.24260929139,-31375.478968081352,-28769.73495122611,-1296.2670679410778,-18546.315258302126,0.0,0.0,0.0,193.0,1.0,154.0,0.0,44.0,3.0,248.0,410.0,44.0,1016.0,1744252975.82307,0.0,2025-04-09 22:42:55.823,FORWARD,50
149.0,10796.317255057962,254.36285190139438,-54527.23706093277,-50615.03358066483,-31323.10883082257,-28711.888636575775,-1351.4088215123204,-18505.411565948914,0.0,0.0,0.0,193.0,1.0,154.0,0.0,44.0,3.0,250.0,410.0,44.0,1018.0,1744252975.8230789,0.0,2025-04-09 22:42:55.823,FORWARD,50
150.0,10755.860597593857,268.31034044150596,-54538.68115409389,-50593.754719943376,-31327.86975239155,-28724.606779170845,-1274.4741170971533,-18509.792507862152,0.0,0.0,0.0,193.0,1.0,154.0,0.0,44.0,3.0,252.0,410.0,44.0,1020.0,1744252975.8230875,0.0,2025-04-09 22:42:55.823,FORWARD,50
151.0,10709.816004015924,237.084953437442,-54563.55864567264,-50633.49612158491,-31365.554793543197,-28758.804948187466,-1337.5060364611193,-18550.115054859525,0.0,0.0,0.0,193.0,1.0,154.0,0.0,44.0,3.0,252.0,410.0,44.0,1020.0,1744252975.823096,0.0,2025-04-09 22:42:55.823,FORWARD,50
152.0,10804.252124339597,249.02078497657598,-54554.14856125696,-50576.72269066843,-31403.59746260613,-28792.6454892928,-1315.5566234060077,-18581.09457267458,0.0,0.0,0.0,193.0,1.0,155.0,0.0,44.0,3.0,251.0,411.0,44.0,1019.0,1744252975.8231049,0.0,2025-04-09 22:42:55.823,FORWARD,50
153.0,10815.651514011803,256.6874333247463,-54531.819168546106,-50626.76824650386,-31335.782269928728,-28718.84002910138,-1386.836336473982,-18522.018912079206,0.0,0.0,0.0,193.0,1.0,155.0,0.0,44.0,3.0,251.0,411.0,44.0,1019.0,1744252975.8231132,0.0,2025-04-09 22:42:55.823,FORWARD,50
154.0,10772.803219890979,266.94688402973225,-54527.88526152197,-50582.82471690473,-31322.125354066535,-28724.986758826588,-1271.166058917768,-18512.787641619165,0.0,0.0,0.0,193.0,1.0,154.0,0.0,44.0,3.0,251.0,410.0,44.0,1019.0,1744252975.8231263,0.0,2025-04-09 22:42:55.823,FORWARD,50
155.0,10711.60414357235,240.75063952811237,-54561.81520960513,-50645.610767079685,-31358.312828339676,-28757.352084797873,-1345.2844435315662,-18557.66994448542,0.0,0.0,0.0,193.0,1.0,154.0,0.0,44.0,3.0,249.0,410.0,44.0,1017.0,1744252975.823135,0.0,2025-04-09 22:42:55.823,FORWARD,50
156.0,10793.18801083422,254.22874143466254,-54534.43432264737,-50558.32720498171,-31388.44297986543,-28778.69800075269,-1289.0474544820136,-18557.62524099651,0.0,0.0,0.0,193.0,1.0,154.0,0.0,44.0,3.0,250.0,410.0,44.0,1018.0,1744252975.8231435,0.0,2025-04-09 22:42:55.823,FORWARD,50
157.0,10808.968342419666,251.25595942210668,-54551.71222111133,-50646.54954034681,-31367.857023222095,-28740.767090412035,-1403.9577727267472,-18533.530060473688,0.0,0.0,0.0,193.0,1.0,153.0,0.0,44.0,3.0,249.0,409.0,44.0,1017.0,1744252975.823152,0.0,2025-04-09 22:42:55.823,FORWARD,50
158.0,10771.126839056831,263.3259014279725,-54525.78419754317,-50583.58467621621,-31331.334272782122,-28721.25401750255,-1290.165041704779,-18509.010196806215,0.0,0.0,0.0,193.0,1.0,154.0,0.0,44.0,3.0,250.0,410.0,44.0,1018.0,1744252975.8231606,0.0,2025-04-09 22:42:55.823,FORWARD,50
159.0,10723.964658256133,249.46781986568212,-54558.171875258915,-50644.4037728791,-31351.92022942546,-28742.756395668555,-1335.3155655044993,-18547.56695599162,0.0,0.0,0.0,193.0,1.0,154.0,0.0,44.0,3.0,250.0,410.0,44.0,1018.0,1744252975.8231692,0.0,2025-04-09 22:42:55.823,FORWARD,50
160.0,10774.948987358688,242.0470407065202,-54539.619927361004,-50571.447678976976,-31386.677192053463,-28782.341335098903,-1292.1990504502119,-18584.00029945377,0.0,0.0,0.0,193.0,1.0,154.0,0.0,44.0,3.0,249.0,410.0,44.0,1017.0,1744252975.8231778,0.0,2025-04-09 22:42:55.823,FORWARD,50
161.0,10826.71562751718,251.03244197755362,-54549.074715265604,-50638.97229897646,-31368.192299388924,-28746.846764903876,-1366.898580419848,-18555.05479038415,0.0,0.0,0.0,193.0,1.0,153.0,0.0,44.0,3.0,249.0,409.0,44.0,1017.0,1744252975.8231864,0.0,2025-04-09 22:42:55.823,FORWARD,50
162.0,10792.919789900756,270.41140442030485,-54509.4674240908,-50579.71782442544,-31316.71623190835,-28715.330805221893,-1275.3458351309105,-18523.024740579694,0.0,0.0,0.0,193.0,1.0,154.0,0.0,44.0,3.0,249.0,410.0,44.0,1017.0,1744252975.8231952,0.0,2025-04-09 22:42:55.823,FORWARD,50
163.0,10735.900489795267,263.23649445015127,-54549.477046665794,-50635.23955765242,-31343.2477525768,-28735.44737523167,-1306.2359459681447,-18538.358037276037,0.0,0.0,0.0,193.0,1.0,154.0,0.0,44.0,3.0,250.0,410.0,44.0,1018.0,1744252975.8232036,0.0,2025-04-09 22:42:55.823,FORWARD,50
164.0,10752.485484181105,243.14227618483022,-54536.84831104855,-50579.44960349198,-31380.798683261717,-28765.59987850188,-1288.7345300596394,-18548.5280810032,0.0,0.0,0.0,193.0,1.0,154.0,0.0,44.0,3.0,252.0,410.0,44.0,1020.0,1744252975.823212,0.0,2025-04-09 22:42:55.823,FORWARD,50
165.0,10831.633011297346,259.3025874260172,-54548.33710769858,-50621.78380749033,-31383.369133874075,-28762.02359938903,-1349.1736470667895,-18553.423113038913,0.0,0.0,0.0,193.0,1.0,154.0,0.0,44.0,3.0,252.0,410.0,44.0,1020.0,1744252975.8232205,0.0,2025-04-09 22:42:55.823,FORWARD,50
166.0,10797.144269602808,265.62813110686915,-54508.372188612484,-50587.11625184015,-31323.332348267122,-28704.40080218325,-1310.0804460144575,-18497.007310033718,0.0,0.0,0.0,193.0,1.0,155.0,0.0,44.0,3.0,252.0,411.0,44.0,1020.0,1744252975.8232296,0.0,2025-04-09 22:42:55.823,FORWARD,50
167.0,10746.383457944807,267.7738985745786,-54540.066962250115,-50620.57681328974,-31339.023272874747,-28727.82543037241,-1300.1562714763013,-18522.778871390685,0.0,0.0,0.0,193.0,1.0,155.0,0.0,44.0,3.0,250.0,411.0,44.0,1018.0,1744252975.823238,0.0,2025-04-09 22:42:55.823,FORWARD,50
168.0,10733.441797905183,234.31333712498395,-54543.15150298495,-50605.19881310449,-31379.502282083307,-28769.31026808146,-1322.0162775535916,-18563.906081188452,0.0,0.0,0.0,193.0,1.0,155.0,0.0,44.0,3.0,252.0,411.0,44.0,1020.0,1744252975.8232467,0.0,2025-04-09 22:42:55.823,FORWARD,50
169.0,10831.700066530713,255.92747401326588,-54546.88424430898,-50604.192984604,-31394.50030261282,-28768.639715747802,-1345.7538301651277,-18561.71561023183,0.0,0.0,0.0,193.0,1.0,155.0,0.0,44.0,3.0,252.0,411.0,44.0,1020.0,1744252975.8232596,0.0,2025-04-09 22:42:55.823,FORWARD,50
170.0,10800.027644637543,262.6106456054027,-54518.78810152866,-50609.93738292902,-31333.30122629419,-28711.508656920036,-1353.9345686357701,-18512.13944102996,0.0,0.0,0.0,193.0,1.0,155.0,0.0,44.0,3.0,251.0,411.0,44.0,1019.0,1744252975.8232684,0.0,2025-04-09 22:42:55.823,FORWARD,50
171.0,10752.440780692194,273.49594515513724,-54540.692811094865,-50611.367894574156,-31339.023272874747,-28733.078090319406,-1289.516841115575,-18525.595191192057,0.0,0.0,0.0,193.0,1.0,154.0,0.0,44.0,3.0,250.0,410.0,44.0,1018.0,1744252975.8232768,0.0,2025-04-09 22:42:55.823,FORWARD,50
172.0,10712.83348951739,233.37456385786103,-54552.718049611816,-50626.12004591466,-31370.271011623267,-28768.282087836516,-1325.4137427107983,-18562.028534654204,0.0,0.0,0.0,193.0,1.0,154.0,0.0,44.0,3.0,250.0,410.0,44.0,1018.0,1744252975.8232853,0.0,2025-04-09 22:42:55.823,FORWARD,50
173.0,10815.18212737824,253.96052050119886,-54544.06792450761,-50584.657559950065,-31397.651898581018,-28780.866119964856,-1310.6168878813849,-18574.634918526997,0.0,0.0,0.0,193.0,1.0,155.0,0.0,44.0,3.0,251.0,411.0,44.0,1019.0,1744252975.823294,0.0,2025-04-09 22:42:55.823,FORWARD,50
174.0,10803.223944094652,256.0168809910871,-54526.16417719891,-50626.2988598703,-31339.91734265296,-28714.593197654867,-1372.6876822337726,-18522.309484757126,0.0,0.0,0.0,193.0,1.0,155.0,0.0,44.0,3.0,251.0,411.0,44.0,1019.0,1744252975.8233025,0.0,2025-04-09 22:42:55.823,FORWARD,50
175.0,10760.263891251552,269.0032445196205,-54532.26620343521,-50597.174536845036,-31333.412985016465,-28726.39491872727,-1276.8881054983265,-18518.554391688634,0.0,0.0,0.0,193.0,1.0,154.0,0.0,44.0,3.0,251.0,410.0,44.0,1019.0,1744252975.823311,0.0,2025-04-09 22:42:55.823,FORWARD,50
176.0,10709.63719006028,237.30847088199508,-54551.91338681142,-50636.22303440846,-31355.317694582667,-28753.753453940568,-1320.6528211418179,-18546.225851324303,0.0,0.0,0.0,193.0,1.0,154.0,0.0,44.0,3.0,250.0,410.0,44.0,1018.0,1744252975.8233197,0.0,2025-04-09 22:42:55.823,FORWARD,50
177.0,10804.967380162167,251.39006988883853,-54534.36726741401,-50571.58178944371,-31386.811302520193,-28789.806817746976,-1282.677207312251,-18582.189808152893,0.0,0.0,0.0,193.0,1.0,154.0,0.0,44.0,3.0,249.0,410.0,44.0,1017.0,1744252975.8233283,0.0,2025-04-09 22:42:55.823,FORWARD,50
178.0,10805.23560109563,249.24430242112905,-54538.34587792705,-50645.02962172385,-31354.222459104356,-28728.11600305033,-1387.8868684633815,-18521.638932423466,0.0,0.0,0.0,193.0,1.0,154.0,0.0,44.0,3.0,250.0,410.0,44.0,1018.0,1744252975.8233368,0.0,2025-04-09 22:42:55.823,FORWARD,50
179.0,10764.22015002014,268.1762299747741,-54527.99702024425,-50593.48649900991,-31336.832801918128,-28721.8798663473,-1278.4080241212876,-18501.23178973577,0.0,0.0,0.0,193.0,1.0,154.0,0.0,44.0,3.0,250.0,410.0,44.0,1018.0,1744252975.8233452,0.0,2025-04-09 22:42:55.823,FORWARD,50
180.0,10706.753815025546,244.2598634075956,-54559.15535201495,-50654.88674102864,-31357.64227600602,-28751.406520772758,-1330.5099404466082,-18537.32985703109,0.0,0.0,0.0,193.0,1.0,154.0,0.0,44.0,3.0,249.0,410.0,44.0,1017.0,1744252975.8233538,0.0,2025-04-09 22:42:55.823,FORWARD,50
181.0,10782.839153151412,255.7486600576234,-54534.970764514306,-50570.35244349867,-31388.912366498993,-28786.27524212304,-1282.4760416121533,-18570.946880691874,0.0,0.0,0.0,193.0,1.0,154.0,0.0,44.0,3.0,251.0,410.0,44.0,1019.0,1744252975.8233624,0.0,2025-04-09 22:42:55.823,FORWARD,50
182.0,10815.338589589428,256.28510192455076,-54549.11941875451,-50653.00919449439,-31366.292401110222,-28747.919648637733,-1396.358179611943,-18552.90902291644,0.0,0.0,0.0,193.0,1.0,155.0,0.0,44.0,3.0,252.0,411.0,44.0,1020.0,1744252975.8233707,0.0,2025-04-09 22:42:55.823,FORWARD,50
183.0,10777.765307160058,269.9420177867434,-54519.3692468845,-50589.2396675634,-31329.277912292233,-28720.561113424435,-1291.2826289275442,-18515.536906187168,0.0,0.0,0.0,193.0,1.0,155.0,0.0,44.0,3.0,252.0,411.0,44.0,1020.0,1744252975.8233793,0.0,2025-04-09 22:42:55.823,FORWARD,50
184.0,10723.227050689107,258.11794496988597,-54553.99209904577,-50647.91299675858,-31352.903706181492,-28731.468764718626,-1329.772332879583,-18523.76234814672,0.0,0.0,0.0,193.0,1.0,155.0,0.0,44.0,3.0,251.0,411.0,44.0,1019.0,1744252975.8233924,0.0,2025-04-09 22:42:55.823,FORWARD,50
185.0,10768.176408788731,249.17724718776313,-54531.70740982383,-50570.06187082075,-31389.895843255028,-28764.92932616822,-1300.1562714763013,-18554.473645028313,0.0,0.0,0.0,193.0,1.0,154.0,0.0,44.0,3.0,250.0,410.0,44.0,1018.0,1744252975.8234007,0.0,2025-04-09 22:42:55.823,FORWARD,50
186.0,10833.510557831592,267.01393926309817,-54540.625755861496,-50629.29399362731,-31378.138825671536,-28740.700035178666,-1393.0277696881021,-18549.824482181608,0.0,0.0,0.0,193.0,1.0,154.0,0.0,44.0,3.0,249.0,410.0,44.0,1017.0,1744252975.8234093,0.0,2025-04-09 22:42:55.823,FORWARD,50
187.0,10787.376557275838,272.7806893325674,-54508.75216826823,-50583.02588260483,-31328.562656469665,-28710.547531908458,-1315.8918995728375,-18511.37948171848,0.0,0.0,0.0,193.0,1.0,154.0,0.0,44.0,3.0,251.0,410.0,44.0,1019.0,1744252975.8234177,0.0,2025-04-09 22:42:55.823,FORWARD,50
188.0,10730.021981003521,261.44835489372673,-54552.2263112338,-50643.62146182317,-31350.467366035864,-28744.097500335873,-1325.8831293443598,-18551.187938593383,0.0,0.0,0.0,193.0,1.0,154.0,0.0,44.0,3.0,249.0,410.0,44.0,1017.0,1744252975.8234262,0.0,2025-04-09 22:42:55.823,FORWARD,50
189.0,10740.437893919694,237.84491274892247,-54539.351706427544,-50595.408749033064,-31376.797721004215,-28777.468654807646,-1296.1106057298907,-18572.48915105929,0.0,0.0,0.0,193.0,1.0,155.0,0.0,44.0,3.0,250.0,411.0,44.0,1018.0,1744252975.8234348,0.0,2025-04-09 22:42:55.823,FORWARD,50
190.0,10821.261801870085,248.23847392064025,-54557.523674669705,-50634.233729151936,-31393.3603636456,-28778.899166452786,-1361.9141414063147,-18578.01003193975,0.0,0.0,0.0,193.0,1.0,154.0,0.0,44.0,3.0,252.0,410.0,44.0,1020.0,1744252975.8234432,0.0,2025-04-09 22:42:55.823,FORWARD,50
191.0,10790.952836388688,263.6835293392574,-54514.07188344859,-50605.60114450469,-31327.333310524624,-28710.63693888628,-1338.4671614726976,-18511.446536951844,0.0,0.0,0.0,193.0,1.0,155.0,0.0,44.0,3.0,252.0,411.0,44.0,1020.0,1744252975.823452,0.0,2025-04-09 22:42:55.823,FORWARD,50
192.0,10742.002516031565,271.1713637317853,-54543.062096007125,-50628.131702915634,-31341.59372348711,-28724.8302966154,-1302.547908133019,-18510.8206881071,0.0,0.0,0.0,193.0,1.0,155.0,0.0,44.0,3.0,249.0,411.0,44.0,1017.0,1744252975.8234603,0.0,2025-04-09 22:42:55.823,FORWARD,50
193.0,10729.127911225309,241.35413662840566,-54535.1719302144,-50609.445644551,-31363.431377819943,-28755.049855118974,-1299.6645330982844,-18536.324028530602,0.0,0.0,0.0,193.0,1.0,154.0,0.0,44.0,3.0,249.0,410.0,44.0,1017.0,1744252975.823469,0.0,2025-04-09 22:42:55.823,FORWARD,50
194.0,10824.122825160364,258.31911066998373,-54540.44694190585,-50604.03652239282,-31385.514901341787,-28774.07118965044,-1315.6236786393738,-18562.72143873232,0.0,0.0,0.0,193.0,1.0,155.0,0.0,44.0,3.0,249.0,411.0,44.0,1017.0,1744252975.8234775,0.0,2025-04-09 22:42:55.823,FORWARD,50
195.0,10793.99267363461,258.922607770277,-54514.63067705998,-50620.46505456747,-31324.896970378995,-28714.235569743585,-1352.5040569906303,-18517.5709149326,0.0,0.0,0.0,193.0,1.0,154.0,0.0,44.0,3.0,250.0,410.0,44.0,1018.0,1744252976.1217973,0.0,2025-04-09 22:42:56.121,FORWARD,50
196.0,10756.84407434989,275.7087678562126,-54530.81334004561,-50609.445644551,-31332.049528604693,-28731.96050309664,-1291.774367305561,-18532.81480465112,0.0,0.0,0.0,193.0,1.0,154.0,0.0,44.0,3.0,250.0,410.0,44.0,1018.0,1744252976.121833,0.0,2025-04-09 22:42:56.121,FORWARD,50
197.0,10724.366989656328,248.84197102093353,-54541.0727907506,-50621.560290045774,-31357.3517033281,-28755.54159349699,-1328.5206351900858,-18556.597060751566,0.0,0.0,0.0,193.0,1.0,155.0,0.0,44.0,3.0,252.0,411.0,44.0,1020.0,1744252976.1218534,0.0,2025-04-09 22:42:56.121,FORWARD,50
198.0,10825.821557738967,268.0868229969529,-54530.634526089976,-50571.49238246589,-31382.095084440123,-28770.539614026504,-1295.3059429294997,-18554.875976428506,0.0,0.0,0.0,193.0,1.0,154.0,0.0,44.0,3.0,251.0,410.0,44.0,1019.0,1744252976.1218944,0.0,2025-04-09 22:42:56.121,FORWARD,50
199.0,10814.422168066762,270.45610790921546,-54515.32358113809,-50618.05106616629,-31327.78034541373,-28700.86922655931,-1367.3009118200437,-18509.636045650965,0.0,0.0,0.0,193.0,1.0,155.0,0.0,44.0,3.0,252.0,411.0,44.0,1020.0,1744252976.1219049,0.0,2025-04-09 22:42:56.121,FORWARD,50
200.0,10768.154057044276,279.70973011371257,-54521.179738185376,-50582.57884771572,-31327.2439035468,-28707.641805129268,-1276.77634677605,-18508.85373459503,0.0,0.0,0.0,193.0,1.0,155.0,0.0,44.0,3.0,252.0,411.0,44.0,1020.0,1744252976.1219144,0.0,2025-04-09 22:42:56.121,FORWARD,50
201.0,10718.801405286957,244.05869770749783,-54547.28657570918,-50636.71477278647,-31355.898839938505,-28741.147070067775,-1336.1202283048904,-18551.322049060112,0.0,0.0,0.0,193.0,1.0,155.0,0.0,44.0,3.0,252.0,411.0,44.0,1020.0,1744252976.1219237,0.0,2025-04-09 22:42:56.121,FORWARD,50
202.0,10797.367787047362,241.97998547315427,-54539.79874131665,-50579.404900003065,-31395.237910179843,-28794.679498038233,-1297.6528760973067,-18603.267503174247,0.0,0.0,0.0,193.0,1.0,155.0,0.0,44.0,3.0,250.0,411.0,44.0,1018.0,1744252976.1219327,0.0,2025-04-09 22:42:56.121,FORWARD,50
203.0,10803.581572005936,243.9469389852213,-54542.145674484455,-50657.77011606337,-31356.39057831652,-28737.54843921047,-1399.1521476688563,-18547.20932808034,0.0,0.0,0.0,193.0,1.0,154.0,0.0,44.0,3.0,249.0,410.0,44.0,1017.0,1744252976.1219416,0.0,2025-04-09 22:42:56.121,FORWARD,50
204.0,10770.948025101188,275.9769887896763,-54515.390636371456,-50588.502059996375,-31326.126316324036,-28714.749659866055,-1284.353588146399,-18500.360071702013,0.0,0.0,0.0,193.0,1.0,154.0,0.0,44.0,3.0,250.0,410.0,44.0,1018.0,1744252976.1219504,0.0,2025-04-09 22:42:56.121,FORWARD,50
205.0,10708.206678415141,247.72438379816816,-54553.187436245375,-50654.86438928419,-31355.36239807158,-28743.7845759135,-1344.390373753354,-18538.96153437633,0.0,0.0,0.0,193.0,1.0,154.0,0.0,44.0,3.0,250.0,410.0,44.0,1018.0,1744252976.121959,0.0,2025-04-09 22:42:56.121,FORWARD,50
206.0,10770.143362300798,240.97415697266544,-54535.32839242559,-50577.41559474655,-31392.823921778672,-28781.044933920497,-1294.3224661734662,-18559.748656719763,0.0,0.0,0.0,193.0,1.0,154.0,0.0,44.0,3.0,249.0,410.0,44.0,1017.0,1744252976.1219676,0.0,2025-04-09 22:42:56.121,FORWARD,50
207.0,10816.411473323284,251.81475303348938,-54541.2739564507,-50649.03058398135,-31364.571316787165,-28739.135413066797,-1390.2114498867334,-18532.881859884485,0.0,0.0,0.0,193.0,1.0,154.0,0.0,44.0,3.0,252.0,410.0,44.0,1020.0,1744252976.1219764,0.0,2025-04-09 22:42:56.121,FORWARD,50
208.0,10774.211379791663,264.53289562855906,-54509.4674240908,-50587.92091464054,-31323.220589544846,-28715.755488366543,-1290.5003178716086,-18507.13265027197,0.0,0.0,0.0,193.0,1.0,155.0,0.0,44.0,3.0,251.0,411.0,44.0,1019.0,1744252976.1219852,0.0,2025-04-09 22:42:56.121,FORWARD,50
209.0,10717.326190152908,253.62524433436923,-54550.88520656648,-50652.897435772116,-31351.517898025264,-28747.60672421536,-1337.6848504167617,-18555.85945318454,0.0,0.0,0.0,193.0,1.0,154.0,0.0,44.0,3.0,252.0,410.0,44.0,1020.0,1744252976.121994,0.0,2025-04-09 22:42:56.121,FORWARD,50
210.0,10743.321268954429,230.89352022332196,-54538.435284904874,-50593.21827807645,-31390.991078733336,-28792.310213125973,-1308.6946378582286,-18593.566846080645,0.0,0.0,0.0,193.0,1.0,155.0,0.0,44.0,3.0,251.0,411.0,44.0,1019.0,1744252976.1220033,0.0,2025-04-09 22:42:56.122,FORWARD,50
211.0,10811.069406398465,247.07618320896427,-54549.78997108817,-50645.275490912856,-31381.89391874003,-28758.44732027618,-1377.2697898471106,-18548.952764147853,0.0,0.0,0.0,193.0,1.0,154.0,0.0,44.0,3.0,250.0,410.0,44.0,1018.0,1744252976.122012,0.0,2025-04-09 22:42:56.122,FORWARD,50
212.0,10775.641891436802,263.0129770055982,-54507.88045023447,-50593.15122284308,-31324.181714556424,-28707.820619084912,-1312.650896626818,-18501.969397302797,0.0,0.0,0.0,193.0,1.0,154.0,0.0,44.0,3.0,250.0,410.0,44.0,1018.0,1744252976.1220207,0.0,2025-04-09 22:42:56.122,FORWARD,50
213.0,10715.091015707376,253.87111352337763,-54549.61115713253,-50642.36976413367,-31349.64035149102,-28736.31909326543,-1317.8812048293598,-18536.368732019513,0.0,0.0,0.0,193.0,1.0,154.0,0.0,44.0,3.0,250.0,410.0,44.0,1018.0,1744252976.1220357,0.0,2025-04-09 22:42:56.122,FORWARD,50
214.0,10721.349504154863,229.88769172283315,-54540.044610505654,-50604.3941503041,-31383.659706551996,-28768.997343659088,-1320.6304693973625,-18567.95174693486,0.0,0.0,0.0,193.0,1.0,155.0,0.0,44.0,3.0,252.0,411.0,44.0,1020.0,1744252976.1220448,0.0,2025-04-09 22:42:56.122,FORWARD,50
215.0,10816.880859956844,248.17141868727433,-54544.44790416335,-50623.1472639021,-31391.438113622444,-28764.281125579015,-1358.4943245046527,-18566.29771784517,0.0,0.0,0.0,193.0,1.0,155.0,0.0,44.0,3.0,250.0,411.0,44.0,1018.0,1744252976.1220531,0.0,2025-04-09 22:42:56.122,FORWARD,50
216.0,10781.542751973004,252.77587804506757,-54508.14867116793,-50610.85380445168,-31326.416889001954,-28706.01012778403,-1338.1095335614127,-18510.4183567069,0.0,0.0,0.0,193.0,1.0,155.0,0.0,44.0,3.0,252.0,411.0,44.0,1020.0,1744252976.1220622,0.0,2025-04-09 22:42:56.122,FORWARD,50
217.0,10733.151225227264,257.8050205475117,-54540.402238416944,-50630.47863608344,-31344.87942992204,-28729.21123852864,-1301.2515069546112,-18531.42899649489,0.0,0.0,0.0,193.0,1.0,155.0,0.0,44.0,3.0,251.0,411.0,44.0,1019.0,1744252976.1220713,0.0,2025-04-09 22:42:56.122,FORWARD,50
218.0,10703.445756846162,217.34836308340587,-54553.00862228974,-50634.32313612976,-31385.53725308624,-28769.533785526015,-1333.974460837181,-18568.890520201985,0.0,0.0,0.0,193.0,1.0,154.0,0.0,44.0,3.0,250.0,410.0,44.0,1018.0,1744252976.12208,0.0,2025-04-09 22:42:56.122,FORWARD,50
219.0,10807.04609239651,242.33761338443918,-54545.856064064035,-50608.7974439618,-31399.775314304272,-28778.45213156368,-1323.1562165208122,-18568.309374846147,0.0,0.0,0.0,193.0,1.0,154.0,0.0,44.0,3.0,249.0,410.0,44.0,1017.0,1744252976.122089,0.0,2025-04-09 22:42:56.122,FORWARD,50
220.0,10794.015025379065,255.86041877989996,-54510.9649909693,-50624.845996480704,-31331.758955926773,-28709.496999919058,-1361.489458261664,-18514.66518815341,0.0,0.0,0.0,193.0,1.0,154.0,0.0,44.0,3.0,249.0,410.0,44.0,1017.0,1744252976.1220975,0.0,2025-04-09 22:42:56.122,FORWARD,50
221.0,10751.27848998052,270.79138407604506,-54525.13599695397,-50608.61863000615,-31336.63163621803,-28726.707843149645,-1287.5051841145973,-18523.114147557517,0.0,0.0,0.0,193.0,1.0,154.0,0.0,44.0,3.0,249.0,410.0,44.0,1017.0,1744252976.122106,0.0,2025-04-09 22:42:56.122,FORWARD,50
222.0,10705.21154465813,228.23366263314043,-54550.616985633016,-50647.66712756958,-31378.138825671536,-28766.31513432445,-1351.453525001231,-18569.5834242801,0.0,0.0,0.0,193.0,1.0,154.0,0.0,44.0,3.0,250.0,410.0,44.0,1018.0,1744252976.1221156,0.0,2025-04-09 22:42:56.122,FORWARD,50
223.0,10806.37554006285,250.9430349997324,-54533.204976702335,-50586.400996017575,-31401.45169513842,-28786.342297356405,-1311.3097919594995,-18577.76416275074,0.0,0.0,0.0,193.0,1.0,155.0,0.0,44.0,3.0,251.0,411.0,44.0,1019.0,1744252976.1221244,0.0,2025-04-09 22:42:56.122,FORWARD,50
224.0,10809.102452886398,256.77684030256756,-54516.642334060954,-50638.16763617607,-31340.96787464236,-28714.213217999128,-1383.349464338954,-18518.24146726626,0.0,0.0,0.0,193.0,1.0,155.0,0.0,44.0,3.0,252.0,411.0,44.0,1020.0,1744252976.122133,0.0,2025-04-09 22:42:56.122,FORWARD,50
225.0,10768.668147166747,272.11013699890816,-54510.495604335745,-50589.93257164152,-31327.892104136004,-28711.508656920036,-1280.5761433334521,-18513.52524918619,0.0,0.0,0.0,193.0,1.0,154.0,0.0,44.0,3.0,251.0,410.0,44.0,1019.0,1744252976.1221418,0.0,2025-04-09 22:42:56.122,FORWARD,50
226.0,10711.872364505813,243.7234215406682,-54537.56356687112,-50646.236615924434,-31357.172889372458,-28743.24813404657,-1345.1726848092896,-18562.25205209876,0.0,0.0,0.0,193.0,1.0,154.0,0.0,44.0,3.0,249.0,410.0,44.0,1017.0,1744252976.1221507,0.0,2025-04-09 22:42:56.122,FORWARD,50
227.0,10801.167583604763,263.6388258503468,-54512.708427036814,-50563.5351614398,-31383.011505962793,-28772.528919283024,-1288.3098469149884,-18582.882712231007,0.0,0.0,0.0,193.0,1.0,154.0,0.0,44.0,3.0,250.0,410.0,44.0,1018.0,1744252976.1221592,0.0,2025-04-09 22:42:56.122,FORWARD,50
228.0,10822.781720493045,267.438622407749,-54518.676342806386,-50638.74878153191,-31344.991188644315,-28713.07327903191,-1383.0588916610352,-18523.069444068606,0.0,0.0,0.0,193.0,1.0,155.0,0.0,44.0,3.0,252.0,411.0,44.0,1020.0,1744252976.1221728,0.0,2025-04-09 22:42:56.122,FORWARD,50
229.0,10779.486391483117,273.92062829978806,-54503.32069436559,-50582.53414422681,-31322.751202911284,-28703.14910449375,-1276.8881054983265,-18500.695347868845,0.0,0.0,0.0,193.0,1.0,155.0,0.0,44.0,3.0,252.0,411.0,44.0,1020.0,1744252976.1221812,0.0,2025-04-09 22:42:56.122,FORWARD,50
230.0,10716.700341308158,250.11602045488604,-54545.34197394156,-50652.78567704984,-31353.462499792877,-28733.0333868305,-1338.869492872893,-18541.733150688786,0.0,0.0,0.0,193.0,1.0,155.0,0.0,44.0,3.0,252.0,411.0,44.0,1020.0,1744252976.1221898,0.0,2025-04-09 22:42:56.122,FORWARD,50
231.0,10766.097696554387,236.97319471516548,-54529.22636618929,-50579.51665872534,-31393.561529345698,-28772.88654719431,-1300.648009854318,-18568.309374846147,0.0,0.0,0.0,193.0,1.0,155.0,0.0,44.0,3.0,251.0,411.0,44.0,1019.0,1744252976.1221983,0.0,2025-04-09 22:42:56.122,FORWARD,50
232.0,10817.774929735057,244.6621948077911,-54537.56356687112,-50650.17052294857,-31365.621848776562,-28741.0353113455,-1382.8130224720267,-18554.294831072668,0.0,0.0,0.0,193.0,1.0,154.0,0.0,44.0,3.0,248.0,410.0,44.0,1016.0,1744252976.1222067,0.0,2025-04-09 22:42:56.122,FORWARD,50
233.0,10783.643815951804,268.8467823084334,-54495.251714617225,-50580.00839710336,-31312.782324884218,-28698.455238158138,-1283.3030561569997,-18510.23954275126,0.0,0.0,0.0,193.0,1.0,154.0,0.0,45.0,3.0,250.0,410.0,45.0,1018.0,1744252976.1222155,0.0,2025-04-09 22:42:56.122,FORWARD,50
234.0,10726.892736779779,259.10142172591947,-54537.049476748645,-50643.12972344515,-31339.29149380821,-28726.484325705092,-1312.2485652266223,-18525.528135958688,0.0,0.0,0.0,193.0,1.0,154.0,0.0,45.0,3.0,249.0,410.0,45.0,1017.0,1744252976.122224,0.0,2025-04-09 22:42:56.122,FORWARD,50
235.0,10753.290146981495,242.18115117325203,-54520.866813763,-50583.20469656047,-31372.77440700226,-28761.442454033193,-1288.354550403899,-18546.96345889133,0.0,0.0,0.0,193.0,1.0,154.0,0.0,44.0,3.0,250.0,410.0,44.0,1018.0,1744252976.1222324,0.0,2025-04-09 22:42:56.122,FORWARD,50
236.0,10829.66605778528,260.71074732670155,-54533.18262495788,-50629.58456630523,-31372.729703513352,-28745.326846280917,-1360.9306646502812,-18541.934316388884,0.0,0.0,0.0,193.0,1.0,154.0,0.0,44.0,3.0,251.0,410.0,44.0,1019.0,1744252976.1222413,0.0,2025-04-09 22:42:56.122,FORWARD,50
237.0,10789.857600910378,266.27633169607304,-54501.08551992006,-50599.342656057204,-31321.43244998842,-28703.68554636068,-1322.8432920984378,-18504.741013615254,0.0,0.0,0.0,193.0,1.0,155.0,0.0,44.0,3.0,252.0,411.0,44.0,1020.0,1744252976.12225,0.0,2025-04-09 22:42:56.122,FORWARD,50
238.0,10737.68862935169,263.52706712807026,-54534.970764514306,-50636.55831057529,-31338.755051941283,-28722.572770425413,-1315.5566234060077,-18532.256011039735,0.0,0.0,0.0,193.0,1.0,155.0,0.0,44.0,3.0,252.0,411.0,44.0,1020.0,1744252976.122259,0.0,2025-04-09 22:42:56.122,FORWARD,50
239.0,10727.071550735422,235.54268307002582,-54526.79002604366,-50605.39997880459,-31365.554793543197,-28759.251983076574,-1307.5546988910078,-18578.18884589539,0.0,0.0,0.0,193.0,1.0,155.0,0.0,44.0,3.0,251.0,411.0,44.0,1019.0,1744252976.1222675,0.0,2025-04-09 22:42:56.122,FORWARD,50
240.0,10817.596115779414,248.55139834301454,-54531.28272667918,-50613.87128995315,-31373.154386658003,-28762.44828253368,-1321.7033531312172,-18572.06446791464,0.0,0.0,0.0,193.0,1.0,154.0,0.0,44.0,3.0,250.0,410.0,44.0,1018.0,1744252976.1222763,0.0,2025-04-09 22:42:56.122,FORWARD,50
241.0,10801.681673727237,264.10821248390823,-54484.09819413402,-50593.86647866565,-31301.09236253409,-28674.96355473561,-1315.6907338727397,-18465.916033496385,0.0,0.0,0.0,193.0,1.0,154.0,0.0,44.0,3.0,249.0,410.0,44.0,1017.0,1744252976.122285,0.0,2025-04-09 22:42:56.122,FORWARD,50
242.0,10742.047219520477,264.6670060952909,-54523.213746930815,-50612.77605447484,-31331.267217548757,-28709.72051736361,-1287.4157771367761,-18503.936350814864,0.0,0.0,0.0,193.0,1.0,154.0,0.0,45.0,3.0,250.0,410.0,45.0,1018.0,1744252976.1222937,0.0,2025-04-09 22:42:56.122,FORWARD,50
243.0,10715.672161063214,240.97415697266544,-54525.78419754317,-50612.64194400811,-31357.01642716127,-28735.7826513985,-1314.8860710723486,-18532.099548828548,0.0,0.0,0.0,193.0,1.0,155.0,0.0,44.0,3.0,252.0,411.0,44.0,1020.0,1744252976.1223588,0.0,2025-04-09 22:42:56.122,FORWARD,50
244.0,10819.831290224945,259.07906998146416,-54521.55971784112,-50582.75766167136,-31378.049418693714,-28760.36957029934,-1293.6519138398069,-18551.165586848925,0.0,0.0,0.0,193.0,1.0,154.0,0.0,44.0,3.0,250.0,410.0,44.0,1018.0,1744252976.1223674,0.0,2025-04-09 22:42:56.122,FORWARD,50
245.0,10809.594191264414,271.953674787721,-54497.03985417364,-50614.385380075626,-31317.05150807518,-28695.527159634494,-1349.643033700351,-18506.88678108296,0.0,0.0,0.0,193.0,1.0,155.0,0.0,44.0,3.0,252.0,411.0,44.0,1020.0,1744252976.122376,0.0,2025-04-09 22:42:56.122,FORWARD,50
246.0,10760.59916741838,280.31322721400585,-54514.65302880443,-50595.60991473316,-31326.282778535224,-28715.219046499617,-1276.2175531646674,-18517.14623178795,0.0,0.0,0.0,193.0,1.0,155.0,0.0,44.0,3.0,252.0,411.0,44.0,1020.0,1744252976.1223845,0.0,2025-04-09 22:42:56.122,FORWARD,50
247.0,10709.145451682265,240.68358429474645,-54540.17872097239,-50638.346450131714,-31360.97268592986,-28748.523145738025,-1331.1581410358122,-18550.159758348436,0.0,0.0,0.0,193.0,1.0,155.0,0.0,44.0,3.0,251.0,411.0,44.0,1019.0,1744252976.1223931,0.0,2025-04-09 22:42:56.122,FORWARD,50
248.0,10812.52226978806,262.54359037203676,-54519.570412584595,-50570.97829234342,-31382.609174562596,-28767.9915151586,-1290.9250010162593,-18564.420171310925,0.0,0.0,0.0,193.0,1.0,154.0,0.0,44.0,3.0,248.0,410.0,44.0,1016.0,1744252976.122402,0.0,2025-04-09 22:42:56.122,FORWARD,50
249.0,10810.33179883144,261.7389275716457,-54515.591802071554,-50638.1005809427,-31334.418813516953,-28710.56988365291,-1382.4330428162866,-18526.444557481358,0.0,0.0,0.0,193.0,1.0,154.0,0.0,44.0,3.0,250.0,410.0,44.0,1018.0,1744252976.1224108,0.0,2025-04-09 22:42:56.122,FORWARD,50
250.0,10759.615690662347,263.9070467838105,-54520.71035155182,-50600.70611246897,-31331.043700104205,-28721.522238436013,-1286.4323003807426,-18525.125804558495,0.0,0.0,0.0,193.0,1.0,154.0,0.0,45.0,3.0,250.0,410.0,45.0,1018.0,1744252976.1224196,0.0,2025-04-09 22:42:56.122,FORWARD,50
251.0,10703.535163823983,246.24916866411792,-54548.247700720756,-50655.24436893992,-31355.854136449594,-28742.86815439083,-1349.2407023001556,-18553.91485141693,0.0,0.0,0.0,193.0,1.0,154.0,0.0,45.0,3.0,250.0,410.0,45.0,1018.0,1744252976.1224284,0.0,2025-04-09 22:42:56.122,FORWARD,50
252.0,10778.413507749261,251.3230146554726,-54533.94258426936,-50581.46126049296,-31396.981346247358,-28780.016753675554,-1301.5644313769856,-18571.080991158604,0.0,0.0,0.0,193.0,1.0,154.0,0.0,44.0,3.0,250.0,410.0,44.0,1018.0,1744252976.1224368,0.0,2025-04-09 22:42:56.122,FORWARD,50
253.0,10816.098548900909,258.31911066998373,-54537.608270360026,-50660.89936028712,-31358.62575276205,-28736.92259036572,-1397.6992842792613,-18544.750636190252,0.0,0.0,0.0,193.0,1.0,155.0,0.0,44.0,3.0,252.0,411.0,44.0,1020.0,1744252976.1224456,0.0,2025-04-09 22:42:56.122,FORWARD,50
254.0,10781.721565928647,275.664064367302,-54507.20989790081,-50592.63713272061,-31321.521856966243,-28715.330805221893,-1286.7675765475724,-18514.32991198658,0.0,0.0,0.0,193.0,1.0,155.0,0.0,44.0,3.0,252.0,411.0,44.0,1020.0,1744252976.1224546,0.0,2025-04-09 22:42:56.122,FORWARD,50
255.0,10717.996742486566,255.81571529098935,-54544.98434603028,-50658.7088893305,-31346.466403778366,-28736.609665943346,-1334.5332544485634,-18533.82063315161,0.0,0.0,0.0,193.0,1.0,155.0,0.0,44.0,3.0,252.0,411.0,44.0,1020.0,1744252976.1224632,0.0,2025-04-09 22:42:56.122,FORWARD,50
