Sample Index,EXG Channel 0,EXG Channel 1,EXG Channel 2,EXG Channel 3,EXG Channel 4,EXG Channel 5,EXG Channel 6,EXG Channel 7,Accel Channel 0,Accel Channel 1,Accel Channel 2,Not Used,Digital Channel 0 (D11),Digital Channel 1 (D12),Digital Channel 2 (D13),Digital Channel 3 (D17),Not Used,Digital Channel 4 (D18),Analog Channel 0,Analog Channel 1,Analog Channel 2,Timestamp,Marker Channel,Timestamp (Formatted),Stimulus_Direction,Stimulus_Number
50.0,9639.122741117804,-8787.16364945932,-24195.919835081084,-23454.288954053995,17410.757232994703,8591.630588964295,31894.06179118893,50756.11779166672,0.0,0.0,0.0,193.0,0.0,193.0,0.0,1.0,0.0,179.0,193.0,1.0,179.0,1744418733.737945,0.0,2025-04-11 20:45:33.737,FORWARD,26
51.0,9629.243270068559,-8818.053760296556,-24150.456386858987,-23478.048858409984,17574.506112874285,8551.352745455832,32088.231395272185,50790.67358859463,0.0,0.0,0.0,193.0,0.0,193.0,0.0,1.0,0.0,179.0,193.0,1.0,179.0,1744418733.737981,0.0,2025-04-11 20:45:33.737,FORWARD,26
52.0,9613.440586738658,-8854.062420614055,-24180.98886978494,-23529.256704957093,17580.67519434395,8351.282280836378,32383.02855289323,50709.246183543946,0.0,0.0,0.0,193.0,0.0,193.0,0.0,1.0,0.0,179.0,193.0,1.0,179.0,1744418733.738017,0.0,2025-04-11 20:45:33.738,FORWARD,26
53.0,9613.798214649942,-8834.661106426849,-24219.992663859448,-23501.808762765977,17451.370352669997,8376.360938115233,32220.218446280775,50647.04127872483,0.0,0.0,0.0,193.0,0.0,193.0,0.0,1.0,0.0,178.0,193.0,1.0,178.0,1744418733.738053,0.0,2025-04-11 20:45:33.738,FORWARD,26
54.0,9634.138302104271,-8796.886658297379,-24212.326015511277,-23468.527015272026,17379.800066924105,8584.03099584949,31938.050024276978,50735.46477979002,0.0,0.0,0.0,193.0,0.0,193.0,0.0,1.0,0.0,178.0,193.0,1.0,178.0,1744418733.738089,0.0,2025-04-11 20:45:33.738,FORWARD,26
55.0,9635.814682938419,-8799.479460654195,-24141.202764654492,-23464.436646036702,17543.23602238131,8583.136926071278,32032.352034133917,50789.57835311632,0.0,0.0,0.0,193.0,0.0,193.0,0.0,1.0,0.0,179.0,193.0,1.0,179.0,1744418733.738125,0.0,2025-04-11 20:45:33.738,FORWARD,26
56.0,9613.082958827372,-8837.522129717128,-24163.442750387523,-23508.581341335936,17600.68000563145,8398.690330826084,32392.215119864362,50738.86224494723,0.0,0.0,0.0,193.0,0.0,193.0,0.0,1.0,0.0,178.0,193.0,1.0,178.0,1744418733.738161,0.0,2025-04-11 20:45:33.738,FORWARD,26
57.0,9622.202470565137,-8820.825376609013,-24195.249282747423,-23479.434666566216,17482.327518740596,8366.280301365889,32258.48463278826,50629.87513898315,0.0,0.0,0.0,193.0,0.0,193.0,0.0,1.0,0.0,179.0,193.0,1.0,179.0,1744418733.7381968,0.0,2025-04-11 20:45:33.738,FORWARD,26
58.0,9630.584374735878,-8791.589294861471,-24205.352271241223,-23448.321038284426,17416.278113875167,8599.118423356822,31995.47165578266,50733.72134372251,0.0,0.0,0.0,193.0,0.0,193.0,0.0,1.0,0.0,179.0,193.0,1.0,179.0,1744418733.738233,0.0,2025-04-11 20:45:33.738,FORWARD,26
59.0,9631.321982302903,-8808.911896814334,-24169.589480112732,-23468.638773994302,17510.781289432205,8602.538240258484,31980.38422827533,50782.17992570161,0.0,0.0,0.0,193.0,0.0,192.0,0.0,1.0,0.0,178.0,192.0,1.0,178.0,1744418733.7382689,0.0,2025-04-11 20:45:33.738,FORWARD,26
60.0,9608.478499469578,-8846.75340017717,-24178.217253472478,-23518.147887962805,17618.1590697955,8429.312220729855,32373.41730277745,50766.37724237171,0.0,0.0,0.0,193.0,0.0,193.0,0.0,1.0,0.0,179.0,193.0,1.0,179.0,1744418733.7383049,0.0,2025-04-11 20:45:33.738,FORWARD,26
61.0,9622.00130486504,-8830.995420336178,-24202.245378761934,-23497.517227830558,17506.735623685792,8316.033579830359,32300.148284452953,50632.758514017885,0.0,0.0,0.0,193.0,0.0,192.0,0.0,1.0,0.0,179.0,192.0,1.0,179.0,1744418733.7383552,0.0,2025-04-11 20:45:33.738,FORWARD,26
62.0,9627.499834001044,-8823.03819931009,-24228.776899430384,-23470.717486228645,17379.1518663349,8548.044687276446,32038.096432458933,50710.25201204443,0.0,0.0,0.0,193.0,0.0,193.0,0.0,1.0,0.0,179.0,193.0,1.0,179.0,1744418733.7383914,0.0,2025-04-11 20:45:33.738,FORWARD,26
63.0,9646.476465043601,-8813.717521872226,-24180.519483151376,-23464.01196289205,17446.25180318973,8603.633475736795,31931.769184085035,50778.22366693302,0.0,0.0,0.0,193.0,0.0,193.0,0.0,1.0,0.0,178.0,193.0,1.0,178.0,1744418733.7384272,0.0,2025-04-11 20:45:33.738,FORWARD,26
64.0,9630.38320903578,-8840.494911729684,-24154.703218305498,-23496.13141967433,17610.827697614157,8460.716421689562,32301.176464697895,50760.834009746795,0.0,0.0,0.0,193.0,0.0,193.0,0.0,1.0,0.0,179.0,193.0,1.0,179.0,1744418733.7384632,0.0,2025-04-11 20:45:33.738,FORWARD,26
65.0,9617.106272829327,-8846.172254821331,-24202.491247950944,-23512.93993150472,17512.83764992209,8310.3115332498,32338.392119215983,50628.914013971575,0.0,0.0,0.0,193.0,0.0,193.0,0.0,1.0,0.0,179.0,193.0,1.0,179.0,1744418733.7385125,0.0,2025-04-11 20:45:33.738,FORWARD,26
66.0,9610.110176814816,-8827.240327267686,-24227.301684296333,-23480.529902044524,17414.40056734092,8509.554983324408,32105.285776291585,50690.26955250139,0.0,0.0,0.0,193.0,0.0,192.0,0.0,1.0,0.0,178.0,192.0,1.0,178.0,1744418733.738549,0.0,2025-04-11 20:45:33.738,FORWARD,26
67.0,9631.165520091716,-8788.728271571192,-24183.78283784185,-23452.36670403084,17459.84166381856,8613.781167719504,31940.55341965597,50782.17992570161,0.0,0.0,0.0,193.0,0.0,193.0,0.0,1.0,0.0,179.0,193.0,1.0,179.0,1744418733.738585,0.0,2025-04-11 20:45:33.738,FORWARD,26
68.0,9607.293857013448,-8840.025525096122,-24161.945183509015,-23493.292748128504,17617.9579040954,8509.622038557773,32291.140531437464,50803.03410327841,0.0,0.0,0.0,193.0,0.0,192.0,0.0,1.0,0.0,178.0,192.0,1.0,178.0,1744418733.7386208,0.0,2025-04-11 20:45:33.738,FORWARD,26
69.0,9607.740891902553,-8857.593996237993,-24205.620492174687,-23517.298521673503,17542.453711325375,8307.316399492789,32405.60381479309,50668.14132549064,0.0,0.0,0.0,193.0,0.0,193.0,0.0,1.0,0.0,179.0,193.0,1.0,179.0,1744418733.7386568,0.0,2025-04-11 20:45:33.738,FORWARD,26
70.0,9616.748644918043,-8826.189795278287,-24240.869193180704,-23485.17906489123,17414.378215596465,8457.2966047879,32182.689867340312,50681.194744252534,0.0,0.0,0.0,193.0,0.0,192.0,0.0,1.0,0.0,178.0,192.0,1.0,178.0,1744418733.7386925,0.0,2025-04-11 20:45:33.738,FORWARD,26
71.0,9640.441494040668,-8805.179155490297,-24200.278425249868,-23456.479425010613,17401.749479979215,8600.906562913247,31955.014998318555,50774.58033258681,0.0,0.0,0.0,193.0,0.0,192.0,0.0,1.0,0.0,178.0,192.0,1.0,178.0,1744418733.7387283,0.0,2025-04-11 20:45:33.738,FORWARD,26
72.0,9621.084883342372,-8832.068304070033,-24149.53996533632,-23482.094524156397,17567.800589537692,8539.2157482166,32223.034766082143,50806.78919634691,0.0,0.0,0.0,193.0,0.0,192.0,0.0,1.0,0.0,178.0,192.0,1.0,178.0,1744418733.7387643,0.0,2025-04-11 20:45:33.738,FORWARD,26
73.0,9607.18209829117,-8858.71158346076,-24189.773105355875,-23525.255742699595,17554.076618442134,8327.678838691574,32446.686321101944,50694.94106709255,0.0,0.0,0.0,193.0,0.0,192.0,0.0,1.0,0.0,179.0,192.0,1.0,179.0,1744418733.7388003,0.0,2025-04-11 20:45:33.738,FORWARD,26
74.0,9613.954676861129,-8837.119798316931,-24222.630169705175,-23490.230559138126,17433.265439661198,8414.3365519448,32259.937496177852,50672.119936003684,0.0,0.0,0.0,193.0,0.0,193.0,0.0,1.0,0.0,179.0,193.0,1.0,179.0,1744418733.7388363,0.0,2025-04-11 20:45:33.738,FORWARD,26
75.0,9637.938098661674,-8792.55041987305,-24199.563169427296,-23451.405579019258,17386.68440421634,8601.152432102255,31997.304498827994,50770.78053602941,0.0,0.0,0.0,193.0,0.0,192.0,0.0,1.0,0.0,178.0,192.0,1.0,178.0,1744418733.7388718,0.0,2025-04-11 20:45:33.738,FORWARD,26
76.0,9643.90601443124,-8812.421120693818,-24138.408796597578,-23454.892451154286,17561.00565922328,8564.160295028722,32164.40614037587,50805.291629468404,0.0,0.0,0.0,193.0,0.0,193.0,0.0,1.0,0.0,179.0,193.0,1.0,179.0,1744418733.7389224,0.0,2025-04-11 20:45:33.738,FORWARD,26
77.0,9611.116005315305,-8855.001193881179,-24172.897538292116,-23505.340338389917,17589.90646480399,8364.98390018748,32475.028333071274,50723.014858128416,0.0,0.0,0.0,193.0,0.0,192.0,0.0,1.0,0.0,178.0,192.0,1.0,178.0,1744418733.7389586,0.0,2025-04-11 20:45:33.738,FORWARD,26
78.0,9606.332732001869,-8851.827246168525,-24216.617550446696,-23482.273338112038,17464.334364454076,8398.936200015092,32323.707023108844,50655.60199685121,0.0,0.0,0.0,193.0,0.0,193.0,0.0,1.0,0.0,179.0,193.0,1.0,179.0,1744418733.7389944,0.0,2025-04-11 20:45:33.738,FORWARD,26
79.0,9626.136377589271,-8821.36181847594,-24218.204524303022,-23451.271468552528,17382.214055325276,8625.18055739171,32054.748482078136,50761.34809986927,0.0,0.0,0.0,193.0,0.0,192.0,0.0,1.0,0.0,178.0,192.0,1.0,178.0,1744418733.73903,0.0,2025-04-11 20:45:33.739,FORWARD,26
80.0,9634.250060826547,-8818.187870763288,-24156.78193053984,-23453.283125553506,17508.859039409046,8610.69662698467,32112.63950021738,50804.08463526781,0.0,0.0,0.0,193.0,0.0,193.0,0.0,1.0,0.0,179.0,193.0,1.0,179.0,1744418733.7390833,0.0,2025-04-11 20:45:33.739,FORWARD,26
81.0,9612.479461727078,-8838.974993106722,-24167.734285322942,-23511.55412334849,17583.536217634228,8406.558144874352,32476.99528658334,50748.98758518548,0.0,0.0,0.0,193.0,0.0,192.0,0.0,1.0,0.0,178.0,192.0,1.0,178.0,1744418733.7391193,0.0,2025-04-11 20:45:33.739,FORWARD,26
82.0,9613.731159416577,-8822.881737098902,-24204.949939841026,-23488.598881792892,17474.41500120342,8357.518417539408,32376.635953979014,50646.9071682581,0.0,0.0,0.0,193.0,0.0,193.0,0.0,1.0,0.0,179.0,193.0,1.0,179.0,1744418733.7391553,0.0,2025-04-11 20:45:33.739,FORWARD,26
83.0,9623.387113021268,-8811.683513126793,-24218.919780125594,-23453.886622653798,17383.44340127032,8581.147620814756,32108.01268911513,50738.99635541396,0.0,0.0,0.0,193.0,0.0,192.0,0.0,1.0,0.0,178.0,192.0,1.0,178.0,1744418733.7391913,0.0,2025-04-11 20:45:33.739,FORWARD,26
84.0,9625.041142110962,-8833.901147115368,-24169.477721390453,-23459.094579111887,17480.27115825071,8599.476051268108,32089.01370632812,50803.79406258989,0.0,0.0,0.0,193.0,0.0,192.0,0.0,1.0,0.0,179.0,192.0,1.0,179.0,1744418733.7392273,0.0,2025-04-11 20:45:33.739,FORWARD,26
85.0,9594.083976040361,-8888.9981971977,-24168.65070684561,-23517.32087341796,17595.986139295834,8430.474511441531,32485.19837679844,50785.91266702565,0.0,0.0,0.0,193.0,0.0,193.0,0.0,1.0,0.0,179.0,193.0,1.0,179.0,1744418733.7392635,0.0,2025-04-11 20:45:33.739,FORWARD,26
86.0,9608.5679064474,-8855.537635748105,-24198.08795429325,-23503.418088366758,17486.060260064634,8301.706111634507,32435.801021552208,50642.99561297842,0.0,0.0,0.0,193.0,0.0,193.0,0.0,1.0,0.0,178.0,193.0,1.0,178.0,1744418733.7392995,0.0,2025-04-11 20:45:33.739,FORWARD,26
87.0,9633.557156748433,-8801.759338588636,-24213.823582389785,-23454.959506387655,17369.18298830783,8540.176873228178,32179.78414056112,50713.82829115728,0.0,0.0,0.0,193.0,0.0,193.0,0.0,1.0,0.0,179.0,193.0,1.0,179.0,1744418733.739336,0.0,2025-04-11 20:45:33.739,FORWARD,26
88.0,9643.90601443124,-8800.574696132506,-24174.618622615173,-23443.73893067109,17427.20811691381,8603.61112399234,32059.934086791767,50784.57156235833,0.0,0.0,0.0,193.0,0.0,192.0,0.0,1.0,0.0,178.0,192.0,1.0,178.0,1744418733.7393718,0.0,2025-04-11 20:45:33.739,FORWARD,26
89.0,9613.351179760835,-8849.949699634279,-24153.362113638177,-23486.095486413895,17617.801441884214,8461.34227053431,32428.201428437405,50778.313073910846,0.0,0.0,0.0,193.0,0.0,193.0,0.0,1.0,0.0,179.0,193.0,1.0,179.0,1744418733.739408,0.0,2025-04-11 20:45:33.739,FORWARD,26
90.0,9625.644639211254,-8831.755379647659,-24176.31735519378,-23485.335527102416,17552.690810285905,8299.78386161135,32462.086673031652,50632.02090645086,0.0,0.0,0.0,193.0,0.0,193.0,0.0,1.0,0.0,179.0,193.0,1.0,179.0,1744418734.2138252,0.0,2025-04-11 20:45:34.213,FORWARD,26
91.0,9611.831261137875,-8817.874946340913,-24212.63893993365,-23462.60380299137,17439.032189730668,8516.014637471992,32246.884077415954,50694.717549648,0.0,0.0,0.0,193.0,0.0,193.0,0.0,0.0,0.0,179.0,193.0,0.0,179.0,1744418734.21393,0.0,2025-04-11 20:45:34.213,FORWARD,26
92.0,9619.922592630695,-8803.055739767044,-24189.281366977855,-23461.35210530187,17443.279021177175,8624.442949824685,32063.331551948973,50786.60557110376,0.0,0.0,0.0,193.0,0.0,193.0,0.0,1.0,0.0,179.0,193.0,1.0,179.0,1744418734.2139685,0.0,2025-04-11 20:45:34.213,FORWARD,26
93.0,9609.372569247791,-8840.763132663147,-24157.184261940034,-23500.42295460975,17604.032767299745,8520.708503807606,32393.35505883158,50808.39852194769,0.0,0.0,0.0,193.0,0.0,192.0,0.0,1.0,0.0,178.0,192.0,1.0,178.0,1744418734.2140052,0.0,2025-04-11 20:45:34.214,FORWARD,26
94.0,9600.61068542131,-8863.830132941024,-24206.760431141905,-23533.95057129271,17527.992132662792,8314.40190248512,32537.143830912573,50679.83128784076,0.0,0.0,0.0,193.0,0.0,193.0,0.0,0.0,0.0,178.0,193.0,0.0,178.0,1744418734.2140412,0.0,2025-04-11 20:45:34.214,FORWARD,26
95.0,9609.864307625809,-8841.724257674725,-24220.79732665984,-23484.955547446676,17411.651302772916,8471.065279372368,32333.407680202446,50699.098491561235,0.0,0.0,0.0,193.0,0.0,193.0,0.0,0.0,0.0,179.0,193.0,0.0,179.0,1744418734.214094,0.0,2025-04-11 20:45:34.214,FORWARD,26
96.0,9623.185947321172,-8824.26754525513,-24197.484457192953,-23462.40263729127,17388.71841296177,8626.454606825662,32086.085627804474,50785.66679783664,0.0,0.0,0.0,193.0,0.0,193.0,0.0,0.0,0.0,179.0,193.0,0.0,179.0,1744418734.2141297,0.0,2025-04-11 20:45:34.214,FORWARD,26
97.0,9609.66314192571,-8840.718429174236,-24149.852889758695,-23490.811704493964,17558.971650477844,8546.055382019924,32314.699270093355,50804.464614923556,0.0,0.0,0.0,193.0,0.0,192.0,0.0,0.0,0.0,178.0,192.0,0.0,178.0,1744418734.2141647,0.0,2025-04-11 20:45:34.214,FORWARD,26
98.0,9606.355083746324,-8860.834999184013,-24174.372753426167,-23526.641550855824,17558.211691166365,8323.186138056057,32552.141851442084,50696.997427582435,0.0,0.0,0.0,193.0,0.0,193.0,0.0,0.0,0.0,179.0,193.0,0.0,179.0,1744418734.2142,0.0,2025-04-11 20:45:34.214,FORWARD,26
99.0,9601.415348221703,-8848.586243222504,-24214.292969023343,-23493.60567255088,17450.252765447232,8413.353075188765,32376.12186385654,50666.68846210104,0.0,0.0,0.0,193.0,0.0,193.0,0.0,0.0,0.0,178.0,193.0,0.0,178.0,1744418734.2142427,0.0,2025-04-11 20:45:34.214,FORWARD,26
100.0,9608.322037258391,-8826.301554000564,-24214.851762634727,-23472.818550207445,17395.87097118747,8607.32151357192,32114.65115721836,50763.31505338133,0.0,0.0,0.0,193.0,0.0,192.0,0.0,0.0,0.0,178.0,192.0,0.0,178.0,1744418734.2142775,0.0,2025-04-11 20:45:34.214,FORWARD,26
101.0,9612.546516960445,-8838.595013450982,-24157.29602066231,-23478.7417624881,17548.08635092811,8567.401297974742,32249.454528028316,50802.3411992003,0.0,0.0,0.0,193.0,0.0,193.0,0.0,0.0,0.0,179.0,193.0,0.0,179.0,1744418734.2143128,0.0,2025-04-11 20:45:34.214,FORWARD,26
102.0,9588.160763759704,-8873.106106889976,-24182.374677941167,-23530.24018171313,17581.56926412216,8373.097583424758,32574.426540664026,50734.816579200815,0.0,0.0,0.0,193.0,0.0,192.0,0.0,0.0,0.0,178.0,192.0,0.0,178.0,1744418734.214348,0.0,2025-04-11 20:45:34.214,FORWARD,26
103.0,9590.619455649789,-8854.352993291974,-24217.77984115837,-23508.46958261366,17456.332439939077,8387.156830687145,32437.097422730618,50660.27351144237,0.0,0.0,0.0,193.0,0.0,192.0,0.0,0.0,0.0,178.0,192.0,0.0,178.0,1744418734.214383,0.0,2025-04-11 20:45:34.214,FORWARD,26
104.0,9607.539726202456,-8825.429835966806,-24223.904219139127,-23477.64652700979,17378.771886679162,8604.32637981491,32159.712274040256,50760.38697485769,0.0,0.0,0.0,193.0,0.0,192.0,0.0,0.0,0.0,178.0,192.0,0.0,178.0,1744418734.2144177,0.0,2025-04-11 20:45:34.214,FORWARD,26
105.0,9623.968258377106,-8823.03819931009,-24164.895613777117,-23477.132436887317,17499.873638138015,8598.336112300887,32189.7977220771,50802.698827111584,0.0,0.0,0.0,193.0,0.0,193.0,0.0,0.0,0.0,178.0,193.0,0.0,178.0,1744418734.2144527,0.0,2025-04-11 20:45:34.214,FORWARD,26
106.0,9595.916819085696,-8857.45988577126,-24183.69343086403,-23537.23627772764,17587.134848491532,8406.80401406336,32567.02811324932,50757.9282829676,0.0,0.0,0.0,193.0,0.0,192.0,0.0,0.0,0.0,178.0,192.0,0.0,178.0,1744418734.2144868,0.0,2025-04-11 20:45:34.214,FORWARD,26
107.0,9599.850726109831,-8844.875853642923,-24221.803155160327,-23528.42969041225,17467.620070889006,8328.148225325134,32473.888394104055,50640.26870015487,0.0,0.0,0.0,193.0,0.0,193.0,0.0,0.0,0.0,179.0,193.0,0.0,179.0,1744418734.214537,0.0,2025-04-11 20:45:34.214,FORWARD,26
108.0,9601.32594124388,-8835.0857895715,-24223.054852849826,-23482.049820667486,17388.74076470623,8568.74240264206,32208.886111841934,50731.66498323262,0.0,0.0,0.0,193.0,0.0,192.0,0.0,0.0,0.0,178.0,192.0,0.0,178.0,1744418734.2145717,0.0,2025-04-11 20:45:34.214,FORWARD,26
109.0,9600.633037165766,-8849.837940912003,-24175.132712737646,-23481.021640422543,17484.07095480811,8600.861859424336,32149.83280299101,50789.846574049785,0.0,0.0,0.0,193.0,0.0,192.0,0.0,0.0,0.0,178.0,192.0,0.0,178.0,1744418734.2146063,0.0,2025-04-11 20:45:34.214,FORWARD,26
110.0,9577.633092121256,-8887.008891941177,-24170.707067335497,-23539.382045195347,17600.948226564913,8441.04688656889,32543.558781571246,50774.58033258681,0.0,0.0,0.0,193.0,0.0,192.0,0.0,0.0,0.0,178.0,192.0,0.0,178.0,1744418734.214641,0.0,2025-04-11 20:45:34.214,FORWARD,26
111.0,9588.697205626631,-8871.832057456024,-24204.16762878509,-23533.615295125877,17499.538361971183,8304.969466324981,32517.317833580713,50639.77696177685,0.0,0.0,0.0,193.0,0.0,192.0,0.0,0.0,0.0,178.0,192.0,0.0,178.0,1744418734.2146883,0.0,2025-04-11 20:45:34.214,FORWARD,26
112.0,9607.539726202456,-8840.472559985228,-24214.98587310146,-23485.02260268004,17408.723224249272,8538.768713327494,32262.083263645563,50709.514404477406,0.0,0.0,0.0,193.0,0.0,192.0,0.0,0.0,0.0,178.0,192.0,0.0,178.0,1744418734.2147236,0.0,2025-04-11 20:45:34.214,FORWARD,26
113.0,9616.368665262302,-8832.917670359335,-24178.55252963931,-23479.300556099482,17459.327573696086,8629.315630115942,32120.060279376543,50775.40734713165,0.0,0.0,0.0,193.0,0.0,192.0,0.0,0.0,0.0,178.0,192.0,0.0,178.0,1744418734.2147586,0.0,2025-04-11 20:45:34.214,FORWARD,26
114.0,9589.32305447138,-8870.893284188902,-24160.358209652688,-23516.873838528853,17611.58765692564,8494.981645939546,32480.57156569619,50772.27810290791,0.0,0.0,0.0,193.0,0.0,192.0,0.0,0.0,0.0,179.0,192.0,0.0,179.0,1744418734.214793,0.0,2025-04-11 20:45:34.214,FORWARD,26
115.0,9588.406632948712,-8874.827191213035,-24197.305643237312,-23523.02056825406,17532.0377984092,8303.74012037994,32553.974694487417,50632.4008861066,0.0,0.0,0.0,193.0,0.0,192.0,0.0,0.0,0.0,178.0,192.0,0.0,178.0,1744418734.21484,0.0,2025-04-11 20:45:34.214,FORWARD,26
116.0,9592.94403707314,-8854.129475847421,-24221.44552724904,-23480.55225378898,17417.73097726476,8503.2070878991,32326.76921209922,50669.72829934696,0.0,0.0,0.0,193.0,0.0,193.0,0.0,0.0,0.0,179.0,193.0,0.0,179.0,1744418734.2148745,0.0,2025-04-11 20:45:34.214,FORWARD,26
117.0,9602.04119706645,-8839.332621018008,-24193.058811790805,-23470.091637383895,17427.051654702624,8634.478883085118,32132.89018069389,50762.68920453658,0.0,0.0,0.0,193.0,0.0,193.0,0.0,0.0,0.0,179.0,193.0,0.0,179.0,1744418734.2149084,0.0,2025-04-11 20:45:34.214,FORWARD,26
118.0,9577.968368288084,-8881.80093548309,-24163.040418987326,-23512.22467568215,17589.235912470333,8532.085541735356,32432.515315117278,50781.95640825706,0.0,0.0,0.0,193.0,0.0,193.0,0.0,0.0,0.0,179.0,193.0,0.0,179.0,1744418734.2149425,0.0,2025-04-11 20:45:34.214,FORWARD,26
119.0,9569.586464117345,-8904.66677006087,-24198.26676824889,-23542.779510352553,17536.53049904472,8324.214318301001,32599.63930840961,50667.60488362371,0.0,0.0,0.0,193.0,0.0,193.0,0.0,0.0,0.0,178.0,193.0,0.0,178.0,1744418734.2149763,0.0,2025-04-11 20:45:34.214,FORWARD,26
120.0,9576.13552524275,-8875.453040057784,-24220.953788871026,-23495.639681296314,17423.341265123043,8459.24120655551,32384.54847151619,50664.83326731125,0.0,0.0,0.0,193.0,0.0,193.0,0.0,0.0,0.0,178.0,193.0,0.0,178.0,1744418734.2150111,0.0,2025-04-11 20:45:34.215,FORWARD,26
121.0,9579.75650784451,-8857.057554371066,-24199.87609384967,-23470.85159669538,17405.929256192358,8634.098903429378,32138.388709829895,50761.593969058275,0.0,0.0,0.0,193.0,0.0,192.0,0.0,0.0,0.0,178.0,192.0,0.0,178.0,1744418734.2150464,0.0,2025-04-11 20:45:34.215,FORWARD,26
122.0,9567.530103627456,-8891.143964665409,-24155.954915994993,-23494.969128962653,17563.24083366881,8563.601501417339,32347.98101758731,50788.661931593655,0.0,0.0,0.0,193.0,0.0,193.0,0.0,0.0,0.0,179.0,193.0,0.0,179.0,1744418734.2150967,0.0,2025-04-11 20:45:34.215,FORWARD,26
123.0,9543.546681826912,-8921.117653979976,-24189.750753611417,-23533.436481170236,17549.42745559543,8342.98978364346,32606.903625357587,50691.208325768515,0.0,0.0,0.0,193.0,0.0,193.0,0.0,0.0,0.0,178.0,193.0,0.0,178.0,1744418734.2151322,0.0,2025-04-11 20:45:34.215,FORWARD,26
124.0,9529.465082820068,-8918.01076150069,-24224.99945461744,-23503.75336453359,17415.942837708335,8396.94689475857,32440.360777421094,50650.081115970745,0.0,0.0,0.0,193.0,0.0,193.0,0.0,0.0,0.0,179.0,193.0,0.0,179.0,1744418734.2151666,0.0,2025-04-11 20:45:34.215,FORWARD,26
125.0,9521.306696093881,-8916.312028922084,-24218.02571034738,-23476.97597467613,17365.137322561422,8604.907525170747,32168.854137522478,50750.216931130526,0.0,0.0,0.0,193.0,0.0,193.0,0.0,0.0,0.0,178.0,193.0,0.0,178.0,1744418734.2152011,0.0,2025-04-11 20:45:34.215,FORWARD,26
126.0,9500.586628983812,-8947.760933370702,-24163.532157365342,-23488.17419864824,17522.47125178233,8584.142754571767,32281.015191199207,50789.31013218286,0.0,0.0,0.0,193.0,0.0,193.0,0.0,0.0,0.0,179.0,193.0,0.0,179.0,1744418734.2152488,0.0,2025-04-11 20:45:34.215,FORWARD,26
127.0,9463.594491910279,-8996.487736283272,-24190.46600943399,-23540.834908584944,17565.0960284586,8388.721452799016,32620.73935517542,50730.212119843025,0.0,0.0,0.0,193.0,0.0,192.0,0.0,0.0,0.0,178.0,192.0,0.0,178.0,1744418734.215284,0.0,2025-04-11 20:45:34.215,FORWARD,26
128.0,9466.522570433925,-8982.987282632266,-24225.737062184464,-23516.315044917472,17450.07395149159,8376.472696837509,32493.4685222469,50642.682688556044,0.0,0.0,0.0,193.0,0.0,193.0,0.0,0.0,0.0,179.0,193.0,0.0,179.0,1744418734.215319,0.0,2025-04-11 20:45:34.215,FORWARD,26
129.0,9475.44091647159,-8965.932901612867,-24227.27933255188,-23483.45798056817,17385.81268618258,8602.158260602744,32223.638263182434,50733.922509422606,0.0,0.0,0.0,193.0,0.0,192.0,0.0,0.0,0.0,178.0,192.0,0.0,178.0,1744418734.2153535,0.0,2025-04-11 20:45:34.215,FORWARD,26
130.0,9460.331137219804,-8988.888143168468,-24179.379544184154,-23487.905977714778,17486.641405420472,8591.205905819645,32231.528428975158,50782.02346349043,0.0,0.0,0.0,193.0,0.0,193.0,0.0,0.0,0.0,179.0,193.0,0.0,179.0,1744418734.2153883,0.0,2025-04-11 20:45:34.215,FORWARD,26
131.0,9426.043561225362,-9040.520672860226,-24182.665250619084,-23536.543373649525,17572.583862851126,8408.011008263948,32615.486695228425,50745.81363747283,0.0,0.0,0.0,193.0,0.0,193.0,0.0,0.0,0.0,178.0,193.0,0.0,178.0,1744418734.2154229,0.0,2025-04-11 20:45:34.215,FORWARD,26
132.0,9420.880308256186,-9043.627565339513,-24226.586428473765,-23534.621123626366,17444.731884566772,8337.446551018542,32548.744386284878,50629.808083749784,0.0,0.0,0.0,193.0,0.0,193.0,0.0,0.0,0.0,179.0,193.0,0.0,179.0,1744418734.2154577,0.0,2025-04-11 20:45:34.215,FORWARD,26
133.0,9432.905546773141,-9013.385655091484,-24241.830318192282,-23499.41712610926,17362.67863067134,8584.880362138792,32286.44666510185,50725.22768082949,0.0,0.0,0.0,193.0,0.0,192.0,0.0,0.0,0.0,178.0,192.0,0.0,178.0,1744418734.2154915,0.0,2025-04-11 20:45:34.215,FORWARD,26
134.0,9438.53818637588,-9003.662646253426,-24194.846951347226,-23498.813629008964,17447.950535768334,8625.202909136166,32205.42159145136,50788.863097293746,0.0,0.0,0.0,193.0,0.0,193.0,0.0,0.0,0.0,179.0,193.0,0.0,179.0,1744418734.215525,0.0,2025-04-11 20:45:34.215,FORWARD,26
135.0,9420.947363489553,-9015.285553370184,-24163.621564343164,-23524.428728154748,17585.65963335748,8463.689203702117,32575.186499975505,50766.31018713835,0.0,0.0,0.0,193.0,0.0,193.0,0.0,0.0,0.0,179.0,193.0,0.0,179.0,1744418734.2155595,0.0,2025-04-11 20:45:34.215,FORWARD,26
136.0,9413.86186049722,-9018.50420457175,-24199.920797338582,-23526.99917876711,17494.129239813,8319.74396940994,32584.529529157822,50633.69728728501,0.0,0.0,0.0,193.0,0.0,192.0,0.0,0.0,0.0,178.0,192.0,0.0,178.0,1744418734.215594,0.0,2025-04-11 20:45:34.215,FORWARD,26
137.0,9407.871592983198,-9022.728684273801,-24234.074262866292,-23497.070192941454,17374.927386632848,8538.634602860762,32349.322122254627,50694.09170080325,0.0,0.0,0.0,193.0,0.0,193.0,0.0,0.0,0.0,179.0,193.0,0.0,179.0,1744418734.2156425,0.0,2025-04-11 20:45:34.215,FORWARD,26
138.0,9421.39439837866,-9018.615963294025,-24192.432962946055,-23484.441457324203,17402.554142779605,8628.220394637632,32181.147596972896,50758.39766960117,0.0,0.0,0.0,193.0,0.0,193.0,0.0,0.0,0.0,178.0,193.0,0.0,178.0,1744418734.2156775,0.0,2025-04-11 20:45:34.215,FORWARD,26
139.0,9406.95517146053,-9051.920062532434,-24156.73722705093,-23521.99238800912,17572.51680761776,8506.671608289673,32523.330452839193,50755.156666655144,0.0,0.0,0.0,193.0,0.0,193.0,0.0,0.0,0.0,179.0,193.0,0.0,179.0,1744418734.2157116,0.0,2025-04-11 20:45:34.215,FORWARD,26
140.0,9399.422633579092,-9059.586710880603,-24197.41740195959,-23539.493803917623,17495.447992735862,8324.88487063466,32623.868599399164,50622.16378714607,0.0,0.0,0.0,193.0,0.0,192.0,0.0,0.0,0.0,178.0,192.0,0.0,178.0,1744418734.2157457,0.0,2025-04-11 20:45:34.215,FORWARD,26
141.0,9401.680159769077,-9041.995887994277,-24221.44552724904,-23488.12949515933,17397.63675899944,8502.58123905435,32404.195654892406,50648.4047351366,0.0,0.0,0.0,193.0,0.0,193.0,0.0,0.0,0.0,179.0,193.0,0.0,179.0,1744418734.2158835,0.0,2025-04-11 20:45:34.215,FORWARD,26
142.0,9408.922124972598,-9028.294268643174,-24211.45429747752,-23481.6921927562,17380.11299134648,8643.687801800705,32197.732591358734,50743.220835116015,0.0,0.0,0.0,193.0,0.0,192.0,0.0,0.0,0.0,178.0,192.0,0.0,178.0,1744418734.21592,0.0,2025-04-11 20:45:34.215,FORWARD,26
143.0,9407.62572379419,-9049.975460764821,-24167.3543056672,-23514.41514663877,17526.248696595278,8548.782294843471,32471.697923147432,50766.71251853854,0.0,0.0,0.0,193.0,0.0,193.0,0.0,0.0,0.0,179.0,193.0,0.0,179.0,1744418734.2159555,0.0,2025-04-11 20:45:34.215,FORWARD,26
144.0,9397.455680067025,-9067.298062717684,-24196.679794392563,-23546.22167899867,17492.341100256577,8326.114216579703,32654.065806158284,50644.76140079038,0.0,0.0,0.0,193.0,0.0,193.0,0.0,0.0,0.0,179.0,193.0,0.0,179.0,1744418734.2159903,0.0,2025-04-11 20:45:34.215,FORWARD,26
145.0,9383.016453148897,-9059.139675991497,-24234.208373333022,-23521.16537346427,17374.994441866213,8444.354944748276,32462.84663234313,50637.40767686459,0.0,0.0,0.0,193.0,0.0,192.0,0.0,0.0,0.0,178.0,192.0,0.0,178.0,1744418734.2160237,0.0,2025-04-11 20:45:34.216,FORWARD,26
146.0,9413.727750030488,-9021.298172628662,-24211.767221899896,-23490.431724838225,17340.125720515935,8610.450757795663,32188.210748220772,50720.287945304866,0.0,0.0,0.0,193.0,0.0,193.0,0.0,0.0,0.0,179.0,193.0,0.0,179.0,1744418734.2160585,0.0,2025-04-11 20:45:34.216,FORWARD,26
147.0,9410.509098828925,-9043.649917083969,-24145.315485634266,-23497.36076561937,17529.55675477466,8552.872664078792,32365.750654429277,50740.94095718157,0.0,0.0,0.0,193.0,0.0,192.0,0.0,0.0,0.0,178.0,192.0,0.0,178.0,1744418734.2160928,0.0,2025-04-11 20:45:34.216,FORWARD,26
148.0,9388.939665429552,-9068.862684829555,-24171.221157457967,-23534.196440481715,17552.15436841898,8353.226882603989,32655.27280035887,50655.60199685121,0.0,0.0,0.0,193.0,0.0,193.0,0.0,0.0,0.0,179.0,193.0,0.0,179.0,1744418734.2161272,0.0,2025-04-11 20:45:34.216,FORWARD,26
149.0,9389.81138346331,-9058.670289357935,-24225.78176567337,-23513.297559416005,17425.956419224312,8415.498842656474,32512.802781200742,50619.3474673447,0.0,0.0,0.0,193.0,0.0,192.0,0.0,0.0,0.0,178.0,192.0,0.0,178.0,1744418734.2161608,0.0,2025-04-11 20:45:34.216,FORWARD,26
150.0,9407.469261583003,-9035.290364657685,-24224.194791817044,-23484.866140468854,17356.308383501575,8625.694647514183,32239.686815701345,50717.337515036765,0.0,0.0,0.0,193.0,0.0,193.0,0.0,0.0,0.0,179.0,193.0,0.0,179.0,1744418734.2161949,0.0,2025-04-11 20:45:34.216,FORWARD,26
151.0,9408.028055194385,-9045.50511187376,-24169.991811512926,-23489.448248082193,17490.70942291134,8595.899772155259,32318.387307928482,50749.09934390776,0.0,0.0,0.0,193.0,0.0,192.0,0.0,0.0,0.0,178.0,192.0,0.0,178.0,1744418734.2162292,0.0,2025-04-11 20:45:34.216,FORWARD,26
152.0,9394.348787587738,-9065.644033627992,-24186.576805898763,-23536.923353305265,17531.99309492029,8409.553278631363,32679.23387041496,50704.775834652886,0.0,0.0,0.0,193.0,0.0,193.0,0.0,0.0,0.0,179.0,193.0,0.0,179.0,1744418734.2162788,0.0,2025-04-11 20:45:34.216,FORWARD,26
153.0,9406.351674360238,-9037.190262936385,-24224.93239938407,-23516.8514867844,17410.98075043926,8372.60584504674,32561.596639346677,50618.073417910746,0.0,0.0,0.0,193.0,0.0,193.0,0.0,0.0,0.0,178.0,193.0,0.0,178.0,1744418734.2163136,0.0,2025-04-11 20:45:34.216,FORWARD,26
154.0,9423.450758868546,-9012.491585313272,-24226.251152306933,-23480.149922388784,17344.081979284525,8580.007681847535,32282.043371444153,50702.451253229534,0.0,0.0,0.0,193.0,0.0,193.0,0.0,0.0,0.0,179.0,193.0,0.0,179.0,1744418734.2163484,0.0,2025-04-11 20:45:34.216,FORWARD,26
155.0,9433.285526428883,-9015.240849881275,-24173.098703992215,-23486.341355602905,17459.64049811846,8580.924103370202,32264.72076949129,50749.25580611895,0.0,0.0,0.0,193.0,0.0,193.0,0.0,0.0,0.0,178.0,193.0,0.0,178.0,1744418734.2163832,0.0,2025-04-11 20:45:34.216,FORWARD,26
156.0,9417.371084376704,-9052.612966610548,-24171.5564336248,-23541.14783300732,17568.00175523779,8411.833156565805,32655.98805618144,50722.724285450495,0.0,0.0,0.0,193.0,0.0,192.0,0.0,0.0,0.0,178.0,192.0,0.0,178.0,1744418734.2164311,0.0,2025-04-11 20:45:34.216,FORWARD,26
157.0,9423.24959316845,-9040.855949027056,-24209.666157921096,-23531.6036381249,17454.94663178285,8314.625419929675,32604.288471256314,50598.38153104562,0.0,0.0,0.0,193.0,0.0,193.0,0.0,0.0,0.0,179.0,193.0,0.0,179.0,1744418734.2164664,0.0,2025-04-11 20:45:34.216,FORWARD,26
158.0,9439.432256154092,-9003.886163697978,-24223.680701694575,-23491.482256827625,17368.847712141003,8558.460600192619,32353.50189846777,50685.44157569904,0.0,0.0,0.0,193.0,0.0,193.0,0.0,0.0,0.0,179.0,193.0,0.0,179.0,1744418734.2165012,0.0,2025-04-11 20:45:34.216,FORWARD,26
159.0,9468.221303012528,-8987.435279778872,-24172.629317358653,-23474.338468830403,17438.786320541658,8618.51973754403,32238.099841845018,50736.06827689031,0.0,0.0,0.0,193.0,0.0,192.0,0.0,0.0,0.0,178.0,192.0,0.0,178.0,1744418734.216536,0.0,2025-04-11 20:45:34.216,FORWARD,26
160.0,9450.96575629303,-9028.897765743466,-24148.221212413457,-23512.023509982053,17581.837485055625,8479.424831798653,32626.59551222271,50727.485207019476,0.0,0.0,0.0,193.0,0.0,192.0,0.0,0.0,0.0,178.0,192.0,0.0,178.0,1744418734.2165706,0.0,2025-04-11 20:45:34.216,FORWARD,26
161.0,9444.662564356633,-9027.958992476344,-24177.569052883275,-23519.354882163392,17488.65306242145,8316.659428675108,32654.088157902737,50596.81690893375,0.0,0.0,0.0,193.0,0.0,193.0,0.0,0.0,0.0,178.0,193.0,0.0,178.0,1744418734.2166054,0.0,2025-04-11 20:45:34.216,FORWARD,26
162.0,9453.24563422747,-8998.365282817518,-24200.70310839452,-23484.329698601927,17377.274319800654,8530.029181245469,32414.812733508676,50648.82941828125,0.0,0.0,0.0,193.0,0.0,192.0,0.0,0.0,0.0,178.0,192.0,0.0,178.0,1744418734.2166405,0.0,2025-04-11 20:45:34.216,FORWARD,26
163.0,9473.965701337542,-8971.297320282141,-24167.108436478193,-23470.02458215053,17399.938988678336,8633.160130162256,32244.492440759237,50729.31805006481,0.0,0.0,0.0,193.0,0.0,193.0,0.0,0.0,0.0,179.0,193.0,0.0,179.0,1744418734.2166755,0.0,2025-04-11 20:45:34.216,FORWARD,26
164.0,9458.29712847437,-9009.898782956456,-24138.45350008649,-23509.765983792066,17572.606214595584,8514.807643271404,32575.49942439788,50737.208215857536,0.0,0.0,0.0,193.0,0.0,192.0,0.0,0.0,0.0,178.0,192.0,0.0,178.0,1744418734.21671,0.0,2025-04-11 20:45:34.216,FORWARD,26
165.0,9462.58866340979,-9008.512974800227,-24168.427189401056,-23528.6532078568,17518.291475569185,8302.644884901629,32681.491396604946,50595.96754264445,0.0,0.0,0.0,193.0,0.0,193.0,0.0,0.0,0.0,179.0,193.0,0.0,179.0,1744418734.2167442,0.0,2025-04-11 20:45:34.216,FORWARD,26
166.0,9470.009442568951,-8984.216628577307,-24204.391146229646,-23492.778658006035,17395.379232809453,8465.454991514087,32465.975876566874,50616.955830687984,0.0,0.0,0.0,193.0,0.0,192.0,0.0,0.0,0.0,178.0,192.0,0.0,178.0,1744418734.2167792,0.0,2025-04-11 20:45:34.216,FORWARD,26
167.0,9490.170716067638,-8947.179788014864,-24185.392163442633,-23473.198529863184,17380.627081468952,8611.70245548516,32240.491478501735,50712.28602078987,0.0,0.0,0.0,193.0,0.0,192.0,0.0,0.0,0.0,178.0,192.0,0.0,178.0,1744418734.2168255,0.0,2025-04-11 20:45:34.216,FORWARD,26
168.0,9472.334023992304,-8985.155401844431,-24148.757654280384,-23502.814591266466,17536.016408922245,8530.11858822329,32514.63562424608,50751.49098056448,0.0,0.0,0.0,193.0,0.0,192.0,0.0,0.0,0.0,178.0,192.0,0.0,178.0,1744418734.2168756,0.0,2025-04-11 20:45:34.216,FORWARD,26
169.0,9466.92490183412,-9005.249620109751,-24174.529215637354,-23530.46369915768,17506.489754496786,8323.320248522788,32725.591388415265,50644.4037728791,0.0,0.0,0.0,193.0,0.0,192.0,0.0,0.0,0.0,179.0,192.0,0.0,179.0,1744418734.2169096,0.0,2025-04-11 20:45:34.216,FORWARD,26
170.0,9476.759669394454,-8979.947445386344,-24201.35130898372,-23488.665937026257,17399.357843322498,8442.253880769478,32532.33820585468,50611.1443771296,0.0,0.0,0.0,193.0,0.0,192.0,0.0,0.0,0.0,179.0,192.0,0.0,179.0,1744418734.2169445,0.0,2025-04-11 20:45:34.216,FORWARD,26
171.0,9501.748919695488,-8947.000974059221,-24196.053945547814,-23473.06441939645,17356.308383501575,8625.962868447647,32266.77712998118,50698.07031131629,0.0,0.0,0.0,193.0,0.0,192.0,0.0,0.0,0.0,178.0,192.0,0.0,178.0,1744418734.2169783,0.0,2025-04-11 20:45:34.216,FORWARD,26
172.0,9507.135690109217,-8960.523779454683,-24145.62841005664,-23491.862236483365,17516.12335635702,8578.64422543576,32435.242227940827,50742.75144848245,0.0,0.0,0.0,193.0,0.0,193.0,0.0,0.0,0.0,179.0,193.0,0.0,179.0,1744418734.2170265,0.0,2025-04-11 20:45:34.217,FORWARD,26
173.0,9499.558448738868,-8990.855096680534,-24168.181320212047,-23538.107995761395,17542.65487702547,8362.592263530763,32741.3270165118,50667.87310455717,0.0,0.0,0.0,193.0,0.0,192.0,0.0,0.0,0.0,178.0,192.0,0.0,178.0,1744418734.2170613,0.0,2025-04-11 20:45:34.217,FORWARD,26
174.0,9494.417547514147,-8975.030061606176,-24199.205541516014,-23504.915655245266,17408.07502366007,8395.829307535805,32584.12719775763,50600.90727816907,0.0,0.0,0.0,193.0,0.0,193.0,0.0,0.0,0.0,179.0,193.0,0.0,179.0,1744418734.2170947,0.0,2025-04-11 20:45:34.217,FORWARD,26
175.0,9499.178469083128,-8948.833817104556,-24204.346442740734,-23478.004154921076,17343.70199962878,8611.434234551696,32316.509761394234,50706.876898631686,0.0,0.0,0.0,193.0,0.0,192.0,0.0,0.0,0.0,178.0,192.0,0.0,178.0,1744418734.2171292,0.0,2025-04-11 20:45:34.217,FORWARD,26
176.0,9508.49914652099,-8949.616128160493,-24148.847061258206,-23489.403544593282,17513.619960978027,8579.515943469518,32380.771026703245,50752.13918115368,0.0,0.0,0.0,193.0,0.0,193.0,0.0,0.0,0.0,179.0,193.0,0.0,179.0,1744418734.2171645,0.0,2025-04-11 20:45:34.217,FORWARD,26
177.0,9503.894687163198,-8977.06407035161,-24156.78193053984,-23537.325684705458,17592.163990993977,8372.98582470248,32737.01312983193,50695.946895593035,0.0,0.0,0.0,193.0,0.0,192.0,0.0,0.0,0.0,178.0,192.0,0.0,178.0,1744418734.2171993,0.0,2025-04-11 20:45:34.217,FORWARD,26
178.0,9502.017140628952,-8972.727831927281,-24198.64674790463,-23521.724167075656,17461.227471974787,8318.045236831336,32633.524553003856,50590.58077223072,0.0,0.0,0.0,193.0,0.0,193.0,0.0,0.0,0.0,179.0,193.0,0.0,179.0,1744418734.217234,0.0,2025-04-11 20:45:34.217,FORWARD,26
179.0,9511.516632022456,-8948.096209537533,-24208.056832320315,-23486.36370734736,17369.38415400793,8557.298309480942,32369.08106435312,50689.21902051199,0.0,0.0,0.0,193.0,0.0,192.0,0.0,0.0,0.0,178.0,192.0,0.0,178.0,1744418734.2172685,0.0,2025-04-11 20:45:34.217,FORWARD,26
180.0,9535.902385223197,-8925.43154065985,-24146.5001280904,-23476.528939787026,17473.118600025013,8591.585885475384,32327.17154349942,50742.3267653378,0.0,0.0,0.0,193.0,0.0,193.0,0.0,0.0,0.0,179.0,193.0,0.0,179.0,1744418734.217303,0.0,2025-04-11 20:45:34.217,FORWARD,26
181.0,9518.155100125683,-8954.9134915964,-24146.410721112577,-23524.786356066033,17591.269921215764,8434.162549276656,32714.326109209793,50711.72722717848,0.0,0.0,0.0,193.0,0.0,193.0,0.0,0.0,0.0,179.0,193.0,0.0,179.0,1744418734.2173371,0.0,2025-04-11 20:45:34.217,FORWARD,26
182.0,9516.366960569258,-8948.029154304166,-24195.495151936433,-23528.094414245417,17461.987431286267,8317.441739731043,32685.291193162346,50583.763490171856,0.0,0.0,0.0,193.0,0.0,193.0,0.0,0.0,0.0,178.0,193.0,0.0,178.0,1744418734.2173688,0.0,2025-04-11 20:45:34.217,FORWARD,26
183.0,9518.065693147862,-8925.76681682668,-24227.145222085146,-23503.976881978142,17360.44345622581,8540.333335439365,32435.823373296666,50665.72733708946,0.0,0.0,0.0,193.0,0.0,192.0,0.0,0.0,0.0,178.0,192.0,0.0,178.0,1744418734.2174144,0.0,2025-04-11 20:45:34.217,FORWARD,26
184.0,9541.825597503854,-8920.625915601959,-24176.65263136061,-23480.88752995581,17422.603657556017,8605.980408904601,32307.30084267865,50734.01191640043,0.0,0.0,0.0,193.0,0.0,192.0,0.0,0.0,0.0,178.0,192.0,0.0,178.0,1744418734.2174456,0.0,2025-04-11 20:45:34.217,FORWARD,26
185.0,9521.306696093881,-8977.801677918635,-24160.24645093041,-23524.920466532763,17559.61985106705,8479.000148654002,32681.446693116035,50740.04688740336,0.0,0.0,0.0,193.0,0.0,193.0,0.0,0.0,0.0,179.0,193.0,0.0,179.0,1744418734.2174768,0.0,2025-04-11 20:45:34.217,FORWARD,26
186.0,9523.430111817135,-8967.072840580087,-24191.65065189012,-23537.437443427738,17474.482056436784,8303.40484421311,32719.467010434513,50603.76830145935,0.0,0.0,0.0,193.0,0.0,192.0,0.0,0.0,0.0,178.0,192.0,0.0,178.0,1744418734.2175088,0.0,2025-04-11 20:45:34.217,FORWARD,26
187.0,9514.668227990654,-8935.311011709096,-24214.404727745623,-23503.418088366758,17370.121761574956,8499.653160530706,32482.58322269717,50653.34447066122,0.0,0.0,0.0,193.0,0.0,193.0,0.0,0.0,0.0,179.0,193.0,0.0,179.0,1744418734.2175531,0.0,2025-04-11 20:45:34.217,FORWARD,26
188.0,9539.679830036144,-8902.878630504445,-24173.098703992215,-23475.344297330892,17404.811668969593,8605.041635637479,32276.723656263788,50725.115922107216,0.0,0.0,0.0,193.0,0.0,192.0,0.0,0.0,0.0,178.0,192.0,0.0,178.0,1744418734.2175848,0.0,2025-04-11 20:45:34.217,FORWARD,26
189.0,9515.31642857986,-8945.995145558732,-24139.593439053708,-23515.46567862817,17582.977424022847,8503.162384410189,32602.902663100085,50743.913739194126,0.0,0.0,0.0,193.0,0.0,193.0,0.0,0.0,0.0,179.0,193.0,0.0,179.0,1744418734.2176154,0.0,2025-04-11 20:45:34.217,FORWARD,26
190.0,9501.860678417765,-8968.212779547308,-24194.869303091684,-23559.342152993937,17497.638463692485,8289.524410906364,32750.848859649763,50621.20266213449,0.0,0.0,0.0,193.0,0.0,192.0,0.0,0.0,0.0,178.0,192.0,0.0,178.0,1744418734.217646,0.0,2025-04-11 20:45:34.217,FORWARD,26
191.0,9525.866451962764,-8928.225508716763,-24219.255056292423,-23508.760155291577,17378.324851790054,8429.893366085693,32519.95533942644,50612.50783354138,0.0,0.0,0.0,193.0,0.0,193.0,0.0,0.0,0.0,179.0,193.0,0.0,179.0,1744418734.217677,0.0,2025-04-11 20:45:34.217,FORWARD,26
192.0,9538.584594557833,-8907.974828240256,-24195.696317636528,-23482.429800323225,17384.136305348435,8603.164089103233,32282.870385988997,50704.44055848606,0.0,0.0,0.0,193.0,0.0,192.0,0.0,0.0,0.0,178.0,192.0,0.0,178.0,1744418734.2177076,0.0,2025-04-11 20:45:34.217,FORWARD,26
193.0,9523.608925772778,-8940.831892589556,-24150.54579383681,-23505.40739362328,17557.921118488448,8525.648239332228,32527.666691263523,50733.40841930013,0.0,0.0,0.0,193.0,0.0,193.0,0.0,0.0,0.0,179.0,193.0,0.0,179.0,1744418734.2177384,0.0,2025-04-11 20:45:34.217,FORWARD,26
194.0,9514.556469268378,-8963.742430656246,-24184.11811400868,-23543.338303963938,17539.65974326846,8314.759530396406,32772.9323831716,50640.447514110514,0.0,0.0,0.0,193.0,0.0,193.0,0.0,0.0,0.0,179.0,193.0,0.0,179.0,1744418734.217769,0.0,2025-04-11 20:45:34.217,FORWARD,26
195.0,9535.79062650092,-8927.66671510538,-24206.961596842004,-23502.345204632904,17425.017645957192,8413.397778677676,32582.02613377883,50606.115234627156,0.0,0.0,0.0,193.0,0.0,192.0,0.0,0.0,0.0,178.0,192.0,0.0,178.0,1744418734.2178,0.0,2025-04-11 20:45:34.217,FORWARD,26
196.0,9557.136542455739,-8900.531697336639,-24193.103515279712,-23472.393867062794,17373.809799410083,8624.599412035872,32321.337738196584,50710.207308555524,0.0,0.0,0.0,193.0,0.0,193.0,0.0,0.0,0.0,179.0,193.0,0.0,179.0,1744418734.217831,0.0,2025-04-11 20:45:34.217,FORWARD,26
197.0,9547.547644084412,-8929.879537806457,-24145.293133889812,-23490.02939343803,17516.279818568208,8582.868705137815,32468.18869926795,50751.75920149794,0.0,0.0,0.0,193.0,0.0,192.0,0.0,0.0,0.0,178.0,192.0,0.0,178.0,1744418734.2178614,0.0,2025-04-11 20:45:34.217,FORWARD,26
198.0,9518.22215535905,-8961.239035277253,-24169.008334756894,-23541.863088829887,17538.497452556785,8365.676804265595,32778.900298941175,50667.20255222351,0.0,0.0,0.0,193.0,0.0,193.0,0.0,0.0,0.0,179.0,193.0,0.0,179.0,1744418734.217905,0.0,2025-04-11 20:45:34.217,FORWARD,26
199.0,9513.684751234621,-8939.110808266498,-24205.866361363693,-23520.38306240834,17413.506497562706,8370.236560134479,32640.878276929652,50593.48649900991,0.0,0.0,0.0,193.0,0.0,192.0,0.0,0.0,0.0,178.0,192.0,0.0,178.0,1744418734.217936,0.0,2025-04-11 20:45:34.217,FORWARD,26
200.0,9527.341667096814,-8908.488918362727,-24205.620492174687,-23484.307346857473,17347.367685719455,8574.531504455985,32372.88086091052,50699.41141598361,0.0,0.0,0.0,193.0,0.0,193.0,0.0,0.0,0.0,179.0,193.0,0.0,179.0,1744418734.2179668,0.0,2025-04-11 20:45:34.217,FORWARD,26
201.0,9548.732286540542,-8909.539450352127,-24142.812090255273,-23479.099390399384,17480.27115825071,8549.408143688219,32397.825407722645,50734.88363443418,0.0,0.0,0.0,193.0,0.0,192.0,0.0,0.0,0.0,178.0,192.0,0.0,178.0,1744418734.2179978,0.0,2025-04-11 20:45:34.217,FORWARD,26
202.0,9539.679830036144,-8936.272136720674,-24143.1473664221,-23517.07500422895,17575.57899660814,8379.445478850064,32759.029598120404,50686.29094198834,0.0,0.0,0.0,193.0,0.0,192.0,0.0,0.0,0.0,178.0,192.0,0.0,178.0,1744418734.2180407,0.0,2025-04-11 20:45:34.218,FORWARD,26
203.0,9529.085103164329,-8925.364485426484,-24186.97913729896,-23508.313120402472,17449.135178224467,8334.049085861336,32665.979285952963,50574.97925460092,0.0,0.0,0.0,193.0,0.0,193.0,0.0,0.0,0.0,179.0,193.0,0.0,179.0,1744418734.218072,0.0,2025-04-11 20:45:34.218,FORWARD,26
204.0,9534.31541136687,-8911.171127697364,-24195.517503680887,-23471.991535662597,17365.53965396162,8587.450812751153,32402.78749499172,50671.58349413675,0.0,0.0,0.0,193.0,0.0,192.0,0.0,0.0,0.0,178.0,192.0,0.0,178.0,1744418734.2181025,0.0,2025-04-11 20:45:34.218,FORWARD,26
205.0,9556.689507566633,-8909.159470696386,-24143.72851177794,-23465.822454192934,17466.770704599705,8625.225260880621,32350.462061221846,50732.11201812173,0.0,0.0,0.0,193.0,0.0,193.0,0.0,0.0,0.0,179.0,193.0,0.0,179.0,1744418734.2181332,0.0,2025-04-11 20:45:34.218,FORWARD,26
206.0,9538.98692595803,-8944.765799613691,-24138.319389619755,-23510.66005357028,17587.49247640282,8454.502636730986,32736.23081877599,50707.45804398752,0.0,0.0,0.0,193.0,0.0,193.0,0.0,0.0,0.0,179.0,193.0,0.0,179.0,1744418734.2181637,0.0,2025-04-11 20:45:34.218,FORWARD,26
207.0,9537.288193379425,-8939.535491411149,-24179.290137206335,-23513.11874546036,17471.710440124327,8321.688571177552,32709.453428918536,50576.20860054596,0.0,0.0,0.0,193.0,0.0,193.0,0.0,0.0,0.0,178.0,193.0,0.0,178.0,1744418734.2181947,0.0,2025-04-11 20:45:34.218,FORWARD,26
208.0,9533.421341588657,-8923.174014469865,-24212.683643422562,-23487.21307363666,17363.81856963856,8551.106876266824,32467.875774845576,50660.07234574227,0.0,0.0,0.0,193.0,0.0,193.0,0.0,0.0,0.0,179.0,193.0,0.0,179.0,1744418734.2182252,0.0,2025-04-11 20:45:34.218,FORWARD,26
209.0,9543.211405660082,-8902.632761315437,-24167.466064389475,-23470.27045133954,17408.92438994937,8623.593583535383,32322.656491119447,50729.98860239847,0.0,0.0,0.0,193.0,0.0,193.0,0.0,0.0,0.0,179.0,193.0,0.0,179.0,1744418734.2182558,0.0,2025-04-11 20:45:34.218,FORWARD,26
210.0,9522.245469361003,-8939.043753033133,-24138.185279153025,-23501.987576721618,17558.546967333194,8498.557925052397,32688.53219610837,50734.79422745636,0.0,0.0,0.0,193.0,0.0,192.0,0.0,0.0,0.0,178.0,192.0,0.0,178.0,1744418734.6933963,0.0,2025-04-11 20:45:34.693,FORWARD,26
211.0,9535.768274756465,-8934.573404142071,-24173.83631155924,-23500.825286009942,17465.22843423229,8315.586544941252,32748.636036948687,50601.28725782481,0.0,0.0,0.0,193.0,0.0,193.0,0.0,0.0,0.0,179.0,193.0,0.0,179.0,1744418734.6935306,0.0,2025-04-11 20:45:34.693,FORWARD,26
212.0,9545.379524872247,-8898.14006067992,-24194.623433902674,-23456.859404666353,17365.360840005975,8507.11864317878,32513.495685278856,50635.127798930145,0.0,0.0,0.0,193.0,0.0,192.0,0.0,0.0,0.0,178.0,192.0,0.0,178.0,1744418734.6935797,0.0,2025-04-11 20:45:34.693,FORWARD,26
213.0,9555.728382555055,-8871.921464433844,-24170.34943942421,-23445.10238708286,17377.944872134314,8639.306859887465,32308.463133390327,50715.90700339163,0.0,0.0,0.0,193.0,0.0,193.0,0.0,0.0,0.0,179.0,193.0,0.0,179.0,1744418734.6938028,0.0,2025-04-11 20:45:34.693,FORWARD,26
214.0,9540.305678880892,-8916.490842877727,-24136.687712274517,-23485.112009657863,17537.0892926561,8550.413972188708,32622.616901709665,50738.83989320277,0.0,0.0,0.0,193.0,0.0,192.0,0.0,0.0,0.0,178.0,192.0,0.0,178.0,1744418734.693846,0.0,2025-04-11 20:45:34.693,FORWARD,26
215.0,9537.690524779622,-8940.72013386728,-24174.573919126266,-23521.455946142192,17488.47424846581,8326.091864835247,32790.03146767992,50612.30666784128,0.0,0.0,0.0,193.0,0.0,193.0,0.0,0.0,0.0,179.0,193.0,0.0,179.0,1744418734.6938844,0.0,2025-04-11 20:45:34.693,FORWARD,26
216.0,9548.575824329357,-8910.053540474599,-24196.858608348204,-23474.226710108127,17390.126572862457,8461.275215300944,32590.050410038282,50620.3979993341,0.0,0.0,0.0,193.0,0.0,192.0,0.0,0.0,0.0,178.0,192.0,0.0,178.0,1744418734.6939228,0.0,2025-04-11 20:45:34.693,FORWARD,26
217.0,9556.242472677526,-8882.605598283482,-24182.59819538572,-23452.701980197668,17360.91284285937,8621.201946878666,32348.025721076217,50722.90309940614,0.0,0.0,0.0,193.0,0.0,193.0,0.0,0.0,0.0,179.0,193.0,0.0,179.0,1744418734.694006,0.0,2025-04-11 20:45:34.694,FORWARD,26
218.0,9556.890673266731,-8889.109955919976,-24122.80727896777,-23464.727218714623,17532.775405976226,8549.989289044057,32556.16516544404,50743.220835116015,0.0,0.0,0.0,193.0,0.0,193.0,0.0,0.0,0.0,178.0,193.0,0.0,178.0,1744418734.6940377,0.0,2025-04-11 20:45:34.694,FORWARD,26
219.0,9540.484492836535,-8923.86691854798,-24158.01127648488,-23513.006986738084,17520.45959478135,8336.485426006964,32805.70004054309,50640.246348410416,0.0,0.0,0.0,193.0,0.0,193.0,0.0,0.0,0.0,179.0,193.0,0.0,179.0,1744418734.6940713,0.0,2025-04-11 20:45:34.694,FORWARD,26
220.0,9549.738115041031,-8906.589020084026,-24196.188056014547,-23479.591128777403,17393.34522406402,8397.349226158765,32613.698555672,50581.215391303944,0.0,0.0,0.0,193.0,0.0,192.0,0.0,0.0,0.0,178.0,192.0,0.0,178.0,1744418734.6941013,0.0,2025-04-11 20:45:34.694,FORWARD,26
221.0,9558.678812823155,-8891.0992611765,-24193.103515279712,-23451.02559936352,17338.225822237233,8607.589734505384,32350.663226921944,50686.62621815517,0.0,0.0,0.0,193.0,0.0,193.0,0.0,0.0,0.0,179.0,193.0,0.0,179.0,1744418734.6941316,0.0,2025-04-11 20:45:34.694,FORWARD,26
222.0,9553.873187765264,-8908.62302882946,-24135.503069818387,-23463.45316928067,17498.89016138198,8581.639359192772,32473.351952237124,50735.174207112104,0.0,0.0,0.0,193.0,0.0,193.0,0.0,0.0,0.0,178.0,193.0,0.0,178.0,1744418734.6941628,0.0,2025-04-11 20:45:34.694,FORWARD,26
223.0,9539.970402714063,-8928.069046505576,-24150.434035114533,-23510.436536125726,17544.487720070807,8369.029565933892,32802.83901725281,50661.59226436523,0.0,0.0,0.0,193.0,0.0,193.0,0.0,0.0,0.0,179.0,193.0,0.0,179.0,1744418734.694193,0.0,2025-04-11 20:45:34.694,FORWARD,26
224.0,9548.017030717972,-8906.968999739767,-24182.933471552547,-23481.6921927562,17416.993369697735,8360.535903040874,32670.09200693274,50585.439871006,0.0,0.0,0.0,193.0,0.0,193.0,0.0,0.0,0.0,179.0,193.0,0.0,179.0,1744418734.694225,0.0,2025-04-11 20:45:34.694,FORWARD,26
225.0,9561.204559946604,-8874.13428713492,-24187.73909661044,-23448.857480151353,17337.77878734813,8594.804536676947,32404.93326245943,50697.153889793626,0.0,0.0,0.0,193.0,0.0,192.0,0.0,0.0,0.0,178.0,192.0,0.0,178.0,1744418734.69426,0.0,2025-04-11 20:45:34.694,FORWARD,26
226.0,9578.236589221548,-8877.487048803217,-24129.669264515553,-23442.755453915055,17470.481094179286,8602.98527514759,32418.65723355499,50747.42296307361,0.0,0.0,0.0,193.0,0.0,193.0,0.0,0.0,0.0,178.0,193.0,0.0,178.0,1744418734.6942923,0.0,2025-04-11 20:45:34.694,FORWARD,26
227.0,9550.36396388578,-8936.71917160978,-24139.369921609155,-23499.797105765,17550.679153284927,8415.275325211922,32794.837092737806,50701.31131426231,0.0,0.0,0.0,193.0,0.0,192.0,0.0,0.0,0.0,179.0,192.0,0.0,179.0,1744418734.6943264,0.0,2025-04-11 20:45:34.694,FORWARD,26
228.0,9547.838216762331,-8930.505386651204,-24177.07731450526,-23488.911806215267,17436.618201329497,8331.500986993431,32718.550588911843,50582.24357154889,0.0,0.0,0.0,193.0,0.0,193.0,0.0,0.0,0.0,178.0,193.0,0.0,178.0,1744418734.6943595,0.0,2025-04-11 20:45:34.694,FORWARD,26
229.0,9545.759504527987,-8894.452022844795,-24205.195809030036,-23457.820529677934,17349.379342720433,8568.518885197507,32462.198431753928,50678.40077619562,0.0,0.0,0.0,193.0,0.0,192.0,0.0,0.0,0.0,178.0,192.0,0.0,178.0,1744418734.6944196,0.0,2025-04-11 20:45:34.694,FORWARD,26
230.0,9562.27744368046,-8877.41999356985,-24151.30575314829,-23449.662142951747,17422.715416278294,8614.205850864155,32381.709799970366,50741.544454281866,0.0,0.0,0.0,193.0,0.0,193.0,0.0,0.0,0.0,179.0,193.0,0.0,179.0,1744418734.6944497,0.0,2025-04-11 20:45:34.694,FORWARD,26
231.0,9533.734266011032,-8925.699761593314,-24143.236773399924,-23501.495838343602,17541.581993291617,8462.01282286797,32777.02275240693,50735.91181467913,0.0,0.0,0.0,193.0,0.0,192.0,0.0,0.0,0.0,178.0,192.0,0.0,178.0,1744418734.6944785,0.0,2025-04-11 20:45:34.694,FORWARD,26
232.0,9556.5553970999,-8923.174014469865,-24171.93641328054,-23490.297614371495,17459.50638765173,8322.269716533388,32764.39401678968,50594.76054844386,0.0,0.0,0.0,193.0,0.0,193.0,0.0,0.0,0.0,179.0,193.0,0.0,179.0,1744418734.6945207,0.0,2025-04-11 20:45:34.694,FORWARD,26
233.0,9546.005373716996,-8916.714360322281,-24196.746849625928,-23456.45707326616,17363.43858998282,8546.50241690903,32523.330452839193,50659.46884864198,0.0,0.0,0.0,193.0,0.0,193.0,0.0,0.0,0.0,178.0,193.0,0.0,178.0,1744418734.6945505,0.0,2025-04-11 20:45:34.694,FORWARD,26
234.0,9563.08210648085,-8889.445232086806,-24148.10945369118,-23439.670913180224,17399.24608460022,8634.434179596208,32353.54660195668,50725.13827385167,0.0,0.0,0.0,193.0,0.0,193.0,0.0,0.0,0.0,179.0,193.0,0.0,179.0,1744418734.6945803,0.0,2025-04-11 20:45:34.694,FORWARD,26
235.0,9538.048152690906,-8920.111825479487,-24115.81118295326,-23479.74759098859,17577.925929775945,8519.769730540482,32714.974309798996,50737.90111993565,0.0,0.0,0.0,193.0,0.0,192.0,0.0,0.0,0.0,178.0,192.0,0.0,178.0,1744418734.69461,0.0,2025-04-11 20:45:34.694,FORWARD,26
236.0,9541.378562614747,-8917.206098700297,-24166.326125422256,-23506.256759912583,17508.344949286577,8323.052027589325,32814.46192436956,50606.696379983,0.0,0.0,0.0,193.0,0.0,193.0,0.0,0.0,0.0,179.0,193.0,0.0,179.0,1744418734.6946392,0.0,2025-04-11 20:45:34.694,FORWARD,26
237.0,9554.789609287931,-8897.022473457155,-24201.17249502808,-23478.495893299092,17384.315119304076,8494.624018028262,32595.83951185221,50638.79348502082,0.0,0.0,0.0,193.0,0.0,192.0,0.0,0.0,0.0,178.0,192.0,0.0,178.0,1744418734.6946683,0.0,2025-04-11 20:45:34.694,FORWARD,26
238.0,9560.154027957205,-8891.27807513214,-24172.204634214002,-23458.088750611398,17374.100372088,8636.557595319462,32379.876956925033,50732.11201812173,0.0,0.0,0.0,193.0,0.0,193.0,0.0,0.0,0.0,179.0,193.0,0.0,179.0,1744418734.6946976,0.0,2025-04-11 20:45:34.694,FORWARD,26
239.0,9534.695391022611,-8939.513139666693,-24128.931656948527,-23477.244195609594,17558.166987677454,8556.515998425008,32659.050245171817,50756.90010272266,0.0,0.0,0.0,193.0,0.0,192.0,0.0,0.0,0.0,178.0,192.0,0.0,178.0,1744418734.6947265,0.0,2025-04-11 20:45:34.694,FORWARD,26
240.0,9533.108417166284,-8951.896006094934,-24170.617660357675,-23511.55412334849,17518.246772080278,8345.98491740047,32834.22086646806,50633.13849367363,0.0,0.0,0.0,193.0,0.0,193.0,0.0,0.0,0.0,179.0,193.0,0.0,179.0,1744418734.6947553,0.0,2025-04-11 20:45:34.694,FORWARD,26
241.0,9509.996713399496,-8940.787189100647,-24212.951864356026,-23488.017736437054,17390.19362809582,8457.34130827681,32630.037680868827,50622.65552552409,0.0,0.0,0.0,193.0,0.0,192.0,0.0,0.0,0.0,178.0,192.0,0.0,178.0,1744418734.6947842,0.0,2025-04-11 20:45:34.694,FORWARD,26
242.0,9522.468986805558,-8908.824194529558,-24192.857646090706,-23457.909936655753,17357.001287579693,8621.984257934602,32362.10732008306,50714.051808601835,0.0,0.0,0.0,193.0,0.0,193.0,0.0,0.0,0.0,178.0,193.0,0.0,178.0,1744418734.6948135,0.0,2025-04-11 20:45:34.694,FORWARD,26
243.0,9523.45246356159,-8926.169148226876,-24125.601247024686,-23461.910898913255,17533.267144354242,8566.1719520297,32542.977636215408,50741.678564748596,0.0,0.0,0.0,193.0,0.0,192.0,0.0,0.0,0.0,178.0,192.0,0.0,178.0,1744418734.6948426,0.0,2025-04-11 20:45:34.694,FORWARD,26
244.0,9491.623579457233,-8969.151552814432,-24162.660439331587,-23517.74555656261,17531.121376886535,8356.914920439116,32824.38609890772,50656.4066596516,0.0,0.0,0.0,193.0,0.0,193.0,0.0,0.0,0.0,179.0,193.0,0.0,179.0,1744418734.6948853,0.0,2025-04-11 20:45:34.694,FORWARD,26
245.0,9493.143498080195,-8957.39453523094,-24196.23275950346,-23489.13532365982,17411.763061495192,8406.513441385441,32647.740262477433,50596.21341183346,0.0,0.0,0.0,193.0,0.0,192.0,0.0,0.0,0.0,178.0,192.0,0.0,178.0,1744418734.6949146,0.0,2025-04-11 20:45:34.694,FORWARD,26
246.0,9505.504012763979,-8943.62586064647,-24194.64578564713,-23462.179119846718,17352.57564217754,8615.926935187214,32379.78754994721,50700.484299717464,0.0,0.0,0.0,193.0,0.0,193.0,0.0,0.0,0.0,179.0,193.0,0.0,179.0,1744418734.6949434,0.0,2025-04-11 20:45:34.694,FORWARD,26
247.0,9503.894687163198,-8945.928090325368,-24137.425319841543,-23472.997364163086,17481.545207684663,8584.813306905426,32469.105120790617,50745.031326416894,0.0,0.0,0.0,193.0,0.0,192.0,0.0,0.0,0.0,178.0,192.0,0.0,178.0,1744418734.6949728,0.0,2025-04-11 20:45:34.694,FORWARD,26
248.0,9481.140611307694,-8976.929959884877,-24147.751825779895,-23518.527867618548,17546.789949749702,8387.022720220413,32818.37347964924,50682.55820066431,0.0,0.0,0.0,193.0,0.0,193.0,0.0,0.0,0.0,179.0,193.0,0.0,179.0,1744418734.6950154,0.0,2025-04-11 20:45:34.695,FORWARD,26
249.0,9482.705233419567,-8979.075727352587,-24197.64091940414,-23504.021585467053,17429.73386403726,8356.870216950205,32703.37375442669,50586.87038265114,0.0,0.0,0.0,193.0,0.0,192.0,0.0,0.0,0.0,178.0,192.0,0.0,178.0,1744418734.695045,0.0,2025-04-11 20:45:34.695,FORWARD,26
250.0,9506.621599986745,-8947.738581626247,-24207.654500920118,-23466.403599548772,17337.91289781486,8588.50134474055,32431.42007963897,50680.144212263134,0.0,0.0,0.0,193.0,0.0,193.0,0.0,0.0,0.0,179.0,193.0,0.0,179.0,1744418734.6950793,0.0,2025-04-11 20:45:34.695,FORWARD,26
251.0,9532.929603210641,-8933.902851808412,-24141.135709421123,-23453.30547729796,17451.59387011455,8612.41771130773,32407.011974693774,50724.31125930682,0.0,0.0,0.0,193.0,0.0,193.0,0.0,0.0,0.0,179.0,193.0,0.0,179.0,1744418734.6951096,0.0,2025-04-11 20:45:34.695,FORWARD,26
252.0,9495.088099847806,-8962.066049822099,-24139.92871522054,-23494.90207372929,17554.635412053518,8465.47734325854,32813.61255808026,50715.83994815826,0.0,0.0,0.0,193.0,0.0,192.0,0.0,0.0,0.0,178.0,192.0,0.0,178.0,1744418734.6951387,0.0,2025-04-11 20:45:34.695,FORWARD,26
253.0,9481.364128752248,-8958.48977070925,-24191.762410612395,-23499.193608664707,17432.527832094172,8350.499969780441,32765.064569123337,50602.02486539184,0.0,0.0,0.0,193.0,0.0,192.0,0.0,0.0,0.0,178.0,192.0,0.0,178.0,1744418734.6951685,0.0,2025-04-11 20:45:34.695,FORWARD,26
254.0,9496.853887659776,-8931.175938984865,-24209.263826520903,-23464.861329181353,17357.67183991335,8559.60053915984,32489.355801267127,50674.06453777129,0.0,0.0,0.0,193.0,0.0,193.0,0.0,0.0,0.0,179.0,193.0,0.0,179.0,1744418734.6951976,0.0,2025-04-11 20:45:34.695,FORWARD,26
255.0,9522.424283316646,-8921.967020269278,-24155.329067150244,-23453.73016044261,17436.506442607217,8604.03580713699,32378.98288714682,50730.770913454406,0.0,0.0,0.0,193.0,0.0,193.0,0.0,0.0,0.0,179.0,193.0,0.0,179.0,1744418734.695227,0.0,2025-04-11 20:45:34.695,FORWARD,26
0.0,9503.514707507456,-8969.352718514529,-24135.16779365156,-23503.88747500032,17563.553758091184,8464.873846158249,32761.264772565937,50723.97598313999,0.0,0.0,0.0,193.0,0.0,192.0,0.0,0.0,0.0,178.0,192.0,0.0,178.0,1744418734.6952565,0.0,2025-04-11 20:45:34.695,FORWARD,26
1.0,9493.814050413854,-8971.498485982238,-24175.423285415567,-23510.92827450374,17453.225547459788,8313.239611773446,32792.0878281698,50597.42040603404,0.0,0.0,0.0,193.0,0.0,193.0,0.0,0.0,0.0,179.0,193.0,0.0,179.0,1744418734.6952865,0.0,2025-04-11 20:45:34.695,FORWARD,26
2.0,9494.708120192066,-8941.122465267475,-24205.665195663598,-23475.16548337525,17345.423083951842,8521.02142822998,32554.332322398703,50655.93727301804,0.0,0.0,0.0,193.0,0.0,193.0,0.0,0.0,0.0,179.0,193.0,0.0,179.0,1744418734.6953185,0.0,2025-04-11 20:45:34.695,FORWARD,26
3.0,9524.033608917429,-8925.43154065985,-24170.438846402034,-23464.391942547794,17389.836000184536,8609.824908950915,32367.628200963525,50717.02459061439,0.0,0.0,0.0,193.0,0.0,192.0,0.0,0.0,0.0,178.0,192.0,0.0,178.0,1744418734.695598,0.0,2025-04-11 20:45:34.695,FORWARD,26
4.0,9504.45348077458,-8967.385765002462,-24139.68284603153,-23505.78737327902,17562.81615052416,8487.96319818058,32701.67502184809,50720.73498019397,0.0,0.0,0.0,193.0,0.0,193.0,0.0,0.0,0.0,179.0,193.0,0.0,179.0,1744418734.6956303,0.0,2025-04-11 20:45:34.695,FORWARD,26
5.0,9483.845172386787,-8977.73462268527,-24180.318317451278,-23527.98265552314,17483.06512630762,8288.719748105974,32821.27920642844,50599.29795256829,0.0,0.0,0.0,193.0,0.0,192.0,0.0,0.0,0.0,178.0,192.0,0.0,178.0,1744418734.695661,0.0,2025-04-11 20:45:34.695,FORWARD,26
6.0,9495.602189970277,-8949.616128160493,-24205.374622985677,-23480.70871600017,17364.31030801658,8455.91079663167,32597.471189197448,50614.27362135334,0.0,0.0,0.0,193.0,0.0,192.0,0.0,0.0,0.0,178.0,192.0,0.0,178.0,1744418734.6956928,0.0,2025-04-11 20:45:34.695,FORWARD,26
7.0,9508.230925587526,-8935.690991364836,-24186.420343687576,-23464.92838441472,17364.53382546113,8622.364237590342,32386.80599770618,50715.50467199143,0.0,0.0,0.0,193.0,0.0,192.0,0.0,0.0,0.0,179.0,192.0,0.0,179.0,1744418734.6957448,0.0,2025-04-11 20:45:34.695,FORWARD,26
8.0,9486.169753810138,-8969.598587703536,-24147.416549613066,-23500.60176856539,17531.769577475738,8546.033030275468,32662.112434162194,50748.13821889618,0.0,0.0,0.0,193.0,0.0,193.0,0.0,0.0,0.0,179.0,193.0,0.0,179.0,1744418734.6957753,0.0,2025-04-11 20:45:34.695,FORWARD,26
9.0,9494.305788791871,-8970.604416204025,-24179.334840695246,-23528.56380087898,17499.35954801554,8321.107425821714,32867.21204128409,50629.02577269385,0.0,0.0,0.0,193.0,0.0,193.0,0.0,0.0,0.0,179.0,193.0,0.0,179.0,1744418734.6958172,0.0,2025-04-11 20:45:34.695,FORWARD,26
10.0,9491.243599801493,-8957.461590464305,-24220.618512704197,-23498.098373186396,17378.503665745695,8426.965287562047,32672.95303022302,50604.081225881724,0.0,0.0,0.0,193.0,0.0,192.0,0.0,0.0,0.0,178.0,192.0,0.0,178.0,1744418734.6958463,0.0,2025-04-11 20:45:34.695,FORWARD,26
11.0,9500.02783537243,-8933.589927386038,-24202.670061906585,-23474.249061852584,17339.321057715544,8618.296220099475,32414.186884663926,50706.005180597924,0.0,0.0,0.0,193.0,0.0,193.0,0.0,0.0,0.0,179.0,193.0,0.0,179.0,1744418734.695876,0.0,2025-04-11 20:45:34.695,FORWARD,26
12.0,9507.225097087037,-8934.126369252965,-24139.548735564797,-23480.865178211356,17511.116565599033,8563.847370606349,32569.419749906036,50729.38510529818,0.0,0.0,0.0,193.0,0.0,192.0,0.0,0.0,0.0,178.0,192.0,0.0,178.0,1744418734.6959057,0.0,2025-04-11 20:45:34.695,FORWARD,26
13.0,9491.578875968324,-8963.20598878932,-24174.909195293094,-23530.620161368868,17534.116510643544,8343.548577254842,32868.173166295666,50645.901339757605,0.0,0.0,0.0,193.0,0.0,193.0,0.0,0.0,0.0,179.0,193.0,0.0,179.0,1744418734.6959379,0.0,2025-04-11 20:45:34.695,FORWARD,26
14.0,9487.488506733001,-8969.196256303341,-24212.907160867115,-23506.83790526842,17408.834982971548,8359.217150118011,32720.785763357377,50589.21731581895,0.0,0.0,0.0,193.0,0.0,192.0,0.0,0.0,0.0,178.0,192.0,0.0,178.0,1744418734.6959689,0.0,2025-04-11 20:45:34.695,FORWARD,26
15.0,9496.49625974849,-8944.743447869236,-24204.301739251823,-23469.242271094594,17346.38420896342,8588.166068573722,32453.548306649725,50690.716587390496,0.0,0.0,0.0,193.0,0.0,193.0,0.0,1.0,0.0,179.0,193.0,1.0,179.0,1744418734.6959994,0.0,2025-04-11 20:45:34.695,FORWARD,26
16.0,9500.564277239357,-8946.330421725563,-24154.01031422738,-23480.284032855518,17462.814445831114,8583.807478404937,32517.988385914374,50729.474512276,0.0,0.0,0.0,193.0,0.0,193.0,0.0,3.0,0.0,178.0,193.0,3.0,178.0,1744418734.6960368,0.0,2025-04-11 20:45:34.696,FORWARD,26
17.0,9490.617750956744,-8975.924131384389,-24158.123035207158,-23524.540486877024,17533.758882732258,8390.46488886653,32868.396683740226,50668.29778770182,0.0,0.0,0.0,193.0,0.0,192.0,0.0,4.0,0.0,178.0,192.0,4.0,178.0,1744418734.6960704,0.0,2025-04-11 20:45:34.696,FORWARD,26
18.0,9497.077405104328,-8957.662756164404,-24189.102553022214,-23498.277187142037,17426.40345411342,8352.042240147859,32762.941153400083,50565.41270797404,0.0,0.0,0.0,193.0,0.0,193.0,0.0,5.0,0.0,178.0,193.0,5.0,178.0,1744418734.6961207,0.0,2025-04-11 20:45:34.696,FORWARD,26
19.0,9505.504012763979,-8927.264383705186,-24211.99073934445,-23471.320983328937,17330.33565644451,8583.583960960385,32493.937908880464,50657.32308117427,0.0,0.0,0.0,193.0,0.0,192.0,0.0,6.0,0.0,179.0,192.0,6.0,179.0,1744418734.696154,0.0,2025-04-11 20:45:34.696,FORWARD,26
20.0,9516.45636754708,-8922.10113073601,-24164.4038753991,-23474.718448486146,17422.715416278294,8607.276810083009,32468.6133824126,50715.54937548034,0.0,0.0,0.0,193.0,0.0,193.0,0.0,7.0,0.0,179.0,193.0,7.0,179.0,1744418734.6961868,0.0,2025-04-11 20:45:34.696,FORWARD,26
21.0,9490.953027123574,-8969.889160381455,-24156.826634028752,-23522.37236766486,17535.07763565512,8433.491996942998,32854.85152660031,50690.89540134614,0.0,0.0,0.0,193.0,0.0,192.0,0.0,8.0,0.0,178.0,192.0,8.0,178.0,1744418734.6962204,0.0,2025-04-11 20:45:34.696,FORWARD,26
22.0,9487.153230566171,-8972.124334826987,-24199.093782793738,-23519.399585652303,17434.78535828416,8316.190042041546,32808.24813941099,50560.85295210516,0.0,0.0,0.0,193.0,0.0,193.0,0.0,9.0,0.0,181.0,193.0,9.0,181.0,1744418734.6962953,0.0,2025-04-11 20:45:34.696,FORWARD,26
23.0,9496.563314981857,-8928.940764539333,-24221.534934226864,-23490.945814960698,17345.423083951842,8542.926137796181,32552.49947935337,50638.79348502082,0.0,0.0,0.0,193.0,0.0,193.0,0.0,9.0,0.0,180.0,193.0,9.0,180.0,1744418734.6963267,0.0,2025-04-11 20:45:34.696,FORWARD,26
24.0,9524.972382184551,-8903.303313649096,-24176.49616914942,-23477.60182352088,17408.522058549173,8602.694702469671,32418.120791688063,50696.6174479267,0.0,0.0,0.0,193.0,0.0,193.0,0.0,10.0,0.0,179.0,193.0,10.0,179.0,1744418734.696358,0.0,2025-04-11 20:45:34.696,FORWARD,26
25.0,9505.504012763979,-8964.25652077872,-24158.21244218498,-23513.051690226996,17553.696638786394,8471.422907283653,32793.87596772623,50700.66311367311,0.0,0.0,0.0,193.0,0.0,193.0,0.0,11.0,0.0,180.0,193.0,11.0,180.0,1744418734.6963916,0.0,2025-04-11 20:45:34.696,FORWARD,26
26.0,9506.241620331004,-8963.518913211694,-24184.006355286405,-23507.486105857624,17452.30912593712,8307.383454726154,32838.35593919229,50569.79364988729,0.0,0.0,0.0,193.0,0.0,193.0,0.0,11.0,0.0,179.0,193.0,11.0,179.0,1744418734.696426,0.0,2025-04-11 20:45:34.696,FORWARD,26
27.0,9498.731434194022,-8942.48592167925,-24216.058756835315,-23480.21697762215,17338.985781548712,8517.78042528396,32615.889026628618,50629.71867677196,0.0,0.0,0.0,193.0,0.0,193.0,0.0,12.0,0.0,179.0,193.0,12.0,179.0,1744418734.6964588,0.0,2025-04-11 20:45:34.696,FORWARD,26
28.0,9519.071521648351,-8921.0058952577,-24185.392163442633,-23469.80106470598,17379.621252968464,8639.552729076473,32429.788402293732,50718.20923307053,0.0,0.0,0.0,193.0,0.0,193.0,0.0,12.0,0.0,178.0,193.0,12.0,178.0,1744418734.696498,0.0,2025-04-11 20:45:34.696,FORWARD,26
29.0,9498.709082449566,-8954.622918918481,-24157.899517762606,-23509.45305936969,17540.822033980137,8523.569527097885,32745.372682258214,50730.1227128652,0.0,0.0,0.0,193.0,0.0,193.0,0.0,12.0,0.0,179.0,193.0,12.0,179.0,1744418734.696533,0.0,2025-04-11 20:45:34.696,FORWARD,26
30.0,9488.471983489035,-8972.750183671735,-24197.953843826515,-23537.884478316842,17472.336288969076,8305.59531516973,32867.36850349528,50589.95492338597,0.0,0.0,0.0,193.0,0.0,193.0,0.0,13.0,0.0,178.0,193.0,13.0,178.0,1744418734.696565,0.0,2025-04-11 20:45:34.696,FORWARD,26
31.0,9498.865544660754,-8946.375125214474,-24216.349329513232,-23492.55514056148,17360.286994014623,8454.145008819702,32642.398195552614,50590.13373734162,0.0,0.0,0.0,193.0,0.0,193.0,0.0,13.0,0.0,179.0,193.0,13.0,179.0,1744418734.696597,0.0,2025-04-11 20:45:34.696,FORWARD,26
32.0,9526.671114763156,-8907.930124751345,-24183.626375630665,-23462.000305891073,17347.39003746391,8617.223336365621,32398.831236223134,50672.34345344824,0.0,0.0,0.0,193.0,0.0,192.0,0.0,13.0,0.0,178.0,192.0,13.0,178.0,1744418734.6966364,0.0,2025-04-11 20:45:34.696,FORWARD,26
33.0,9510.287286077415,-8939.088456522042,-24147.707122290984,-23495.416163851758,17509.75310918726,8544.803684330427,32651.249486356915,50700.484299717464,0.0,0.0,0.0,193.0,0.0,193.0,0.0,13.0,0.0,179.0,193.0,13.0,179.0,1744418734.6966753,0.0,2025-04-11 20:45:34.696,FORWARD,26
34.0,9496.987998126508,-8948.967927571288,-24192.36590771269,-23537.99623703912,17488.206027532342,8339.011173130415,32895.53170150897,50607.232821849924,0.0,0.0,0.0,193.0,0.0,192.0,0.0,14.0,0.0,178.0,192.0,14.0,178.0,1744418734.696789,0.0,2025-04-11 20:45:34.696,FORWARD,26
35.0,9507.850945931787,-8916.33438066654,-24231.436757020565,-23500.98174822113,17365.025563839146,8419.52215665843,32716.315414466313,50577.10267032417,0.0,0.0,0.0,193.0,0.0,193.0,0.0,14.0,0.0,179.0,193.0,14.0,179.0,1744418734.6968644,0.0,2025-04-11 20:45:34.696,FORWARD,26
36.0,9530.046228175906,-8907.930124751345,-24214.851762634727,-23461.709733213156,17314.0859382255,8606.94153391618,32446.23928621284,50669.951816791516,0.0,0.0,0.0,193.0,0.0,192.0,0.0,14.0,0.0,179.0,192.0,14.0,179.0,1744418734.6969335,0.0,2025-04-11 20:45:34.696,FORWARD,26
37.0,9510.488451777514,-8953.103000295521,-24163.48745387643,-23476.707753742667,17476.918396582412,8577.571341701907,32590.31863097175,50712.375427767685,0.0,0.0,0.0,193.0,0.0,193.0,0.0,14.0,0.0,179.0,193.0,14.0,179.0,1744418734.6970332,0.0,2025-04-11 20:45:34.697,FORWARD,26
38.0,9494.68576844761,-8980.573294231093,-24175.02095401537,-23519.690158330224,17516.458632523852,8372.494086324465,32899.82323644438,50639.21816816547,0.0,0.0,0.0,193.0,0.0,193.0,0.0,14.0,0.0,178.0,193.0,14.0,178.0,1744418734.697092,0.0,2025-04-11 20:45:34.697,FORWARD,26
39.0,9499.133765594217,-8960.412020732407,-24206.02282357488,-23495.572626062945,17401.838886957037,8387.447403365064,32755.52037424092,50568.56430394224,0.0,0.0,0.0,193.0,0.0,193.0,0.0,15.0,0.0,179.0,193.0,15.0,179.0,1744418734.6971447,0.0,2025-04-11 20:45:34.697,FORWARD,26
40.0,9499.960780139063,-8927.174976727365,-24216.12581206868,-23466.627116993324,17321.886697040405,8612.261249096544,32481.465635474404,50670.35414819171,0.0,0.0,0.0,193.0,0.0,192.0,0.0,15.0,0.0,179.0,192.0,15.0,179.0,1744418734.6972,0.0,2025-04-11 20:45:34.697,FORWARD,26
41.0,9517.238678603015,-8910.500575363705,-24148.958819980482,-23452.72433194212,17454.209024215823,8611.255420596055,32505.605519486133,50710.27436378889,0.0,0.0,0.0,193.0,0.0,193.0,0.0,15.0,0.0,179.0,193.0,15.0,179.0,1744418734.697249,0.0,2025-04-11 20:45:34.697,FORWARD,26
42.0,9500.564277239357,-8947.000974059221,-24149.53996533632,-23494.678556284733,17545.42649333793,8431.949726575582,32877.09151233334,50662.1063544877,0.0,0.0,0.0,193.0,0.0,193.0,0.0,15.0,0.0,179.0,193.0,15.0,179.0,1744418734.6973057,0.0,2025-04-11 20:45:34.697,FORWARD,26
43.0,9494.97634112553,-8958.981509087267,-24196.053945547814,-23491.437553338714,17419.049730187624,8369.588359545274,32800.93911897411,50561.456449205456,0.0,0.0,0.0,193.0,0.0,193.0,0.0,15.0,0.0,179.0,193.0,15.0,179.0,1744418734.6973584,0.0,2025-04-11 20:45:34.697,FORWARD,26
44.0,9503.157079596172,-8938.999049544222,-24220.730271426473,-23475.947794431188,17313.437737636297,8596.503269255552,32533.500496566357,50652.65156658311,0.0,0.0,0.0,193.0,0.0,193.0,0.0,15.0,0.0,179.0,193.0,15.0,179.0,1744418734.6974025,0.0,2025-04-11 20:45:34.697,FORWARD,26
45.0,9515.31642857986,-8922.637572602936,-24169.097741734713,-23470.27045133954,17411.070157417078,8624.152377146767,32464.433606199458,50710.58728821127,0.0,0.0,0.0,193.0,0.0,193.0,0.0,15.0,0.0,179.0,193.0,15.0,179.0,1744418734.6974456,0.0,2025-04-11 20:45:34.697,FORWARD,26
46.0,9491.712986435055,-8950.666660149893,-24158.480663118444,-23510.32477740345,17542.386656092007,8458.458895499574,32851.27524748746,50695.90219210413,0.0,0.0,0.0,193.0,0.0,193.0,0.0,15.0,0.0,179.0,193.0,15.0,179.0,1744418734.6975064,0.0,2025-04-11 20:45:34.697,FORWARD,26
47.0,9491.511820734957,-8962.848360878035,-24212.437774233553,-23523.6017136099,17427.006951213712,8320.481576976965,32836.67955835814,50568.3854899866,0.0,0.0,0.0,193.0,0.0,192.0,0.0,15.0,0.0,178.0,192.0,15.0,178.0,1744418734.69757,0.0,2025-04-11 20:45:34.697,FORWARD,26
48.0,9514.6458762462,-8928.761950583692,-24229.916838397603,-23485.089657913406,17333.956639046268,8537.226442960076,32582.987258790406,50645.186083935034,0.0,0.0,0.0,193.0,0.0,193.0,0.0,15.0,0.0,179.0,193.0,15.0,179.0,1744418734.6976225,0.0,2025-04-11 20:45:34.697,FORWARD,26
49.0,9542.049114948406,-8895.144926922909,-24161.654610831098,-23445.415311505236,17399.179029366856,8618.497385799574,32419.774820777755,50702.42890148508,0.0,0.0,0.0,193.0,0.0,193.0,0.0,15.0,0.0,179.0,193.0,15.0,179.0,1744418734.6977723,0.0,2025-04-11 20:45:34.697,FORWARD,26
50.0,9503.425300529636,-8949.549072927126,-24140.755729765384,-23481.26750961155,17542.69958051438,8514.82999501586,32784.130607143714,50706.04988408684,0.0,0.0,0.0,193.0,0.0,193.0,0.0,16.0,0.0,179.0,193.0,16.0,179.0,1744418734.6978073,0.0,2025-04-11 20:45:34.697,FORWARD,26
51.0,9484.582779953811,-8979.388651774962,-24195.092820536236,-23510.682405314736,17442.988448499258,8346.499007522942,32860.93120109215,50584.031711105315,0.0,0.0,0.0,193.0,0.0,193.0,0.0,16.0,0.0,178.0,193.0,16.0,178.0,1744418734.697852,0.0,2025-04-11 20:45:34.697,FORWARD,26
52.0,9485.432146243113,-8954.846436363034,-24221.177306315578,-23480.239329366606,17332.1908512343,8515.612306071795,32620.87346564215,50613.13368238613,0.0,0.0,0.0,193.0,0.0,193.0,0.0,16.0,0.0,179.0,193.0,16.0,179.0,1744418734.6978843,0.0,2025-04-11 20:45:34.697,FORWARD,26
53.0,9509.504975021478,-8924.515119137182,-24179.580709884252,-23456.814701177445,17363.550348705096,8646.28060415752,32418.165495176974,50701.57953519578,0.0,0.0,0.0,193.0,0.0,192.0,0.0,16.0,0.0,178.0,192.0,16.0,178.0,1744418734.697938,0.0,2025-04-11 20:45:34.697,FORWARD,26
54.0,9497.345626037792,-8958.19919803133,-24139.615790798165,-23490.11880041585,17547.974592205836,8565.322585740398,32731.604007673744,50737.72230598001,0.0,0.0,0.0,193.0,0.0,193.0,0.0,16.0,0.0,179.0,193.0,16.0,179.0,1744418734.69797,0.0,2025-04-11 20:45:34.697,FORWARD,26
55.0,9499.446690016592,-8961.127276554977,-24165.856738788694,-23513.051690226996,17507.1826585749,8349.963527913515,32891.798960184926,50609.445644551,0.0,0.0,0.0,193.0,0.0,192.0,0.0,16.0,0.0,178.0,192.0,16.0,178.0,1744418734.6980152,0.0,2025-04-11 20:45:34.698,FORWARD,26
56.0,9490.818916656843,-8943.938785068845,-24206.805134630817,-23488.06243992596,17375.843808155514,8496.278047117954,32699.350440424736,50618.565156288765,0.0,0.0,0.0,193.0,0.0,193.0,0.0,16.0,0.0,179.0,193.0,16.0,179.0,1744418734.6980472,0.0,2025-04-11 20:45:34.698,FORWARD,26
57.0,9513.371826812247,-8924.537470881638,-24189.03549778885,-23464.01196289205,17349.893432842902,8661.278624687031,32457.03517878475,50723.3724860397,0.0,0.0,0.0,193.0,0.0,193.0,0.0,16.0,0.0,179.0,193.0,16.0,179.0,1744418734.6980782,0.0,2025-04-11 20:45:34.698,FORWARD,26
58.0,9505.615771486257,-8963.854189378522,-24149.78583452533,-23495.25970164057,17520.772519203725,8587.137888328778,32676.909288991606,50758.21885564552,0.0,0.0,0.0,193.0,0.0,193.0,0.0,16.0,0.0,179.0,193.0,16.0,179.0,1744418734.698109,0.0,2025-04-11 20:45:34.698,FORWARD,26
59.0,9491.802393412876,-8981.556770987127,-24175.19976797101,-23531.67069335827,17510.021330120722,8350.902301180638,32917.43641107516,50648.11416245868,0.0,0.0,0.0,193.0,0.0,192.0,0.0,16.0,0.0,178.0,192.0,16.0,178.0,1744418734.69814,0.0,2025-04-11 20:45:34.698,FORWARD,26
60.0,9486.21445729905,-8957.372183486485,-24208.392108487144,-23499.5959400649,17388.226674583755,8406.04405475188,32729.65940590613,50591.00545537537,0.0,0.0,0.0,193.0,0.0,193.0,0.0,16.0,0.0,179.0,193.0,16.0,179.0,1744418734.6981711,0.0,2025-04-11 20:45:34.698,FORWARD,26
61.0,9498.060881860361,-8929.030171517155,-24196.679794392563,-23465.151901859273,17330.603877377973,8612.75298747456,32453.57065839418,50687.69910188903,0.0,0.0,0.0,193.0,0.0,193.0,0.0,16.0,0.0,179.0,193.0,16.0,179.0,1744418734.6982021,0.0,2025-04-11 20:45:34.698,FORWARD,26
62.0,9503.671169718644,-8939.62489838897,-24140.241639642914,-23470.672782739734,17490.776478144704,8594.424557021208,32563.764758558842,50724.46772151801,0.0,0.0,0.0,193.0,0.0,193.0,0.0,16.0,0.0,178.0,193.0,16.0,178.0,1744418734.6982331,0.0,2025-04-11 20:45:34.698,FORWARD,26
63.0,9484.40396599817,-8981.310901798119,-24169.969459768472,-23526.820364811465,17532.887164698503,8397.013949991937,32900.18086435567,50657.39013640763,0.0,0.0,0.0,193.0,0.0,193.0,0.0,16.0,0.0,179.0,193.0,16.0,179.0,1744418734.698265,0.0,2025-04-11 20:45:34.698,FORWARD,26
64.0,9487.73437592201,-8980.863866909012,-24200.189018272045,-23496.109067929872,17410.600770783516,8402.825403550316,32772.887679682695,50583.58467621621,0.0,0.0,0.0,193.0,0.0,192.0,0.0,16.0,0.0,178.0,192.0,16.0,178.0,1744418734.6983092,0.0,2025-04-11 20:45:34.698,FORWARD,26
65.0,9501.88303016222,-8949.571424671582,-24199.45141070502,-23457.820529677934,17341.71269437226,8624.018266680034,32497.983574626873,50675.89738081663,0.0,0.0,0.0,193.0,0.0,193.0,0.0,16.0,0.0,179.0,193.0,16.0,179.0,1744418734.6983404,0.0,2025-04-11 20:45:34.698,FORWARD,26
66.0,9507.001579642485,-8946.419828703383,-24141.31452337677,-23454.691285454188,17469.0729342786,8633.875385984826,32517.04961264725,50733.18490185558,0.0,0.0,0.0,193.0,0.0,192.0,0.0,16.0,0.0,178.0,192.0,16.0,178.0,1744418734.6983707,0.0,2025-04-11 20:45:34.698,FORWARD,26
67.0,9488.717852678044,-8980.863866909012,-24149.987000225425,-23507.46375411317,17552.71316203036,8448.490017472508,32897.34219280985,50698.94202935005,0.0,0.0,0.0,193.0,0.0,193.0,0.0,16.0,0.0,179.0,193.0,16.0,179.0,1744418734.6984015,0.0,2025-04-11 20:45:34.698,FORWARD,26
68.0,9501.145422595195,-8954.48880845175,-24177.837273816738,-23494.41033535127,17433.55601233912,8358.211321617522,32810.34920338979,50575.292179023294,0.0,0.0,0.0,193.0,0.0,193.0,0.0,16.0,0.0,179.0,193.0,16.0,179.0,1744418734.698445,0.0,2025-04-11 20:45:34.698,FORWARD,26
69.0,9506.241620331004,-8927.554956383105,-24194.35521296921,-23462.045009379985,17330.827394822525,8583.69571968266,32547.179764173005,50663.78273532185,0.0,0.0,0.0,193.0,0.0,192.0,0.0,16.0,0.0,178.0,192.0,16.0,178.0,1744418734.6984756,0.0,2025-04-11 20:45:34.698,FORWARD,26
70.0,9514.779986712932,-8929.544261639627,-24156.133729950638,-23463.140244858296,17409.326721349564,8615.211679364644,32472.010847569807,50730.9273756656,0.0,0.0,0.0,193.0,0.0,193.0,0.0,17.0,0.0,179.0,193.0,17.0,179.0,1744418734.698506,0.0,2025-04-11 20:45:34.698,FORWARD,26
71.0,9479.665396173645,-8994.431375793383,-24158.525366607355,-23509.542466347513,17529.46734779684,8459.487075744519,32862.11584354828,50720.08677960477,0.0,0.0,0.0,193.0,0.0,193.0,0.0,17.0,0.0,179.0,193.0,17.0,179.0,1744418734.6985364,0.0,2025-04-11 20:45:34.698,FORWARD,26
72.0,9478.21253278405,-8986.16123034492,-24195.919835081084,-23509.207190180685,17415.808727241605,8330.159882326112,32866.38502673925,50592.34656004269,0.0,0.0,0.0,193.0,0.0,193.0,0.0,16.0,0.0,179.0,193.0,16.0,179.0,1744418734.698567,0.0,2025-04-11 20:45:34.698,FORWARD,26
73.0,9484.605131698267,-8954.53351194066,-24219.769146414896,-23475.009021164064,17318.42217664983,8542.188530229156,32619.3982505081,50663.11218298819,0.0,0.0,0.0,193.0,0.0,193.0,0.0,17.0,0.0,179.0,193.0,17.0,179.0,1744418734.6985972,0.0,2025-04-11 20:45:34.698,FORWARD,26
74.0,9516.501071035991,-8925.81152031559,-24174.88684354864,-23458.558137244956,17374.905034888394,8608.282638583498,32446.32869319066,50726.83700643027,0.0,0.0,0.0,193.0,0.0,192.0,0.0,17.0,0.0,179.0,192.0,17.0,179.0,1744418735.1732206,0.0,2025-04-11 20:45:35.173,FORWARD,26
75.0,9485.767422409943,-8974.135991827965,-24153.607982827187,-23504.73684128962,17547.147577660988,8496.747433751516,32802.90607248617,50738.102285635745,0.0,0.0,0.0,193.0,0.0,193.0,0.0,16.0,0.0,179.0,193.0,16.0,179.0,1744418735.1733942,0.0,2025-04-11 20:45:35.173,FORWARD,26
76.0,9457.96185230754,-8998.119413628508,-24195.003413558414,-23531.08954800243,17466.25661447723,8310.69151290554,32896.492826520545,50607.59044976121,0.0,0.0,0.0,193.0,0.0,193.0,0.0,17.0,0.0,178.0,193.0,17.0,178.0,1744418735.1734335,0.0,2025-04-11 20:45:35.173,FORWARD,26
77.0,9478.771326395432,-8974.672433694892,-24206.02282357488,-23484.8437887244,17362.142188804413,8484.476326045553,32655.6080765257,50619.906260956086,0.0,0.0,0.0,193.0,0.0,193.0,0.0,17.0,0.0,179.0,193.0,17.0,179.0,1744418735.1734722,0.0,2025-04-11 20:45:35.173,FORWARD,26
78.0,9503.492355763,-8949.683183393858,-24177.0549627608,-23463.49787276958,17362.67863067134,8638.435141853708,32434.88460002954,50705.245221286445,0.0,0.0,0.0,193.0,0.0,192.0,0.0,17.0,0.0,178.0,192.0,17.0,178.0,1744418735.173509,0.0,2025-04-11 20:45:35.173,FORWARD,26
79.0,9482.951102608575,-8980.327425042084,-24151.97630548195,-23504.55802733398,17520.191373847887,8554.973728057592,32726.038423304373,50734.77187571191,0.0,0.0,0.0,193.0,0.0,193.0,0.0,17.0,0.0,179.0,193.0,17.0,179.0,1744418735.1735916,0.0,2025-04-11 20:45:35.173,FORWARD,26
80.0,9472.624596670223,-8996.465384538817,-24187.135599510148,-23534.911696304287,17464.15555049843,8335.837225417761,32901.49961727853,50612.5972405192,0.0,0.0,0.0,193.0,0.0,192.0,0.0,17.0,0.0,178.0,192.0,17.0,178.0,1744418735.1736286,0.0,2025-04-11 20:45:35.173,FORWARD,26
81.0,9475.26210251595,-8976.125297084487,-24213.823582389785,-23490.252910882584,17352.061552055067,8466.10319210329,32705.541873638856,50607.61280150567,0.0,0.0,0.0,193.0,0.0,193.0,0.0,17.0,0.0,179.0,193.0,17.0,179.0,1744418735.1736648,0.0,2025-04-11 20:45:35.173,FORWARD,26
82.0,9494.015216113952,-8947.783285115158,-24196.858608348204,-23466.627116993324,17335.90124081388,8638.56925232044,32456.27521947327,50706.876898631686,0.0,0.0,0.0,193.0,0.0,193.0,0.0,17.0,0.0,179.0,193.0,17.0,179.0,1744418735.1737013,0.0,2025-04-11 20:45:35.173,FORWARD,26
83.0,9474.010404826451,-8994.87841068249,-24165.275593432856,-23507.64256806881,17498.26431253723,8573.212751533121,32665.04051268584,50745.56776828382,0.0,0.0,0.0,193.0,0.0,192.0,0.0,17.0,0.0,179.0,192.0,17.0,179.0,1744418735.173761,0.0,2025-04-11 20:45:35.173,FORWARD,26
84.0,9476.424393227624,-9013.698579513857,-24185.68273612055,-23544.299428975515,17497.347891014564,8349.538844768864,32934.40138511675,50649.11999095917,0.0,0.0,0.0,193.0,0.0,193.0,0.0,17.0,0.0,179.0,193.0,17.0,179.0,1744418735.1738043,0.0,2025-04-11 20:45:35.173,FORWARD,26
85.0,9489.477811989524,-8984.998939633244,-24210.426117232575,-23507.776678535545,17383.979843137247,8388.52028709892,32757.554382986356,50588.211487318455,0.0,0.0,0.0,193.0,0.0,193.0,0.0,17.0,0.0,179.0,193.0,17.0,179.0,1744418735.1738403,0.0,2025-04-11 20:45:35.173,FORWARD,26
86.0,9498.843192916298,-8957.05925906411,-24206.201637530525,-23477.579471776426,17332.213202978757,8604.12521411481,32482.694981419445,50683.161697764604,0.0,0.0,0.0,193.0,0.0,193.0,0.0,17.0,0.0,179.0,193.0,17.0,179.0,1744418735.1738758,0.0,2025-04-11 20:45:35.173,FORWARD,26
87.0,9499.446690016592,-8966.849323135535,-24153.317410149266,-23483.770904990542,17475.487884937273,8591.116498841822,32574.40418891957,50724.55712849583,0.0,0.0,0.0,193.0,0.0,193.0,0.0,17.0,0.0,179.0,193.0,17.0,179.0,1744418735.1739116,0.0,2025-04-11 20:45:35.173,FORWARD,26
88.0,9472.892817603686,-9001.002788663243,-24170.438846402034,-23537.750367850113,17531.166080375442,8396.991598247481,32929.86398099232,50669.236560968944,0.0,0.0,0.0,193.0,0.0,193.0,0.0,17.0,0.0,179.0,193.0,17.0,179.0,1744418735.1739469,0.0,2025-04-11 20:45:35.173,FORWARD,26
89.0,9480.626521185222,-8978.069898852098,-24205.061698563302,-23510.995329737107,17396.273302587666,8364.358051342733,32808.11402894426,50574.643978434084,0.0,0.0,0.0,193.0,0.0,193.0,0.0,17.0,0.0,179.0,193.0,17.0,179.0,1744418735.1739805,0.0,2025-04-11 20:45:35.173,FORWARD,26
90.0,9488.06965208884,-8956.902796852923,-24218.36098651421,-23480.664012511257,17312.610723091453,8594.871591910314,32537.43440359049,50670.97999703646,0.0,0.0,0.0,193.0,0.0,193.0,0.0,17.0,0.0,178.0,193.0,17.0,178.0,1744418735.1740131,0.0,2025-04-11 20:45:35.174,FORWARD,26
91.0,9491.243599801493,-8965.888198123956,-24170.93058478005,-23481.98276543412,17423.25185814522,8616.329266587409,32524.939778439973,50724.15479709564,0.0,0.0,0.0,193.0,0.0,193.0,0.0,17.0,0.0,179.0,193.0,17.0,179.0,1744418735.1740448,0.0,2025-04-11 20:45:35.174,FORWARD,26
92.0,9473.138686792694,-9000.086367140577,-24167.577823111755,-23524.56283862148,17516.57039124613,8444.354944748276,32900.94082366715,50690.448366457036,0.0,0.0,0.0,193.0,0.0,193.0,0.0,17.0,0.0,179.0,193.0,17.0,179.0,1744418735.1740773,0.0,2025-04-11 20:45:35.174,FORWARD,26
93.0,9484.381614253714,-8983.523724499193,-24195.18222751406,-23504.580379078434,17406.64451201493,8340.665202220107,32835.96430253557,50563.98219632891,0.0,0.0,0.0,193.0,0.0,193.0,0.0,17.0,0.0,179.0,193.0,17.0,179.0,1744418735.1741087,0.0,2025-04-11 20:45:35.174,FORWARD,26
94.0,9488.628445700222,-8958.601529431526,-24210.56022769931,-23467.32002107144,17319.115080727945,8595.65390296625,32591.346811216692,50659.42414515307,0.0,0.0,0.0,193.0,0.0,193.0,0.0,17.0,0.0,178.0,193.0,17.0,178.0,1744418735.1741552,0.0,2025-04-11 20:45:35.174,FORWARD,26
95.0,9499.267876060949,-8940.38485770045,-24169.969459768472,-23468.34820131638,17391.467677529774,8660.541017120006,32480.012772084807,50711.32489577829,0.0,0.0,0.0,193.0,0.0,193.0,0.0,17.0,0.0,179.0,193.0,17.0,179.0,1744418735.174188,0.0,2025-04-11 20:45:35.174,FORWARD,26
96.0,9476.223227527527,-8980.68505295337,-24155.44082587252,-23517.07500422895,17539.391522334998,8507.766843767982,32849.30829397539,50688.57081992279,0.0,0.0,0.0,193.0,0.0,193.0,0.0,17.0,0.0,179.0,193.0,17.0,179.0,1744418735.1742203,0.0,2025-04-11 20:45:35.174,FORWARD,26
97.0,9490.081309089817,-8982.786116932168,-24183.849893075218,-23514.504553616593,17462.479169664286,8345.671992978096,32868.88842211824,50550.34763221117,0.0,0.0,0.0,193.0,0.0,193.0,0.0,17.0,0.0,178.0,193.0,17.0,178.0,1744418735.1742525,0.0,2025-04-11 20:45:35.174,FORWARD,26
98.0,9502.575934240334,-8965.8658463795,-24206.715727652994,-23470.717486228645,17361.024601581645,8564.160295028722,32633.681015215043,50608.68568523952,0.0,0.0,0.0,193.0,0.0,193.0,0.0,17.0,0.0,179.0,193.0,17.0,179.0,1744418735.1743016,0.0,2025-04-11 20:45:35.174,FORWARD,26
99.0,9510.399044799691,-8941.43538968985,-24169.969459768472,-23462.246175080083,17381.58820648053,8663.647909599295,32465.819414355687,50689.04020655635,0.0,0.0,0.0,193.0,0.0,192.0,0.0,17.0,0.0,178.0,192.0,17.0,178.0,1744418735.1743362,0.0,2025-04-11 20:45:35.174,FORWARD,26
100.0,9488.516686977946,-8971.520837726694,-24133.044377928305,-23492.197512650197,17539.65974326846,8542.702620351627,32802.05670619687,50702.13832880716,0.0,0.0,0.0,193.0,0.0,193.0,0.0,17.0,0.0,179.0,193.0,17.0,179.0,1744418735.1743736,0.0,2025-04-11 20:45:35.174,FORWARD,26
101.0,9480.313596762848,-8991.927980414388,-24170.461198146488,-23504.580379078434,17472.380992457987,8349.091809879757,32915.38005058528,50572.073527821725,0.0,0.0,0.0,193.0,0.0,193.0,0.0,17.0,0.0,179.0,193.0,17.0,179.0,1744418735.1744115,0.0,2025-04-11 20:45:35.174,FORWARD,26
102.0,9465.002651810963,-8984.68601521087,-24214.404727745623,-23484.061477668463,17352.91091834437,8516.97576248357,32704.893673049653,50599.85674617967,0.0,0.0,0.0,193.0,0.0,193.0,0.0,17.0,0.0,179.0,193.0,17.0,179.0,1744418735.1744509,0.0,2025-04-11 20:45:35.174,FORWARD,26
103.0,9501.011312128463,-8940.228395489263,-24176.585576127243,-23451.606744719356,17355.61547942346,8653.433162383219,32453.458899671903,50677.35024420622,0.0,0.0,0.0,193.0,0.0,193.0,0.0,17.0,0.0,179.0,193.0,17.0,179.0,1744418735.174492,0.0,2025-04-11 20:45:35.174,FORWARD,26
104.0,9485.901532876675,-8971.274968537686,-24136.464194829965,-23481.535730545012,17532.41777806494,8575.939664356669,32717.76827785591,50700.32783750628,0.0,0.0,0.0,193.0,0.0,192.0,0.0,17.0,0.0,178.0,192.0,17.0,178.0,1744418735.1745307,0.0,2025-04-11 20:45:35.174,FORWARD,26
105.0,9470.568236180334,-8994.140803115464,-24182.195863985526,-23527.714434589678,17493.436335734885,8351.75166746994,32928.81344900292,50587.07154835124,0.0,0.0,0.0,193.0,0.0,193.0,0.0,17.0,0.0,179.0,193.0,17.0,179.0,1744418735.1745713,0.0,2025-04-11 20:45:35.174,FORWARD,26
106.0,9469.07066930183,-8972.504314482727,-24221.55728597132,-23493.27039638405,17371.01583135317,8450.211101795567,32734.71090015303,50561.657614905555,0.0,0.0,0.0,193.0,0.0,193.0,0.0,17.0,0.0,179.0,193.0,17.0,179.0,1744418735.1746132,0.0,2025-04-11 20:45:35.174,FORWARD,26
107.0,9486.929713121619,-8950.57725317207,-24209.777916643372,-23469.30932632796,17316.321112671034,8639.306859887465,32477.822301128188,50670.60001738072,0.0,0.0,0.0,193.0,0.0,193.0,0.0,17.0,0.0,179.0,193.0,17.0,179.0,1744418735.1746557,0.0,2025-04-11 20:45:35.174,FORWARD,26
108.0,9494.886934147708,-8969.620939447992,-24145.986037967927,-23479.25585261057,17478.147742527457,8593.776356432005,32641.83940194123,50712.50953823442,0.0,0.0,0.0,193.0,0.0,193.0,0.0,17.0,0.0,178.0,193.0,17.0,178.0,1744418735.1747067,0.0,2025-04-11 20:45:35.174,FORWARD,26
109.0,9479.575989195822,-8998.946428173354,-24160.4029131416,-23518.661978085278,17507.94261788638,8390.598999333262,32945.487850366575,50636.178330919545,0.0,0.0,0.0,193.0,0.0,193.0,0.0,17.0,0.0,179.0,193.0,17.0,179.0,1744418735.17482,0.0,2025-04-11 20:45:35.174,FORWARD,26
110.0,9476.826724627821,-8986.094175111553,-24200.88192235016,-23492.331623116926,17381.409392524885,8423.098435771279,32805.85650275427,50584.97048437244,0.0,0.0,0.0,193.0,0.0,193.0,0.0,17.0,0.0,179.0,193.0,17.0,179.0,1744418735.174867,0.0,2025-04-11 20:45:35.174,FORWARD,26
111.0,9484.49337297599,-8961.507256210716,-24210.80609688832,-23468.12468387183,17314.175345203323,8639.932708732213,32538.68610127999,50699.523174705886,0.0,0.0,0.0,193.0,0.0,193.0,0.0,17.0,0.0,179.0,193.0,17.0,179.0,1744418735.1749172,0.0,2025-04-11 20:45:35.174,FORWARD,26
112.0,9488.963721867052,-8965.77643940168,-24150.702256047996,-23467.051800137975,17455.460721905318,8623.794749235482,32590.162168760562,50740.8739019482,0.0,0.0,0.0,193.0,0.0,193.0,0.0,17.0,0.0,179.0,193.0,17.0,179.0,1744418735.1749835,0.0,2025-04-11 20:45:35.174,FORWARD,26
113.0,9458.431238941102,-9010.725797501302,-24165.36500041068,-23522.059443242484,17528.99796116328,8432.039133553402,32953.31096092593,50685.17335476558,0.0,0.0,0.0,193.0,0.0,193.0,0.0,17.0,0.0,178.0,193.0,17.0,178.0,1744418735.1751285,0.0,2025-04-11 20:45:35.175,FORWARD,26
114.0,9463.214512254539,-8992.30796007013,-24203.74294564044,-23504.401565122793,17405.81749747008,8371.823533990804,32838.668863614665,50579.5390104698,0.0,0.0,0.0,193.0,0.0,193.0,0.0,17.0,0.0,179.0,193.0,17.0,179.0,1744418735.1751833,0.0,2025-04-11 20:45:35.175,FORWARD,26
115.0,9466.92490183412,-8966.379936501973,-24223.278370294378,-23476.573643275937,17304.832316021006,8587.830792406892,32569.598563861677,50676.34441570573,0.0,0.0,0.0,193.0,0.0,193.0,0.0,17.0,0.0,179.0,193.0,17.0,179.0,1744418735.1752305,0.0,2025-04-11 20:45:35.175,FORWARD,26
116.0,9497.591495226801,-8934.416941930884,-24153.11624444917,-23459.519262256537,17408.29854110462,8601.08537686889,32515.887321935574,50716.219927814,0.0,0.0,0.0,193.0,0.0,193.0,0.0,17.0,0.0,179.0,193.0,17.0,179.0,1744418735.17527,0.0,2025-04-11 20:45:35.175,FORWARD,26
117.0,9486.035643343406,-8970.738526670757,-24141.49333733241,-23505.54150409001,17538.22923162332,8446.210139538067,32913.88248370677,50694.5163839479,0.0,0.0,0.0,193.0,0.0,192.0,0.0,17.0,0.0,178.0,192.0,17.0,178.0,1744418735.1753037,0.0,2025-04-11 20:45:35.175,FORWARD,26
118.0,9500.810146428365,-8974.851247650535,-24179.960689539992,-23490.878759727333,17410.086680661047,8342.162769098613,32870.67656167466,50566.15031554107,0.0,0.0,0.0,193.0,0.0,193.0,0.0,17.0,0.0,179.0,193.0,17.0,179.0,1744418735.175337,0.0,2025-04-11 20:45:35.175,FORWARD,26
119.0,9502.464175518058,-8962.15545679992,-24206.983948586458,-23463.542576258493,17311.202563190767,8579.18066730269,32622.058108098285,50647.66712756958,0.0,0.0,0.0,193.0,0.0,193.0,0.0,17.0,0.0,178.0,193.0,17.0,178.0,1744418735.1753693,0.0,2025-04-11 20:45:35.175,FORWARD,26
120.0,9503.581762740823,-8963.921244611889,-24172.048172002815,-23462.26852682454,17382.370517536463,8624.71117075815,32494.139074580562,50708.03918934336,0.0,0.0,0.0,193.0,0.0,193.0,0.0,17.0,0.0,179.0,193.0,17.0,179.0,1744418735.175402,0.0,2025-04-11 20:45:35.175,FORWARD,26
121.0,9466.500218689469,-9014.883221969989,-24145.762520523374,-23502.635777310825,17546.119397416045,8493.595837783318,32862.62993367075,50705.91577362011,0.0,0.0,0.0,193.0,0.0,193.0,0.0,17.0,0.0,178.0,193.0,17.0,178.0,1744418735.1754363,0.0,2025-04-11 20:45:35.175,FORWARD,26
122.0,9461.180503509106,-9012.78215799119,-24175.602099371208,-23511.26355067057,17458.63466961797,8341.2686993204,32915.268291863,50584.67991169452,0.0,0.0,0.0,193.0,0.0,193.0,0.0,17.0,0.0,179.0,193.0,17.0,179.0,1744418735.1754715,0.0,2025-04-11 20:45:35.175,FORWARD,26
123.0,9463.460381443547,-8981.869695409501,-24205.285216007855,-23474.383172319314,17347.457092697274,8541.227405217578,32691.907309521117,50637.18415942004,0.0,0.0,0.0,193.0,0.0,193.0,0.0,17.0,0.0,179.0,193.0,17.0,179.0,1744418735.1755044,0.0,2025-04-11 20:45:35.175,FORWARD,26
124.0,9483.398137497681,-8953.907663095912,-24170.215328957478,-23455.607706976858,17368.288918529623,8645.006554723568,32505.650222975044,50713.80593941283,0.0,0.0,0.0,193.0,0.0,193.0,0.0,17.0,0.0,179.0,193.0,17.0,179.0,1744418735.1755548,0.0,2025-04-11 20:45:35.175,FORWARD,26
125.0,9463.862712843742,-8990.25159958024,-24140.93454372103,-23494.544445818003,17531.546060031185,8532.085541735356,32832.2986164449,50728.51338726442,0.0,0.0,0.0,193.0,0.0,192.0,0.0,17.0,0.0,178.0,192.0,17.0,178.0,1744418735.1755888,0.0,2025-04-11 20:45:35.175,FORWARD,26
126.0,9465.561445422345,-8981.690881453858,-24176.07148600477,-23516.538562362024,17467.195387744356,8324.59429795674,32958.60832436184,50585.976312872925,0.0,0.0,0.0,193.0,0.0,193.0,0.0,17.0,0.0,179.0,193.0,17.0,179.0,1744418735.1756234,0.0,2025-04-11 20:45:35.175,FORWARD,26
127.0,9458.945329063574,-8978.941616885855,-24215.164687057102,-23490.208207393673,17346.294801985598,8481.235323099532,32756.257981807947,50602.20367934748,0.0,0.0,0.0,193.0,0.0,192.0,0.0,17.0,0.0,178.0,192.0,17.0,178.0,1744418735.1756563,0.0,2025-04-11 20:45:35.175,FORWARD,26
128.0,9481.967625852541,-8963.25069227823,-24193.12586702417,-23467.945869916188,17329.933325044316,8645.52064484604,32517.273130091806,50700.350189250734,0.0,0.0,0.0,193.0,0.0,193.0,0.0,17.0,0.0,179.0,193.0,17.0,179.0,1744418735.175825,0.0,2025-04-11 20:45:35.175,FORWARD,26
129.0,9477.273759516926,-8994.900762426945,-24146.120148434657,-23495.617329551857,17500.879466638504,8566.12724854079,32747.406691003645,50717.31516329231,0.0,0.0,0.0,193.0,0.0,193.0,0.0,17.0,0.0,178.0,193.0,17.0,178.0,1744418735.1758666,0.0,2025-04-11 20:45:35.175,FORWARD,26
130.0,9468.936558835097,-9015.73258825929,-24181.502959907408,-23528.80967006799,17474.616166903517,8349.203568602034,32970.030065778505,50609.624458506645,0.0,0.0,0.0,193.0,0.0,193.0,0.0,17.0,0.0,179.0,193.0,17.0,179.0,1744418735.1759005,0.0,2025-04-11 20:45:35.175,FORWARD,26
131.0,9476.536151949902,-8979.813334919612,-24218.383338258667,-23497.6960417862,17341.735046116715,8440.801017379883,32780.24140360849,50569.79364988729,0.0,0.0,0.0,193.0,0.0,193.0,0.0,17.0,0.0,179.0,193.0,17.0,179.0,1744418735.1759367,0.0,2025-04-11 20:45:35.175,FORWARD,26
132.0,9492.07061434634,-8955.785209630158,-24206.671024164087,-23466.247137337585,17298.618531062428,8641.676144799727,32516.937853924974,50671.494087158935,0.0,0.0,0.0,193.0,0.0,193.0,0.0,17.0,0.0,179.0,193.0,17.0,179.0,1744418735.1759713,0.0,2025-04-11 20:45:35.175,FORWARD,26
133.0,9468.936558835097,-8984.820125677601,-24146.231907156936,-23475.143131630797,17486.84257112057,8598.671388467716,32664.74994000792,50715.594078969254,0.0,0.0,0.0,193.0,0.0,192.0,0.0,17.0,0.0,179.0,192.0,17.0,179.0,1744418735.1760063,0.0,2025-04-11 20:45:35.176,FORWARD,26
134.0,9447.076552757806,-9009.563506789626,-24162.951012009504,-23512.60465533789,17530.070844897135,8381.524191084409,32978.52372867152,50641.18512167754,0.0,0.0,0.0,193.0,0.0,193.0,0.0,17.0,0.0,179.0,193.0,17.0,179.0,1744418735.1760387,0.0,2025-04-11 20:45:35.176,FORWARD,26
135.0,9461.046393042374,-8991.68211122538,-24196.188056014547,-23481.379268333825,17409.393776582932,8381.837115506783,32830.37636642175,50563.64692016208,0.0,0.0,0.0,193.0,0.0,193.0,0.0,17.0,0.0,179.0,193.0,17.0,179.0,1744418735.176076,0.0,2025-04-11 20:45:35.176,FORWARD,26
136.0,9469.830628613308,-8970.939692370855,-24204.905236352115,-23457.194680833185,17336.638848380906,8608.46145253914,32561.44017713549,50664.296825444326,0.0,0.0,0.0,193.0,0.0,193.0,0.0,17.0,0.0,178.0,193.0,17.0,178.0,1744418735.1761162,0.0,2025-04-11 20:45:35.176,FORWARD,26
137.0,9471.059974558351,-8973.48779123876,-24151.193994426012,-23469.063457138953,17459.707553351825,8602.001798391557,32599.54990143179,50711.056674844825,0.0,0.0,0.0,193.0,0.0,193.0,0.0,17.0,0.0,179.0,193.0,17.0,179.0,1744418735.1761532,0.0,2025-04-11 20:45:35.176,FORWARD,26
138.0,9462.834532598798,-8993.984340904277,-24152.423340371053,-23509.02837622504,17538.676266512426,8414.783586833904,32957.04370224997,50658.418316652576,0.0,0.0,0.0,193.0,0.0,192.0,0.0,17.0,0.0,178.0,192.0,17.0,178.0,1744418735.176188,0.0,2025-04-11 20:45:35.176,FORWARD,26
139.0,9462.320442476326,-8988.284646068174,-24199.898445594128,-23502.345204632904,17405.30340734761,8349.248272090945,32864.64159067173,50550.57114965572,0.0,0.0,0.0,193.0,0.0,193.0,0.0,17.0,0.0,180.0,193.0,17.0,180.0,1744418735.1762269,0.0,2025-04-11 20:45:35.176,FORWARD,26
140.0,9472.848114114775,-8970.872637137489,-24211.27548352188,-23469.376381561327,17314.95765625926,8584.768603416516,32590.7433141164,50642.63798506713,0.0,0.0,0.0,193.0,0.0,193.0,0.0,17.0,0.0,179.0,193.0,17.0,179.0,1744418735.1763315,0.0,2025-04-11 20:45:35.176,FORWARD,26
141.0,9494.462251003057,-8954.82408461858,-24152.088064204225,-23454.445416265182,17413.998235940726,8622.923031201724,32527.554932541247,50695.72337814848,0.0,0.0,0.0,193.0,0.0,193.0,0.0,17.0,0.0,178.0,193.0,17.0,178.0,1744418735.176381,0.0,2025-04-11 20:45:35.176,FORWARD,26
142.0,9456.598395895768,-9016.000809192754,-24155.999619483904,-23509.83303902543,17522.18067910441,8468.628939226739,32923.672547778195,50686.514459432896,0.0,0.0,0.0,193.0,0.0,193.0,0.0,17.0,0.0,179.0,193.0,17.0,179.0,1744418735.1764312,0.0,2025-04-11 20:45:35.176,FORWARD,26
143.0,9468.44482045708,-9005.406082320938,-24192.611776901696,-23516.292693173014,17418.803860998614,8323.163786311601,32903.73479172406,50560.02593756031,0.0,0.0,0.0,193.0,0.0,193.0,0.0,17.0,0.0,178.0,193.0,17.0,178.0,1744418735.176568,0.0,2025-04-11 20:45:35.176,FORWARD,26
144.0,9465.15911402215,-8979.567465730604,-24210.98491084396,-23476.618346764844,17328.27929595462,8531.839672546348,32648.32140783327,50626.34356335921,0.0,0.0,0.0,193.0,0.0,193.0,0.0,17.0,0.0,179.0,193.0,17.0,179.0,1744418735.1766157,0.0,2025-04-11 20:45:35.176,FORWARD,26
145.0,9462.454552943058,-8977.846381407546,-24174.84214005973,-23466.91768967124,17386.997328638714,8608.707321728149,32501.693964206454,50693.39879672513,0.0,0.0,0.0,193.0,0.0,193.0,0.0,17.0,0.0,179.0,193.0,17.0,179.0,1744418735.176653,0.0,2025-04-11 20:45:35.176,FORWARD,26
146.0,9445.690744601578,-9017.632486537992,-24144.6002298117,-23502.345204632904,17541.604345036074,8485.683320246138,32857.91371559069,50692.70589264702,0.0,0.0,0.0,193.0,0.0,193.0,0.0,17.0,0.0,179.0,193.0,17.0,179.0,1744418735.1766899,0.0,2025-04-11 20:45:35.176,FORWARD,26
147.0,9442.896776544665,-9024.87445174151,-24188.141428010636,-23520.673635086256,17435.45591061782,8294.195925497523,32923.471382078096,50557.09785903667,0.0,0.0,0.0,193.0,0.0,193.0,0.0,17.0,0.0,179.0,193.0,17.0,179.0,1744418735.1767256,0.0,2025-04-11 20:45:35.176,FORWARD,26
148.0,9446.204834724049,-8999.058186895632,-24214.65059693463,-23483.41327707926,17319.942095272792,8478.016671897969,32696.847045045743,50598.80621419027,0.0,0.0,0.0,193.0,0.0,193.0,0.0,17.0,0.0,179.0,193.0,17.0,179.0,1744418735.1767628,0.0,2025-04-11 20:45:35.176,FORWARD,26
149.0,9459.168846508128,-8976.39351801795,-24181.16768374058,-23468.482311783115,17340.90803157187,8602.806461191949,32490.76396116781,50680.52419191888,0.0,0.0,0.0,193.0,0.0,192.0,0.0,17.0,0.0,179.0,192.0,17.0,179.0,1744418735.1768005,0.0,2025-04-11 20:45:35.176,FORWARD,26
150.0,9454.765552850433,-9002.366245075018,-24135.123090162648,-23494.119762673352,17522.851231438068,8519.188585184644,32793.20541539257,50694.3152182478,0.0,0.0,0.0,193.0,0.0,192.0,0.0,17.0,0.0,179.0,192.0,17.0,179.0,1744418735.1768353,0.0,2025-04-11 20:45:35.176,FORWARD,26
151.0,9456.710154618044,-9003.081500897588,-24169.92475627956,-23513.65518732729,17481.79107687367,8326.225975301979,32953.82505104841,50570.955940598964,0.0,0.0,0.0,193.0,0.0,193.0,0.0,17.0,0.0,179.0,193.0,17.0,179.0,1744418735.1768706,0.0,2025-04-11 20:45:35.176,FORWARD,26
152.0,9451.949233049063,-8990.720986213802,-24209.59910268773,-23475.947794431188,17357.135398046423,8477.994320153513,32752.81581316183,50586.602161717674,0.0,0.0,0.0,193.0,0.0,193.0,0.0,17.0,0.0,179.0,193.0,17.0,179.0,1744418735.1769106,0.0,2025-04-11 20:45:35.176,FORWARD,26
153.0,9474.613901926745,-8969.06214583661,-24183.916948308583,-23443.984799860096,17333.084921012512,8647.197025680189,32502.029240373286,50684.905133832115,0.0,0.0,0.0,193.0,0.0,193.0,0.0,17.0,0.0,179.0,193.0,17.0,179.0,1744418735.1769483,0.0,2025-04-11 20:45:35.176,FORWARD,26
154.0,9457.358355207249,-8996.845364194556,-24136.44184308551,-23468.92934667222,17494.17394330191,8570.910521854224,32725.591388415265,50716.219927814,0.0,0.0,0.0,193.0,0.0,193.0,0.0,17.0,0.0,178.0,193.0,17.0,178.0,1744418735.1769955,0.0,2025-04-11 20:45:35.176,FORWARD,26
155.0,9445.936613790585,-9011.68692251288,-24171.467026646977,-23508.558989591478,17490.731774655793,8339.637021975162,32979.86483333884,50615.704132998486,0.0,0.0,0.0,193.0,0.0,192.0,0.0,17.0,0.0,178.0,192.0,17.0,178.0,1744418735.1771111,0.0,2025-04-11 20:45:35.177,FORWARD,26
156.0,9464.242692499482,-8991.816221692112,-24208.593274187242,-23487.525998059034,17357.314212002064,8401.976037261014,32796.58052880532,50564.69745215148,0.0,0.0,0.0,193.0,0.0,193.0,0.0,17.0,0.0,179.0,193.0,17.0,179.0,1744418735.1771495,0.0,2025-04-11 20:45:35.177,FORWARD,26
157.0,9476.983186839007,-8956.589872430548,-24203.765297384896,-23452.679628453214,17298.171496173323,8614.496423542074,32521.698775493955,50661.771078320875,0.0,0.0,0.0,193.0,0.0,193.0,0.0,17.0,0.0,179.0,193.0,17.0,179.0,1744418735.1772172,0.0,2025-04-11 20:45:35.177,FORWARD,26
158.0,9453.402096438658,-8977.578160474082,-24152.535099093333,-23469.331678072416,17454.276079449188,8586.914370884226,32639.98420715144,50702.92063986309,0.0,0.0,0.0,193.0,0.0,193.0,0.0,17.0,0.0,179.0,193.0,17.0,179.0,1744418735.177305,0.0,2025-04-11 20:45:35.177,FORWARD,26
159.0,9435.163072963129,-9024.270954641219,-24174.909195293094,-23521.947684520208,17499.448954993364,8383.781717274394,32974.58982164739,50642.43681936703,0.0,0.0,0.0,193.0,0.0,193.0,0.0,17.0,0.0,179.0,193.0,17.0,179.0,1744418735.1774883,0.0,2025-04-11 20:45:35.177,FORWARD,26
160.0,9437.86763404222,-9015.73258825929,-24209.956730599017,-23492.26456788356,17385.365651293476,8376.003310203947,32838.35593919229,50556.270844491824,0.0,0.0,0.0,193.0,0.0,192.0,0.0,17.0,0.0,178.0,192.0,17.0,178.0,1744418735.1775413,0.0,2025-04-11 20:45:35.177,FORWARD,26
161.0,9452.798599338365,-8975.790020917657,-24210.135544554658,-23451.383227274804,17315.672912081827,8608.282638583498,32561.4848806244,50656.943101518526,0.0,0.0,0.0,193.0,0.0,193.0,0.0,17.0,0.0,179.0,193.0,17.0,179.0,1744418735.177588,0.0,2025-04-11 20:45:35.177,FORWARD,26
162.0,9464.890893088686,-8971.587892960059,-24150.92577349255,-23449.863308651842,17432.281962905166,8611.74715897407,32566.223450448928,50701.08779681776,0.0,0.0,0.0,193.0,0.0,193.0,0.0,17.0,0.0,178.0,193.0,17.0,178.0,1744418735.1776304,0.0,2025-04-11 20:45:35.177,FORWARD,26
163.0,9439.521663131913,-9019.822957494613,-24166.34847716671,-23510.79416403701,17497.057318336647,8434.609584165762,32950.4275858912,50671.11410750319,0.0,0.0,0.0,193.0,0.0,193.0,0.0,17.0,0.0,179.0,193.0,17.0,179.0,1744418735.1776724,0.0,2025-04-11 20:45:35.177,FORWARD,26
164.0,9449.512892903434,-9001.248657852251,-24207.430983475566,-23502.50166684409,17378.838941912527,8337.066571362802,32872.26353553099,50555.95792006945,0.0,0.0,0.0,193.0,0.0,192.0,0.0,17.0,0.0,178.0,192.0,17.0,178.0,1744418735.177712,0.0,2025-04-11 20:45:35.177,FORWARD,26
165.0,9453.759724349944,-8980.036852364165,-24225.737062184464,-23474.159654874762,17295.310472883044,8552.64914663424,32598.477017697936,50628.288165126825,0.0,0.0,0.0,193.0,0.0,193.0,0.0,17.0,0.0,179.0,193.0,17.0,179.0,1744418735.1777573,0.0,2025-04-11 20:45:35.177,FORWARD,26
166.0,9466.231997756006,-8975.655910450925,-24173.813959814783,-23465.73304721511,17383.935139648336,8584.165106316223,32507.214845086917,50673.97513079347,0.0,0.0,0.0,193.0,0.0,192.0,0.0,17.0,0.0,179.0,192.0,17.0,179.0,1744418735.1778,0.0,2025-04-11 20:45:35.177,FORWARD,26
167.0,9443.477921900501,-9012.871564969011,-24156.379599139644,-23512.17997219324,17539.257411868264,8446.925395360637,32902.99718415704,50672.56697089279,0.0,0.0,0.0,193.0,0.0,193.0,0.0,17.0,0.0,179.0,193.0,17.0,179.0,1744418735.1778395,0.0,2025-04-11 20:45:35.177,FORWARD,26
168.0,9446.294241701871,-9006.88129745499,-24202.93828284005,-23521.433594397735,17423.721244778782,8294.35238770871,32903.265405090504,50539.81996057272,0.0,0.0,0.0,193.0,0.0,192.0,0.0,17.0,0.0,178.0,192.0,17.0,178.0,1744418735.1778789,0.0,2025-04-11 20:45:35.177,FORWARD,26
169.0,9456.888968573687,-8976.147648828943,-24219.88090513717,-23471.611556006857,17322.065510996046,8511.432529858654,32644.633369998144,50596.481632766925,0.0,0.0,0.0,193.0,0.0,193.0,0.0,17.0,0.0,179.0,193.0,17.0,179.0,1744418735.17793,0.0,2025-04-11 20:45:35.177,FORWARD,26
170.0,9476.714965905543,-8969.240959792252,-24166.884919033637,-23448.186927817696,17367.95364236279,8603.722882714615,32477.33056275017,50663.53686613284,0.0,0.0,0.0,193.0,0.0,192.0,0.0,17.0,0.0,178.0,192.0,17.0,178.0,1744418735.1780608,0.0,2025-04-11 20:45:35.178,FORWARD,26
171.0,9444.684916101089,-9022.438111595882,-24149.33879963622,-23495.349108618393,17521.71129247085,8486.264465601977,32838.199476981106,50676.523229661376,0.0,0.0,0.0,193.0,0.0,192.0,0.0,17.0,0.0,179.0,192.0,17.0,179.0,1744418735.1781085,0.0,2025-04-11 20:45:35.178,FORWARD,26
172.0,9438.717000331522,-9025.455597097349,-24198.534989182353,-23520.047786241506,17439.12159670849,8301.728463378962,32938.60351307434,50557.880170092605,0.0,0.0,0.0,193.0,0.0,193.0,0.0,17.0,0.0,179.0,193.0,17.0,179.0,1744418735.1781497,0.0,2025-04-11 20:45:35.178,FORWARD,26
173.0,9447.858863813743,-8987.167058845409,-24224.194791817044,-23480.21697762215,17314.2871039256,8479.134259120734,32699.953937525028,50584.85872565016,0.0,0.0,0.0,193.0,0.0,193.0,0.0,17.0,0.0,179.0,193.0,17.0,179.0,1744418735.1781893,0.0,2025-04-11 20:45:35.178,FORWARD,26
174.0,9478.100774061773,-8952.119523539486,-24172.875186547662,-23445.996456861074,17341.220955994246,8621.827795723415,32460.969085808887,50657.367784663176,0.0,0.0,0.0,193.0,0.0,193.0,0.0,17.0,0.0,178.0,193.0,17.0,178.0,1744418735.1783304,0.0,2025-04-11 20:45:35.178,FORWARD,26
175.0,9454.564387150334,-9004.579067776092,-24134.653703529086,-23482.228634623127,17514.446975522875,8544.35664944132,32751.139432327684,50682.15586926411,0.0,0.0,0.0,193.0,0.0,193.0,0.0,17.0,0.0,178.0,193.0,17.0,178.0,1744418735.1784022,0.0,2025-04-11 20:45:35.178,FORWARD,26
176.0,9445.042544012374,-9022.907498229444,-24171.48937839143,-23513.588132093922,17472.626861646993,8336.105446351225,32935.72013803961,50568.3854899866,0.0,0.0,0.0,193.0,0.0,192.0,0.0,17.0,0.0,178.0,192.0,17.0,178.0,1744418735.1784427,0.0,2025-04-11 20:45:35.178,FORWARD,26
177.0,9459.772343608422,-8981.176791331387,-24191.44948619002,-23460.189814590194,17364.71263941677,8457.028383854435,32727.37952797169,50553.92391132402,0.0,0.0,0.0,193.0,0.0,192.0,0.0,17.0,0.0,179.0,192.0,17.0,179.0,1744418735.178481,0.0,2025-04-11 20:45:35.178,FORWARD,26
178.0,9470.903512347164,-8964.34592775654,-24175.088009248735,-23440.564982958436,17326.87113605394,8640.402095365775,32482.471463974893,50657.47954338545,0.0,0.0,0.0,193.0,0.0,192.0,0.0,17.0,0.0,178.0,192.0,17.0,178.0,1744418735.1785183,0.0,2025-04-11 20:45:35.178,FORWARD,26
179.0,9456.35252670676,-8996.443032794361,-24135.056034929283,-23468.30349782747,17464.848454576546,8576.990196346069,32685.313544906803,50702.384197996165,0.0,0.0,0.0,193.0,0.0,193.0,0.0,17.0,0.0,179.0,193.0,17.0,179.0,1744418735.1785543,0.0,2025-04-11 20:45:35.178,FORWARD,26
180.0,9443.187349222582,-9016.894878970967,-24161.87812827565,-23508.313120402472,17463.484998164775,8357.786638472871,32957.40133016126,50618.78867373332,0.0,0.0,0.0,193.0,0.0,192.0,0.0,17.0,0.0,178.0,192.0,17.0,178.0,1744418735.1785908,0.0,2025-04-11 20:45:35.178,FORWARD,26
181.0,9440.795712565865,-9001.516878785716,-24200.83721886125,-23487.570701547946,17353.33560148902,8399.584400604297,32790.366743846746,50565.16683878504,0.0,0.0,0.0,193.0,0.0,193.0,0.0,17.0,0.0,179.0,193.0,17.0,179.0,1744418735.178626,0.0,2025-04-11 20:45:35.178,FORWARD,26
182.0,9461.135800020194,-8974.694785439347,-24191.382430956655,-23454.7359889431,17314.51062137015,8594.513963999028,32511.305214322238,50656.4066596516,0.0,0.0,0.0,193.0,0.0,192.0,0.0,17.0,0.0,178.0,192.0,17.0,178.0,1744418735.1786618,0.0,2025-04-11 20:45:35.178,FORWARD,26
183.0,9450.831645826298,-8995.168983360409,-24131.591514538708,-23457.418198277737,17474.1244285255,8571.670481165705,32609.74229690341,50697.779738638375,0.0,0.0,0.0,193.0,0.0,193.0,0.0,17.0,0.0,179.0,193.0,17.0,179.0,1744418735.1786993,0.0,2025-04-11 20:45:35.178,FORWARD,26
184.0,9417.81811926581,-9040.40891413795,-24163.599212598707,-23517.589094351424,17516.32452205712,8371.75647875744,32970.454748923155,50643.1520751896,0.0,0.0,0.0,193.0,0.0,192.0,0.0,17.0,0.0,179.0,192.0,17.0,179.0,1744418735.1787376,0.0,2025-04-11 20:45:35.178,FORWARD,26
185.0,9428.546956604358,-9009.630562022992,-24200.479590949966,-23492.957471961676,17383.041069870123,8333.93732713906,32847.36369220778,50548.62654788811,0.0,0.0,0.0,193.0,0.0,193.0,0.0,17.0,0.0,179.0,193.0,17.0,179.0,1744418735.1789055,0.0,2025-04-11 20:45:35.178,FORWARD,26
186.0,9446.87538705771,-8976.102945340032,-24204.279387507366,-23452.88079415331,17305.793441032583,8572.341033499364,32567.5869068607,50641.67686005555,0.0,0.0,0.0,193.0,0.0,192.0,0.0,17.0,0.0,178.0,192.0,17.0,178.0,1744418735.17898,0.0,2025-04-11 20:45:35.178,FORWARD,26
187.0,9451.926881304607,-8970.671471437392,-24154.569107838764,-23458.7369512006,17412.523020806675,8595.050405865957,32553.6841218095,50686.581514666264,0.0,0.0,0.0,193.0,0.0,193.0,0.0,17.0,0.0,179.0,193.0,17.0,179.0,1744418735.1790197,0.0,2025-04-11 20:45:35.179,FORWARD,26
188.0,9427.138796703674,-9002.120375886008,-24157.139558451127,-23509.22954192514,17520.347836059074,8431.994430064491,32932.25561764903,50653.54563636132,0.0,0.0,0.0,193.0,0.0,193.0,0.0,17.0,0.0,178.0,193.0,17.0,178.0,1744418735.1790583,0.0,2025-04-11 20:45:35.179,FORWARD,26
189.0,9440.214567210027,-9000.131070629486,-24194.243454246935,-23502.88164649983,17404.141116635932,8343.660335977118,32861.93702959264,50528.71114357843,0.0,0.0,0.0,193.0,0.0,193.0,0.0,17.0,0.0,179.0,193.0,17.0,179.0,1744418735.1791527,0.0,2025-04-11 20:45:35.179,FORWARD,26
190.0,9444.260232956438,-8991.145669358453,-24205.195809030036,-23465.174253603727,17297.47859209521,8585.059176094433,32595.727753129933,50610.026789906835,0.0,0.0,0.0,193.0,0.0,193.0,0.0,17.0,0.0,179.0,193.0,17.0,179.0,1744418735.1791885,0.0,2025-04-11 20:45:35.179,FORWARD,26
191.0,9446.16013123514,-8996.286570583174,-24164.046247487815,-23465.196605348185,17364.265604527667,8640.782075021514,32501.515150250812,50675.964436049995,0.0,0.0,0.0,193.0,0.0,193.0,0.0,17.0,0.0,178.0,193.0,17.0,178.0,1744418735.179227,0.0,2025-04-11 20:45:35.179,FORWARD,26
192.0,9420.723846044999,-9041.481797871804,-24155.329067150244,-23517.4996873736,17521.89010642649,8493.752299994505,32886.56865198239,50672.36580519269,0.0,0.0,0.0,193.0,0.0,193.0,0.0,17.0,0.0,179.0,193.0,17.0,179.0,1744418735.1792626,0.0,2025-04-11 20:45:35.179,FORWARD,26
193.0,9432.547918861857,-9016.559602804136,-24194.53402692485,-23522.484126387135,17436.752311796226,8329.802254414828,32900.98552715606,50538.43415241649,0.0,0.0,0.0,193.0,0.0,193.0,0.0,17.0,0.0,179.0,193.0,17.0,179.0,1744418735.1792967,0.0,2025-04-11 20:45:35.179,FORWARD,26
194.0,9431.184462450083,-9004.243791609262,-24222.45135574953,-23492.26456788356,17322.9372290298,8539.97570752808,32665.04051268584,50597.06277812276,0.0,0.0,0.0,193.0,0.0,193.0,0.0,17.0,0.0,179.0,193.0,17.0,179.0,1744418735.6545238,0.0,2025-04-11 20:45:35.654,FORWARD,26
195.0,9447.255366713449,-8996.800660705645,-24182.665250619084,-23475.947794431188,17347.904127586382,8646.99585998009,32487.120626821594,50669.527133646865,0.0,0.0,0.0,193.0,0.0,192.0,0.0,17.0,0.0,178.0,192.0,17.0,178.0,1744418735.654667,0.0,2025-04-11 20:45:35.654,FORWARD,26
196.0,9429.10575021574,-9034.061018712642,-24157.92186950706,-23512.448193126704,17511.250676065763,8543.484931407564,32827.78356406493,50681.15004076363,0.0,0.0,0.0,193.0,0.0,193.0,0.0,17.0,0.0,179.0,193.0,17.0,179.0,1744418735.6547043,0.0,2025-04-11 20:45:35.654,FORWARD,26
197.0,9418.041636710363,-9042.26410892774,-24202.80417237332,-23533.056501514497,17429.86797450399,8337.044219618347,32929.7745740145,50544.96086179744,0.0,0.0,0.0,193.0,0.0,193.0,0.0,17.0,0.0,178.0,193.0,17.0,178.0,1744418735.6547403,0.0,2025-04-11 20:45:35.654,FORWARD,26
198.0,9434.291354929372,-8997.560620017126,-24211.20842828851,-23475.344297330892,17320.009150506157,8506.336332122843,32692.42139964359,50556.203789258456,0.0,0.0,0.0,193.0,0.0,193.0,0.0,17.0,0.0,179.0,193.0,17.0,179.0,1744418735.6547759,0.0,2025-04-11 20:45:35.654,FORWARD,26
199.0,9456.799561595864,-8968.458648736316,-24186.845026832227,-23459.474558767626,17305.65933056585,8660.876293286836,32470.066245802194,50644.49317985692,0.0,0.0,0.0,193.0,0.0,192.0,0.0,17.0,0.0,179.0,192.0,17.0,179.0,1744418735.654817,0.0,2025-04-11 20:45:35.654,FORWARD,26
200.0,9433.754913062443,-9006.389559076972,-24147.573011824254,-23488.12949515933,17480.4276204619,8591.518830242017,32747.585504959286,50681.30650297481,0.0,0.0,0.0,193.0,0.0,193.0,0.0,17.0,0.0,179.0,193.0,17.0,179.0,1744418735.654896,0.0,2025-04-11 20:45:35.654,FORWARD,26
201.0,9409.503270328436,-9043.985193250799,-24183.916948308583,-23526.239219455627,17457.070047506102,8379.758403272439,32964.173908731216,50579.069623836236,0.0,0.0,0.0,193.0,0.0,193.0,0.0,17.0,0.0,179.0,193.0,17.0,179.0,1744418735.6549308,0.0,2025-04-11 20:45:35.654,FORWARD,26
202.0,9414.644171553156,-9016.626658037503,-24210.850800377226,-23491.236387638615,17346.227746752233,8481.145916121712,32765.15397610116,50556.80728635875,0.0,0.0,0.0,193.0,0.0,193.0,0.0,17.0,0.0,180.0,193.0,17.0,180.0,1744418735.6549659,0.0,2025-04-11 20:45:35.654,FORWARD,26
203.0,9433.86667178472,-8990.095137369053,-24201.641881661642,-23467.74470421609,17300.116097940936,8666.084249744923,32501.29163280626,50655.490238128936,0.0,0.0,0.0,193.0,0.0,193.0,0.0,17.0,0.0,178.0,193.0,17.0,178.0,1744418735.655012,0.0,2025-04-11 20:45:35.655,FORWARD,26
204.0,9438.895814287163,-8989.469288524306,-24153.362113638177,-23481.759247989565,17470.145818012454,8606.628609493806,32661.240716128435,50682.78171810886,0.0,0.0,0.0,193.0,0.0,193.0,0.0,17.0,0.0,179.0,193.0,17.0,179.0,1744418735.6550636,0.0,2025-04-11 20:45:35.655,FORWARD,26
205.0,9430.424503138604,-9002.947390430856,-24175.423285415567,-23520.472469386157,17498.197257303866,8411.877860054716,32957.11075748334,50596.682798467016,0.0,0.0,0.0,193.0,0.0,192.0,0.0,17.0,0.0,178.0,192.0,17.0,178.0,1744418735.655094,0.0,2025-04-11 20:45:35.655,FORWARD,26
206.0,9428.211680437527,-9015.062035925632,-24217.086937080257,-23499.193608664707,17362.902148115892,8450.613433195762,32805.029488209424,50537.36126868264,0.0,0.0,0.0,193.0,0.0,193.0,0.0,17.0,0.0,179.0,193.0,17.0,179.0,1744418735.6551235,0.0,2025-04-11 20:45:35.655,FORWARD,26
207.0,9431.407979894637,-9015.665533025925,-24220.327940026276,-23472.952660674175,17290.348385613965,8661.949177020691,32529.231313375392,50637.519435586866,0.0,0.0,0.0,193.0,0.0,192.0,0.0,17.0,0.0,178.0,192.0,17.0,178.0,1744418735.6551535,0.0,2025-04-11 20:45:35.655,FORWARD,26
208.0,9437.86763404222,-9017.610134793536,-24166.326125422256,-23472.617384507346,17427.40928261391,8636.468188341642,32583.769569846343,50671.44938367002,0.0,0.0,0.0,193.0,0.0,193.0,0.0,17.0,0.0,179.0,193.0,17.0,179.0,1744418735.6551836,0.0,2025-04-11 20:45:35.655,FORWARD,26
209.0,9426.356485647737,-9040.02893448221,-24165.49911087741,-23508.46958261366,17502.935827128393,8445.71840116005,32942.4256613762,50618.855728966686,0.0,0.0,0.0,193.0,0.0,193.0,0.0,17.0,0.0,179.0,193.0,17.0,179.0,1744418735.655213,0.0,2025-04-11 20:45:35.655,FORWARD,26
210.0,9430.335096160781,-9016.06786442612,-24203.385317729157,-23490.811704493964,17386.170314093866,8400.456118638054,32842.17808749415,50519.88220451859,0.0,0.0,0.0,193.0,0.0,193.0,0.0,17.0,0.0,179.0,193.0,17.0,179.0,1744418735.6552427,0.0,2025-04-11 20:45:35.655,FORWARD,26
211.0,9430.849186283254,-8988.68697746837,-24218.249227791934,-23465.420122792737,17312.05192948007,8637.094037186389,32580.6403256226,50619.97331618945,0.0,0.0,0.0,193.0,0.0,193.0,0.0,17.0,0.0,179.0,193.0,17.0,179.0,1744418735.6552725,0.0,2025-04-11 20:45:35.655,FORWARD,26
212.0,9427.921107759608,-9002.343893330562,-24167.555471367297,-23469.80106470598,17407.896209704424,8654.081362972423,32549.929028741008,50678.28901747335,0.0,0.0,0.0,193.0,0.0,193.0,0.0,17.0,0.0,179.0,193.0,17.0,179.0,1744418735.655302,0.0,2025-04-11 20:45:35.655,FORWARD,26
213.0,9392.068909653295,-9048.097914230575,-24173.679849348053,-23528.18382122324,17511.317731299132,8484.521029534464,32943.90087651025,50662.48633414345,0.0,0.0,0.0,193.0,0.0,193.0,0.0,17.0,0.0,179.0,193.0,17.0,179.0,1744418735.6553495,0.0,2025-04-11 20:45:35.655,FORWARD,26
214.0,9412.38664536317,-9020.158233661441,-24207.654500920118,-23513.208152438183,17393.099354875012,8363.821609475805,32887.663887460694,50530.20871045694,0.0,0.0,0.0,193.0,0.0,192.0,0.0,17.0,0.0,179.0,192.0,17.0,179.0,1744418735.6553805,0.0,2025-04-11 20:45:35.655,FORWARD,26
215.0,9433.397285151159,-8997.11358512802,-24220.774974915385,-23469.711657728156,17299.445545607276,8593.329321542898,32630.21649482447,50605.0423508933,0.0,0.0,0.0,193.0,0.0,193.0,0.0,17.0,0.0,179.0,193.0,17.0,179.0,1744418735.6554236,0.0,2025-04-11 20:45:35.655,FORWARD,26
216.0,9451.122218504217,-8980.640349464458,-24172.651669103107,-23451.629096463814,17373.832151154536,8663.558502621472,32507.5724729982,50666.800220823316,0.0,0.0,0.0,193.0,0.0,192.0,0.0,17.0,0.0,178.0,192.0,17.0,178.0,1744418735.6554549,0.0,2025-04-11 20:45:35.655,FORWARD,26
217.0,9417.214622165517,-9021.365227862028,-24169.63418360164,-23510.07890821444,17500.231266049297,8529.559794611907,32887.48507350506,50668.07427025727,0.0,0.0,0.0,193.0,0.0,193.0,0.0,17.0,0.0,179.0,193.0,17.0,179.0,1744418735.655486,0.0,2025-04-11 20:45:35.655,FORWARD,26
218.0,9423.71897980201,-9021.07465518411,-24195.40574495861,-23515.242161183618,17419.139137165446,8344.93438541107,32918.151666897735,50526.207748199435,0.0,0.0,0.0,193.0,0.0,192.0,0.0,17.0,0.0,178.0,192.0,17.0,178.0,1744418735.655517,0.0,2025-04-11 20:45:35.655,FORWARD,26
219.0,9422.28846815687,-9009.630562022992,-24227.03346336287,-23486.7436870031,17309.481478867707,8530.565623112396,32677.66924830309,50567.75964114185,0.0,0.0,0.0,193.0,0.0,193.0,0.0,17.0,0.0,179.0,193.0,17.0,179.0,1744418735.6555624,0.0,2025-04-11 20:45:35.655,FORWARD,26
220.0,9450.272852214915,-8991.123317613998,-24190.667175134084,-23467.07415188243,17336.884717569916,8637.094037186389,32486.137150065562,50644.51553160138,0.0,0.0,0.0,193.0,0.0,193.0,0.0,17.0,0.0,179.0,193.0,17.0,179.0,1744418735.655594,0.0,2025-04-11 20:45:35.655,FORWARD,26
221.0,9430.804482794343,-9033.83750126809,-24165.78968355533,-23502.479315099637,17492.899893867958,8515.321733393876,32804.627156809234,50651.51162761589,0.0,0.0,0.0,193.0,0.0,193.0,0.0,17.0,0.0,179.0,193.0,17.0,179.0,1744418735.6556249,0.0,2025-04-11 20:45:35.655,FORWARD,26
222.0,9424.43423562458,-9030.149463432965,-24193.88582633565,-23512.403489637793,17441.624992087483,8318.447568231531,32933.08263219388,50525.47014063241,0.0,0.0,0.0,193.0,0.0,193.0,0.0,17.0,0.0,179.0,193.0,17.0,179.0,1744418735.6556554,0.0,2025-04-11 20:45:35.655,FORWARD,26
223.0,9408.34097961676,-9020.918192972922,-24232.889620410162,-23481.06634391145,17328.793386077094,8495.2051633841,32740.14237405567,50558.036632303796,0.0,0.0,0.0,193.0,0.0,193.0,0.0,17.0,0.0,178.0,193.0,17.0,178.0,1744418735.6556864,0.0,2025-04-11 20:45:35.655,FORWARD,26
224.0,9419.159223933128,-8998.991131662266,-24212.683643422562,-23467.431779793715,17297.09861243947,8646.526473346528,32494.67551644749,50648.74001130343,0.0,0.0,0.0,193.0,0.0,193.0,0.0,17.0,0.0,179.0,193.0,17.0,179.0,1744418735.6557176,0.0,2025-04-11 20:45:35.655,FORWARD,26
225.0,9412.990142463463,-9031.199995422363,-24158.97240149646,-23492.286919628015,17462.032134775178,8573.480972466585,32734.085051308284,50674.84684882723,0.0,0.0,0.0,193.0,0.0,192.0,0.0,17.0,0.0,178.0,192.0,17.0,178.0,1744418735.6557484,0.0,2025-04-11 20:45:35.655,FORWARD,26
226.0,9400.674331268589,-9055.049306756177,-24194.466971691487,-23530.955437535697,17460.981602785778,8359.12774314019,32983.664629896244,50581.081280837214,0.0,0.0,0.0,193.0,0.0,193.0,0.0,17.0,0.0,179.0,193.0,17.0,179.0,1744418735.6557791,0.0,2025-04-11 20:45:35.655,FORWARD,26
227.0,9402.730691758477,-9024.02508545221,-24232.062605865314,-23494.90207372929,17340.393941449398,8446.232491282522,32801.833188752316,50546.72664960941,0.0,0.0,0.0,193.0,0.0,193.0,0.0,18.0,0.0,178.0,193.0,18.0,178.0,1744418735.6558099,0.0,2025-04-11 20:45:35.655,FORWARD,26
