Sample Index,EXG Channel 0,EXG Channel 1,EXG Channel 2,EXG Channel 3,EXG Channel 4,EXG Channel 5,EXG Channel 6,EXG Channel 7,Accel Channel 0,Accel Channel 1,Accel Channel 2,Not Used,Digital Channel 0 (D11),Digital Channel 1 (D12),Digital Channel 2 (D13),Digital Channel 3 (D17),Not Used,Digital Channel 4 (D18),Analog Channel 0,Analog Channel 1,Analog Channel 2,Timestamp,Marker Channel,Timestamp (Formatted),Stimulus_Direction,Stimulus_Number
122.0,16914.257933408968,3134.8321598568155,-64822.942295425215,-63132.25634482579,-37613.44851415736,-35220.64956672783,-30418.466677482927,-22699.716412987284,0.0,0.0,0.0,193.0,1.0,155.0,0.0,10.0,3.0,252.0,411.0,10.0,1020.0,1744252645.4681473,0.0,2025-04-09 22:37:25.468,BACKWARD,9
123.0,16853.90822337964,3092.4085488806427,-64848.42328410427,-63164.286394630246,-37650.664168675445,-35258.222849157195,-30503.8503413022,-22740.575401851584,0.0,0.0,0.0,193.0,1.0,154.0,0.0,9.0,3.0,251.0,410.0,9.0,1019.0,1744252645.4681609,0.0,2025-04-09 22:37:25.468,BACKWARD,9
124.0,16979.68148942965,3104.657304842151,-64856.69342955273,-63142.4040368085,-37700.50855881078,-35303.30631772355,-30183.326325813097,-22776.159379024433,0.0,0.0,0.0,193.0,1.0,155.0,0.0,8.0,3.0,249.0,411.0,8.0,1017.0,1744252645.4681697,0.0,2025-04-09 22:37:25.468,BACKWARD,9
125.0,16989.65036745672,3134.6756976456286,-64802.71396669316,-63148.1037316446,-37604.84309254207,-35192.68753441424,-30760.671885093678,-22679.935119144335,0.0,0.0,0.0,193.0,1.0,155.0,0.0,8.0,3.0,252.0,411.0,8.0,1020.0,1744252645.4681785,0.0,2025-04-09 22:37:25.468,BACKWARD,9
126.0,16911.776889774428,3124.237432985,-64827.434996060736,-63137.3525425616,-37627.28424397519,-35222.571816750984,-30441.600732994168,-22703.87383745597,0.0,0.0,0.0,193.0,1.0,154.0,0.0,7.0,3.0,249.0,410.0,7.0,1017.0,1744252645.468187,0.0,2025-04-09 22:37:25.468,BACKWARD,9
127.0,16830.170670768104,3081.433842353087,-64863.421304633775,-63193.3660141666,-37660.945971124886,-35257.44053810126,-30528.03492880284,-22744.956343764825,0.0,0.0,0.0,193.0,1.0,154.0,0.0,7.0,3.0,250.0,410.0,7.0,1018.0,1744252645.4681957,0.0,2025-04-09 22:37:25.468,BACKWARD,9
128.0,16940.07419825485,3084.853659254749,-64864.337726156446,-63148.28254560025,-37714.81367526218,-35312.64934690587,-30199.68780275438,-22784.27306226171,0.0,0.0,0.0,193.0,1.0,155.0,0.0,6.0,3.0,252.0,411.0,6.0,1020.0,1744252645.4682045,0.0,2025-04-09 22:37:25.468,BACKWARD,9
129.0,16990.142105834737,3121.555223650363,-64818.09196687841,-63166.163941164494,-37621.04810727217,-35213.6087672244,-30700.746858209,-22708.165372391388,0.0,0.0,0.0,193.0,1.0,154.0,0.0,6.0,3.0,249.0,410.0,6.0,1017.0,1744252645.4682128,0.0,2025-04-09 22:37:25.468,BACKWARD,9
130.0,16928.36188416027,3132.2170057555445,-64799.651777702784,-63111.33511201562,-37603.479636130294,-35206.076229342965,-30497.927129021544,-22691.848598939014,0.0,0.0,0.0,193.0,1.0,154.0,0.0,6.0,3.0,252.0,410.0,6.0,1020.0,1744252645.4682217,0.0,2025-04-09 22:37:25.468,BACKWARD,9
131.0,16851.00249660045,3104.7020083310617,-64838.946144455214,-63174.344679635135,-37632.44749694437,-35230.752555221625,-30507.493675648413,-22712.881590471457,0.0,0.0,0.0,193.0,1.0,154.0,0.0,6.0,3.0,251.0,410.0,6.0,1019.0,1744252645.4682305,0.0,2025-04-09 22:37:25.468,BACKWARD,9
132.0,16910.972226974038,3082.596133064763,-64858.57097608697,-63142.336981575136,-37707.9516897144,-35302.36754445643,-30235.36118690505,-22764.625878885494,0.0,0.0,0.0,193.0,1.0,154.0,0.0,5.0,3.0,249.0,410.0,5.0,1017.0,1744252645.4682388,0.0,2025-04-09 22:37:25.468,BACKWARD,9
133.0,16998.16638209419,3121.6669823726397,-64833.67113276376,-63174.16586567949,-37642.483430204804,-35230.30552033252,-30578.23694684946,-22715.094413172534,0.0,0.0,0.0,193.0,1.0,154.0,0.0,5.0,3.0,250.0,410.0,5.0,1018.0,1744252645.4682477,0.0,2025-04-09 22:37:25.468,BACKWARD,9
134.0,16934.30744818538,3125.109151018757,-64800.367033525356,-63113.81615565016,-37598.808121539136,-35200.912976373795,-30570.39148454565,-22680.560967989084,0.0,0.0,0.0,193.0,1.0,155.0,0.0,5.0,3.0,251.0,411.0,5.0,1019.0,1744252645.468256,0.0,2025-04-09 22:37:25.468,BACKWARD,9
135.0,16852.455359990046,3107.205403710056,-64842.54477531252,-63176.445743613935,-37625.563159652134,-35228.092697631444,-30463.68425651601,-22707.964206691293,0.0,0.0,0.0,193.0,1.0,154.0,0.0,5.0,3.0,253.0,410.0,5.0,1021.0,1744252645.4682648,0.0,2025-04-09 22:37:25.468,BACKWARD,9
136.0,16876.684650979598,3072.3143306153215,-64860.78379878805,-63152.26115611329,-37694.004201174284,-35300.93703281129,-30309.27840581875,-22769.409152198932,0.0,0.0,0.0,193.0,1.0,154.0,0.0,5.0,3.0,250.0,410.0,5.0,1018.0,1744252645.4682736,0.0,2025-04-09 22:37:25.468,BACKWARD,9
137.0,16996.5123530045,3109.7758543224163,-64853.74299928463,-63180.133781449054,-37670.75838694077,-35264.50368934914,-30440.773718449323,-22750.879556045482,0.0,0.0,0.0,193.0,1.0,154.0,0.0,4.0,3.0,250.0,410.0,4.0,1018.0,1744252645.4682822,0.0,2025-04-09 22:37:25.468,BACKWARD,9
138.0,16945.125692501748,3132.0605435443576,-64796.7460509236,-63118.30885628568,-37601.11035121803,-35199.28129902855,-30664.626439169224,-22684.80779943559,0.0,0.0,0.0,193.0,1.0,155.0,0.0,4.0,3.0,252.0,411.0,4.0,1020.0,1744252645.4682956,0.0,2025-04-09 22:37:25.468,BACKWARD,9
139.0,16864.681764207096,3113.776816579916,-64841.49424332312,-63169.78492376625,-37630.14526726547,-35231.69132848875,-30427.07209909822,-22715.40733759491,0.0,0.0,0.0,193.0,1.0,154.0,0.0,4.0,3.0,251.0,410.0,4.0,1019.0,1744252645.4683044,0.0,2025-04-09 22:37:25.468,BACKWARD,9
140.0,16856.970412370018,3069.207438136034,-64853.720647540176,-63158.4078858385,-37684.012971402764,-35286.2295849597,-30395.846712094157,-22761.474282917297,0.0,0.0,0.0,193.0,1.0,154.0,0.0,4.0,3.0,249.0,410.0,4.0,1017.0,1744252645.4683132,0.0,2025-04-09 22:37:25.468,BACKWARD,9
141.0,16992.84666691383,3096.4095111381425,-64860.60498483241,-63177.67508955897,-37696.41818957546,-35295.50555890865,-30322.510638536292,-22780.942652337868,0.0,0.0,0.0,193.0,1.0,155.0,0.0,4.0,3.0,251.0,411.0,4.0,1019.0,1744252645.4683218,0.0,2025-04-09 22:37:25.468,BACKWARD,9
142.0,16967.41038172369,3130.0935900322906,-64785.458419973664,-63122.35452203209,-37588.61572606751,-35189.17831053476,-30743.28222790745,-22676.850578409503,0.0,0.0,0.0,193.0,1.0,155.0,0.0,4.0,3.0,251.0,411.0,4.0,1019.0,1744252645.4683304,0.0,2025-04-09 22:37:25.468,BACKWARD,9
143.0,16889.648662763677,3121.175243994623,-64829.31254259498,-63156.21741488188,-37616.95773803684,-35223.68940397375,-30398.68538363998,-22699.58230252055,0.0,0.0,0.0,193.0,1.0,154.0,0.0,4.0,3.0,250.0,410.0,4.0,1018.0,1744252645.4683392,0.0,2025-04-09 22:37:25.468,BACKWARD,9
144.0,16848.409694243634,3081.0315109528915,-64848.467987593176,-63168.197949909925,-37663.62818045952,-35265.822442272,-30466.12059666164,-22740.12836696248,0.0,0.0,0.0,193.0,1.0,154.0,0.0,4.0,3.0,250.0,410.0,4.0,1018.0,1744252645.468348,0.0,2025-04-09 22:37:25.468,BACKWARD,9
145.0,16995.484172759556,3112.8380433127936,-64843.23767939064,-63147.567289777675,-37682.15777661297,-35283.815596558525,-30221.704271042858,-22757.249803215243,0.0,0.0,0.0,193.0,1.0,155.0,0.0,4.0,3.0,253.0,411.0,4.0,1021.0,1744252645.4683568,0.0,2025-04-09 22:37:25.468,BACKWARD,9
146.0,16990.4103267682,3144.376354739232,-64774.997803568585,-63121.59456272061,-37574.400016593936,-35170.58165914794,-30756.201536202618,-22661.561985202075,0.0,0.0,0.0,193.0,1.0,155.0,0.0,3.0,3.0,253.0,411.0,3.0,1021.0,1744252645.4683652,0.0,2025-04-09 22:37:25.468,BACKWARD,9
147.0,16915.59903807629,3139.168398281145,-64806.379652783835,-63126.042559867215,-37602.0267727407,-35203.86340664189,-30397.7242586284,-22686.707697714293,0.0,0.0,0.0,193.0,1.0,154.0,0.0,4.0,3.0,250.0,410.0,4.0,1018.0,1744252645.4683745,0.0,2025-04-09 22:37:25.468,BACKWARD,9
148.0,16842.352371496247,3087.178240678101,-64843.26003113509,-63173.227092412366,-37647.870200618534,-35250.57855255348,-30500.98931801192,-22731.522945347184,0.0,0.0,0.0,193.0,1.0,154.0,0.0,4.0,3.0,249.0,410.0,4.0,1017.0,1744252645.4683833,0.0,2025-04-09 22:37:25.468,BACKWARD,9
149.0,16965.868111356274,3096.1189384602235,-64852.938336484236,-63146.33794383263,-37699.43567507692,-35304.75918111315,-30171.88223265198,-22773.678335389894,0.0,0.0,0.0,193.0,1.0,155.0,0.0,3.0,3.0,252.0,411.0,3.0,1020.0,1744252645.468392,0.0,2025-04-09 22:37:25.468,BACKWARD,9
150.0,16989.18098082316,3125.556185907863,-64798.08715559092,-63152.73054274685,-37600.08217097309,-35193.33573500344,-30739.28126564995,-22673.207244063287,0.0,0.0,0.0,193.0,1.0,154.0,0.0,3.0,3.0,251.0,410.0,3.0,1019.0,1744252645.4684007,0.0,2025-04-09 22:37:25.468,BACKWARD,9
151.0,16917.20836367707,3124.192729496089,-64807.51959175106,-63125.66258021147,-37606.407714653935,-35211.93238639026,-30424.21107580794,-22682.907901156894,0.0,0.0,0.0,193.0,1.0,154.0,0.0,3.0,3.0,249.0,410.0,3.0,1017.0,1744252645.4684095,0.0,2025-04-09 22:37:25.468,BACKWARD,9
152.0,16838.932554594583,3087.982903478492,-64844.22115614667,-63185.542903607246,-37636.22494175732,-35245.66116877332,-30501.056373245287,-22726.046767955635,0.0,0.0,0.0,193.0,1.0,154.0,0.0,3.0,3.0,252.0,410.0,3.0,1020.0,1744252645.468418,0.0,2025-04-09 22:37:25.468,BACKWARD,9
153.0,16944.36573319027,3093.883764014693,-64841.49424332312,-63133.41863553747,-37688.66213424947,-35302.81457934553,-30181.582889745583,-22775.779399368694,0.0,0.0,0.0,193.0,1.0,155.0,0.0,3.0,3.0,252.0,411.0,3.0,1020.0,1744252645.4684496,0.0,2025-04-09 22:37:25.468,BACKWARD,9
154.0,16993.22664656957,3122.561052150852,-64817.75669071158,-63172.06480170069,-37627.12778176401,-35219.75549694961,-30655.708093131554,-22707.807744480106,0.0,0.0,0.0,193.0,1.0,154.0,0.0,3.0,3.0,250.0,410.0,3.0,1018.0,1744252645.4684582,0.0,2025-04-09 22:37:25.468,BACKWARD,9
155.0,16936.87789879774,3139.6824884036173,-64789.526437464534,-63109.189344547915,-37597.77994129419,-35196.44262748273,-30501.548111623302,-22671.329697529043,0.0,0.0,0.0,193.0,1.0,154.0,0.0,3.0,3.0,251.0,410.0,3.0,1019.0,1744252645.468467,0.0,2025-04-09 22:37:25.468,BACKWARD,9
156.0,16852.075380334303,3102.1539094631567,-64833.49231880812,-63177.98801398135,-37625.54080790768,-35226.81864819749,-30477.430579356027,-22709.081793914058,0.0,0.0,0.0,193.0,1.0,155.0,0.0,3.0,3.0,251.0,411.0,3.0,1019.0,1744252645.468476,0.0,2025-04-09 22:37:25.468,BACKWARD,9
157.0,16913.63208456422,3085.8371360107826,-64838.63322003284,-63133.9550774044,-37686.382256315024,-35292.21985247372,-30243.18429746441,-22772.60545165604,0.0,0.0,0.0,193.0,1.0,154.0,0.0,3.0,3.0,251.0,410.0,3.0,1019.0,1744252645.7702415,0.0,2025-04-09 22:37:25.770,BACKWARD,9
158.0,17000.803887939917,3114.5814793803074,-64827.74792048311,-63174.210569168405,-37645.34445349508,-35236.38519482436,-30534.18165852805,-22728.796032523638,0.0,0.0,0.0,193.0,1.0,154.0,0.0,3.0,3.0,250.0,410.0,3.0,1018.0,1744252645.77028,0.0,2025-04-09 22:37:25.770,BACKWARD,9
159.0,16959.36375371978,3144.666927417151,-64765.65477438626,-63089.609216405064,-37573.46124332681,-35173.53208941604,-30580.33801082826,-22653.045970564603,0.0,0.0,0.0,193.0,1.0,155.0,0.0,3.0,3.0,252.0,411.0,3.0,1020.0,1744252645.7703,0.0,2025-04-09 22:37:25.770,BACKWARD,9
160.0,16876.841113190785,3126.874938830726,-64812.05699587548,-63151.83647296864,-37605.15601696444,-35205.42802875376,-30428.189686320984,-22692.697965228315,0.0,0.0,0.0,193.0,1.0,155.0,0.0,3.0,3.0,251.0,411.0,3.0,1019.0,1744252645.7703202,0.0,2025-04-09 22:37:25.770,BACKWARD,9
161.0,16891.90618895366,3094.75548204845,-64829.35724608389,-63131.31757155867,-37672.770043941746,-35270.27043941861,-30313.56994075417,-22747.839718799558,0.0,0.0,0.0,193.0,1.0,154.0,0.0,3.0,3.0,248.0,410.0,3.0,1016.0,1744252645.7703376,0.0,2025-04-09 22:37:25.770,BACKWARD,9
162.0,17008.582295010365,3118.3812759377097,-64834.49814730861,-63169.13672317705,-37663.47171824834,-35256.43470960078,-30394.036220793274,-22741.69298907435,0.0,0.0,0.0,193.0,1.0,155.0,0.0,3.0,3.0,252.0,411.0,3.0,1020.0,1744252645.7703469,0.0,2025-04-09 22:37:25.770,BACKWARD,9
163.0,16962.44829445461,3136.1509127796785,-64776.65183265827,-63114.1961353059,-37585.84410975505,-35187.65839191179,-30682.39607601119,-22676.425895264852,0.0,0.0,0.0,193.0,1.0,154.0,0.0,3.0,3.0,250.0,410.0,3.0,1018.0,1744252645.7703557,0.0,2025-04-09 22:37:25.770,BACKWARD,9
164.0,16881.132648126204,3124.9750405520253,-64824.05988264798,-63165.44868534192,-37617.181255481395,-35224.38230805186,-30419.517209472328,-22712.97099744928,0.0,0.0,0.0,193.0,1.0,154.0,0.0,3.0,3.0,249.0,410.0,3.0,1017.0,1744252645.7703645,0.0,2025-04-09 22:37:25.770,BACKWARD,9
165.0,16848.09676982126,3068.2239613800007,-64854.79353127403,-63177.04924071422,-37682.44834929089,-35292.756294340645,-30414.421011736515,-22769.655021387938,0.0,0.0,0.0,193.0,1.0,155.0,0.0,3.0,3.0,251.0,411.0,3.0,1019.0,1744252645.7703736,0.0,2025-04-09 22:37:25.770,BACKWARD,9
166.0,16986.565826721886,3096.7447873049723,-64860.80615053251,-63184.201798939925,-37696.954631442386,-35298.59009964349,-30292.358135266084,-22778.618070914516,0.0,0.0,0.0,193.0,1.0,155.0,0.0,3.0,3.0,251.0,411.0,3.0,1019.0,1744252645.7703824,0.0,2025-04-09 22:37:25.770,BACKWARD,9
167.0,16954.26755598397,3117.598964881774,-64797.148382323794,-63146.516757788275,-37600.43979888437,-35199.84009263993,-30752.178222200662,-22689.52401751566,0.0,0.0,0.0,193.0,1.0,154.0,0.0,3.0,3.0,249.0,410.0,3.0,1017.0,1744252645.7703912,0.0,2025-04-09 22:37:25.770,BACKWARD,9
168.0,16893.873142465727,3133.5134069339524,-64816.46028953318,-63151.009458423796,-37609.78282806669,-35214.99457538063,-30412.431706479994,-22701.750421732715,0.0,0.0,0.0,193.0,1.0,155.0,0.0,3.0,3.0,252.0,411.0,3.0,1020.0,1744252645.7704308,0.0,2025-04-09 22:37:25.770,BACKWARD,9
169.0,16841.704170907044,3085.3901011216763,-64844.86935673587,-63175.57402558017,-37662.912924636956,-35269.46577661822,-30482.03503871382,-22754.567593880605,0.0,0.0,0.0,193.0,1.0,154.0,0.0,3.0,3.0,251.0,410.0,3.0,1019.0,1744252645.7704399,0.0,2025-04-09 22:37:25.770,BACKWARD,9
170.0,16978.295681273423,3100.164604206634,-64854.614717318385,-63164.01817369678,-37705.09066642412,-35311.643518405384,-30214.55171281716,-22793.102001321557,0.0,0.0,0.0,193.0,1.0,154.0,0.0,3.0,3.0,250.0,410.0,3.0,1018.0,1744252645.7704484,0.0,2025-04-09 22:37:25.770,BACKWARD,9
171.0,16980.039117340937,3131.345287721788,-64787.06774557445,-63144.99683916532,-37595.00832498173,-35197.58256644995,-30768.31618169739,-22695.089601885036,0.0,0.0,0.0,193.0,1.0,155.0,0.0,3.0,3.0,251.0,411.0,3.0,1019.0,1744252645.7704573,0.0,2025-04-09 22:37:25.770,BACKWARD,9
172.0,16913.319160141848,3138.7660668809494,-64806.33494929492,-63132.52456575925,-37609.67106934441,-35215.039278869546,-30403.44630520896,-22693.50262802871,0.0,0.0,0.0,193.0,1.0,155.0,0.0,3.0,3.0,252.0,411.0,3.0,1020.0,1744252645.770466,0.0,2025-04-09 22:37:25.770,BACKWARD,9
173.0,16833.970467325507,3091.7827000358943,-64848.87031899337,-63186.012290240804,-37657.28028503422,-35261.03916895857,-30495.490788875915,-22740.955381507323,0.0,0.0,0.0,193.0,1.0,154.0,0.0,3.0,3.0,249.0,410.0,3.0,1017.0,1744252645.770475,0.0,2025-04-09 22:37:25.770,BACKWARD,9
174.0,16970.986660836537,3113.687409602095,-64839.32612411096,-63134.67033322696,-37696.61935527556,-35297.49486416517,-30176.68785770987,-22774.013611556722,0.0,0.0,0.0,193.0,1.0,154.0,0.0,3.0,3.0,250.0,410.0,3.0,1018.0,1744252645.7704835,0.0,2025-04-09 22:37:25.770,BACKWARD,9
175.0,16998.74752745003,3135.681526146117,-64796.50018173459,-63153.31168810269,-37608.128798977,-35198.23076703915,-30723.098602664308,-22692.25093033921,0.0,0.0,0.0,193.0,1.0,155.0,0.0,3.0,3.0,252.0,411.0,3.0,1020.0,1744252645.7704923,0.0,2025-04-09 22:37:25.770,BACKWARD,9
176.0,16915.97901773203,3122.6057556397627,-64811.297036564,-63130.87053666956,-37618.075325259604,-35219.4649242717,-30437.64447422558,-22693.524979773163,0.0,0.0,0.0,193.0,1.0,154.0,0.0,3.0,3.0,249.0,410.0,3.0,1017.0,1744252645.7705011,0.0,2025-04-09 22:37:25.770,BACKWARD,9
177.0,16832.71876963601,3086.731205788995,-64850.59140331643,-63194.70711883392,-37648.853677374565,-35251.76319500962,-30502.285719190328,-22731.70175930283,0.0,0.0,0.0,193.0,1.0,154.0,0.0,3.0,3.0,250.0,410.0,3.0,1018.0,1744252645.77051,0.0,2025-04-09 22:37:25.770,BACKWARD,9
178.0,16921.49989861249,3080.0256824524026,-64855.41938011878,-63151.23297586835,-37713.18199791694,-35319.77955338712,-30201.967680688824,-22790.93388210939,0.0,0.0,0.0,193.0,1.0,155.0,0.0,3.0,3.0,252.0,411.0,3.0,1020.0,1744252645.7705188,0.0,2025-04-09 22:37:25.770,BACKWARD,9
179.0,16989.583312223353,3113.5980026242737,-64821.95881866918,-63182.2124936834,-37642.43872671589,-35234.4182413123,-30644.711034859545,-22726.002064466724,0.0,0.0,0.0,193.0,1.0,155.0,0.0,3.0,3.0,252.0,411.0,3.0,1020.0,1744252645.7705276,0.0,2025-04-09 22:37:25.770,BACKWARD,9
180.0,16934.910945285672,3130.987659810503,-64785.190199040204,-63112.2962370272,-37604.39605765296,-35201.22590079616,-30529.42073695907,-22676.738819687227,0.0,0.0,0.0,193.0,1.0,154.0,0.0,2.0,3.0,250.0,410.0,2.0,1018.0,1744252645.770536,0.0,2025-04-09 22:37:25.770,BACKWARD,9
181.0,16850.980144855996,3106.1325199762014,-64828.194955372215,-63178.412697126,-37628.7818108537,-35229.702023232225,-30480.98450672442,-22710.93698870385,0.0,0.0,0.0,193.0,1.0,154.0,0.0,2.0,3.0,252.0,410.0,2.0,1020.0,1744252645.7705448,0.0,2025-04-09 22:37:25.770,BACKWARD,9
182.0,16893.046127920883,3074.8400777387715,-64846.67984803675,-63148.79663572272,-37704.08483792363,-35303.06044853455,-30265.84896634209,-22778.75218138125,0.0,0.0,0.0,193.0,1.0,155.0,0.0,2.0,3.0,251.0,411.0,2.0,1019.0,1744252645.7705588,0.0,2025-04-09 22:37:25.770,BACKWARD,9
183.0,17002.279103073968,3116.011991025447,-64822.674074491755,-63175.70813604691,-37650.395947741985,-35240.78848848206,-30513.171018740064,-22726.627913311473,0.0,0.0,0.0,193.0,1.0,154.0,0.0,2.0,3.0,249.0,410.0,2.0,1017.0,1744252645.7705677,0.0,2025-04-09 22:37:25.770,BACKWARD,9
184.0,16955.20632925109,3142.789380882905,-64760.58092839491,-63096.337091486115,-37575.56230730561,-35174.09088302742,-30596.520673813902,-22651.168424030355,0.0,0.0,0.0,193.0,1.0,154.0,0.0,2.0,3.0,250.0,410.0,2.0,1018.0,1744252645.7705765,0.0,2025-04-09 22:37:25.770,BACKWARD,9
185.0,16856.299860036357,3112.525118890419,-64826.80914721599,-63175.529322091264,-37625.8313805856,-35224.538770263054,-30413.079907069197,-22708.07596541357,0.0,0.0,0.0,193.0,1.0,154.0,0.0,2.0,3.0,251.0,410.0,2.0,1019.0,1744252645.770585,0.0,2025-04-09 22:37:25.770,BACKWARD,9
186.0,16869.845017176274,3080.18214466359,-64836.576859542954,-63151.74706599082,-37682.87303243554,-35278.11590172242,-30351.23263016136,-22762.100131762047,0.0,0.0,0.0,193.0,1.0,155.0,0.0,2.0,3.0,252.0,411.0,2.0,1020.0,1744252645.7705936,0.0,2025-04-09 22:37:25.770,BACKWARD,9
187.0,16995.640634970743,3111.5416421343857,-64836.39804558731,-63175.57402558017,-37671.51834625225,-35263.25199165964,-30372.57854611618,-22756.758064837228,0.0,0.0,0.0,193.0,1.0,154.0,0.0,2.0,3.0,250.0,410.0,2.0,1018.0,1744252645.7706025,0.0,2025-04-09 22:37:25.770,BACKWARD,9
188.0,16949.93131755964,3131.881729588715,-64775.66835590224,-63122.01924586526,-37584.54770857665,-35182.58454592044,-30692.40965752717,-22674.034258608135,0.0,0.0,0.0,193.0,1.0,154.0,0.0,2.0,3.0,250.0,410.0,2.0,1018.0,1744252645.7706113,0.0,2025-04-09 22:37:25.770,BACKWARD,9
189.0,16876.975223657515,3121.6669823726397,-64819.07544363445,-63163.50408357431,-37612.30857519014,-35215.48631375865,-30395.712601627423,-22700.83400021005,0.0,0.0,0.0,193.0,1.0,155.0,0.0,2.0,3.0,253.0,411.0,2.0,1021.0,1744252645.7706199,0.0,2025-04-09 22:37:25.770,BACKWARD,9
190.0,16835.892717348663,3065.295882856355,-64853.720647540176,-63183.19597043943,-37678.24622133329,-35285.24610820367,-30413.884569869588,-22763.910623062926,0.0,0.0,0.0,193.0,1.0,154.0,0.0,2.0,3.0,249.0,410.0,2.0,1017.0,1744252645.7706285,0.0,2025-04-09 22:37:25.770,BACKWARD,9
191.0,16979.905006874207,3103.4503106415646,-64848.110359681894,-63174.65760405751,-37688.23745110482,-35284.21792795872,-30257.042379026698,-22755.014628769713,0.0,0.0,0.0,193.0,1.0,154.0,0.0,2.0,3.0,252.0,410.0,2.0,1020.0,1744252645.7706373,0.0,2025-04-09 22:37:25.770,BACKWARD,9
192.0,16963.610585166287,3124.6397643851956,-64779.91518734875,-63137.710170472885,-37586.82758651109,-35183.366856976376,-30749.36190239929,-22664.355953258986,0.0,0.0,0.0,193.0,1.0,155.0,0.0,2.0,3.0,252.0,411.0,2.0,1020.0,1744252645.7706492,0.0,2025-04-09 22:37:25.770,BACKWARD,9
193.0,16886.72058424003,3112.502767145964,-64819.76834771256,-63160.35248760611,-37616.66716535892,-35223.80116269603,-30390.370534702604,-22701.169276376877,0.0,0.0,0.0,193.0,1.0,154.0,0.0,2.0,3.0,249.0,410.0,2.0,1017.0,1744252645.7706592,0.0,2025-04-09 22:37:25.770,BACKWARD,9
194.0,16827.063778288815,3065.295882856355,-64846.81395850349,-63191.488467632356,-37663.49406999279,-35269.59988708495,-30480.51512009086,-22751.706570590326,0.0,0.0,0.0,193.0,1.0,154.0,0.0,2.0,3.0,251.0,410.0,2.0,1019.0,1744252645.770668,0.0,2025-04-09 22:37:25.770,BACKWARD,9
195.0,16963.49882644401,3090.598057579763,-64848.42328410427,-63165.82866499766,-37702.833140234135,-35305.586195658,-30192.892872439967,-22785.457704717843,0.0,0.0,0.0,193.0,1.0,155.0,0.0,2.0,3.0,251.0,411.0,2.0,1019.0,1744252645.7706766,0.0,2025-04-09 22:37:25.770,BACKWARD,9
196.0,16971.187826536636,3120.1247120052235,-64789.325271764435,-63160.59835679512,-37598.74106630577,-35199.21424379519,-30760.403664160214,-22696.54246527463,0.0,0.0,0.0,193.0,1.0,153.0,0.0,2.0,3.0,249.0,409.0,2.0,1017.0,1744252645.7706852,0.0,2025-04-09 22:37:25.770,BACKWARD,9
197.0,16912.827421763828,3130.115941776746,-64800.992882370105,-63136.793748950215,-37605.26777568672,-35212.46882825719,-30416.320910015216,-22690.9545291608,0.0,0.0,0.0,193.0,1.0,155.0,0.0,2.0,3.0,251.0,411.0,2.0,1019.0,1744252645.7706993,0.0,2025-04-09 22:37:25.770,BACKWARD,9
198.0,16838.597278427755,3087.759386033939,-64834.18522288623,-63183.35243265062,-37640.29295924818,-35244.09654666144,-30499.379992411137,-22719.229485896765,0.0,0.0,0.0,193.0,1.0,155.0,0.0,2.0,3.0,251.0,411.0,2.0,1019.0,1744252645.770708,0.0,2025-04-09 22:37:25.770,BACKWARD,9
199.0,16954.379314706246,3097.370636149721,-64839.102606666405,-63139.85593794059,-37696.820520975656,-35297.67367812082,-30167.613049461015,-22763.93297480738,0.0,0.0,0.0,193.0,1.0,154.0,0.0,2.0,3.0,249.0,410.0,2.0,1017.0,1744252645.770717,0.0,2025-04-09 22:37:25.770,BACKWARD,9
200.0,16990.477382001565,3128.2160434980447,-64799.42826025823,-63158.25142362731,-37610.76630482272,-35199.54951996202,-30705.530131522435,-22679.890415655427,0.0,0.0,0.0,193.0,1.0,154.0,0.0,2.0,3.0,249.0,410.0,2.0,1017.0,1744252645.770726,0.0,2025-04-09 22:37:25.770,BACKWARD,9
201.0,16924.763253302965,3135.4133052126535,-64793.28153053302,-63108.898771869994,-37599.23280468379,-35200.44358974023,-30452.64249475509,-22661.651392179894,0.0,0.0,0.0,193.0,1.0,154.0,0.0,2.0,3.0,251.0,410.0,2.0,1019.0,1744252645.7707348,0.0,2025-04-09 22:37:25.770,BACKWARD,9
202.0,16838.776092383396,3098.8682030282266,-64841.203670645205,-63175.86459825809,-37631.95575856636,-35238.30744484752,-30492.719172563455,-22701.34809033252,0.0,0.0,0.0,193.0,1.0,155.0,0.0,2.0,3.0,253.0,411.0,2.0,1021.0,1744252645.7707436,0.0,2025-04-09 22:37:25.770,BACKWARD,9
203.0,16916.15783168767,3080.4727173415085,-64849.47381609367,-63129.84235642462,-37692.66309650697,-35302.836931089994,-30205.096924912566,-22746.856242043526,0.0,0.0,0.0,193.0,1.0,154.0,0.0,2.0,3.0,248.0,410.0,2.0,1016.0,1744252645.7707524,0.0,2025-04-09 22:37:25.770,BACKWARD,9
204.0,16982.74367842003,3110.6028688672627,-64832.48649030763,-63168.08619118765,-37632.96158706684,-35233.904151189825,-30601.01337444942,-22697.525942030665,0.0,0.0,0.0,193.0,1.0,155.0,0.0,2.0,3.0,252.0,411.0,2.0,1020.0,1744252645.7707608,0.0,2025-04-09 22:37:25.770,BACKWARD,9
205.0,16928.451291138088,3131.6135086552513,-64793.90737937777,-63096.605312419575,-37589.1745196789,-35201.42706649626,-30543.6587981771,-22660.556156701587,0.0,0.0,0.0,193.0,1.0,154.0,0.0,2.0,3.0,251.0,410.0,2.0,1019.0,1744252645.7707696,0.0,2025-04-09 22:37:25.770,BACKWARD,9
206.0,16850.063723333325,3107.786549065894,-64838.99084794413,-63159.88310097255,-37616.95773803684,-35232.16071512231,-30464.846547227688,-22694.977843162756,0.0,0.0,0.0,193.0,1.0,154.0,0.0,2.0,3.0,250.0,410.0,2.0,1018.0,1744252645.7707787,0.0,2025-04-09 22:37:25.770,BACKWARD,9
207.0,16895.214247133048,3084.406624365643,-64845.78577825854,-63116.476013240346,-37677.66507597746,-35292.24220421818,-30286.032591585234,-22749.73961707826,0.0,0.0,0.0,193.0,1.0,155.0,0.0,2.0,3.0,252.0,411.0,2.0,1020.0,1744252645.7707875,0.0,2025-04-09 22:37:25.770,BACKWARD,9
208.0,17000.915646662193,3118.8730143157263,-64839.16966189977,-63146.8520339551,-37646.84202037359,-35251.092642675954,-30482.347963136195,-22725.040939455146,0.0,0.0,0.0,193.0,1.0,154.0,0.0,2.0,3.0,249.0,410.0,2.0,1017.0,1744252645.770796,0.0,2025-04-09 22:37:25.770,BACKWARD,9
209.0,16940.700047099595,3129.8253690988267,-64790.845190387394,-63080.51205641175,-37585.642944054955,-35185.89260409983,-30636.239723710984,-22639.1431855134,0.0,0.0,0.0,193.0,1.0,155.0,0.0,2.0,3.0,252.0,411.0,2.0,1020.0,1744252645.7708044,0.0,2025-04-09 22:37:25.770,BACKWARD,9
210.0,16859.205586815548,3115.14027299169,-64840.778987500555,-63137.866632684076,-37614.90137754696,-35221.70009871723,-30422.82526765171,-22669.139226572424,0.0,0.0,0.0,193.0,1.0,155.0,0.0,2.0,3.0,252.0,411.0,2.0,1020.0,1744252645.7708127,0.0,2025-04-09 22:37:25.770,BACKWARD,9
211.0,16861.23959556098,3080.0927376857685,-64855.01704871858,-63119.22527780835,-37672.65828521947,-35282.8768232914,-30359.189851187453,-22730.472413357784,0.0,0.0,0.0,193.0,1.0,155.0,0.0,2.0,3.0,251.0,411.0,2.0,1019.0,1744252645.7708216,0.0,2025-04-09 22:37:25.770,BACKWARD,9
212.0,16991.058527357403,3106.646610098673,-64859.64385982083,-63139.40890305149,-37674.6922939649,-35276.73009356619,-30344.258885891308,-22732.64053256995,0.0,0.0,0.0,193.0,1.0,154.0,0.0,2.0,3.0,250.0,410.0,2.0,1018.0,1744252645.7708352,0.0,2025-04-09 22:37:25.770,BACKWARD,9
213.0,16959.140236275227,3139.4813227035193,-64784.31848100645,-63074.499437153274,-37571.85191772603,-35177.37658946235,-30717.6000735283,-22640.171365758346,0.0,0.0,0.0,193.0,1.0,155.0,0.0,2.0,3.0,251.0,411.0,2.0,1019.0,1744252645.770844,0.0,2025-04-09 22:37:25.770,BACKWARD,9
214.0,16885.424183061623,3142.6776221606283,-64828.26201060558,-63110.798670148695,-37602.60791809653,-35212.647642212825,-30393.723296370903,-22669.273337039154,0.0,0.0,0.0,193.0,1.0,155.0,0.0,2.0,3.0,250.0,411.0,2.0,1018.0,1744252645.7708526,0.0,2025-04-09 22:37:25.770,BACKWARD,9
215.0,16850.935441367084,3095.8954210156708,-64858.54862434252,-63125.66258021147,-37662.82351765913,-35271.96917199721,-30433.50940150135,-22726.136174933457,0.0,0.0,0.0,193.0,1.0,154.0,0.0,2.0,3.0,250.0,410.0,2.0,1018.0,1744252645.7708611,0.0,2025-04-09 22:37:25.770,BACKWARD,9
216.0,16993.87484715877,3115.0285142694133,-64861.02966797706,-63118.554725474685,-37688.416265060456,-35287.57068962702,-30236.143497960988,-22742.117672219,0.0,0.0,0.0,193.0,1.0,155.0,0.0,2.0,3.0,251.0,411.0,2.0,1019.0,1744252645.77087,0.0,2025-04-09 22:37:25.770,BACKWARD,9
217.0,16975.61347193879,3138.229625014022,-64783.26794901705,-63078.835675577604,-37576.210507894815,-35172.57096440446,-30753.47462337907,-22637.77972910163,0.0,0.0,0.0,193.0,1.0,154.0,0.0,2.0,3.0,249.0,410.0,2.0,1017.0,1744252645.7708788,0.0,2025-04-09 22:37:25.770,BACKWARD,9
218.0,16901.495087324987,3135.972098824036,-64810.91705690826,-63084.82594309163,-37598.18227269439,-35201.65058394082,-30386.950717800944,-22662.411351491377,0.0,0.0,0.0,193.0,1.0,154.0,0.0,2.0,3.0,250.0,410.0,2.0,1018.0,1744252645.7708876,0.0,2025-04-09 22:37:25.770,BACKWARD,9
219.0,16839.156072039135,3091.4474238690646,-64839.54964155551,-63117.571248718654,-37641.00821507075,-35245.03531992857,-30485.41015212657,-22712.747480004728,0.0,0.0,0.0,193.0,1.0,155.0,0.0,2.0,3.0,252.0,411.0,2.0,1020.0,1744252645.7708964,0.0,2025-04-09 22:37:25.770,BACKWARD,9
220.0,16972.953614348604,3109.6417438556846,-64839.996676444614,-63085.31768146964,-37681.19665160139,-35285.26845994812,-30171.9716396298,-22744.755178064726,0.0,0.0,0.0,193.0,1.0,154.0,0.0,2.0,3.0,250.0,410.0,2.0,1018.0,1744252645.7709053,0.0,2025-04-09 22:37:25.770,BACKWARD,9
221.0,16987.594006966832,3141.8953111046926,-64776.40596346927,-63078.3886406885,-37573.93062996038,-35167.92180155776,-30740.17533542816,-22645.13345302742,0.0,0.0,0.0,193.0,1.0,154.0,0.0,2.0,3.0,250.0,410.0,2.0,1018.0,1744252645.7709138,0.0,2025-04-09 22:37:25.770,BACKWARD,9
222.0,16921.008160234473,3142.789380882905,-64788.81118164196,-63058.24971893427,-37586.17938592188,-35190.60882217989,-30402.239311008372,-22655.25879326568,0.0,0.0,0.0,193.0,1.0,154.0,0.0,2.0,3.0,251.0,410.0,2.0,1019.0,1744252645.7709224,0.0,2025-04-09 22:37:25.770,BACKWARD,9
223.0,16844.6769529196,3099.9187350176257,-64827.0997198939,-63119.739367930815,-37620.35520319405,-35231.57956976647,-30479.218718912452,-22696.989500163734,0.0,0.0,0.0,193.0,1.0,155.0,0.0,2.0,3.0,251.0,411.0,2.0,1019.0,1744252645.770931,0.0,2025-04-09 22:37:25.770,BACKWARD,9
224.0,16954.15579726169,3102.5338891188967,-64831.1006821514,-63076.53344589871,-37675.631067232025,-35290.74463733967,-30154.425520232384,-22751.192480467857,0.0,0.0,0.0,193.0,1.0,154.0,0.0,2.0,3.0,250.0,410.0,2.0,1018.0,1744252645.7709396,0.0,2025-04-09 22:37:25.770,BACKWARD,9
225.0,16992.556094235908,3129.2665754874442,-64797.506010235076,-63103.936684600914,-37593.48840635877,-35194.743894904124,-30661.385436223205,-22665.652354437396,0.0,0.0,0.0,193.0,1.0,154.0,0.0,2.0,3.0,253.0,410.0,2.0,1021.0,1744252645.7709482,0.0,2025-04-09 22:37:25.770,BACKWARD,9
226.0,16927.2442969375,3139.2801570034217,-64784.541998451,-63053.30998340964,-37580.68085678588,-35188.48540645664,-30448.909753431053,-22647.48038619523,0.0,0.0,0.0,193.0,1.0,154.0,0.0,2.0,3.0,250.0,410.0,2.0,1018.0,1744252645.7709568,0.0,2025-04-09 22:37:25.770,BACKWARD,9
227.0,16841.167729040113,3105.238450197989,-64830.83246121794,-63124.992027877815,-37615.12489499151,-35222.05772662851,-30471.350904864183,-22689.38990704893,0.0,0.0,0.0,193.0,1.0,154.0,0.0,2.0,3.0,249.0,410.0,2.0,1017.0,1744252645.7709703,0.0,2025-04-09 22:37:25.770,BACKWARD,9
228.0,16917.81186077736,3094.911944259637,-64834.967533942174,-63080.467352922846,-37676.7933579437,-35284.106169236446,-30211.780096504703,-22742.676465830384,0.0,0.0,0.0,193.0,1.0,154.0,0.0,2.0,3.0,252.0,410.0,2.0,1020.0,1744252645.7709792,0.0,2025-04-09 22:37:25.770,BACKWARD,9
229.0,16996.154725093213,3126.4502556860753,-64817.01908314456,-63121.86278365407,-37620.86929331652,-35222.16948535079,-30570.90557466812,-22699.20232286481,0.0,0.0,0.0,193.0,1.0,154.0,0.0,2.0,3.0,249.0,410.0,2.0,1017.0,1744252645.7709875,0.0,2025-04-09 22:37:25.770,BACKWARD,9
230.0,16944.701009357097,3148.0867443188126,-64772.91909133424,-63049.91251825244,-37567.38156883497,-35179.87998484135,-30554.8123186603,-22642.115967525955,0.0,0.0,0.0,193.0,1.0,154.0,0.0,2.0,3.0,250.0,410.0,2.0,1018.0,1744252645.7709968,0.0,2025-04-09 22:37:25.770,BACKWARD,9
231.0,16859.764380426932,3118.917717804637,-64825.44569080421,-63119.806423164184,-37601.378572151494,-35209.63015671136,-30436.862163169644,-22665.138264314923,0.0,0.0,0.0,193.0,1.0,155.0,0.0,2.0,3.0,252.0,411.0,2.0,1020.0,1744252645.7710054,0.0,2025-04-09 22:37:25.771,BACKWARD,9
232.0,16887.949930185074,3082.7078917870394,-64836.82272873196,-63090.34682397209,-37664.00816011526,-35274.13729120938,-30287.440751485916,-22727.521983089686,0.0,0.0,0.0,193.0,1.0,155.0,0.0,2.0,3.0,251.0,411.0,2.0,1019.0,1744252645.8732376,0.0,2025-04-09 22:37:25.873,BACKWARD,9
233.0,17005.877733931273,3121.309354461355,-64827.63616176083,-63118.688835941415,-37631.5310754217,-35234.93233143477,-30424.25577929685,-22701.124572887966,0.0,0.0,0.0,193.0,1.0,154.0,0.0,2.0,3.0,250.0,410.0,2.0,1018.0,1744252645.8732674,0.0,2025-04-09 22:37:25.873,BACKWARD,9
234.0,16954.02168679496,3141.269462259944,-64770.72862037762,-63055.38869564399,-37558.26205709721,-35170.17932774774,-30629.288331185384,-22635.27633372263,0.0,0.0,0.0,193.0,1.0,155.0,0.0,2.0,3.0,252.0,411.0,2.0,1020.0,1744252645.873278,0.0,2025-04-09 22:37:25.873,BACKWARD,9
235.0,16868.258043319947,3121.264650972444,-64822.62937100284,-63111.96096086037,-37595.00832498173,-35211.73122069016,-30399.646508651556,-22680.024526122157,0.0,0.0,0.0,193.0,1.0,154.0,0.0,2.0,3.0,251.0,410.0,2.0,1019.0,1744252645.873288,0.0,2025-04-09 22:37:25.873,BACKWARD,9
236.0,16861.91014789464,3081.433842353087,-64833.44761531921,-63096.605312419575,-37648.74191865229,-35268.236430673176,-30370.052798992732,-22731.813518025105,0.0,0.0,0.0,193.0,1.0,154.0,0.0,2.0,3.0,249.0,410.0,2.0,1017.0,1744252645.873297,0.0,2025-04-09 22:37:25.873,BACKWARD,9
237.0,16994.724213448073,3106.624258354218,-64837.47092932116,-63113.86085913907,-37656.967360611845,-35269.24225917367,-30298.102533591096,-22732.72993954777,0.0,0.0,0.0,193.0,1.0,154.0,0.0,2.0,3.0,250.0,410.0,2.0,1018.0,1744252645.873306,0.0,2025-04-09 22:37:25.873,BACKWARD,9
238.0,16975.16643704968,3150.143104808701,-64757.74225684909,-63051.52184385322,-37553.1658593614,-35160.9480572877,-30714.582588026835,-22632.90704881037,0.0,0.0,0.0,193.0,1.0,155.0,0.0,2.0,3.0,251.0,411.0,2.0,1019.0,1744252645.873315,0.0,2025-04-09 22:37:25.873,BACKWARD,9
239.0,16900.131630913216,3143.1917122831005,-64802.28928354851,-63083.90952156896,-37585.88881324397,-35199.34835426192,-30380.848691564646,-22665.384133503932,0.0,0.0,0.0,193.0,1.0,154.0,0.0,2.0,3.0,250.0,410.0,2.0,1018.0,1744252645.873324,0.0,2025-04-09 22:37:25.873,BACKWARD,9
240.0,16848.230880287992,3084.7419005324723,-64838.52146131056,-63110.664559681965,-37648.361938996546,-35262.0226457146,-30444.21588709544,-22727.097299945035,0.0,0.0,0.0,193.0,1.0,155.0,0.0,2.0,3.0,252.0,411.0,2.0,1020.0,1744252645.873333,0.0,2025-04-09 22:37:25.873,BACKWARD,9
241.0,16987.4598965001,3106.244278698478,-64845.07052243597,-63101.38858573301,-37677.35215155508,-35287.9283175383,-30214.194084905874,-22750.253707200733,0.0,0.0,0.0,193.0,1.0,154.0,0.0,2.0,3.0,251.0,410.0,2.0,1019.0,1744252645.873342,0.0,2025-04-09 22:37:25.873,BACKWARD,9
242.0,16984.487114487543,3140.9565378375696,-64767.6887831317,-63065.424628904424,-37556.205696607314,-35163.40674917779,-30754.346341412827,-22634.896354066892,0.0,0.0,0.0,193.0,1.0,155.0,0.0,2.0,3.0,252.0,411.0,2.0,1020.0,1744252645.873372,0.0,2025-04-09 22:37:25.873,BACKWARD,9
243.0,16918.43770962211,3145.33747975081,-64788.274739775035,-63062.31773642513,-37571.471938070295,-35190.005325079605,-30380.0216770198,-22652.3977699754,0.0,0.0,0.0,193.0,1.0,154.0,0.0,2.0,3.0,250.0,410.0,2.0,1018.0,1744252645.873381,0.0,2025-04-09 22:37:25.873,BACKWARD,9
244.0,16841.838281373773,3090.955685491048,-64831.72653099615,-63116.76658591826,-37628.69240387588,-35250.623256042396,-30474.882480488122,-22715.25087538372,0.0,0.0,0.0,193.0,1.0,154.0,0.0,2.0,3.0,250.0,410.0,2.0,1018.0,1744252645.8733895,0.0,2025-04-09 22:37:25.873,BACKWARD,9
245.0,16976.909873117194,3111.2957729453774,-64829.6031152729,-63077.382812188014,-37670.26664856275,-35287.034247760086,-30163.656790692425,-22747.50444263273,0.0,0.0,0.0,193.0,1.0,155.0,0.0,2.0,3.0,252.0,411.0,2.0,1020.0,1744252645.8733983,0.0,2025-04-09 22:37:25.873,BACKWARD,9
246.0,16995.30535880391,3137.6931831470947,-64781.30099550498,-63086.614082648055,-37576.25521138373,-35183.2550982541,-30729.960588212085,-22665.004153848193,0.0,0.0,0.0,193.0,1.0,154.0,0.0,2.0,3.0,250.0,410.0,2.0,1018.0,1744252645.8734071,0.0,2025-04-09 22:37:25.873,BACKWARD,9
247.0,16920.91875325665,3134.5415871788964,-64795.4943532341,-63063.636489348,-37586.11233068852,-35202.56700546348,-30421.260645539838,-22667.038162593624,0.0,0.0,0.0,193.0,1.0,154.0,0.0,2.0,3.0,250.0,410.0,2.0,1018.0,1744252645.873416,0.0,2025-04-09 22:37:25.873,BACKWARD,9
248.0,16838.28435400538,3090.463947113031,-64835.07929266445,-63125.327304044644,-37627.01602304173,-35236.38519482436,-30509.7512018384,-22699.045860653623,0.0,0.0,0.0,193.0,1.0,155.0,0.0,2.0,3.0,252.0,411.0,2.0,1020.0,1744252645.8734248,0.0,2025-04-09 22:37:25.873,BACKWARD,9
249.0,16940.521233143954,3090.6427610686733,-64836.152176398304,-63080.44500117839,-37679.184994600415,-35290.878747806404,-30184.332154313586,-22743.704646075326,0.0,0.0,0.0,193.0,1.0,154.0,0.0,2.0,3.0,251.0,410.0,2.0,1019.0,1744252645.8734336,0.0,2025-04-09 22:37:25.873,BACKWARD,9
250.0,16993.852495414318,3124.907985318659,-64800.925827136736,-63110.1951730484,-37595.61182208202,-35199.236595539645,-30660.15609027816,-22680.225691822256,0.0,0.0,0.0,193.0,1.0,155.0,0.0,2.0,3.0,251.0,411.0,2.0,1019.0,1744252645.8734424,0.0,2025-04-09 22:37:25.873,BACKWARD,9
251.0,16930.060616738872,3132.373467966732,-64782.57504493893,-63057.28859392269,-37573.50594681573,-35188.28424075654,-30489.500521361893,-22654.096502554003,0.0,0.0,0.0,193.0,1.0,155.0,0.0,2.0,3.0,252.0,411.0,2.0,1020.0,1744252645.873451,0.0,2025-04-09 22:37:25.873,BACKWARD,9
252.0,16845.794540142364,3099.6281623397067,-64828.91021119479,-63128.903583157495,-37609.268737944214,-35218.6155579824,-30485.544262593303,-22690.909825671893,0.0,0.0,0.0,193.0,1.0,155.0,0.0,2.0,3.0,252.0,411.0,2.0,1020.0,1744252645.8734598,0.0,2025-04-09 22:37:25.873,BACKWARD,9
253.0,16905.25018039348,3082.7302435314946,-64838.20853688819,-63087.55285591518,-37676.83806143261,-35284.17322446981,-30242.31257943065,-22748.063236244114,0.0,0.0,0.0,193.0,1.0,154.0,0.0,2.0,3.0,249.0,410.0,2.0,1017.0,1744252645.8734684,0.0,2025-04-09 22:37:25.873,BACKWARD,9
254.0,16999.351024550324,3119.5212149049303,-64816.549696511,-63119.56055397518,-37621.15986599444,-35217.63208122636,-30544.9104958666,-22693.346165817522,0.0,0.0,0.0,193.0,1.0,155.0,0.0,2.0,3.0,252.0,411.0,2.0,1020.0,1744252645.8734772,0.0,2025-04-09 22:37:25.873,BACKWARD,9
255.0,16944.902175057196,3135.234491257011,-64774.371954723836,-63052.95235549836,-37572.54482180415,-35177.93538307374,-30575.33122007027,-22647.368627472955,0.0,0.0,0.0,193.0,1.0,155.0,0.0,2.0,3.0,252.0,411.0,2.0,1020.0,1744252645.873486,0.0,2025-04-09 22:37:25.873,BACKWARD,9
0.0,16868.369802042223,3124.6844678741063,-64814.67214997675,-63112.6985684274,-37597.01998198271,-35202.18702580775,-30439.544372504282,-22680.180988333344,0.0,0.0,0.0,193.0,1.0,154.0,0.0,2.0,3.0,249.0,410.0,2.0,1017.0,1744252645.8734946,0.0,2025-04-09 22:37:25.873,BACKWARD,9
1.0,16890.363918586245,3097.6388570831846,-64821.93646692473,-63081.11555351205,-37655.04511058868,-35257.30642763453,-30309.56897849667,-22731.21002092481,0.0,0.0,0.0,193.0,1.0,155.0,0.0,2.0,3.0,252.0,411.0,2.0,1020.0,1744252645.8735497,0.0,2025-04-09 22:37:25.873,BACKWARD,9
2.0,17010.07986188887,3129.780665609916,-64816.236772088625,-63109.189344547915,-37637.40958421345,-35230.84196219945,-30399.467694695915,-22721.710529531305,0.0,0.0,0.0,193.0,1.0,154.0,0.0,2.0,3.0,251.0,410.0,2.0,1019.0,1744252646.081252,0.0,2025-04-09 22:37:26.081,BACKWARD,9
3.0,16960.12371303126,3141.269462259944,-64761.854977828865,-63054.025239232215,-37565.660484511915,-35167.58652539093,-30661.966581579043,-22666.0993893265,0.0,0.0,0.0,193.0,1.0,155.0,0.0,2.0,3.0,251.0,411.0,2.0,1019.0,1744252646.081288,0.0,2025-04-09 22:37:26.081,BACKWARD,9
4.0,16878.3833835582,3129.758313865461,-64812.951065653695,-63108.630550936534,-37602.20558669634,-35201.00238335161,-30406.709659899436,-22687.177084347855,0.0,0.0,0.0,193.0,1.0,154.0,0.0,2.0,3.0,251.0,410.0,2.0,1019.0,1744252646.081308,0.0,2025-04-09 22:37:26.081,BACKWARD,9
5.0,16857.57390947031,3083.8925342431708,-64836.018065931574,-63109.122289314546,-37664.298732793184,-35257.77581426809,-30401.188779018972,-22734.272209915187,0.0,0.0,0.0,193.0,1.0,154.0,0.0,2.0,3.0,249.0,410.0,2.0,1017.0,1744252646.0813177,0.0,2025-04-09 22:37:26.081,BACKWARD,9
6.0,16988.868056400785,3112.726284590517,-64846.6574962923,-63124.94732438891,-37679.69908472289,-35274.15964295383,-30292.80517015519,-22754.612297369516,0.0,0.0,0.0,193.0,1.0,155.0,0.0,2.0,3.0,252.0,411.0,2.0,1020.0,1744252646.0813267,0.0,2025-04-09 22:37:26.081,BACKWARD,9
7.0,16962.671811899163,3140.8894826042037,-64774.215492512645,-63077.62868137702,-37573.550650304634,-35172.97329580466,-30744.46687036358,-22666.412313748875,0.0,0.0,0.0,193.0,1.0,154.0,0.0,2.0,3.0,250.0,410.0,2.0,1018.0,1744252646.0813358,0.0,2025-04-09 22:37:26.081,BACKWARD,9
8.0,16895.68363376661,3141.4482762155862,-64802.35633878188,-63090.324472227636,-37594.27071741471,-35195.21328153769,-30393.365668459617,-22683.466694768274,0.0,0.0,0.0,193.0,1.0,155.0,0.0,2.0,3.0,252.0,411.0,2.0,1020.0,1744252646.0813448,0.0,2025-04-09 22:37:26.081,BACKWARD,9
9.0,16840.34071449527,3083.8031272653493,-64836.7556734986,-63121.79572842071,-37650.15007855297,-35249.706834519726,-30455.369407578637,-22731.74646279174,0.0,0.0,0.0,193.0,1.0,155.0,0.0,2.0,3.0,251.0,411.0,2.0,1019.0,1744252646.0813537,0.0,2025-04-09 22:37:26.081,BACKWARD,9
10.0,16983.280120286956,3110.7146275895393,-64837.761501999084,-63104.18255378993,-37677.35215155508,-35279.79228255657,-30195.999764919256,-22759.01559102721,0.0,0.0,0.0,193.0,1.0,154.0,0.0,2.0,3.0,249.0,410.0,2.0,1017.0,1744252646.0813625,0.0,2025-04-09 22:37:26.081,BACKWARD,9
11.0,16977.31220451739,3135.7709331239384,-64777.52355069203,-63092.20201876188,-37572.857746226524,-35177.77892086255,-30760.47071939358,-22678.01286912118,0.0,0.0,0.0,193.0,1.0,155.0,0.0,2.0,3.0,250.0,411.0,2.0,1018.0,1744252646.0813713,0.0,2025-04-09 22:37:26.081,BACKWARD,9
12.0,16914.995540975993,3140.531854692919,-64792.812143899464,-63080.802629089674,-37579.13858641846,-35197.3590490054,-30400.54057842977,-22688.831113437547,0.0,0.0,0.0,193.0,1.0,155.0,0.0,2.0,3.0,251.0,411.0,2.0,1019.0,1744252646.0813801,0.0,2025-04-09 22:37:26.081,BACKWARD,9
13.0,16839.312534250323,3088.5864005787853,-64830.698350751205,-63130.31174305818,-37626.85956083054,-35241.28022686008,-30493.970870252953,-22731.433538369365,0.0,0.0,0.0,193.0,1.0,154.0,0.0,2.0,3.0,251.0,410.0,2.0,1019.0,1744252646.0813892,0.0,2025-04-09 22:37:26.081,BACKWARD,9
14.0,16953.82052109486,3090.4415953685757,-64849.093836437925,-63108.004702091785,-37693.46775930736,-35304.3344979685,-30170.9211076404,-22785.94944309586,0.0,0.0,0.0,193.0,1.0,154.0,0.0,2.0,3.0,249.0,410.0,2.0,1017.0,1744252646.0813978,0.0,2025-04-09 22:37:26.081,BACKWARD,9
15.0,16986.11879183278,3128.819540598338,-64791.58279795442,-63112.475050982845,-37586.17938592188,-35189.73710414614,-30730.854657990298,-22683.936081401836,0.0,0.0,0.0,193.0,1.0,155.0,0.0,2.0,3.0,252.0,411.0,2.0,1020.0,1744252646.0814064,0.0,2025-04-09 22:37:26.081,BACKWARD,9
16.0,16923.310389913368,3138.296680247388,-64790.979300854124,-63072.62189061903,-37580.45733934132,-35195.99559259362,-30433.956436390454,-22676.96233713178,0.0,0.0,0.0,193.0,1.0,155.0,0.0,2.0,3.0,251.0,411.0,2.0,1019.0,1744252646.0814843,0.0,2025-04-09 22:37:26.081,BACKWARD,9
17.0,16826.95201956654,3083.9819412209918,-64848.177414915255,-63151.56825203518,-37631.15109576596,-35245.54941005104,-30489.36641089516,-22724.72801503277,0.0,0.0,0.0,193.0,1.0,154.0,0.0,2.0,3.0,249.0,410.0,2.0,1017.0,1744252646.0814931,0.0,2025-04-09 22:37:26.081,BACKWARD,9
18.0,16927.06548298186,3087.044130211369,-64845.092874180424,-63099.01930082075,-37682.828328946634,-35301.76404735613,-30186.321459570107,-22773.23130050079,0.0,0.0,0.0,193.0,1.0,155.0,0.0,2.0,3.0,252.0,411.0,2.0,1020.0,1744252646.081502,0.0,2025-04-09 22:37:26.081,BACKWARD,9
19.0,16991.63967271324,3121.2199474835334,-64815.27564707705,-63133.150414604,-37608.39701991046,-35219.35316554942,-30638.6313603677,-22715.541448061642,0.0,0.0,0.0,193.0,1.0,155.0,0.0,2.0,3.0,252.0,411.0,2.0,1020.0,1744252646.0815113,0.0,2025-04-09 22:37:26.081,BACKWARD,9
20.0,16925.567916103355,3127.5454911643856,-64794.265007289054,-63078.232178477316,-37585.84410975505,-35199.01307809509,-30512.053431517295,-22678.594014477017,0.0,0.0,0.0,193.0,1.0,154.0,0.0,2.0,3.0,250.0,410.0,2.0,1018.0,1744252646.08152,0.0,2025-04-09 22:37:26.081,BACKWARD,9
21.0,16839.401941228145,3098.7340925614944,-64838.87908922185,-63148.57311827817,-37617.672993859414,-35229.6126162544,-30482.102093947185,-22712.97099744928,0.0,0.0,0.0,193.0,1.0,155.0,0.0,2.0,3.0,252.0,411.0,2.0,1020.0,1744252646.081529,0.0,2025-04-09 22:37:26.081,BACKWARD,9
22.0,16903.573799559334,3094.330798903799,-64831.5030135516,-63094.861876352064,-37664.723415937835,-35282.496843635665,-30260.641009884002,-22761.94366955086,0.0,0.0,0.0,193.0,1.0,155.0,0.0,2.0,3.0,252.0,411.0,2.0,1020.0,1744252646.0815375,0.0,2025-04-09 22:37:26.081,BACKWARD,9
23.0,16996.69116696014,3123.6339358847067,-64825.28922859302,-63137.509004772786,-37628.17831375341,-35238.17333438079,-30507.60543437069,-22732.215849425298,0.0,0.0,0.0,193.0,1.0,154.0,0.0,2.0,3.0,249.0,410.0,2.0,1017.0,1744252646.0815463,0.0,2025-04-09 22:37:26.081,BACKWARD,9
24.0,16947.740846603017,3138.721363392039,-64768.001707554075,-63060.99898350227,-37563.134737388464,-35179.097673785414,-30599.515807570915,-22671.642621951418,0.0,0.0,0.0,193.0,1.0,155.0,0.0,2.0,3.0,250.0,411.0,2.0,1018.0,1744252646.0815551,0.0,2025-04-09 22:37:26.081,BACKWARD,9
25.0,16871.834322432795,3127.0314010419133,-64808.70423420719,-63115.02314985075,-37590.336810390574,-35198.320174016975,-30433.934084646,-22682.416162778874,0.0,0.0,0.0,193.0,1.0,155.0,0.0,2.0,3.0,252.0,411.0,2.0,1020.0,1744252646.081564,0.0,2025-04-09 22:37:26.081,BACKWARD,9
26.0,16882.138476626693,3092.3861971361875,-64821.64589424681,-63091.30794898367,-37650.61946518654,-35257.61935205691,-30326.131621138054,-22728.17018367889,0.0,0.0,0.0,193.0,1.0,155.0,0.0,2.0,3.0,251.0,411.0,2.0,1019.0,1744252646.0815728,0.0,2025-04-09 22:37:26.081,BACKWARD,9
27.0,16997.004091382514,3117.1519299926676,-64831.88299320734,-63127.0483883677,-37654.508668721755,-35250.57855255348,-30362.877889022577,-22740.64245708495,0.0,0.0,0.0,193.0,1.0,155.0,0.0,2.0,3.0,252.0,411.0,2.0,1020.0,1744252646.081581,0.0,2025-04-09 22:37:26.081,BACKWARD,9
28.0,16954.15579726169,3139.436619214609,-64768.135818020804,-63067.793913816684,-37573.43889158236,-35173.01799929357,-30694.13074185023,-22673.006078363193,0.0,0.0,0.0,193.0,1.0,155.0,0.0,2.0,3.0,251.0,411.0,2.0,1019.0,1744252646.08159,0.0,2025-04-09 22:37:26.081,BACKWARD,9
29.0,16875.09767712327,3127.366677208743,-64809.12891735184,-63109.23404803682,-37600.03746748417,-35205.20451130921,-30415.35978500364,-22694.39669780692,0.0,0.0,0.0,193.0,1.0,154.0,0.0,2.0,3.0,250.0,410.0,2.0,1018.0,1744252646.0815988,0.0,2025-04-09 22:37:26.081,BACKWARD,9
30.0,16854.176444313103,3087.915848245126,-64824.17164137026,-63107.87059162505,-37647.69138666289,-35255.94297122276,-30418.51138097184,-22735.79212853815,0.0,0.0,0.0,193.0,1.0,154.0,0.0,2.0,3.0,249.0,410.0,2.0,1017.0,1744252646.0816076,0.0,2025-04-09 22:37:26.081,BACKWARD,9
31.0,16992.958425636105,3113.374485179721,-64830.94421994022,-63114.26319053927,-37665.95276188287,-35272.72913130869,-30252.952009791377,-22755.72988459228,0.0,0.0,0.0,193.0,1.0,155.0,0.0,2.0,3.0,252.0,411.0,2.0,1020.0,1744252646.081637,0.0,2025-04-09 22:37:26.081,BACKWARD,9
32.0,16976.194617294626,3145.7621628954607,-64755.23886147009,-63068.03978300569,-37553.635245994956,-35161.260981710075,-30737.381367371247,-22658.0974648115,0.0,0.0,0.0,193.0,1.0,155.0,0.0,2.0,3.0,251.0,411.0,2.0,1019.0,1744252646.081646,0.0,2025-04-09 22:37:26.081,BACKWARD,9
33.0,16898.835229734806,3141.8953111046926,-64794.555579966975,-63087.41874544844,-37583.34071437606,-35192.799293136515,-30376.512453140316,-22685.098372113513,0.0,0.0,0.0,193.0,1.0,155.0,0.0,2.0,3.0,250.0,411.0,2.0,1018.0,1744252646.0816548,0.0,2025-04-09 22:37:26.081,BACKWARD,9
34.0,16842.777054640897,3094.911944259637,-64822.316446580466,-63116.051330095695,-37630.614653899036,-35237.10045064693,-30471.730884519922,-22731.858221514016,0.0,0.0,0.0,193.0,1.0,155.0,0.0,2.0,3.0,250.0,411.0,2.0,1018.0,1744252646.0816636,0.0,2025-04-09 22:37:26.081,BACKWARD,9
35.0,16983.190713309137,3112.6592293571507,-64826.02683616005,-63096.895885097496,-37667.98677062831,-35275.59015459897,-30221.056070453655,-22760.379047438986,0.0,0.0,0.0,193.0,1.0,155.0,0.0,2.0,3.0,252.0,411.0,2.0,1020.0,1744252646.0816724,0.0,2025-04-09 22:37:26.081,BACKWARD,9
36.0,16988.063393600394,3141.694145404595,-64764.783056352506,-63090.01154780526,-37562.799461221635,-35168.57000214696,-30806.6717751827,-22668.982764361237,0.0,0.0,0.0,193.0,1.0,155.0,0.0,2.0,3.0,249.0,411.0,2.0,1017.0,1744252646.0816813,0.0,2025-04-09 22:37:26.081,BACKWARD,9
37.0,16914.324988642336,3141.2247587710335,-64790.19698979819,-63084.021280291236,-37583.139548675965,-35192.75458964761,-30451.99429416589,-22679.555139488595,0.0,0.0,0.0,193.0,1.0,154.0,0.0,2.0,3.0,250.0,410.0,2.0,1018.0,1744252646.08169,0.0,2025-04-09 22:37:26.081,BACKWARD,9
38.0,16839.647810417155,3099.270534428422,-64823.88106869234,-63132.032827381234,-37621.33867995008,-35222.52711326208,-30549.291437779837,-22709.528828803162,0.0,0.0,0.0,193.0,1.0,155.0,0.0,2.0,3.0,252.0,411.0,2.0,1020.0,1744252646.081699,0.0,2025-04-09 22:37:26.081,BACKWARD,9
39.0,16951.764160604973,3102.623296096718,-64836.867432220875,-63103.02026307825,-37685.063503392164,-35290.14114023938,-30218.060936696642,-22768.872710332,0.0,0.0,0.0,193.0,1.0,154.0,0.0,2.0,3.0,249.0,410.0,2.0,1017.0,1744252646.0817072,0.0,2025-04-09 22:37:26.081,BACKWARD,9
40.0,16989.426850012165,3130.004183054469,-64787.06774557445,-63118.64413245251,-37589.73331329028,-35193.849825125915,-30756.60386760281,-22700.811648465595,0.0,0.0,0.0,193.0,1.0,154.0,0.0,2.0,3.0,249.0,410.0,2.0,1017.0,1744252646.081716,0.0,2025-04-09 22:37:26.081,BACKWARD,9
41.0,16917.744805543996,3127.746656864483,-64786.732469407616,-63079.886207567004,-37589.778016779186,-35201.58352870745,-30467.819329240243,-22694.93313967385,0.0,0.0,0.0,193.0,1.0,154.0,0.0,2.0,3.0,252.0,410.0,2.0,1020.0,1744252646.0817246,0.0,2025-04-09 22:37:26.081,BACKWARD,9
42.0,16829.924801579094,3090.888630257682,-64832.3523798409,-63147.61199326659,-37629.29590097617,-35230.28316858807,-30502.55394012379,-22718.044843440635,0.0,0.0,0.0,193.0,1.0,154.0,0.0,2.0,3.0,250.0,410.0,2.0,1018.0,1744252646.0817332,0.0,2025-04-09 22:37:26.081,BACKWARD,9
43.0,16922.192802690603,3085.747729032961,-64833.157042641295,-63099.891018854505,-37686.78458771522,-35288.50946289414,-30212.49535232727,-22759.686143360872,0.0,0.0,0.0,193.0,1.0,154.0,0.0,2.0,3.0,250.0,410.0,2.0,1018.0,1744252646.081742,0.0,2025-04-09 22:37:26.081,BACKWARD,9
44.0,16990.45503025711,3111.9663252790365,-64808.324254551444,-63139.29714432921,-37619.01409852673,-35217.52032250408,-30614.022089722406,-22710.15467764791,0.0,0.0,0.0,193.0,1.0,154.0,0.0,2.0,3.0,250.0,410.0,2.0,1018.0,1744252646.0817509,0.0,2025-04-09 22:37:26.081,BACKWARD,9
45.0,16923.869183524752,3116.1237497477237,-64782.21741702765,-63086.43526869241,-37589.91212724592,-35202.030563596556,-30539.233152774952,-22691.982709405747,0.0,0.0,0.0,193.0,1.0,154.0,0.0,2.0,3.0,252.0,410.0,2.0,1020.0,1744252646.0817592,0.0,2025-04-09 22:37:26.081,BACKWARD,9
46.0,16850.82368264481,3103.8973455306705,-64816.05795813298,-63145.51092928779,-37608.44172339937,-35218.324985304476,-30484.784303281824,-22715.11676491699,0.0,0.0,0.0,193.0,1.0,154.0,0.0,2.0,3.0,250.0,410.0,2.0,1018.0,1744252646.0817912,0.0,2025-04-09 22:37:26.081,BACKWARD,9
47.0,16897.11414541175,3082.104394686746,-64822.383501813834,-63105.25543752378,-37668.634971217514,-35280.90986977934,-30274.253222257285,-22761.541338150662,0.0,0.0,0.0,193.0,1.0,154.0,0.0,2.0,3.0,252.0,410.0,2.0,1020.0,1744252646.0818,0.0,2025-04-09 22:37:26.081,BACKWARD,9
48.0,16997.69699546063,3113.821520068827,-64817.17554535575,-63144.16982462047,-37635.88966559049,-35242.53192454957,-30477.07295144474,-22742.184727452368,0.0,0.0,0.0,193.0,1.0,155.0,0.0,2.0,3.0,252.0,411.0,2.0,1020.0,1744252646.0818088,0.0,2025-04-09 22:37:26.081,BACKWARD,9
49.0,16949.953669304094,3138.497845947486,-64754.25538471406,-63066.43045740491,-37562.19596412134,-35172.034522537535,-30624.236836938482,-22668.53572947213,0.0,0.0,0.0,193.0,1.0,154.0,0.0,2.0,3.0,249.0,410.0,2.0,1017.0,1744252646.0818179,0.0,2025-04-09 22:37:26.081,BACKWARD,9
50.0,16873.801275944865,3125.9361655636035,-64798.73535618012,-63121.996894120806,-37592.03554296918,-35203.0587438415,-30427.563837476235,-22699.895226942925,0.0,0.0,0.0,193.0,1.0,154.0,0.0,2.0,3.0,250.0,410.0,2.0,1018.0,1744252646.0818264,0.0,2025-04-09 22:37:26.081,BACKWARD,9
51.0,16873.86833117823,3082.2608568979335,-64816.3485308109,-63108.004702091785,-37656.49797397828,-35266.44829111675,-30351.165574927996,-22752.421826412898,0.0,0.0,0.0,193.0,1.0,155.0,0.0,2.0,3.0,252.0,411.0,2.0,1020.0,1744252646.0818594,0.0,2025-04-09 22:37:26.081,BACKWARD,9
52.0,17004.201353097124,3113.2850782018995,-64817.8013942005,-63126.35548428959,-37654.17339255493,-35252.65726478783,-30335.698167764924,-22745.31397167611,0.0,0.0,0.0,193.0,1.0,154.0,0.0,2.0,3.0,250.0,410.0,2.0,1018.0,1744252646.081868,0.0,2025-04-09 22:37:26.081,BACKWARD,9
53.0,16961.308355487392,3133.356944722765,-64753.09309400238,-63070.811399318154,-37566.73336824577,-35161.43979566572,-30698.17640759664,-22660.802025890593,0.0,0.0,0.0,193.0,1.0,154.0,0.0,2.0,3.0,250.0,410.0,2.0,1018.0,1744252646.176267,0.0,2025-04-09 22:37:26.176,BACKWARD,9
54.0,16881.400869059667,3129.400685954176,-64795.82962940093,-63109.50226897029,-37593.8236825256,-35194.98976409314,-30390.705810869436,-22695.938968174338,0.0,0.0,0.0,193.0,1.0,155.0,0.0,2.0,3.0,251.0,411.0,2.0,1019.0,1744252646.1763098,0.0,2025-04-09 22:37:26.176,BACKWARD,9
55.0,16849.99666809996,3094.1519849481565,-64810.60413248589,-63112.0950713271,-37640.87410460402,-35240.72143324869,-30419.94189261698,-22736.17210819389,0.0,0.0,0.0,193.0,1.0,154.0,0.0,2.0,3.0,250.0,410.0,2.0,1018.0,1744252646.1763213,0.0,2025-04-09 22:37:26.176,BACKWARD,9
56.0,16989.203332567613,3115.743770091983,-64815.11918486586,-63108.407033491974,-37665.86335490506,-35258.06638694601,-30223.738279788293,-22751.41599791241,0.0,0.0,0.0,193.0,1.0,154.0,0.0,2.0,3.0,250.0,410.0,2.0,1018.0,1744252646.1763303,0.0,2025-04-09 22:37:26.176,BACKWARD,9
57.0,16979.32386151837,3143.728154150028,-64740.50906187404,-63069.51499813974,-37556.29510358514,-35142.48551636762,-30739.99652147252,-22649.06736005156,0.0,0.0,0.0,193.0,1.0,155.0,0.0,2.0,3.0,252.0,411.0,2.0,1020.0,1744252646.1763396,0.0,2025-04-09 22:37:26.176,BACKWARD,9
58.0,16907.664168794654,3139.3248604923324,-64772.38264946731,-63082.143733756995,-37578.311571873615,-35176.52722317305,-30376.601860118135,-22678.415200521376,0.0,0.0,0.0,193.0,1.0,154.0,0.0,2.0,3.0,249.0,410.0,2.0,1017.0,1744252646.1763487,0.0,2025-04-09 22:37:26.176,BACKWARD,9
59.0,16851.114255322726,3096.2306971825,-64797.46130674617,-63113.659693438975,-37618.70117410435,-35215.59807248093,-30472.73671302041,-22714.669730027883,0.0,0.0,0.0,193.0,1.0,155.0,0.0,2.0,3.0,251.0,411.0,2.0,1019.0,1744252646.176358,0.0,2025-04-09 22:37:26.176,BACKWARD,9
60.0,16972.618338181775,3101.371598407221,-64817.53317326703,-63104.83075437913,-37677.79918644419,-35274.49491912066,-30160.54989821314,-22767.41984694241,0.0,0.0,0.0,193.0,1.0,155.0,0.0,2.0,3.0,251.0,411.0,2.0,1019.0,1744252646.1763668,0.0,2025-04-09 22:37:26.176,BACKWARD,9
61.0,16989.203332567613,3139.168398281145,-64754.657716114256,-63099.01930082075,-37570.622571780994,-35162.06564451047,-30751.261800677992,-22680.06922961107,0.0,0.0,0.0,193.0,1.0,154.0,0.0,2.0,3.0,250.0,410.0,2.0,1018.0,1744252646.1763928,0.0,2025-04-09 22:37:26.176,BACKWARD,9
62.0,16919.68940731161,3142.3423459937985,-64767.778190109515,-63076.51109415425,-37580.747912019244,-35178.896508085316,-30410.218883778918,-22683.690212212827,0.0,0.0,0.0,193.0,1.0,155.0,0.0,2.0,3.0,251.0,411.0,2.0,1019.0,1744252646.176402,0.0,2025-04-09 22:37:26.176,BACKWARD,9
63.0,16834.350446981247,3092.7661767919276,-64808.95010339619,-63138.268964084265,-37621.49514216127,-35224.02468014058,-30492.07097197425,-22720.995273708737,0.0,0.0,0.0,193.0,1.0,155.0,0.0,2.0,3.0,251.0,411.0,2.0,1019.0,1744252646.176411,0.0,2025-04-09 22:37:26.176,BACKWARD,9
64.0,16947.517329158465,3096.208345438045,-64810.76059469707,-63095.37596647453,-37671.49599450779,-35280.75340756815,-30158.11355806751,-22764.69293411886,0.0,0.0,0.0,193.0,1.0,154.0,0.0,2.0,3.0,250.0,410.0,2.0,1018.0,1744252646.1764195,0.0,2025-04-09 22:37:26.176,BACKWARD,9
65.0,17004.17900135267,3138.4754942030304,-64758.412809182744,-63106.99887359129,-37573.86357472701,-35172.07922602644,-30676.003477096976,-22673.073133596557,0.0,0.0,0.0,193.0,1.0,154.0,0.0,2.0,3.0,250.0,410.0,2.0,1018.0,1744252646.1764283,0.0,2025-04-09 22:37:26.176,BACKWARD,9
66.0,16941.01297152197,3146.4997704624857,-64743.99593400907,-63055.925137510916,-37561.63717050996,-35166.938324801726,-30445.042901640285,-22654.655296165383,0.0,0.0,0.0,193.0,1.0,155.0,0.0,2.0,3.0,252.0,411.0,2.0,1020.0,1744252646.1764374,0.0,2025-04-09 22:37:26.176,BACKWARD,9
67.0,16843.648772674653,3099.3822931506984,-64801.81989691495,-63140.48178678534,-37608.15115072145,-35218.28028181556,-30471.864994986656,-22716.614331795496,0.0,0.0,0.0,193.0,1.0,154.0,0.0,2.0,3.0,250.0,410.0,2.0,1018.0,1744252646.1764464,0.0,2025-04-09 22:37:26.176,BACKWARD,9
68.0,16923.936238758117,3094.0625779703355,-64801.95400738168,-63090.72680362783,-37663.85169790408,-35272.59502084196,-30206.952119702357,-22759.864957316513,0.0,0.0,0.0,193.0,1.0,154.0,0.0,2.0,3.0,249.0,410.0,2.0,1017.0,1744252646.1764553,0.0,2025-04-09 22:37:26.176,BACKWARD,9
69.0,17002.94965540763,3124.61741264074,-64780.988071082604,-63128.38949303502,-37604.84309254207,-35201.337659518445,-30573.118397369195,-22705.72903224576,0.0,0.0,0.0,193.0,1.0,155.0,0.0,2.0,3.0,252.0,411.0,2.0,1020.0,1744252646.176464,0.0,2025-04-09 22:37:26.176,BACKWARD,9
70.0,16936.050884252894,3128.014877797947,-64752.60135562436,-63072.264262707744,-37570.30964735862,-35177.801272607,-30536.193315529028,-22681.11976160047,0.0,0.0,0.0,193.0,1.0,155.0,0.0,2.0,3.0,252.0,411.0,2.0,1020.0,1744252646.176473,0.0,2025-04-09 22:37:26.176,BACKWARD,9
71.0,16861.217243816525,3114.335610191299,-64789.43703048671,-63131.4516820254,-37589.509795845726,-35197.560214705496,-30450.809651709755,-22707.427764824362,0.0,0.0,0.0,193.0,1.0,154.0,0.0,2.0,3.0,249.0,410.0,2.0,1017.0,1744252646.1764815,0.0,2025-04-09 22:37:26.176,BACKWARD,9
72.0,16906.457174594067,3096.7671390494274,-64789.615844442356,-63086.5917309036,-37646.193819784385,-35253.193706654754,-30278.0977223036,-22747.191518210355,0.0,0.0,0.0,193.0,1.0,154.0,0.0,2.0,3.0,252.0,410.0,2.0,1020.0,1744252646.1764905,0.0,2025-04-09 22:37:26.176,BACKWARD,9
73.0,17006.928265920673,3121.890499817193,-64794.62263520034,-63132.323400059155,-37631.933406821896,-35229.45615404322,-30431.765965433835,-22729.511288346206,0.0,0.0,0.0,193.0,1.0,154.0,0.0,2.0,3.0,251.0,410.0,2.0,1019.0,1744252646.1764996,0.0,2025-04-09 22:37:26.176,BACKWARD,9
74.0,16956.770951362963,3144.5104652059636,-64735.36816064933,-63062.76477131424,-37557.613856508004,-35159.67400785375,-30625.332072416793,-22656.421083977355,0.0,0.0,0.0,193.0,1.0,154.0,0.0,2.0,3.0,249.0,410.0,2.0,1017.0,1744252646.1765084,0.0,2025-04-09 22:37:26.176,BACKWARD,9
75.0,16876.081153879306,3127.9925260534915,-64782.99972808358,-63115.0455015952,-37588.727484789786,-35189.44653146822,-30405.435610465483,-22688.74170645973,0.0,0.0,0.0,193.0,1.0,155.0,0.0,2.0,3.0,252.0,411.0,2.0,1020.0,1744252646.1765172,0.0,2025-04-09 22:37:26.176,BACKWARD,9
76.0,16867.47573226401,3085.5465633328636,-64799.56237072497,-63103.86962936755,-37647.75844189626,-35247.22579088519,-30366.610630346615,-22742.117672219,0.0,0.0,0.0,193.0,1.0,155.0,0.0,2.0,3.0,252.0,411.0,2.0,1020.0,1744252646.1765313,0.0,2025-04-09 22:37:26.176,BACKWARD,9
77.0,16994.27717855897,3107.652438599162,-64806.379652783835,-63123.42740576594,-37654.441613488394,-35249.23744788617,-30306.015051128277,-22745.44808214284,0.0,0.0,0.0,193.0,1.0,154.0,0.0,2.0,3.0,250.0,410.0,2.0,1018.0,1744252646.17654,0.0,2025-04-09 22:37:26.176,BACKWARD,9
78.0,16954.64753563971,3126.6514213861733,-64746.09699798787,-63079.95326280037,-37564.319379844594,-35165.70897885668,-30703.54082626591,-22671.48615974023,0.0,0.0,0.0,193.0,1.0,154.0,0.0,2.0,3.0,250.0,410.0,2.0,1018.0,1744252646.4367986,0.0,2025-04-09 22:37:26.436,BACKWARD,9
79.0,16886.43001156211,3128.528967920419,-64780.47398096013,-63106.93181835793,-37589.06276095662,-35194.58743269294,-30386.324868956195,-22702.264511855188,0.0,0.0,0.0,193.0,1.0,155.0,0.0,2.0,3.0,252.0,411.0,2.0,1020.0,1744252646.4368339,0.0,2025-04-09 22:37:26.436,BACKWARD,9
80.0,16847.493272720967,3081.0538626973466,-64803.94331263821,-63122.265115054266,-37641.32113949313,-35246.488183318164,-30429.39668052157,-22744.39755015344,0.0,0.0,0.0,193.0,1.0,154.0,0.0,2.0,3.0,250.0,410.0,2.0,1018.0,1744252646.436854,0.0,2025-04-09 22:37:26.436,BACKWARD,9
81.0,16984.777687165464,3098.5105751169417,-64812.1464028533,-63117.9512283744,-37673.75352069778,-35272.08093071949,-30206.616843535525,-22762.658925373427,0.0,0.0,0.0,193.0,1.0,154.0,0.0,2.0,3.0,250.0,410.0,2.0,1018.0,1744252646.4368742,0.0,2025-04-09 22:37:26.436,BACKWARD,9
82.0,16975.769934149976,3128.9312993206145,-64746.16405322123,-63092.760812373264,-37570.48846131426,-35165.3513509454,-30751.485318122544,-22673.028430107646,0.0,0.0,0.0,193.0,1.0,155.0,0.0,2.0,3.0,253.0,411.0,2.0,1021.0,1744252646.436884,0.0,2025-04-09 22:37:26.436,BACKWARD,9
83.0,16903.2385233925,3129.6689068876394,-64774.52841693502,-63095.33126298562,-37588.83924351207,-35192.933403603245,-30386.749552100846,-22690.39573554942,0.0,0.0,0.0,193.0,1.0,155.0,0.0,2.0,3.0,251.0,411.0,2.0,1019.0,1744252646.436893,0.0,2025-04-09 22:37:26.436,BACKWARD,9
84.0,16840.51952845091,3088.4522901120536,-64795.80727765647,-63123.53916448822,-37621.33867995008,-35220.80602893901,-30472.088512431208,-22716.346110862032,0.0,0.0,0.0,193.0,1.0,154.0,0.0,2.0,3.0,250.0,410.0,2.0,1018.0,1744252646.4369023,0.0,2025-04-09 22:37:26.436,BACKWARD,9
85.0,16969.98083233605,3101.66217108514,-64805.329120794435,-63096.06887055265,-37674.4911282648,-35268.90698300683,-30156.72774991128,-22758.702666604837,0.0,0.0,0.0,193.0,1.0,154.0,0.0,2.0,3.0,250.0,410.0,2.0,1018.0,1744252646.4369113,0.0,2025-04-09 22:37:26.436,BACKWARD,9
86.0,16983.391879009232,3128.7077818760613,-64755.551785892465,-63107.06592882466,-37574.35531310503,-35166.2007172347,-30725.333777109838,-22673.47546499675,0.0,0.0,0.0,193.0,1.0,155.0,0.0,2.0,3.0,252.0,411.0,2.0,1020.0,1744252646.4369204,0.0,2025-04-09 22:37:26.436,BACKWARD,9
87.0,16906.12189842724,3121.845796328282,-64771.712097133655,-63090.72680362783,-37582.53605157567,-35190.407656479794,-30399.33358422918,-22683.489046512732,0.0,0.0,0.0,193.0,1.0,154.0,0.0,2.0,3.0,250.0,410.0,2.0,1018.0,1744252646.4369292,0.0,2025-04-09 22:37:26.436,BACKWARD,9
88.0,16820.6711793746,3076.047071939358,-64815.23094358813,-63156.530339304256,-37625.13847650748,-35230.43963079925,-30481.498596846894,-22728.952494734825,0.0,0.0,0.0,193.0,1.0,154.0,0.0,2.0,3.0,250.0,410.0,2.0,1018.0,1744252646.436938,0.0,2025-04-09 22:37:26.436,BACKWARD,9
89.0,16923.73507305802,3073.99071144947,-64821.35532156889,-63116.76658591826,-37684.5941167586,-35288.576518127506,-30164.43910174836,-22777.835759858583,0.0,0.0,0.0,193.0,1.0,155.0,0.0,2.0,3.0,252.0,411.0,2.0,1020.0,1744252646.4369469,0.0,2025-04-09 22:37:26.436,BACKWARD,9
90.0,16985.31412903239,3115.3190869473324,-64775.06485880195,-63136.43612103893,-37592.080246458085,-35183.635077909836,-30666.079302558817,-22690.887473927436,0.0,0.0,0.0,193.0,1.0,154.0,0.0,2.0,3.0,250.0,410.0,2.0,1018.0,1744252646.4369557,0.0,2025-04-09 22:37:26.436,BACKWARD,9
91.0,16928.406587649177,3130.6076801547624,-64749.71798058963,-63073.96299528635,-37566.286333356664,-35165.50781315658,-30473.049637442786,-22661.785502646628,0.0,0.0,0.0,193.0,1.0,154.0,0.0,2.0,3.0,249.0,410.0,2.0,1017.0,1744252646.4369984,0.0,2025-04-09 22:37:26.436,BACKWARD,9
92.0,16838.731388894485,3100.9916187514805,-64800.702309692184,-63149.26602235628,-37602.00442099624,-35207.37263052138,-30467.37229435114,-22714.334453861054,0.0,0.0,0.0,193.0,1.0,154.0,0.0,2.0,3.0,252.0,410.0,2.0,1020.0,1744252646.4370074,0.0,2025-04-09 22:37:26.437,BACKWARD,9
93.0,16901.58449430281,3081.6350080531847,-64810.13474585232,-63108.80936489217,-37667.07034910564,-35272.79618654206,-30213.054145938655,-22760.714323605815,0.0,0.0,0.0,193.0,1.0,154.0,0.0,2.0,3.0,249.0,410.0,2.0,1017.0,1744252646.4370162,0.0,2025-04-09 22:37:26.437,BACKWARD,9
94.0,16979.92735861866,3101.818633296327,-64795.56140846747,-63147.94726943342,-37617.337717692586,-35210.50187474512,-30531.074766048765,-22709.394718336433,0.0,0.0,0.0,193.0,1.0,154.0,0.0,2.0,3.0,251.0,410.0,2.0,1019.0,1744252646.4370327,0.0,2025-04-09 22:37:26.437,BACKWARD,9
95.0,16927.177241704136,3120.370581194232,-64749.62857361181,-63073.471256908335,-37566.219278123295,-35168.592353891414,-30553.94060062654,-22659.416217734364,0.0,0.0,0.0,193.0,1.0,155.0,0.0,2.0,3.0,252.0,411.0,2.0,1020.0,1744252646.4370415,0.0,2025-04-09 22:37:26.437,BACKWARD,9
96.0,16850.510758222434,3103.070330985824,-64792.1415915658,-63134.82679543815,-37592.88490925848,-35197.67197342777,-30431.721261944924,-22695.134305373944,0.0,0.0,0.0,193.0,1.0,154.0,0.0,2.0,3.0,251.0,410.0,2.0,1019.0,1744252646.4370503,0.0,2025-04-09 22:37:26.437,BACKWARD,9
97.0,16875.67882247911,3075.1977056500564,-64799.36120502487,-63103.10967005607,-37650.664168675445,-35255.65239854484,-30286.70314391889,-22740.910678018416,0.0,0.0,0.0,193.0,1.0,154.0,0.0,2.0,3.0,250.0,410.0,2.0,1018.0,1744252646.4370587,0.0,2025-04-09 22:37:26.437,BACKWARD,9
98.0,16987.012861610994,3102.667999585629,-64800.59055096991,-63137.218432094865,-37634.727374878814,-35231.84779069994,-30389.901148069042,-22725.286808644156,0.0,0.0,0.0,193.0,1.0,154.0,0.0,2.0,3.0,252.0,410.0,2.0,1020.0,1744252646.4370675,0.0,2025-04-09 22:37:26.437,BACKWARD,9
99.0,16946.44444542461,3129.780665609916,-64727.38858787878,-63061.803646302666,-37543.19698133433,-35146.24060943611,-30632.171706220117,-22635.566906400552,0.0,0.0,0.0,193.0,1.0,155.0,0.0,2.0,3.0,251.0,411.0,2.0,1019.0,1744252646.4370763,0.0,2025-04-09 22:37:26.437,BACKWARD,9
100.0,16853.48354023499,3104.009104252947,-64786.4418967297,-63125.10378660009,-37590.336810390574,-35190.139435546334,-30374.34433392815,-22683.667860468373,0.0,0.0,0.0,193.0,1.0,154.0,0.0,2.0,3.0,249.0,410.0,2.0,1017.0,1744252646.4370852,0.0,2025-04-09 22:37:26.437,BACKWARD,9
101.0,16838.15024353865,3062.881894455182,-64803.76449868256,-63120.27580979774,-37647.22200002933,-35246.421128084796,-30372.10915948262,-22741.02243674069,0.0,0.0,0.0,193.0,1.0,155.0,0.0,2.0,3.0,252.0,411.0,2.0,1020.0,1744252646.4370942,0.0,2025-04-09 22:37:26.437,BACKWARD,9
102.0,16973.758277148998,3090.396891879665,-64809.1959725852,-63132.5022140148,-37660.02954960222,-35250.77971825358,-30272.219213511853,-22746.856242043526,0.0,0.0,0.0,193.0,1.0,155.0,0.0,2.0,3.0,252.0,411.0,2.0,1020.0,1744252646.437103,0.0,2025-04-09 22:37:26.437,BACKWARD,9
103.0,16945.952707046596,3120.594098638785,-64734.38468389329,-63079.37211744453,-37553.92581867288,-35142.463164623165,-30713.487352548524,-22645.424025705343,0.0,0.0,0.0,193.0,1.0,155.0,0.0,1.0,3.0,251.0,411.0,1.0,1019.0,1744252646.4371116,0.0,2025-04-09 22:37:26.437,BACKWARD,9
104.0,16866.469903763522,3108.6806188441064,-64779.87048385984,-63111.40216724899,-37583.38541786497,-35183.6574296543,-30363.883717523066,-22683.354936046,0.0,0.0,0.0,193.0,1.0,154.0,0.0,2.0,3.0,249.0,410.0,2.0,1017.0,1744252646.4371204,0.0,2025-04-09 22:37:26.437,BACKWARD,9
105.0,16822.10169101974,3062.4125078216207,-64803.58568472692,-63128.00951337928,-37631.15109576596,-35228.71854647619,-30431.58715147819,-22731.366483135997,0.0,0.0,0.0,193.0,1.0,154.0,0.0,2.0,3.0,249.0,410.0,2.0,1017.0,1744252646.4371293,0.0,2025-04-09 22:37:26.437,BACKWARD,9
106.0,16968.46091371309,3095.336627404288,-64798.2436178021,-63100.87449561054,-37658.82255540163,-35245.303540862034,-30175.279697809186,-22745.425730398387,0.0,0.0,0.0,193.0,1.0,155.0,0.0,2.0,3.0,252.0,411.0,2.0,1020.0,1744252646.437144,0.0,2025-04-09 22:37:26.437,BACKWARD,9
107.0,16956.569785662865,3121.7787410949163,-64740.26319268504,-63088.357518715566,-37558.61968500849,-35143.67015882375,-30720.21522762957,-22653.425950220342,0.0,0.0,0.0,193.0,1.0,155.0,0.0,2.0,3.0,251.0,411.0,2.0,1019.0,1744252646.4371529,0.0,2025-04-09 22:37:26.437,BACKWARD,9
108.0,16895.124840155226,3128.037229542402,-64759.23982372759,-63079.99796628928,-37570.53316480317,-35167.09478701291,-30364.934249512466,-22670.68149693984,0.0,0.0,0.0,193.0,1.0,154.0,0.0,2.0,3.0,251.0,410.0,2.0,1019.0,1744252646.4371617,0.0,2025-04-09 22:37:26.437,BACKWARD,9
109.0,16832.271734746904,3087.021778466914,-64785.257254273565,-63117.61595220756,-37607.12297047651,-35199.057781584,-30466.701742017478,-22709.50647705871,0.0,0.0,0.0,193.0,1.0,154.0,0.0,2.0,3.0,249.0,410.0,2.0,1017.0,1744252646.4371705,0.0,2025-04-09 22:37:26.437,BACKWARD,9
110.0,16950.35600070429,3091.603886080252,-64800.16586782526,-63093.811344362664,-37667.02564561673,-35260.43567185827,-30134.48776417825,-22762.45775967333,0.0,0.0,0.0,193.0,1.0,155.0,0.0,2.0,3.0,250.0,411.0,2.0,1018.0,1744252646.437179,0.0,2025-04-09 22:37:26.437,BACKWARD,9
111.0,16969.556149191398,3114.9614590360475,-64758.61397488284,-63114.88903938402,-37581.39611260845,-35166.156013745785,-30704.300785577394,-22683.95843314629,0.0,0.0,0.0,193.0,1.0,155.0,0.0,2.0,3.0,251.0,411.0,2.0,1019.0,1744252646.437188,0.0,2025-04-09 22:37:26.437,BACKWARD,9
112.0,16907.038319949905,3124.237432985,-64755.73059984811,-63079.30506221117,-37577.685723028866,-35176.97425806216,-30423.853447896654,-22681.34327904502,0.0,0.0,0.0,193.0,1.0,154.0,0.0,2.0,3.0,249.0,410.0,2.0,1017.0,1744252646.4371965,0.0,2025-04-09 22:37:26.437,BACKWARD,9
113.0,16820.98410379697,3081.7020632865506,-64795.67316718974,-63146.11442638808,-37609.291089688675,-35215.4639620142,-30489.947556250998,-22722.045805698133,0.0,0.0,0.0,193.0,1.0,154.0,0.0,2.0,3.0,250.0,410.0,2.0,1018.0,1744252646.4372053,0.0,2025-04-09 22:37:26.437,BACKWARD,9
114.0,16906.747747271987,3070.9285224590926,-64811.140574352816,-63111.60333294909,-37677.15098585498,-35283.189747713775,-30167.188366316364,-22773.253652245243,0.0,0.0,0.0,193.0,1.0,155.0,0.0,5.0,3.0,252.0,411.0,5.0,1020.0,1744252646.437214,0.0,2025-04-09 22:37:26.437,BACKWARD,9
115.0,16974.36177424929,3112.100435745768,-64766.8394168424,-63131.83166168114,-37589.95683073483,-35184.90912734379,-30631.411746908638,-22698.01768040868,0.0,0.0,0.0,193.0,1.0,154.0,0.0,15.0,3.0,252.0,410.0,15.0,1020.0,1744252646.4372227,0.0,2025-04-09 22:37:26.437,BACKWARD,9
116.0,16911.083985696314,3119.0294765269136,-64749.24859395607,-63078.25453022177,-37571.65075202593,-35173.39797894931,-30483.577309081236,-22680.58331973354,0.0,0.0,0.0,193.0,1.0,155.0,0.0,26.0,3.0,251.0,411.0,26.0,1019.0,1744252646.4372315,0.0,2025-04-09 22:37:26.437,BACKWARD,9
117.0,16825.677970132587,3091.246258168967,-64794.51087647807,-63145.823853710164,-37604.06078148613,-35197.426104238766,-30467.662867029056,-22705.460811312296,0.0,0.0,0.0,193.0,1.0,154.0,0.0,35.0,3.0,250.0,410.0,35.0,1018.0,1744252646.4372406,0.0,2025-04-09 22:37:26.437,BACKWARD,9
118.0,16880.57385451482,3067.2851881128777,-64804.18918182721,-63106.618893935556,-37669.01495087325,-35266.895326005855,-30229.97441649132,-22766.302259719643,0.0,0.0,0.0,193.0,1.0,155.0,0.0,39.0,3.0,252.0,411.0,39.0,1020.0,1744252646.4372492,0.0,2025-04-09 22:37:26.437,BACKWARD,9
119.0,16971.098419558813,3095.6495518266624,-64793.75091716659,-63148.3048973447,-37625.697270118864,-35215.866293414394,-30515.629710630146,-22735.54625934914,0.0,0.0,0.0,193.0,1.0,155.0,0.0,39.0,3.0,251.0,411.0,39.0,1019.0,1744252646.4372604,0.0,2025-04-09 22:37:26.437,BACKWARD,9
120.0,16924.15975620267,3119.2529939714664,-64739.056198484446,-63069.827922562115,-37562.59829552154,-35158.15408923079,-30581.09797013974,-22670.547386473107,0.0,0.0,0.0,193.0,1.0,155.0,0.0,38.0,3.0,251.0,411.0,38.0,1019.0,1744252646.4372742,0.0,2025-04-09 22:37:26.437,BACKWARD,9
121.0,16839.33488599478,3100.164604206634,-64788.744126408594,-63132.52456575925,-37592.39317088046,-35185.71379014418,-30424.322834530216,-22686.193607591824,0.0,0.0,0.0,193.0,1.0,154.0,0.0,39.0,3.0,249.0,410.0,39.0,1017.0,1744252646.4372833,0.0,2025-04-09 22:37:26.437,BACKWARD,9
122.0,16857.66331644813,3069.9673974475145,-64798.06480384646,-63107.60237069159,-37648.563104696645,-35245.8176309845,-30303.33284179364,-22738.295523917142,0.0,0.0,0.0,193.0,1.0,155.0,0.0,38.0,3.0,253.0,411.0,38.0,1021.0,1744252646.437292,0.0,2025-04-09 22:37:26.437,BACKWARD,9
123.0,16977.44631498412,3096.0295314824025,-64802.736318437615,-63141.33115307464,-37640.739994137286,-35228.15975286481,-30360.843880277145,-22736.84266052755,0.0,0.0,0.0,193.0,1.0,155.0,0.0,38.0,3.0,251.0,411.0,38.0,1019.0,1744252646.4373007,0.0,2025-04-09 22:37:26.437,BACKWARD,9
124.0,16940.118901743757,3124.4162469406424,-64738.89973627326,-63075.706431353865,-37560.966618176295,-35146.28531292502,-30657.675046643624,-22661.092598568513,0.0,0.0,0.0,193.0,1.0,155.0,0.0,39.0,3.0,250.0,411.0,39.0,1018.0,1744252646.4373095,0.0,2025-04-09 22:37:26.437,BACKWARD,9
125.0,16855.629307702697,3110.6475723561734,-64789.86171363136,-63128.45654826839,-37596.282374415685,-35189.021848323566,-30393.00804054833,-22700.43166880985,0.0,0.0,0.0,193.0,1.0,155.0,0.0,39.0,3.0,250.0,411.0,39.0,1018.0,1744252646.4373183,0.0,2025-04-09 22:37:26.437,BACKWARD,9
126.0,16830.550650423844,3064.0888886557686,-64806.20083882819,-63125.9978563783,-37646.50674420676,-35241.68255826027,-30392.046915536754,-22740.798919296136,0.0,0.0,0.0,193.0,1.0,155.0,0.0,39.0,3.0,252.0,411.0,39.0,1020.0,1744252646.4373271,0.0,2025-04-09 22:37:26.437,BACKWARD,9
127.0,16967.432733468144,3095.7613105489386,-64806.62552197284,-63129.28356281323,-37660.43188100241,-35249.19274439725,-30247.095852744085,-22744.933992020367,0.0,0.0,0.0,193.0,1.0,155.0,0.0,39.0,3.0,252.0,411.0,39.0,1020.0,1744252646.4373357,0.0,2025-04-09 22:37:26.437,BACKWARD,9
128.0,16938.01783776496,3111.9663252790365,-64739.63734384029,-63088.692794882394,-37564.38643507796,-35149.21339144867,-30712.637986259222,-22656.734008399726,0.0,0.0,0.0,193.0,1.0,154.0,0.0,40.0,3.0,249.0,410.0,40.0,1017.0,1744252646.4373443,0.0,2025-04-09 22:37:26.437,BACKWARD,9
129.0,16875.120028867725,3117.2860404593994,-64767.509969176055,-63101.20977177737,-37580.36793236351,-35171.29691497051,-30368.77874955878,-22677.543482487617,0.0,0.0,0.0,193.0,1.0,154.0,0.0,40.0,3.0,250.0,410.0,40.0,1018.0,1744252646.4373531,0.0,2025-04-09 22:37:26.437,BACKWARD,9
130.0,16822.928705564584,3070.9955776924585,-64793.77326891104,-63127.294257556714,-37628.35712770905,-35216.87212191488,-30441.846602183177,-22722.515192331695,0.0,0.0,0.0,193.0,1.0,155.0,0.0,40.0,3.0,250.0,411.0,40.0,1018.0,1744252646.437362,0.0,2025-04-09 22:37:26.437,BACKWARD,9
131.0,16956.3015647294,3085.792432521872,-64801.43991725921,-63114.73257717283,-37669.8419654181,-35261.08387244748,-30170.63053496248,-22768.69389637636,0.0,0.0,0.0,193.0,1.0,155.0,0.0,40.0,3.0,252.0,411.0,40.0,1020.0,1744252646.4373705,0.0,2025-04-09 22:37:26.437,BACKWARD,9
132.0,16956.54743391841,3116.2802119589105,-64735.09993971586,-63098.393451976,-37556.54097277415,-35147.559362358974,-30729.111221922783,-22661.2490607797,0.0,0.0,0.0,193.0,1.0,154.0,0.0,41.0,3.0,250.0,410.0,41.0,1018.0,1744252646.4373791,0.0,2025-04-09 22:37:26.437,BACKWARD,9
133.0,16876.34937481277,3110.133482233701,-64764.15720750776,-63096.27003625275,-37578.75860676272,-35176.28135398404,-30359.949810498932,-22670.01094460618,0.0,0.0,0.0,193.0,1.0,154.0,0.0,41.0,3.0,250.0,410.0,41.0,1018.0,1744252646.437388,0.0,2025-04-09 22:37:26.437,BACKWARD,9
134.0,16801.180458209572,3064.647682267151,-64799.00357711358,-63147.299068844215,-37620.1316857495,-35217.408563781806,-30473.027285698332,-22718.201305651823,0.0,0.0,0.0,193.0,1.0,155.0,0.0,41.0,3.0,252.0,411.0,41.0,1020.0,1744252646.4373968,0.0,2025-04-09 22:37:26.437,BACKWARD,9
135.0,16924.047997480393,3074.5048015719417,-64798.6459492023,-63105.546010201695,-37666.26568630525,-35261.441500358764,-30142.19911601533,-22752.712399090815,0.0,0.0,0.0,193.0,1.0,155.0,0.0,41.0,3.0,252.0,411.0,41.0,1020.0,1744252646.4374104,0.0,2025-04-09 22:37:26.437,BACKWARD,9
136.0,16958.35792521929,3107.1607002211454,-64754.858881814354,-63124.63439996653,-37572.991856693254,-35160.72453984315,-30690.97914588203,-22674.72716268625,0.0,0.0,0.0,193.0,1.0,155.0,0.0,41.0,3.0,252.0,411.0,41.0,1020.0,1744252646.437419,0.0,2025-04-09 22:37:26.437,BACKWARD,9
137.0,16896.711814011553,3117.688371859595,-64751.81904456843,-63083.90952156896,-37567.44862406834,-35166.156013745785,-30413.884569869588,-22672.44728475181,0.0,0.0,0.0,193.0,1.0,154.0,0.0,42.0,3.0,250.0,410.0,42.0,1018.0,1744252646.437428,0.0,2025-04-09 22:37:26.437,BACKWARD,9
138.0,16811.663426359108,3079.310426629833,-64794.73439392262,-63152.43997006893,-37602.65262158545,-35209.294880544534,-30471.194442652995,-22722.559895820606,0.0,0.0,0.0,193.0,1.0,154.0,0.0,42.0,3.0,249.0,410.0,42.0,1017.0,1744252646.4374368,0.0,2025-04-09 22:37:26.437,BACKWARD,9
139.0,16902.098584425283,3070.0344526808803,-64797.17073406825,-63104.20490553438,-37659.44840424638,-35267.61058182843,-30166.62957270498,-22756.042809014656,0.0,0.0,0.0,193.0,1.0,154.0,0.0,42.0,3.0,249.0,410.0,42.0,1017.0,1744252646.4374456,0.0,2025-04-09 22:37:26.437,BACKWARD,9
140.0,16970.003184080506,3104.143214719679,-64764.716001119144,-63132.92689715945,-37586.20173766634,-35176.3037057285,-30587.714086498512,-22677.4540755098,0.0,0.0,0.0,193.0,1.0,154.0,0.0,42.0,3.0,252.0,410.0,42.0,1020.0,1744252646.4374545,0.0,2025-04-09 22:37:26.437,BACKWARD,9
141.0,16912.62625606373,3119.431807927109,-64735.278753671504,-63069.44794290638,-37558.172650119384,-35152.07441473895,-30486.46068411597,-22650.363761229964,0.0,0.0,0.0,193.0,1.0,154.0,0.0,42.0,3.0,251.0,410.0,42.0,1019.0,1744252646.4374633,0.0,2025-04-09 22:37:26.437,BACKWARD,9
142.0,16832.450548702545,3099.2481826839667,-64772.71792563414,-63129.97646689135,-37581.39611260845,-35174.001476049605,-30446.294599329784,-22681.879720911948,0.0,0.0,0.0,193.0,1.0,153.0,0.0,42.0,3.0,249.0,409.0,42.0,1017.0,1744252646.9062634,0.0,2025-04-09 22:37:26.906,BACKWARD,9
143.0,16866.62636597471,3062.3901560771656,-64793.996786355594,-63104.24960902329,-37655.983883855806,-35252.076119431986,-30224.922922244423,-22747.951477521834,0.0,0.0,0.0,193.0,1.0,154.0,0.0,42.0,3.0,250.0,410.0,42.0,1018.0,1744252646.9062989,0.0,2025-04-09 22:37:26.906,BACKWARD,9
144.0,16972.17130329267,3102.8915170301816,-64783.044431572496,-63141.71113273039,-37618.097677004065,-35204.80217990901,-30473.899003732087,-22718.134250418458,0.0,0.0,0.0,193.0,1.0,155.0,0.0,42.0,3.0,252.0,411.0,42.0,1020.0,1744252646.906319,0.0,2025-04-09 22:37:26.906,BACKWARD,9
145.0,16928.898326027196,3123.0527905288686,-64723.544087832466,-63063.457675392354,-37547.37675754747,-35144.25130417959,-30594.464313324013,-22653.068322309056,0.0,0.0,0.0,193.0,1.0,154.0,0.0,42.0,3.0,249.0,410.0,42.0,1017.0,1744252646.9063363,0.0,2025-04-09 22:37:26.906,BACKWARD,9
146.0,16843.29114476337,3096.856546027249,-64774.68487914621,-63126.89192615652,-37577.551612562136,-35181.17638601975,-30418.533732716292,-22687.78058144815,0.0,0.0,0.0,193.0,1.0,154.0,0.0,43.0,3.0,249.0,410.0,43.0,1017.0,1744252646.9063537,0.0,2025-04-09 22:37:26.906,BACKWARD,9
147.0,16851.76245591193,3063.7759642333945,-64786.62071068534,-63099.57809443213,-37637.47663944682,-35237.323968091485,-30319.582560012648,-22727.678445300873,0.0,0.0,0.0,193.0,1.0,155.0,0.0,43.0,3.0,251.0,411.0,43.0,1019.0,1744252646.906371,0.0,2025-04-09 22:37:26.906,BACKWARD,9
148.0,16974.31707076038,3091.4250721246094,-64790.48756247611,-63122.30981854318,-37636.22494175732,-35219.420220782784,-30332.300702607718,-22713.887418971946,0.0,0.0,0.0,193.0,1.0,155.0,0.0,42.0,3.0,251.0,411.0,42.0,1019.0,1744252646.9063888,0.0,2025-04-09 22:37:26.906,BACKWARD,9
149.0,16926.596096348298,3108.211232210545,-64730.69664605816,-63066.81043706065,-37549.99191164874,-35144.85480127988,-30664.671142658135,-22639.05377853558,0.0,0.0,0.0,193.0,1.0,154.0,0.0,43.0,3.0,249.0,410.0,43.0,1017.0,1744252646.9064064,0.0,2025-04-09 22:37:26.906,BACKWARD,9
150.0,16851.494234978465,3103.1597379636455,-64771.354469222366,-63103.55670494518,-37573.95298170483,-35177.33188597344,-30380.62517412009,-22663.774807903148,0.0,0.0,0.0,193.0,1.0,154.0,0.0,43.0,3.0,249.0,410.0,43.0,1017.0,1744252646.9064407,0.0,2025-04-09 22:37:26.906,BACKWARD,9
151.0,16815.977313038984,3054.947025173548,-64798.8471149024,-63111.37981550453,-37629.94410156538,-35236.04991865753,-30464.779491994323,-22715.362634105997,0.0,0.0,0.0,193.0,1.0,154.0,0.0,43.0,3.0,249.0,410.0,43.0,1017.0,1744252646.9064496,0.0,2025-04-09 22:37:26.906,BACKWARD,9
152.0,16959.34140197532,3085.121880188213,-64803.13864983781,-63106.93181835793,-37648.80897388566,-35246.84581122945,-30358.87692676508,-22727.298465645134,0.0,0.0,0.0,193.0,1.0,154.0,0.0,43.0,3.0,251.0,410.0,43.0,1019.0,1744252646.9064584,0.0,2025-04-09 22:37:26.906,BACKWARD,9
153.0,16939.4483494101,3114.8720520582265,-64733.15533794825,-63064.307041681655,-37541.92293190038,-35143.80426929048,-30852.135223404795,-22634.0916912665,0.0,0.0,0.0,193.0,1.0,155.0,0.0,43.0,3.0,252.0,411.0,43.0,1020.0,1744252646.9064677,0.0,2025-04-09 22:37:26.906,BACKWARD,9
154.0,16866.447552019068,3112.9274502906146,-64765.788884853,-63071.28078595171,-37560.74310073174,-35169.06174052498,-30482.66088755857,-22648.28504899562,0.0,0.0,0.0,193.0,1.0,154.0,0.0,43.0,3.0,251.0,410.0,43.0,1019.0,1744252646.9064763,0.0,2025-04-09 22:37:26.906,BACKWARD,9
155.0,16813.742138593454,3069.3191968583105,-64786.57600719643,-63090.90561758347,-37597.48936861627,-35205.89741538733,-30558.790929173345,-22682.036183123135,0.0,0.0,0.0,193.0,1.0,154.0,0.0,43.0,3.0,250.0,410.0,43.0,1018.0,1744252646.906485,0.0,2025-04-09 22:37:26.906,BACKWARD,9
156.0,16952.658230383186,3089.145194190168,-64787.44772523019,-63060.64135559099,-37631.32990972161,-35237.681596002774,-30257.26589647125,-22705.72903224576,0.0,0.0,0.0,193.0,1.0,155.0,0.0,43.0,3.0,251.0,411.0,43.0,1019.0,1744252646.906494,0.0,2025-04-09 22:37:26.906,BACKWARD,9
157.0,16954.289907728424,3116.749598592472,-64733.602372837355,-63055.09812296607,-37533.27280679617,-35133.50011509658,-30823.14501084626,-22617.931380025315,0.0,0.0,0.0,193.0,1.0,155.0,0.0,43.0,3.0,251.0,411.0,43.0,1019.0,1744252646.9065027,0.0,2025-04-09 22:37:26.906,BACKWARD,9
158.0,16886.899398195674,3123.4551219290643,-64751.01438176804,-63035.361532612034,-37548.06966162559,-35153.97431301764,-30473.340210120707,-22627.542630141095,0.0,0.0,0.0,193.0,1.0,154.0,0.0,43.0,3.0,250.0,410.0,43.0,1018.0,1744252646.906512,0.0,2025-04-09 22:37:26.906,BACKWARD,9
159.0,16802.90154253263,3074.5718568053076,-64796.27666429003,-63093.85604785157,-37595.43300812638,-35198.99072635063,-30561.830766419265,-22674.660107452884,0.0,0.0,0.0,193.0,1.0,154.0,0.0,43.0,3.0,252.0,410.0,43.0,1020.0,1744252646.9065208,0.0,2025-04-09 22:37:26.906,BACKWARD,9
160.0,16925.612619592266,3086.731205788995,-64790.53226596502,-63042.15646292645,-37637.78956386919,-35240.83319197097,-30236.36701540554,-22704.2091136228,0.0,0.0,0.0,193.0,1.0,154.0,0.0,43.0,3.0,251.0,410.0,43.0,1019.0,1744252646.9065297,0.0,2025-04-09 22:37:26.906,BACKWARD,9
161.0,16971.903082359207,3120.4376364275977,-64744.152396220255,-63055.634564832995,-37545.163934846394,-35135.601179075384,-30765.99160027404,-22627.29676095209,0.0,0.0,0.0,193.0,1.0,154.0,0.0,43.0,3.0,249.0,410.0,43.0,1017.0,1744252646.9065385,0.0,2025-04-09 22:37:26.906,BACKWARD,9
162.0,16903.998482703984,3122.6728108731286,-64741.358428163345,-63011.28870383367,-37541.20767607781,-35137.568132587454,-30515.31678620777,-22622.401728916375,0.0,0.0,0.0,193.0,1.0,154.0,0.0,43.0,3.0,251.0,410.0,43.0,1019.0,1744252646.9065473,0.0,2025-04-09 22:37:26.906,BACKWARD,9
163.0,16818.99479854045,3088.653455812151,-64785.97251009614,-63078.94743429988,-37574.71294101631,-35171.00634229259,-30548.531478468358,-22656.085807810523,0.0,0.0,0.0,193.0,1.0,154.0,0.0,43.0,3.0,252.0,410.0,43.0,1020.0,1744252646.906556,0.0,2025-04-09 22:37:26.906,BACKWARD,9
164.0,16899.05874717936,3080.1597929191344,-64791.38163225432,-63034.62392504501,-37632.93923532239,-35234.99938666813,-30224.565294333137,-22705.2596456122,0.0,0.0,0.0,193.0,1.0,155.0,0.0,43.0,3.0,251.0,411.0,43.0,1019.0,1744252646.906565,0.0,2025-04-09 22:37:26.906,BACKWARD,9
165.0,16970.87490211426,3112.3239531903214,-64771.66739364474,-63073.873588308525,-37573.88592647146,-35169.374664947354,-30582.506130040423,-22666.68053468234,0.0,0.0,0.0,193.0,1.0,154.0,0.0,43.0,3.0,249.0,410.0,43.0,1017.0,1744252646.9065795,0.0,2025-04-09 22:37:26.906,BACKWARD,9
166.0,16908.938218228606,3121.845796328282,-64743.14656771977,-63012.361587567524,-37542.88405691196,-35142.77608904554,-30507.337213437226,-22633.465842421752,0.0,0.0,0.0,193.0,1.0,154.0,0.0,43.0,3.0,250.0,410.0,43.0,1018.0,1744252646.9065883,0.0,2025-04-09 22:37:26.906,BACKWARD,9
167.0,16832.51760393591,3107.294810687877,-64780.96571933815,-63072.08544875211,-37564.20762112232,-35164.03259802253,-30444.148831862076,-22654.38707523192,0.0,0.0,0.0,193.0,1.0,154.0,0.0,44.0,3.0,252.0,410.0,44.0,1020.0,1744252646.9065971,0.0,2025-04-09 22:37:26.906,BACKWARD,9
168.0,16867.028697374906,3075.756499261439,-64794.62263520034,-63040.14480592547,-37630.27937773221,-35231.35605232192,-30240.546791618683,-22699.96228217629,0.0,0.0,0.0,193.0,1.0,154.0,0.0,44.0,3.0,250.0,410.0,44.0,1018.0,1744252646.906606,0.0,2025-04-09 22:37:26.906,BACKWARD,9
169.0,16964.862282855785,3098.6223338392183,-64795.762574167566,-63083.28367272421,-37605.93832802038,-35195.48150247115,-30427.429727009505,-22679.935119144335,0.0,0.0,0.0,193.0,1.0,154.0,0.0,43.0,3.0,251.0,410.0,43.0,1019.0,1744252646.9066143,0.0,2025-04-09 22:37:26.906,BACKWARD,9
170.0,16920.24820092299,3128.104284775768,-64736.10576821635,-63012.20512535633,-37532.64695795142,-35127.152219671276,-30596.163045902616,-22612.1869817003,0.0,0.0,0.0,193.0,1.0,155.0,0.0,43.0,3.0,252.0,411.0,43.0,1020.0,1744252646.9066231,0.0,2025-04-09 22:37:26.906,BACKWARD,9
171.0,16848.56615645482,3125.3103167188547,-64775.891873346794,-63063.0329922477,-37552.5623622611,-35152.946132772704,-30394.483255682382,-22643.30060998209,0.0,0.0,0.0,193.0,1.0,154.0,0.0,44.0,3.0,250.0,410.0,44.0,1018.0,1744252646.906632,0.0,2025-04-09 22:37:26.906,BACKWARD,9
172.0,16842.33001975179,3080.6068278082407,-64794.73439392262,-63051.56654734213,-37616.84597931457,-35215.933348647755,-30326.82452521617,-22696.833037952547,0.0,0.0,0.0,193.0,1.0,155.0,0.0,44.0,3.0,252.0,411.0,44.0,1020.0,1744252646.9066408,0.0,2025-04-09 22:37:26.906,BACKWARD,9
173.0,16966.002221823004,3099.9857902509916,-64806.670225461756,-63081.56258840115,-37626.81485734163,-35220.604863238914,-30296.247338801306,-22708.768869491683,0.0,0.0,0.0,193.0,1.0,155.0,0.0,43.0,3.0,252.0,411.0,43.0,1020.0,1744252646.9066498,0.0,2025-04-09 22:37:26.906,BACKWARD,9
174.0,16931.625238850742,3121.7340376060056,-64744.28650668699,-63030.71236976533,-37536.44675450883,-35135.48942035311,-30678.395113753693,-22635.52220291164,0.0,0.0,0.0,193.0,1.0,154.0,0.0,44.0,3.0,249.0,410.0,44.0,1017.0,1744252646.9066584,0.0,2025-04-09 22:37:26.906,BACKWARD,9
175.0,16859.160883326636,3122.918680062137,-64780.92101584924,-63061.84834979157,-37559.089071642054,-35159.942228787215,-30378.054723507732,-22657.181043288834,0.0,0.0,0.0,193.0,1.0,154.0,0.0,44.0,3.0,250.0,410.0,44.0,1018.0,1744252646.9066677,0.0,2025-04-09 22:37:26.906,BACKWARD,9
176.0,16822.124042764193,3080.271551641411,-64805.23971381661,-63071.83957956309,-37613.42616241291,-35211.619461967886,-30415.896226870565,-22699.805819965106,0.0,0.0,0.0,193.0,1.0,155.0,0.0,44.0,3.0,251.0,411.0,44.0,1019.0,1744252646.9066763,0.0,2025-04-09 22:37:26.906,BACKWARD,9
177.0,16960.481340942544,3103.360903663743,-64813.241638331616,-63070.945509784884,-37639.555351681156,-35236.65341575783,-30202.973509189313,-22717.30723587361,0.0,0.0,0.0,193.0,1.0,155.0,0.0,44.0,3.0,253.0,411.0,44.0,1021.0,1744252646.9066875,0.0,2025-04-09 22:37:26.906,BACKWARD,9
178.0,16945.863300068773,3125.8914620746928,-64744.17474796472,-63042.15646292645,-37532.177571317865,-35133.85774300787,-30716.9518729391,-22623.966351028248,0.0,0.0,0.0,193.0,1.0,154.0,0.0,44.0,3.0,249.0,410.0,44.0,1017.0,1744252646.9066963,0.0,2025-04-09 22:37:26.906,BACKWARD,9
179.0,16877.3328515688,3126.114979519246,-64771.37682096682,-63047.36441938453,-37549.27665582617,-35160.76924333206,-30355.926496496977,-22647.323923984044,0.0,0.0,0.0,193.0,1.0,154.0,0.0,44.0,3.0,250.0,410.0,44.0,1018.0,1744252646.906705,0.0,2025-04-09 22:37:26.906,BACKWARD,9
180.0,16824.29216197636,3087.46881335602,-64788.967643853146,-63070.99021327379,-37580.32322887459,-35191.43583672474,-30445.892267929587,-22674.324831286056,0.0,0.0,0.0,193.0,1.0,155.0,0.0,44.0,3.0,252.0,411.0,44.0,1020.0,1744252646.9067185,0.0,2025-04-09 22:37:26.906,BACKWARD,9
181.0,16951.31712571587,3095.1578134486454,-64797.75187942408,-63050.314849652634,-37626.412525941436,-35240.184991381764,-30124.76475534019,-22718.9612649633,0.0,0.0,0.0,193.0,1.0,155.0,0.0,44.0,3.0,251.0,411.0,44.0,1019.0,1744252646.906727,0.0,2025-04-09 22:37:26.906,BACKWARD,9
182.0,16963.87880609975,3123.7456946069833,-64742.81129155294,-63052.86294852054,-37528.93656837184,-35130.81790576195,-30696.678840718134,-22628.05672026357,0.0,0.0,0.0,193.0,1.0,154.0,0.0,44.0,3.0,250.0,410.0,44.0,1018.0,1744252646.9067357,0.0,2025-04-09 22:37:26.906,BACKWARD,9
183.0,16892.19676163158,3121.8681480727373,-64758.68103011621,-63035.09331167857,-37544.04634762363,-35150.88977228281,-30375.640735106557,-22631.1412609984,0.0,0.0,0.0,193.0,1.0,155.0,0.0,44.0,3.0,252.0,411.0,44.0,1020.0,1744252646.9067445,0.0,2025-04-09 22:37:26.906,BACKWARD,9
184.0,16817.407824684124,3088.049958711858,-64788.408850241765,-63083.93187331341,-37575.47290032779,-35181.891641842325,-30477.341172378205,-22673.0507818521,0.0,0.0,0.0,193.0,1.0,154.0,0.0,44.0,3.0,248.0,410.0,44.0,1016.0,1744252646.9067533,0.0,2025-04-09 22:37:26.906,BACKWARD,9
185.0,16924.58443934732,3090.4415953685757,-64793.61680669985,-63044.25752690525,-37632.626310900014,-35244.43182282827,-30144.68015964987,-22726.9631894783,0.0,0.0,0.0,193.0,1.0,154.0,0.0,44.0,3.0,252.0,410.0,44.0,1020.0,1744252646.9067621,0.0,2025-04-09 22:37:26.906,BACKWARD,9
186.0,16975.009974838493,3123.6115841402516,-64747.05812299945,-63061.937756769395,-37538.19019057634,-35140.786783789015,-30646.745043604977,-22642.272429737142,0.0,0.0,0.0,193.0,1.0,155.0,0.0,44.0,3.0,251.0,411.0,44.0,1019.0,1744252646.9067707,0.0,2025-04-09 22:37:26.906,BACKWARD,9
187.0,16900.53396231341,3123.879805073715,-64747.32634393291,-63022.73279699479,-37538.50311499871,-35148.14050771481,-30433.621160223625,-22642.138319270412,0.0,0.0,0.0,193.0,1.0,154.0,0.0,44.0,3.0,249.0,410.0,44.0,1017.0,1744252646.9067795,0.0,2025-04-09 22:37:26.906,BACKWARD,9
188.0,16812.937475793064,3091.1792029356006,-64791.15811480977,-63089.85508559407,-37572.54482180415,-35179.54470867452,-30463.88542221611,-22679.44338076632,0.0,0.0,0.0,193.0,1.0,154.0,0.0,44.0,3.0,252.0,410.0,44.0,1020.0,1744252646.9067883,0.0,2025-04-09 22:37:26.906,BACKWARD,9
189.0,16881.803200459864,3070.235618380978,-64799.07063234695,-63047.27501240671,-37635.44263070138,-35245.59411353995,-30189.45070379385,-22733.31108490361,0.0,0.0,0.0,193.0,1.0,155.0,0.0,44.0,3.0,251.0,411.0,44.0,1019.0,1744252646.9067972,0.0,2025-04-09 22:37:26.906,BACKWARD,9
190.0,16957.910890330182,3091.3803686356987,-64787.224207785635,-63095.063042052156,-37584.07832194309,-35186.80902562249,-30539.657835919603,-22686.931215158846,0.0,0.0,0.0,193.0,1.0,154.0,0.0,44.0,3.0,250.0,410.0,44.0,1018.0,1744252646.9068058,0.0,2025-04-09 22:37:26.906,BACKWARD,9
191.0,16902.366805358746,3110.0887787447905,-64744.152396220255,-63027.58312554159,-37533.362213773995,-35151.00153100509,-30529.21957125897,-22640.461938436263,0.0,0.0,0.0,193.0,1.0,154.0,0.0,44.0,3.0,250.0,410.0,44.0,1018.0,1744252646.9068143,0.0,2025-04-09 22:37:26.906,BACKWARD,9
192.0,16827.71197887802,3104.925525775615,-64777.232978014115,-63081.651995378976,-37548.78491744815,-35168.39118819132,-30424.479296741403,-22661.33846775752,0.0,0.0,0.0,193.0,1.0,155.0,0.0,44.0,3.0,252.0,411.0,44.0,1020.0,1744252646.9068232,0.0,2025-04-09 22:37:26.906,BACKWARD,9
193.0,16857.126874581205,3072.090813170769,-64785.614882184855,-63047.90086125146,-37609.8275315556,-35229.94789242124,-30256.617695882047,-22706.64545376843,0.0,0.0,0.0,193.0,1.0,154.0,0.0,44.0,3.0,249.0,410.0,44.0,1017.0,1744252646.906832,0.0,2025-04-09 22:37:26.906,BACKWARD,9
194.0,16973.713573660087,3100.3881216511872,-64779.110524548356,-63077.67338486593,-37585.97822022179,-35198.07430482797,-30406.441438965972,-22690.52984601615,0.0,0.0,0.0,193.0,1.0,154.0,0.0,44.0,3.0,251.0,410.0,44.0,1019.0,1744252646.9068453,0.0,2025-04-09 22:37:26.906,BACKWARD,9
195.0,16922.706892813076,3118.940069549092,-64728.975561735104,-63019.08946264857,-37522.96865260228,-35141.23381867812,-30624.281540427393,-22640.730159369727,0.0,0.0,0.0,193.0,1.0,155.0,0.0,44.0,3.0,252.0,411.0,44.0,1020.0,1744252646.9068542,0.0,2025-04-09 22:37:26.906,BACKWARD,9
196.0,16841.123025551206,3107.9877147659918,-64777.00946056956,-63071.794876074186,-37554.23874309525,-35168.748816102605,-30392.49395042586,-22651.079017052536,0.0,0.0,0.0,193.0,1.0,154.0,0.0,44.0,3.0,250.0,410.0,44.0,1018.0,1744252646.9068627,0.0,2025-04-09 22:37:26.906,BACKWARD,9
197.0,16824.403920698634,3061.2725688544,-64799.98705386962,-63070.29730919568,-37615.080191502595,-35235.49112504615,-30354.048949962733,-22710.73582300375,0.0,0.0,0.0,193.0,1.0,154.0,0.0,44.0,3.0,251.0,410.0,44.0,1019.0,1744252646.9068716,0.0,2025-04-09 22:37:26.906,BACKWARD,9
198.0,16961.308355487392,3092.6767698141066,-64799.025928858035,-63083.596597146585,-37614.83432231359,-35232.7642122226,-30278.9470885929,-22720.25766614171,0.0,0.0,0.0,193.0,1.0,154.0,0.0,44.0,3.0,250.0,410.0,44.0,1018.0,1744252646.9068804,0.0,2025-04-09 22:37:26.906,BACKWARD,9
199.0,16927.199593448593,3115.2967352028772,-64732.19421293667,-63034.40040760046,-37522.253396779706,-35135.51177209756,-30692.811988927366,-22634.739891855705,0.0,0.0,0.0,193.0,1.0,154.0,0.0,44.0,3.0,249.0,410.0,44.0,1017.0,1744252646.906889,0.0,2025-04-09 22:37:26.906,BACKWARD,9
200.0,16848.208528543535,3109.552336877863,-64774.01432681255,-63066.09518123808,-37554.70812972881,-35169.97816204765,-30361.045045977244,-22665.09356082601,0.0,0.0,0.0,193.0,1.0,154.0,0.0,44.0,3.0,252.0,410.0,44.0,1020.0,1744252646.906898,0.0,2025-04-09 22:37:26.906,BACKWARD,9
201.0,16806.835449556762,3066.234656123478,-64795.315539278454,-63078.7909720887,-37606.765342565224,-35216.49214225914,-30425.127497330606,-22712.523962560175,0.0,0.0,0.0,193.0,1.0,154.0,0.0,44.0,3.0,253.0,410.0,44.0,1021.0,1744252646.9069066,0.0,2025-04-09 22:37:26.906,BACKWARD,9
202.0,16956.949765318604,3098.3317611612993,-64792.1415915658,-63062.11657072503,-37634.54856092317,-35237.39102332485,-30254.40487318097,-22735.143927948946,0.0,0.0,0.0,193.0,1.0,154.0,0.0,44.0,3.0,248.0,410.0,44.0,1016.0,1744252646.9069152,0.0,2025-04-09 22:37:26.906,BACKWARD,9
203.0,16956.726247874052,3135.7262296350277,-64719.4760703416,-63029.86300347603,-37522.47691422426,-35121.58663530191,-30847.19548788017,-22633.66700812185,0.0,0.0,0.0,193.0,1.0,154.0,0.0,44.0,3.0,253.0,410.0,44.0,1021.0,1744252646.906924,0.0,2025-04-09 22:37:26.906,BACKWARD,9
204.0,16881.24440684848,3134.630994156718,-64751.93080329071,-63036.054436690145,-37544.538086001645,-35156.097728740904,-30484.538434092814,-22659.550328201098,0.0,0.0,0.0,193.0,1.0,154.0,0.0,44.0,3.0,251.0,410.0,44.0,1019.0,1744252646.9069324,0.0,2025-04-09 22:37:26.906,BACKWARD,9
205.0,16811.79753682584,3088.8769732567043,-64785.458419973664,-63078.00866103276,-37588.41456036742,-35195.950889104715,-30579.332182327773,-22703.091526400036,0.0,0.0,0.0,193.0,1.0,154.0,0.0,44.0,3.0,250.0,410.0,44.0,1018.0,1744252646.9069412,0.0,2025-04-09 22:37:26.906,BACKWARD,9
206.0,16931.133500472726,3088.653455812151,-64803.40687077128,-63058.89791952347,-37648.54075295219,-35250.824421742494,-30247.967570777844,-22745.045750742647,0.0,0.0,0.0,193.0,1.0,155.0,0.0,44.0,3.0,252.0,411.0,44.0,1020.0,1744252646.90695,0.0,2025-04-09 22:37:26.906,BACKWARD,9
207.0,16943.650477367697,3111.2957729453774,-64759.2845272165,-63076.55579764317,-37558.35146407503,-35155.58363861843,-30812.86320839682,-22672.424933007354,0.0,0.0,0.0,193.0,1.0,155.0,0.0,44.0,3.0,252.0,411.0,44.0,1020.0,1744252646.9069588,0.0,2025-04-09 22:37:26.906,BACKWARD,9
208.0,16874.87415967872,3116.7048951035613,-64768.18052150971,-63046.403294372954,-37564.9675804338,-35168.748816102605,-30507.761896581876,-22678.459904010288,0.0,0.0,0.0,193.0,1.0,154.0,0.0,44.0,3.0,250.0,410.0,44.0,1018.0,1744252646.9069672,0.0,2025-04-09 22:37:26.906,BACKWARD,9
209.0,16809.629417613676,3096.141290204679,-64788.98999559761,-63089.743326871794,-37585.173557421396,-35182.517490687074,-30582.751999229433,-22693.07794488406,0.0,0.0,0.0,193.0,1.0,155.0,0.0,44.0,3.0,252.0,411.0,44.0,1020.0,1744252646.9069805,0.0,2025-04-09 22:37:26.906,BACKWARD,9
210.0,16911.799241518886,3093.1908599365784,-64795.270835789546,-63046.35859088405,-37647.69138666289,-35245.41529958431,-30212.718869771827,-22741.78239605217,0.0,0.0,0.0,193.0,1.0,154.0,0.0,44.0,3.0,251.0,410.0,44.0,1019.0,1744252646.906989,0.0,2025-04-09 22:37:26.906,BACKWARD,9
211.0,16961.97890782105,3112.7709880794273,-64767.509969176055,-63079.37211744453,-37571.85191772603,-35161.48449915463,-30647.326188960815,-22671.553214973595,0.0,0.0,0.0,193.0,1.0,154.0,0.0,44.0,3.0,250.0,410.0,44.0,1018.0,1744252646.9069977,0.0,2025-04-09 22:37:26.906,BACKWARD,9
212.0,16887.18997087359,3106.892479287682,-64759.23982372759,-63034.19924190036,-37559.62551350898,-35161.39509217681,-30461.31497160375,-22663.797159647605,0.0,0.0,0.0,193.0,1.0,154.0,0.0,44.0,3.0,252.0,410.0,44.0,1020.0,1744252646.9070063,0.0,2025-04-09 22:37:26.907,BACKWARD,9
213.0,16806.969560023495,3081.590304564274,-64797.72952767963,-63098.16993453145,-37584.99474346575,-35183.12098778737,-30461.337323348205,-22688.898168670916,0.0,0.0,0.0,193.0,1.0,154.0,0.0,44.0,3.0,249.0,410.0,44.0,1017.0,1744252646.907015,0.0,2025-04-09 22:37:26.907,BACKWARD,9
214.0,16872.77309569992,3066.212304379023,-64803.652739960286,-63055.925137510916,-37647.512572707245,-35248.49984031914,-30213.635291294493,-22751.1701287234,0.0,0.0,0.0,193.0,1.0,154.0,0.0,44.0,3.0,252.0,410.0,44.0,1020.0,1744252646.9070237,0.0,2025-04-09 22:37:26.907,BACKWARD,9
215.0,16961.062486298382,3099.2928861728774,-64788.565312452956,-63094.5936554186,-37599.143397705964,-35185.02088606607,-30515.003861785397,-22698.06238389759,0.0,0.0,0.0,193.0,1.0,155.0,0.0,44.0,3.0,251.0,411.0,44.0,1019.0,1744252646.907032,0.0,2025-04-09 22:37:26.907,BACKWARD,9
216.0,16912.6933112971,3122.8292730843154,-64734.54114610448,-63019.13416613748,-37538.324301043074,-35131.57786507343,-30553.225344803974,-22634.024636033137,0.0,0.0,0.0,193.0,1.0,154.0,0.0,44.0,3.0,249.0,410.0,44.0,1017.0,1744252646.9070408,0.0,2025-04-09 22:37:26.907,BACKWARD,9
217.0,16835.311571992825,3108.9711915220255,-64775.06485880195,-63080.13207675602,-37560.58663852056,-35161.39509217681,-30419.181933305495,-22665.09356082601,0.0,0.0,0.0,193.0,1.0,155.0,0.0,44.0,3.0,252.0,411.0,44.0,1020.0,1744252646.9070497,0.0,2025-04-09 22:37:26.907,BACKWARD,9
218.0,16857.305688536846,3080.271551641411,-64784.29612926199,-63051.94652699787,-37617.605938626046,-35226.282206330565,-30281.42813222744,-22716.63668353995,0.0,0.0,0.0,193.0,1.0,155.0,0.0,44.0,3.0,249.0,411.0,44.0,1017.0,1744252646.907058,0.0,2025-04-09 22:37:26.907,BACKWARD,9
219.0,16974.54058820493,3108.1888804660894,-64781.30099550498,-63081.3390709566,-37599.47867387279,-35200.845921140426,-30357.28995290875,-22696.765982719182,0.0,0.0,0.0,193.0,1.0,154.0,0.0,44.0,3.0,249.0,410.0,44.0,1017.0,1744252646.9070668,0.0,2025-04-09 22:37:26.907,BACKWARD,9
220.0,16925.724378314542,3127.791360353394,-64723.09705294336,-63021.168174882914,-37525.71791717028,-35128.538027827504,-30618.783011291387,-22627.92260979684,0.0,0.0,0.0,193.0,1.0,155.0,0.0,44.0,3.0,252.0,411.0,44.0,1020.0,1744252646.9070752,0.0,2025-04-09 22:37:26.907,BACKWARD,9
221.0,16848.029714587894,3119.6106218827513,-64767.778190109515,-63068.66563185044,-37555.42338555138,-35161.66331311027,-30364.800139045736,-22659.170348545354,0.0,0.0,0.0,193.0,1.0,154.0,0.0,44.0,3.0,251.0,410.0,44.0,1019.0,1744252646.907084,0.0,2025-04-09 22:37:26.907,BACKWARD,9
222.0,16829.790691112365,3071.822592237305,-64784.76551589555,-63064.8881870375,-37612.19681646786,-35215.19574108073,-30356.507641852815,-22709.171200891877,0.0,0.0,0.0,193.0,1.0,154.0,0.0,44.0,3.0,250.0,410.0,44.0,1018.0,1744252646.9070926,0.0,2025-04-09 22:37:26.907,BACKWARD,9
223.0,16954.111093772783,3086.395929622165,-64802.82572541544,-63087.038765792706,-37639.51064819225,-35235.513476790606,-30243.36311142005,-22738.474337872787,0.0,0.0,0.0,193.0,1.0,154.0,0.0,44.0,3.0,249.0,410.0,44.0,1017.0,1744252646.9071012,0.0,2025-04-09 22:37:26.907,BACKWARD,9
224.0,16924.740901558507,3116.079046258813,-64735.546974604964,-63043.609326316044,-37538.883094654455,-35135.824696519936,-30699.942195408606,-22643.568830915552,0.0,0.0,0.0,193.0,1.0,155.0,0.0,44.0,3.0,252.0,411.0,44.0,1020.0,1744252646.9071145,0.0,2025-04-09 22:37:26.907,BACKWARD,9
225.0,16863.653583962154,3121.8010928393714,-64758.39045743829,-63053.958183998846,-37550.61776049349,-35151.113289727364,-30359.34631339864,-22653.984743831727,0.0,0.0,0.0,193.0,1.0,154.0,0.0,44.0,3.0,250.0,410.0,44.0,1018.0,1744252646.907123,0.0,2025-04-09 22:37:26.907,BACKWARD,9
226.0,16818.391301440155,3074.9965399499583,-64780.943367593696,-63072.04074526319,-37596.59529883806,-35196.39792399382,-30421.998253106864,-22700.02933740966,0.0,0.0,0.0,193.0,1.0,155.0,0.0,44.0,3.0,250.0,411.0,44.0,1018.0,1744252646.907132,0.0,2025-04-09 22:37:26.907,BACKWARD,9
227.0,16943.49401515651,3088.2958279008662,-64797.05897534597,-63064.82113180413,-37641.298787748674,-35238.4192035698,-30156.414825488908,-22743.436425141863,0.0,0.0,0.0,193.0,1.0,154.0,0.0,44.0,3.0,248.0,410.0,44.0,1016.0,1744252646.9071407,0.0,2025-04-09 22:37:26.907,BACKWARD,9
228.0,16945.5503756464,3124.192729496089,-64727.20977392314,-63042.33527688209,-37524.9579578588,-35118.345632355886,-30719.254102617993,-22633.734063355216,0.0,0.0,0.0,193.0,1.0,154.0,0.0,44.0,3.0,250.0,410.0,44.0,1018.0,1744252646.9071493,0.0,2025-04-09 22:37:26.907,BACKWARD,9
229.0,16881.020889403928,3131.9040813331703,-64744.085340986894,-63028.94658195336,-37535.731498686255,-35135.91410349776,-30349.511545838304,-22628.77197608614,0.0,0.0,0.0,193.0,1.0,155.0,0.0,44.0,3.0,251.0,411.0,44.0,1019.0,1744252646.907158,0.0,2025-04-09 22:37:26.907,BACKWARD,9
230.0,16810.925818792086,3089.1675459346234,-64777.27768150302,-63076.824018576626,-37577.596316051044,-35176.862499339884,-30444.461756284447,-22670.88266263994,0.0,0.0,0.0,193.0,1.0,154.0,0.0,44.0,3.0,249.0,410.0,44.0,1017.0,1744252646.9071665,0.0,2025-04-09 22:37:26.907,BACKWARD,9
231.0,16931.312314428367,3096.4095111381425,-64785.63723392931,-63044.302230394154,-37637.230770257804,-35232.20541861122,-30112.270130189674,-22722.917523731892,0.0,0.0,0.0,193.0,1.0,155.0,0.0,44.0,3.0,252.0,411.0,44.0,1020.0,1744252646.9071753,0.0,2025-04-09 22:37:26.907,BACKWARD,9
232.0,16955.6533641402,3118.8953660601815,-64744.75589332055,-63067.48098939431,-37552.27178958318,-35144.00543499058,-30673.74595090699,-22655.25879326568,0.0,0.0,0.0,193.0,1.0,155.0,0.0,44.0,3.0,251.0,411.0,44.0,1019.0,1744252646.907184,0.0,2025-04-09 22:37:26.907,BACKWARD,9
233.0,16889.29103485239,3123.075142273324,-64741.73840781909,-63031.56173605463,-37544.64984472392,-35158.44466190871,-30390.415238191516,-22658.90212761189,0.0,0.0,0.0,193.0,1.0,154.0,0.0,44.0,3.0,249.0,410.0,44.0,1017.0,1744252646.9071927,0.0,2025-04-09 22:37:26.907,BACKWARD,9
234.0,16807.640112357156,3089.301656401355,-64778.59643442589,-63091.06207979466,-37573.52829856018,-35187.568984933976,-30452.59779126618,-22691.803895450103,0.0,0.0,0.0,193.0,1.0,154.0,0.0,44.0,3.0,251.0,410.0,44.0,1019.0,1744252646.9072013,0.0,2025-04-09 22:37:26.907,BACKWARD,9
235.0,16900.176334402124,3081.567952819819,-64786.28543451851,-63046.15742518395,-37639.57770342561,-35246.59994204044,-30143.897848593933,-22737.60261983903,0.0,0.0,0.0,193.0,1.0,155.0,0.0,44.0,3.0,251.0,411.0,44.0,1019.0,1744252646.9072099,0.0,2025-04-09 22:37:26.907,BACKWARD,9
236.0,16966.248091012014,3117.7330753485057,-64753.98716378059,-63074.96882378684,-37564.542897289146,-35156.25419095209,-30593.05615342333,-22665.2500230372,0.0,0.0,0.0,193.0,1.0,155.0,0.0,44.0,3.0,252.0,411.0,44.0,1020.0,1744252646.9072185,0.0,2025-04-09 22:37:26.907,BACKWARD,9
237.0,16901.673901280632,3129.5571481653633,-64727.56740183442,-63013.74739572375,-37532.579902718055,-35139.043347721505,-30461.493785559393,-22638.673798879838,0.0,0.0,0.0,193.0,1.0,154.0,0.0,44.0,3.0,250.0,410.0,44.0,1018.0,1744252646.9072273,0.0,2025-04-09 22:37:26.907,BACKWARD,9
238.0,16816.312589205812,3102.6009443522626,-64772.58381516741,-63082.7919343462,-37563.425310066385,-35170.26873472556,-30421.193590306473,-22677.655241209894,0.0,0.0,0.0,193.0,1.0,155.0,0.0,44.0,3.0,250.0,411.0,44.0,1018.0,1744252646.907236,0.0,2025-04-09 22:37:26.907,BACKWARD,9
239.0,16868.034525875395,3082.171449920112,-64783.938501350705,-63048.21378567383,-37632.693366133375,-35242.151944893834,-30196.49150329727,-22739.524869862184,0.0,0.0,0.0,193.0,1.0,155.0,0.0,44.0,3.0,251.0,411.0,44.0,1019.0,1744252646.9072769,0.0,2025-04-09 22:37:26.907,BACKWARD,9
240.0,16971.567806192375,3120.4823399165084,-64764.76070460805,-63081.69669886788,-37586.0229237107,-35183.2550982541,-30464.868898972145,-22704.54438978963,0.0,0.0,0.0,193.0,1.0,154.0,0.0,44.0,3.0,250.0,410.0,44.0,1018.0,1744252646.9072857,0.0,2025-04-09 22:37:26.907,BACKWARD,9
241.0,16931.40172140619,3144.689279161606,-64703.18164863368,-62996.73771819326,-37516.82192287707,-35111.28248110801,-30564.04358912034,-22631.00715053167,0.0,0.0,0.0,193.0,1.0,155.0,0.0,44.0,3.0,252.0,411.0,44.0,1020.0,1744252646.9072945,0.0,2025-04-09 22:37:26.907,BACKWARD,9
242.0,16839.804272628342,3115.810825325349,-64762.48082667361,-63069.22442546183,-37557.34563557454,-35154.53310662903,-30395.26556673832,-22668.15574981639,0.0,0.0,0.0,193.0,1.0,154.0,0.0,44.0,3.0,251.0,410.0,44.0,1019.0,1744252646.9073029,0.0,2025-04-09 22:37:26.907,BACKWARD,9
243.0,16841.547708695856,3075.108298672235,-64783.78203913952,-63057.26624217824,-37623.99853754026,-35226.773944708584,-30290.03355384273,-22723.02928245417,0.0,0.0,0.0,193.0,1.0,154.0,0.0,44.0,3.0,250.0,410.0,44.0,1018.0,1744252646.9073117,0.0,2025-04-09 22:37:26.907,BACKWARD,9
244.0,16966.382201478744,3110.3122961893437,-64780.63044317132,-63080.8920360675,-37611.43685715638,-35204.601014208914,-30323.248246103318,-22709.752346247715,0.0,0.0,0.0,193.0,1.0,155.0,0.0,44.0,3.0,251.0,411.0,44.0,1019.0,1744252646.90732,0.0,2025-04-09 22:37:26.907,BACKWARD,9
245.0,16923.332741657825,3134.8098081123603,-64712.077642926895,-63016.25079110275,-37523.46039098029,-35115.17168464323,-30636.15031673316,-22627.587333630006,0.0,0.0,0.0,193.0,1.0,154.0,0.0,44.0,3.0,249.0,410.0,44.0,1017.0,1744252646.9073288,0.0,2025-04-09 22:37:26.907,BACKWARD,9
246.0,16842.777054640897,3120.9293748056148,-64760.178596994716,-63064.307041681655,-37557.65855999691,-35158.55642063099,-30353.065473206698,-22670.413276006377,0.0,0.0,0.0,193.0,1.0,154.0,0.0,44.0,3.0,250.0,410.0,44.0,1018.0,1744252646.9073372,0.0,2025-04-09 22:37:26.907,BACKWARD,9
247.0,16820.917048563606,3075.8906097281706,-64776.85299835837,-63066.31869868263,-37609.44755189986,-35210.837150911946,-30369.091673981155,-22716.45786958431,0.0,0.0,0.0,193.0,1.0,155.0,0.0,44.0,3.0,252.0,411.0,44.0,1020.0,1744252646.907346,0.0,2025-04-09 22:37:26.907,BACKWARD,9
248.0,16963.69999214411,3103.7632350639387,-64777.90353034777,-63065.15640797096,-37626.45722943035,-35220.24723532763,-30215.468134339826,-22728.930142990368,0.0,0.0,0.0,193.0,1.0,155.0,0.0,44.0,3.0,251.0,411.0,44.0,1019.0,1744252646.9073548,0.0,2025-04-09 22:37:26.907,BACKWARD,9
249.0,16937.16847147566,3125.824406841327,-64716.413881351225,-63033.90866922244,-37529.517713727684,-35123.97827195862,-30704.725468722045,-22641.735987870215,0.0,0.0,0.0,193.0,1.0,154.0,0.0,44.0,3.0,249.0,410.0,44.0,1017.0,1744252646.9073637,0.0,2025-04-09 22:37:26.907,BACKWARD,9
250.0,16877.19874110207,3142.521159949441,-64737.89390777277,-63037.529651824196,-37540.067737110585,-35139.602141332885,-30353.7136737959,-22652.71069439777,0.0,0.0,0.0,193.0,1.0,154.0,0.0,44.0,3.0,252.0,410.0,44.0,1020.0,1744252646.9073722,0.0,2025-04-09 22:37:26.907,BACKWARD,9
251.0,16814.43504267157,3090.8215750243157,-64775.44483845769,-63076.265224965246,-37596.23767092677,-35197.04612458302,-30424.367538019127,-22712.456907326807,0.0,0.0,0.0,193.0,1.0,154.0,0.0,45.0,3.0,250.0,410.0,45.0,1018.0,1744252646.9073808,0.0,2025-04-09 22:37:26.907,BACKWARD,9
252.0,16942.130558744735,3101.2821914293995,-64787.89476011929,-63062.51890212523,-37644.13745929449,-35240.58732278196,-30138.198153757832,-22748.890250788958,0.0,0.0,0.0,193.0,1.0,155.0,0.0,44.0,3.0,252.0,411.0,44.0,1020.0,1744252646.9073894,0.0,2025-04-09 22:37:26.907,BACKWARD,9
253.0,16943.762236089973,3130.138293521201,-64725.15341343325,-63051.924175253414,-37535.15035333042,-35125.87817023732,-30714.783753726933,-22644.86523209396,0.0,0.0,0.0,193.0,1.0,154.0,0.0,44.0,3.0,251.0,410.0,44.0,1019.0,1744252646.9073982,0.0,2025-04-09 22:37:26.907,BACKWARD,9
254.0,16886.318252839836,3147.4385437296087,-64735.25640192705,-63029.840651731574,-37541.408841777906,-35140.63032157783,-30365.314229168205,-22652.241307764212,0.0,0.0,0.0,193.0,1.0,154.0,0.0,44.0,3.0,249.0,410.0,44.0,1017.0,1744252646.907412,0.0,2025-04-09 22:37:26.907,BACKWARD,9
255.0,16819.821813085295,3102.8244617968157,-64763.21843424063,-63075.4382104204,-37575.83052823908,-35175.78961560602,-30452.910715688555,-22690.64160473843,0.0,0.0,0.0,193.0,1.0,155.0,0.0,44.0,3.0,252.0,411.0,44.0,1020.0,1744252646.9074209,0.0,2025-04-09 22:37:26.907,BACKWARD,9
0.0,16919.86822126725,3087.08883370028,-64786.39719324079,-63054.91930901043,-37652.474659976324,-35250.06446243101,-30121.747269838725,-22760.69197186136,0.0,0.0,0.0,193.0,1.0,154.0,0.0,44.0,3.0,251.0,410.0,44.0,1019.0,1744252646.9074295,0.0,2025-04-09 22:37:26.907,BACKWARD,9
1.0,16960.526044431455,3120.2364707275,-64736.79867229446,-63068.44211440589,-37555.19986810683,-35144.7430425576,-30680.92086087714,-22683.466694768274,0.0,0.0,0.0,193.0,1.0,154.0,0.0,44.0,3.0,249.0,410.0,44.0,1017.0,1744252646.907438,0.0,2025-04-09 22:37:26.907,BACKWARD,9
2.0,16896.600055289276,3132.664040644651,-64724.304047143945,-63019.15651788194,-37540.29125455514,-35143.13371695682,-30419.964244361432,-22666.233499793234,0.0,0.0,0.0,193.0,1.0,155.0,0.0,44.0,3.0,252.0,411.0,44.0,1020.0,1744252646.9074464,0.0,2025-04-09 22:37:26.907,BACKWARD,9
3.0,16806.41076641211,3094.621371581718,-64771.421524455734,-63089.85508559407,-37576.277563128184,-35174.06853128297,-30452.12840463262,-22690.798066949614,0.0,0.0,0.0,193.0,1.0,155.0,0.0,44.0,3.0,253.0,411.0,44.0,1021.0,1744252646.9074552,0.0,2025-04-09 22:37:26.907,BACKWARD,9
4.0,16893.76138374345,3090.2627814129332,-64774.506065190566,-63042.067055948624,-37634.63796790099,-35229.992595910146,-30151.408034730917,-22725.219753410787,0.0,0.0,0.0,193.0,1.0,154.0,0.0,44.0,3.0,249.0,410.0,44.0,1017.0,1744252646.907464,0.0,2025-04-09 22:37:26.907,BACKWARD,9
5.0,16971.947785848115,3125.623241141229,-64747.8851375443,-63075.66172786495,-37567.962714190806,-35153.57198161745,-30563.976533886977,-22675.48712199773,0.0,0.0,0.0,193.0,1.0,154.0,0.0,44.0,3.0,250.0,410.0,44.0,1018.0,1744252646.9074726,0.0,2025-04-09 22:37:26.907,BACKWARD,9
6.0,16907.328892627822,3132.306412733366,-64722.47120409861,-63018.55302078164,-37539.39718477693,-35133.790687774504,-30487.75708529438,-22654.76705488766,0.0,0.0,0.0,193.0,1.0,155.0,0.0,44.0,3.0,252.0,411.0,44.0,1020.0,1744252647.382278,0.0,2025-04-09 22:37:27.382,BACKWARD,9
7.0,16824.33686546527,3111.7651595789384,-64767.24174824259,-63086.323509970134,-37570.51081305872,-35162.49032765512,-30442.226581838917,-22688.361726803985,0.0,0.0,0.0,193.0,1.0,154.0,0.0,45.0,3.0,250.0,410.0,45.0,1018.0,1744252647.3823168,0.0,2025-04-09 22:37:27.382,BACKWARD,9
8.0,16867.498084008468,3086.731205788995,-64771.689745389194,-63047.632640318,-37629.38530795399,-35227.600959253425,-30273.023876312243,-22739.770739051193,0.0,0.0,0.0,193.0,1.0,154.0,0.0,44.0,3.0,249.0,410.0,44.0,1017.0,1744252647.382337,0.0,2025-04-09 22:37:27.382,BACKWARD,9
9.0,16963.20825376609,3104.724360075517,-64771.354469222366,-63093.72193738484,-37599.3222116616,-35188.35129598991,-30483.778474781335,-22710.244084625734,0.0,0.0,0.0,193.0,1.0,154.0,0.0,44.0,3.0,252.0,410.0,44.0,1020.0,1744252647.3823547,0.0,2025-04-09 22:37:27.382,BACKWARD,9
10.0,16916.068424709847,3130.04888654338,-64712.90465747174,-63019.491794048765,-37527.61781544898,-35121.89955972428,-30671.175500294627,-22638.942019813305,0.0,0.0,0.0,193.0,1.0,154.0,0.0,44.0,3.0,249.0,410.0,44.0,1017.0,1744252647.3823721,0.0,2025-04-09 22:37:27.382,BACKWARD,9
11.0,16833.165804525113,3109.977020022514,-64766.168864508734,-63084.71418436935,-37564.7664147337,-35163.071473010954,-30499.871730789153,-22684.986613391236,0.0,0.0,0.0,193.0,1.0,154.0,0.0,45.0,3.0,250.0,410.0,45.0,1018.0,1744252647.3823895,0.0,2025-04-09 22:37:27.382,BACKWARD,9
12.0,16839.312534250323,3077.924618473604,-64777.52355069203,-63065.357573671055,-37619.50583690475,-35219.509627760606,-30431.855372411654,-22734.003988981724,0.0,0.0,0.0,193.0,1.0,154.0,0.0,44.0,3.0,251.0,410.0,44.0,1019.0,1744252647.3824348,0.0,2025-04-09 22:37:27.382,BACKWARD,9
13.0,16962.045963054414,3099.0023134949583,-64784.005556584074,-63090.88326583902,-37621.07045901662,-35215.374555036375,-30417.863180382632,-22736.239163427254,0.0,0.0,0.0,193.0,1.0,154.0,0.0,44.0,3.0,250.0,410.0,44.0,1018.0,1744252647.3824492,0.0,2025-04-09 22:37:27.382,BACKWARD,9
14.0,16924.986770747517,3121.622278883729,-64712.47997432709,-63030.35474185405,-37525.42734449236,-35123.799458002984,-30772.361847443804,-22653.940040342815,0.0,0.0,0.0,193.0,1.0,154.0,0.0,44.0,3.0,250.0,410.0,44.0,1018.0,1744252647.3824582,0.0,2025-04-09 22:37:27.382,BACKWARD,9
15.0,16854.019982101916,3119.8341393273045,-64748.95802127815,-63061.5354253692,-37549.164897103896,-35151.94030427221,-30462.544317548793,-22674.749514430707,0.0,0.0,0.0,193.0,1.0,155.0,0.0,44.0,3.0,251.0,411.0,44.0,1019.0,1744252647.3824673,0.0,2025-04-09 22:37:27.382,BACKWARD,9
16.0,16820.581772396778,3074.9965399499583,-64771.33211747791,-63073.13598074151,-37603.23376694128,-35203.975165364165,-30485.477207359938,-22722.87282024298,0.0,0.0,0.0,193.0,1.0,154.0,0.0,45.0,3.0,250.0,410.0,45.0,1018.0,1744252647.382476,0.0,2025-04-09 22:37:27.382,BACKWARD,9
17.0,16961.241300254023,3104.143214719679,-64772.51675993404,-63068.03978300569,-37626.345470708075,-35220.1131248609,-30294.839178900624,-22743.682294330873,0.0,0.0,0.0,193.0,1.0,154.0,0.0,44.0,3.0,251.0,410.0,44.0,1019.0,1744252647.382485,0.0,2025-04-09 22:37:27.382,BACKWARD,9
18.0,16936.564974375364,3124.595060896285,-64711.13886965977,-63040.70359953685,-37527.26018753769,-35119.21735038964,-30798.267519267505,-22650.05083680759,0.0,0.0,0.0,193.0,1.0,155.0,0.0,44.0,3.0,252.0,411.0,44.0,1020.0,1744252647.3824935,0.0,2025-04-09 22:37:27.382,BACKWARD,9
19.0,16866.447552019068,3125.0644475298463,-64744.644134598275,-63051.790064786685,-37548.98608314825,-35150.5991996049,-30437.890343414587,-22673.319002785567,0.0,0.0,0.0,193.0,1.0,154.0,0.0,45.0,3.0,249.0,410.0,45.0,1017.0,1744252647.3825023,0.0,2025-04-09 22:37:27.382,BACKWARD,9
20.0,16802.923894277083,3073.5436765603636,-64778.417620470245,-63089.273940238236,-37599.277508172694,-35199.61657519538,-30523.117545022673,-22717.48604982925,0.0,0.0,0.0,193.0,1.0,155.0,0.0,45.0,3.0,250.0,411.0,45.0,1018.0,1744252647.3825111,0.0,2025-04-09 22:37:27.382,BACKWARD,9
21.0,16927.758387059974,3082.6408365536736,-64792.65568168827,-63072.39837317448,-37650.12772680852,-35249.438613586266,-30217.25627389625,-22766.83870158657,0.0,0.0,0.0,193.0,1.0,154.0,0.0,44.0,3.0,249.0,410.0,44.0,1017.0,1744252647.38252,0.0,2025-04-09 22:37:27.382,BACKWARD,9
22.0,16944.20927097908,3122.203424239567,-64725.645151811266,-63063.07769573662,-37537.89961789842,-35134.640054063806,-30790.131484285772,-22674.749514430707,0.0,0.0,0.0,193.0,1.0,154.0,0.0,44.0,3.0,249.0,410.0,44.0,1017.0,1744252647.3825293,0.0,2025-04-09 22:37:27.382,BACKWARD,9
23.0,16869.420334031623,3118.1354067487014,-64748.51098638905,-63050.7842362862,-37554.86459194,-35159.60695262039,-30437.84563992568,-22679.130456343944,0.0,0.0,0.0,193.0,1.0,155.0,0.0,44.0,3.0,250.0,411.0,44.0,1018.0,1744252647.382538,0.0,2025-04-09 22:37:27.382,BACKWARD,9
24.0,16798.118269219194,3081.500897586453,-64775.98128032462,-63097.722899642344,-37584.27948764318,-35181.77988312005,-30509.773553582854,-22701.30338684361,0.0,0.0,0.0,193.0,1.0,154.0,0.0,44.0,3.0,251.0,410.0,44.0,1019.0,1744252647.382547,0.0,2025-04-09 22:37:27.382,BACKWARD,9
25.0,16910.905171740673,3087.915848245126,-64773.72375413463,-63050.98540198629,-37636.51551443524,-35234.530000034574,-30146.49065095075,-22748.97965776678,0.0,0.0,0.0,193.0,1.0,154.0,0.0,44.0,3.0,250.0,410.0,44.0,1018.0,1744252647.382556,0.0,2025-04-09 22:37:27.382,BACKWARD,9
26.0,16948.83608208133,3119.2529939714664,-64738.94443976217,-63081.227312234325,-37554.77518496218,-35147.425251892244,-30650.25426748446,-22685.835979680538,0.0,0.0,0.0,193.0,1.0,155.0,0.0,44.0,3.0,252.0,411.0,44.0,1020.0,1744252647.3825645,0.0,2025-04-09 22:37:27.382,BACKWARD,9
27.0,16892.755555242962,3133.8039796118715,-64719.073738941406,-63024.14095689547,-37531.28350153965,-35134.10361219688,-30422.869971140623,-22659.930307856837,0.0,0.0,0.0,193.0,1.0,154.0,0.0,44.0,3.0,249.0,410.0,44.0,1017.0,1744252647.382578,0.0,2025-04-09 22:37:27.382,BACKWARD,9
28.0,16800.979292509473,3086.731205788995,-64771.980318067115,-63099.399280476486,-37575.11527241651,-35174.135586516335,-30443.679445228514,-22708.12066890248,0.0,0.0,0.0,193.0,1.0,155.0,0.0,44.0,3.0,252.0,411.0,44.0,1020.0,1744252647.3825867,0.0,2025-04-09 22:37:27.382,BACKWARD,9
29.0,16875.72352596802,3072.6049032932406,-64776.517722191544,-63053.84642527657,-37638.81774411413,-35238.28509310306,-30177.894851910456,-22762.681277117885,0.0,0.0,0.0,193.0,1.0,155.0,0.0,44.0,3.0,252.0,411.0,44.0,1020.0,1744252647.3825955,0.0,2025-04-09 22:37:27.382,BACKWARD,9
30.0,16951.898271071706,3101.9974472519693,-64758.79278883849,-63095.66653915245,-37581.68668528637,-35171.85570858189,-30540.708367909,-22707.852447969013,0.0,0.0,0.0,193.0,1.0,154.0,0.0,44.0,3.0,249.0,410.0,44.0,1017.0,1744252647.3826044,0.0,2025-04-09 22:37:27.382,BACKWARD,9
31.0,16892.19676163158,3115.9672875365363,-64721.174802920206,-63029.55007905365,-37536.916141142385,-35137.45637386518,-30508.968890782464,-22659.438569478818,0.0,0.0,0.0,193.0,1.0,155.0,0.0,44.0,3.0,252.0,411.0,44.0,1020.0,1744252647.3826132,0.0,2025-04-09 22:37:27.382,BACKWARD,9
32.0,16804.98025476697,3093.615543081229,-64769.78984711049,-63098.147582786994,-37567.62743802398,-35169.553478903,-30412.49876171336,-22691.40156404991,0.0,0.0,0.0,193.0,1.0,155.0,0.0,44.0,3.0,251.0,411.0,44.0,1019.0,1744252647.382622,0.0,2025-04-09 22:37:27.382,BACKWARD,9
33.0,16839.156072039135,3069.3415486027657,-64778.86465535935,-63063.748248070275,-37627.28424397519,-35229.90318893232,-30245.687692843403,-22745.2692681872,0.0,0.0,0.0,193.0,1.0,154.0,0.0,44.0,3.0,250.0,410.0,44.0,1018.0,1744252647.3826308,0.0,2025-04-09 22:37:27.382,BACKWARD,9
34.0,16954.714590873074,3103.3162001748324,-64771.75680062256,-63096.53825718621,-37598.15992094993,-35192.08403731394,-30397.232520250385,-22715.228523639267,0.0,0.0,0.0,193.0,1.0,155.0,0.0,44.0,3.0,251.0,411.0,44.0,1019.0,1744252647.3826425,0.0,2025-04-09 22:37:27.382,BACKWARD,9
35.0,16903.86437223725,3118.314220704344,-64717.84439299636,-63034.62392504501,-37530.52354222817,-35130.929664484225,-30591.91621445611,-22651.72721764174,0.0,0.0,0.0,193.0,1.0,154.0,0.0,44.0,3.0,250.0,410.0,44.0,1018.0,1744252647.382651,0.0,2025-04-09 22:37:27.382,BACKWARD,9
