Sample Index,EXG Channel 0,EXG Channel 1,EXG Channel 2,EXG Channel 3,EXG Channel 4,EXG Channel 5,EXG Channel 6,EXG Channel 7,Accel Channel 0,Accel Channel 1,Accel Channel 2,Not Used,Digital Channel 0 (D11),Digital Channel 1 (D12),Digital Channel 2 (D13),Digital Channel 3 (D17),Not Used,Digital Channel 4 (D18),Analog Channel 0,Analog Channel 1,Analog Channel 2,Timestamp,Marker Channel,Timestamp (Formatted),Stimulus_Direction,Stimulus_Number
49.0,16476.275500807227,23852.977019903305,-31317.16326679746,-18932.911030401116,-34111.645413833314,-25401.394117044703,-14109.35987345694,-29808.867550953335,0.0,0.0,0.0,193.0,0.0,194.0,0.0,1.0,0.0,179.0,194.0,1.0,179.0,1744420672.257206,0.0,2025-04-11 21:17:52.257,BACKWARD,47
50.0,16453.20850052935,23854.96632515983,-31310.14481903849,-18921.623399451186,-34104.448152118704,-25378.751799911475,-14434.264830859285,-29801.491475283085,0.0,0.0,0.0,193.0,0.0,193.0,0.0,1.0,0.0,179.0,193.0,1.0,179.0,1744420672.2572477,0.0,2025-04-11 21:17:52.257,BACKWARD,47
51.0,16444.983058569796,23866.388066576492,-31297.225510743323,-18910.000492334424,-34090.07598043394,-25364.35727648226,-14693.969749685497,-29794.137751357288,0.0,0.0,0.0,193.0,0.0,194.0,0.0,1.0,0.0,179.0,194.0,1.0,179.0,1744420672.257289,0.0,2025-04-11 21:17:52.257,BACKWARD,47
52.0,16466.977175113818,23866.76804623223,-31297.67254563243,-18907.251227766425,-34091.84176824591,-25376.65073593268,-14368.729516116324,-29763.091178308867,0.0,0.0,0.0,193.0,0.0,194.0,0.0,1.0,0.0,179.0,194.0,1.0,179.0,1744420672.2573302,0.0,2025-04-11 21:17:52.257,BACKWARD,47
53.0,16473.749753683776,23849.847775679562,-31317.230322030824,-18935.101501357734,-34114.77465805705,-25397.929596654132,-14068.322070636998,-29794.741248457583,0.0,0.0,0.0,193.0,0.0,194.0,0.0,1.0,0.0,179.0,194.0,1.0,179.0,1744420672.2573879,0.0,2025-04-11 21:17:52.257,BACKWARD,47
54.0,16460.137541310494,23850.67479022441,-31315.397478985487,-18928.150108832135,-34115.981652257644,-25385.70319243708,-14398.725557175347,-29829.1405831743,0.0,0.0,0.0,193.0,0.0,193.0,0.0,1.0,0.0,179.0,193.0,1.0,179.0,1744420672.2574596,0.0,2025-04-11 21:17:52.257,BACKWARD,47
55.0,16447.7323231378,23865.941031687384,-31304.489827691297,-18915.32020751479,-34095.708620036676,-25373.677953920123,-14707.20198240304,-29813.85198996687,0.0,0.0,0.0,193.0,0.0,193.0,0.0,1.0,0.0,179.0,193.0,1.0,179.0,1744420672.257501,0.0,2025-04-11 21:17:52.257,BACKWARD,47
56.0,16465.16668381294,23869.29379335568,-31298.81248459965,-18910.64869292363,-34079.72712275114,-25380.718753423545,-14442.222051885374,-29756.02802706099,0.0,0.0,0.0,193.0,0.0,194.0,0.0,1.0,0.0,180.0,194.0,1.0,180.0,1744420672.2575424,0.0,2025-04-11 21:17:52.257,BACKWARD,47
57.0,16480.522332253735,23863.705857241854,-31314.391650485,-18936.55436474733,-34095.50745433658,-25406.289149080414,-14040.941183679246,-29776.658687193238,0.0,0.0,0.0,193.0,0.0,193.0,0.0,1.0,0.0,179.0,193.0,1.0,179.0,1744420672.257584,0.0,2025-04-11 21:17:52.257,BACKWARD,47
58.0,16456.248337775272,23839.543621485667,-31316.269197019246,-18938.856594426226,-34097.4967595931,-25402.13172461173,-14296.913361181423,-29830.325225630433,0.0,0.0,0.0,193.0,0.0,194.0,0.0,1.0,0.0,179.0,194.0,1.0,179.0,1744420672.257625,0.0,2025-04-11 21:17:52.257,BACKWARD,47
59.0,16440.49035793428,23852.641743736476,-31305.540359680697,-18925.087919841757,-34089.15955891128,-25387.60309071578,-14647.254603773905,-29827.106574428868,0.0,0.0,0.0,193.0,0.0,193.0,0.0,1.0,0.0,179.0,193.0,1.0,179.0,1744420672.2576828,0.0,2025-04-11 21:17:52.257,BACKWARD,47
60.0,16454.661363918945,23859.54843277317,-31299.86301658905,-18917.60008544923,-34086.79027399901,-25389.525340738935,-14549.398666548572,-29796.66349848074,0.0,0.0,0.0,193.0,0.0,193.0,0.0,1.0,0.0,179.0,193.0,1.0,179.0,1744420672.2577248,0.0,2025-04-11 21:17:52.257,BACKWARD,47
61.0,16473.794457172688,23852.015894891727,-31316.000976085783,-18936.12968160268,-34104.112875951876,-25409.641910748713,-14090.472649392206,-29771.40602724624,0.0,0.0,0.0,193.0,0.0,194.0,0.0,1.0,0.0,179.0,194.0,1.0,179.0,1744420672.2577667,0.0,2025-04-11 21:17:52.257,BACKWARD,47
62.0,16470.35228852657,23842.091720353572,-31310.413039971954,-18935.995571135947,-34102.79412302901,-25400.12006761075,-14279.121372594998,-29832.783917520515,0.0,0.0,0.0,193.0,0.0,193.0,0.0,1.0,0.0,179.0,193.0,1.0,179.0,1744420672.2578084,0.0,2025-04-11 21:17:52.257,BACKWARD,47
63.0,16448.60404117156,23854.38517980399,-31303.260481746256,-18921.802213406827,-34096.625041559346,-25384.25032904748,-14623.092368017718,-29812.622644021827,0.0,0.0,0.0,193.0,0.0,194.0,0.0,1.0,0.0,180.0,194.0,1.0,180.0,1744420672.257965,0.0,2025-04-11 21:17:52.257,BACKWARD,47
64.0,16454.482549963304,23863.929374686406,-31294.453894430866,-18916.437794737554,-34082.31992510795,-25384.138570325205,-14614.643408613612,-29797.1328851143,0.0,0.0,0.0,193.0,0.0,193.0,0.0,1.0,0.0,179.0,193.0,1.0,179.0,1744420672.2580075,0.0,2025-04-11 21:17:52.258,BACKWARD,47
65.0,16473.950919383875,23856.10626412705,-31312.67056616194,-18935.727350202484,-34104.53755909653,-25410.446573549103,-14126.50366145416,-29770.3778470013,0.0,0.0,0.0,193.0,0.0,194.0,0.0,1.0,0.0,179.0,194.0,1.0,179.0,1744420672.2580488,0.0,2025-04-11 21:17:52.258,BACKWARD,47
66.0,16466.01605010224,23841.599981975556,-31319.2419790318,-18949.89835618715,-34113.27709117855,-25406.423259547148,-14209.160412449886,-29838.640074567807,0.0,0.0,0.0,193.0,0.0,193.0,0.0,1.0,0.0,179.0,193.0,1.0,179.0,1744420672.2580905,0.0,2025-04-11 21:17:52.258,BACKWARD,47
67.0,16445.31833473663,23852.19470884737,-31310.636557416507,-18932.776919934382,-34102.771771284555,-25383.78094241392,-14561.893291699087,-29805.738306729592,0.0,0.0,0.0,193.0,0.0,194.0,0.0,1.0,0.0,180.0,194.0,1.0,180.0,1744420672.2581317,0.0,2025-04-11 21:17:52.258,BACKWARD,47
68.0,16448.91696559393,23862.498863041266,-31298.61131889955,-18920.12583257268,-34090.59007055641,-25378.08124757782,-14668.488761006447,-29799.99390840458,0.0,0.0,0.0,193.0,0.0,194.0,0.0,1.0,0.0,179.0,194.0,1.0,179.0,1744420672.2581897,0.0,2025-04-11 21:17:52.258,BACKWARD,47
69.0,16479.851779920074,23867.72917124381,-31305.965042825348,-18919.1647075611,-34106.348050397406,-25390.486465750513,-14210.076833972555,-29756.74328288356,0.0,0.0,0.0,193.0,0.0,193.0,0.0,1.0,0.0,179.0,193.0,1.0,179.0,1744420672.2582312,0.0,2025-04-11 21:17:52.258,BACKWARD,47
70.0,16478.376564786027,23859.011990906238,-31310.413039971954,-18932.46399551201,-34109.45494287669,-25392.587529729313,-14150.487083254706,-29813.024975422024,0.0,0.0,0.0,193.0,0.0,194.0,0.0,1.0,0.0,179.0,194.0,1.0,179.0,1744420672.2582731,0.0,2025-04-11 21:17:52.258,BACKWARD,47
71.0,16456.15893079745,23859.615488006533,-31310.72596439433,-18926.004341364427,-34105.051649219,-25387.35722152677,-14498.7719653573,-29820.51280981455,0.0,0.0,0.0,193.0,0.0,193.0,0.0,1.0,0.0,179.0,193.0,1.0,179.0,1744420672.2583144,0.0,2025-04-11 21:17:52.258,BACKWARD,47
72.0,16447.821730115622,23867.170377632425,-31306.05444980317,-18920.438756995056,-34101.0506869615,-25382.39513425769,-14699.088299165762,-29814.23196962261,0.0,0.0,0.0,193.0,0.0,193.0,0.0,1.0,0.0,180.0,193.0,1.0,180.0,1744420672.2583559,0.0,2025-04-11 21:17:52.258,BACKWARD,47
73.0,16467.49126523629,23869.226738122314,-31313.05054581768,-18922.1151378292,-34114.19351270122,-25395.761477441967,-14304.937637440878,-29761.3253904969,0.0,0.0,0.0,193.0,0.0,193.0,0.0,1.0,0.0,179.0,193.0,1.0,179.0,1744420672.258397,0.0,2025-04-11 21:17:52.258,BACKWARD,47
74.0,16473.325070539126,23860.464854295835,-31318.794944142694,-18940.823547938293,-34121.144905226814,-25404.12102986825,-14133.723274913225,-29817.80824873546,0.0,0.0,0.0,193.0,0.0,193.0,0.0,1.0,0.0,179.0,193.0,1.0,179.0,1744420672.258453,0.0,2025-04-11 21:17:52.258,BACKWARD,47
75.0,16447.48645394879,23852.3288193141,-31318.638481931506,-18934.945039146547,-34118.79797205901,-25395.627366975234,-14454.515511335792,-29829.1405831743,0.0,0.0,0.0,193.0,0.0,193.0,0.0,1.0,0.0,179.0,193.0,1.0,179.0,1744420672.258528,0.0,2025-04-11 21:17:52.258,BACKWARD,47
76.0,16440.468006189825,23857.00033390526,-31313.654042917973,-18927.725425687484,-34115.73578306863,-25391.760515184465,-14722.982313988485,-29834.214429165655,0.0,0.0,0.0,193.0,0.0,193.0,0.0,1.0,0.0,179.0,193.0,1.0,179.0,1744420672.2585697,0.0,2025-04-11 21:17:52.258,BACKWARD,47
77.0,16465.50195997977,23862.297697341168,-31308.91547309345,-18917.533030215865,-34113.254739434095,-25394.73329719702,-14407.643903213013,-29777.75392267155,0.0,0.0,0.0,193.0,0.0,194.0,0.0,1.0,0.0,180.0,194.0,1.0,180.0,1744420672.2587397,0.0,2025-04-11 21:17:52.258,BACKWARD,47
78.0,16486.26673057875,23857.648534494467,-31310.234226016313,-18929.334751288265,-34109.11966670986,-25394.375669285735,-14080.324957409497,-29781.553719228952,0.0,0.0,0.0,193.0,0.0,193.0,0.0,1.0,0.0,179.0,193.0,1.0,179.0,1744420672.2587824,0.0,2025-04-11 21:17:52.258,BACKWARD,47
79.0,16462.909157622955,23850.00423789075,-31309.51897019374,-18926.69724544254,-34103.263509662575,-25384.429143003126,-14358.69358285589,-29807.99583291958,0.0,0.0,0.0,193.0,0.0,193.0,0.0,1.0,0.0,179.0,193.0,1.0,179.0,1744420672.258824,0.0,2025-04-11 21:17:52.258,BACKWARD,47
80.0,16444.156044024952,23858.25203159476,-31304.2886619912,-18917.577733704777,-34095.88743399232,-25374.124988809228,-14674.791952942844,-29802.60906250585,0.0,0.0,0.0,193.0,0.0,193.0,0.0,0.0,0.0,179.0,193.0,0.0,179.0,1744420672.2588658,0.0,2025-04-11 21:17:52.258,BACKWARD,47
81.0,16461.456294233358,23865.11401714254,-31295.750295609272,-18906.133640543656,-34083.817491986454,-25371.35337249677,-14473.358031911617,-29757.525593939496,0.0,0.0,0.0,193.0,0.0,193.0,0.0,1.0,0.0,179.0,193.0,1.0,179.0,1744420672.2589064,0.0,2025-04-11 21:17:52.258,BACKWARD,47
82.0,16485.059736378164,23861.40362756296,-31308.893121348992,-18925.065568097303,-34097.83203575993,-25390.866445406253,-14051.446503573241,-29760.163099785223,0.0,0.0,0.0,193.0,0.0,194.0,0.0,0.0,0.0,179.0,194.0,0.0,179.0,1744420672.2589478,0.0,2025-04-11 21:17:52.258,BACKWARD,47
83.0,16466.664250691443,23850.29481056867,-31313.318766751145,-18930.877021655684,-34102.481198606634,-25385.92670988163,-14288.06207037712,-29808.17464687522,0.0,0.0,0.0,193.0,0.0,193.0,0.0,0.0,0.0,179.0,193.0,0.0,179.0,1744420672.2590048,0.0,2025-04-11 21:17:52.259,BACKWARD,47
84.0,16441.026799801206,23851.72532221381,-31309.138990538002,-18922.74098667395,-34098.45788460468,-25374.661430676155,-14643.678324661056,-29805.067754395935,0.0,0.0,0.0,193.0,0.0,194.0,0.0,0.0,0.0,179.0,194.0,0.0,179.0,1744420672.2590463,0.0,2025-04-11 21:17:52.259,BACKWARD,47
85.0,16452.761465640244,23851.792377447175,-31306.568539925644,-18920.349350017234,-34095.9991927146,-25382.26102379096,-14579.998204707887,-29793.489550768085,0.0,0.0,0.0,193.0,0.0,193.0,0.0,0.0,0.0,179.0,193.0,0.0,179.0,1744420672.259087,0.0,2025-04-11 21:17:52.259,BACKWARD,47
86.0,16474.129733339516,23846.830290178095,-31320.739545910306,-18935.07914961328,-34113.41120164528,-25405.439782791113,-14124.670818408826,-29788.303946054453,0.0,0.0,0.0,193.0,0.0,193.0,0.0,0.0,0.0,179.0,193.0,0.0,179.0,1744420672.2591279,0.0,2025-04-11 21:17:52.259,BACKWARD,47
87.0,16460.204596543863,23827.138403312973,-31325.96985411285,-18944.824510195795,-34114.81936154597,-25407.585550258824,-14261.843474131045,-29844.876211270835,0.0,0.0,0.0,193.0,0.0,194.0,0.0,0.0,0.0,180.0,194.0,0.0,180.0,1744420672.2591689,0.0,2025-04-11 21:17:52.259,BACKWARD,47
88.0,16441.473834690314,23841.80114767565,-31319.53255170972,-18933.04514086785,-34106.83978877542,-25392.162846584662,-14601.165306707062,-29822.01037669306,0.0,0.0,0.0,193.0,0.0,193.0,0.0,0.0,0.0,179.0,193.0,0.0,179.0,1744420672.2592092,0.0,2025-04-11 21:17:52.259,BACKWARD,47
89.0,16448.559337682647,23850.451272779857,-31307.06027830366,-18923.07626284078,-34093.60755605788,-25383.043334846894,-14646.539347951335,-29800.910329927246,0.0,0.0,0.0,193.0,0.0,193.0,0.0,0.0,0.0,179.0,193.0,0.0,179.0,1744420672.259264,0.0,2025-04-11 21:17:52.259,BACKWARD,47
90.0,16471.805151916167,23843.52223199871,-31322.773554655738,-18935.25796356892,-34112.04774523351,-25404.925692668643,-14166.625042751437,-29759.89487885176,0.0,0.0,0.0,193.0,0.0,193.0,0.0,0.0,0.0,179.0,193.0,0.0,179.0,1744420672.2593052,0.0,2025-04-11 21:17:52.259,BACKWARD,47
91.0,16464.02674484572,23829.95472311434,-31327.4450692469,-18946.94792591905,-34115.66872783527,-25404.65747173518,-14206.075871715055,-29826.972463962134,0.0,0.0,0.0,193.0,0.0,194.0,0.0,0.0,0.0,179.0,194.0,0.0,179.0,1744420672.2593458,0.0,2025-04-11 21:17:52.259,BACKWARD,47
92.0,16443.709009135844,23845.846813422064,-31318.414964486954,-18926.116100086703,-34105.94571899721,-25375.466093476545,-14555.50069278487,-29803.346670072875,0.0,0.0,0.0,193.0,0.0,194.0,0.0,0.0,0.0,180.0,194.0,0.0,180.0,1744420672.2595038,0.0,2025-04-11 21:17:52.259,BACKWARD,47
93.0,16438.277535233206,23851.837080936086,-31315.2410167743,-18921.757509917916,-34103.86700676286,-25371.4874829635,-14673.830827931266,-29790.717934455628,0.0,0.0,0.0,193.0,0.0,193.0,0.0,0.0,0.0,179.0,193.0,0.0,179.0,1744420672.2595456,0.0,2025-04-11 21:17:52.259,BACKWARD,47
94.0,16466.887768136,23853.736979214787,-31323.421755244945,-18926.429024509078,-34117.32275692496,-25390.330003539326,-14241.413979698895,-29760.02898931849,0.0,0.0,0.0,193.0,0.0,194.0,0.0,0.0,0.0,180.0,194.0,0.0,180.0,1744420672.2595863,0.0,2025-04-11 21:17:52.259,BACKWARD,47
95.0,16466.172512313427,23840.325932541604,-31329.367319270055,-18942.07524562779,-34122.46365814968,-25395.247387319494,-14166.08860088451,-29817.249455124078,0.0,0.0,0.0,193.0,0.0,194.0,0.0,0.0,0.0,179.0,194.0,0.0,179.0,1744420672.259627,0.0,2025-04-11 21:17:52.259,BACKWARD,47
96.0,16444.983058569796,23837.599019718054,-31323.041775589205,-18927.70307394303,-34111.22073068866,-25378.662392933657,-14501.208305502929,-29810.588635276396,0.0,0.0,0.0,193.0,0.0,193.0,0.0,0.0,0.0,179.0,193.0,0.0,179.0,1744420672.732252,0.0,2025-04-11 21:17:52.732,BACKWARD,47
97.0,16445.49714869227,23845.645647721965,-31309.183694026913,-18915.253152281424,-34095.708620036676,-25366.145416038682,-14701.502287566935,-29791.94728040067,0.0,0.0,0.0,193.0,0.0,193.0,0.0,0.0,0.0,179.0,193.0,0.0,179.0,1744420672.7324755,0.0,2025-04-11 21:17:52.732,BACKWARD,47
98.0,16474.599119973078,23856.128615871505,-31307.2390922593,-18911.22983827947,-34098.18966367122,-25379.712924923057,-14318.102814925054,-29753.591686915363,0.0,0.0,0.0,193.0,0.0,193.0,0.0,0.0,0.0,179.0,193.0,0.0,179.0,1744420672.7328224,0.0,2025-04-11 21:17:52.732,BACKWARD,47
99.0,16480.924663653932,23841.130595341994,-31320.739545910306,-18934.140376346157,-34113.7017743232,-25395.716773953056,-14088.617454602416,-29793.154274601256,0.0,0.0,0.0,193.0,0.0,193.0,0.0,0.0,0.0,180.0,193.0,0.0,180.0,1744420672.7328982,0.0,2025-04-11 21:17:52.732,BACKWARD,47
100.0,16461.456294233358,23837.509612740232,-31319.420792987443,-18931.279353055877,-34111.62306208886,-25388.40775351617,-14407.643903213013,-29809.00166142007,0.0,0.0,0.0,193.0,0.0,194.0,0.0,0.0,0.0,180.0,194.0,0.0,180.0,1744420672.7329552,0.0,2025-04-11 21:17:52.732,BACKWARD,47
101.0,16448.60404117156,23850.92065941342,-31309.09428704909,-18922.584524462764,-34102.54825384,-25380.338773767802,-14693.835639218765,-29801.37971656081,0.0,0.0,0.0,193.0,0.0,193.0,0.0,0.0,0.0,179.0,193.0,0.0,179.0,1744420672.7330103,0.0,2025-04-11 21:17:52.733,BACKWARD,47
102.0,16467.155989069463,23855.21219434884,-31310.122467294037,-18923.813870407805,-34110.63958533282,-25397.437858276113,-14437.058798916198,-29782.671306451717,0.0,0.0,0.0,193.0,0.0,194.0,0.0,0.0,0.0,179.0,194.0,0.0,179.0,1744420672.733065,0.0,2025-04-11 21:17:52.733,BACKWARD,47
103.0,16481.349346798583,23848.327857056604,-31322.25946453327,-18946.232670096477,-34125.10116399541,-25417.040338163417,-14116.110100282443,-29811.8850364548,0.0,0.0,0.0,193.0,0.0,193.0,0.0,0.0,0.0,179.0,193.0,0.0,179.0,1744420672.7331188,0.0,2025-04-11 21:17:52.733,BACKWARD,47
104.0,16461.12101806653,23838.51544124072,-31319.353737754078,-18944.13160611768,-34111.53365511104,-25408.166695614662,-14379.525408688238,-29833.789746021004,0.0,0.0,0.0,193.0,0.0,193.0,0.0,0.0,0.0,179.0,193.0,0.0,179.0,1744420672.7332466,0.0,2025-04-11 21:17:52.733,BACKWARD,47
105.0,16450.280422005704,23852.35117105856,-31308.066106804148,-18929.290047799357,-34103.64348931831,-25387.804256415875,-14701.7705085004,-29819.596388291884,0.0,0.0,0.0,193.0,0.0,194.0,0.0,0.0,0.0,180.0,194.0,0.0,180.0,1744420672.733301,0.0,2025-04-11 21:17:52.733,BACKWARD,47
106.0,16463.95968961235,23855.927450171406,-31305.562711425155,-18923.590352963252,-34102.905881751285,-25393.25808206297,-14525.527003470303,-29783.297155296466,0.0,0.0,0.0,193.0,0.0,193.0,0.0,0.0,0.0,179.0,193.0,0.0,179.0,1744420672.7333512,0.0,2025-04-11 21:17:52.733,BACKWARD,47
107.0,16481.349346798583,23847.031455878194,-31319.01846158725,-18944.198661351045,-34112.964166756174,-25413.911093939674,-14087.946902268757,-29783.878300652304,0.0,0.0,0.0,193.0,0.0,194.0,0.0,0.0,0.0,179.0,194.0,0.0,179.0,1744420672.7340164,0.0,2025-04-11 21:17:52.734,BACKWARD,47
108.0,16468.385335014504,23840.907077897442,-31318.95140635388,-18944.153957862134,-34113.053573733996,-25404.23278859053,-14309.475041565305,-29830.124059930335,0.0,0.0,0.0,193.0,0.0,193.0,0.0,0.0,0.0,179.0,193.0,0.0,179.0,1744420672.7340767,0.0,2025-04-11 21:17:52.734,BACKWARD,47
109.0,16446.368866726025,23844.23748782128,-31318.213798786855,-18937.783710692373,-34113.65707083429,-25397.370803042748,-14661.04563010283,-29822.770336004538,0.0,0.0,0.0,193.0,0.0,193.0,0.0,0.0,0.0,179.0,193.0,0.0,179.0,1744420672.734168,0.0,2025-04-11 21:17:52.734,BACKWARD,47
110.0,16456.82948313111,23849.892479168473,-31311.664737661453,-18931.011132122414,-34103.531730596034,-25399.181294343627,-14626.311019219283,-29814.254321367065,0.0,0.0,0.0,193.0,0.0,194.0,0.0,0.0,0.0,180.0,194.0,0.0,180.0,1744420672.734249,0.0,2025-04-11 21:17:52.734,BACKWARD,47
111.0,16474.152085083973,23844.28219131019,-31330.01551985926,-18951.70884748803,-34121.03314650454,-25421.354224843293,-14143.155711073365,-29783.453617507654,0.0,0.0,0.0,193.0,0.0,193.0,0.0,0.0,0.0,179.0,193.0,0.0,179.0,1744420672.7342913,0.0,2025-04-11 21:17:52.734,BACKWARD,47
112.0,16465.993698357786,23828.457156235836,-31330.641368704008,-18959.867234214216,-34117.590977858425,-25414.6487015067,-14258.781285140669,-29837.097804200388,0.0,0.0,0.0,193.0,0.0,193.0,0.0,0.0,0.0,179.0,193.0,0.0,179.0,1744420672.734367,0.0,2025-04-11 21:17:52.734,BACKWARD,47
113.0,16453.54377669618,23836.30261853965,-31325.433412245922,-18950.546556776353,-34114.03705049003,-25405.5962450023,-14623.025312784352,-29832.560400075963,0.0,0.0,0.0,193.0,0.0,194.0,0.0,0.0,0.0,179.0,194.0,0.0,179.0,1744420672.7344084,0.0,2025-04-11 21:17:52.734,BACKWARD,47
114.0,16455.264861019237,23844.304543054648,-31320.38191799902,-18946.41148405212,-34113.7017743232,-25411.16182937167,-14693.388604329659,-29841.121118202343,0.0,0.0,0.0,193.0,0.0,193.0,0.0,0.0,0.0,179.0,193.0,0.0,179.0,1744420672.73445,0.0,2025-04-11 21:17:52.734,BACKWARD,47
115.0,16474.30854729516,23838.448386007356,-31331.87071464905,-18955.642754512162,-34126.93400704074,-25429.378501102747,-14200.554990834593,-29796.41762929173,0.0,0.0,0.0,193.0,0.0,193.0,0.0,0.0,0.0,179.0,193.0,0.0,179.0,1744420672.7344909,0.0,2025-04-11 21:17:52.734,BACKWARD,47
116.0,16467.11128558055,23823.13744105547,-31330.619016959554,-18965.365763350223,-34124.76588782858,-25419.78960273142,-14213.273133429664,-29835.041443710503,0.0,0.0,0.0,193.0,0.0,193.0,0.0,0.0,0.0,179.0,193.0,0.0,179.0,1744420672.734532,0.0,2025-04-11 21:17:52.734,BACKWARD,47
117.0,16450.235718516793,23832.793394660162,-31318.794944142694,-18944.824510195795,-34114.46173363468,-25398.39898328769,-14576.712498272957,-29817.361213846354,0.0,0.0,0.0,193.0,0.0,193.0,0.0,0.0,0.0,179.0,193.0,0.0,179.0,1744420672.734573,0.0,2025-04-11 21:17:52.734,BACKWARD,47
118.0,16452.06856156213,23845.310371555137,-31306.568539925644,-18930.94407688905,-34105.006945730085,-25390.486465750513,-14720.00953197593,-29807.437039308195,0.0,0.0,0.0,193.0,0.0,194.0,0.0,0.0,0.0,179.0,194.0,0.0,179.0,1744420672.7346144,0.0,2025-04-11 21:17:52.734,BACKWARD,47
119.0,16481.572864243135,23856.776816460708,-31309.451914960377,-18926.36196927571,-34113.63471908984,-25400.142419355205,-14280.015442373211,-29759.201974773645,0.0,0.0,0.0,193.0,0.0,193.0,0.0,0.0,0.0,179.0,193.0,0.0,179.0,1744420672.73468,0.0,2025-04-11 21:17:52.734,BACKWARD,47
120.0,16477.683660707913,23843.81280467663,-31316.73858365281,-18942.678742728083,-34119.356765670396,-25401.639986233713,-14163.384039805418,-29809.761620731548,0.0,0.0,0.0,193.0,0.0,193.0,0.0,0.0,0.0,179.0,193.0,0.0,179.0,1744420672.7347224,0.0,2025-04-11 21:17:52.734,BACKWARD,47
121.0,16456.717724408834,23849.44544427937,-31309.89894984948,-18928.150108832135,-34109.343184154415,-25385.725544181532,-14502.974093314899,-29808.66638525324,0.0,0.0,0.0,193.0,0.0,194.0,0.0,0.0,0.0,180.0,194.0,0.0,180.0,1744420672.7347634,0.0,2025-04-11 21:17:52.734,BACKWARD,47
122.0,16451.01802957273,23861.96242117434,-31295.32561246462,-18914.5155447144,-34088.77957925553,-25380.696401679088,-14723.138776199672,-29811.639167265796,0.0,0.0,0.0,193.0,0.0,193.0,0.0,0.0,0.0,179.0,193.0,0.0,179.0,1744420672.7349284,0.0,2025-04-11 21:17:52.734,BACKWARD,47
123.0,16473.660346705958,23863.907022941952,-31299.281871233212,-18913.0626813248,-34097.27324214855,-25393.74982044099,-14357.508940399759,-29770.04257083447,0.0,0.0,0.0,193.0,0.0,193.0,0.0,0.0,0.0,179.0,193.0,0.0,179.0,1744420672.73497,0.0,2025-04-11 21:17:52.734,BACKWARD,47
124.0,16472.296890294183,23847.38908378948,-31316.068031319148,-18939.348332804246,-34114.797009801514,-25410.60303576029,-14105.381262943896,-29796.03764963599,0.0,0.0,0.0,193.0,0.0,194.0,0.0,0.0,0.0,179.0,194.0,0.0,179.0,1744420672.735011,0.0,2025-04-11 21:17:52.735,BACKWARD,47
125.0,16454.30373600766,23851.457101280346,-31309.809542871662,-18930.541745488852,-34105.34222189691,-25393.995689629995,-14417.47867077335,-29810.320414342932,0.0,0.0,0.0,193.0,0.0,193.0,0.0,0.0,0.0,179.0,193.0,0.0,179.0,1744420672.7350523,0.0,2025-04-11 21:17:52.735,BACKWARD,47
126.0,16442.926698079908,23866.388066576492,-31294.588004897596,-18913.397957491634,-34092.422913601746,-25372.761532397453,-14717.372026130204,-29799.345707815377,0.0,0.0,0.0,193.0,0.0,193.0,0.0,0.0,0.0,179.0,193.0,0.0,179.0,1744420672.7350948,0.0,2025-04-11 21:17:52.735,BACKWARD,47
127.0,16454.482549963304,23856.66505773843,-31300.086534033602,-18915.3649110037,-34099.46371310517,-25386.843131404297,-14454.560214824704,-29760.36426548532,0.0,0.0,0.0,193.0,0.0,194.0,0.0,0.0,0.0,180.0,194.0,0.0,180.0,1744420672.7351584,0.0,2025-04-11 21:17:52.735,BACKWARD,47
128.0,16476.096686851586,23850.00423789075,-31309.47426670483,-18934.587411235265,-34107.42093413126,-25402.846980434297,-14104.040158276577,-29785.957012886647,0.0,0.0,0.0,193.0,0.0,193.0,0.0,0.0,0.0,179.0,193.0,0.0,179.0,1744420672.7352011,0.0,2025-04-11 21:17:52.735,BACKWARD,47
129.0,16458.796436643177,23845.042150621673,-31301.315879978643,-18926.585486720265,-34096.334468881425,-25385.21145405906,-14353.619736864537,-29802.94433867268,0.0,0.0,0.0,193.0,0.0,193.0,0.0,0.0,0.0,179.0,193.0,0.0,179.0,1744420672.735242,0.0,2025-04-11 21:17:52.735,BACKWARD,47
130.0,16439.9315643229,23853.446406536867,-31296.934938065406,-18918.3153412718,-34093.94283222471,-25378.05889583336,-14675.95424365452,-29792.260204823044,0.0,0.0,0.0,193.0,0.0,194.0,0.0,0.0,0.0,179.0,194.0,0.0,179.0,1744420672.7352831,0.0,2025-04-11 21:17:52.735,BACKWARD,47
131.0,16462.64093668949,23860.129578129003,-31292.352830452066,-18911.140431301646,-34096.71444853717,-25382.238672046504,-14550.739771215889,-29773.26122203603,0.0,0.0,0.0,193.0,0.0,193.0,0.0,0.0,0.0,179.0,193.0,0.0,179.0,1744420672.735324,0.0,2025-04-11 21:17:52.735,BACKWARD,47
132.0,16485.439716033903,23855.301601326657,-31302.76874336824,-18927.121928587192,-34105.766905041564,-25398.89072166571,-14118.255867750153,-29762.3759224863,0.0,0.0,0.0,193.0,0.0,194.0,0.0,0.0,0.0,180.0,194.0,0.0,180.0,1744420672.7353644,0.0,2025-04-11 21:17:52.735,BACKWARD,47
133.0,16468.29592803668,23843.321066298613,-31299.460685188853,-18931.257001311424,-34097.76498052657,-25395.649718719687,-14310.659684021437,-29813.628472522316,0.0,0.0,0.0,193.0,0.0,193.0,0.0,0.0,0.0,179.0,193.0,0.0,179.0,1744420672.7354054,0.0,2025-04-11 21:17:52.735,BACKWARD,47
134.0,16444.67013414742,23857.760293216743,-31295.14679850898,-18922.673931440586,-34092.13234092383,-25389.011250616462,-14652.082580576252,-29808.219350364132,0.0,0.0,0.0,193.0,0.0,193.0,0.0,0.0,0.0,179.0,193.0,0.0,179.0,1744420672.7354622,0.0,2025-04-11 21:17:52.735,BACKWARD,47
135.0,16454.326087752117,23866.142197387482,-31290.43058042891,-18918.449451738532,-34088.019619944054,-25392.386364029215,-14628.36737970917,-29800.61975724933,0.0,0.0,0.0,193.0,0.0,194.0,0.0,0.0,0.0,179.0,194.0,0.0,179.0,1744420672.7355037,0.0,2025-04-11 21:17:52.735,BACKWARD,47
136.0,16476.834294418608,23861.5824415186,-31302.411115456955,-18930.407635022122,-34106.348050397406,-25411.720622983055,-14147.290783797596,-29773.618849947317,0.0,0.0,0.0,193.0,0.0,193.0,0.0,0.0,0.0,179.0,193.0,0.0,179.0,1744420672.7355444,0.0,2025-04-11 21:17:52.735,BACKWARD,47
137.0,16456.44950347537,23840.907077897442,-31308.691955648897,-18941.784672949874,-34112.070096977965,-25409.68661423762,-14247.560709424104,-29831.219295408642,0.0,0.0,0.0,193.0,0.0,193.0,0.0,0.0,0.0,179.0,193.0,0.0,179.0,1744420672.7356803,0.0,2025-04-11 21:17:52.735,BACKWARD,47
138.0,16435.19299449837,23852.842909436575,-31305.227435258323,-18930.78761467786,-34108.04678297601,-25392.788695429408,-14604.31690267526,-29808.822847464427,0.0,0.0,0.0,193.0,0.0,193.0,0.0,0.0,0.0,179.0,193.0,0.0,179.0,1744420672.735722,0.0,2025-04-11 21:17:52.735,BACKWARD,47
139.0,16448.939317338387,23868.042095666184,-31294.655060130965,-18919.142355816646,-34100.87187300585,-25386.016116859453,-14700.42940383308,-29803.592539261885,0.0,0.0,0.0,193.0,0.0,193.0,0.0,0.0,0.0,179.0,193.0,0.0,179.0,1744420672.7357633,0.0,2025-04-11 21:17:52.735,BACKWARD,47
140.0,16477.34838454108,23859.928412428908,-31305.026269558224,-18926.093748342246,-34109.7008120657,-25408.25610259248,-14224.851337057513,-29771.137806312778,0.0,0.0,0.0,193.0,0.0,194.0,0.0,0.0,0.0,180.0,194.0,0.0,180.0,1744420672.7358036,0.0,2025-04-11 21:17:52.735,BACKWARD,47
141.0,16471.58163447161,23841.24235406427,-31307.507313192764,-18937.001399636436,-34107.33152715344,-25405.238617091014,-14201.247894912709,-29824.826696494427,0.0,0.0,0.0,193.0,0.0,193.0,0.0,0.0,0.0,179.0,193.0,0.0,179.0,1744420672.7358444,0.0,2025-04-11 21:17:52.735,BACKWARD,47
142.0,16446.12299753702,23849.177223345905,-31302.701688134875,-18922.539820973852,-34100.71541079467,-25390.106486094774,-14537.865166409632,-29808.84519920888,0.0,0.0,0.0,193.0,0.0,193.0,0.0,0.0,0.0,179.0,193.0,0.0,179.0,1744420672.7359,0.0,2025-04-11 21:17:52.735,BACKWARD,47
143.0,16447.17352952642,23868.77970323321,-31288.977717039314,-18908.36881498919,-34090.813588000965,-25376.091942321294,-14708.990121959463,-29801.111495627345,0.0,0.0,0.0,193.0,0.0,194.0,0.0,0.0,0.0,179.0,194.0,0.0,179.0,1744420672.735946,0.0,2025-04-11 21:17:52.735,BACKWARD,47
144.0,16468.11711408104,23871.081932912104,-31297.225510743323,-18910.60398943472,-34108.51616960957,-25390.59822447279,-14286.430393031884,-29754.396349715753,0.0,0.0,0.0,193.0,0.0,193.0,0.0,0.0,0.0,179.0,193.0,0.0,179.0,1744420672.7359867,0.0,2025-04-11 21:17:52.735,BACKWARD,47
145.0,16468.631204203513,23852.664095480934,-31305.540359680697,-18932.12871934518,-34117.5015708806,-25401.662337978167,-14157.349068802485,-29812.15325738827,0.0,0.0,0.0,193.0,0.0,194.0,0.0,0.0,0.0,179.0,194.0,0.0,179.0,1744420672.7360277,0.0,2025-04-11 21:17:52.736,BACKWARD,47
146.0,16449.87809060551,23857.11209262754,-31299.036002044202,-18920.751681417427,-34107.108009708885,-25386.68666919311,-14489.943026297455,-29812.622644021827,0.0,0.0,0.0,193.0,0.0,193.0,0.0,0.0,0.0,179.0,193.0,0.0,179.0,1744420672.7360682,0.0,2025-04-11 21:17:52.736,BACKWARD,47
147.0,16440.892689334476,23865.91867994293,-31289.447103672876,-18908.592332433742,-34095.574509569946,-25376.20370104357,-14723.384645388682,-29801.938510172193,0.0,0.0,0.0,193.0,0.0,194.0,0.0,0.0,0.0,180.0,194.0,0.0,180.0,1744420672.7361093,0.0,2025-04-11 21:17:52.736,BACKWARD,47
148.0,16458.774084898723,23866.09749389857,-31293.42571418592,-18907.251227766425,-34102.212977673174,-25390.061782605862,-14366.449638181883,-29759.716064896118,0.0,0.0,0.0,193.0,0.0,194.0,0.0,0.0,0.0,179.0,194.0,0.0,179.0,1744420672.7361495,0.0,2025-04-11 21:17:52.736,BACKWARD,47
149.0,16469.30175653717,23854.96632515983,-31301.85232184557,-18925.311437286313,-34108.359707398384,-25399.27070132145,-14108.778728101102,-29798.31752757043,0.0,0.0,0.0,193.0,0.0,193.0,0.0,0.0,0.0,179.0,193.0,0.0,179.0,1744420672.7362573,0.0,2025-04-11 21:17:52.736,BACKWARD,47
150.0,16452.20267202886,23853.736979214787,-31303.32753697962,-18921.802213406827,-34108.002079487094,-25389.34652678329,-14426.978162166854,-29829.43115585222,0.0,0.0,0.0,193.0,0.0,194.0,0.0,0.0,0.0,180.0,194.0,0.0,180.0,1744420672.7363124,0.0,2025-04-11 21:17:52.736,BACKWARD,47
151.0,16439.439825944883,23861.76125547424,-31297.18080725441,-18914.627303436675,-34103.889358507324,-25381.389305757202,-14738.717942085023,-29826.48072558412,0.0,0.0,0.0,193.0,0.0,193.0,0.0,0.0,0.0,179.0,193.0,0.0,179.0,1744420672.73636,0.0,2025-04-11 21:17:52.736,BACKWARD,47
152.0,16455.39897148597,23862.20829036335,-31294.09626651958,-18909.151126045123,-34098.65905030478,-25386.194930815094,-14472.419258644493,-29763.024123075502,0.0,0.0,0.0,193.0,0.0,193.0,0.0,0.0,0.0,179.0,193.0,0.0,179.0,1744420672.7364333,0.0,2025-04-11 21:17:52.736,BACKWARD,47
153.0,16471.35811702706,23858.00616240575,-31300.19829275588,-18924.216201808,-34103.7999515295,-25399.091887365805,-14086.270521434608,-29772.769483658016,0.0,0.0,0.0,193.0,0.0,194.0,0.0,0.0,0.0,179.0,194.0,0.0,179.0,1744420672.73648,0.0,2025-04-11 21:17:52.736,BACKWARD,47
154.0,16456.270689519726,23850.67479022441,-31298.074877032624,-18922.919800629592,-34100.08956194992,-25394.219207074548,-14347.137730972498,-29821.09395517039,0.0,0.0,0.0,193.0,0.0,193.0,0.0,0.0,0.0,179.0,193.0,0.0,179.0,1744420672.736532,0.0,2025-04-11 21:17:52.736,BACKWARD,47
155.0,16432.421378185914,23856.843871694073,-31295.794999098183,-18913.867344125192,-34095.775675270044,-25378.371820255736,-14677.764734955399,-29798.049306636967,0.0,0.0,0.0,193.0,0.0,194.0,0.0,0.0,0.0,179.0,194.0,0.0,179.0,1744420672.736578,0.0,2025-04-11 21:17:52.736,BACKWARD,47
156.0,16441.11620677903,23858.90023218396,-31296.219682242834,-18912.79446039134,-34097.18383517073,-25382.88687263571,-14559.792227720289,-29772.61302144683,0.0,0.0,0.0,193.0,0.0,194.0,0.0,0.0,0.0,179.0,194.0,0.0,179.0,1744420672.736624,0.0,2025-04-11 21:17:52.736,BACKWARD,47
157.0,16459.06465757664,23850.38421754649,-31312.983490584316,-18935.66029496912,-34114.28291967904,-25408.591378759313,-14119.529917184105,-29769.03674233398,0.0,0.0,0.0,193.0,0.0,193.0,0.0,0.0,0.0,179.0,193.0,0.0,179.0,1744420672.7366855,0.0,2025-04-11 21:17:52.736,BACKWARD,47
158.0,16451.353305739558,23836.23556330628,-31311.128295794526,-18939.393036293153,-34108.851445776396,-25403.56223625687,-14302.389538572972,-29825.586655805906,0.0,0.0,0.0,193.0,0.0,194.0,0.0,0.0,0.0,180.0,194.0,0.0,180.0,1744420672.7367322,0.0,2025-04-11 21:17:52.736,BACKWARD,47
159.0,16432.242564230273,23847.478490767302,-31307.999051570783,-18929.960600133014,-34104.2022829297,-25390.35235528378,-14646.114664806684,-29812.443830066186,0.0,0.0,0.0,193.0,0.0,193.0,0.0,0.0,0.0,179.0,193.0,0.0,179.0,1744420672.736778,0.0,2025-04-11 21:17:52.736,BACKWARD,47
160.0,16447.01706731523,23865.359886331546,-31289.20123448387,-18912.12390805768,-34083.795140242,-25373.946174853587,-14647.031086329353,-29786.47110300912,0.0,0.0,0.0,193.0,0.0,194.0,0.0,0.0,0.0,179.0,194.0,0.0,179.0,1744420672.736824,0.0,2025-04-11 21:17:52.736,BACKWARD,47
161.0,16470.911082137955,23862.81178746364,-31305.786228869707,-18925.40084426413,-34100.91657649477,-25395.470904764046,-14150.37532453243,-29755.670399149705,0.0,0.0,0.0,193.0,0.0,193.0,0.0,0.0,0.0,179.0,193.0,0.0,179.0,1744420672.7368696,0.0,2025-04-11 21:17:52.736,BACKWARD,47
162.0,16459.39993374347,23841.80114767565,-31314.212836529357,-18940.957658405026,-34104.246986418606,-25396.320271053348,-14214.18955495233,-29802.56435901694,0.0,0.0,0.0,193.0,0.0,193.0,0.0,0.0,0.0,179.0,193.0,0.0,179.0,1744420672.7369156,0.0,2025-04-11 21:17:52.736,BACKWARD,47
163.0,16434.187165997882,23852.418226291924,-31305.160380024958,-18925.333789030767,-34092.53467232402,-25383.44566624709,-14569.470533069436,-29792.081390867403,0.0,0.0,0.0,193.0,0.0,194.0,0.0,0.0,0.0,180.0,194.0,0.0,180.0,1744420672.7369614,0.0,2025-04-11 21:17:52.736,BACKWARD,47
164.0,16434.030703786695,23862.76708397473,-31294.610356642053,-18913.01797783589,-34083.43751233072,-25378.88591037821,-14670.8133424298,-29791.969632145123,0.0,0.0,0.0,193.0,0.0,193.0,0.0,0.0,0.0,179.0,193.0,0.0,179.0,1744420672.737022,0.0,2025-04-11 21:17:52.737,BACKWARD,47
165.0,16460.405762243958,23858.743769972774,-31308.557845182164,-18922.830393651773,-34101.2518526616,-25399.74008795501,-14212.155546206897,-29752.49645143705,0.0,0.0,0.0,193.0,0.0,193.0,0.0,0.0,0.0,179.0,193.0,0.0,179.0,1744420672.7370684,0.0,2025-04-11 21:17:52.737,BACKWARD,47
166.0,16459.131712810005,23839.789490674673,-31315.330423752122,-18939.147167104147,-34107.46563762017,-25400.67886122213,-14181.556008047583,-29807.057059652456,0.0,0.0,0.0,193.0,0.0,194.0,0.0,0.0,0.0,180.0,194.0,0.0,180.0,1744420672.737115,0.0,2025-04-11 21:17:52.737,BACKWARD,47
167.0,16429.8285758291,23846.070330866616,-31315.710403407862,-18931.74873968944,-34105.67749806374,-25392.229901818027,-14518.553259200247,-29803.65959449525,0.0,0.0,0.0,193.0,0.0,193.0,0.0,0.0,0.0,179.0,193.0,0.0,179.0,1744420672.737174,0.0,2025-04-11 21:17:52.737,BACKWARD,47
168.0,16425.984075782788,23847.56789774512,-31306.05444980317,-18924.529126230376,-34099.01667821607,-25388.40775351617,-14721.48474710998,-29812.354423088364,0.0,0.0,0.0,193.0,0.0,194.0,0.0,0.0,0.0,179.0,194.0,0.0,179.0,1744420672.7372203,0.0,2025-04-11 21:17:52.737,BACKWARD,47
169.0,16454.25903251875,23849.400740790457,-31310.81537137215,-18925.80317566433,-34106.77273354206,-25403.6963467236,-14315.800585246157,-29763.895841109257,0.0,0.0,0.0,193.0,0.0,193.0,0.0,0.0,0.0,179.0,193.0,0.0,179.0,1744420672.7372663,0.0,2025-04-11 21:17:52.737,BACKWARD,47
170.0,16458.103532565063,23836.816708662118,-31322.035947088716,-18950.166577120614,-34118.23917844763,-25420.013120175972,-14157.483179269217,-29821.89861797078,0.0,0.0,0.0,193.0,0.0,194.0,0.0,0.0,0.0,179.0,194.0,0.0,179.0,1744420672.737312,0.0,2025-04-11 21:17:52.737,BACKWARD,47
171.0,16436.377636954505,23841.175298830905,-31315.799810385684,-18941.4717485275,-34106.057477719485,-25403.092849623306,-14487.216113473907,-29827.307740128967,0.0,0.0,0.0,193.0,0.0,193.0,0.0,0.0,0.0,179.0,193.0,0.0,179.0,1744420672.7373579,0.0,2025-04-11 21:17:52.737,BACKWARD,47
172.0,16433.270744475216,23858.76612171723,-31302.411115456955,-18924.640884952652,-34096.11095143687,-25384.809122658866,-14727.050331479351,-29806.677079996716,0.0,0.0,0.0,193.0,0.0,194.0,0.0,0.0,0.0,180.0,194.0,0.0,180.0,1744420672.7374167,0.0,2025-04-11 21:17:52.737,BACKWARD,47
173.0,16461.29983202217,23861.91771768543,-31303.931034079917,-18920.50581222842,-34104.26933816306,-25395.15798034167,-14407.62155146856,-29765.88514636578,0.0,0.0,0.0,193.0,0.0,194.0,0.0,0.0,0.0,180.0,194.0,0.0,180.0,1744420672.7374623,0.0,2025-04-11 21:17:52.737,BACKWARD,47
174.0,16464.339669268094,23848.104339612048,-31321.87948487753,-18947.707885230528,-34119.91555928178,-25419.566085286868,-14108.21993448972,-29805.55949277395,0.0,0.0,0.0,193.0,0.0,193.0,0.0,0.0,0.0,179.0,193.0,0.0,179.0,1744420672.7375083,0.0,2025-04-11 21:17:52.737,BACKWARD,47
175.0,16443.88782309149,23842.24818256476,-31315.933920852414,-18940.398864793642,-34108.76203879858,-25404.21043684607,-14412.42717652645,-29828.045347695992,0.0,0.0,0.0,193.0,0.0,194.0,0.0,0.0,0.0,180.0,194.0,0.0,180.0,1744420672.7375543,0.0,2025-04-11 21:17:52.737,BACKWARD,47
176.0,16427.951029294854,23849.333685557092,-31308.580196926618,-18930.809966422315,-34107.733858553634,-25396.40967803117,-14729.598430347256,-29821.630397037316,0.0,0.0,0.0,193.0,0.0,193.0,0.0,0.0,0.0,179.0,193.0,0.0,179.0,1744420672.7376058,0.0,2025-04-11 21:17:52.737,BACKWARD,47
177.0,16439.015142800232,23851.635915235987,-31305.875635847526,-18926.27256229789,-34109.343184154415,-25407.719660725554,-14519.156756300541,-29796.37292580282,0.0,0.0,0.0,193.0,0.0,194.0,0.0,0.0,0.0,179.0,194.0,0.0,179.0,1744420672.7376513,0.0,2025-04-11 21:17:52.737,BACKWARD,47
178.0,16457.768256398234,23849.467796023822,-31314.391650485,-18941.762321205417,-34120.876684293355,-25417.487373052525,-14116.490079938183,-29797.423457792218,0.0,0.0,0.0,193.0,0.0,193.0,0.0,0.0,0.0,179.0,193.0,0.0,179.0,1744420672.73785,0.0,2025-04-11 21:17:52.737,BACKWARD,47
179.0,16451.68858190639,23843.65634246544,-31307.48496144831,-18935.190908335557,-34108.13618995383,-25402.578759500833,-14355.810207821156,-29826.436022095208,0.0,0.0,0.0,193.0,0.0,193.0,0.0,0.0,0.0,179.0,193.0,0.0,179.0,1744420672.7378938,0.0,2025-04-11 21:17:52.737,BACKWARD,47
180.0,16436.332933465594,23854.318124570626,-31303.260481746256,-18925.60200996423,-34102.838826517924,-25391.35818378427,-14693.969749685497,-29812.287367855,0.0,0.0,0.0,193.0,0.0,194.0,0.0,0.0,0.0,179.0,194.0,0.0,179.0,1744420672.7379353,0.0,2025-04-11 21:17:52.737,BACKWARD,47
181.0,16451.219195272828,23861.805958963152,-31299.728906122316,-18919.45528023902,-34103.3529166404,-25394.532131496922,-14609.413100411071,-29792.32726005641,0.0,0.0,0.0,193.0,0.0,194.0,0.0,0.0,0.0,179.0,194.0,0.0,179.0,1744420672.7379763,0.0,2025-04-11 21:17:52.737,BACKWARD,47
182.0,16467.133637325005,23856.687409482885,-31312.134124295015,-18937.783710692373,-34112.58418710044,-25415.52041954046,-14138.238327293198,-29771.98717260208,0.0,0.0,0.0,193.0,0.0,193.0,0.0,0.0,0.0,179.0,193.0,0.0,179.0,1744420672.7380347,0.0,2025-04-11 21:17:52.738,BACKWARD,47
183.0,16453.07439006262,23845.131557599492,-31310.860074861062,-18944.109254373223,-34103.03999221802,-25404.635119990722,-14272.25938704722,-29815.684833012205,0.0,0.0,0.0,193.0,0.0,194.0,0.0,0.0,0.0,180.0,194.0,0.0,180.0,1744420672.738076,0.0,2025-04-11 21:17:52.738,BACKWARD,47
184.0,16432.689599119378,23857.514424027733,-31309.943653338392,-18933.961562390516,-34100.8495212614,-25392.45341926258,-14613.771690579855,-29799.680983982205,0.0,0.0,0.0,193.0,0.0,193.0,0.0,0.0,0.0,179.0,193.0,0.0,179.0,1744420672.7381167,0.0,2025-04-11 21:17:52.738,BACKWARD,47
185.0,16437.96461081083,23861.71655198533,-31302.187598012402,-18922.204544807024,-34092.8475967464,-25384.809122658866,-14639.94558333702,-29777.485701738085,0.0,0.0,0.0,193.0,0.0,193.0,0.0,0.0,0.0,179.0,193.0,0.0,179.0,1744420672.7381575,0.0,2025-04-11 21:17:52.738,BACKWARD,47
186.0,16461.992736100285,23853.044075136673,-31320.538380210208,-18939.773015948897,-34115.221692946165,-25415.11808814026,-14166.42387705134,-29759.26903000701,0.0,0.0,0.0,193.0,0.0,193.0,0.0,0.0,0.0,179.0,193.0,0.0,179.0,1744420672.7381992,0.0,2025-04-11 21:17:52.738,BACKWARD,47
187.0,16458.282346520704,23838.94012438537,-31324.651101189986,-18952.33469633278,-34119.64733834831,-25415.11808814026,-14244.476168689273,-29840.651731568785,0.0,0.0,0.0,193.0,0.0,194.0,0.0,0.0,0.0,179.0,194.0,0.0,179.0,1744420672.7382538,0.0,2025-04-11 21:17:52.738,BACKWARD,47
188.0,16436.534099165692,23844.192784332372,-31311.597682428084,-18928.954771632525,-34098.23436716013,-25385.993765114996,-14581.965158219953,-29803.32431832842,0.0,0.0,0.0,193.0,0.0,193.0,0.0,0.0,0.0,179.0,193.0,0.0,179.0,1744420672.7383254,0.0,2025-04-11 21:17:52.738,BACKWARD,47
189.0,16437.45052068836,23858.49790078377,-31300.95825206736,-18912.615646435697,-34093.674611291244,-25371.174558541126,-14681.676290235078,-29782.403085518254,0.0,0.0,0.0,193.0,0.0,193.0,0.0,0.0,0.0,179.0,193.0,0.0,179.0,1744420672.738375,0.0,2025-04-11 21:17:52.738,BACKWARD,47
190.0,16461.053962833164,23866.4327700654,-31306.43442945891,-18913.576771447275,-34102.03416371753,-25382.506892979967,-14229.701665604314,-29739.398329186242,0.0,0.0,0.0,193.0,0.0,194.0,0.0,0.0,0.0,180.0,194.0,0.0,180.0,1744420672.738417,0.0,2025-04-11 21:17:52.738,BACKWARD,47
191.0,16464.20555880136,23850.451272779857,-31307.015574814748,-18926.160803575614,-34100.6483555613,-25384.362087769758,-14166.580339262528,-29795.52355951352,0.0,0.0,0.0,193.0,0.0,193.0,0.0,0.0,0.0,179.0,193.0,0.0,179.0,1744420672.7384572,0.0,2025-04-11 21:17:52.738,BACKWARD,47
192.0,16441.004448056752,23848.774891945708,-31302.29935673468,-18913.286198769358,-34094.255756647086,-25367.531224194914,-14489.943026297455,-29775.56345171493,0.0,0.0,0.0,193.0,0.0,193.0,0.0,0.0,0.0,180.0,193.0,0.0,180.0,1744420672.7385015,0.0,2025-04-11 21:17:52.738,BACKWARD,47
193.0,16434.276572975705,23857.603831005556,-31295.213853742345,-18906.915951599593,-34089.78540775602,-25359.037561301895,-14707.269037636404,-29775.89872788176,0.0,0.0,0.0,193.0,0.0,194.0,0.0,0.0,0.0,179.0,194.0,0.0,179.0,1744420672.7386029,0.0,2025-04-11 21:17:52.738,BACKWARD,47
194.0,16462.193901800383,23866.656287509955,-31298.723077621828,-18904.189038776047,-34096.73680028162,-25370.12402655173,-14317.678131780403,-29733.385709927767,0.0,0.0,0.0,193.0,0.0,193.0,0.0,0.0,0.0,179.0,193.0,0.0,179.0,1744420672.7386448,0.0,2025-04-11 21:17:52.738,BACKWARD,47
195.0,16464.49613147928,23855.592174004578,-31314.10107780708,-18928.954771632525,-34109.52199811006,-25389.21241631656,-14120.200469517766,-29788.818036176926,0.0,0.0,0.0,193.0,0.0,194.0,0.0,0.0,0.0,180.0,194.0,0.0,180.0,1744420672.7386854,0.0,2025-04-11 21:17:52.738,BACKWARD,47
196.0,16441.026799801206,23851.635915235987,-31314.548112696186,-18923.836222152262,-34109.410239387784,-25384.78677091441,-14452.213281656896,-29818.65761502476,0.0,0.0,0.0,193.0,0.0,194.0,0.0,0.0,0.0,179.0,194.0,0.0,179.0,1744420672.7387264,0.0,2025-04-11 21:17:52.738,BACKWARD,47
197.0,16431.572011896613,23863.974078175317,-31296.75612410976,-18904.50196319842,-34092.86994849086,-25357.83056710131,-14731.095997225762,-29800.66446073824,0.0,0.0,0.0,193.0,0.0,193.0,0.0,0.0,0.0,179.0,193.0,0.0,179.0,1744420672.7387836,0.0,2025-04-11 21:17:52.738,BACKWARD,47
198.0,16449.118131294028,23863.4823397973,-31297.605490399063,-18898.556399173307,-34099.70958229418,-25358.434064201603,-14423.223069098363,-29732.491640149554,0.0,0.0,0.0,193.0,0.0,193.0,0.0,0.0,0.0,179.0,193.0,0.0,179.0,1744420672.7388244,0.0,2025-04-11 21:17:52.738,BACKWARD,47
199.0,16472.40864901646,23853.62522049251,-31304.087496291104,-18915.767242403894,-34105.40927713028,-25374.437913231603,-14102.766108842625,-29757.346779983855,0.0,0.0,0.0,193.0,0.0,193.0,0.0,0.0,0.0,179.0,193.0,0.0,179.0,1744420672.7388654,0.0,2025-04-11 21:17:52.738,BACKWARD,47
200.0,16462.30566052266,23848.216098334327,-31297.18080725441,-18908.681739411564,-34091.12651242334,-25365.899546849676,-14367.343707960095,-29782.492492496076,0.0,0.0,0.0,193.0,0.0,193.0,0.0,0.0,0.0,179.0,193.0,0.0,179.0,1744420672.7389064,0.0,2025-04-11 21:17:52.738,BACKWARD,47
201.0,16446.190052770384,23866.09749389857,-31287.77072283873,-18896.88001833916,-34082.11875940785,-25354.67897113311,-14678.636452989156,-29776.18930055968,0.0,0.0,0.0,193.0,0.0,193.0,0.0,0.0,0.0,179.0,193.0,0.0,179.0,1744420672.738947,0.0,2025-04-11 21:17:52.738,BACKWARD,47
202.0,16462.73034366731,23875.596985292075,-31285.446141415377,-18891.40384094761,-34083.86219547537,-25365.184291027104,-14492.401718187539,-29749.41191070222,0.0,0.0,0.0,193.0,0.0,194.0,0.0,0.0,0.0,180.0,194.0,0.0,180.0,1744420672.7390022,0.0,2025-04-11 21:17:52.739,BACKWARD,47
203.0,16476.7895909297,23867.751522988263,-31302.34406022359,-18916.102518570726,-34100.961279983676,-25391.849922162288,-14075.74284979616,-29762.040646319467,0.0,0.0,0.0,193.0,0.0,193.0,0.0,0.0,0.0,180.0,193.0,0.0,180.0,1744420672.7390432,0.0,2025-04-11 21:17:52.739,BACKWARD,47
204.0,16457.611794187047,23856.843871694073,-31297.471379932333,-18912.682701669062,-34091.52884382354,-25380.137608067707,-14305.697596752358,-29799.479818282107,0.0,0.0,0.0,193.0,0.0,194.0,0.0,0.0,0.0,180.0,194.0,0.0,180.0,1744420672.7390838,0.0,2025-04-11 21:17:52.739,BACKWARD,47
205.0,16438.72457012231,23867.72917124381,-31286.943708293882,-18898.042309050838,-34079.10127390639,-25364.06670380434,-14638.000981569408,-29774.75878891454,0.0,0.0,0.0,193.0,0.0,194.0,0.0,0.0,0.0,179.0,194.0,0.0,179.0,1744420672.7391248,0.0,2025-04-11 21:17:52.739,BACKWARD,47
206.0,16447.59821267107,23869.15968288895,-31282.451007658365,-18893.035518292847,-34077.402541327785,-25366.078360805317,-14564.441390566994,-29761.057169563435,0.0,0.0,0.0,193.0,0.0,193.0,0.0,0.0,0.0,179.0,193.0,0.0,179.0,1744420672.7391658,0.0,2025-04-11 21:17:52.739,BACKWARD,47
207.0,16476.186093829405,23866.00808692075,-31293.068086274638,-18906.133640543656,-34092.57937581294,-25383.8927011362,-14099.50275415215,-29746.88616357877,0.0,0.0,0.0,193.0,0.0,194.0,0.0,0.0,0.0,180.0,194.0,0.0,180.0,1744420672.7392068,0.0,2025-04-11 21:17:52.739,BACKWARD,47
208.0,16468.11711408104,23848.506671012245,-31293.47041767483,-18909.21818127849,-34094.30046013599,-25373.83441613131,-14250.265270503196,-29796.976422903113,0.0,0.0,0.0,193.0,0.0,193.0,0.0,0.0,0.0,179.0,193.0,0.0,179.0,1744420672.7392952,0.0,2025-04-11 21:17:52.739,BACKWARD,47
209.0,16449.274593505215,23861.493034540777,-31282.920394291927,-18892.275558981368,-34082.83401523042,-25352.086168776295,-14610.977722522943,-29785.55468148645,0.0,0.0,0.0,193.0,0.0,193.0,0.0,0.0,0.0,179.0,193.0,0.0,179.0,1744420672.7393365,0.0,2025-04-11 21:17:52.739,BACKWARD,47
210.0,16460.07048607713,23880.827293494618,-31268.79409179617,-18877.63516636314,-34071.7922534695,-25343.614857627734,-14655.301231777816,-29769.37201850081,0.0,0.0,0.0,193.0,0.0,194.0,0.0,0.0,0.0,179.0,194.0,0.0,179.0,1744420672.7393775,0.0,2025-04-11 21:17:52.739,BACKWARD,47
211.0,16479.672965964433,23875.32876435861,-31285.066161759638,-18891.984986303447,-34092.19939615719,-25370.839282374298,-14168.368478818951,-29739.823012330893,0.0,0.0,0.0,193.0,0.0,193.0,0.0,0.0,0.0,179.0,193.0,0.0,179.0,1744420672.7394183,0.0,2025-04-11 21:17:52.739,BACKWARD,47
212.0,16469.055887348164,23859.995467662273,-31291.302298462666,-18904.45725970951,-34101.00598347258,-25371.93451785261,-14198.744499533714,-29797.26699558103,0.0,0.0,0.0,193.0,0.0,194.0,0.0,0.0,0.0,180.0,194.0,0.0,180.0,1744420672.739476,0.0,2025-04-11 21:17:52.739,BACKWARD,47
213.0,16449.498110949768,23868.28796485519,-31282.875690803015,-18889.03455603535,-34088.80193099999,-25349.225145486016,-14534.199480318963,-29761.70537015264,0.0,0.0,0.0,193.0,0.0,193.0,0.0,0.0,0.0,179.0,193.0,0.0,179.0,1744420672.7395191,0.0,2025-04-11 21:17:52.739,BACKWARD,47
214.0,16449.78868362769,23877.34042135959,-31272.459777886845,-18880.16091348659,-34077.402541327785,-25344.374816939213,-14654.56362421079,-29748.517840924007,0.0,0.0,0.0,193.0,0.0,193.0,0.0,0.0,0.0,179.0,193.0,0.0,179.0,1744420672.7395616,0.0,2025-04-11 21:17:52.739,BACKWARD,47
215.0,16476.610776974056,23877.429828337412,-31280.640516357485,-18885.12300075567,-34087.46082633267,-25362.367971225736,-14212.826098540558,-29715.12433470778,0.0,0.0,0.0,193.0,0.0,193.0,0.0,0.0,0.0,179.0,193.0,0.0,179.0,1744420672.7396035,0.0,2025-04-11 21:17:52.739,BACKWARD,47
216.0,16468.810018159154,23857.268554838724,-31291.123484507025,-18905.93247484356,-34092.08763743492,-25368.380590484216,-14137.277202281619,-29780.547890728463,0.0,0.0,0.0,193.0,0.0,194.0,0.0,0.0,0.0,179.0,194.0,0.0,179.0,1744420673.2115486,0.0,2025-04-11 21:17:53.211,BACKWARD,47
217.0,16441.45148294586,23863.080008397104,-31290.519987406733,-18897.192942761536,-34091.39473335681,-25354.567212410835,-14486.567912884702,-29784.12416984131,0.0,0.0,0.0,193.0,0.0,194.0,0.0,0.0,0.0,179.0,194.0,0.0,179.0,1744420673.2117033,0.0,2025-04-11 21:17:53.211,BACKWARD,47
218.0,16439.864509089533,23871.976002690317,-31280.23818495729,-18885.525332155863,-34082.52109080805,-25343.748968094467,-14719.495441853458,-29785.957012886647,0.0,0.0,0.0,193.0,0.0,193.0,0.0,0.0,0.0,179.0,193.0,0.0,179.0,1744420673.2117581,0.0,2025-04-11 21:17:53.211,BACKWARD,47
219.0,16461.21042504435,23871.350153845568,-31288.083647261104,-18887.02289903437,-34093.22757640214,-25360.937459580597,-14338.755826801756,-29742.929904810182,0.0,0.0,0.0,193.0,0.0,194.0,0.0,0.0,0.0,179.0,194.0,0.0,179.0,1744420673.21181,0.0,2025-04-11 21:17:53.211,BACKWARD,47
220.0,16465.25609079076,23863.907022941952,-31300.354754967066,-18913.733233658462,-34105.20811143018,-25380.584642956812,-14117.495908438672,-29799.256300837555,0.0,0.0,0.0,193.0,0.0,193.0,0.0,0.0,0.0,179.0,193.0,0.0,179.0,1744420673.2118623,0.0,2025-04-11 21:17:53.211,BACKWARD,47
221.0,16442.81493935763,23853.848737937064,-31295.213853742345,-18904.971349831983,-34093.674611291244,-25361.987991569997,-14414.572943994159,-29791.477893767107,0.0,0.0,0.0,193.0,0.0,193.0,0.0,0.0,0.0,179.0,193.0,0.0,179.0,1744420673.2119143,0.0,2025-04-11 21:17:53.211,BACKWARD,47
222.0,16435.59532589857,23870.81371197864,-31284.842644315082,-18893.862532837695,-34083.86219547537,-25351.907354820654,-14693.410956074114,-29787.52163499852,0.0,0.0,0.0,193.0,0.0,194.0,0.0,0.0,0.0,179.0,194.0,0.0,179.0,1744420673.2119727,0.0,2025-04-11 21:17:53.211,BACKWARD,47
223.0,16452.649706917968,23873.317107357634,-31290.34117345109,-18895.091878782736,-34092.55702406848,-25372.739180653,-14428.632191256547,-29771.316620268422,0.0,0.0,0.0,193.0,0.0,193.0,0.0,0.0,0.0,179.0,193.0,0.0,179.0,1744420673.2121162,0.0,2025-04-11 21:17:53.212,BACKWARD,47
224.0,16459.176416298917,23856.553299016156,-31303.662813146453,-18916.79542264884,-34104.89518700781,-25386.619613959745,-14084.392974900364,-29787.499283254063,0.0,0.0,0.0,193.0,0.0,194.0,0.0,0.0,0.0,180.0,194.0,0.0,180.0,1744420673.2121687,0.0,2025-04-11 21:17:53.212,BACKWARD,47
225.0,16446.234756259295,23859.52608102871,-31299.68420263341,-18909.41934697859,-34095.440399103216,-25368.715866651044,-14350.021106007232,-29799.14454211528,0.0,0.0,0.0,193.0,0.0,193.0,0.0,0.0,0.0,179.0,193.0,0.0,179.0,1744420673.2122204,0.0,2025-04-11 21:17:53.212,BACKWARD,47
226.0,16437.986962555286,23874.52410155822,-31294.05156303067,-18899.07048929578,-34094.56868106946,-25360.15514852466,-14681.542179768347,-29801.714992727637,0.0,0.0,0.0,193.0,0.0,193.0,0.0,0.0,0.0,179.0,193.0,0.0,179.0,1744420673.2122717,0.0,2025-04-11 21:17:53.212,BACKWARD,47
227.0,16452.135616795495,23868.377371833012,-31283.546243136676,-18889.749811857917,-34082.38698034132,-25362.88206134821,-14530.600849461658,-29774.155291814244,0.0,0.0,0.0,193.0,0.0,194.0,0.0,0.0,0.0,179.0,194.0,0.0,179.0,1744420673.2123463,0.0,2025-04-11 21:17:53.212,BACKWARD,47
228.0,16464.96551811284,23859.883708939997,-31294.3868391975,-18909.285236511856,-34092.44526534621,-25379.645869689688,-14079.07325972,-29753.50227993754,0.0,0.0,0.0,193.0,0.0,193.0,0.0,0.0,0.0,178.0,193.0,0.0,178.0,1744420673.2123983,0.0,2025-04-11 21:17:53.212,BACKWARD,47
229.0,16452.806169129155,23852.999371647762,-31290.274118217723,-18910.15695454561,-34089.11485542236,-25369.5875846848,-14294.991111158266,-29799.904501426758,0.0,0.0,0.0,193.0,0.0,193.0,0.0,0.0,0.0,179.0,193.0,0.0,179.0,1744420673.2124498,0.0,2025-04-11 21:17:53.212,BACKWARD,47
230.0,16430.387369440483,23863.43763630839,-31283.970926281327,-18896.432983450053,-34081.13528265182,-25355.953020567064,-14641.532557193346,-29785.84525416437,0.0,0.0,0.0,193.0,0.0,193.0,0.0,0.0,0.0,179.0,193.0,0.0,179.0,1744420673.2125013,0.0,2025-04-11 21:17:53.212,BACKWARD,47
231.0,16433.78483459769,23865.382238076003,-31284.708533848352,-18892.45437293701,-34081.515262307556,-25362.05504680336,-14589.31888214575,-29779.251489550054,0.0,0.0,0.0,193.0,0.0,193.0,0.0,0.0,0.0,180.0,193.0,0.0,180.0,1744420673.2125523,0.0,2025-04-11 21:17:53.212,BACKWARD,47
232.0,16464.473779734824,23866.745694487774,-31294.878577575517,-18901.059794552304,-34093.42874210224,-25376.87425337723,-14123.374417230418,-29766.399236488254,0.0,0.0,0.0,193.0,0.0,194.0,0.0,0.0,0.0,180.0,194.0,0.0,180.0,1744420673.212624,0.0,2025-04-11 21:17:53.212,BACKWARD,47
233.0,16444.848948103067,23843.455176765347,-31302.96990906834,-18912.056852824313,-34096.71444853717,-25373.320326008838,-14243.24682274423,-29821.00454819257,0.0,0.0,0.0,193.0,0.0,193.0,0.0,0.0,0.0,179.0,193.0,0.0,179.0,1744420673.212676,0.0,2025-04-11 21:17:53.212,BACKWARD,47
234.0,16421.558430380635,23844.796281432664,-31308.021403315237,-18909.017015578393,-34095.03806770302,-25366.79361662789,-14592.135201947118,-29811.08037365441,0.0,0.0,0.0,193.0,0.0,193.0,0.0,0.0,0.0,179.0,193.0,0.0,179.0,1744420673.2127273,0.0,2025-04-11 21:17:53.212,BACKWARD,47
235.0,16430.744997351765,23858.90023218396,-31296.77847585422,-18894.711899126996,-34083.817491986454,-25358.478767690514,-14660.509188235903,-29798.09401012588,0.0,0.0,0.0,193.0,0.0,193.0,0.0,0.0,0.0,179.0,193.0,0.0,179.0,1744420673.2127786,0.0,2025-04-11 21:17:53.212,BACKWARD,47
236.0,16455.421323230425,23864.15289213096,-31305.562711425155,-18899.27165499588,-34095.97684097014,-25375.44374173209,-14173.397621321395,-29751.51297468102,0.0,0.0,0.0,193.0,0.0,193.0,0.0,0.0,0.0,179.0,193.0,0.0,179.0,1744420673.2128296,0.0,2025-04-11 21:17:53.212,BACKWARD,47
237.0,16454.326087752117,23858.453197294857,-31305.42860095842,-18906.759489388405,-34097.049724704,-25367.35241023927,-14191.435479096828,-29807.213521863643,0.0,0.0,0.0,193.0,0.0,194.0,0.0,0.0,0.0,179.0,194.0,0.0,179.0,1744420673.212881,0.0,2025-04-11 21:17:53.212,BACKWARD,47
238.0,16427.481642661292,23863.214118863838,-31309.876598105027,-18900.32218698528,-34103.01764047356,-25360.15514852466,-14538.289849554283,-29799.27865258201,0.0,0.0,0.0,193.0,0.0,193.0,0.0,0.0,0.0,179.0,193.0,0.0,179.0,1744420673.212948,0.0,2025-04-11 21:17:53.212,BACKWARD,47
239.0,16425.20176472685,23867.170377632425,-31300.444161944888,-18893.34844271522,-34095.55215782549,-25355.975372311517,-14706.91140972512,-29805.291271840488,0.0,0.0,0.0,193.0,0.0,194.0,0.0,0.0,0.0,179.0,194.0,0.0,179.0,1744420673.2130003,0.0,2025-04-11 21:17:53.213,BACKWARD,47
240.0,16453.789645885186,23864.86814795353,-31306.63559515901,-18899.092841040238,-34104.76107654108,-25373.901471364676,-14266.760857911213,-29759.827823618394,0.0,0.0,0.0,193.0,0.0,194.0,0.0,0.0,0.0,179.0,194.0,0.0,179.0,1744420673.213052,0.0,2025-04-11 21:17:53.213,BACKWARD,47
241.0,16464.36202101255,23854.00520014825,-31308.33432773761,-18916.013111592903,-34107.21976843116,-25379.087076078307,-14152.409333277863,-29814.544894044986,0.0,0.0,0.0,193.0,0.0,193.0,0.0,0.0,0.0,179.0,193.0,0.0,179.0,1744420673.2131207,0.0,2025-04-11 21:17:53.213,BACKWARD,47
242.0,16449.699276649866,23854.698104226365,-31299.505388677764,-18901.73034688596,-34096.960317726174,-25357.227070001016,-14467.971261497887,-29786.582861731396,0.0,0.0,0.0,193.0,0.0,194.0,0.0,0.0,0.0,179.0,194.0,0.0,179.0,1744420673.2131732,0.0,2025-04-11 21:17:53.213,BACKWARD,47
243.0,16443.597250413568,23867.43859856589,-31284.66383035944,-18889.16866650208,-34087.28201237703,-25343.659561116645,-14716.746177285455,-29781.173739573213,0.0,0.0,0.0,193.0,0.0,193.0,0.0,0.0,0.0,178.0,193.0,0.0,178.0,1744420673.213225,0.0,2025-04-11 21:17:53.213,BACKWARD,47
244.0,16462.663288433945,23872.579499790612,-31289.62591762852,-18892.387317703644,-34096.17800667024,-25366.570099183333,-14363.387449191505,-29754.55281192694,0.0,0.0,0.0,193.0,0.0,194.0,0.0,0.0,0.0,180.0,194.0,0.0,180.0,1744420673.21328,0.0,2025-04-11 21:17:53.213,BACKWARD,47
245.0,16466.999526858275,23857.11209262754,-31302.500522434777,-18918.136527316157,-34109.87962602134,-25388.251291304983,-14114.433719448296,-29808.822847464427,0.0,0.0,0.0,193.0,0.0,194.0,0.0,0.0,0.0,180.0,194.0,0.0,180.0,1744420673.2133267,0.0,2025-04-11 21:17:53.213,BACKWARD,47
246.0,16444.044285302673,23851.993543147273,-31303.796923613183,-18915.342559259243,-34108.62792833184,-25382.39513425769,-14428.408673811993,-29835.33201638842,0.0,0.0,0.0,193.0,0.0,193.0,0.0,0.0,0.0,179.0,193.0,0.0,179.0,1744420673.2133725,0.0,2025-04-11 21:17:53.213,BACKWARD,47
247.0,16440.557413167648,23860.3307438291,-31292.799865341174,-18901.685643397053,-34098.167311926765,-25363.26204100395,-14723.697569811055,-29814.61194927835,0.0,0.0,0.0,193.0,0.0,194.0,0.0,0.0,0.0,179.0,194.0,0.0,179.0,1744420673.2134364,0.0,2025-04-11 21:17:53.213,BACKWARD,47
248.0,16459.355230254558,23865.270479353727,-31289.111827506047,-18891.73911711444,-34090.45596008968,-25366.011305571952,-14456.52716833677,-29759.09021605137,0.0,0.0,0.0,193.0,0.0,193.0,0.0,0.0,0.0,179.0,193.0,0.0,179.0,1744420673.213483,0.0,2025-04-11 21:17:53.213,BACKWARD,47
249.0,16472.65451820547,23860.48720604029,-31298.320746221634,-18905.17251553208,-34095.3956956143,-25376.941308610596,-14084.25886443363,-29767.673285922207,0.0,0.0,0.0,193.0,0.0,194.0,0.0,0.0,0.0,179.0,194.0,0.0,179.0,1744420673.2135432,0.0,2025-04-11 21:17:53.213,BACKWARD,47
250.0,16456.11422730854,23848.171394845416,-31299.930071822415,-18902.959692831006,-34093.92048048025,-25369.811102129355,-14339.26991692423,-29803.637242750796,0.0,0.0,0.0,193.0,0.0,193.0,0.0,0.0,0.0,179.0,193.0,0.0,179.0,1744420673.2135844,0.0,2025-04-11 21:17:53.213,BACKWARD,47
251.0,16435.125939265006,23856.62035424952,-31295.996164798282,-18892.78964910384,-34091.797064757,-25360.758645624956,-14678.390583800148,-29799.81509444894,0.0,0.0,0.0,193.0,0.0,194.0,0.0,0.0,0.0,180.0,194.0,0.0,180.0,1744420673.2136252,0.0,2025-04-11 21:17:53.213,BACKWARD,47
252.0,16448.44757896037,23865.896328198472,-31292.464589174342,-18887.089954267736,-34089.31602112246,-25362.725599137022,-14543.07312286772,-29776.256355793044,0.0,0.0,0.0,193.0,0.0,194.0,0.0,0.0,0.0,179.0,194.0,0.0,179.0,1744420673.2136672,0.0,2025-04-11 21:17:53.213,BACKWARD,47
253.0,16469.569977470634,23866.075142154117,-31302.27700499022,-18902.959692831006,-34097.85438750439,-25381.45636099057,-14105.448318177263,-29769.1261493118,0.0,0.0,0.0,193.0,0.0,193.0,0.0,0.0,0.0,179.0,193.0,0.0,179.0,1744420673.2137227,0.0,2025-04-11 21:17:53.213,BACKWARD,47
254.0,16450.034552816698,23850.160700101937,-31303.662813146453,-18907.407689977612,-34097.96614622667,-25377.790674899898,-14287.570331999104,-29809.22517886462,0.0,0.0,0.0,193.0,0.0,193.0,0.0,0.0,0.0,179.0,193.0,0.0,179.0,1744420673.2137644,0.0,2025-04-11 21:17:53.213,BACKWARD,47
255.0,16433.20368924185,23861.20246186286,-31297.314917721145,-18896.88001833916,-34091.90882347927,-25364.133759037708,-14648.7074671635,-29802.452600294662,0.0,0.0,0.0,193.0,0.0,193.0,0.0,0.0,0.0,179.0,193.0,0.0,179.0,1744420673.213806,0.0,2025-04-11 21:17:53.213,BACKWARD,47
0.0,16442.63612540199,23870.612546278542,-31291.592871140587,-18888.699279868517,-34089.36072461137,-25362.21150901455,-14643.007772327397,-29791.38848678929,0.0,0.0,0.0,193.0,0.0,194.0,0.0,0.0,0.0,180.0,194.0,0.0,180.0,1744420673.213863,0.0,2025-04-11 21:17:53.213,BACKWARD,47
1.0,16464.49613147928,23866.656287509955,-31308.66960390444,-18904.524314942875,-34107.733858553634,-25388.251291304983,-14144.60857446296,-29762.890012608772,0.0,0.0,0.0,193.0,0.0,194.0,0.0,0.0,0.0,180.0,194.0,0.0,180.0,1744420673.213904,0.0,2025-04-11 21:17:53.213,BACKWARD,47
2.0,16458.952898854364,23849.512499512733,-31308.557845182164,-18915.92370461508,-34103.3529166404,-25382.46218949106,-14234.060255773098,-29819.842257480894,0.0,0.0,0.0,193.0,0.0,193.0,0.0,0.0,0.0,179.0,193.0,0.0,179.0,1744420673.213946,0.0,2025-04-11 21:17:53.213,BACKWARD,47
3.0,16438.34459046657,23860.621316507022,-31305.495656191786,-18905.798364376828,-34100.62600381685,-25364.379628226714,-14592.112850202662,-29798.541045014987,0.0,0.0,0.0,193.0,0.0,194.0,0.0,0.0,0.0,179.0,194.0,0.0,179.0,1744420673.2139876,0.0,2025-04-11 21:17:53.213,BACKWARD,47
4.0,16439.708046878346,23870.299621856168,-31296.39849619848,-18896.23181774996,-34092.80289325749,-25353.091997276784,-14689.387642072159,-29788.996850132567,0.0,0.0,0.0,193.0,0.0,193.0,0.0,0.0,0.0,179.0,193.0,0.0,179.0,1744420673.2140284,0.0,2025-04-11 21:17:53.214,BACKWARD,47
5.0,16464.384372757002,23868.444427066377,-31304.646289902485,-18903.294968997834,-34101.14009393932,-25369.229956773517,-14215.57536310856,-29746.72970136758,0.0,0.0,0.0,193.0,0.0,194.0,0.0,0.0,0.0,180.0,194.0,0.0,180.0,1744420673.214104,0.0,2025-04-11 21:17:53.214,BACKWARD,47
6.0,16457.656497675955,23845.377426788502,-31313.475228962332,-18924.97616111948,-34103.5987858294,-25376.82954988832,-14176.750382989692,-29804.799533462472,0.0,0.0,0.0,193.0,0.0,193.0,0.0,0.0,0.0,179.0,193.0,0.0,179.0,1744420673.214162,0.0,2025-04-11 21:17:53.214,BACKWARD,47
7.0,16438.143424766473,23849.28898206818,-31305.786228869707,-18911.252190023923,-34092.71348627967,-25358.76934036843,-14511.579514930192,-29788.90744315475,0.0,0.0,0.0,193.0,0.0,193.0,0.0,0.0,0.0,179.0,193.0,0.0,179.0,1744420673.214204,0.0,2025-04-11 21:17:53.214,BACKWARD,47
8.0,16429.850927573556,23857.20149960536,-31297.896063076983,-18904.680777154063,-34088.17608215524,-25358.92580257962,-14695.62377877519,-29795.70237346916,0.0,0.0,0.0,193.0,0.0,193.0,0.0,0.0,0.0,179.0,193.0,0.0,179.0,1744420673.214245,0.0,2025-04-11 21:17:53.214,BACKWARD,47
9.0,16461.903329122466,23869.226738122314,-31294.252728730768,-18897.68468113955,-34090.85829148988,-25371.50983470796,-14292.197143101354,-29762.51003295303,0.0,0.0,0.0,193.0,0.0,194.0,0.0,0.0,0.0,179.0,194.0,0.0,179.0,1744420673.2142863,0.0,2025-04-11 21:17:53.214,BACKWARD,47
10.0,16468.184169314405,23857.96145891684,-31304.19925501338,-18915.968408103992,-34103.5987858294,-25382.01515460195,-14138.528899971117,-29811.8850364548,0.0,0.0,0.0,193.0,0.0,194.0,0.0,0.0,0.0,180.0,194.0,0.0,180.0,1744420673.2143307,0.0,2025-04-11 21:17:53.214,BACKWARD,47
11.0,16450.101608050063,23860.129578129003,-31300.19829275588,-18903.473782953475,-34100.2013206722,-25365.251346260473,-14471.569892355192,-29808.46521955314,0.0,0.0,0.0,193.0,0.0,193.0,0.0,0.0,0.0,179.0,193.0,0.0,179.0,1744420673.214373,0.0,2025-04-11 21:17:53.214,BACKWARD,47
12.0,16446.458273703847,23874.09941841357,-31286.76489433824,-18891.157971758603,-34088.55606181098,-25356.40005545617,-14728.905526269142,-29810.90155969877,0.0,0.0,0.0,193.0,0.0,194.0,0.0,0.0,0.0,179.0,194.0,0.0,179.0,1744420673.2144723,0.0,2025-04-11 21:17:53.214,BACKWARD,47
13.0,16464.36202101255,23873.741790502285,-31294.833874086606,-18894.13075377116,-34101.27420440605,-25373.633250431212,-14381.045327311198,-29763.672323664705,0.0,0.0,0.0,193.0,0.0,193.0,0.0,0.0,0.0,179.0,193.0,0.0,179.0,1744420673.2145207,0.0,2025-04-11 21:17:53.214,BACKWARD,47
14.0,16471.5369309827,23862.14123512998,-31305.942691080894,-18916.527201715377,-34113.254739434095,-25384.607956958767,-14106.521201911117,-29781.3302017844,0.0,0.0,0.0,193.0,0.0,194.0,0.0,0.0,0.0,180.0,194.0,0.0,180.0,1744420673.2145636,0.0,2025-04-11 21:17:53.214,BACKWARD,47
15.0,16447.329991737603,23852.10530186955,-31305.80858061416,-18915.07433832578,-34110.527826610545,-25383.378611013726,-14406.61572296807,-29808.308757341954,0.0,0.0,0.0,193.0,0.0,193.0,0.0,1.0,0.0,179.0,193.0,1.0,179.0,1744420673.2146552,0.0,2025-04-11 21:17:53.214,BACKWARD,47
16.0,16432.130805507997,23869.182034633403,-31296.063220031647,-18902.959692831006,-34099.84369276091,-25371.91216610815,-14713.304008639338,-29810.543931787484,0.0,0.0,0.0,193.0,0.0,194.0,0.0,2.0,0.0,180.0,194.0,2.0,180.0,1744420673.2147024,0.0,2025-04-11 21:17:53.214,BACKWARD,47
17.0,16448.268765004726,23861.515386285235,-31292.933975807904,-18895.58361716075,-34095.50745433658,-25378.88591037821,-14481.114087237607,-29777.75392267155,0.0,0.0,0.0,193.0,0.0,193.0,0.0,3.0,0.0,179.0,193.0,3.0,179.0,1744420673.214753,0.0,2025-04-11 21:17:53.214,BACKWARD,47
18.0,16465.59136695759,23850.160700101937,-31304.266310246745,-18912.682701669062,-34107.28682366453,-25392.92280589614,-14090.070317992011,-29784.727666941606,0.0,0.0,0.0,193.0,0.0,193.0,0.0,4.0,0.0,179.0,193.0,4.0,179.0,1744420673.2147963,0.0,2025-04-11 21:17:53.214,BACKWARD,47
19.0,16444.647782402968,23845.19861283286,-31305.607414914062,-18910.067547567793,-34106.99625098661,-25377.991840599996,-14342.533271614704,-29806.632376507805,0.0,0.0,0.0,193.0,0.0,193.0,0.0,5.0,0.0,179.0,193.0,5.0,179.0,1744420673.2148457,0.0,2025-04-11 21:17:53.214,BACKWARD,47
20.0,16431.192032240873,23857.44736879437,-31299.125409022025,-18899.49517244043,-34100.08956194992,-25366.458340461057,-14683.24091234695,-29797.222292092123,0.0,0.0,0.0,193.0,0.0,193.0,0.0,7.0,0.0,179.0,193.0,7.0,179.0,1744420673.2149448,0.0,2025-04-11 21:17:53.214,BACKWARD,47
21.0,16453.655535418457,23866.47747355431,-31287.837778072095,-18889.615701391187,-34088.69017227771,-25370.6381166742,-14583.149800676085,-29788.88509141029,0.0,0.0,0.0,193.0,0.0,194.0,0.0,7.0,0.0,180.0,194.0,7.0,180.0,1744420673.214992,0.0,2025-04-11 21:17:53.214,BACKWARD,47
22.0,16477.013108374253,23868.82440672212,-31294.543301408685,-18900.098669540726,-34098.61434681587,-25380.5399394679,-14113.584353158994,-29761.951239341648,0.0,0.0,0.0,193.0,0.0,193.0,0.0,8.0,0.0,179.0,193.0,8.0,179.0,1744420673.2150385,0.0,2025-04-11 21:17:53.215,BACKWARD,47
23.0,16465.613718702047,23854.742807715276,-31293.09043801909,-18904.703128898516,-34097.40735261528,-25364.603145671266,-14283.815238930612,-29799.055135137456,0.0,0.0,0.0,193.0,0.0,194.0,0.0,9.0,0.0,180.0,194.0,9.0,180.0,1744420673.2150831,0.0,2025-04-11 21:17:53.215,BACKWARD,47
24.0,16438.769273611222,23861.13540662949,-31292.755161852263,-18899.159896273602,-34096.4462276037,-25352.287334476394,-14624.768748851866,-29776.479873237597,0.0,0.0,0.0,193.0,0.0,193.0,0.0,10.0,0.0,179.0,193.0,10.0,179.0,1744420673.2151275,0.0,2025-04-11 21:17:53.215,BACKWARD,47
25.0,16443.239622502282,23868.176206132914,-31290.698801362374,-18896.187114261047,-34096.2450619036,-25355.93066882261,-14648.193377041029,-29783.967707630123,0.0,0.0,0.0,193.0,0.0,194.0,0.0,10.0,0.0,180.0,194.0,10.0,180.0,1744420673.2151725,0.0,2025-04-11 21:17:53.215,BACKWARD,47
26.0,16470.79932341568,23869.494959055777,-31307.015574814748,-18911.40865223511,-34108.47146612066,-25380.584642956812,-14170.268377097653,-29763.828785875892,0.0,0.0,0.0,193.0,0.0,193.0,0.0,11.0,0.0,179.0,193.0,11.0,179.0,1744420673.2152176,0.0,2025-04-11 21:17:53.215,BACKWARD,47
27.0,16457.16475929794,23851.457101280346,-31310.167170782945,-18918.091823827246,-34102.212977673174,-25371.755703896964,-14228.025284770167,-29810.543931787484,0.0,0.0,0.0,193.0,0.0,193.0,0.0,11.0,0.0,179.0,193.0,11.0,179.0,1744420673.2153168,0.0,2025-04-11 21:17:53.215,BACKWARD,47
28.0,16437.67403813291,23855.63687749349,-31305.965042825348,-18904.4125562206,-34095.73097178114,-25354.120177521727,-14568.21883537994,-29791.455542022653,0.0,0.0,0.0,193.0,0.0,194.0,0.0,12.0,0.0,180.0,194.0,12.0,180.0,1744420673.2153656,0.0,2025-04-11 21:17:53.215,BACKWARD,47
29.0,16441.473834690314,23872.87007246853,-31293.71628686384,-18892.812000848295,-34081.85053847439,-25347.6828751186,-14677.027127388374,-29779.98909711708,0.0,0.0,0.0,193.0,0.0,194.0,0.0,12.0,0.0,179.0,194.0,12.0,179.0,1744420673.215412,0.0,2025-04-11 21:17:53.215,BACKWARD,47
30.0,16467.670079191932,23873.54062480219,-31303.19342651289,-18898.556399173307,-34101.31890789496,-25366.6371544167,-14217.654075342904,-29744.49452692205,0.0,0.0,0.0,193.0,0.0,194.0,0.0,12.0,0.0,180.0,194.0,12.0,180.0,1744420673.2154865,0.0,2025-04-11 21:17:53.215,BACKWARD,47
31.0,16465.323146024126,23848.61842973452,-31308.446086459888,-18918.091823827246,-34103.03999221802,-25375.510796965456,-14175.006946922178,-29803.65959449525,0.0,0.0,0.0,193.0,0.0,193.0,0.0,13.0,0.0,179.0,193.0,13.0,179.0,1744420673.2155309,0.0,2025-04-11 21:17:53.215,BACKWARD,47
32.0,16438.903384077952,23849.266630323724,-31306.702650392373,-18909.665216167596,-34098.27907064904,-25366.145416038682,-14500.157773513529,-29792.304908311955,0.0,0.0,0.0,193.0,0.0,194.0,0.0,13.0,0.0,180.0,194.0,13.0,180.0,1744420673.2155745,0.0,2025-04-11 21:17:53.215,BACKWARD,47
33.0,16441.026799801206,23864.957554931352,-31290.408228684453,-18891.73911711444,-34083.43751233072,-25351.572078653822,-14698.998892187941,-29781.620774462317,0.0,0.0,0.0,193.0,0.0,193.0,0.0,13.0,0.0,179.0,193.0,13.0,179.0,1744420673.215619,0.0,2025-04-11 21:17:53.215,BACKWARD,47
34.0,16455.890709863987,23863.839967708587,-31307.350850981577,-18900.232780007456,-34103.28586140703,-25375.801369643377,-14281.602416229536,-29736.961989040614,0.0,0.0,0.0,193.0,0.0,194.0,0.0,13.0,0.0,180.0,194.0,13.0,180.0,1744420673.2156627,0.0,2025-04-11 21:17:53.215,BACKWARD,47
35.0,16458.081180820605,23851.613563491534,-31315.53158945222,-18917.331864515767,-34109.969032999164,-25379.712924923057,-14120.64750440687,-29795.590614746885,0.0,0.0,0.0,193.0,0.0,193.0,0.0,14.0,0.0,179.0,193.0,14.0,179.0,1744420673.215734,0.0,2025-04-11 21:17:53.215,BACKWARD,47
36.0,16445.31833473663,23848.081987867594,-31306.09915329208,-18900.433945707555,-34101.855349761885,-25359.752817124467,-14468.127723709074,-29799.99390840458,0.0,0.0,0.0,193.0,0.0,193.0,0.0,14.0,0.0,179.0,193.0,14.0,179.0,1744420673.21578,0.0,2025-04-11 21:17:53.215,BACKWARD,47
37.0,16437.651686388457,23856.709761227343,-31297.270214232234,-18889.727460113463,-34095.574509569946,-25349.761587352943,-14722.781148288388,-29787.208710576146,0.0,0.0,0.0,193.0,0.0,194.0,0.0,14.0,0.0,180.0,194.0,14.0,180.0,1744420673.2158277,0.0,2025-04-11 21:17:53.215,BACKWARD,47
38.0,16453.49907320727,23862.297697341168,-31304.556882924666,-18893.437849693044,-34105.96807074166,-25367.039485816895,-14404.224086311351,-29755.73745438307,0.0,0.0,0.0,193.0,0.0,193.0,0.0,14.0,0.0,179.0,193.0,14.0,179.0,1744420673.2158754,0.0,2025-04-11 21:17:53.215,BACKWARD,47
39.0,16461.702163422367,23847.85847042304,-31310.56950218314,-18911.498059212932,-34109.052611476494,-25380.048201089885,-14110.36570195743,-29788.482760010098,0.0,0.0,0.0,193.0,0.0,194.0,0.0,14.0,0.0,180.0,194.0,14.0,180.0,1744420673.21592,0.0,2025-04-11 21:17:53.215,BACKWARD,47
40.0,16448.939317338387,23840.57180173061,-31299.90772007796,-18899.27165499588,-34096.51328283707,-25365.564270682848,-14390.32130126015,-29804.933643929202,0.0,0.0,0.0,193.0,0.0,193.0,0.0,15.0,0.0,179.0,193.0,15.0,179.0,1744420673.2159624,0.0,2025-04-11 21:17:53.215,BACKWARD,47
41.0,16442.859642846543,23859.77195021772,-31283.702705347863,-18879.825637319762,-34082.27522161904,-25345.805328584353,-14690.438174061559,-29781.777236673504,0.0,0.0,0.0,193.0,0.0,194.0,0.0,15.0,0.0,180.0,194.0,15.0,180.0,1744420673.2160053,0.0,2025-04-11 21:17:53.216,BACKWARD,47
42.0,16465.904291379964,23872.467741068333,-31276.036056999692,-18868.64976509211,-34082.498739063594,-25348.509889663448,-14493.116974010109,-29745.768576356004,0.0,0.0,0.0,193.0,0.0,194.0,0.0,15.0,0.0,180.0,194.0,15.0,180.0,1744420673.2160692,0.0,2025-04-11 21:17:53.216,BACKWARD,47
43.0,16482.601044488078,23861.470682796324,-31292.933975807904,-18892.968463059482,-34104.2022829297,-25377.343640010793,-14103.973103043212,-29772.680076680193,0.0,0.0,0.0,193.0,0.0,194.0,0.0,15.0,0.0,179.0,194.0,15.0,179.0,1744420673.2161129,0.0,2025-04-11 21:17:53.216,BACKWARD,47
44.0,16460.74103841079,23840.460043008334,-31294.029211286215,-18896.477686938964,-34096.60268981489,-25371.666296919146,-14338.353495401561,-29814.32137660043,0.0,0.0,0.0,193.0,0.0,194.0,0.0,15.0,0.0,180.0,194.0,15.0,180.0,1744420673.2161565,0.0,2025-04-11 21:17:53.216,BACKWARD,47
45.0,16438.948087566863,23853.20053734786,-31290.743504851285,-18886.68762286754,-34090.23244264513,-25356.601221156267,-14653.110760821195,-29787.365172787333,0.0,0.0,0.0,193.0,0.0,193.0,0.0,15.0,0.0,179.0,193.0,15.0,179.0,1744420673.216226,0.0,2025-04-11 21:17:53.216,BACKWARD,47
46.0,16449.40870397195,23862.18593861889,-31285.3343826931,-18879.423305919565,-34087.01379144356,-25356.288296733892,-14566.989489434898,-29768.455596978143,0.0,0.0,0.0,193.0,0.0,194.0,0.0,15.0,0.0,180.0,194.0,15.0,180.0,1744420673.216272,0.0,2025-04-11 21:17:53.216,BACKWARD,47
47.0,16470.508750737758,23857.827348450108,-31299.86301658905,-18897.192942761536,-34105.20811143018,-25376.606032443768,-14120.64750440687,-29760.99011433007,0.0,0.0,0.0,193.0,0.0,194.0,0.0,15.0,0.0,180.0,194.0,15.0,180.0,1744420673.216316,0.0,2025-04-11 21:17:53.216,BACKWARD,47
48.0,16456.44950347537,23836.637894706477,-31298.968946810837,-18902.78087887536,-34096.826207259444,-25366.905375350165,-14282.474134263293,-29802.60906250585,0.0,0.0,0.0,193.0,0.0,193.0,0.0,15.0,0.0,179.0,193.0,15.0,179.0,1744420673.216359,0.0,2025-04-11 21:17:53.216,BACKWARD,47
49.0,16435.550622409657,23848.171394845416,-31294.05156303067,-18892.25320723691,-34090.32184962295,-25357.092959534286,-14622.51122266188,-29794.920062413225,0.0,0.0,0.0,193.0,0.0,194.0,0.0,15.0,0.0,180.0,194.0,15.0,180.0,1744420673.2164028,0.0,2025-04-11 21:17:53.216,BACKWARD,47
50.0,16442.479663190803,23856.598002505067,-31288.888310061495,-18888.4087071906,-34084.1974716422,-25358.009381056952,-14642.605440927202,-29789.89091991078,0.0,0.0,0.0,193.0,0.0,194.0,0.0,15.0,0.0,179.0,194.0,15.0,179.0,1744420673.216459,0.0,2025-04-11 21:17:53.216,BACKWARD,47
51.0,16471.58163447161,23851.591211747076,-31299.974775311326,-18898.332881728755,-34096.60268981489,-25371.93451785261,-14155.292708312596,-29745.299189722442,0.0,0.0,0.0,193.0,0.0,194.0,0.0,16.0,0.0,180.0,194.0,16.0,180.0,1744420673.2165017,0.0,2025-04-11 21:17:53.216,BACKWARD,47
52.0,16468.050058847675,23833.754519671744,-31301.405286956466,-18906.804192877316,-34098.167311926765,-25370.168730040637,-14213.630761340948,-29809.113420142345,0.0,0.0,0.0,193.0,0.0,193.0,0.0,16.0,0.0,179.0,193.0,16.0,179.0,1744420673.216544,0.0,2025-04-11 21:17:53.216,BACKWARD,47
53.0,16439.68569513389,23831.96638011532,-31303.863978846548,-18902.669120153085,-34100.22367241665,-25366.92772709462,-14576.109001172663,-29812.04149866599,0.0,0.0,0.0,193.0,0.0,193.0,0.0,16.0,0.0,179.0,193.0,16.0,179.0,1744420673.2166097,0.0,2025-04-11 21:17:53.216,BACKWARD,47
54.0,16442.122035279517,23849.601906490556,-31291.257594973755,-18890.554474658307,-34089.94186996721,-25352.510851920946,-14702.15048815614,-29796.194111847177,0.0,0.0,0.0,193.0,0.0,194.0,0.0,16.0,0.0,180.0,194.0,16.0,180.0,1744420673.2166557,0.0,2025-04-11 21:17:53.216,BACKWARD,47
55.0,16465.948994868875,23860.442502551377,-31296.95728980986,-18893.862532837695,-34101.095390450406,-25366.815968372342,-14242.620973899482,-29738.526611152487,0.0,0.0,0.0,193.0,0.0,193.0,0.0,16.0,0.0,179.0,193.0,16.0,179.0,1744420673.2167037,0.0,2025-04-11 21:17:53.216,BACKWARD,47
56.0,16457.321221509126,23840.348284286058,-31310.010708571757,-18921.46693724,-34114.595844101415,-25380.674049934634,-14171.542426531605,-29804.620719506827,0.0,0.0,0.0,193.0,0.0,193.0,0.0,16.0,0.0,179.0,193.0,16.0,179.0,1744420673.216781,0.0,2025-04-11 21:17:53.216,BACKWARD,47
57.0,16441.317372479127,23845.869165166518,-31305.450952702875,-18913.68853016955,-34110.550178355,-25366.905375350165,-14537.328724542705,-29815.75188824557,0.0,0.0,0.0,193.0,0.0,194.0,0.0,16.0,0.0,179.0,194.0,16.0,179.0,1744420673.2168393,0.0,2025-04-11 21:17:53.216,BACKWARD,47
58.0,16441.607945157044,23863.81761596413,-31292.24107172979,-18901.909160841606,-34095.06041944747,-25354.947192066575,-14741.064875252829,-29793.24368157908,0.0,0.0,0.0,193.0,0.0,193.0,0.0,16.0,0.0,180.0,193.0,16.0,180.0,1744420673.2169027,0.0,2025-04-11 21:17:53.216,BACKWARD,47
59.0,16467.9383001254,23869.76317998924,-31291.749333351774,-18897.550570672818,-34089.137207166816,-25366.92772709462,-14328.78694877469,-29743.399291443744,0.0,0.0,0.0,193.0,0.0,194.0,0.0,16.0,0.0,180.0,194.0,16.0,180.0,1744420673.2169557,0.0,2025-04-11 21:17:53.216,BACKWARD,47
60.0,16475.716707195843,23852.395874547467,-31301.71821137884,-18917.64478893814,-34093.4957973356,-25376.78484639941,-14115.439547948785,-29787.94631814317,0.0,0.0,0.0,193.0,0.0,193.0,0.0,16.0,0.0,179.0,193.0,16.0,179.0,1744420673.2170453,0.0,2025-04-11 21:17:53.217,BACKWARD,47
61.0,16452.090913306583,23847.031455878194,-31299.594795655586,-18907.27357951088,-34090.92534672324,-25362.233860759006,-14442.825548985667,-29793.511902512542,0.0,0.0,0.0,193.0,0.0,193.0,0.0,16.0,0.0,179.0,193.0,16.0,179.0,1744420673.217096,0.0,2025-04-11 21:17:53.217,BACKWARD,47
62.0,16437.629334644,23864.801092720165,-31292.151664751967,-18899.07048929578,-34084.01865768655,-25355.237764744496,-14716.902639496642,-29792.684887967695,0.0,0.0,0.0,193.0,0.0,194.0,0.0,16.0,0.0,180.0,194.0,16.0,180.0,1744420673.2171829,0.0,2025-04-11 21:17:53.217,BACKWARD,47
63.0,16462.797398900675,23878.72622951582,-31288.933013550406,-18892.70024212602,-34083.83984373091,-25361.49625319198,-14418.506851018294,-29747.84728859035,0.0,0.0,0.0,193.0,0.0,193.0,0.0,16.0,0.0,179.0,193.0,16.0,179.0,1744420673.2172315,0.0,2025-04-11 21:17:53.217,BACKWARD,47
64.0,16473.325070539126,23864.756389231254,-31300.175941011425,-18914.157916803113,-34094.881605491835,-25379.31059352286,-14089.422117402806,-29773.08240808039,0.0,0.0,0.0,193.0,0.0,194.0,0.0,16.0,0.0,180.0,194.0,16.0,180.0,1744420673.2173228,0.0,2025-04-11 21:17:53.217,BACKWARD,47
65.0,16451.576823184114,23856.48624378279,-31294.610356642053,-18908.592332433742,-34086.902032721286,-25369.721695151533,-14383.816943623657,-29815.28250161201,0.0,0.0,0.0,193.0,0.0,193.0,0.0,16.0,0.0,179.0,193.0,16.0,179.0,1744420673.2174463,0.0,2025-04-11 21:17:53.217,BACKWARD,47
66.0,16437.651686388457,23866.05279040966,-31281.691048346886,-18893.236683992945,-34073.64744825929,-25356.44475894508,-14706.531430069379,-29816.936530701703,0.0,0.0,0.0,193.0,0.0,194.0,0.0,16.0,0.0,180.0,194.0,16.0,180.0,1744420673.21751,0.0,2025-04-11 21:17:53.217,BACKWARD,47
67.0,16459.511692465745,23870.791360234187,-31278.22652795631,-18881.770239087375,-34075.54734653799,-25356.958849067552,-14508.271456750806,-29772.098931324355,0.0,0.0,0.0,193.0,0.0,193.0,0.0,16.0,0.0,179.0,193.0,16.0,179.0,1744420673.217572,0.0,2025-04-11 21:17:53.217,BACKWARD,47
68.0,16476.007279873764,23868.39972357747,-31287.77072283873,-18893.057870037304,-34087.86315773286,-25366.54774743888,-14086.941073768268,-29749.814242102417,0.0,0.0,0.0,193.0,0.0,194.0,0.0,16.0,0.0,180.0,194.0,16.0,180.0,1744420673.2176692,0.0,2025-04-11 21:17:53.217,BACKWARD,47
69.0,16461.009259344253,23862.878842697006,-31281.691048346886,-18889.97332930247,-34079.52595705104,-25350.58860189779,-14317.320503869118,-29786.13582684229,0.0,0.0,0.0,193.0,0.0,193.0,0.0,16.0,0.0,179.0,193.0,16.0,179.0,1744420673.217728,0.0,2025-04-11 21:17:53.217,BACKWARD,47
70.0,16443.68665739139,23876.44635158138,-31275.298449432667,-18879.40095417511,-34074.27329710404,-25336.30583719085,-14659.101028335219,-29771.495434224064,0.0,0.0,0.0,193.0,0.0,193.0,0.0,16.0,0.0,179.0,193.0,16.0,179.0,1744420673.2177808,0.0,2025-04-11 21:17:53.217,BACKWARD,47
71.0,16459.221119787828,23879.329726616113,-31269.107016218546,-18871.5554918713,-34071.725198236134,-25339.345674436772,-14593.453954869981,-29759.201974773645,0.0,0.0,0.0,193.0,0.0,194.0,0.0,16.0,0.0,180.0,194.0,16.0,180.0,1744420673.2179773,0.0,2025-04-11 21:17:53.217,BACKWARD,47
72.0,16479.06946886414,23873.47356956882,-31287.234280971803,-18892.92375957057,-34095.82037875895,-25370.05697131836,-14125.743702142681,-29754.50810843803,0.0,0.0,0.0,193.0,0.0,193.0,0.0,17.0,0.0,179.0,193.0,17.0,179.0,1744420673.2180376,0.0,2025-04-11 21:17:53.218,BACKWARD,47
73.0,16464.697297179377,23858.989639161784,-31287.211929227346,-18899.472820695977,-34093.36168686887,-25364.960773582552,-14278.249654561241,-29815.79659173448,0.0,0.0,0.0,193.0,0.0,193.0,0.0,17.0,0.0,179.0,193.0,17.0,179.0,1744420673.2180872,0.0,2025-04-11 21:17:53.218,BACKWARD,47
74.0,16441.093855034575,23866.991563676784,-31286.027286771216,-18888.274596723866,-34090.813588000965,-25350.67800887561,-14623.271181973361,-29790.002678633056,0.0,0.0,0.0,193.0,0.0,194.0,0.0,16.0,0.0,180.0,194.0,16.0,180.0,1744420673.218134,0.0,2025-04-11 21:17:53.218,BACKWARD,47
75.0,16447.620564415523,23878.77093300473,-31280.19348146838,-18883.960710043993,-34087.46082633267,-25352.175575754118,-14674.300214564826,-29783.855948907847,0.0,0.0,0.0,193.0,0.0,193.0,0.0,17.0,0.0,179.0,193.0,17.0,179.0,1744420673.2182653,0.0,2025-04-11 21:17:53.218,BACKWARD,47
76.0,16476.610776974056,23877.720401015333,-31284.19444372588,-18889.59334964673,-34091.372381612346,-25366.704209650066,-14198.208057666787,-29750.70831188063,0.0,0.0,0.0,193.0,0.0,194.0,0.0,17.0,0.0,180.0,194.0,17.0,180.0,1744420673.2183223,0.0,2025-04-11 21:17:53.218,BACKWARD,47
77.0,16465.121980324027,23856.083912382594,-31290.76585659574,-18904.367852731688,-34094.389867113816,-25371.375724241225,-14213.76487180768,-29808.66638525324,0.0,0.0,0.0,193.0,0.0,194.0,0.0,17.0,0.0,179.0,194.0,17.0,179.0,1744420673.218384,0.0,2025-04-11 21:17:53.218,BACKWARD,47
78.0,16434.29892472016,23857.581479261098,-31290.095304262082,-18898.779916617863,-34090.92534672324,-25361.11627353624,-14571.683355770512,-29808.308757341954,0.0,0.0,0.0,193.0,0.0,193.0,0.0,17.0,0.0,179.0,193.0,17.0,179.0,1744420673.2184553,0.0,2025-04-11 21:17:53.218,BACKWARD,47
79.0,16436.422340443416,23868.131502644006,-31275.544318621676,-18886.374698445165,-34072.149881380785,-25351.080340275807,-14711.091185938263,-29796.574091502916,0.0,0.0,0.0,193.0,0.0,194.0,0.0,17.0,0.0,180.0,194.0,17.0,180.0,1744420673.218528,0.0,2025-04-11 21:17:53.218,BACKWARD,47
80.0,16458.05882907615,23864.376409575514,-31289.067124017136,-18896.23181774996,-34086.49970132109,-25374.30380276487,-14253.260404260207,-29758.307904995432,0.0,0.0,0.0,193.0,0.0,193.0,0.0,17.0,0.0,179.0,193.0,17.0,179.0,1744420673.6933675,0.0,2025-04-11 21:17:53.693,BACKWARD,47
81.0,16462.35036401157,23857.134444371994,-31296.174978753923,-18913.576771447275,-34094.76984676955,-25376.20370104357,-14178.449115568295,-29816.42244057923,0.0,0.0,0.0,193.0,0.0,194.0,0.0,17.0,0.0,180.0,194.0,17.0,180.0,1744420673.6935108,0.0,2025-04-11 21:17:53.693,BACKWARD,47
82.0,16441.607945157044,23852.686447225387,-31297.3372694656,-18909.12877430067,-34097.250890404095,-25370.816930629844,-14525.817576148222,-29820.222237136633,0.0,0.0,0.0,193.0,0.0,194.0,0.0,17.0,0.0,180.0,194.0,17.0,180.0,1744420673.6935596,0.0,2025-04-11 21:17:53.693,BACKWARD,47
83.0,16436.712913121333,23857.894403683473,-31284.529719892707,-18901.12684978567,-34079.615364028854,-25359.551651424368,-14738.270907195916,-29804.933643929202,0.0,0.0,0.0,193.0,0.0,193.0,0.0,17.0,0.0,179.0,193.0,17.0,179.0,1744420673.6936066,0.0,2025-04-11 21:17:53.693,BACKWARD,47
84.0,16458.63997443199,23863.839967708587,-31294.319783964133,-18908.212352778002,-34094.70279153619,-25380.517587723447,-14353.820902564634,-29757.36913172831,0.0,0.0,0.0,193.0,0.0,194.0,0.0,17.0,0.0,180.0,194.0,17.0,180.0,1744420673.6936536,0.0,2025-04-11 21:17:53.693,BACKWARD,47
85.0,16462.30566052266,23853.111130370038,-31308.803714371174,-18934.252135068433,-34112.919463267266,-25400.27652982194,-14152.208167577764,-29823.060908682455,0.0,0.0,0.0,193.0,0.0,193.0,0.0,17.0,0.0,179.0,193.0,17.0,179.0,1744420673.6936991,0.0,2025-04-11 21:17:53.693,BACKWARD,47
86.0,16436.668209632422,23843.186955831883,-31308.401382970977,-18925.199678564033,-34109.23142543214,-25385.949061626085,-14474.430915645471,-29834.817926265947,0.0,0.0,0.0,193.0,0.0,193.0,0.0,17.0,0.0,179.0,193.0,17.0,179.0,1744420673.6937835,0.0,2025-04-11 21:17:53.693,BACKWARD,47
87.0,16421.759596080734,23850.33951405758,-31294.990336297793,-18908.54762894483,-34092.780541513035,-25370.615764929746,-14742.495386897968,-29814.053155666967,0.0,0.0,0.0,193.0,0.0,194.0,0.0,17.0,0.0,180.0,194.0,17.0,180.0,1744420673.6938388,0.0,2025-04-11 21:17:53.693,BACKWARD,47
88.0,16443.21727075783,23853.53581351469,-31293.984507797304,-18900.992739318935,-34096.13330318133,-25379.332945267313,-14457.220072414884,-29773.775312158505,0.0,0.0,0.0,193.0,0.0,193.0,0.0,17.0,0.0,179.0,193.0,17.0,179.0,1744420673.693885,0.0,2025-04-11 21:17:53.693,BACKWARD,47
89.0,16455.331916252606,23845.019798877216,-31302.76874336824,-18916.75071915993,-34104.76107654108,-25389.681802950123,-14114.143146770377,-29793.288385067986,0.0,0.0,0.0,193.0,0.0,194.0,0.0,17.0,0.0,180.0,194.0,17.0,180.0,1744420673.693931,0.0,2025-04-11 21:17:53.693,BACKWARD,47
90.0,16441.6302969015,23839.253048807746,-31297.516083421244,-18909.486402211955,-34098.90491949379,-25375.44374173209,-14392.310606516672,-29819.842257480894,0.0,0.0,0.0,193.0,0.0,194.0,0.0,17.0,0.0,180.0,194.0,17.0,180.0,1744420673.6940029,0.0,2025-04-11 21:17:53.694,BACKWARD,47
91.0,16425.022950771207,23851.30063906916,-31293.202196741368,-18901.12684978567,-34098.18966367122,-25363.999648570974,-14717.193212174561,-29802.296138083475,0.0,0.0,0.0,193.0,0.0,193.0,0.0,17.0,0.0,179.0,193.0,17.0,179.0,1744420673.6940491,0.0,2025-04-11 21:17:53.694,BACKWARD,47
92.0,16438.188128255384,23855.748636215765,-31293.760990352752,-18900.232780007456,-34102.011811973076,-25375.242576031993,-14580.311129130261,-29791.81316993394,0.0,0.0,0.0,193.0,0.0,194.0,0.0,17.0,0.0,180.0,194.0,17.0,180.0,1744420673.6940951,0.0,2025-04-11 21:17:53.694,BACKWARD,47
93.0,16456.382448242002,23845.802109933153,-31302.411115456955,-18915.74489065944,-34099.486064849625,-25393.526302996434,-14133.790330146592,-29785.62173671982,0.0,0.0,0.0,193.0,0.0,194.0,0.0,17.0,0.0,180.0,194.0,17.0,180.0,1744420673.6941464,0.0,2025-04-11 21:17:53.694,BACKWARD,47
94.0,16437.49522417727,23826.66901667941,-31301.606452656564,-18918.27063778289,-34092.422913601746,-25382.931576124618,-14315.442957334872,-29826.972463962134,0.0,0.0,0.0,193.0,0.0,194.0,0.0,17.0,0.0,179.0,194.0,17.0,179.0,1744420673.6941876,0.0,2025-04-11 21:17:53.694,BACKWARD,47
95.0,16417.646875100956,23840.750615686255,-31295.884406076006,-18906.111288799202,-34082.65520127478,-25361.965639825543,-14648.260432274394,-29801.647937494272,0.0,0.0,0.0,193.0,0.0,194.0,0.0,17.0,0.0,180.0,194.0,17.0,180.0,1744420673.6943104,0.0,2025-04-11 21:17:53.694,BACKWARD,47
96.0,16423.68184610389,23845.75740644424,-31290.43058042891,-18897.751736372917,-34077.33548609442,-25356.422407200625,-14602.305245674283,-29771.875413879803,0.0,0.0,0.0,193.0,0.0,194.0,0.0,17.0,0.0,180.0,194.0,17.0,180.0,1744420673.6943521,0.0,2025-04-11 21:17:53.694,BACKWARD,47
97.0,16448.5816894271,23837.10728134004,-31307.86494110405,-18914.202620292024,-34096.89326249281,-25378.68474467811,-14128.89529811088,-29749.680131635683,0.0,0.0,0.0,193.0,0.0,193.0,0.0,17.0,0.0,179.0,193.0,17.0,179.0,1744420673.6943934,0.0,2025-04-11 21:17:53.694,BACKWARD,47
98.0,16438.92573582241,23828.501859724744,-31309.09428704909,-18923.053911096325,-34097.96614622667,-25370.05697131836,-14264.592738699048,-29813.56141728895,0.0,0.0,0.0,193.0,0.0,194.0,0.0,17.0,0.0,180.0,194.0,17.0,180.0,1744420673.694434,0.0,2025-04-11 21:17:53.694,BACKWARD,47
99.0,16418.71975883481,23838.560144729632,-31303.126371279526,-18910.112251056704,-34092.288803135016,-25355.908317078152,-14628.27797273135,-29806.878245696815,0.0,0.0,0.0,193.0,0.0,194.0,0.0,17.0,0.0,179.0,194.0,17.0,179.0,1744420673.6944747,0.0,2025-04-11 21:17:53.694,BACKWARD,47
100.0,16420.82082281361,23846.316200055626,-31295.57148165363,-18902.579713175262,-34085.47152107615,-25355.528337422413,-14684.537313525358,-29797.244643836577,0.0,0.0,0.0,193.0,0.0,194.0,0.0,17.0,0.0,179.0,194.0,17.0,179.0,1744420673.694516,0.0,2025-04-11 21:17:53.694,BACKWARD,47
101.0,16444.424264958416,23849.44544427937,-31305.18273176941,-18909.821678378783,-34097.98849797112,-25371.085151563308,-14201.940798990823,-29751.244753747556,0.0,0.0,0.0,193.0,0.0,193.0,0.0,17.0,0.0,179.0,193.0,17.0,179.0,1744420673.694572,0.0,2025-04-11 21:17:53.694,BACKWARD,47
102.0,16441.45148294586,23834.38036851649,-31310.457743460865,-18925.691416942052,-34102.45884686218,-25372.605070186266,-14209.406281638896,-29808.889902697792,0.0,0.0,0.0,193.0,0.0,194.0,0.0,17.0,0.0,180.0,194.0,17.0,180.0,1744420673.6946132,0.0,2025-04-11 21:17:53.694,BACKWARD,47
103.0,16420.239677457772,23840.37063603051,-31301.517045678742,-18913.465012725,-34088.66782053326,-25359.104616535264,-14561.558015532259,-29797.199940347666,0.0,0.0,0.0,193.0,0.0,193.0,0.0,17.0,0.0,179.0,193.0,17.0,179.0,1744420673.6946535,0.0,2025-04-11 21:17:53.694,BACKWARD,47
104.0,16423.190107725874,23853.468758281324,-31285.08851350409,-18900.769221874383,-34071.7922534695,-25351.72854086501,-14721.171822687606,-29795.41180079124,0.0,0.0,0.0,193.0,0.0,194.0,0.0,17.0,0.0,180.0,194.0,17.0,180.0,1744420673.6947093,0.0,2025-04-11 21:17:53.694,BACKWARD,47
105.0,16449.743980138777,23858.4308455504,-31294.09626651958,-18905.351329487723,-34087.37141935485,-25370.392247485193,-14270.20302655733,-29746.79675660095,0.0,0.0,0.0,193.0,0.0,194.0,0.0,17.0,0.0,180.0,194.0,17.0,180.0,1744420673.6947503,0.0,2025-04-11 21:17:53.694,BACKWARD,47
106.0,16451.86739586203,23837.19668831786,-31303.640461401996,-18924.4173675081,-34097.22853865964,-25381.83634064631,-14157.729048458224,-29815.528370801017,0.0,0.0,0.0,193.0,0.0,193.0,0.0,17.0,0.0,179.0,193.0,17.0,179.0,1744420673.694791,0.0,2025-04-11 21:17:53.694,BACKWARD,47
107.0,16428.465119417324,23832.905153382442,-31296.107923520558,-18910.22400977898,-34086.14207340981,-25370.705171907568,-14500.850677591645,-29822.23389413761,0.0,0.0,0.0,193.0,0.0,193.0,0.0,17.0,0.0,179.0,193.0,17.0,179.0,1744420673.6948314,0.0,2025-04-11 21:17:53.694,BACKWARD,47
108.0,16416.596343111556,23838.314275540626,-31289.178882739412,-18900.903332341117,-34084.97978269813,-25362.01034331445,-14726.871517523708,-29802.05026889447,0.0,0.0,0.0,193.0,0.0,193.0,0.0,17.0,0.0,179.0,193.0,17.0,179.0,1744420673.6948721,0.0,2025-04-11 21:17:53.694,BACKWARD,47
109.0,16437.53992766618,23839.923601141407,-31291.637574629498,-18902.445602708533,-34086.38794259881,-25384.362087769758,-14371.65759463997,-29769.3273150119,0.0,0.0,0.0,193.0,0.0,193.0,0.0,17.0,0.0,179.0,193.0,17.0,179.0,1744420673.6949625,0.0,2025-04-11 21:17:53.694,BACKWARD,47
110.0,16445.765369625733,23826.691368423864,-31303.90868233546,-18928.373626276687,-34099.75428578309,-25406.8479426918,-14118.948771828267,-29821.38452784831,0.0,0.0,0.0,193.0,0.0,194.0,0.0,17.0,0.0,180.0,194.0,17.0,180.0,1744420673.6950035,0.0,2025-04-11 21:17:53.695,BACKWARD,47
111.0,16428.733340350787,23829.10535682504,-31298.208987499358,-18918.36004476071,-34093.07111419095,-25386.776076170932,-14436.991743682831,-29837.52248734504,0.0,0.0,0.0,193.0,0.0,193.0,0.0,17.0,0.0,180.0,193.0,17.0,180.0,1744420673.6950443,0.0,2025-04-11 21:17:53.695,BACKWARD,47
112.0,16416.7751570672,23845.71270295533,-31290.117656006536,-18904.65842540961,-34085.56092805397,-25364.469035204536,-14731.453625137046,-29807.258225352554,0.0,0.0,0.0,193.0,0.0,194.0,0.0,17.0,0.0,180.0,194.0,17.0,180.0,1744420673.695089,0.0,2025-04-11 21:17:53.695,BACKWARD,47
113.0,16438.54575616667,23846.316200055626,-31290.47528391782,-18900.45629745201,-34086.49970132109,-25373.20856728656,-14481.270549448795,-29760.99011433007,0.0,0.0,0.0,193.0,0.0,194.0,0.0,17.0,0.0,180.0,194.0,17.0,180.0,1744420673.6951303,0.0,2025-04-11 21:17:53.695,BACKWARD,47
114.0,16452.806169129155,23837.263743551226,-31298.05252528817,-18917.443623238043,-34089.070151933454,-25387.223111060037,-14098.943960540768,-29771.36132375733,0.0,0.0,0.0,193.0,0.0,193.0,0.0,17.0,0.0,179.0,193.0,17.0,179.0,1744420673.6951709,0.0,2025-04-11 21:17:53.695,BACKWARD,47
115.0,16439.640991644977,23826.04316783466,-31296.890234576495,-18919.432928494567,-34087.5949367994,-25377.991840599996,-14355.921966543434,-29805.537141029497,0.0,0.0,0.0,193.0,0.0,194.0,0.0,17.0,0.0,180.0,194.0,17.0,180.0,1744420673.6952112,0.0,2025-04-11 21:17:53.695,BACKWARD,47
116.0,16421.044340258162,23839.610676719032,-31288.798903083672,-18909.93343710106,-34079.92828845123,-25368.715866651044,-14680.089316378751,-29794.584786246396,0.0,0.0,0.0,193.0,0.0,194.0,0.0,17.0,0.0,179.0,194.0,17.0,179.0,1744420673.6952674,0.0,2025-04-11 21:17:53.695,BACKWARD,47
117.0,16433.494261919768,23851.032418135695,-31279.008839012247,-18896.88001833916,-34073.490986048106,-25367.799445128378,-14544.123654857118,-29768.053265577946,0.0,0.0,0.0,193.0,0.0,194.0,0.0,17.0,0.0,180.0,194.0,17.0,180.0,1744420673.6953125,0.0,2025-04-11 21:17:53.695,BACKWARD,47
118.0,16459.332878510104,23848.95370590135,-31287.52485364972,-18903.07145155328,-34085.292707120505,-25379.35529701177,-14107.191754244775,-29757.302076494943,0.0,0.0,0.0,193.0,0.0,193.0,0.0,17.0,0.0,179.0,193.0,17.0,179.0,1744420673.6953528,0.0,2025-04-11 21:17:53.695,BACKWARD,47
119.0,16436.44469218787,23823.115089311017,-31290.654097873463,-18906.64773066613,-34085.2480036316,-25373.34267775329,-14296.041643147666,-29804.017222406535,0.0,0.0,0.0,193.0,0.0,193.0,0.0,17.0,0.0,179.0,193.0,17.0,179.0,1744420673.6954083,0.0,2025-04-11 21:17:53.695,BACKWARD,47
120.0,16413.19887795435,23826.6243131905,-31288.91066180595,-18900.32218698528,-34081.939945452206,-25365.005477071463,-14644.706504906,-29799.546873515475,0.0,0.0,0.0,193.0,0.0,193.0,0.0,17.0,0.0,180.0,193.0,17.0,180.0,1744420673.6954496,0.0,2025-04-11 21:17:53.695,BACKWARD,47
121.0,16426.073482760607,23839.275400552204,-31277.511272133743,-18887.31347171229,-34076.70963724967,-25359.886927591197,-14645.868795617676,-29794.785951946495,0.0,0.0,0.0,193.0,0.0,193.0,0.0,17.0,0.0,179.0,193.0,17.0,179.0,1744420673.69549,0.0,2025-04-11 21:17:53.695,BACKWARD,47
122.0,16445.54185218118,23839.34245578557,-31287.72601934982,-18896.321224727777,-34084.77861699803,-25376.226052788028,-14153.169292589342,-29749.255448491032,0.0,0.0,0.0,193.0,0.0,194.0,0.0,17.0,0.0,180.0,194.0,17.0,180.0,1744420673.695531,0.0,2025-04-11 21:17:53.695,BACKWARD,47
123.0,16439.283363733695,23824.299731767147,-31292.86692057454,-18906.625378921675,-34087.1479019103,-25375.488445221003,-14235.468415673784,-29809.42634456472,0.0,0.0,0.0,193.0,0.0,193.0,0.0,17.0,0.0,180.0,193.0,17.0,180.0,1744420673.6955712,0.0,2025-04-11 21:17:53.695,BACKWARD,47
124.0,16417.78098556769,23833.19572606036,-31291.14583625148,-18896.991777061437,-34086.052666431984,-25366.860671861254,-14602.014672996364,-29810.365117831843,0.0,0.0,0.0,193.0,0.0,194.0,0.0,17.0,0.0,180.0,194.0,17.0,180.0,1744420673.69566,0.0,2025-04-11 21:17:53.695,BACKWARD,47
125.0,16424.262991459727,23844.036322121185,-31278.159472722946,-18885.659442622597,-34071.7922534695,-25355.573040911324,-14684.246740847439,-29789.488588510587,0.0,0.0,0.0,193.0,0.0,194.0,0.0,17.0,0.0,179.0,194.0,17.0,179.0,1744420673.6957011,0.0,2025-04-11 21:17:53.695,BACKWARD,47
126.0,16453.767294140733,23842.33758954258,-31285.826121071117,-18892.342614214733,-34082.25286987458,-25370.72752365202,-14208.646322327415,-29735.710291351115,0.0,0.0,0.0,193.0,0.0,193.0,0.0,17.0,0.0,179.0,193.0,17.0,179.0,1744420673.6957424,0.0,2025-04-11 21:17:53.695,BACKWARD,47
127.0,16445.988887070285,23828.367749258014,-31293.157493252456,-18910.693396412542,-34089.494835078105,-25375.60020394328,-14182.51713305916,-29794.51773101303,0.0,0.0,0.0,193.0,0.0,194.0,0.0,17.0,0.0,180.0,194.0,17.0,180.0,1744420673.695784,0.0,2025-04-11 21:17:53.695,BACKWARD,47
128.0,16424.30769494864,23836.7273016843,-31284.216795470336,-18896.65650089461,-34076.620230271845,-25359.618706657733,-14531.897250640066,-29788.147483843266,0.0,0.0,0.0,193.0,0.0,193.0,0.0,17.0,0.0,179.0,193.0,17.0,179.0,1744420673.6958246,0.0,2025-04-11 21:17:53.695,BACKWARD,47
129.0,16418.093909990064,23838.828365663096,-31282.20513846936,-18894.421326449075,-34078.520128550546,-25360.64688690268,-14701.949322456041,-29789.913271655238,0.0,0.0,0.0,193.0,0.0,194.0,0.0,17.0,0.0,180.0,194.0,17.0,180.0,1744420673.6958654,0.0,2025-04-11 21:17:53.695,BACKWARD,47
130.0,16439.618639900524,23837.353150529045,-31290.587042640098,-18899.562227673796,-34094.61338455837,-25378.863558633755,-14297.941541426366,-29756.966800328115,0.0,0.0,0.0,193.0,0.0,193.0,0.0,17.0,0.0,179.0,193.0,17.0,179.0,1744420673.695906,0.0,2025-04-11 21:17:53.695,BACKWARD,47
131.0,16443.485491691292,23820.455231720833,-31296.19733049838,-18919.83525989476,-34093.98753571362,-25384.138570325205,-14148.564833231549,-29797.75873395905,0.0,0.0,0.0,193.0,0.0,193.0,0.0,17.0,0.0,179.0,193.0,17.0,179.0,1744420673.6959596,0.0,2025-04-11 21:17:53.695,BACKWARD,47
132.0,16423.458328659337,23820.589342187566,-31288.642440872485,-18909.575809189773,-34077.33548609442,-25369.095846306784,-14461.176331183475,-29792.304908311955,0.0,0.0,0.0,193.0,0.0,194.0,0.0,17.0,0.0,180.0,194.0,17.0,180.0,1744420673.6960008,0.0,2025-04-11 21:17:53.696,BACKWARD,47
133.0,16412.483622131782,23830.33470277008,-31281.62399311352,-18903.674948653574,-34067.90304993428,-25371.10750330776,-14705.52560156889,-29802.117324127834,0.0,0.0,0.0,193.0,0.0,193.0,0.0,17.0,0.0,179.0,193.0,17.0,179.0,1744420673.6960416,0.0,2025-04-11 21:17:53.696,BACKWARD,47
134.0,16436.7799683547,23840.549449986156,-31278.964135523336,-18895.628320649663,-34068.573602267934,-25374.504968464968,-14383.66048141247,-29764.432282976188,0.0,0.0,0.0,193.0,0.0,194.0,0.0,17.0,0.0,180.0,194.0,17.0,180.0,1744420673.696098,0.0,2025-04-11 21:17:53.696,BACKWARD,47
135.0,16438.12107302202,23826.266685279214,-31293.023382785726,-18917.711844171507,-34082.297573363496,-25380.674049934634,-14092.998396515655,-29762.55473644194,0.0,0.0,0.0,193.0,0.0,193.0,0.0,17.0,0.0,179.0,193.0,17.0,179.0,1744420673.6961389,0.0,2025-04-11 21:17:53.696,BACKWARD,47
136.0,16414.785851810677,23824.053862578137,-31291.034077529202,-18912.302722013323,-34077.111968649864,-25372.96269809755,-14397.093879830109,-29787.99102163208,0.0,0.0,0.0,193.0,0.0,194.0,0.0,17.0,0.0,180.0,194.0,17.0,180.0,1744420673.6961796,0.0,2025-04-11 21:17:53.696,BACKWARD,47
137.0,16410.449613386347,23835.788528417175,-31279.679391345908,-18898.154067773114,-34068.55125052348,-25360.423369458123,-14711.359406871727,-29791.902576911758,0.0,0.0,0.0,193.0,0.0,194.0,0.0,17.0,0.0,179.0,194.0,17.0,179.0,1744420673.6962204,0.0,2025-04-11 21:17:53.696,BACKWARD,47
138.0,16434.477738675803,23838.53779298518,-31279.433522156898,-18893.057870037304,-34075.68145700472,-25369.766398640444,-14480.287072692761,-29757.03385556148,0.0,0.0,0.0,193.0,0.0,193.0,0.0,17.0,0.0,179.0,193.0,17.0,179.0,1744420673.6962612,0.0,2025-04-11 21:17:53.696,BACKWARD,47
139.0,16448.380523727003,23827.518382968712,-31291.771685096228,-18913.08503306926,-34086.45499783218,-25389.570044227847,-14097.602855873449,-29770.55666095694,0.0,0.0,0.0,193.0,0.0,194.0,0.0,17.0,0.0,180.0,194.0,17.0,180.0,1744420673.696351,0.0,2025-04-11 21:17:53.696,BACKWARD,47
140.0,16435.528270665203,23825.5737812011,-31285.87082456003,-18904.59137017624,-34079.10127390639,-25375.801369643377,-14350.691658340891,-29809.828675964916,0.0,0.0,0.0,193.0,0.0,193.0,0.0,17.0,0.0,179.0,193.0,17.0,179.0,1744420673.6964014,0.0,2025-04-11 21:17:53.696,BACKWARD,47
141.0,16421.379616424994,23843.790452932175,-31276.013705255238,-18887.693451368028,-34074.65327675978,-25361.563308425346,-14698.082470665273,-29805.55949277395,0.0,0.0,0.0,193.0,0.0,194.0,0.0,17.0,0.0,179.0,194.0,17.0,179.0,1744420673.6964536,0.0,2025-04-11 21:17:53.696,BACKWARD,47
142.0,16423.25716295924,23845.53388899969,-31276.81836805563,-18885.994718789425,-34076.03908491601,-25370.772227140933,-14565.111942900652,-29771.942469113168,0.0,0.0,0.0,193.0,0.0,193.0,0.0,17.0,0.0,179.0,193.0,17.0,179.0,1744420673.6964953,0.0,2025-04-11 21:17:53.696,BACKWARD,47
143.0,16445.363038225536,23839.789490674673,-31293.023382785726,-18907.899428355628,-34097.519111337555,-25391.78286692892,-14120.669856151326,-29766.46629172162,0.0,0.0,0.0,193.0,0.0,194.0,0.0,17.0,0.0,180.0,194.0,17.0,180.0,1744420673.6965356,0.0,2025-04-11 21:17:53.696,BACKWARD,47
144.0,16436.578802654603,23824.836173634074,-31294.29743221968,-18912.07920456877,-34089.96422171166,-25385.54673022589,-14296.086346636575,-29817.942359202192,0.0,0.0,0.0,193.0,0.0,194.0,0.0,17.0,0.0,179.0,194.0,17.0,179.0,1744420673.6965766,0.0,2025-04-11 21:17:53.696,BACKWARD,47
145.0,16420.7761193247,23839.275400552204,-31286.608432127054,-18897.394108461634,-34074.943849437695,-25362.792654370387,-14626.579240152747,-29792.75194320106,0.0,0.0,0.0,193.0,0.0,193.0,0.0,17.0,0.0,179.0,193.0,17.0,179.0,1744420673.6966436,0.0,2025-04-11 21:17:53.696,BACKWARD,47
146.0,16421.938410036375,23847.947877400864,-31285.200272226368,-18893.88488458215,-34076.486119805115,-25364.223166015527,-14627.026275041853,-29779.497358739063,0.0,0.0,0.0,193.0,0.0,194.0,0.0,17.0,0.0,180.0,194.0,17.0,180.0,1744420673.6966848,0.0,2025-04-11 21:17:53.696,BACKWARD,47
147.0,16439.97626781181,23848.43961577888,-31298.410153199453,-18910.15695454561,-34089.36072461137,-25388.765381427456,-14162.914653171856,-29769.394370245263,0.0,0.0,0.0,193.0,0.0,193.0,0.0,17.0,0.0,179.0,193.0,17.0,179.0,1744420673.6967258,0.0,2025-04-11 21:17:53.696,BACKWARD,47
148.0,16437.45052068836,23826.825478890598,-31300.84649334508,-18918.941190116548,-34086.45499783218,-25382.193968557593,-14233.277944717163,-29816.60125453487,0.0,0.0,0.0,193.0,0.0,194.0,0.0,17.0,0.0,180.0,194.0,17.0,180.0,1744420673.6967664,0.0,2025-04-11 21:17:53.696,BACKWARD,47
149.0,16419.949104779855,23833.15102257145,-31297.225510743323,-18909.240533022945,-34084.376285597835,-25364.826663115822,-14580.624053552636,-29789.75680944405,0.0,0.0,0.0,193.0,0.0,193.0,0.0,17.0,0.0,179.0,193.0,17.0,179.0,1744420673.6968236,0.0,2025-04-11 21:17:53.696,BACKWARD,47
150.0,16427.951029294854,23853.71462747033,-31278.85237680106,-18893.639015393142,-34065.153785366274,-25351.795596098378,-14699.401223588136,-29779.65382095025,0.0,0.0,0.0,193.0,0.0,193.0,0.0,17.0,0.0,179.0,193.0,17.0,179.0,1744420673.6968648,0.0,2025-04-11 21:17:53.696,BACKWARD,47
151.0,16456.7847796422,23856.598002505067,-31289.00006878377,-18898.534047428853,-34078.83305297292,-25367.061837561352,-14219.822194555069,-29730.524686637484,0.0,0.0,0.0,193.0,0.0,194.0,0.0,17.0,0.0,180.0,194.0,17.0,180.0,1744420673.696906,0.0,2025-04-11 21:17:53.696,BACKWARD,47
152.0,16452.850872618066,23838.67190345191,-31299.393629955488,-18916.97423660448,-34090.61242230087,-25374.281451020415,-14177.28682485662,-29794.115399612834,0.0,0.0,0.0,193.0,0.0,193.0,0.0,17.0,0.0,179.0,193.0,17.0,179.0,1744420673.6969469,0.0,2025-04-11 21:17:53.696,BACKWARD,47
153.0,16427.01225602773,23840.460043008334,-31297.851359588072,-18905.664253910098,-34087.103198421384,-25362.50208169247,-14526.912811626533,-29787.767504187526,0.0,0.0,0.0,193.0,0.0,194.0,0.0,17.0,0.0,180.0,194.0,17.0,180.0,1744420673.6969876,0.0,2025-04-11 21:17:53.696,BACKWARD,47
154.0,16424.262991459727,23856.955630416353,-31283.76976058123,-18890.59917814722,-34072.574564525436,-25349.67218037512,-14703.245723634449,-29768.99203884507,0.0,0.0,0.0,193.0,0.0,194.0,0.0,17.0,0.0,179.0,194.0,17.0,179.0,1744420673.6972532,0.0,2025-04-11 21:17:53.697,BACKWARD,47
155.0,16449.25224176076,23857.648534494467,-31287.547205394174,-18891.627358392165,-34081.8952419633,-25367.01713407244,-14293.44884079085,-29729.3176924369,0.0,0.0,0.0,193.0,0.0,193.0,0.0,17.0,0.0,179.0,193.0,17.0,179.0,1744420673.6972952,0.0,2025-04-11 21:17:53.697,BACKWARD,47
156.0,16451.420360972927,23838.403682518445,-31299.974775311326,-18917.488326726954,-34097.876739248844,-25386.194930815094,-14134.080902824511,-29798.89867292627,0.0,0.0,0.0,193.0,0.0,194.0,0.0,17.0,0.0,180.0,194.0,17.0,180.0,1744420673.697336,0.0,2025-04-11 21:17:53.697,BACKWARD,47
157.0,16431.01321828523,23833.5757057161,-31299.41598169994,-18912.79446039134,-34097.809684015476,-25377.567157455345,-14478.051898247231,-29814.723708000627,0.0,0.0,0.0,193.0,0.0,193.0,0.0,17.0,0.0,179.0,193.0,17.0,179.0,1744420673.6973765,0.0,2025-04-11 21:17:53.697,BACKWARD,47
158.0,16423.324218192603,23847.76906344522,-31284.932051292904,-18898.578750917764,-34077.93898319471,-25355.72950312251,-14733.711151327034,-29789.80151293296,0.0,0.0,0.0,193.0,0.0,193.0,0.0,17.0,0.0,179.0,193.0,17.0,179.0,1744420673.6974173,0.0,2025-04-11 21:17:53.697,BACKWARD,47
159.0,16439.953916067352,23855.905098426952,-31292.933975807904,-18901.395070719132,-34088.80193099999,-25374.035581831406,-14415.08703411663,-29754.463404949118,0.0,0.0,0.0,193.0,0.0,194.0,0.0,17.0,0.0,180.0,194.0,17.0,180.0,1744420673.6974587,0.0,2025-04-11 21:17:53.697,BACKWARD,47
160.0,16446.570032426123,23839.789490674673,-31305.361545725056,-18922.56217271831,-34098.23436716013,-25394.73329719702,-14111.684454880293,-29789.93562339969,0.0,0.0,0.0,193.0,0.0,193.0,0.0,17.0,0.0,179.0,193.0,17.0,179.0,1744420673.6975164,0.0,2025-04-11 21:17:53.697,BACKWARD,47
161.0,16425.090006004575,23824.299731767147,-31302.05348754567,-18915.431966237065,-34091.238271145616,-25381.5904714573,-14406.794536923711,-29810.94626318768,0.0,0.0,0.0,193.0,0.0,194.0,0.0,17.0,0.0,180.0,194.0,17.0,180.0,1744420673.6975577,0.0,2025-04-11 21:17:53.697,BACKWARD,47
162.0,16414.897610532953,23836.883763895486,-31293.49276941929,-18903.98787307595,-34084.42098908675,-25366.011305571952,-14721.551802343345,-29801.826751449917,0.0,0.0,0.0,193.0,0.0,193.0,0.0,17.0,0.0,179.0,193.0,17.0,179.0,1744420673.6975987,0.0,2025-04-11 21:17:53.697,BACKWARD,47
163.0,16435.505918920746,23841.175298830905,-31294.610356642053,-18903.049099808824,-34091.238271145616,-25378.30476502237,-14517.703892910946,-29780.4808354951,0.0,0.0,0.0,193.0,0.0,194.0,0.0,17.0,0.0,180.0,194.0,17.0,180.0,1744420673.697639,0.0,2025-04-11 21:17:53.697,BACKWARD,47
164.0,16450.280422005704,23830.848792892553,-31307.082630048113,-18923.344483774243,-34106.45980911968,-25399.382460043726,-14130.817548134035,-29796.775257203015,0.0,0.0,0.0,193.0,0.0,194.0,0.0,17.0,0.0,180.0,194.0,17.0,180.0,1744420673.6976948,0.0,2025-04-11 21:17:53.697,BACKWARD,47
165.0,16432.019046785717,23820.835211376576,-31299.639499144498,-18916.79542264884,-34094.47927409164,-25380.472884234536,-14369.422420194438,-29814.85781846736,0.0,0.0,0.0,193.0,0.0,193.0,0.0,17.0,0.0,179.0,193.0,17.0,179.0,1744420673.6977358,0.0,2025-04-11 21:17:53.697,BACKWARD,47
166.0,16417.33395067858,23835.788528417175,-31285.66965885993,-18900.098669540726,-34074.02742791503,-25360.892756091685,-14681.653938490623,-29781.441960506676,0.0,0.0,0.0,193.0,0.0,194.0,0.0,17.0,0.0,180.0,194.0,17.0,180.0,1744420673.6977768,0.0,2025-04-11 21:17:53.697,BACKWARD,47
167.0,16424.620619371013,23840.929429641896,-31280.95344077986,-18893.68371888205,-34071.18875636921,-25365.34075323829,-14568.397649335582,-29763.314695753423,0.0,0.0,0.0,193.0,0.0,194.0,0.0,17.0,0.0,180.0,194.0,17.0,180.0,1744420673.6978173,0.0,2025-04-11 21:17:53.697,BACKWARD,47
168.0,16448.559337682647,23838.15781332944,-31290.56469089564,-18905.865419610192,-34087.19260539921,-25384.89852963669,-14119.194641017277,-29757.480890450584,0.0,0.0,0.0,193.0,0.0,193.0,0.0,17.0,0.0,179.0,193.0,17.0,179.0,1744420673.697858,0.0,2025-04-11 21:17:53.697,BACKWARD,47
169.0,16436.556450910146,23823.293903266658,-31290.1847112399,-18909.73227140096,-34083.10223616388,-25377.12012256624,-14266.447933488838,-29799.524521771018,0.0,0.0,0.0,193.0,0.0,194.0,0.0,17.0,0.0,180.0,194.0,17.0,180.0,1744420673.6979113,0.0,2025-04-11 21:17:53.697,BACKWARD,47
170.0,16418.29507569016,23833.687464438375,-31280.32759193511,-18894.264864237888,-34073.15570988127,-25358.009381056952,-14608.675492844046,-29773.28357378049,0.0,0.0,0.0,193.0,0.0,194.0,0.0,17.0,0.0,180.0,194.0,17.0,180.0,1744420673.6979525,0.0,2025-04-11 21:17:53.697,BACKWARD,47
171.0,16430.6779421184,23845.265668066226,-31271.118673219524,-18883.580730388254,-34070.674666246734,-25357.271773489927,-14634.983496067942,-29758.799643373448,0.0,0.0,0.0,193.0,0.0,193.0,0.0,17.0,0.0,179.0,193.0,17.0,179.0,1744420673.697994,0.0,2025-04-11 21:17:53.697,BACKWARD,47
172.0,16455.220157530326,23847.478490767302,-31279.411170412444,-18889.83921883574,-34083.9963059421,-25376.337811510304,-14153.504568756172,-29728.93771278116,0.0,0.0,0.0,193.0,0.0,194.0,0.0,17.0,0.0,180.0,194.0,17.0,180.0,1744420673.6980345,0.0,2025-04-11 21:17:53.698,BACKWARD,47
173.0,16449.185186527397,23830.692330681366,-31281.311068691146,-18898.914027084593,-34087.28201237703,-25369.788750384898,-14212.490822373727,-29791.433190278196,0.0,0.0,0.0,193.0,0.0,194.0,0.0,17.0,0.0,180.0,194.0,17.0,180.0,1744420673.698076,0.0,2025-04-11 21:17:53.698,BACKWARD,47
174.0,16423.748901337254,23834.38036851649,-31281.847510558073,-18889.570997902276,-34086.9467362102,-25356.668276389635,-14584.312091387761,-29794.584786246396,0.0,0.0,0.0,193.0,0.0,193.0,0.0,17.0,0.0,179.0,193.0,17.0,179.0,1744420673.6981173,0.0,2025-04-11 21:17:53.698,BACKWARD,47
175.0,16418.071558245607,23844.550412243654,-31273.57736510961,-18879.758582086397,-34076.4414163162,-25350.052160030864,-14711.784090016377,-29794.1824548462,0.0,0.0,0.0,193.0,0.0,194.0,0.0,17.0,0.0,180.0,194.0,17.0,180.0,1744420673.6981728,0.0,2025-04-11 21:17:53.698,BACKWARD,47
176.0,16443.26197424674,23844.393950032467,-31284.66383035944,-18886.441753678533,-34087.237308888114,-25367.77709338392,-14228.941706292833,-29737.006692529525,0.0,0.0,0.0,193.0,0.0,194.0,0.0,17.0,0.0,180.0,194.0,17.0,180.0,1744420673.6982145,0.0,2025-04-11 21:17:53.698,BACKWARD,47
177.0,16443.26197424674,23829.53003996969,-31286.876653060517,-18898.26582649539,-34088.8466344889,-25362.345619481282,-14159.13720835891,-29781.307850039942,0.0,0.0,0.0,193.0,0.0,193.0,0.0,17.0,0.0,179.0,193.0,17.0,179.0,1744420673.6982622,0.0,2025-04-11 21:17:53.698,BACKWARD,47
178.0,16424.195936226362,23837.174336573404,-31281.422827413422,-18886.017070533882,-34082.47638731913,-25342.430215171604,-14510.35016898515,-29765.907498110235,0.0,0.0,0.0,193.0,0.0,194.0,0.0,17.0,0.0,179.0,194.0,17.0,179.0,1744420673.698319,0.0,2025-04-11 21:17:53.698,BACKWARD,47
179.0,16415.881087288988,23848.19374658987,-31277.220699455822,-18881.569073387276,-34078.49777680609,-25339.971523281518,-14721.5741540878,-29770.400198745752,0.0,0.0,0.0,193.0,0.0,194.0,0.0,17.0,0.0,180.0,194.0,17.0,180.0,1744420673.6983647,0.0,2025-04-11 21:17:53.698,BACKWARD,47
180.0,16436.7799683547,23841.555278486645,-31286.831949571606,-18887.916968812584,-34091.104160678886,-25364.178462526615,-14344.097893726575,-29736.470250662598,0.0,0.0,0.0,193.0,0.0,193.0,0.0,17.0,0.0,179.0,193.0,17.0,179.0,1744420673.6984124,0.0,2025-04-11 21:17:53.698,BACKWARD,47
181.0,16436.712913121333,23822.51159221072,-31297.270214232234,-18911.74392840194,-34095.93213748123,-25379.601166200777,-14133.276240024119,-29785.733495442095,0.0,0.0,0.0,193.0,0.0,194.0,0.0,17.0,0.0,180.0,194.0,17.0,180.0,1744420673.698456,0.0,2025-04-11 21:17:53.698,BACKWARD,47
182.0,16420.172622224407,23823.204496288836,-31288.418923427933,-18898.89167534014,-34087.05849493248,-25362.658543903657,-14460.818703272189,-29797.982251403602,0.0,0.0,0.0,193.0,0.0,194.0,0.0,17.0,0.0,179.0,194.0,17.0,179.0,1744420673.6985304,0.0,2025-04-11 21:17:53.698,BACKWARD,47
183.0,16408.840287785566,23839.297752296658,-31282.04867625817,-18892.432021192555,-34077.827224472436,-25356.578869411813,-14724.591639589267,-29796.03764963599,0.0,0.0,0.0,193.0,0.0,194.0,0.0,17.0,0.0,180.0,194.0,17.0,180.0,1744420673.6986077,0.0,2025-04-11 21:17:53.698,BACKWARD,47
184.0,16432.220212485816,23842.315237798124,-31278.606507612054,-18890.353308958212,-34069.66883774625,-25371.4874829635,-14423.401883054004,-29768.165024300222,0.0,0.0,0.0,193.0,0.0,194.0,0.0,17.0,0.0,180.0,194.0,17.0,180.0,1744420673.6986525,0.0,2025-04-11 21:17:53.698,BACKWARD,47
185.0,16444.156044024952,23825.462022478823,-31291.14583625148,-18912.16861154659,-34086.23148038763,-25389.03360236092,-14090.249131947654,-29781.821940162416,0.0,0.0,0.0,193.0,0.0,193.0,0.0,17.0,0.0,179.0,193.0,17.0,179.0,1744420673.698698,0.0,2025-04-11 21:17:53.698,BACKWARD,47
186.0,16427.81691882812,23816.744842141252,-31291.212891484847,-18908.12294580018,-34085.67268677625,-25377.097770821783,-14370.60706265057,-29794.249510079568,0.0,0.0,0.0,193.0,0.0,194.0,0.0,17.0,0.0,180.0,194.0,17.0,180.0,1744420673.6987529,0.0,2025-04-11 21:17:53.698,BACKWARD,47
187.0,16412.461270387324,23829.418281247414,-31284.90969954845,-18902.535009686355,-34078.38601808382,-25367.195948028082,-14696.160220642118,-29783.095989596368,0.0,0.0,0.0,193.0,0.0,194.0,0.0,17.0,0.0,180.0,194.0,17.0,180.0,1744420673.698799,0.0,2025-04-11 21:17:53.698,BACKWARD,47
188.0,16429.761520595734,23837.7778336737,-31279.634687856997,-18896.745907872428,-34074.58622152641,-25376.918956866142,-14526.890459882077,-29761.772425386003,0.0,0.0,0.0,193.0,0.0,194.0,0.0,17.0,0.0,179.0,194.0,17.0,179.0,1744420673.6988444,0.0,2025-04-11 21:17:53.698,BACKWARD,47
189.0,16440.557413167648,23825.059691078626,-31297.80665609916,-18918.427099994078,-34091.998230457095,-25402.757573456478,-14101.223838475209,-29773.820015647416,0.0,0.0,0.0,193.0,0.0,194.0,0.0,17.0,0.0,179.0,194.0,17.0,179.0,1744420673.698895,0.0,2025-04-11 21:17:53.698,BACKWARD,47
190.0,16424.30769494864,23813.749708384243,-31298.76778111074,-18918.114175571704,-34091.93117522373,-25389.368878527748,-14330.30686739765,-29809.314585842443,0.0,0.0,0.0,193.0,0.0,193.0,0.0,17.0,0.0,179.0,193.0,17.0,179.0,1744420673.6989968,0.0,2025-04-11 21:17:53.698,BACKWARD,47
191.0,16408.415604640915,23829.15006031395,-31295.32561246462,-18906.603027177218,-34088.46665483316,-25371.152206796673,-14672.959109897509,-29787.99102163208,0.0,0.0,0.0,193.0,0.0,194.0,0.0,17.0,0.0,180.0,194.0,17.0,180.0,1744420673.6990485,0.0,2025-04-11 21:17:53.699,BACKWARD,47
192.0,16426.028779271695,23843.81280467663,-31282.76393208074,-18892.007338047904,-34073.31217209246,-25363.26204100395,-14610.418928911558,-29769.662591178727,0.0,0.0,0.0,193.0,0.0,194.0,0.0,17.0,0.0,180.0,194.0,17.0,180.0,1744420673.6991093,0.0,2025-04-11 21:17:53.699,BACKWARD,47
193.0,16440.803282356654,23838.917772640918,-31298.61131889955,-18908.30175975582,-34090.21009090067,-25382.573948213336,-14120.871021851424,-29747.31084672342,0.0,0.0,0.0,193.0,0.0,193.0,0.0,17.0,0.0,179.0,193.0,17.0,179.0,1744420673.699186,0.0,2025-04-11 21:17:53.699,BACKWARD,47
194.0,16428.19689848386,23825.462022478823,-31301.09236253409,-18915.29785577033,-34089.45013158919,-25374.482616720514,-14271.790000413657,-29806.587673018894,0.0,0.0,0.0,193.0,0.0,194.0,0.0,17.0,0.0,180.0,194.0,17.0,180.0,1744420673.699237,0.0,2025-04-11 21:17:53.699,BACKWARD,47
195.0,16414.987017510775,23838.96247612983,-31289.737676350796,-18896.63414915015,-34072.55221278098,-25349.35925595275,-14623.8523273292,-29775.295230781467,0.0,0.0,0.0,193.0,0.0,193.0,0.0,17.0,0.0,179.0,193.0,17.0,179.0,1744420673.6992922,0.0,2025-04-11 21:17:53.699,BACKWARD,47
196.0,16415.992846011264,23846.606772733543,-31285.982583282304,-18891.426192692066,-34071.14405288029,-25350.49919491997,-14656.195301556028,-29762.040646319467,0.0,0.0,0.0,193.0,0.0,194.0,0.0,17.0,0.0,179.0,194.0,17.0,179.0,1744420673.6993392,0.0,2025-04-11 21:17:53.699,BACKWARD,47
197.0,16439.573936411613,23844.90804015494,-31296.554958409663,-18900.568056174285,-34083.549271052994,-25370.816930629844,-14178.180894634832,-29728.4683261476,0.0,0.0,0.0,193.0,0.0,194.0,0.0,17.0,0.0,179.0,194.0,17.0,179.0,1744420673.6993866,0.0,2025-04-11 21:17:53.699,BACKWARD,47
198.0,16425.33587519358,23819.09177530906,-31309.67543240493,-18922.36100701821,-34094.83690200292,-25381.45636099057,-14193.268322142163,-29792.103742611856,0.0,0.0,0.0,193.0,0.0,193.0,0.0,17.0,0.0,179.0,193.0,17.0,179.0,1744420673.699483,0.0,2025-04-11 21:17:53.699,BACKWARD,47
199.0,16410.650779086445,23833.531002227188,-31296.443199687386,-18902.087974797247,-34080.57648904044,-25353.427273443613,-14564.106114400163,-29780.03380060599,0.0,0.0,0.0,193.0,0.0,194.0,0.0,17.0,0.0,180.0,194.0,17.0,180.0,1744420673.6995268,0.0,2025-04-11 21:17:53.699,BACKWARD,47
200.0,16406.135726706474,23851.077121624607,-31293.403362441466,-18894.287215982346,-34078.9448116952,-25349.29220071938,-14694.170915385595,-29759.26903000701,0.0,0.0,0.0,193.0,0.0,193.0,0.0,17.0,0.0,179.0,193.0,17.0,179.0,1744420673.699581,0.0,2025-04-11 21:17:53.699,BACKWARD,47
201.0,16434.745959609267,23850.138348357483,-31302.96990906834,-18898.288178239844,-34096.13330318133,-25366.033657316406,-14264.078648576577,-29730.83761105986,0.0,0.0,0.0,193.0,0.0,194.0,0.0,17.0,0.0,180.0,194.0,17.0,180.0,1744420674.1728673,0.0,2025-04-11 21:17:54.172,BACKWARD,47
202.0,16435.729436365298,23828.09952832455,-31314.883388863014,-18920.103480828224,-34111.19837894421,-25376.673087677133,-14193.0001012087,-29804.419553806732,0.0,0.0,0.0,193.0,0.0,193.0,0.0,17.0,0.0,179.0,193.0,17.0,179.0,1744420674.1730065,0.0,2025-04-11 21:17:54.173,BACKWARD,47
203.0,16414.42822389939,23827.920714368905,-31304.512179435755,-18909.21818127849,-34091.66295429027,-25363.664372404146,-14530.198518061463,-29798.786914203993,0.0,0.0,0.0,193.0,0.0,194.0,0.0,17.0,0.0,180.0,194.0,17.0,180.0,1744420674.1730523,0.0,2025-04-11 21:17:54.173,BACKWARD,47
204.0,16411.947180264855,23840.95178138635,-31284.261498959244,-18894.17545726007,-34065.98079991112,-25349.761587352943,-14729.665485580623,-29778.871509894314,0.0,0.0,0.0,193.0,0.0,194.0,0.0,17.0,0.0,179.0,194.0,17.0,179.0,1744420674.1730964,0.0,2025-04-11 21:17:54.173,BACKWARD,47
205.0,16429.225078728807,23836.7273016843,-31294.29743221968,-18902.55736143081,-34081.291744863,-25376.740142910498,-14343.36028615955,-29748.31667522391,0.0,0.0,0.0,193.0,0.0,194.0,0.0,17.0,0.0,179.0,194.0,17.0,179.0,1744420674.1731832,0.0,2025-04-11 21:17:54.173,BACKWARD,47
206.0,16441.227965501304,23827.85365913554,-31300.354754967066,-18918.60591394972,-34090.679477534235,-25378.662392933657,-14112.17619325831,-29782.872472151816,0.0,0.0,0.0,193.0,0.0,194.0,0.0,17.0,0.0,180.0,194.0,17.0,180.0,1744420674.1732273,0.0,2025-04-11 21:17:54.173,BACKWARD,47
207.0,16423.815956570623,23829.597095203055,-31292.352830452066,-18905.12781204317,-34084.733913509124,-25358.59052641279,-14436.18708088244,-29783.31950704092,0.0,0.0,0.0,193.0,0.0,193.0,0.0,17.0,0.0,179.0,193.0,17.0,179.0,1744420674.1732707,0.0,2025-04-11 21:17:54.173,BACKWARD,47
208.0,16409.06380523012,23846.33855180008,-31282.361600680546,-18894.577788660263,-34077.44724481669,-25348.599296641267,-14721.507098854436,-29775.65285869275,0.0,0.0,0.0,193.0,0.0,194.0,0.0,17.0,0.0,180.0,194.0,17.0,180.0,1744420674.1733308,0.0,2025-04-11 21:17:54.173,BACKWARD,47
209.0,16431.281439218696,23849.91483091293,-31285.66965885993,-18891.82852409226,-34087.75139901059,-25362.30091599237,-14461.712773050402,-29751.043588047458,0.0,0.0,0.0,193.0,0.0,193.0,0.0,17.0,0.0,179.0,193.0,17.0,179.0,1744420674.1733744,0.0,2025-04-11 21:17:54.173,BACKWARD,47
210.0,16445.20657601435,23835.274438294702,-31299.080705533113,-18913.979102847472,-34096.73680028162,-25381.45636099057,-14122.592106174483,-29779.340896527876,0.0,0.0,0.0,193.0,0.0,194.0,0.0,17.0,0.0,180.0,194.0,17.0,180.0,1744420674.1734176,0.0,2025-04-11 21:17:54.173,BACKWARD,47
211.0,16423.503032148248,23825.39496724546,-31296.24203398729,-18912.45918422451,-34082.78931174151,-25368.939384095596,-14383.32520524564,-29802.497303783573,0.0,0.0,0.0,193.0,0.0,193.0,0.0,17.0,0.0,179.0,193.0,17.0,179.0,1744420674.1734607,0.0,2025-04-11 21:17:54.173,BACKWARD,47
212.0,16407.275665673693,23833.19572606036,-31289.15653099496,-18902.423250964075,-34072.48515754761,-25361.317439236336,-14705.413842846614,-29798.80926594845,0.0,0.0,0.0,193.0,0.0,193.0,0.0,17.0,0.0,179.0,193.0,17.0,179.0,1744420674.173504,0.0,2025-04-11 21:17:54.173,BACKWARD,47
213.0,16419.524421635204,23831.94402837086,-31288.463626916844,-18897.93055032856,-34076.03908491601,-25370.816930629844,-14538.848643165666,-29771.160158057235,0.0,0.0,0.0,193.0,0.0,194.0,0.0,17.0,0.0,180.0,194.0,17.0,180.0,1744420674.1735692,0.0,2025-04-11 21:17:54.173,BACKWARD,47
214.0,16439.35041896706,23831.00525510374,-31298.544263666186,-18911.810983635307,-34090.36655311186,-25383.959756369564,-14118.70290263926,-29765.482814965584,0.0,0.0,0.0,193.0,0.0,194.0,0.0,17.0,0.0,179.0,194.0,17.0,179.0,1744420674.1736124,0.0,2025-04-11 21:17:54.173,BACKWARD,47
215.0,16420.597305369058,23815.068461307106,-31302.52287417923,-18916.30368427082,-34090.00892520058,-25378.30476502237,-14316.158213157441,-29808.152295130767,0.0,0.0,0.0,193.0,0.0,194.0,0.0,17.0,0.0,180.0,194.0,17.0,180.0,1744420674.1736555,0.0,2025-04-11 21:17:54.173,BACKWARD,47
216.0,16403.14059294946,23827.160755057426,-31293.42571418592,-18901.842105608237,-34084.21982338665,-25358.29995373487,-14662.051458603319,-29796.149408358266,0.0,0.0,0.0,193.0,0.0,193.0,0.0,18.0,0.0,179.0,193.0,18.0,179.0,1744420674.1736984,0.0,2025-04-11 21:17:54.173,BACKWARD,47
