Sample Index,EXG Channel 0,EXG Channel 1,EXG Channel 2,EXG Channel 3,EXG Channel 4,EXG Channel 5,EXG Channel 6,EXG Channel 7,Accel Channel 0,Accel Channel 1,Accel Channel 2,Not Used,Digital Channel 0 (D11),Digital Channel 1 (D12),Digital Channel 2 (D13),Digital Channel 3 (D17),Not Used,Digital Channel 4 (D18),Analog Channel 0,Analog Channel 1,Analog Channel 2,Timestamp,Marker Channel,Timestamp (Formatted),Stimulus_Direction,Stimulus_Number
52.0,24152.378636882146,28203.386450217542,-31929.690471850692,-26474.031981710432,-36764.506908000345,-31378.608212305095,-11948.214405562212,-38766.10562397309,0.0,0.0,0.0,193.0,0.0,193.0,0.0,1.0,0.0,179.0,193.0,1.0,179.0,1744420407.424184,0.0,2025-04-11 21:13:27.424,BACKWARD,14
53.0,24181.16768374058,28205.643976407526,-31944.263809235552,-26485.856054527292,-36780.22018435242,-31400.98230850486,-11491.076527962272,-38750.90643774348,0.0,0.0,0.0,193.0,0.0,193.0,0.0,1.0,0.0,179.0,193.0,1.0,179.0,1744420407.424225,0.0,2025-04-11 21:13:27.424,BACKWARD,14
54.0,24173.16575922558,28188.030801776746,-31949.628227904825,-26505.123258247764,-36780.80132970826,-31405.005622506815,-11442.103855860694,-38789.93258356245,0.0,0.0,0.0,193.0,0.0,193.0,0.0,1.0,0.0,179.0,193.0,1.0,179.0,1744420407.4242656,0.0,2025-04-11 21:13:27.424,BACKWARD,14
55.0,24147.05892170178,28199.050211793212,-31940.218143489143,-26490.974604007555,-36769.33488480269,-31380.508110583796,-11773.691984855173,-38767.893763529515,0.0,0.0,0.0,193.0,0.0,193.0,0.0,1.0,0.0,179.0,193.0,1.0,179.0,1744420407.4243064,0.0,2025-04-11 21:13:27.424,BACKWARD,14
56.0,24141.29217163231,28210.24843576532,-31926.36006192685,-26475.95423173359,-36755.56621021822,-31361.710293496883,-11962.519522013608,-38744.871466740544,0.0,0.0,0.0,193.0,0.0,193.0,0.0,1.0,0.0,179.0,193.0,1.0,179.0,1744420407.4243605,0.0,2025-04-11 21:13:27.424,BACKWARD,14
57.0,24173.277517947856,28209.890807854037,-31934.22787597512,-26478.99406897951,-36766.92089640151,-31384.509072841298,-11563.250310808458,-38743.86563824006,0.0,0.0,0.0,193.0,0.0,193.0,0.0,1.0,0.0,179.0,193.0,1.0,179.0,1744420407.4244015,0.0,2025-04-11 21:13:27.424,BACKWARD,14
58.0,24171.087046991237,28185.169778486466,-31946.968370314644,-26501.681089601647,-36783.21531810943,-31394.097971212625,-11393.891143070596,-38774.48752814383,0.0,0.0,0.0,193.0,0.0,193.0,0.0,1.0,0.0,179.0,193.0,1.0,179.0,1744420407.424442,0.0,2025-04-11 21:13:27.424,BACKWARD,14
59.0,24146.343665879212,28188.880168066047,-31935.256056220063,-26484.202025437597,-36769.82662318071,-31369.891031967527,-11726.418045332199,-38746.72666153034,0.0,0.0,0.0,193.0,0.0,193.0,0.0,1.0,0.0,179.0,193.0,1.0,179.0,1744420407.4244826,0.0,2025-04-11 21:13:27.424,BACKWARD,14
60.0,24140.800433254295,28207.521522941774,-31918.648710089772,-26467.840548496315,-36751.45348923844,-31358.312828339676,-11971.773144218105,-38740.132896916024,0.0,0.0,0.0,193.0,0.0,193.0,0.0,1.0,0.0,179.0,193.0,1.0,179.0,1744420407.4245348,0.0,2025-04-11 21:13:27.424,BACKWARD,14
61.0,24170.751770824405,28216.551627701716,-31921.46502989114,-26465.113635672766,-36762.00351262135,-31374.562546558685,-11655.808884597885,-38735.50608581377,0.0,0.0,0.0,193.0,0.0,194.0,0.0,1.0,0.0,179.0,194.0,1.0,179.0,1744420407.4245756,0.0,2025-04-11 21:13:27.424,BACKWARD,14
62.0,24184.11811400868,28204.280519995755,-31932.484439907606,-26485.38666789373,-36774.81106219424,-31387.41479962049,-11371.092363726184,-38760.897667515004,0.0,0.0,0.0,193.0,0.0,194.0,0.0,1.0,0.0,179.0,194.0,1.0,179.0,1744420407.4246163,0.0,2025-04-11 21:13:27.424,BACKWARD,14
63.0,24157.854814273695,28193.082296023644,-31927.65646310526,-26480.893967258213,-36766.98795163488,-31377.289459382235,-11651.338535706824,-38755.510897101274,0.0,0.0,0.0,193.0,0.0,193.0,0.0,1.0,0.0,179.0,193.0,1.0,179.0,1744420407.424657,0.0,2025-04-11 21:13:27.424,BACKWARD,14
64.0,24144.130843178136,28207.275653752764,-31915.206541443655,-26469.069894441356,-36756.03559685178,-31365.890069710025,-11949.689620696261,-38750.9958447213,0.0,0.0,0.0,193.0,0.0,194.0,0.0,1.0,0.0,179.0,194.0,1.0,179.0,1744420407.4246976,0.0,2025-04-11 21:13:27.424,BACKWARD,14
65.0,24165.432055644043,28211.075450310167,-31917.55347461146,-26467.28175488493,-36762.89758239956,-31375.769540759273,-11748.456865365133,-38743.99974870679,0.0,0.0,0.0,193.0,0.0,194.0,0.0,1.0,0.0,179.0,194.0,1.0,179.0,1744420407.4247513,0.0,2025-04-11 21:13:27.424,BACKWARD,14
66.0,24183.291099463833,28200.883054838545,-31936.37364344283,-26488.87354002876,-36779.460225040944,-31397.294270669732,-11367.627843335611,-38765.88210652854,0.0,0.0,0.0,193.0,0.0,194.0,0.0,1.0,0.0,179.0,194.0,1.0,179.0,1744420407.4247923,0.0,2025-04-11 21:13:27.424,BACKWARD,14
67.0,24162.705142820498,28183.180473229942,-31940.441660933695,-26492.472170886063,-36781.00249540836,-31393.919157256983,-11601.136517660203,-38789.66436262898,0.0,0.0,0.0,193.0,0.0,193.0,0.0,1.0,0.0,180.0,193.0,1.0,180.0,1744420407.4248323,0.0,2025-04-11 21:13:27.424,BACKWARD,14
68.0,24142.476814088444,28199.094915282123,-31928.729346839114,-26475.306031144388,-36768.57492549121,-31369.600459289606,-11946.247452050144,-38766.351493162096,0.0,0.0,0.0,193.0,0.0,194.0,0.0,1.0,0.0,179.0,194.0,1.0,179.0,1744420407.424873,0.0,2025-04-11 21:13:27.424,BACKWARD,14
69.0,24154.25618341639,28206.269825252275,-31922.64967234727,-26464.75600776148,-36760.863573654126,-31368.907555211492,-11860.908491719782,-38746.92782723044,0.0,0.0,0.0,193.0,0.0,193.0,0.0,1.0,0.0,179.0,193.0,1.0,179.0,1744420407.4249136,0.0,2025-04-11 21:13:27.424,BACKWARD,14
70.0,24176.853797060707,28206.180418274453,-31944.59908540238,-26486.280737671943,-36779.77314946332,-31394.902634013015,-11391.387747691602,-38759.02012098076,0.0,0.0,0.0,193.0,0.0,193.0,0.0,1.0,0.0,178.0,193.0,1.0,178.0,1744420407.4249542,0.0,2025-04-11 21:13:27.424,BACKWARD,14
71.0,24159.061808474282,28182.174644729454,-31950.522297683037,-26497.747182577514,-36787.082169900204,-31393.98621249035,-11540.071551808305,-38788.14444400602,0.0,0.0,0.0,193.0,0.0,193.0,0.0,1.0,0.0,179.0,193.0,1.0,179.0,1744420407.4250505,0.0,2025-04-11 21:13:27.425,BACKWARD,14
72.0,24141.023950698847,28193.86460707958,-31934.65255911977,-26479.888138757724,-36775.03457963879,-31373.176738402457,-11895.173715969768,-38771.53709787573,0.0,0.0,0.0,193.0,0.0,193.0,0.0,1.0,0.0,179.0,193.0,1.0,179.0,1744420407.4250925,0.0,2025-04-11 21:13:27.425,BACKWARD,14
73.0,24151.551622337298,28205.085182796145,-31927.276483449517,-26470.99214446451,-36767.23382082389,-31370.986267445838,-11923.649838405829,-38756.51672560176,0.0,0.0,0.0,193.0,0.0,193.0,0.0,1.0,0.0,179.0,193.0,1.0,179.0,1744420407.425133,0.0,2025-04-11 21:13:27.425,BACKWARD,14
74.0,24185.481570420456,28205.9569008299,-31945.381396458317,-26486.459551627584,-36787.52920478931,-31401.854026538615,-11437.477044758445,-38762.41758613796,0.0,0.0,0.0,193.0,0.0,193.0,0.0,1.0,0.0,178.0,193.0,1.0,178.0,1744420407.4251735,0.0,2025-04-11 21:13:27.425,BACKWARD,14
75.0,24175.22211971547,28191.115342511577,-31945.984893558612,-26492.67333658616,-36786.47867279991,-31390.11936069958,-11489.534257594856,-38775.850984555604,0.0,0.0,0.0,193.0,0.0,193.0,0.0,1.0,0.0,179.0,193.0,1.0,179.0,1744420407.425227,0.0,2025-04-11 21:13:27.425,BACKWARD,14
76.0,24145.784872267828,28206.046307807723,-31943.74971911308,-26481.609223080784,-36781.71775123093,-31379.077598938657,-11837.77443620854,-38756.226152923846,0.0,0.0,0.0,193.0,0.0,193.0,0.0,1.0,0.0,179.0,193.0,1.0,179.0,1744420407.425268,0.0,2025-04-11 21:13:27.425,BACKWARD,14
77.0,24145.40489261209,28213.042403822234,-31932.909123052257,-26469.069894441356,-36771.54770750376,-31370.986267445838,-11957.266862066612,-38752.13578368852,0.0,0.0,0.0,193.0,0.0,194.0,0.0,1.0,0.0,179.0,194.0,1.0,179.0,1744420407.4253087,0.0,2025-04-11 21:13:27.425,BACKWARD,14
78.0,24174.573919126266,28209.756697387304,-31945.806079602968,-26475.417789866664,-36786.34456233318,-31392.17572118947,-11504.755795568919,-38739.70821377137,0.0,0.0,0.0,193.0,0.0,194.0,0.0,1.0,0.0,179.0,194.0,1.0,179.0,1744420407.4253495,0.0,2025-04-11 21:13:27.425,BACKWARD,14
79.0,24169.92475627956,28187.583766887637,-31952.66806515075,-26492.0027842525,-36789.80908272375,-31401.496398627332,-11453.615004255176,-38791.07252252967,0.0,0.0,0.0,193.0,0.0,194.0,0.0,1.0,0.0,179.0,194.0,1.0,179.0,1744420407.42539,0.0,2025-04-11 21:13:27.425,BACKWARD,14
80.0,24139.39227335361,28187.069676765168,-31945.493155180593,-26478.234109668032,-36784.198794865464,-31384.620831563574,-11789.405261207256,-38773.99578976581,0.0,0.0,0.0,193.0,0.0,194.0,0.0,1.0,0.0,180.0,194.0,1.0,180.0,1744420407.425444,0.0,2025-04-11 21:13:27.425,BACKWARD,14
81.0,24136.10656691868,28199.944281571425,-31932.260922463054,-26463.928993216636,-36775.01222789434,-31368.01348543328,-11991.375624105409,-38754.72858604534,0.0,0.0,0.0,193.0,0.0,194.0,0.0,1.0,0.0,179.0,194.0,1.0,179.0,1744420407.4254851,0.0,2025-04-11 21:13:27.425,BACKWARD,14
82.0,24164.560337610288,28200.324261227164,-31949.51646918255,-26475.10486544429,-36792.1336641471,-31395.483779368853,-11600.041282181894,-38744.111507429065,0.0,0.0,0.0,193.0,0.0,193.0,0.0,0.0,0.0,179.0,193.0,0.0,179.0,1744420407.425526,0.0,2025-04-11 21:13:27.425,BACKWARD,14
83.0,24171.444674902523,28186.53323489824,-31957.764262886558,-26495.556711620895,-36797.54278630528,-31404.178607961967,-11403.189468764003,-38779.986057279835,0.0,0.0,0.0,193.0,0.0,193.0,0.0,1.0,0.0,179.0,193.0,1.0,179.0,1744420407.4255657,0.0,2025-04-11 21:13:27.425,BACKWARD,14
84.0,24153.07154096026,28188.187263987933,-31944.040291791,-26476.28950790042,-36783.2823733428,-31379.323468127666,-11730.933097712172,-38762.55169660469,0.0,0.0,0.0,193.0,0.0,193.0,0.0,1.0,0.0,179.0,193.0,1.0,179.0,1744420407.4256065,0.0,2025-04-11 21:13:27.425,BACKWARD,14
85.0,24145.114319934168,28204.749906629313,-31927.99173927209,-26457.75991174697,-36763.61283822213,-31360.458595807388,-11992.023824694614,-38747.46426909736,0.0,0.0,0.0,193.0,0.0,193.0,0.0,1.0,0.0,179.0,193.0,1.0,179.0,1744420407.4256468,0.0,2025-04-11 21:13:27.425,BACKWARD,14
86.0,24168.293078934323,28210.516656698783,-31936.306588209463,-26459.928030959134,-36771.81592843723,-31375.389561103533,-11684.620283200775,-38730.32048110014,0.0,0.0,0.0,193.0,0.0,193.0,0.0,1.0,0.0,178.0,193.0,1.0,178.0,1744420407.425701,0.0,2025-04-11 21:13:27.425,BACKWARD,14
87.0,24178.5078261504,28196.54681641422,-31953.60683841787,-26484.358487648784,-36789.33969609019,-31391.773389789272,-11378.40138416307,-38764.876278028045,0.0,0.0,0.0,193.0,0.0,193.0,0.0,1.0,0.0,178.0,193.0,1.0,178.0,1744420407.425742,0.0,2025-04-11 21:13:27.425,BACKWARD,14
88.0,24155.217308427968,28187.896691310012,-31949.9411523272,-26479.351696890797,-36784.28820184329,-31378.228232649355,-11667.342384736823,-38776.85681305609,0.0,0.0,0.0,193.0,0.0,193.0,0.0,1.0,0.0,179.0,193.0,1.0,179.0,1744420407.4257822,0.0,2025-04-11 21:13:27.425,BACKWARD,14
89.0,24140.01812219836,28205.688679896437,-31938.09472776589,-26465.784188006426,-36769.71486445843,-31363.274915608756,-11988.693414770773,-38765.233905939334,0.0,0.0,0.0,193.0,0.0,193.0,0.0,0.0,0.0,179.0,193.0,0.0,179.0,1744420407.4258227,0.0,2025-04-11 21:13:27.425,BACKWARD,14
90.0,24155.038494472326,28203.05117405071,-31944.554381913473,-26467.28175488493,-36770.787748192284,-31380.977497217358,-11778.430554679699,-38754.21449592287,0.0,0.0,0.0,193.0,0.0,193.0,0.0,0.0,0.0,180.0,193.0,0.0,180.0,1744420407.425874,0.0,2025-04-11 21:13:27.425,BACKWARD,14
91.0,24180.430076173554,28196.52446466976,-31953.964466329155,-26484.559653348882,-36779.79550120777,-31396.511959613796,-11355.66966005202,-38759.31069365868,0.0,0.0,0.0,193.0,0.0,194.0,0.0,0.0,0.0,179.0,194.0,0.0,179.0,1744420407.4259267,0.0,2025-04-11 21:13:27.425,BACKWARD,14
92.0,24160.961706752983,28183.13576974103,-31945.537858669504,-26478.077647456845,-36775.056931383246,-31381.73745652884,-11575.946101659072,-38774.37576942155,0.0,0.0,0.0,193.0,0.0,193.0,0.0,0.0,0.0,179.0,193.0,0.0,179.0,1744420407.4259653,0.0,2025-04-11 21:13:27.425,BACKWARD,14
93.0,24139.280514631333,28201.508903683294,-31930.22691371762,-26456.28469661292,-36759.880096898094,-31354.803604460194,-11919.447710448232,-38741.876332983535,0.0,0.0,0.0,193.0,0.0,194.0,0.0,0.0,0.0,179.0,194.0,0.0,179.0,1744420407.426005,0.0,2025-04-11 21:13:27.426,BACKWARD,14
94.0,24155.709046805987,28209.1084967981,-31926.717689838137,-26448.863917453757,-36758.80721316424,-31361.039741163226,-11843.071799644447,-38729.85109446658,0.0,0.0,0.0,193.0,0.0,194.0,0.0,0.0,0.0,180.0,194.0,0.0,180.0,1744420407.4260435,0.0,2025-04-11 21:13:27.426,BACKWARD,14
95.0,24181.97234654097,28201.508903683294,-31945.917838325244,-26468.801673507893,-36781.561289019744,-31391.706334555907,-11390.292512213293,-38757.053167468686,0.0,0.0,0.0,193.0,0.0,193.0,0.0,0.0,0.0,179.0,193.0,0.0,179.0,1744420407.4260955,0.0,2025-04-11 21:13:27.426,BACKWARD,14
96.0,24166.34847716671,28183.895729052514,-31947.169536014742,-26475.551900333394,-36779.81785295223,-31386.274860653266,-11545.726543155497,-38789.686714373434,0.0,0.0,0.0,193.0,0.0,193.0,0.0,0.0,0.0,179.0,193.0,0.0,179.0,1744420407.9007547,0.0,2025-04-11 21:13:27.900,BACKWARD,14
97.0,24143.16971816656,28196.256243736298,-31939.100556266378,-26465.068932183854,-36769.91603015853,-31368.97461044486,-11875.39242212682,-38756.15909769048,0.0,0.0,0.0,193.0,0.0,193.0,0.0,0.0,0.0,179.0,193.0,0.0,179.0,1744420407.900914,0.0,2025-04-11 21:13:27.900,BACKWARD,14
98.0,24149.852889758695,28204.16876127348,-31929.22108521713,-26460.017437936956,-36766.29504755676,-31368.72874125585,-11912.898649322826,-38745.38555686302,0.0,0.0,0.0,193.0,0.0,193.0,0.0,0.0,0.0,179.0,193.0,0.0,179.0,1744420407.9009726,0.0,2025-04-11 21:13:27.900,BACKWARD,14
99.0,24181.748829096417,28205.711031640894,-31946.342521469895,-26476.96006023408,-36790.010248423845,-31393.874453768072,-11438.818149425764,-38744.536190573715,0.0,0.0,0.0,193.0,0.0,193.0,0.0,0.0,0.0,179.0,193.0,0.0,179.0,1744420407.9010205,0.0,2025-04-11 21:13:27.901,BACKWARD,14
100.0,24179.468951161976,28185.125074997555,-31939.32407371093,-26483.822045781857,-36782.90239368706,-31388.35357288761,-11491.635321573654,-38786.22219398287,0.0,0.0,0.0,193.0,0.0,194.0,0.0,0.0,0.0,179.0,194.0,0.0,179.0,1744420407.9010692,0.0,2025-04-11 21:13:27.901,BACKWARD,14
101.0,24154.72557004995,28196.34565071412,-31924.147239225775,-26463.884289727725,-36770.05014062526,-31366.605325532597,-11838.91437517576,-38763.87044952756,0.0,0.0,0.0,193.0,0.0,194.0,0.0,0.0,0.0,180.0,194.0,0.0,180.0,1744420407.9011858,0.0,2025-04-11 21:13:27.901,BACKWARD,14
102.0,24146.343665879212,28203.744078128824,-31922.44850664717,-26461.805577493382,-36773.00057089336,-31371.83563373514,-11973.896559941359,-38768.85488854109,0.0,0.0,0.0,193.0,0.0,194.0,0.0,0.0,0.0,179.0,194.0,0.0,179.0,1744420407.9012325,0.0,2025-04-11 21:13:27.901,BACKWARD,14
103.0,24181.145331996126,28209.3096624982,-31928.282311950006,-26463.213737394064,-36777.1803471065,-31382.54211932923,-11530.147377270148,-38734.120277657545,0.0,0.0,0.0,193.0,0.0,193.0,0.0,0.0,0.0,179.0,193.0,0.0,179.0,1744420407.9012764,0.0,2025-04-11 21:13:27.901,BACKWARD,14
104.0,24178.619584872675,28186.57793838715,-31936.59716088738,-26477.00476372299,-36782.09773088667,-31386.58778507564,-11438.996963381405,-38766.82087979566,0.0,0.0,0.0,193.0,0.0,193.0,0.0,0.0,0.0,179.0,193.0,0.0,179.0,1744420407.9013195,0.0,2025-04-11 21:13:27.901,BACKWARD,14
105.0,24157.273668917856,28191.405915189498,-31931.36685268484,-26463.727827516537,-36773.715826715925,-31373.44495933592,-11769.467505153121,-38759.847135525604,0.0,0.0,0.0,193.0,0.0,193.0,0.0,0.0,0.0,179.0,193.0,0.0,179.0,1744420407.9014037,0.0,2025-04-11 21:13:27.901,BACKWARD,14
106.0,24151.059883959282,28211.835409621646,-31920.66036709075,-26452.127272144233,-36768.44081502448,-31363.699598753406,-11990.079222927001,-38754.03568196722,0.0,0.0,0.0,193.0,0.0,193.0,0.0,0.0,0.0,179.0,193.0,0.0,179.0,1744420407.9014487,0.0,2025-04-11 21:13:27.901,BACKWARD,14
107.0,24177.949032539014,28217.06571782419,-31928.528181139016,-26451.322609343842,-36776.26392558384,-31379.815206505682,-11608.557296819365,-38730.968681689345,0.0,0.0,0.0,193.0,0.0,193.0,0.0,0.0,0.0,179.0,193.0,0.0,179.0,1744420407.9014947,0.0,2025-04-11 21:13:27.901,BACKWARD,14
108.0,24183.000526785916,28192.232929734342,-31944.576733657927,-26479.083475957334,-36786.94805943347,-31396.556663102707,-11395.522820415834,-38775.158080477486,0.0,0.0,0.0,193.0,0.0,193.0,0.0,0.0,0.0,179.0,193.0,0.0,179.0,1744420407.9015377,0.0,2025-04-11 21:13:27.901,BACKWARD,14
109.0,24158.659477074085,28187.91904305447,-31940.441660933695,-26471.483882842527,-36781.762454719836,-31386.252508908812,-11713.923420181683,-38783.8529090706,0.0,0.0,0.0,193.0,0.0,194.0,0.0,0.0,0.0,180.0,194.0,0.0,180.0,1744420407.9015796,0.0,2025-04-11 21:13:27.901,BACKWARD,14
110.0,24141.627447799143,28199.34078447113,-31930.830410817915,-26460.03978968141,-36769.22312608041,-31373.109683169092,-11992.493211328176,-38771.045359497715,0.0,0.0,0.0,193.0,0.0,194.0,0.0,0.0,0.0,179.0,194.0,0.0,179.0,1744420407.901641,0.0,2025-04-11 21:13:27.901,BACKWARD,14
111.0,24166.16966321107,28206.33688048564,-31930.45043116217,-26456.105882657277,-36771.279486570296,-31379.59168906113,-11703.507507265509,-38739.171771904446,0.0,0.0,0.0,193.0,0.0,193.0,0.0,0.0,0.0,179.0,193.0,0.0,179.0,1744420407.901683,0.0,2025-04-11 21:13:27.901,BACKWARD,14
112.0,24177.792570327827,28189.461313421885,-31947.92949532622,-26484.827874282346,-36792.06660891374,-31399.440038137443,-11359.849436265164,-38760.51768785926,0.0,0.0,0.0,193.0,0.0,193.0,0.0,0.0,0.0,179.0,193.0,0.0,179.0,1744420407.9017253,0.0,2025-04-11 21:13:27.901,BACKWARD,14
113.0,24160.179395697047,28183.180473229942,-31940.32990221142,-26478.122350945756,-36782.92474543151,-31387.4595031094,-11640.721457090553,-38776.74505433381,0.0,0.0,0.0,193.0,0.0,193.0,0.0,0.0,0.0,179.0,193.0,0.0,179.0,1744420407.9017684,0.0,2025-04-11 21:13:27.901,BACKWARD,14
114.0,24146.83540425723,28206.091011296634,-31924.415460159238,-26457.446987324594,-36763.99281787787,-31360.86092720758,-11970.007356406137,-38757.96958899136,0.0,0.0,0.0,193.0,0.0,193.0,0.0,0.0,0.0,179.0,193.0,0.0,179.0,1744420407.901811,0.0,2025-04-11 21:13:27.901,BACKWARD,14
115.0,24161.520500364364,28209.555531687205,-31933.98200678611,-26457.13406290222,-36773.69347497147,-31370.136901156537,-11801.497554957576,-38745.38555686302,0.0,0.0,0.0,193.0,0.0,193.0,0.0,0.0,0.0,179.0,193.0,0.0,179.0,1744420407.901853,0.0,2025-04-11 21:13:27.901,BACKWARD,14
116.0,24180.877111062662,28197.664403636983,-31955.305570996476,-26482.391534136717,-36790.434931568496,-31397.24956718082,-11388.01263427885,-38769.41368215247,0.0,0.0,0.0,193.0,0.0,193.0,0.0,0.0,0.0,178.0,193.0,0.0,178.0,1744420407.901918,0.0,2025-04-11 21:13:27.901,BACKWARD,14
117.0,24158.39125614062,28176.117321982067,-31958.345408242396,-26486.727772561047,-36786.657486755554,-31390.07465721067,-11592.86637221174,-38782.69061835892,0.0,0.0,0.0,193.0,0.0,193.0,0.0,0.0,0.0,179.0,193.0,0.0,179.0,1744420407.9019625,0.0,2025-04-11 21:13:27.901,BACKWARD,14
118.0,24142.834441999727,28194.803380346704,-31939.055852777466,-26466.253574639988,-36767.94907664646,-31365.800662732207,-11927.181414029768,-38757.81312678017,0.0,0.0,0.0,193.0,0.0,194.0,0.0,0.0,0.0,179.0,194.0,0.0,179.0,1744420407.9020057,0.0,2025-04-11 21:13:27.902,BACKWARD,14
119.0,24155.574936339253,28208.527351442262,-31930.60689337336,-26456.776434990938,-36762.383492277084,-31365.241869120822,-11887.328253665955,-38746.52549583024,0.0,0.0,0.0,193.0,0.0,194.0,0.0,0.0,0.0,179.0,194.0,0.0,179.0,1744420407.9020495,0.0,2025-04-11 21:13:27.902,BACKWARD,14
120.0,24171.154102224602,28196.189188502933,-31958.546573942494,-26485.878406271746,-36788.37857107861,-31402.904558528015,-11400.998997807385,-38759.69067331441,0.0,0.0,0.0,193.0,0.0,193.0,0.0,0.0,0.0,179.0,193.0,0.0,179.0,1744420407.9021103,0.0,2025-04-11 21:13:27.902,BACKWARD,14
121.0,24159.553546852298,28174.70916208138,-31955.37262622984,-26489.29822317341,-36783.77411172081,-31391.16989268898,-11524.559441156322,-38789.26203122878,0.0,0.0,0.0,193.0,0.0,194.0,0.0,0.0,0.0,179.0,194.0,0.0,179.0,1744420407.9021533,0.0,2025-04-11 21:13:27.902,BACKWARD,14
122.0,24142.029779199336,28191.316508211676,-31946.431928447717,-26471.43917935362,-36775.74983546136,-31371.142729657025,-11879.259273917589,-38762.46228962688,0.0,0.0,0.0,193.0,0.0,193.0,0.0,0.0,0.0,179.0,193.0,0.0,179.0,1744420407.9021952,0.0,2025-04-11 21:13:27.902,BACKWARD,14
123.0,24154.658514816587,28208.214427019888,-31937.692396365692,-26459.257478625477,-36769.98308539189,-31369.1534244005,-11945.88982413886,-38765.97151350636,0.0,0.0,0.0,193.0,0.0,193.0,0.0,0.0,0.0,179.0,193.0,0.0,179.0,1744420407.9022372,0.0,2025-04-11 21:13:27.902,BACKWARD,14
124.0,24184.051058775316,28210.203732276408,-31953.9421145847,-26468.980487463534,-36787.10452164466,-31392.55570084521,-11474.60329229871,-38764.250429183296,0.0,0.0,0.0,193.0,0.0,193.0,0.0,0.0,0.0,179.0,193.0,0.0,179.0,1744420407.9022791,0.0,2025-04-11 21:13:27.902,BACKWARD,14
125.0,24174.21629121498,28189.997755288812,-31958.881850109323,-26481.609223080784,-36790.32317284622,-31388.375924632066,-11484.75098428142,-38785.12695850455,0.0,0.0,0.0,193.0,0.0,193.0,0.0,0.0,0.0,178.0,193.0,0.0,178.0,1744420407.9023356,0.0,2025-04-11 21:13:27.902,BACKWARD,14
126.0,24145.02491295635,28194.95984255789,-31956.669027408247,-26473.62965031024,-36784.95875417695,-31374.11551166958,-11814.48391848611,-38756.38261513503,0.0,0.0,0.0,193.0,0.0,193.0,0.0,0.0,0.0,179.0,193.0,0.0,179.0,1744420407.9023774,0.0,2025-04-11 21:13:27.902,BACKWARD,14
127.0,24143.192069911012,28202.49238043933,-31946.007245303066,-26465.2477461395,-36776.91212617304,-31368.594630789117,-11981.2279321227,-38760.271818670255,0.0,0.0,0.0,193.0,0.0,193.0,0.0,0.0,0.0,178.0,193.0,0.0,178.0,1744420407.9024189,0.0,2025-04-11 21:13:27.902,BACKWARD,14
128.0,24169.969459768472,28201.82182810567,-31958.56892568695,-26473.2496706545,-36793.653582770065,-31390.767561288783,-11549.168711801614,-38748.313635386665,0.0,0.0,0.0,193.0,0.0,193.0,0.0,0.0,0.0,179.0,193.0,0.0,179.0,1744420407.90246,0.0,2025-04-11 21:13:27.902,BACKWARD,14
129.0,24173.501035392408,28185.303888953196,-31961.452300721685,-26488.29239467292,-36796.581661293705,-31393.494474112333,-11447.714143718977,-38778.39908342351,0.0,0.0,0.0,193.0,0.0,193.0,0.0,0.0,0.0,179.0,193.0,0.0,179.0,1744420407.9025016,0.0,2025-04-11 21:13:27.902,BACKWARD,14
130.0,24147.416549613066,28187.449656420908,-31956.13258554132,-26477.027115467445,-36792.84891996967,-31379.703447783406,-11779.972825047116,-38759.10952795858,0.0,0.0,0.0,193.0,0.0,194.0,0.0,0.0,0.0,180.0,194.0,0.0,180.0,1744420407.9025433,0.0,2025-04-11 21:13:27.902,BACKWARD,14
131.0,24133.2455436284,28196.457409436396,-31948.622399404336,-26469.226356652543,-36782.120082631125,-31375.16604365898,-12014.196755194278,-38763.66928382746,0.0,0.0,0.0,193.0,0.0,193.0,0.0,0.0,0.0,179.0,193.0,0.0,179.0,1744420407.9026,0.0,2025-04-11 21:13:27.902,BACKWARD,14
132.0,24165.54381436632,28206.605101419107,-31951.192850016698,-26465.493615328505,-36782.6341727536,-31385.17962517496,-11644.744771092508,-38741.183428905424,0.0,0.0,0.0,193.0,0.0,194.0,0.0,0.0,0.0,179.0,194.0,0.0,179.0,1744420407.902642,0.0,2025-04-11 21:13:27.902,BACKWARD,14
133.0,24173.813959814783,28190.668307622473,-31960.915858854754,-26485.94546150511,-36793.54182404779,-31395.796703791228,-11397.579180905723,-38773.72756883235,0.0,0.0,0.0,193.0,0.0,193.0,0.0,0.0,0.0,179.0,193.0,0.0,179.0,1744420407.9026835,0.0,2025-04-11 21:13:27.902,BACKWARD,14
134.0,24151.84219501522,28190.33303145564,-31948.041254048498,-26470.38864736422,-36781.91891693103,-31376.35068611511,-11710.011864902004,-38772.2523536983,0.0,0.0,0.0,193.0,0.0,193.0,0.0,0.0,0.0,179.0,193.0,0.0,179.0,1744420407.9027388,0.0,2025-04-11 21:13:27.902,BACKWARD,14
135.0,24135.860697729673,28206.33688048564,-31937.558285898962,-26454.742426245502,-36772.888812171084,-31362.78317723074,-12004.004359722658,-38765.59153385062,0.0,0.0,0.0,193.0,0.0,193.0,0.0,0.0,0.0,179.0,193.0,0.0,179.0,1744420407.9027803,0.0,2025-04-11 21:13:27.902,BACKWARD,14
136.0,24159.26297417438,28205.666328151983,-31947.03542554801,-26458.922202458645,-36785.249326854864,-31380.44105535043,-11750.155597943736,-38756.40496687948,0.0,0.0,0.0,193.0,0.0,193.0,0.0,0.0,0.0,179.0,193.0,0.0,179.0,1744420407.902822,0.0,2025-04-11 21:13:27.902,BACKWARD,14
137.0,24184.83336983125,28197.507941425796,-31953.070396550942,-26477.34003988982,-36790.05495191276,-31391.035782222247,-11403.077710041727,-38776.38742642253,0.0,0.0,0.0,193.0,0.0,193.0,0.0,0.0,0.0,179.0,193.0,0.0,179.0,1744420407.9028687,0.0,2025-04-11 21:13:27.902,BACKWARD,14
138.0,24160.715837563974,28189.260147721787,-31948.778861615523,-26471.640345053715,-36781.494233786376,-31378.675267538463,-11650.891500817717,-38780.880127058044,0.0,0.0,0.0,193.0,0.0,193.0,0.0,0.0,0.0,179.0,193.0,0.0,179.0,1744420407.9029105,0.0,2025-04-11 21:13:27.902,BACKWARD,14
139.0,24137.62648554164,28199.877226338056,-31942.7885941015,-26459.793920492404,-36772.84410868217,-31367.767616244273,-11965.872283681903,-38773.16877522097,0.0,0.0,0.0,193.0,0.0,193.0,0.0,0.0,0.0,179.0,193.0,0.0,179.0,1744420407.9029524,0.0,2025-04-11 21:13:27.902,BACKWARD,14
140.0,24157.519538106866,28205.129886285056,-31941.00045454508,-26453.356618089274,-36774.45343428295,-31373.288497124733,-11823.022284868037,-38755.66735931246,0.0,0.0,0.0,193.0,0.0,193.0,0.0,0.0,0.0,179.0,193.0,0.0,179.0,1744420407.903009,0.0,2025-04-11 21:13:27.903,BACKWARD,14
141.0,24181.726477351964,28200.145447271523,-31954.813832618456,-26471.662696798172,-36792.91597520304,-31392.265128167288,-11405.178774020527,-38775.940391533426,0.0,0.0,0.0,193.0,0.0,193.0,0.0,0.0,0.0,179.0,193.0,0.0,179.0,1744420407.903051,0.0,2025-04-11 21:13:27.903,BACKWARD,14
142.0,24165.610869599685,28184.610984875082,-31951.058739549964,-26470.835682253324,-36787.708018744954,-31382.653878051507,-11597.359072847257,-38788.54677540622,0.0,0.0,0.0,193.0,0.0,193.0,0.0,0.0,0.0,179.0,193.0,0.0,179.0,1744420407.9030924,0.0,2025-04-11 21:13:27.903,BACKWARD,14
143.0,24138.565258808765,28194.66926987997,-31943.66031213526,-26460.03978968141,-36778.38734130709,-31372.729703513352,-11929.55069894203,-38773.07936824315,0.0,0.0,0.0,193.0,0.0,193.0,0.0,0.0,0.0,179.0,193.0,0.0,179.0,1744420407.903134,0.0,2025-04-11 21:13:27.903,BACKWARD,14
144.0,24143.77321526685,28198.849046093113,-31941.447489434184,-26451.52377504394,-36781.494233786376,-31371.992095946327,-11899.420547416275,-38755.868525012556,0.0,0.0,0.0,193.0,0.0,193.0,0.0,0.0,0.0,179.0,193.0,0.0,179.0,1744420407.9031756,0.0,2025-04-11 21:13:27.903,BACKWARD,14
145.0,24171.668192347075,28197.239720492333,-31959.731216398624,-26466.924126973645,-36802.28135612981,-31390.476988610866,-11438.058190114283,-38752.71692904436,0.0,0.0,0.0,193.0,0.0,193.0,0.0,0.0,0.0,179.0,193.0,0.0,179.0,1744420407.9032168,0.0,2025-04-11 21:13:27.903,BACKWARD,14
146.0,24152.87037526016,28180.9005952955,-31967.442568235707,-26479.776380035448,-36801.901376474074,-31388.64414556553,-11545.99476408896,-38782.712970103385,0.0,0.0,0.0,193.0,0.0,194.0,0.0,0.0,0.0,179.0,194.0,0.0,179.0,1744420407.9032726,0.0,2025-04-11 21:13:27.903,BACKWARD,14
147.0,24127.501145303388,28193.66344137948,-31960.245306521098,-26466.499443828994,-36795.2852601153,-31370.315715112178,-11884.02019548657,-38760.22711518134,0.0,0.0,0.0,193.0,0.0,194.0,0.0,0.0,0.0,179.0,194.0,0.0,179.0,1744420407.9033146,0.0,2025-04-11 21:13:27.903,BACKWARD,14
148.0,24134.564296551263,28198.24554899282,-31952.735120384114,-26458.67633326964,-36791.46311181344,-31370.40512209,-11973.65069075235,-38768.318446674166,0.0,0.0,0.0,193.0,0.0,194.0,0.0,0.0,0.0,179.0,194.0,0.0,179.0,1744420407.903356,0.0,2025-04-11 21:13:27.903,BACKWARD,14
149.0,24165.78968355533,28199.2066740044,-31967.733140913624,-26471.036847953423,-36807.422257354534,-31393.78504679025,-11510.32137993829,-38766.86558328457,0.0,0.0,0.0,193.0,0.0,193.0,0.0,0.0,0.0,179.0,193.0,0.0,179.0,1744420407.9034111,0.0,2025-04-11 21:13:27.903,BACKWARD,14
150.0,24158.79358754082,28176.609060360082,-31969.878908381335,-26485.56548184937,-36802.393114852086,-31381.44688385092,-11494.31753090829,-38777.192089222925,0.0,0.0,0.0,193.0,0.0,193.0,0.0,0.0,0.0,179.0,193.0,0.0,179.0,1744420407.9034553,0.0,2025-04-11 21:13:27.903,BACKWARD,14
151.0,24140.174584409546,28187.896691310012,-31957.294876252996,-26466.164167662166,-36790.05495191276,-31356.122357383058,-11831.515947761054,-38752.42635636644,0.0,0.0,0.0,193.0,0.0,193.0,0.0,0.0,0.0,179.0,193.0,0.0,179.0,1744420407.9035296,0.0,2025-04-11 21:13:27.903,BACKWARD,14
152.0,24140.10752917618,28199.698412382415,-31948.711806382158,-26456.061179168366,-36786.098693144166,-31350.959104413883,-12009.167612691834,-38751.80050752169,0.0,0.0,0.0,193.0,0.0,194.0,0.0,0.0,0.0,179.0,194.0,0.0,179.0,1744420407.9035733,0.0,2025-04-11 21:13:27.903,BACKWARD,14
153.0,24167.890747534126,28203.229988006355,-31962.56988794445,-26463.169033905153,-36802.169597407534,-31377.691790782428,-11590.810011721851,-38744.71500452936,0.0,0.0,0.0,193.0,0.0,193.0,0.0,0.0,0.0,179.0,193.0,0.0,179.0,1744420407.9036148,0.0,2025-04-11 21:13:27.903,BACKWARD,14
154.0,24170.036515001837,28186.756752342793,-31972.13643457132,-26485.118446960267,-36808.830417255216,-31388.46533160989,-11459.69467874702,-38791.67601962996,0.0,0.0,0.0,193.0,0.0,194.0,0.0,0.0,0.0,179.0,194.0,0.0,179.0,1744420407.9036772,0.0,2025-04-11 21:13:27.903,BACKWARD,14
155.0,24149.182337425034,28189.416609932974,-31964.067454822954,-26469.8969089862,-36800.068533428734,-31367.87937496655,-11778.497609913065,-38762.372882649055,0.0,0.0,0.0,193.0,0.0,193.0,0.0,0.0,0.0,179.0,193.0,0.0,179.0,1744420407.903719,0.0,2025-04-11 21:13:27.903,BACKWARD,14
156.0,24140.06282568727,28200.950110071914,-31951.572829672437,-26458.519871058452,-36789.85378621266,-31359.989209173826,-12007.737101046694,-38760.92001925946,0.0,0.0,0.0,193.0,0.0,193.0,0.0,0.0,0.0,179.0,193.0,0.0,179.0,1744420407.9037604,0.0,2025-04-11 21:13:27.903,BACKWARD,14
157.0,24174.328049937256,28214.8081916342,-31949.337655226907,-26452.03786516641,-36790.61374552414,-31373.936697713936,-11681.289873276935,-38751.174658676944,0.0,0.0,0.0,193.0,0.0,193.0,0.0,0.0,0.0,179.0,193.0,0.0,179.0,1744420407.903802,0.0,2025-04-11 21:13:27.903,BACKWARD,14
158.0,24179.17837848406,28196.010374547288,-31963.642771678304,-26477.42944686764,-36803.354239863664,-31395.237910179843,-11420.556774205777,-38785.97632479385,0.0,0.0,0.0,193.0,0.0,193.0,0.0,0.0,0.0,179.0,193.0,0.0,179.0,1744420407.9038432,0.0,2025-04-11 21:13:27.903,BACKWARD,14
159.0,24153.69738980501,28187.87433956556,-31957.496041953094,-26467.751141518493,-36794.36883859263,-31379.21170940539,-11709.788347457452,-38774.57693512165,0.0,0.0,0.0,193.0,0.0,193.0,0.0,0.0,0.0,179.0,193.0,0.0,179.0,1744420407.9038844,0.0,2025-04-11 21:13:27.903,BACKWARD,14
160.0,24134.988979695914,28202.827656606158,-31949.98585581611,-26457.33522860232,-36786.299858844264,-31369.39929358951,-11992.649673539361,-38767.51378387377,0.0,0.0,0.0,193.0,0.0,194.0,0.0,0.0,0.0,179.0,194.0,0.0,179.0,1744420407.9039257,0.0,2025-04-11 21:13:27.903,BACKWARD,14
161.0,24155.91021250608,28208.0579648087,-31953.025693062034,-26454.9435919456,-36791.99955368037,-31381.87156699557,-11768.126400485802,-38765.0997954726,0.0,0.0,0.0,193.0,0.0,194.0,0.0,0.0,0.0,179.0,194.0,0.0,179.0,1744420407.903981,0.0,2025-04-11 21:13:27.903,BACKWARD,14
162.0,24176.87614880516,28195.764505358282,-31965.43091123473,-26475.596603822305,-36804.67299278653,-31395.304965413212,-11415.058245069773,-38792.503034174806,0.0,0.0,0.0,193.0,0.0,194.0,0.0,0.0,0.0,179.0,194.0,0.0,179.0,1744420407.9040232,0.0,2025-04-11 21:13:27.904,BACKWARD,14
163.0,24159.1512154521,28183.068714507666,-31954.90323959628,-26468.801673507893,-36792.20071938047,-31378.719971027374,-11670.896312105217,-38796.749865621314,0.0,0.0,0.0,193.0,0.0,193.0,0.0,0.0,0.0,179.0,193.0,0.0,179.0,1744420407.9040647,0.0,2025-04-11 21:13:27.904,BACKWARD,14
164.0,24136.06186342977,28199.743115871326,-31943.973236557635,-26454.04952216739,-36777.493271528874,-31359.720988240362,-11980.110344899935,-38753.65570231148,0.0,0.0,0.0,193.0,0.0,193.0,0.0,0.0,0.0,179.0,193.0,0.0,179.0,1744420407.9041195,0.0,2025-04-11 21:13:27.904,BACKWARD,14
165.0,24151.26104965938,28207.990909575336,-31943.727367368625,-26448.81921396485,-36776.26392558384,-31367.745264499816,-11849.509102047576,-38746.90547548598,0.0,0.0,0.0,193.0,0.0,193.0,0.0,0.0,0.0,178.0,193.0,0.0,178.0,1744420407.9041612,0.0,2025-04-11 21:13:27.904,BACKWARD,14
166.0,24171.77995106935,28192.165874500977,-31965.85559437938,-26474.322554388353,-36796.514606060344,-31401.20582594941,-11415.773500892343,-38786.78098759425,0.0,0.0,0.0,193.0,0.0,193.0,0.0,0.0,0.0,179.0,193.0,0.0,179.0,1744420407.9042025,0.0,2025-04-11 21:13:27.904,BACKWARD,14
167.0,24154.099721205203,28176.787874315727,-31958.121890797844,-26470.031019452934,-36783.26002159835,-31379.077598938657,-11591.257046610957,-38777.08033050065,0.0,0.0,0.0,193.0,0.0,193.0,0.0,0.0,0.0,180.0,193.0,0.0,180.0,1744420407.9042437,0.0,2025-04-11 21:13:27.904,BACKWARD,14
168.0,24130.87625871614,28190.020107033266,-31947.99655055959,-26454.04952216739,-36772.79940519326,-31360.369188829565,-11920.989980815648,-38743.776231262236,0.0,0.0,0.0,193.0,0.0,193.0,0.0,0.0,0.0,179.0,193.0,0.0,179.0,1744420407.904285,0.0,2025-04-11 21:13:27.904,BACKWARD,14
169.0,24147.30479089079,28199.497246682316,-31939.189963244196,-26446.71814998605,-36769.536050502786,-31364.124281898057,-11920.74411162664,-38748.00071096429,0.0,0.0,0.0,193.0,0.0,193.0,0.0,0.0,0.0,179.0,193.0,0.0,179.0,1744420407.904346,0.0,2025-04-11 21:13:27.904,BACKWARD,14
170.0,24172.092875491726,28195.11630476908,-31960.155899543275,-26465.694781028604,-36792.69245775849,-31392.39923863402,-11443.444960528012,-38753.05220521119,0.0,0.0,0.0,193.0,0.0,193.0,0.0,0.0,0.0,179.0,193.0,0.0,179.0,1744420407.9043884,0.0,2025-04-11 21:13:27.904,BACKWARD,14
171.0,24163.219232942967,28180.833540062136,-31955.99847507459,-26467.818196751858,-36789.83143446821,-31380.508110583796,-11530.90733658163,-38781.930659047444,0.0,0.0,0.0,193.0,0.0,193.0,0.0,0.0,0.0,179.0,193.0,0.0,179.0,1744420407.90443,0.0,2025-04-11 21:13:27.904,BACKWARD,14
172.0,24136.95593320798,28190.422438433463,-31952.489251195104,-26455.010647178966,-36788.557385034255,-31365.800662732207,-11879.326329150956,-38763.31165591618,0.0,0.0,0.0,193.0,0.0,193.0,0.0,0.0,0.0,179.0,193.0,0.0,179.0,1744420407.9044714,0.0,2025-04-11 21:13:27.904,BACKWARD,14
173.0,24135.860697729673,28200.212502504888,-31948.063605792955,-26450.517946543452,-36785.964582677436,-31365.130110398546,-11982.457278067743,-38755.309731401176,0.0,0.0,0.0,193.0,0.0,194.0,0.0,0.0,0.0,179.0,194.0,0.0,179.0,1744420407.904513,0.0,2025-04-11 21:13:27.904,BACKWARD,14
174.0,24169.745942323916,28204.504037440307,-31960.625286176837,-26462.274964126944,-36795.821701982226,-31389.560567088196,-11503.414690901602,-38743.37389986204,0.0,0.0,0.0,193.0,0.0,193.0,0.0,0.0,0.0,179.0,193.0,0.0,179.0,1744420407.904554,0.0,2025-04-11 21:13:27.904,BACKWARD,14
175.0,24169.187148712535,28194.57986290215,-31957.540745442006,-26471.036847953423,-36791.127835646614,-31378.094122182625,-11481.621740057677,-38770.86654554207,0.0,0.0,0.0,193.0,0.0,194.0,0.0,0.0,0.0,179.0,194.0,0.0,179.0,1744420407.9045954,0.0,2025-04-11 21:13:27.904,BACKWARD,14
176.0,24138.118223919657,28193.730496612847,-31952.80217561748,-26459.10101641429,-36788.87030945663,-31365.733607498838,-11829.52664250453,-38757.52255410225,0.0,0.0,0.0,193.0,0.0,193.0,0.0,0.0,0.0,179.0,193.0,0.0,179.0,1744420407.9046504,0.0,2025-04-11 21:13:27.904,BACKWARD,14
177.0,24135.234848884924,28204.749906629313,-31938.430003932717,-26446.181708119122,-36781.494233786376,-31359.855098707092,-12022.489252387197,-38759.57891459214,0.0,0.0,0.0,193.0,0.0,193.0,0.0,0.0,0.0,179.0,193.0,0.0,179.0,1744420407.9046922,0.0,2025-04-11 21:13:27.904,BACKWARD,14
178.0,24166.326125422256,28211.209560776897,-31950.18702151621,-26452.596658777795,-36798.392152594584,-31389.73938104384,-11620.761349291963,-38760.65179832599,0.0,0.0,0.0,193.0,0.0,193.0,0.0,0.0,0.0,178.0,193.0,0.0,178.0,1744420407.904734,0.0,2025-04-11 21:13:27.904,BACKWARD,14
179.0,24169.812997557285,28192.992889045825,-31954.858536107367,-26470.634516553226,-36798.50391131686,-31396.467256124888,-11457.615966512676,-38792.88301383055,0.0,0.0,0.0,193.0,0.0,193.0,0.0,0.0,0.0,179.0,193.0,0.0,179.0,1744420407.9047885,0.0,2025-04-11 21:13:27.904,BACKWARD,14
180.0,24150.92577349255,28192.791723345726,-31942.699187123682,-26454.76477798996,-36783.88587044309,-31375.12134017007,-11782.498572170565,-38768.83253679664,0.0,0.0,0.0,193.0,0.0,194.0,0.0,0.0,0.0,180.0,194.0,0.0,180.0,1744420407.9048305,0.0,2025-04-11 21:13:27.904,BACKWARD,14
181.0,24138.20763089748,28211.835409621646,-31934.40668993076,-26444.95236217408,-36775.2804488278,-31361.39736907451,-12020.678761086318,-38750.90643774348,0.0,0.0,0.0,193.0,0.0,193.0,0.0,0.0,0.0,179.0,193.0,0.0,179.0,1744420407.9048755,0.0,2025-04-11 21:13:27.904,BACKWARD,14
182.0,24160.939355008526,28209.91315959849,-31943.45914643516,-26449.355655831776,-36787.19392862248,-31382.899747240517,-11711.308266080412,-38749.25240865379,0.0,0.0,0.0,193.0,0.0,193.0,0.0,0.0,0.0,180.0,193.0,0.0,180.0,1744420407.904917,0.0,2025-04-11 21:13:27.904,BACKWARD,14
183.0,24170.55060512431,28192.121171012066,-31954.031521562523,-26470.790978764413,-36798.92859446151,-31396.802532291716,-11439.421646526056,-38781.52832764725,0.0,0.0,0.0,193.0,0.0,193.0,0.0,0.0,0.0,179.0,193.0,0.0,179.0,1744420407.9049585,0.0,2025-04-11 21:13:27.904,BACKWARD,14
184.0,24149.428206614044,28189.416609932974,-31943.70501562417,-26458.028132680432,-36785.31638208823,-31378.74232277183,-11723.758187742018,-38769.68190308594,0.0,0.0,0.0,193.0,0.0,193.0,0.0,0.0,0.0,179.0,193.0,0.0,179.0,1744420407.9050136,0.0,2025-04-11 21:13:27.905,BACKWARD,14
185.0,24128.5963807817,28196.636223392037,-31937.781803343514,-26449.37800757623,-36777.33680931769,-31369.823976734162,-12017.348351162476,-38770.71008333088,0.0,0.0,0.0,193.0,0.0,193.0,0.0,0.0,0.0,179.0,193.0,0.0,179.0,1744420407.9050553,0.0,2025-04-11 21:13:27.905,BACKWARD,14
186.0,24137.850002986193,28188.76840934377,-31951.46107095016,-26459.793920492404,-36790.926669946515,-31390.387581633044,-11802.481031713609,-38768.13963271852,0.0,0.0,0.0,193.0,0.0,193.0,0.0,0.0,0.0,179.0,193.0,0.0,179.0,1744420407.9050968,0.0,2025-04-11 21:13:27.905,BACKWARD,14
187.0,24161.92283176456,28183.33693544113,-31960.8935071103,-26480.603394580296,-36799.95677470646,-31406.659651596507,-11431.3973702666,-38791.13957776303,0.0,0.0,0.0,193.0,0.0,193.0,0.0,0.0,0.0,178.0,193.0,0.0,178.0,1744420407.9051385,0.0,2025-04-11 21:13:27.905,BACKWARD,14
188.0,24141.336875121222,28172.42928414694,-31957.272524508542,-26476.08834220032,-36793.027733925315,-31394.366192146088,-11669.756373137996,-38795.27465048726,0.0,0.0,0.0,193.0,0.0,194.0,0.0,0.0,0.0,179.0,194.0,0.0,179.0,1744420407.9051807,0.0,2025-04-11 21:13:27.905,BACKWARD,14
189.0,24114.179505608023,28183.0016592743,-31952.46689945065,-26466.834719995826,-36788.60208852316,-31381.938622228936,-11986.748813003162,-38780.16487123548,0.0,0.0,0.0,193.0,0.0,194.0,0.0,0.0,0.0,179.0,194.0,0.0,179.0,1744420407.905223,0.0,2025-04-11 21:13:27.905,BACKWARD,14
190.0,24134.944276207007,28194.53515941324,-31937.491230665593,-26447.3439988308,-36779.43787329648,-31376.283630881746,-11893.296169435522,-38776.63329561154,0.0,0.0,0.0,193.0,0.0,193.0,0.0,0.0,0.0,179.0,193.0,0.0,179.0,1744420407.9052653,0.0,2025-04-11 21:13:27.905,BACKWARD,14
191.0,24172.763427825383,28198.692583881926,-31947.214239503654,-26454.76477798996,-36791.23959436889,-31381.089255939634,-11432.447902256,-38757.746071546804,0.0,0.0,0.0,193.0,0.0,193.0,0.0,0.0,0.0,179.0,193.0,0.0,179.0,1744420407.905322,0.0,2025-04-11 21:13:27.905,BACKWARD,14
192.0,24149.852889758695,28178.62071736106,-31947.594219159393,-26458.721036758547,-36785.539899532785,-31370.58393604564,-11588.820706465329,-38761.97055124886,0.0,0.0,0.0,193.0,0.0,193.0,0.0,0.0,0.0,179.0,193.0,0.0,179.0,1744420407.9053645,0.0,2025-04-11 21:13:27.905,BACKWARD,14
193.0,24120.259180099867,28186.44382792042,-31943.973236557635,-26450.24972560999,-36781.65069599756,-31365.64420052102,-11933.17168154379,-38758.64014132501,0.0,0.0,0.0,193.0,0.0,193.0,0.0,0.0,0.0,179.0,193.0,0.0,179.0,1744420407.9054065,0.0,2025-04-11 21:13:27.905,BACKWARD,14
194.0,24130.63038952713,28199.2066740044,-31934.429041675216,-26441.487841783506,-36776.71096047294,-31370.49452906782,-11964.307661570032,-38766.217382695366,0.0,0.0,0.0,193.0,0.0,193.0,0.0,0.0,0.0,179.0,193.0,0.0,179.0,1744420407.9054618,0.0,2025-04-11 21:13:27.905,BACKWARD,14
195.0,24156.78193053984,28196.658575136495,-31950.343483727396,-26457.13406290222,-36794.480597314905,-31396.44490438043,-11474.044498687328,-38760.137708203525,0.0,0.0,0.0,193.0,0.0,193.0,0.0,0.0,0.0,179.0,193.0,0.0,179.0,1744420407.9055045,0.0,2025-04-11 21:13:27.905,BACKWARD,14
196.0,24139.995770453905,28172.42928414694,-31952.51160293956,-26469.51692933046,-36795.79935023777,-31392.846273523126,-11537.791673873864,-38784.948144548915,0.0,0.0,0.0,193.0,0.0,194.0,0.0,0.0,0.0,179.0,194.0,0.0,179.0,1744420407.9055464,0.0,2025-04-11 21:13:27.905,BACKWARD,14
197.0,24120.505049288877,28186.91321455398,-31931.724480596124,-26445.175879618633,-36771.346541803665,-31362.91728769747,-11868.083401689935,-38741.0940219276,0.0,0.0,0.0,193.0,0.0,194.0,0.0,0.0,0.0,179.0,194.0,0.0,179.0,1744420407.9055884,0.0,2025-04-11 21:13:27.905,BACKWARD,14
198.0,24120.259180099867,28198.312604226187,-31922.336747924895,-26434.75996670246,-36766.67502721251,-31358.290476595223,-11972.622510507406,-38739.171771904446,0.0,0.0,0.0,193.0,0.0,193.0,0.0,0.0,0.0,178.0,193.0,0.0,178.0,1744420407.90563,0.0,2025-04-11 21:13:27.905,BACKWARD,14
199.0,24153.898555505104,28199.38548796004,-31937.84885857688,-26447.053426152877,-36790.85961471315,-31382.609174562596,-11535.824720361796,-38739.52939981573,0.0,0.0,0.0,193.0,0.0,193.0,0.0,0.0,0.0,179.0,193.0,0.0,179.0,1744420407.905686,0.0,2025-04-11 21:13:27.905,BACKWARD,14
200.0,24148.91411649157,28176.20672895989,-31948.622399404336,-26469.025190952445,-36802.30370787426,-31393.382715390053,-11498.206734443515,-38783.94231604842,0.0,0.0,0.0,193.0,0.0,193.0,0.0,0.0,0.0,179.0,193.0,0.0,179.0,1744420407.9057288,0.0,2025-04-11 21:13:27.905,BACKWARD,14
201.0,24118.940427177004,28179.783008072736,-31941.291027222996,-26458.05048442489,-36786.36691407763,-31380.3069448837,-11820.764758678051,-38762.73051056034,0.0,0.0,0.0,193.0,0.0,194.0,0.0,0.0,0.0,180.0,194.0,0.0,180.0,1744420407.9057708,0.0,2025-04-11 21:13:27.905,BACKWARD,14
202.0,24112.81604919625,28196.14448501402,-31925.13071598181,-26441.443138294595,-36768.37375979111,-31365.487738309832,-12011.80511853756,-38747.91130398647,0.0,0.0,0.0,193.0,0.0,194.0,0.0,0.0,0.0,179.0,194.0,0.0,179.0,1744420407.9058127,0.0,2025-04-11 21:13:27.905,BACKWARD,14
203.0,24134.944276207007,28194.06577277968,-31945.001416802577,-26455.502385556985,-36792.58069903621,-31394.79087529074,-11614.145232933191,-38745.586722563115,0.0,0.0,0.0,193.0,0.0,194.0,0.0,0.0,0.0,179.0,194.0,0.0,179.0,1744420407.9058545,0.0,2025-04-11 21:13:27.905,BACKWARD,14
204.0,24143.862622244673,28177.63724060503,-31952.22103026164,-26472.981449721035,-36800.82849274021,-31403.329241672665,-11456.476027545456,-38798.850929600114,0.0,0.0,0.0,193.0,0.0,194.0,0.0,0.0,0.0,180.0,194.0,0.0,180.0,1744420407.9058964,0.0,2025-04-11 21:13:27.905,BACKWARD,14
205.0,24123.67899700153,28185.303888953196,-31938.497059166082,-26452.216679122055,-36782.72357973141,-31376.73066577085,-11768.573435374909,-38766.75382456229,0.0,0.0,0.0,193.0,0.0,193.0,0.0,0.0,0.0,179.0,193.0,0.0,179.0,1744420407.9059527,0.0,2025-04-11 21:13:27.905,BACKWARD,14
206.0,24115.18533410851,28203.96759557338,-31921.04034674649,-26434.402338791173,-36759.99185562037,-31355.228287604845,-12014.599086594473,-38742.52453357274,0.0,0.0,0.0,193.0,0.0,193.0,0.0,0.0,0.0,179.0,193.0,0.0,179.0,1744420407.905996,0.0,2025-04-11 21:13:27.905,BACKWARD,14
207.0,24138.028816941838,28201.66536589448,-31930.763355584546,-26437.218658592545,-36773.53701276029,-31374.227270391857,-11704.401577043722,-38733.27091136824,0.0,0.0,0.0,193.0,0.0,193.0,0.0,0.0,0.0,179.0,193.0,0.0,179.0,1744420407.9060378,0.0,2025-04-11 21:13:27.906,BACKWARD,14
208.0,24143.907325733584,28182.71108659638,-31948.957675571168,-26465.560670561874,-36790.05495191276,-31390.387581633044,-11398.942637317496,-38762.26112392678,0.0,0.0,0.0,193.0,0.0,193.0,0.0,0.0,0.0,179.0,193.0,0.0,179.0,1744420407.90608,0.0,2025-04-11 21:13:27.906,BACKWARD,14
209.0,24123.768403979353,28173.680981836438,-31940.55341965597,-26455.56944079035,-36779.77314946332,-31370.047494178714,-11692.912780393694,-38762.59640009361,0.0,0.0,0.0,193.0,0.0,194.0,0.0,0.0,0.0,179.0,194.0,0.0,179.0,1744420407.9061365,0.0,2025-04-11 21:13:27.906,BACKWARD,14
210.0,24103.584778736207,28187.203787231898,-31932.618550374336,-26444.32651332933,-36772.30766681524,-31361.53147954124,-12007.446528368775,-38763.199897193896,0.0,0.0,0.0,193.0,0.0,193.0,0.0,0.0,0.0,179.0,193.0,0.0,179.0,1744420407.9061785,0.0,2025-04-11 21:13:27.906,BACKWARD,14
211.0,24127.657607514575,28193.462275679383,-31932.350329440873,-26439.90086792718,-36775.41455929453,-31368.326409855654,-11825.123348846835,-38748.0454144532,0.0,0.0,0.0,193.0,0.0,193.0,0.0,0.0,0.0,179.0,193.0,0.0,179.0,1744420407.90622,0.0,2025-04-11 21:13:27.906,BACKWARD,14
212.0,24146.00838971238,28180.140635984022,-31949.36000697136,-26459.972734448045,-36792.737161247394,-31387.191282175936,-11418.299248015792,-38762.90932451598,0.0,0.0,0.0,193.0,0.0,194.0,0.0,0.0,0.0,179.0,194.0,0.0,179.0,1744420407.906262,0.0,2025-04-11 21:13:27.906,BACKWARD,14
213.0,24130.518630804854,28169.61296434557,-31942.18509700121,-26453.177804133633,-36779.16965236302,-31366.672380765962,-11633.524195375943,-38766.57501060665,0.0,0.0,0.0,193.0,0.0,194.0,0.0,0.0,0.0,179.0,194.0,0.0,179.0,1744420407.906304,0.0,2025-04-11 21:13:27.906,BACKWARD,14
214.0,24103.875351414128,28179.984173772835,-31933.959655041657,-26439.69970222708,-36769.91603015853,-31348.254543334788,-11955.791646932561,-38744.75970801827,0.0,0.0,0.0,193.0,0.0,193.0,0.0,0.0,0.0,179.0,193.0,0.0,179.0,1744420407.90636,0.0,2025-04-11 21:13:27.906,BACKWARD,14
215.0,24112.681938729518,28185.348592442107,-31938.27354172153,-26441.018455149944,-36775.95100116146,-31359.765691729273,-11881.628558829852,-38747.44191735291,0.0,0.0,0.0,193.0,0.0,194.0,0.0,0.0,0.0,179.0,194.0,0.0,179.0,1744420407.9064019,0.0,2025-04-11 21:13:27.906,BACKWARD,14
216.0,24140.643971043108,28180.833540062136,-31956.870193108345,-26461.53735655992,-36793.586527536696,-31380.88809023954,-11435.398332524102,-38754.03568196722,0.0,0.0,0.0,193.0,0.0,194.0,0.0,0.0,0.0,179.0,194.0,0.0,179.0,1744420408.3812685,0.0,2025-04-11 21:13:28.381,BACKWARD,14
217.0,24132.86556397266,28164.181490442934,-31947.661274392758,-26460.375065848242,-36784.198794865464,-31370.49452906782,-11589.088927398792,-38778.60024912361,0.0,0.0,0.0,193.0,0.0,193.0,0.0,0.0,0.0,179.0,193.0,0.0,179.0,1744420408.3814847,0.0,2025-04-11 21:13:28.381,BACKWARD,14
218.0,24113.419546296544,28182.554624385193,-31928.97521602812,-26438.872687682237,-36764.216335322424,-31352.702540481394,-11924.476852950675,-38757.2990366577,0.0,0.0,0.0,193.0,0.0,194.0,0.0,0.0,0.0,179.0,194.0,0.0,179.0,1744420408.3815467,0.0,2025-04-11 21:13:28.381,BACKWARD,14
219.0,24122.069671400746,28190.981232044847,-31919.296910678975,-26429.529658499916,-36758.56134397523,-31355.72002598286,-11952.617699219907,-38753.81216452267,0.0,0.0,0.0,193.0,0.0,194.0,0.0,0.0,0.0,179.0,194.0,0.0,179.0,1744420408.3816135,0.0,2025-04-11 21:13:28.381,BACKWARD,14
220.0,24143.102662933194,28184.700391852904,-31946.051948791977,-26452.61901052225,-36794.0335624258,-31399.909424771005,-11486.494420348934,-38785.216365482374,0.0,0.0,0.0,193.0,0.0,193.0,0.0,0.0,0.0,179.0,193.0,0.0,179.0,1744420408.381889,0.0,2025-04-11 21:13:28.381,BACKWARD,14
221.0,24132.507936061378,28168.115397467067,-31946.543687169993,-26461.76087400447,-36795.531129304305,-31398.344802659132,-11554.019040348416,-38822.6108339561,0.0,0.0,0.0,193.0,0.0,193.0,0.0,0.0,0.0,179.0,193.0,0.0,179.0,1744420408.3819487,0.0,2025-04-11 21:13:28.381,BACKWARD,14
222.0,24107.67514797153,28178.553662127695,-31933.35615794136,-26443.007760406468,-36776.80036745076,-31370.762750001282,-11891.843306045927,-38767.51378387377,0.0,0.0,0.0,193.0,0.0,193.0,0.0,0.0,0.0,179.0,193.0,0.0,179.0,1744420408.3820026,0.0,2025-04-11 21:13:28.382,BACKWARD,14
223.0,24104.791772936795,28187.583766887637,-31925.75656482656,-26438.33624581531,-36767.09971035716,-31367.58880228863,-11997.343539874977,-38756.51672560176,0.0,0.0,0.0,193.0,0.0,194.0,0.0,0.0,0.0,179.0,194.0,0.0,179.0,1744420408.3820589,0.0,2025-04-11 21:13:28.382,BACKWARD,14
224.0,24131.971494194448,28185.952089542403,-31942.27450397903,-26453.826004722836,-36785.65165825506,-31394.12032295708,-11541.345601242258,-38748.805373764684,0.0,0.0,0.0,193.0,0.0,194.0,0.0,0.0,0.0,180.0,194.0,0.0,180.0,1744420408.3821716,0.0,2025-04-11 21:13:28.382,BACKWARD,14
225.0,24131.05507267178,28176.96668827137,-31943.772070857536,-26466.00770545098,-36790.0326001683,-31391.92985200046,-11479.185399912049,-38786.46806317187,0.0,0.0,0.0,193.0,0.0,194.0,0.0,0.0,0.0,180.0,194.0,0.0,180.0,1744420408.3822298,0.0,2025-04-11 21:13:28.382,BACKWARD,14
226.0,24111.96668290695,28184.0521912637,-31931.970349785133,-26447.299295341887,-36777.359161062144,-31367.387636588533,-11809.253610283567,-38754.16979243395,0.0,0.0,0.0,193.0,0.0,194.0,0.0,0.0,0.0,180.0,194.0,0.0,180.0,1744420408.3822885,0.0,2025-04-11 21:13:28.382,BACKWARD,14
227.0,24103.96475839195,28186.980269787346,-31920.258035690553,-26436.70456847007,-36767.434986523986,-31357.508165539286,-12016.878964528914,-38740.6469870385,0.0,0.0,0.0,193.0,0.0,194.0,0.0,0.0,0.0,179.0,194.0,0.0,179.0,1744420408.3823426,0.0,2025-04-11 21:13:28.382,BACKWARD,14
228.0,24128.372863337143,28188.366077943574,-31930.584541628905,-26438.492708026497,-36782.00832390885,-31377.200052404412,-11657.59702415431,-38734.254388124275,0.0,0.0,0.0,193.0,0.0,193.0,0.0,0.0,0.0,179.0,193.0,0.0,179.0,1744420408.3823981,0.0,2025-04-11 21:13:28.382,BACKWARD,14
229.0,24127.031758669826,28168.920060267457,-31947.12483252583,-26462.923164716147,-36793.96650719244,-31390.32052639968,-11445.143693106616,-38771.09006298662,0.0,0.0,0.0,193.0,0.0,193.0,0.0,0.0,0.0,179.0,193.0,0.0,179.0,1744420408.3826716,0.0,2025-04-11 21:13:28.382,BACKWARD,14
230.0,24104.031813625315,28168.540080611718,-31938.09472776589,-26447.723978486538,-36785.33873383269,-31365.82301447666,-11750.066190965914,-38759.10952795858,0.0,0.0,0.0,193.0,0.0,193.0,0.0,0.0,0.0,179.0,193.0,0.0,179.0,1744420408.3827157,0.0,2025-04-11 21:13:28.382,BACKWARD,14
231.0,24090.57606346322,28180.92294703996,-31929.9363410397,-26441.353731316776,-36778.74496921837,-31357.508165539286,-12029.261830957155,-38761.85879252658,0.0,0.0,0.0,193.0,0.0,193.0,0.0,0.0,0.0,179.0,193.0,0.0,179.0,1744420408.3827572,0.0,2025-04-11 21:13:28.382,BACKWARD,14
232.0,24116.01234865336,28180.38650517303,-31937.155954498765,-26447.455757553074,-36779.259059340846,-31377.758846015793,-11753.061324722925,-38752.82868776664,0.0,0.0,0.0,193.0,0.0,194.0,0.0,0.0,0.0,180.0,194.0,0.0,180.0,1744420408.3827987,0.0,2025-04-11 21:13:28.382,BACKWARD,14
233.0,24126.361206336165,28164.71793230986,-31957.026655319532,-26474.05433345489,-36793.00538218086,-31398.74713405933,-11434.817187168264,-38792.0559992857,0.0,0.0,0.0,193.0,0.0,194.0,0.0,0.0,0.0,179.0,194.0,0.0,179.0,1744420408.3828409,0.0,2025-04-11 21:13:28.382,BACKWARD,14
234.0,24107.20576133797,28160.828728774635,-31945.69432088069,-26455.167109390153,-36779.97431516342,-31372.886165724536,-11710.391844557744,-38783.98701953734,0.0,0.0,0.0,193.0,0.0,193.0,0.0,0.0,0.0,179.0,193.0,0.0,179.0,1744420408.3831255,0.0,2025-04-11 21:13:28.383,BACKWARD,14
235.0,24087.022136094827,28173.569223114162,-31938.89939056628,-26442.024283650433,-36774.25226858286,-31356.569392272162,-12016.923668017826,-38768.29609492971,0.0,0.0,0.0,193.0,0.0,194.0,0.0,0.0,0.0,179.0,194.0,0.0,179.0,1744420408.3832383,0.0,2025-04-11 21:13:28.383,BACKWARD,14
236.0,24103.29420605829,28175.33501092613,-31942.028634790022,-26435.207001591567,-36780.55546051925,-31359.43041556244,-11848.86090145837,-38746.79371676371,0.0,0.0,0.0,193.0,0.0,194.0,0.0,0.0,0.0,179.0,194.0,0.0,179.0,1744420408.3832853,0.0,2025-04-11 21:13:28.383,BACKWARD,14
237.0,24121.91320918956,28165.85787127708,-31962.50283271108,-26455.256516367976,-36799.95677470646,-31379.63639255004,-11436.471216257956,-38762.81991753816,0.0,0.0,0.0,193.0,0.0,194.0,0.0,0.0,0.0,179.0,194.0,0.0,179.0,1744420408.3833313,0.0,2025-04-11 21:13:28.383,BACKWARD,14
238.0,24107.317520060245,28155.687827549915,-31951.639884905802,-26445.37704531873,-36782.65652449805,-31361.5538312857,-11642.911928047173,-38770.95595251989,0.0,0.0,0.0,193.0,0.0,193.0,0.0,0.0,0.0,179.0,193.0,0.0,179.0,1744420408.3833773,0.0,2025-04-11 21:13:28.383,BACKWARD,14
239.0,24082.127104059113,28167.66836257796,-31942.699187123682,-26431.429556778618,-36771.68181797049,-31343.560676999175,-11956.1716265883,-38744.2456178958,0.0,0.0,0.0,193.0,0.0,193.0,0.0,0.0,0.0,179.0,193.0,0.0,179.0,1744420408.383459,0.0,2025-04-11 21:13:28.383,BACKWARD,14
240.0,24097.72862168892,28176.743170826816,-31936.038367276,-26424.94755088658,-36769.64780922506,-31347.896915423506,-11903.01917827358,-38737.65185328148,0.0,0.0,0.0,193.0,0.0,193.0,0.0,0.0,0.0,179.0,193.0,0.0,179.0,1744420408.383516,0.0,2025-04-11 21:13:28.383,BACKWARD,14
241.0,24124.461308057467,28171.66932483546,-31956.33375124142,-26446.829908708325,-36794.12296940362,-31385.246680408323,-11454.732591477943,-38769.03370249674,0.0,0.0,0.0,193.0,0.0,193.0,0.0,0.0,0.0,179.0,193.0,0.0,179.0,1744420408.3835912,0.0,2025-04-11 21:13:28.383,BACKWARD,14
242.0,24116.593494009197,28156.268972905753,-31950.343483727396,-26448.975676176033,-36786.14339663308,-31382.050380951212,-11594.587456534799,-38807.456351215405,0.0,0.0,0.0,193.0,0.0,193.0,0.0,0.0,0.0,179.0,193.0,0.0,179.0,1744420408.3836915,0.0,2025-04-11 21:13:28.383,BACKWARD,14
243.0,24096.655737955065,28172.876319036048,-31932.439736418695,-26426.489821253996,-36772.15120460406,-31348.567467757162,-11923.001637816626,-38749.02889120924,0.0,0.0,0.0,193.0,0.0,194.0,0.0,0.0,0.0,179.0,194.0,0.0,179.0,1744420408.3837395,0.0,2025-04-11 21:13:28.383,BACKWARD,14
244.0,24107.161057849058,28185.974441286857,-31920.682718835204,-26418.398489761174,-36765.758605689836,-31344.92413341095,-11968.554493016542,-38736.355452103075,0.0,0.0,0.0,193.0,0.0,193.0,0.0,0.0,0.0,179.0,193.0,0.0,179.0,1744420408.3838048,0.0,2025-04-11 21:13:28.383,BACKWARD,14
245.0,24135.659532029575,28184.298060452707,-31940.195791744685,-26438.023321392935,-36787.66331525604,-31380.150482672514,-11495.345711153235,-38750.86173425457,0.0,0.0,0.0,193.0,0.0,194.0,0.0,0.0,0.0,180.0,194.0,0.0,180.0,1744420408.3838472,0.0,2025-04-11 21:13:28.383,BACKWARD,14
246.0,24119.5439242773,28158.079464206632,-31948.46593719315,-26457.20111813559,-36794.413542081544,-31388.197110676425,-11521.85488007723,-38797.24160399933,0.0,0.0,0.0,193.0,0.0,193.0,0.0,0.0,0.0,179.0,193.0,0.0,179.0,1744420408.3838894,0.0,2025-04-11 21:13:28.383,BACKWARD,14
247.0,24097.214531566446,28171.445807390908,-31934.004358530565,-26439.163260360154,-36779.66139074104,-31363.476081308854,-11878.298148906011,-38769.01135075228,0.0,0.0,0.0,193.0,0.0,194.0,0.0,0.0,0.0,180.0,194.0,0.0,180.0,1744420408.383976,0.0,2025-04-11 21:13:28.383,BACKWARD,14
248.0,24097.72862168892,28180.990002273324,-31923.633149103305,-26430.84841142278,-36769.401940036056,-31357.64227600602,-12019.963505263748,-38761.97055124886,0.0,0.0,0.0,193.0,0.0,193.0,0.0,0.0,0.0,179.0,193.0,0.0,179.0,1744420408.3840184,0.0,2025-04-11 21:13:28.384,BACKWARD,14
249.0,24127.322331347747,28190.556548900197,-31938.94409405519,-26443.47714704003,-36787.2833356003,-31385.559604830698,-11588.843058209784,-38761.612923337576,0.0,0.0,0.0,193.0,0.0,193.0,0.0,0.0,0.0,178.0,193.0,0.0,178.0,1744420408.38406,0.0,2025-04-11 21:13:28.384,BACKWARD,14
250.0,24115.788831208807,28160.493452607807,-31960.066492565453,-26473.71905728806,-36807.57871956572,-31401.384639905053,-11494.295179163835,-38807.791627382234,0.0,0.0,0.0,193.0,0.0,193.0,0.0,0.0,0.0,179.0,193.0,0.0,179.0,1744420408.3841212,0.0,2025-04-11 21:13:28.384,BACKWARD,14
251.0,24088.05031633977,28156.514842094763,-31952.80217561748,-26461.13502515972,-36799.04035318379,-31377.043590193225,-11818.551935976975,-38773.548754876705,0.0,0.0,0.0,193.0,0.0,193.0,0.0,0.0,0.0,179.0,193.0,0.0,179.0,1744420408.3841634,0.0,2025-04-11 21:13:28.384,BACKWARD,14
252.0,24092.028926852814,28177.905461538492,-31925.9353787822,-26436.23518183651,-36764.19398357797,-31349.19331660191,-12037.777845594626,-38749.47592609834,0.0,0.0,0.0,193.0,0.0,193.0,0.0,0.0,0.0,178.0,193.0,0.0,178.0,1744420408.384205,0.0,2025-04-11 21:13:28.384,BACKWARD,14
253.0,24122.20378186748,28180.92294703996,-31936.775974843025,-26437.218658592545,-36776.15216686155,-31363.565488286677,-11661.955614323095,-38723.74906823028,0.0,0.0,0.0,193.0,0.0,193.0,0.0,0.0,0.0,179.0,193.0,0.0,179.0,1744420408.3842473,0.0,2025-04-11 21:13:28.384,BACKWARD,14
254.0,24125.623598769143,28161.253411919286,-31952.355140728374,-26467.1476444182,-36794.480597314905,-31382.340953629133,-11447.98236465244,-38769.078405985645,0.0,0.0,0.0,193.0,0.0,193.0,0.0,0.0,0.0,179.0,193.0,0.0,179.0,1744420408.3843048,0.0,2025-04-11 21:13:28.384,BACKWARD,14
255.0,24102.176618835525,28154.81610951616,-31944.64378889129,-26457.111711157766,-36786.56807977773,-31366.560622043686,-11758.179874203192,-38767.31261817367,0.0,0.0,0.0,193.0,0.0,194.0,0.0,0.0,0.0,180.0,194.0,0.0,180.0,1744420408.3843477,0.0,2025-04-11 21:13:28.384,BACKWARD,14
0.0,24089.97256636293,28168.920060267457,-31931.679777107216,-26440.504365027475,-36772.57588774871,-31345.661740977976,-12033.531014148119,-38743.217437650856,0.0,0.0,0.0,193.0,0.0,193.0,0.0,0.0,0.0,179.0,193.0,0.0,179.0,1744420408.3843892,0.0,2025-04-11 21:13:28.384,BACKWARD,14
1.0,24113.263084085356,28173.27865043624,-31940.620474889336,-26443.27598133993,-36784.645829754576,-31366.784139488238,-11777.491781412577,-38749.54298133171,0.0,0.0,0.0,193.0,0.0,193.0,0.0,0.0,0.0,179.0,193.0,0.0,179.0,1744420408.384431,0.0,2025-04-11 21:13:28.384,BACKWARD,14
2.0,24124.774232479842,28164.181490442934,-31958.457166964672,-26466.834719995826,-36803.19777765248,-31388.375924632066,-11449.390524553124,-38792.838310341634,0.0,0.0,0.0,193.0,0.0,193.0,0.0,0.0,0.0,179.0,193.0,0.0,179.0,1744420408.3844726,0.0,2025-04-11 21:13:28.384,BACKWARD,14
3.0,24099.047374611782,28156.47013860585,-31949.583524415917,-26454.608315778773,-36789.27264085682,-31364.995999931816,-11699.55124849692,-38770.263048441775,0.0,0.0,0.0,193.0,0.0,193.0,0.0,0.0,0.0,179.0,193.0,0.0,179.0,1744420408.3845313,0.0,2025-04-11 21:13:28.384,BACKWARD,14
4.0,24079.176673791015,28170.797606801705,-31945.9401900697,-26446.69579824159,-36783.70705648745,-31360.54800278521,-12011.358083648454,-38777.48266190084,0.0,0.0,0.0,193.0,0.0,193.0,0.0,0.0,0.0,179.0,193.0,0.0,179.0,1744420408.3845742,0.0,2025-04-11 21:13:28.384,BACKWARD,14
5.0,24097.34864203318,28174.28447893673,-31945.113175524853,-26440.638475494205,-36780.06372214123,-31367.007656932794,-11859.120352163358,-38762.19406869341,0.0,0.0,0.0,193.0,0.0,193.0,0.0,0.0,0.0,180.0,193.0,0.0,180.0,1744420408.3846183,0.0,2025-04-11 21:13:28.384,BACKWARD,14
6.0,24125.422433069045,28172.29517368021,-31956.13258554132,-26456.016475679455,-36794.14532114808,-31383.72676178536,-11433.4984342454,-38774.666342099474,0.0,0.0,0.0,193.0,0.0,194.0,0.0,0.0,0.0,180.0,194.0,0.0,180.0,1744420408.3846607,0.0,2025-04-11 21:13:28.384,BACKWARD,14
7.0,24105.641139226096,28156.067807205654,-31951.349312227885,-26452.820176222347,-36788.982068178906,-31373.78023550275,-11635.357038421278,-38790.67019112947,0.0,0.0,0.0,193.0,0.0,193.0,0.0,0.0,0.0,179.0,193.0,0.0,179.0,1744420408.3847036,0.0,2025-04-11 21:13:28.384,BACKWARD,14
8.0,24076.62857492311,28160.873432263546,-31944.64378889129,-26440.347902816287,-36782.18713786449,-31361.196203374413,-11958.429152778286,-38771.604153109096,0.0,0.0,0.0,193.0,0.0,193.0,0.0,0.0,0.0,179.0,193.0,0.0,179.0,1744420408.3847475,0.0,2025-04-11 21:13:28.384,BACKWARD,14
9.0,24091.045450096783,28168.875356778546,-31939.838163833403,-26431.921295156637,-36783.32707683171,-31359.341008584623,-11929.327181497478,-38758.304865158185,0.0,0.0,0.0,193.0,0.0,193.0,0.0,0.0,0.0,179.0,193.0,0.0,179.0,1744420408.3848104,0.0,2025-04-11 21:13:28.384,BACKWARD,14
10.0,24127.434090070023,28177.525481882753,-31948.264771493054,-26440.929048172125,-36793.54182404779,-31378.49645358282,-11470.043536429828,-38758.68484481393,0.0,0.0,0.0,193.0,0.0,193.0,0.0,0.0,0.0,179.0,193.0,0.0,179.0,1744420408.3848553,0.0,2025-04-11 21:13:28.384,BACKWARD,14
11.0,24110.2903020728,28160.269935163255,-31947.28129473702,-26446.628743008227,-36788.51268154534,-31372.126206413057,-11579.611787749744,-38775.89568804451,0.0,0.0,0.0,193.0,0.0,194.0,0.0,0.0,0.0,179.0,194.0,0.0,179.0,1744420408.3849523,0.0,2025-04-11 21:13:28.384,BACKWARD,14
12.0,24089.167903562535,28168.361266656077,-31936.84303007639,-26432.971827146033,-36775.4816145279,-31358.737511484327,-11923.761597128105,-38760.62944658154,0.0,0.0,0.0,193.0,0.0,194.0,0.0,0.0,0.0,179.0,194.0,0.0,179.0,1744420408.3849952,0.0,2025-04-11 21:13:28.384,BACKWARD,14
13.0,24090.91133963005,28174.15036847,-31934.22787597512,-26427.9873881325,-36775.0792831277,-31363.006694675292,-11997.209429408245,-38773.1017199876,0.0,0.0,0.0,193.0,0.0,194.0,0.0,0.0,0.0,180.0,194.0,0.0,180.0,1744420408.3850577,0.0,2025-04-11 21:13:28.385,BACKWARD,14
14.0,24125.10950864667,28177.01139176028,-31945.359044713863,-26435.095242869287,-36791.88779495809,-31381.11160768409,-11536.942307584563,-38772.31940893167,0.0,0.0,0.0,193.0,0.0,193.0,0.0,0.0,0.0,179.0,193.0,0.0,179.0,1744420408.3851,0.0,2025-04-11 21:13:28.385,BACKWARD,14
15.0,24120.415642311054,28157.319504895153,-31945.64961739178,-26443.700664484582,-36791.060780413245,-31369.220479633866,-11532.606069160232,-38781.371865436064,0.0,0.0,0.0,193.0,0.0,193.0,0.0,0.0,0.0,179.0,193.0,0.0,179.0,1744420408.385141,0.0,2025-04-11 21:13:28.385,BACKWARD,14
16.0,24093.124162331125,28171.356400413086,-31936.820678331937,-26426.42276602063,-36778.25323084035,-31349.103909624093,-11863.434238843232,-38750.92878948794,0.0,0.0,0.0,193.0,0.0,193.0,0.0,0.0,0.0,179.0,193.0,0.0,179.0,1744420408.385183,0.0,2025-04-11 21:13:28.385,BACKWARD,14
17.0,24091.40307800807,28184.096894752613,-31929.712823595146,-26419.00198686147,-36771.65946622604,-31344.410043288477,-12033.262793214655,-38757.2990366577,0.0,0.0,0.0,193.0,0.0,193.0,0.0,0.0,0.0,179.0,193.0,0.0,179.0,1744420408.385225,0.0,2025-04-11 21:13:28.385,BACKWARD,14
18.0,24125.31067434677,28185.90738605349,-31940.486364422606,-26425.886324153704,-36775.57102150572,-31363.610191775584,-11603.259933383457,-38736.60132129208,0.0,0.0,0.0,193.0,0.0,193.0,0.0,0.0,0.0,179.0,193.0,0.0,179.0,1744420408.385282,0.0,2025-04-11 21:13:28.385,BACKWARD,14
19.0,24124.23779061291,28166.461368377375,-31952.26573375055,-26448.103958142277,-36788.691495500985,-31376.864776237584,-11472.591635297733,-38782.17652823646,0.0,0.0,0.0,193.0,0.0,194.0,0.0,1.0,0.0,179.0,194.0,1.0,179.0,1744420408.385324,0.0,2025-04-11 21:13:28.385,BACKWARD,14
20.0,24095.649909454576,28168.853005034092,-31948.734158126616,-26438.448004537586,-36786.79159722228,-31361.620886519064,-11800.804650879461,-38768.13963271852,0.0,0.0,0.0,193.0,0.0,194.0,0.0,2.0,0.0,180.0,194.0,2.0,180.0,1744420408.3853664,0.0,2025-04-11 21:13:28.385,BACKWARD,14
21.0,24084.518740715834,28181.504092395797,-31933.825544574924,-26427.026263120923,-36774.565193005226,-31346.622865989553,-12051.52416843464,-38754.3486063896,0.0,0.0,0.0,193.0,0.0,194.0,0.0,4.0,0.0,180.0,194.0,4.0,180.0,1744420408.3854084,0.0,2025-04-11 21:13:28.385,BACKWARD,14
22.0,24117.30874983177,28188.00845003229,-31936.64186437629,-26424.09818459728,-36781.24836459737,-31361.218555118867,-11705.094481121836,-38733.33796660161,0.0,0.0,0.0,193.0,0.0,194.0,0.0,5.0,0.0,179.0,194.0,5.0,179.0,1744420408.3854504,0.0,2025-04-11 21:13:28.385,BACKWARD,14
23.0,24129.289284859813,28178.151330727498,-31945.113175524853,-26441.80076620588,-36789.83143446821,-31374.27197388077,-11454.665536244576,-38778.08615900113,0.0,0.0,0.0,193.0,0.0,193.0,0.0,6.0,0.0,179.0,193.0,6.0,179.0,1744420408.385497,0.0,2025-04-11 21:13:28.385,BACKWARD,14
24.0,24103.808296180763,28170.931717268435,-31942.252152234574,-26435.56462950285,-36788.557385034255,-31366.471215065863,-11755.22944393509,-38788.01033353929,0.0,0.0,0.0,193.0,0.0,193.0,0.0,7.0,0.0,179.0,193.0,7.0,179.0,1744420408.3855555,0.0,2025-04-11 21:13:28.385,BACKWARD,14
25.0,24091.3360227747,28178.307792938685,-31931.255093962565,-26423.539390985894,-36775.36985580562,-31351.92022942546,-12039.342467706498,-38767.111452473575,0.0,0.0,0.0,193.0,0.0,193.0,0.0,8.0,0.0,179.0,193.0,8.0,179.0,1744420408.385598,0.0,2025-04-11 21:13:28.385,BACKWARD,14
26.0,24108.211589838458,28177.950165027403,-31941.693358623193,-26426.020434620434,-36787.708018744954,-31369.68986626743,-11790.589903663385,-38755.66735931246,0.0,0.0,0.0,193.0,0.0,193.0,0.0,9.0,0.0,179.0,193.0,9.0,179.0,1744420408.3856404,0.0,2025-04-11 21:13:28.385,BACKWARD,14
27.0,24127.09881390319,28165.746112554803,-31957.56309718646,-26449.735635487516,-36806.32702187622,-31391.10283745561,-11457.12422813466,-38809.64682217203,0.0,0.0,0.0,193.0,0.0,193.0,0.0,9.0,0.0,179.0,193.0,9.0,179.0,1744420408.3856964,0.0,2025-04-11 21:13:28.385,BACKWARD,14
28.0,24110.67028172854,28161.05224621919,-31944.353216213374,-26436.27988532542,-36791.15018739107,-31367.29822961071,-11723.199394130635,-38797.01808655478,0.0,0.0,0.0,193.0,0.0,194.0,0.0,10.0,0.0,180.0,194.0,10.0,180.0,1744420408.3857388,0.0,2025-04-11 21:13:28.385,BACKWARD,14
29.0,24085.2339965384,28167.221327688854,-31940.50871616706,-26425.28282705341,-36781.40482680855,-31353.618962004064,-12021.259906442156,-38767.35732166259,0.0,0.0,0.0,193.0,0.0,194.0,0.0,11.0,0.0,180.0,194.0,11.0,180.0,1744420408.3857808,0.0,2025-04-11 21:13:28.385,BACKWARD,14
30.0,24099.494409500887,28170.19410970141,-31940.396957444784,-26421.192457818088,-36777.98500990689,-31356.412930060975,-11873.917206992772,-38755.6003040791,0.0,0.0,0.0,193.0,0.0,194.0,0.0,11.0,0.0,179.0,194.0,11.0,179.0,1744420408.3858235,0.0,2025-04-11 21:13:28.385,BACKWARD,14
31.0,24120.862677200163,28164.181490442934,-31960.71469315466,-26446.539336030404,-36800.783789251305,-31379.524633827765,-11443.73553320593,-38773.05701649869,0.0,0.0,0.0,193.0,0.0,193.0,0.0,12.0,0.0,179.0,193.0,12.0,179.0,1744420408.385866,0.0,2025-04-11 21:13:28.385,BACKWARD,14
32.0,24110.62557823963,28153.51970833775,-31950.74581512759,-26442.42661505063,-36790.65844901305,-31364.571316787165,-11630.216137196558,-38781.90830730299,0.0,0.0,0.0,193.0,0.0,193.0,0.0,12.0,0.0,179.0,193.0,12.0,179.0,1744420408.3859084,0.0,2025-04-11 21:13:28.385,BACKWARD,14
33.0,24094.465266998443,28171.37875215754,-31933.31145445245,-26421.147754329177,-36772.50883251534,-31341.839592676115,-11964.262958081123,-38746.346681874595,0.0,0.0,0.0,193.0,0.0,194.0,0.0,12.0,0.0,180.0,194.0,12.0,180.0,1744420408.385965,0.0,2025-04-11 21:13:28.385,BACKWARD,14
34.0,24100.611996723652,28174.686810336927,-31933.847896319377,-26420.834829906802,-36773.62641973811,-31350.62382824705,-11934.445730977743,-38742.9939202063,0.0,0.0,0.0,193.0,0.0,194.0,0.0,13.0,0.0,180.0,194.0,13.0,180.0,1744420408.386008,0.0,2025-04-11 21:13:28.386,BACKWARD,14
35.0,24127.322331347747,28173.0998364806,-31953.293913995498,-26438.783280704414,-36795.41937058203,-31377.870604738073,-11460.566396780778,-38750.7946790212,0.0,0.0,0.0,193.0,0.0,194.0,0.0,13.0,0.0,180.0,194.0,13.0,180.0,1744420408.3860507,0.0,2025-04-11 21:13:28.386,BACKWARD,14
36.0,24118.403985310077,28159.040589218213,-31949.471765693637,-26443.365388317754,-36793.47476881442,-31371.701523268406,-11573.979148147006,-38792.704199874905,0.0,0.0,0.0,193.0,0.0,193.0,0.0,13.0,0.0,179.0,193.0,13.0,179.0,1744420408.3860931,0.0,2025-04-11 21:13:28.386,BACKWARD,14
37.0,24094.018232109338,28173.90449928099,-31935.926608553724,-26424.94755088658,-36781.09190238618,-31351.741415469816,-11924.320390739489,-38770.821842053156,0.0,0.0,0.0,193.0,0.0,193.0,0.0,13.0,0.0,179.0,193.0,13.0,179.0,1744420408.3861363,0.0,2025-04-11 21:13:28.386,BACKWARD,14
38.0,24088.452647739967,28174.9997347593,-31929.55636138396,-26421.773603173926,-36770.005437136344,-31350.936752669426,-12002.640903310885,-38753.65570231148,0.0,0.0,0.0,193.0,0.0,193.0,0.0,14.0,0.0,179.0,193.0,14.0,179.0,1744420408.3861787,0.0,2025-04-11 21:13:28.386,BACKWARD,14
39.0,24117.979302165426,28169.411798645473,-31947.817736603945,-26440.727882472027,-36785.15991987704,-31382.050380951212,-11533.500138938445,-38754.259199411776,0.0,0.0,0.0,193.0,0.0,193.0,0.0,14.0,0.0,179.0,193.0,14.0,179.0,1744420408.386235,0.0,2025-04-11 21:13:28.386,BACKWARD,14
40.0,24120.214476610956,28151.75392052578,-31947.907143581768,-26450.406187821172,-36783.12591113161,-31380.21753790588,-11523.844185333752,-38794.76056036479,0.0,0.0,0.0,193.0,0.0,193.0,0.0,14.0,0.0,179.0,193.0,14.0,179.0,1744420408.386278,0.0,2025-04-11 21:13:28.386,BACKWARD,14
41.0,24093.99588036488,28156.00075197229,-31939.100556266378,-26434.916428913646,-36769.55840224724,-31356.72585448335,-11863.210721398678,-38764.20572569439,0.0,0.0,0.0,193.0,0.0,194.0,0.0,14.0,0.0,180.0,194.0,14.0,180.0,1744420408.38632,0.0,2025-04-11 21:13:28.386,BACKWARD,14
42.0,24088.09501982868,28165.05320847669,-31927.477649149616,-26422.935893885602,-36757.68962594147,-31344.05241537719,-12015.068473228035,-38739.73056551583,0.0,0.0,0.0,193.0,0.0,194.0,0.0,14.0,0.0,180.0,194.0,14.0,180.0,1744420408.3863769,0.0,2025-04-11 21:13:28.386,BACKWARD,14
43.0,24114.15715386357,28163.645048576003,-31947.415405203752,-26437.442176037097,-36782.65652449805,-31375.903651226003,-11601.762366504952,-38743.93269347343,0.0,0.0,0.0,193.0,0.0,194.0,0.0,15.0,0.0,180.0,194.0,15.0,180.0,1744420408.3864195,0.0,2025-04-11 21:13:28.386,BACKWARD,14
44.0,24111.005557895372,28146.925943723436,-31959.597105931894,-26456.37410359074,-36794.99468743738,-31387.191282175936,-11478.626606300666,-38800.08027554516,0.0,0.0,0.0,193.0,0.0,193.0,0.0,15.0,0.0,179.0,193.0,15.0,179.0,1744420408.386463,0.0,2025-04-11 21:13:28.386,BACKWARD,14
45.0,24084.63049943811,28155.643124061004,-31947.482460437117,-26432.211867834554,-36786.031637910804,-31357.68697949493,-11803.978598592115,-38769.9501240194,0.0,0.0,0.0,193.0,0.0,193.0,0.0,15.0,0.0,179.0,193.0,15.0,179.0,1744420408.3865054,0.0,2025-04-11 21:13:28.386,BACKWARD,14
46.0,24077.94732784597,28173.457464391886,-31927.812925316448,-26410.17304780162,-36766.0268266233,-31337.078671107134,-12042.427008441331,-38748.85007725359,0.0,0.0,0.0,193.0,0.0,193.0,0.0,15.0,0.0,179.0,193.0,15.0,179.0,1744420408.3865483,0.0,2025-04-11 21:13:28.386,BACKWARD,14
47.0,24103.29420605829,28176.96668827137,-31935.859553320355,-26411.268283279933,-36777.359161062144,-31356.904668438994,-11707.597876500831,-38740.46817308285,0.0,0.0,0.0,193.0,0.0,193.0,0.0,15.0,0.0,180.0,193.0,15.0,180.0,1744420408.3866043,0.0,2025-04-11 21:13:28.386,BACKWARD,14
48.0,24118.96277892146,28174.060961492178,-31939.301721966473,-26426.04278636489,-36776.91212617304,-31366.225345876857,-11443.690829717021,-38776.49918514481,0.0,0.0,0.0,193.0,0.0,193.0,0.0,15.0,0.0,179.0,193.0,15.0,179.0,1744420408.3866472,0.0,2025-04-11 21:13:28.386,BACKWARD,14
49.0,24097.929787389017,28167.422493388953,-31933.423213174727,-26416.31977752683,-36769.75956794734,-31348.478060779344,-11727.066245921404,-38775.62746711105,0.0,0.0,0.0,193.0,0.0,194.0,0.0,15.0,0.0,180.0,194.0,15.0,180.0,1744420408.3866897,0.0,2025-04-11 21:13:28.386,BACKWARD,14
50.0,24080.830702880707,28173.077484736146,-31922.89554153628,-26403.60163493176,-36761.422367265506,-31328.562656469665,-12023.629191354417,-38754.95210348989,0.0,0.0,0.0,193.0,0.0,194.0,0.0,15.0,0.0,180.0,194.0,15.0,180.0,1744420408.3867323,0.0,2025-04-11 21:13:28.386,BACKWARD,14
51.0,24094.86759839864,28165.388484643518,-31930.94216954019,-26407.379079744707,-36768.73138770239,-31343.49362176581,-11800.424671223722,-38741.183428905424,0.0,0.0,0.0,193.0,0.0,193.0,0.0,15.0,0.0,179.0,193.0,15.0,179.0,1744420408.3867743,0.0,2025-04-11 21:13:28.386,BACKWARD,14
52.0,24105.77524969283,28152.268010648255,-31955.57379192994,-26436.41399579215,-36794.59235603719,-31369.3545901006,-11418.522765460344,-38776.32037118916,0.0,0.0,0.0,193.0,0.0,193.0,0.0,15.0,0.0,179.0,193.0,15.0,179.0,1744420408.3868172,0.0,2025-04-11 21:13:28.386,BACKWARD,14
53.0,24093.794714664786,28146.90359197898,-31943.526201668526,-26423.248818307977,-36781.963620419934,-31341.43726127592,-11680.574617454366,-38763.62458033855,0.0,0.0,0.0,193.0,0.0,193.0,0.0,15.0,0.0,179.0,193.0,15.0,179.0,1744420408.38686,0.0,2025-04-11 21:13:28.386,BACKWARD,14
54.0,24073.633441166097,28158.14651944,-31933.020881774533,-26405.501533210463,-36769.58075399169,-31326.886275635516,-12000.785708521094,-38740.08819342711,0.0,0.0,0.0,193.0,0.0,193.0,0.0,16.0,0.0,179.0,193.0,16.0,179.0,1744420408.3870225,0.0,2025-04-11 21:13:28.387,BACKWARD,14
55.0,24091.62659545262,28165.544946854705,-31928.729346839114,-26398.23721626249,-36768.08318711319,-31337.68216820743,-11880.265102418078,-38738.05418468168,0.0,0.0,0.0,193.0,0.0,194.0,0.0,16.0,0.0,180.0,194.0,16.0,180.0,1744420408.3870664,0.0,2025-04-11 21:13:28.387,BACKWARD,14
56.0,24116.325273075734,28160.873432263546,-31947.728329626127,-26421.28186479591,-36792.84891996967,-31365.934773198936,-11427.038780097817,-38754.86269651207,0.0,0.0,0.0,193.0,0.0,194.0,0.0,16.0,0.0,179.0,194.0,16.0,179.0,1744420408.3871088,0.0,2025-04-11 21:13:28.387,BACKWARD,14
57.0,24103.428316525024,28149.161118168966,-31939.52523941103,-26421.08069909581,-36788.825605967715,-31357.843441706114,-11612.960590477061,-38785.03755152674,0.0,0.0,0.0,193.0,0.0,194.0,0.0,16.0,0.0,180.0,194.0,16.0,180.0,1744420408.3871765,0.0,2025-04-11 21:13:28.387,BACKWARD,14
58.0,24077.61205167914,28167.1989759444,-31925.98008227111,-26404.80862913235,-36774.81106219424,-31344.81237468867,-11957.93741440027,-38769.078405985645,0.0,0.0,0.0,193.0,0.0,193.0,0.0,16.0,0.0,179.0,193.0,16.0,179.0,1744420408.3872197,0.0,2025-04-11 21:13:28.387,BACKWARD,14
59.0,24087.5362262173,28180.09593249511,-31917.0840879779,-26396.337317983787,-36768.93255340249,-31345.326464811144,-11967.503961027141,-38765.9491617619,0.0,0.0,0.0,193.0,0.0,193.0,0.0,16.0,0.0,179.0,193.0,16.0,179.0,1744420408.387262,0.0,2025-04-11 21:13:28.387,BACKWARD,14
60.0,24115.140630619604,28167.824824789146,-31939.391128944295,-26421.41597526264,-36794.2347281259,-31374.137863414035,-11488.304911649813,-38759.57891459214,0.0,0.0,0.0,193.0,0.0,193.0,0.0,16.0,0.0,179.0,193.0,16.0,179.0,1744420408.3873043,0.0,2025-04-11 21:13:28.387,BACKWARD,14
61.0,24107.317520060245,28147.685903034915,-31937.670044621238,-26431.921295156637,-36793.81004498125,-31366.27004936577,-11568.659432966642,-38794.671153386975,0.0,0.0,0.0,193.0,0.0,194.0,0.0,16.0,0.0,180.0,194.0,16.0,180.0,1744420408.3873467,0.0,2025-04-11 21:13:28.387,BACKWARD,14
62.0,24090.263139040846,28166.841348033115,-31921.50973338005,-26409.390736745685,-36779.259059340846,-31342.82306943215,-11938.089065323957,-38765.56918210616,0.0,0.0,0.0,193.0,0.0,194.0,0.0,16.0,0.0,179.0,194.0,16.0,179.0,1744420408.3874028,0.0,2025-04-11 21:13:28.387,BACKWARD,14
63.0,24090.95604311896,28177.927813282946,-31908.344555895874,-26398.997175573968,-36757.711977685925,-31339.313845552668,-12030.46882515774,-38746.838420252614,0.0,0.0,0.0,193.0,0.0,194.0,0.0,16.0,0.0,180.0,194.0,16.0,180.0,1744420408.3874457,0.0,2025-04-11 21:13:28.387,BACKWARD,14
64.0,24117.66637774305,28180.319449939663,-31928.259960205552,-26413.078774580812,-36776.42038779502,-31366.560622043686,-11536.897604095651,-38731.125143900535,0.0,0.0,0.0,193.0,0.0,193.0,0.0,16.0,0.0,179.0,193.0,16.0,179.0,1744420408.387492,0.0,2025-04-11 21:13:28.387,BACKWARD,14
65.0,24114.58183700822,28164.539118354216,-31933.400861430273,-26428.1885538326,-36776.84507093967,-31364.414854575978,-11486.092088948739,-38764.451594883394,0.0,0.0,0.0,193.0,0.0,193.0,0.0,16.0,0.0,179.0,193.0,16.0,179.0,1744420408.3875344,0.0,2025-04-11 21:13:28.387,BACKWARD,14
66.0,24086.82097039473,28166.751941055292,-31931.74683234058,-26417.50441998296,-36775.70513197245,-31352.590781759118,-11820.29537204449,-38754.08038545613,0.0,0.0,0.0,193.0,0.0,193.0,0.0,16.0,0.0,179.0,193.0,16.0,179.0,1744420408.3876052,0.0,2025-04-11 21:13:28.387,BACKWARD,14
67.0,24081.031868580805,28178.777179572247,-31928.483477650105,-26411.80472514686,-36772.37472204861,-31350.690883480416,-12025.216165210744,-38764.22807743884,0.0,0.0,0.0,193.0,0.0,193.0,0.0,16.0,0.0,179.0,193.0,16.0,179.0,1744420408.387648,0.0,2025-04-11 21:13:28.387,BACKWARD,14
68.0,24115.721775975442,28187.47200816536,-31936.775974843025,-26409.815419890336,-36777.8285476957,-31362.91728769747,-11635.267631443458,-38743.26214113976,0.0,0.0,0.0,193.0,0.0,194.0,0.0,16.0,0.0,180.0,194.0,16.0,180.0,1744420408.3876903,0.0,2025-04-11 21:13:28.387,BACKWARD,14
69.0,24128.171697637048,28172.138711469022,-31940.598123144882,-26419.471373495027,-36779.63903899658,-31361.28561035223,-11469.440039329535,-38782.44474916992,0.0,0.0,0.0,193.0,0.0,194.0,0.0,16.0,0.0,180.0,194.0,16.0,180.0,1744420408.3877492,0.0,2025-04-11 21:13:28.387,BACKWARD,14
70.0,24102.400136280077,28168.80830154518,-31937.401823687775,-26405.61329193274,-36776.01805639482,-31348.232191590334,-11783.817325093429,-38776.968571778365,0.0,0.0,0.0,193.0,0.0,193.0,0.0,16.0,0.0,179.0,193.0,16.0,179.0,1744420408.387792,0.0,2025-04-11 21:13:28.387,BACKWARD,14
71.0,24090.240787296392,28181.995830773812,-31930.85276256237,-26399.84654186327,-36771.16772784802,-31338.218610074357,-12025.819662311038,-38750.81703076566,0.0,0.0,0.0,193.0,0.0,193.0,0.0,16.0,0.0,179.0,193.0,16.0,179.0,1744420408.3878343,0.0,2025-04-11 21:13:28.387,BACKWARD,14
72.0,24109.463287527953,28183.739266841327,-31942.050986534476,-26408.340204756285,-36785.89752744407,-31361.889107452527,-11731.670705279197,-38751.532286588226,0.0,0.0,0.0,193.0,0.0,193.0,0.0,16.0,0.0,179.0,193.0,16.0,179.0,1744420408.3878903,0.0,2025-04-11 21:13:28.387,BACKWARD,14
73.0,24119.275703343836,28159.375865385042,-31958.077187308932,-26433.776489946427,-36802.169597407534,-31377.423569848965,-11467.920120706573,-38789.57495565116,0.0,0.0,0.0,193.0,0.0,193.0,0.0,16.0,0.0,179.0,193.0,16.0,179.0,1744420408.3879333,0.0,2025-04-11 21:13:28.387,BACKWARD,14
74.0,24095.5381507323,28149.47404259134,-31951.86340235036,-26425.819268920335,-36793.69828625897,-31358.64810450651,-11756.70465906914,-38783.472929414864,0.0,0.0,0.0,193.0,0.0,194.0,0.0,16.0,0.0,180.0,194.0,16.0,180.0,1744420408.3879757,0.0,2025-04-11 21:13:28.387,BACKWARD,14
75.0,24071.06299055374,28158.52649909574,-31944.8896580803,-26420.678367695615,-36782.05302739776,-31351.316732325166,-12055.10044754749,-38783.42822592595,0.0,0.0,0.0,193.0,0.0,194.0,0.0,16.0,0.0,180.0,194.0,16.0,180.0,1744420408.388018,0.0,2025-04-11 21:13:28.388,BACKWARD,14
76.0,24082.641194181586,28151.195126914397,-31950.835222105412,-26424.32170204183,-36779.34846631867,-31365.44303482092,-11841.663639743763,-38769.59249610812,0.0,0.0,0.0,193.0,0.0,194.0,0.0,16.0,0.0,179.0,194.0,16.0,179.0,1744420408.3880603,0.0,2025-04-11 21:13:28.388,BACKWARD,14
77.0,24106.557560748766,28139.527516308728,-31965.386207745818,-26443.43244355112,-36792.80421648076,-31384.1067414411,-11441.947393649507,-38788.099740517115,0.0,0.0,0.0,193.0,0.0,193.0,0.0,17.0,0.0,179.0,193.0,17.0,179.0,1744420408.3881202,0.0,2025-04-11 21:13:28.388,BACKWARD,14
78.0,24089.927862874018,28132.66553076095,-31957.36193148636,-26431.027225378424,-36779.43787329648,-31361.956162685892,-11664.257844001992,-38775.96274327788,0.0,0.0,0.0,193.0,0.0,193.0,0.0,17.0,0.0,179.0,193.0,17.0,179.0,1744420408.388163,0.0,2025-04-11 21:13:28.388,BACKWARD,14
79.0,24065.65386839555,28145.42837684493,-31950.254076749574,-26413.41405074764,-36765.46803301192,-31336.67633970694,-11984.04425192407,-38741.13872541651,0.0,0.0,0.0,193.0,0.0,193.0,0.0,17.0,0.0,179.0,193.0,17.0,179.0,1744420408.3882053,0.0,2025-04-11 21:13:28.388,BACKWARD,14
80.0,24076.42740922301,28149.0940629356,-31949.7399866271,-26406.485009966495,-36765.959771389935,-31339.894990908506,-11894.793736314028,-38730.72281250034,0.0,0.0,0.0,193.0,0.0,194.0,0.0,17.0,0.0,180.0,194.0,17.0,180.0,1744420408.3882475,0.0,2025-04-11 21:13:28.388,BACKWARD,14
81.0,24107.362223549157,28151.552754825683,-31966.28027752403,-26422.198286318577,-36782.05302739776,-31362.49260455282,-11445.031934384338,-38750.07942319864,0.0,0.0,0.0,193.0,0.0,194.0,0.0,17.0,0.0,179.0,194.0,17.0,179.0,1744420408.8612173,0.0,2025-04-11 21:13:28.861,BACKWARD,14
82.0,24091.604243708163,28136.33121685162,-31965.40855949027,-26425.95337938707,-36780.55546051925,-31353.44014804842,-11606.903267729673,-38777.41560666748,0.0,0.0,0.0,193.0,0.0,194.0,0.0,17.0,0.0,179.0,194.0,17.0,179.0,1744420408.8613527,0.0,2025-04-11 21:13:28.861,BACKWARD,14
83.0,24061.854071838152,28144.46725183335,-31960.178251287733,-26421.237161307,-36780.3319430747,-31344.342988055112,-11949.466103251709,-38762.10466171559,0.0,0.0,0.0,193.0,0.0,193.0,0.0,17.0,0.0,179.0,193.0,17.0,179.0,1744420408.8615043,0.0,2025-04-11 21:13:28.861,BACKWARD,14
84.0,24076.472112711923,28163.108606709076,-31945.60491390287,-26413.436402492098,-36771.16772784802,-31342.86777292106,-11990.056871182547,-38761.27764717074,0.0,0.0,0.0,193.0,0.0,193.0,0.0,17.0,0.0,179.0,193.0,17.0,179.0,1744420408.861554,0.0,2025-04-11 21:13:28.861,BACKWARD,14
85.0,24108.703328216474,28162.706275308883,-31959.507698954072,-26430.155507344665,-36786.21045186644,-31369.48870056733,-11506.99097001445,-38755.26502791227,0.0,0.0,0.0,193.0,0.0,193.0,0.0,17.0,0.0,179.0,193.0,17.0,179.0,1744420408.8616056,0.0,2025-04-11 21:13:28.861,BACKWARD,14
86.0,24102.06486011325,28137.605266285573,-31961.65346642178,-26445.175879618633,-36788.400922823064,-31373.668476780473,-11549.839264135273,-38789.01616203978,0.0,0.0,0.0,193.0,0.0,194.0,0.0,17.0,0.0,180.0,194.0,17.0,180.0,1744420408.8616548,0.0,2025-04-11 21:13:28.861,BACKWARD,14
87.0,24081.05422032526,28152.424472859442,-31947.88479183731,-26427.18272533211,-36780.778977963804,-31354.557735271184,-11901.4098526728,-38770.3524554196,0.0,0.0,0.0,193.0,0.0,193.0,0.0,17.0,0.0,179.0,193.0,17.0,179.0,1744420408.861769,0.0,2025-04-11 21:13:28.861,BACKWARD,14
88.0,24088.162075062046,28170.9987725018,-31930.85276256237,-26408.22844603401,-36768.39611153556,-31338.799755430195,-12023.71859833224,-38751.91226624397,0.0,0.0,0.0,193.0,0.0,194.0,0.0,17.0,0.0,179.0,194.0,17.0,179.0,1744420408.8618193,0.0,2025-04-11 21:13:28.861,BACKWARD,14
89.0,24113.464249785455,28172.71985682486,-31949.963504071657,-26422.153582829666,-36788.08799840069,-31366.001828432305,-11564.636118964687,-38744.35737661808,0.0,0.0,0.0,193.0,0.0,193.0,0.0,17.0,0.0,179.0,193.0,17.0,179.0,1744420408.86188,0.0,2025-04-11 21:13:28.861,BACKWARD,14
90.0,24106.311691559757,28150.30105713619,-31960.312361754462,-26442.694835984094,-36797.833358983204,-31379.21170940539,-11507.482708392467,-38798.850929600114,0.0,0.0,0.0,193.0,0.0,193.0,0.0,17.0,0.0,179.0,193.0,17.0,179.0,1744420408.8619375,0.0,2025-04-11 21:13:28.861,BACKWARD,14
91.0,24086.57510120572,28162.169833441956,-31949.784690116012,-26421.46067875155,-36790.14435889058,-31360.525651040753,-11846.91629969076,-38784.165833492974,0.0,0.0,0.0,193.0,0.0,193.0,0.0,17.0,0.0,179.0,193.0,17.0,179.0,1744420408.8619952,0.0,2025-04-11 21:13:28.861,BACKWARD,14
92.0,24081.031868580805,28178.799531316705,-31939.36877719984,-26408.340204756285,-36778.52145177382,-31348.500412523797,-12057.20151152629,-38774.107548488086,0.0,0.0,0.0,193.0,0.0,193.0,0.0,17.0,0.0,179.0,193.0,17.0,179.0,1744420408.862133,0.0,2025-04-11 21:13:28.862,BACKWARD,14
93.0,24105.48467701491,28175.089141737124,-31948.287123237507,-26407.826114633815,-36785.42814081051,-31364.101930153603,-11671.11982954977,-38751.37582437704,0.0,0.0,0.0,193.0,0.0,193.0,0.0,17.0,0.0,179.0,193.0,17.0,179.0,1744420408.8621926,0.0,2025-04-11 21:13:28.862,BACKWARD,14
94.0,24108.68097647202,28145.00369370028,-31963.08397806692,-26430.535487000405,-36801.56610030724,-31369.5557558007,-11469.484742818446,-38769.81601355267,0.0,0.0,0.0,193.0,0.0,194.0,0.0,17.0,0.0,180.0,194.0,17.0,180.0,1744420408.8622465,0.0,2025-04-11 21:13:28.862,BACKWARD,14
95.0,24079.690763913484,28136.062995918157,-31954.880887851825,-26419.091393839288,-36792.51364380284,-31354.177755615445,-11792.489801942087,-38774.107548488086,0.0,0.0,0.0,193.0,0.0,193.0,0.0,17.0,0.0,180.0,193.0,17.0,180.0,1744420408.8623192,0.0,2025-04-11 21:13:28.862,BACKWARD,14
96.0,24064.80450210625,28151.195126914397,-31936.932437054213,-26405.255664021453,-36765.02099812281,-31343.2477525768,-12052.306479490577,-38780.20957472439,0.0,0.0,0.0,193.0,0.0,194.0,0.0,17.0,0.0,180.0,194.0,17.0,180.0,1744420408.862421,0.0,2025-04-11 21:13:28.862,BACKWARD,14
97.0,24090.888987885595,28158.459443862375,-31942.878001079323,-26403.9816145875,-36773.24644008237,-31351.54024976972,-11754.13420845678,-38749.40887086497,0.0,0.0,0.0,193.0,0.0,193.0,0.0,17.0,0.0,179.0,193.0,17.0,179.0,1744420408.86248,0.0,2025-04-11 21:13:28.862,BACKWARD,14
98.0,24107.228113082423,28145.76365301176,-31957.920725097745,-26423.69585319708,-36786.79159722228,-31356.055302149693,-11429.475120243445,-38747.53132433073,0.0,0.0,0.0,193.0,0.0,193.0,0.0,17.0,0.0,179.0,193.0,17.0,179.0,1744420408.8627207,0.0,2025-04-11 21:13:28.862,BACKWARD,14
99.0,24083.5352639598,28138.029949430223,-31957.339579741907,-26415.89509438218,-36780.95779191945,-31340.54319149771,-11707.150841611725,-38750.50410634329,0.0,0.0,0.0,193.0,0.0,193.0,0.0,17.0,0.0,179.0,193.0,17.0,179.0,1744420408.862804,0.0,2025-04-11 21:13:28.862,BACKWARD,14
100.0,24066.346772473666,28155.911344994467,-31941.916876067746,-26394.906806338648,-36761.779995176796,-31315.218665029846,-12024.076226243524,-38736.86954222555,0.0,0.0,0.0,193.0,0.0,194.0,0.0,17.0,0.0,180.0,194.0,17.0,180.0,1744420408.8628843,0.0,2025-04-11 21:13:28.862,BACKWARD,14
101.0,24085.524569216323,28156.961876983867,-31948.287123237507,-26394.95150982756,-36768.485518513386,-31329.792002414706,-11839.830796698428,-38727.10182989858,0.0,0.0,0.0,193.0,0.0,194.0,0.0,17.0,0.0,180.0,194.0,17.0,180.0,1744420408.8629758,0.0,2025-04-11 21:13:28.862,BACKWARD,14
102.0,24110.692633472998,28148.62467630204,-31968.560155458472,-26423.51703924144,-36791.37370483562,-31354.177755615445,-11443.713181461475,-38762.506993115785,0.0,0.0,0.0,193.0,0.0,193.0,0.0,17.0,0.0,179.0,193.0,17.0,179.0,1744420408.8631897,0.0,2025-04-11 21:13:28.863,BACKWARD,14
103.0,24089.838455896195,28136.130051151522,-31964.201565289688,-26422.332396785307,-36786.74689373337,-31343.515973510264,-11661.93326257864,-38777.08033050065,0.0,0.0,0.0,193.0,0.0,193.0,0.0,17.0,0.0,179.0,193.0,17.0,179.0,1744420408.863273,0.0,2025-04-11 21:13:28.863,BACKWARD,14
104.0,24064.268060239323,28146.657722789972,-31957.697207653193,-26417.169143816132,-36779.393169807576,-31337.078671107134,-11984.983025191192,-38763.02108323826,0.0,0.0,0.0,193.0,0.0,193.0,0.0,17.0,0.0,179.0,193.0,17.0,179.0,1744420408.8633645,0.0,2025-04-11 21:13:28.863,BACKWARD,14
105.0,24086.19512154998,28161.9463159974,-31942.56507665695,-26404.80862913235,-36767.83731792418,-31333.59179897211,-11930.60123093143,-38751.1970104214,0.0,0.0,0.0,193.0,0.0,194.0,0.0,17.0,0.0,180.0,194.0,17.0,180.0,1744420408.8634953,0.0,2025-04-11 21:13:28.863,BACKWARD,14
106.0,24107.3398718047,28152.29036239271,-31961.85463212188,-26429.753175944472,-36791.53016704681,-31367.0523604217,-11462.89097820413,-38764.09396697211,0.0,0.0,0.0,193.0,0.0,194.0,0.0,17.0,0.0,180.0,194.0,17.0,180.0,1744420408.8636153,0.0,2025-04-11 21:13:28.863,BACKWARD,14
107.0,24091.917168130538,28129.9386179374,-31960.08884430991,-26437.241010337,-36789.742027490385,-31362.11262489708,-11587.457250053556,-38785.35047594911,0.0,0.0,0.0,193.0,0.0,194.0,0.0,17.0,0.0,180.0,194.0,17.0,180.0,1744420408.8642752,0.0,2025-04-11 21:13:28.864,BACKWARD,14
108.0,24080.271909269322,28153.922039737947,-31944.487326680104,-26417.616178705237,-36774.60989649414,-31340.654950219985,-11928.857794863916,-38755.22032442335,0.0,0.0,0.0,193.0,0.0,194.0,0.0,17.0,0.0,180.0,194.0,17.0,180.0,1744420408.864411,0.0,2025-04-11 21:13:28.864,BACKWARD,14
109.0,24093.68295594251,28168.58478410063,-31928.908160794756,-26400.919425597123,-36764.015169622326,-31331.53543848222,-11983.127830401401,-38741.406946349976,0.0,0.0,0.0,193.0,0.0,194.0,0.0,17.0,0.0,180.0,194.0,17.0,180.0,1744420408.8644803,0.0,2025-04-11 21:13:28.864,BACKWARD,14
110.0,24113.173677107538,28163.354475898086,-31948.84591684889,-26418.219675805532,-36784.82464371021,-31362.090273152626,-11505.582810113765,-38744.75970801827,0.0,0.0,0.0,193.0,0.0,194.0,0.0,17.0,0.0,180.0,194.0,17.0,180.0,1744420408.8645504,0.0,2025-04-11 21:13:28.864,BACKWARD,14
111.0,24109.172714850036,28147.685903034915,-31945.403748202774,-26425.595751475783,-36782.880041942604,-31359.229249862346,-11540.228014019493,-38790.044342284724,0.0,0.0,0.0,193.0,0.0,194.0,0.0,17.0,0.0,179.0,194.0,17.0,179.0,1744420408.8646286,0.0,2025-04-11 21:13:28.864,BACKWARD,14
112.0,24088.586758206697,28160.09112120761,-31931.679777107216,-26406.440306477583,-36769.64780922506,-31340.029101375236,-11887.842343788427,-38765.27860942824,0.0,0.0,0.0,193.0,0.0,193.0,0.0,17.0,0.0,179.0,193.0,17.0,179.0,1744420408.8646743,0.0,2025-04-11 21:13:28.864,BACKWARD,14
113.0,24083.91524361554,28167.847176533603,-31922.47085839163,-26393.36453597123,-36763.65754171104,-31331.87071464905,-12023.271563443133,-38748.98418772032,0.0,0.0,0.0,193.0,0.0,193.0,0.0,17.0,0.0,179.0,193.0,17.0,179.0,1744420408.8647764,0.0,2025-04-11 21:13:28.864,BACKWARD,14
114.0,24114.984168408417,28165.544946854705,-31939.234666733108,-26401.813495375336,-36778.18617560699,-31358.424587061952,-11590.34062508829,-38748.738318531316,0.0,0.0,0.0,193.0,0.0,194.0,0.0,17.0,0.0,180.0,194.0,17.0,180.0,1744420408.8648443,0.0,2025-04-11 21:13:28.864,BACKWARD,14
115.0,24108.904493916572,28142.321484365642,-31951.125794783333,-26424.254646808466,-36783.03650415379,-31363.498433053308,-11502.85589729022,-38778.89082180153,0.0,0.0,0.0,193.0,0.0,194.0,0.0,17.0,0.0,180.0,194.0,17.0,180.0,1744420408.864889,0.0,2025-04-11 21:13:28.864,BACKWARD,14
116.0,24080.49542671388,28149.943429224903,-31947.348349970383,-26411.648262935672,-36777.8285476957,-31343.940656654915,-11826.91148840326,-38754.594475578604,0.0,0.0,0.0,193.0,0.0,194.0,0.0,17.0,0.0,180.0,194.0,17.0,180.0,1744420408.8649628,0.0,2025-04-11 21:13:28.864,BACKWARD,14
117.0,24074.52751094431,28164.360304398575,-31937.42417543223,-26400.248873263467,-36768.99960863586,-31333.323578038646,-12046.450322443286,-38747.48662084182,0.0,0.0,0.0,193.0,0.0,194.0,0.0,17.0,0.0,179.0,194.0,17.0,179.0,1744420408.8650064,0.0,2025-04-11 21:13:28.865,BACKWARD,14
118.0,24107.697499715985,28164.561470098673,-31939.614646388847,-26398.41603021813,-36775.4816145279,-31347.807508445683,-11687.257789046502,-38737.0930596701,0.0,0.0,0.0,193.0,0.0,193.0,0.0,17.0,0.0,179.0,193.0,17.0,179.0,1744420408.8650491,0.0,2025-04-11 21:13:28.865,BACKWARD,14
119.0,24116.168810864547,28149.921077480445,-31951.46107095016,-26422.019472362936,-36789.20558562346,-31363.811357475683,-11472.010489941895,-38783.94231604842,0.0,0.0,0.0,193.0,0.0,193.0,0.0,17.0,0.0,179.0,193.0,17.0,179.0,1744420408.8650928,0.0,2025-04-11 21:13:28.865,BACKWARD,14
120.0,24092.788886164297,28146.635371045515,-31945.381396458317,-26411.290635024387,-36778.052065140255,-31346.041720633715,-11778.408202935243,-38769.078405985645,0.0,0.0,0.0,193.0,0.0,193.0,0.0,17.0,0.0,179.0,193.0,17.0,179.0,1744420408.8651354,0.0,2025-04-11 21:13:28.865,BACKWARD,14
121.0,24083.57996744871,28167.243679433308,-31931.791535829492,-26398.326623240308,-36765.24451556736,-31331.803659415684,-12054.80987486957,-38756.0473389682,0.0,0.0,0.0,193.0,0.0,194.0,0.0,17.0,0.0,180.0,194.0,17.0,180.0,1744420408.8651793,0.0,2025-04-11 21:13:28.865,BACKWARD,14
122.0,24103.651833969576,28166.461368377375,-31942.118041767844,-26405.18860878809,-36783.46118729844,-31353.3507410706,-11792.623912408819,-38759.847135525604,0.0,0.0,0.0,193.0,0.0,194.0,0.0,17.0,0.0,180.0,194.0,17.0,180.0,1744420408.8652427,0.0,2025-04-11 21:13:28.865,BACKWARD,14
123.0,24114.53713351931,28149.764615269258,-31952.153975028275,-26423.807611919357,-36785.36108557714,-31363.096101653115,-11463.405068326601,-38769.7489583193,0.0,0.0,0.0,193.0,0.0,194.0,0.0,17.0,0.0,180.0,194.0,17.0,180.0,1744420408.865286,0.0,2025-04-11 21:13:28.865,BACKWARD,14
124.0,24088.54205471779,28136.53238255172,-31949.494117438095,-26417.169143816132,-36775.63807673909,-31347.852211934594,-11720.159556884713,-38768.74312981882,0.0,0.0,0.0,193.0,0.0,194.0,0.0,17.0,0.0,179.0,194.0,17.0,179.0,1744420408.86533,0.0,2025-04-11 21:13:28.865,BACKWARD,14
125.0,24072.538205687786,28154.52553683824,-31936.261884720552,-26400.785315130393,-36760.46124225393,-31329.166153569957,-12017.728330818216,-38756.852001768595,0.0,0.0,0.0,193.0,0.0,193.0,0.0,17.0,0.0,179.0,193.0,17.0,179.0,1744420408.865374,0.0,2025-04-11 21:13:28.865,BACKWARD,14
126.0,24095.761668176852,28166.461368377375,-31925.55539912646,-26386.50255042345,-36753.241628794865,-31325.00872910127,-11863.25542488759,-38728.50998979926,0.0,0.0,0.0,193.0,0.0,193.0,0.0,17.0,0.0,179.0,193.0,17.0,179.0,1744420408.8654172,0.0,2025-04-11 21:13:28.865,BACKWARD,14
127.0,24118.202819609978,28164.2485456763,-31941.9392278122,-26405.680347166104,-36777.292105828776,-31348.254543334788,-11433.029047611839,-38744.826763251636,0.0,0.0,0.0,193.0,0.0,193.0,0.0,17.0,0.0,179.0,193.0,17.0,179.0,1744420408.8654609,0.0,2025-04-11 21:13:28.865,BACKWARD,14
128.0,24104.30003455878,28153.027969959734,-31936.708919609657,-26404.160428543142,-36771.52535575931,-31338.93386589693,-11650.64563162871,-38773.92873453245,0.0,0.0,0.0,193.0,0.0,194.0,0.0,17.0,0.0,180.0,194.0,17.0,180.0,1744420408.8655212,0.0,2025-04-11 21:13:28.865,BACKWARD,14
129.0,24077.6344034236,28162.7956822867,-31928.66229160575,-26392.47046619302,-36764.082224855694,-31326.059261090668,-11990.2803886271,-38755.33208314563,0.0,0.0,0.0,193.0,0.0,194.0,0.0,17.0,0.0,179.0,194.0,17.0,179.0,1744420408.8655653,0.0,2025-04-11 21:13:28.865,BACKWARD,14
130.0,24089.436124496,28170.43997889042,-31923.342576425384,-26385.787294600883,-36764.68572195598,-31329.970816370347,-11951.075428852491,-38751.62169356605,0.0,0.0,0.0,193.0,0.0,194.0,0.0,17.0,0.0,179.0,194.0,17.0,179.0,1744420408.8656087,0.0,2025-04-11 21:13:28.865,BACKWARD,14
131.0,24123.43312781252,28175.558528370682,-31938.809983588457,-26401.8805506087,-36785.07051289923,-31352.836650948127,-11493.065833218794,-38754.16979243395,0.0,0.0,0.0,193.0,0.0,194.0,0.0,17.0,0.0,180.0,194.0,17.0,180.0,1744420408.8659732,0.0,2025-04-11 21:13:28.865,BACKWARD,14
132.0,24114.87240968614,28155.173737427445,-31931.858591062857,-26409.681309423606,-36771.19007959248,-31343.87360142155,-11610.63600905371,-38774.50987988828,0.0,0.0,0.0,193.0,0.0,194.0,0.0,17.0,0.0,179.0,194.0,17.0,179.0,1744420408.8660183,0.0,2025-04-11 21:13:28.866,BACKWARD,14
133.0,24089.011441351347,28157.453615361886,-31931.612721873847,-26408.22844603401,-36768.64198072458,-31338.73270019683,-11949.622565462896,-38766.61971409556,0.0,0.0,0.0,193.0,0.0,193.0,0.0,17.0,0.0,179.0,193.0,17.0,179.0,1744420408.8660705,0.0,2025-04-11 21:13:28.866,BACKWARD,14
134.0,24096.029889110316,28176.787874315727,-31918.492247878585,-26397.61136741774,-36758.74015793087,-31332.273046049246,-12022.086920987002,-38763.02108323826,0.0,0.0,0.0,193.0,0.0,194.0,0.0,17.0,0.0,180.0,194.0,17.0,180.0,1744420408.8661137,0.0,2025-04-11 21:13:28.866,BACKWARD,14
135.0,24121.62263651164,28172.518691124762,-31936.530105654016,-26415.760983915447,-36775.70513197245,-31358.737511484327,-11548.922842612606,-38756.829650024134,0.0,0.0,0.0,193.0,0.0,194.0,0.0,17.0,0.0,180.0,194.0,17.0,180.0,1744420408.8661563,0.0,2025-04-11 21:13:28.866,BACKWARD,14
136.0,24107.228113082423,28142.94733321039,-31947.840088348403,-26437.688045226103,-36781.74010297538,-31360.145671385013,-11550.308650768835,-38775.06867349967,0.0,0.0,0.0,193.0,0.0,194.0,0.0,17.0,0.0,180.0,194.0,17.0,180.0,1744420408.8662207,0.0,2025-04-11 21:13:28.866,BACKWARD,14
137.0,24073.90166209956,28147.127109423534,-31944.733195869114,-26430.13315560021,-36776.01805639482,-31352.47902303684,-11899.107622993903,-38761.881144271036,0.0,0.0,0.0,193.0,0.0,194.0,0.0,17.0,0.0,180.0,194.0,17.0,180.0,1744420408.866272,0.0,2025-04-11 21:13:28.866,BACKWARD,14
138.0,24080.49542671388,28164.963801498867,-31926.494172393584,-26414.03989959239,-36758.4272335085,-31344.342988055112,-12071.327814022043,-38759.73537680333,0.0,0.0,0.0,193.0,0.0,193.0,0.0,17.0,0.0,179.0,193.0,17.0,179.0,1744420408.8663163,0.0,2025-04-11 21:13:28.866,BACKWARD,14
139.0,24119.476869043934,28171.71402832437,-31933.289102707997,-26417.32560602732,-36764.37279753361,-31366.58297378814,-11638.352172178289,-38752.11343194407,0.0,0.0,0.0,193.0,0.0,193.0,0.0,17.0,0.0,179.0,193.0,17.0,179.0,1744420408.8663619,0.0,2025-04-11 21:13:28.866,BACKWARD,14
140.0,24119.16394462156,28154.77140602725,-31947.549515670482,-26439.006798148966,-36782.20948960895,-31379.2564128943,-11532.114330782215,-38801.62254591257,0.0,0.0,0.0,193.0,0.0,193.0,0.0,17.0,0.0,179.0,193.0,17.0,179.0,1744420408.8664076,0.0,2025-04-11 21:13:28.866,BACKWARD,14
141.0,24090.509008229856,28158.750016540293,-31944.196754002187,-26427.60740847676,-36779.2814110853,-31362.87258420856,-11844.994049667603,-38768.184336207436,0.0,0.0,0.0,193.0,0.0,194.0,0.0,17.0,0.0,180.0,194.0,17.0,180.0,1744420408.8664544,0.0,2025-04-11 21:13:28.866,BACKWARD,14
142.0,24077.120313301126,28166.19314744391,-31934.004358530565,-26414.0846030813,-36773.51466101583,-31353.998941659804,-12085.476468262252,-38770.821842053156,0.0,0.0,0.0,193.0,0.0,194.0,0.0,17.0,0.0,180.0,194.0,17.0,180.0,1744420408.866501,0.0,2025-04-11 21:13:28.866,BACKWARD,14
143.0,24111.92197941804,28173.0998364806,-31938.89939056628,-26407.60259718926,-36790.0326001683,-31371.098026168114,-11758.738667814574,-38772.72174033186,0.0,0.0,0.0,193.0,0.0,194.0,0.0,17.0,0.0,180.0,194.0,17.0,180.0,1744420408.8666193,0.0,2025-04-11 21:13:28.866,BACKWARD,14
144.0,24122.293188845302,28160.538156096718,-31950.455242449672,-26430.33432130031,-36802.750742763375,-31389.292346154733,-11521.13962425466,-38819.146313565536,0.0,0.0,0.0,193.0,0.0,194.0,0.0,17.0,0.0,180.0,194.0,17.0,180.0,1744420408.86667,0.0,2025-04-11 21:13:28.866,BACKWARD,14
145.0,24095.359336776655,28161.588688086118,-31941.961579556657,-26418.219675805532,-36788.02094316732,-31368.192299388924,-11801.363444490844,-38794.78291210925,0.0,0.0,0.0,193.0,0.0,193.0,0.0,17.0,0.0,179.0,193.0,17.0,179.0,1744420408.8667188,0.0,2025-04-11 21:13:28.866,BACKWARD,14
146.0,24086.396287250078,28172.988077758324,-31925.37658517082,-26401.187646530587,-36770.81009993674,-31346.06407237817,-12072.423049500352,-38772.94525777641,0.0,0.0,0.0,193.0,0.0,193.0,0.0,17.0,0.0,179.0,193.0,17.0,179.0,1744420408.8667996,0.0,2025-04-11 21:13:28.866,BACKWARD,14
147.0,24109.887970672604,28171.66932483546,-31929.154029983765,-26399.287748251885,-36778.16382386253,-31357.306999839187,-11828.185537837213,-38765.01038849478,0.0,0.0,0.0,193.0,0.0,193.0,0.0,17.0,0.0,179.0,193.0,17.0,179.0,1744420408.8668864,0.0,2025-04-11 21:13:28.866,BACKWARD,14
148.0,24121.39911906709,28157.587725828616,-31950.544649427495,-26426.579228231818,-36798.07922817221,-31379.77050301677,-11477.710184777998,-38799.58853716714,0.0,0.0,0.0,193.0,0.0,194.0,0.0,17.0,0.0,180.0,194.0,17.0,180.0,1744420408.86695,0.0,2025-04-11 21:13:28.866,BACKWARD,14
149.0,24096.275758299325,28145.160155911468,-31948.17536451523,-26420.588960717796,-36793.13949264759,-31363.610191775584,-11736.141054170259,-38806.02583957027,0.0,0.0,0.0,193.0,0.0,194.0,0.0,17.0,0.0,180.0,194.0,17.0,180.0,1744420408.8669977,0.0,2025-04-11 21:13:28.866,BACKWARD,14
150.0,24074.303993499758,28158.23592641782,-31934.7866695865,-26406.395602988676,-36781.27071634182,-31346.91343866747,-12054.161674280367,-38789.01616203978,0.0,0.0,0.0,193.0,0.0,193.0,0.0,17.0,0.0,180.0,193.0,17.0,180.0,1744420408.8670623,0.0,2025-04-11 21:13:28.867,BACKWARD,14
151.0,24094.465266998443,28163.555641598185,-31931.053928262467,-26402.30523375335,-36782.09773088667,-31354.244810848813,-11922.711065138707,-38777.79558632321,0.0,0.0,0.0,193.0,0.0,193.0,0.0,17.0,0.0,179.0,193.0,17.0,179.0,1744420408.86718,0.0,2025-04-11 21:13:28.867,BACKWARD,14
152.0,24119.52157253284,28157.185394428423,-31949.874097093834,-26423.986425875002,-36802.527225318816,-31383.816168763184,-11491.121231451181,-38805.66821165898,0.0,0.0,0.0,193.0,0.0,193.0,0.0,17.0,0.0,179.0,193.0,17.0,179.0,1744420408.867228,0.0,2025-04-11 21:13:28.867,BACKWARD,14
153.0,24101.68488045751,28146.791833256702,-31940.17344000023,-26418.13026882771,-36791.44076006899,-31369.086369167137,-11693.896257149729,-38825.7624299243,0.0,0.0,0.0,193.0,0.0,193.0,0.0,17.0,0.0,182.0,193.0,17.0,182.0,1744420408.8672736,0.0,2025-04-11 21:13:28.867,BACKWARD,14
154.0,24082.35062150367,28160.426397374442,-31923.811963058946,-26395.17502727211,-36774.632248238595,-31338.620941474554,-12024.81383381055,-38771.82767055365,0.0,0.0,0.0,193.0,0.0,194.0,0.0,17.0,0.0,181.0,194.0,17.0,181.0,1744420408.867319,0.0,2025-04-11 21:13:28.867,BACKWARD,14
155.0,24097.661566455554,28173.032781247235,-31912.83725653139,-26383.79798934436,-36766.09388185667,-31336.653987962483,-11998.863458497937,-38758.21545818036,0.0,0.0,0.0,193.0,0.0,194.0,0.0,17.0,0.0,180.0,194.0,17.0,180.0,1744420408.8673668,0.0,2025-04-11 21:13:28.867,BACKWARD,14
156.0,24121.220305111445,28168.853005034092,-31930.60689337336,-26404.696870410073,-36788.22210886742,-31363.83370922014,-11532.449606949045,-38768.29609492971,0.0,0.0,0.0,193.0,0.0,194.0,0.0,17.0,0.0,180.0,194.0,17.0,180.0,1744420408.8674123,0.0,2025-04-11 21:13:28.867,BACKWARD,14
157.0,24111.452592784477,28148.87054549105,-31927.56705612744,-26411.871780380225,-36781.963620419934,-31364.01252317578,-11639.223890212046,-38815.74884840833,0.0,0.0,0.0,193.0,0.0,194.0,0.0,17.0,0.0,180.0,194.0,17.0,180.0,1744420408.8674884,0.0,2025-04-11 21:13:28.867,BACKWARD,14
158.0,24082.4847319704,28155.28549614972,-31928.259960205552,-26409.07781232331,-36773.11232961564,-31362.894935953016,-11961.357231301932,-38801.19786276792,0.0,0.0,0.0,193.0,0.0,194.0,0.0,17.0,0.0,180.0,194.0,17.0,180.0,1744420408.867536,0.0,2025-04-11 21:13:28.867,BACKWARD,14
159.0,24082.082400570205,28166.416664888464,-31917.955806011654,-26398.79600987387,-36761.064739354224,-31351.20497360289,-12039.834206084515,-38772.922906031956,0.0,0.0,0.0,193.0,0.0,194.0,0.0,17.0,0.0,180.0,194.0,17.0,180.0,1744420408.867582,0.0,2025-04-11 21:13:28.867,BACKWARD,14
160.0,24114.671243986042,28170.842310290613,-31932.819716074435,-26410.195399546075,-36778.94613491847,-31371.053322679203,-11580.125877872215,-38757.85783026908,0.0,0.0,0.0,193.0,0.0,194.0,0.0,17.0,0.0,180.0,194.0,17.0,180.0,1744420408.86763,0.0,2025-04-11 21:13:28.867,BACKWARD,14
161.0,24107.317520060245,28146.031873945223,-31942.542724912495,-26431.94364690109,-36782.8353384537,-31376.753017515304,-11565.95487188755,-38796.705162132406,0.0,0.0,0.0,193.0,0.0,194.0,0.0,17.0,0.0,179.0,194.0,17.0,179.0,1744420408.8677123,0.0,2025-04-11 21:13:28.867,BACKWARD,14
162.0,24079.28843251329,28147.41768210145,-31942.56507665695,-26422.2876932964,-36776.867422684125,-31363.677247008953,-11900.381672427855,-38781.930659047444,0.0,0.0,0.0,193.0,0.0,193.0,0.0,17.0,0.0,179.0,193.0,17.0,179.0,1744420408.8677592,0.0,2025-04-11 21:13:28.867,BACKWARD,14
163.0,24077.589699934688,28164.025028231747,-31934.80902133096,-26410.061289079345,-36769.82662318071,-31355.049473649204,-12083.91184615038,-38784.27759221525,0.0,0.0,0.0,193.0,0.0,193.0,0.0,17.0,0.0,179.0,193.0,17.0,179.0,1744420408.8678048,0.0,2025-04-11 21:13:28.867,BACKWARD,14
164.0,24109.26212182786,28168.42832188944,-31945.202582502676,-26414.151658314666,-36785.62930651061,-31373.556718058197,-11679.389974998234,-38769.7489583193,0.0,0.0,0.0,193.0,0.0,194.0,0.0,17.0,0.0,180.0,194.0,17.0,180.0,1744420408.867849,0.0,2025-04-11 21:13:28.867,BACKWARD,14
165.0,24104.992938636893,28145.115452422557,-31961.85463212188,-26441.845469694792,-36807.60107131017,-31389.135883943545,-11549.414580990622,-38822.8119996562,0.0,0.0,0.0,193.0,0.0,194.0,0.0,17.0,0.0,180.0,194.0,17.0,180.0,1744420408.8679,0.0,2025-04-11 21:13:28.867,BACKWARD,14
166.0,24080.070743569227,28147.507089079274,-31950.36583547185,-26425.729861942516,-36794.2347281259,-31366.24769762131,-11882.410869885787,-38802.91894709098,0.0,0.0,0.0,193.0,0.0,194.0,0.0,17.0,0.0,180.0,194.0,17.0,180.0,1744420408.8679848,0.0,2025-04-11 21:13:28.867,BACKWARD,14
167.0,24076.20389177846,28158.928830495934,-31932.864419563346,-26410.17304780162,-36771.61476273713,-31350.15444161349,-12108.387006328941,-38788.18914749493,0.0,0.0,0.0,193.0,0.0,194.0,0.0,17.0,0.0,179.0,194.0,17.0,179.0,1744420408.8680298,0.0,2025-04-11 21:13:28.868,BACKWARD,14
168.0,24101.461363012953,28166.10374046609,-31944.80025110248,-26416.163315315644,-36790.05495191276,-31375.72483727036,-11754.558891601431,-38782.33299044764,0.0,0.0,0.0,193.0,0.0,193.0,0.0,17.0,0.0,179.0,193.0,17.0,179.0,1744420408.868077,0.0,2025-04-11 21:13:28.868,BACKWARD,14
169.0,24117.91224693206,28162.102778208588,-31954.09857679589,-26433.061234123856,-36802.77309450783,-31382.787988518237,-11496.262132675904,-38814.027764085266,0.0,0.0,0.0,193.0,0.0,193.0,0.0,17.0,0.0,179.0,193.0,17.0,179.0,1744420408.8681197,0.0,2025-04-11 21:13:28.868,BACKWARD,14
170.0,24094.398211765078,28153.72087403785,-31949.449413949184,-26422.064175851843,-36798.258042127854,-31368.281706366746,-11798.301255500468,-38811.32320300618,0.0,0.0,0.0,193.0,0.0,193.0,0.0,17.0,0.0,179.0,193.0,17.0,179.0,1744420408.8681633,0.0,2025-04-11 21:13:28.868,BACKWARD,14
171.0,24073.119351043624,28160.784025285724,-31943.012111546053,-26413.16818155863,-36791.37370483562,-31356.16706087197,-12082.526037994152,-38793.03947604173,0.0,0.0,0.0,193.0,0.0,194.0,0.0,17.0,0.0,179.0,194.0,17.0,179.0,1744420408.8682065,0.0,2025-04-11 21:13:28.868,BACKWARD,14
172.0,24088.787923906795,28165.455539876886,-31948.711806382158,-26413.570512958828,-36802.393114852086,-31370.092197667625,-11862.786038254028,-38788.59147889513,0.0,0.0,0.0,193.0,0.0,194.0,0.0,17.0,0.0,180.0,194.0,17.0,180.0,1744420408.8682692,0.0,2025-04-11 21:13:28.868,BACKWARD,14
173.0,24113.307787574267,28157.90065025099,-31961.005265832577,-26429.90963815566,-36816.5417690923,-31390.722857799872,-11515.328170696279,-38825.293043290745,0.0,0.0,0.0,193.0,0.0,194.0,0.0,17.0,0.0,179.0,194.0,17.0,179.0,1744420408.8683128,0.0,2025-04-11 21:13:28.868,BACKWARD,14
174.0,24093.906473387062,28148.691731535404,-31954.65737040727,-26422.46650725204,-36806.32702187622,-31378.2058809049,-11763.074906238904,-38841.565113254204,0.0,0.0,0.0,193.0,0.0,194.0,0.0,17.0,0.0,179.0,194.0,17.0,179.0,1744420408.8683558,0.0,2025-04-11 21:13:28.868,BACKWARD,14
175.0,24063.485749183386,28159.08529270712,-31949.404710460272,-26409.904826868158,-36796.67106827153,-31356.34587482761,-12081.207285071288,-38815.413572241494,0.0,0.0,0.0,193.0,0.0,193.0,0.0,17.0,0.0,179.0,193.0,17.0,179.0,1744420408.868399,0.0,2025-04-11 21:13:28.868,BACKWARD,14
176.0,24086.15041806107,28173.658630091984,-31934.429041675216,-26390.16823651412,-36778.476748284906,-31340.63259847553,-11965.60406274844,-38775.850984555604,0.0,0.0,0.0,193.0,0.0,193.0,0.0,17.0,0.0,179.0,193.0,17.0,179.0,1744420408.8684568,0.0,2025-04-11 21:13:28.868,BACKWARD,14
177.0,24109.06095612776,28168.920060267457,-31957.60780067537,-26410.57537920182,-36800.44851308448,-31364.01252317578,-11510.835470060763,-38781.41656892497,0.0,0.0,0.0,193.0,0.0,193.0,0.0,17.0,0.0,179.0,193.0,17.0,179.0,1744420408.8685,0.0,2025-04-11 21:13:28.868,BACKWARD,14
178.0,24098.220360066935,28157.990057228813,-31947.95184707068,-26405.32271925482,-36784.5340710323,-31343.761842699274,-11681.02165234347,-38787.473891672365,0.0,0.0,0.0,193.0,0.0,193.0,0.0,17.0,0.0,179.0,193.0,17.0,179.0,1744420408.8685424,0.0,2025-04-11 21:13:28.868,BACKWARD,14
179.0,24071.107694042646,28168.09304572261,-31940.106384766867,-26394.772695871914,-36775.123986616614,-31329.657891947973,-12006.395996379375,-38768.09492922961,0.0,0.0,0.0,193.0,0.0,193.0,0.0,17.0,0.0,180.0,193.0,17.0,180.0,1744420408.8685849,0.0,2025-04-11 21:13:28.868,BACKWARD,14
180.0,24077.09796155667,28171.579917857638,-31934.540800397495,-26394.45977144954,-36772.821756937716,-31338.35272054109,-12009.927572003315,-38776.65564735599,0.0,0.0,0.0,193.0,0.0,193.0,0.0,17.0,0.0,179.0,193.0,17.0,179.0,1744420408.8686268,0.0,2025-04-11 21:13:28.868,BACKWARD,14
181.0,24098.265063555846,28158.794720029204,-31958.814794875958,-26423.71820494154,-36800.87319622913,-31379.189357660933,-11541.367952986713,-38798.18037726646,0.0,0.0,0.0,193.0,0.0,194.0,0.0,17.0,0.0,180.0,194.0,17.0,180.0,1744420408.8686848,0.0,2025-04-11 21:13:28.868,BACKWARD,14
182.0,24084.161112804548,28134.05133891718,-31961.18407978822,-26436.391644047697,-36803.577757308216,-31376.328334370653,-11641.928451291138,-38839.821677186694,0.0,0.0,0.0,193.0,0.0,194.0,0.0,17.0,0.0,180.0,194.0,17.0,180.0,1744420408.8687277,0.0,2025-04-11 21:13:28.868,BACKWARD,14
183.0,24055.61793513512,28147.79766175719,-31944.308512724463,-26412.922312369625,-36781.47188204192,-31345.39352004451,-11979.730365244195,-38781.97536253636,0.0,0.0,0.0,193.0,0.0,194.0,0.0,17.0,0.0,179.0,194.0,17.0,179.0,1744420408.86877,0.0,2025-04-11 21:13:28.868,BACKWARD,14
184.0,24057.696647369463,28160.15817644098,-31929.355195683864,-26403.1322482982,-36763.00934112183,-31337.458650762877,-12053.781694624628,-38760.98707449283,0.0,0.0,0.0,193.0,0.0,193.0,0.0,17.0,0.0,179.0,193.0,17.0,179.0,1744420408.8688123,0.0,2025-04-11 21:13:28.868,BACKWARD,14
185.0,24088.609109951154,28161.476929363842,-31944.017940046542,-26415.64922519317,-36781.74010297538,-31364.459558064886,-11599.683654270608,-38765.166850705966,0.0,0.0,0.0,193.0,0.0,193.0,0.0,17.0,0.0,179.0,193.0,17.0,179.0,1744420408.8688545,0.0,2025-04-11 21:13:28.868,BACKWARD,14
186.0,24082.90941511505,28143.595533799595,-31942.833297590412,-26424.70168169757,-36779.05789364075,-31360.97268592986,-11571.363994045734,-38799.43207495595,0.0,0.0,0.0,193.0,0.0,193.0,0.0,17.0,0.0,179.0,193.0,17.0,179.0,1744420408.8688972,0.0,2025-04-11 21:13:28.868,BACKWARD,14
187.0,24062.94930731646,28153.899687993493,-31931.74683234058,-26404.13807679869,-36769.15607084704,-31339.850287419595,-11895.039605503036,-38763.35635940509,0.0,0.0,0.0,193.0,0.0,193.0,0.0,17.0,0.0,179.0,193.0,17.0,179.0,1744420408.8689518,0.0,2025-04-11 21:13:28.868,BACKWARD,14
188.0,24057.584888647187,28163.645048576003,-31920.906236279756,-26391.710506881536,-36757.80138466375,-31335.290531550712,-12069.070287832057,-38760.78590879273,0.0,0.0,0.0,193.0,0.0,193.0,0.0,17.0,0.0,180.0,193.0,17.0,180.0,1744420408.8689947,0.0,2025-04-11 21:13:28.868,BACKWARD,14
189.0,24090.888987885595,28166.77429279975,-31932.79736432998,-26393.8786260937,-36773.51466101583,-31360.43624406293,-11666.515370191977,-38758.32721690264,0.0,0.0,0.0,193.0,0.0,193.0,0.0,17.0,0.0,179.0,193.0,17.0,179.0,1744420408.869037,0.0,2025-04-11 21:13:28.869,BACKWARD,14
190.0,24091.224264052424,28147.887068735014,-31946.677797636727,-26415.93979787109,-36788.62444026762,-31372.461482579885,-11515.976371285484,-38800.37084822307,0.0,0.0,0.0,193.0,0.0,194.0,0.0,17.0,0.0,180.0,194.0,17.0,180.0,1744420408.8690922,0.0,2025-04-11 21:13:28.869,BACKWARD,14
191.0,24070.258327753345,28158.928830495934,-31937.982969043613,-26400.382983730196,-36784.1317396321,-31353.171927114956,-11845.239918856612,-38782.60121138111,0.0,0.0,0.0,193.0,0.0,194.0,0.0,17.0,0.0,180.0,194.0,17.0,180.0,1744420408.8691351,0.0,2025-04-11 21:13:28.869,BACKWARD,14
192.0,24063.485749183386,28172.541042869216,-31920.21333220164,-26382.434532932584,-36771.61476273713,-31338.844458919106,-12097.412299801386,-38779.62842936855,0.0,0.0,0.0,193.0,0.0,194.0,0.0,17.0,0.0,180.0,194.0,17.0,180.0,1744420408.8691776,0.0,2025-04-11 21:13:28.869,BACKWARD,14
193.0,24091.29131928579,28171.937545768924,-31923.566093869937,-26380.400524187153,-36775.57102150572,-31353.618962004064,-11783.258531482046,-38767.22321119585,0.0,0.0,0.0,193.0,0.0,194.0,0.0,17.0,0.0,180.0,194.0,17.0,180.0,1744420408.8692205,0.0,2025-04-11 21:13:28.869,BACKWARD,14
194.0,24094.82289490973,28152.983266470823,-31942.028634790022,-26408.831943134304,-36792.670106014026,-31374.562546558685,-11497.938513510051,-38809.35624949411,0.0,0.0,0.0,193.0,0.0,194.0,0.0,17.0,0.0,180.0,194.0,17.0,180.0,1744420408.8692627,0.0,2025-04-11 21:13:28.869,BACKWARD,14
195.0,24068.96192657494,28144.0425686887,-31937.17830624322,-26403.266358764933,-36789.943193190484,-31361.68794175243,-11790.455793196654,-38814.452447229916,0.0,0.0,0.0,193.0,0.0,193.0,0.0,17.0,0.0,179.0,193.0,17.0,179.0,1744420408.8693056,0.0,2025-04-11 21:13:28.869,BACKWARD,14
196.0,24057.875461325108,28160.76167354127,-31921.442678146683,-26384.60265214475,-36768.44081502448,-31334.06118560567,-12080.603787970995,-38766.82087979566,0.0,0.0,0.0,193.0,0.0,193.0,0.0,17.0,0.0,179.0,193.0,17.0,179.0,1744420408.8693612,0.0,2025-04-11 21:13:28.869,BACKWARD,14
197.0,24075.488635955888,28160.80637703018,-31921.39797465777,-26380.624041631705,-36768.41846328002,-31345.10294736659,-11864.976509210648,-38755.779118034734,0.0,0.0,0.0,193.0,0.0,193.0,0.0,17.0,0.0,180.0,193.0,17.0,180.0,1744420408.8694038,0.0,2025-04-11 21:13:28.869,BACKWARD,14
198.0,24101.796639179785,28160.15817644098,-31928.706995094657,-26392.44811444856,-36777.5826785067,-31353.998941659804,-11493.132888452159,-38778.801414823705,0.0,0.0,0.0,193.0,0.0,194.0,0.0,17.0,0.0,179.0,194.0,17.0,179.0,1744420408.8694465,0.0,2025-04-11 21:13:28.869,BACKWARD,14
199.0,24076.919147601027,28141.941504709903,-31931.65742536276,-26397.36549822873,-36775.88394592809,-31345.080595622137,-11715.912725438206,-38777.952048534404,0.0,0.0,0.0,193.0,0.0,194.0,0.0,17.0,0.0,180.0,194.0,17.0,180.0,1744420408.8695383,0.0,2025-04-11 21:13:28.869,BACKWARD,14
200.0,24048.86770830962,28151.128071681032,-31929.17638172822,-26392.872797593212,-36771.61476273713,-31336.832801918128,-12040.370647951442,-38772.073539742654,0.0,0.0,0.0,193.0,0.0,194.0,0.0,17.0,0.0,180.0,194.0,17.0,180.0,1744420408.869591,0.0,2025-04-11 21:13:28.869,BACKWARD,14
201.0,24065.51975792882,28156.581897328128,-31925.845971804378,-26388.156579513143,-36771.45830052594,-31344.07476712165,-11964.575882503495,-38775.11337698858,0.0,0.0,0.0,193.0,0.0,194.0,0.0,17.0,0.0,180.0,194.0,17.0,180.0,1744420409.3413897,0.0,2025-04-11 21:13:29.341,BACKWARD,14
202.0,24091.648947197074,28151.508051336772,-31942.40861444576,-26405.99327158848,-36785.696361743976,-31367.365284844076,-11504.912257780106,-38773.258182198784,0.0,0.0,0.0,193.0,0.0,194.0,0.0,17.0,0.0,180.0,194.0,17.0,180.0,1744420409.341535,0.0,2025-04-11 21:13:29.341,BACKWARD,14
203.0,24076.673278412018,28138.298170363687,-31943.257980735063,-26403.109896553746,-36785.249326854864,-31360.72681674085,-11652.433771185133,-38803.43303721345,0.0,0.0,0.0,193.0,0.0,193.0,0.0,17.0,0.0,179.0,193.0,17.0,179.0,1744420409.3415868,0.0,2025-04-11 21:13:29.341,BACKWARD,14
204.0,24052.846318822663,28154.592592071607,-31934.339634697397,-26386.83782659028,-36779.32611457421,-31342.06311012067,-12013.928534260815,-38794.69350513143,0.0,0.0,0.0,193.0,0.0,194.0,0.0,17.0,0.0,179.0,194.0,17.0,179.0,1744420409.3416362,0.0,2025-04-11 21:13:29.341,BACKWARD,14
205.0,24060.065932281726,28166.796644544203,-31923.90137003677,-26374.99140202897,-36773.738178460386,-31332.027176860236,-12036.481444416218,-38768.29609492971,0.0,0.0,0.0,193.0,0.0,193.0,0.0,17.0,0.0,179.0,193.0,17.0,179.0,1744420409.3417072,0.0,2025-04-11 21:13:29.341,BACKWARD,14
206.0,24084.04935408227,28160.985190985823,-31943.347387712885,-26393.65510864915,-36793.98885893689,-31357.843441706114,-11538.909261096629,-38758.7519000473,0.0,0.0,0.0,193.0,0.0,193.0,0.0,18.0,0.0,179.0,193.0,18.0,179.0,1744420409.3417552,0.0,2025-04-11 21:13:29.341,BACKWARD,14
207.0,24078.170845290526,28139.460461075363,-31939.65934987776,-26399.734783140993,-36784.645829754576,-31351.272028836254,-11591.882895455707,-38791.653667885505,0.0,0.0,0.0,193.0,0.0,193.0,0.0,17.0,0.0,179.0,193.0,17.0,179.0,1744420409.3418028,0.0,2025-04-11 21:13:29.341,BACKWARD,14
208.0,24054.746217101365,28148.088234435112,-31927.500000894073,-26383.306250966343,-36769.22312608041,-31330.66372044846,-11934.289268766555,-38765.52447861725,0.0,0.0,0.0,193.0,0.0,193.0,0.0,17.0,0.0,179.0,193.0,17.0,179.0,1744420409.341851,0.0,2025-04-11 21:13:29.341,BACKWARD,14
209.0,24048.62183912061,28148.62467630204,-31925.37658517082,-26381.674573621105,-36773.313495315735,-31334.687034450417,-12045.332735220521,-38762.641103582515,0.0,0.0,0.0,193.0,0.0,193.0,0.0,17.0,0.0,180.0,193.0,17.0,180.0,1744420409.341899,0.0,2025-04-11 21:13:29.341,BACKWARD,14
210.0,24075.131008044602,28150.077539691632,-31941.291027222996,-26395.59971041676,-36791.351353091166,-31365.174813887457,-11621.118977203249,-38775.24748745531,0.0,0.0,0.0,193.0,0.0,193.0,0.0,17.0,0.0,180.0,193.0,17.0,180.0,1744420409.34208,0.0,2025-04-11 21:13:29.342,BACKWARD,14
211.0,24075.823912122716,28135.683016262417,-31941.067509778444,-26405.568588443828,-36783.50589078735,-31361.330313841143,-11562.356241030246,-38798.806226111206,0.0,0.0,0.0,193.0,0.0,194.0,0.0,17.0,0.0,180.0,194.0,17.0,180.0,1744420409.3421247,0.0,2025-04-11 21:13:29.342,BACKWARD,14
212.0,24052.46633916692,28142.075615176633,-31931.255093962565,-26387.37426845721,-36771.39124529258,-31342.130165354036,-11886.30007342101,-38771.872374042556,0.0,0.0,0.0,193.0,0.0,194.0,0.0,17.0,0.0,180.0,194.0,17.0,180.0,1744420409.3421676,0.0,2025-04-11 21:13:29.342,BACKWARD,14
213.0,24041.782205317286,28155.464310105363,-31923.633149103305,-26377.45009391905,-36763.18815507748,-31335.178772828436,-12088.851581675004,-38773.682865343435,0.0,0.0,0.0,193.0,0.0,194.0,0.0,17.0,0.0,180.0,194.0,17.0,180.0,1744420409.3422105,0.0,2025-04-11 21:13:29.342,BACKWARD,14
214.0,24072.560557432244,28165.187318943423,-31938.51941091054,-26384.64735563366,-36780.577812263706,-31353.708368981883,-11695.527934494965,-38754.28155115623,0.0,0.0,0.0,193.0,0.0,193.0,0.0,17.0,0.0,179.0,193.0,17.0,179.0,1744420409.3422532,0.0,2025-04-11 21:13:29.342,BACKWARD,14
215.0,24089.793752407284,28153.899687993493,-31942.721538868136,-26402.215826775533,-36790.45728331295,-31363.78900573123,-11530.415598203612,-38807.63516517105,0.0,0.0,0.0,193.0,0.0,193.0,0.0,17.0,0.0,179.0,193.0,17.0,179.0,1744420409.342296,0.0,2025-04-11 21:13:29.342,BACKWARD,14
216.0,24070.86182485364,28151.217478658855,-31928.46112590565,-26378.679439864092,-36780.7342744749,-31339.090328108112,-11858.092171918413,-38793.330048719654,0.0,0.0,0.0,193.0,0.0,193.0,0.0,17.0,0.0,179.0,193.0,17.0,179.0,1744420409.3423386,0.0,2025-04-11 21:13:29.342,BACKWARD,14
217.0,24051.57226938871,28157.699484550893,-31923.923721781222,-26370.65516360464,-36770.31836155872,-31329.747298925795,-12107.53764003964,-38770.71008333088,0.0,0.0,0.0,193.0,0.0,194.0,0.0,17.0,0.0,180.0,194.0,17.0,180.0,1744420409.3423972,0.0,2025-04-11 21:13:29.342,BACKWARD,14
218.0,24079.109618557646,28161.38752238602,-31928.639939861292,-26373.292669450366,-36768.86549816913,-31343.560676999175,-11781.3809849478,-38737.36128060357,0.0,0.0,0.0,193.0,0.0,194.0,0.0,17.0,0.0,179.0,194.0,17.0,179.0,1744420409.3424404,0.0,2025-04-11 21:13:29.342,BACKWARD,14
219.0,24093.414735009042,28149.742263524804,-31946.09665228089,-26398.304271495854,-36788.557385034255,-31362.71612199737,-11481.733498779953,-38786.33395270514,0.0,0.0,0.0,193.0,0.0,194.0,0.0,17.0,0.0,180.0,194.0,17.0,180.0,1744420409.3424828,0.0,2025-04-11 21:13:29.342,BACKWARD,14
