Sample Index,EXG Channel 0,EXG Channel 1,EXG Channel 2,EXG Channel 3,EXG Channel 4,EXG Channel 5,EXG Channel 6,EXG Channel 7,Accel Channel 0,Accel Channel 1,Accel Channel 2,Not Used,Digital Channel 0 (D11),Digital Channel 1 (D12),Digital Channel 2 (D13),Digital Channel 3 (D17),Not Used,Digital Channel 4 (D18),Analog Channel 0,Analog Channel 1,Analog Channel 2,Timestamp,Marker Channel,Timestamp (Formatted),Stimulus_Direction,Stimulus_Number
86.0,11399.456727439969,-7122.31631545023,-23958.857233388095,-23591.349851053936,18263.31982175348,8716.107453835899,25984.03703976119,51340.168874283896,0.0,0.0,0.0,193.0,0.0,193.0,0.0,1.0,0.0,179.0,193.0,1.0,179.0,1744418725.573676,0.0,2025-04-11 20:45:25.573,BACKWARD,25
87.0,11410.945524089995,-7134.296850478274,-23896.942901246894,-23582.453856760723,18364.148540991373,8744.87414894988,25902.810800410607,51384.492383538774,0.0,0.0,0.0,193.0,0.0,193.0,0.0,1.0,0.0,178.0,193.0,1.0,178.0,1744418725.573707,0.0,2025-04-11 20:45:25.573,BACKWARD,25
88.0,11376.501485884368,-7199.742758243413,-23891.4890755998,-23638.422624876814,18489.5641791301,8592.03292036449,26263.031514052334,51380.781993959194,0.0,0.0,0.0,193.0,0.0,192.0,0.0,1.0,0.0,178.0,192.0,1.0,178.0,1744418725.5737383,0.0,2025-04-11 20:45:25.573,BACKWARD,25
89.0,11376.702651584465,-7195.808851219279,-23929.44233768491,-23643.652933079356,18399.01726234165,8480.989453910524,26213.678862295015,51271.28079787264,0.0,0.0,0.0,193.0,0.0,193.0,0.0,1.0,0.0,179.0,193.0,1.0,179.0,1744418725.573769,0.0,2025-04-11 20:45:25.573,BACKWARD,25
90.0,11379.317805685736,-7156.55918795576,-23947.144919293514,-23599.32942382448,18310.3702438319,8698.986017583135,25927.71064373382,51346.337955753566,0.0,0.0,0.0,193.0,0.0,193.0,0.0,1.0,0.0,179.0,193.0,1.0,179.0,1744418725.5738008,0.0,2025-04-11 20:45:25.573,BACKWARD,25
91.0,11378.311977185247,-7157.453257733972,-23914.60077936659,-23584.95725213972,18362.293346201583,8763.53785557006,25766.15223481086,51416.05304670967,0.0,0.0,0.0,193.0,0.0,192.0,0.0,1.0,0.0,179.0,192.0,1.0,179.0,1744418725.5738318,0.0,2025-04-11 20:45:25.573,BACKWARD,25
92.0,11345.097284924661,-7218.540575330327,-23900.854456526573,-23636.030988220096,18506.126821771482,8631.416694094742,26105.83169529816,51428.05593348217,0.0,0.0,0.0,193.0,0.0,193.0,0.0,1.0,0.0,179.0,193.0,1.0,179.0,1744418725.5738633,0.0,2025-04-11 20:45:25.573,BACKWARD,25
93.0,11356.29550889677,-7216.081883440243,-23938.226573255848,-23652.414816905835,18418.75385269569,8447.886520372214,26127.848163586637,51299.15342320841,0.0,0.0,0.0,193.0,0.0,193.0,0.0,1.0,0.0,178.0,193.0,1.0,178.0,1744418725.5738943,0.0,2025-04-11 20:45:25.573,BACKWARD,25
94.0,11364.967985745428,-7191.651426750592,-23960.421855499968,-23617.970778700208,18315.19822063425,8640.849130254881,25874.781712863653,51346.85204587603,0.0,0.0,0.0,193.0,0.0,193.0,0.0,1.0,0.0,178.0,193.0,1.0,178.0,1744418726.0499687,0.0,2025-04-11 20:45:26.049,BACKWARD,25
95.0,11384.302244699269,-7180.095574867199,-23915.338386933614,-23595.931958667275,18347.071808227516,8767.091782938454,25673.995992421627,51442.40575342247,0.0,0.0,0.0,193.0,0.0,192.0,0.0,1.0,0.0,178.0,192.0,1.0,178.0,1744418726.050173,0.0,2025-04-11 20:45:26.050,BACKWARD,25
96.0,11365.303261912259,-7211.991514204921,-23887.957499975862,-23636.63448532039,18492.5146093982,8655.310708917465,25952.23050740129,51455.459172184375,0.0,0.0,0.0,193.0,0.0,193.0,0.0,1.0,0.0,179.0,193.0,1.0,179.0,1744418726.0502076,0.0,2025-04-11 20:45:26.050,BACKWARD,25
97.0,11354.395610618069,-7235.885529027645,-23929.464689429366,-23671.190282248295,18422.17366959735,8442.231529025023,26064.324505844656,51331.071714290585,0.0,0.0,0.0,193.0,0.0,192.0,0.0,1.0,0.0,178.0,192.0,1.0,178.0,1744418726.0502398,0.0,2025-04-11 20:45:26.050,BACKWARD,25
98.0,11363.91745375603,-7235.617308094181,-23962.768788667774,-23635.829822519998,18299.90962742682,8585.394452261264,25824.71380528376,51343.58869118556,0.0,0.0,0.0,193.0,0.0,193.0,0.0,1.0,0.0,179.0,193.0,1.0,179.0,1744418726.0502715,0.0,2025-04-11 20:45:26.050,BACKWARD,25
99.0,11381.463573153445,-7211.767996760368,-23934.180907509435,-23598.48005753518,18275.85915039291,8769.237550406164,25551.530784551,51447.65841336947,0.0,0.0,0.0,193.0,0.0,193.0,0.0,1.0,0.0,178.0,193.0,1.0,178.0,1744418726.0503209,0.0,2025-04-11 20:45:26.050,BACKWARD,25
100.0,11373.238131193893,-7225.737837044935,-23876.513406814745,-23615.10975540993,18448.906355965897,8710.0054275996,25732.646969872352,51472.40179448149,0.0,0.0,0.0,193.0,0.0,193.0,0.0,1.0,0.0,179.0,193.0,1.0,179.0,1744418726.0503528,0.0,2025-04-11 20:45:26.050,BACKWARD,25
101.0,11344.203215146448,-7253.744572847435,-23920.032253269226,-23671.369096203936,18440.233879117237,8488.544343536418,25926.41424255541,51358.25143554824,0.0,0.0,0.0,193.0,0.0,193.0,0.0,1.0,0.0,179.0,193.0,1.0,179.0,1744418726.0503848,0.0,2025-04-11 20:45:26.050,BACKWARD,25
102.0,11337.698857509955,-7235.282031927351,-23957.98551535434,-23639.182584188293,18319.467403825212,8571.178742787688,25710.85401902843,51323.58387989806,0.0,0.0,0.0,193.0,0.0,193.0,0.0,1.0,0.0,179.0,193.0,1.0,179.0,1744418726.050416,0.0,2025-04-11 20:45:26.050,BACKWARD,25
103.0,11367.5831398467,-7206.4035780910945,-23938.673608144953,-23592.512141765612,18277.7143451827,8780.21225693372,25414.961625929074,51425.75370380327,0.0,0.0,0.0,193.0,0.0,193.0,0.0,1.0,0.0,179.0,193.0,1.0,179.0,1744418726.0504477,0.0,2025-04-11 20:45:26.050,BACKWARD,25
104.0,11378.468439396434,-7233.449188882017,-23873.138293401993,-23594.724964466688,18447.542899554122,8742.25899484861,25502.356946749325,51454.810971595165,0.0,0.0,0.0,193.0,0.0,193.0,0.0,1.0,0.0,179.0,193.0,1.0,179.0,1744418726.0504792,0.0,2025-04-11 20:45:26.050,BACKWARD,25
105.0,11351.95927047244,-7272.29652074534,-23898.082840214116,-23647.184508703293,18499.398946690435,8536.265317948499,25792.750810712674,51384.1794591164,0.0,0.0,0.0,193.0,0.0,193.0,0.0,1.0,0.0,179.0,193.0,1.0,179.0,1744418726.0505106,0.0,2025-04-11 20:45:26.050,BACKWARD,25
106.0,11351.556939072245,-7265.903921831122,-23939.63473315653,-23627.06793869352,18367.054267770563,8537.047629004435,25620.932951084727,51313.52559489317,0.0,0.0,0.0,193.0,0.0,192.0,0.0,1.0,0.0,178.0,192.0,1.0,178.0,1744418726.050542,0.0,2025-04-11 20:45:26.050,BACKWARD,25
107.0,11355.692011796476,-7235.818473794279,-23941.869907602064,-23594.635557488866,18277.446124249236,8759.559245057017,25310.310758389325,51418.02000022173,0.0,0.0,0.0,193.0,0.0,193.0,0.0,1.0,0.0,179.0,193.0,1.0,179.0,1744418726.050573,0.0,2025-04-11 20:45:26.050,BACKWARD,25
108.0,11363.850398522663,-7234.499720871416,-23880.581424305612,-23594.7696679556,18388.757811636664,8751.199692630731,25300.20776989553,51460.91299783147,0.0,0.0,0.0,193.0,0.0,193.0,0.0,1.0,0.0,178.0,193.0,1.0,178.0,1744418726.0506046,0.0,2025-04-11 20:45:26.050,BACKWARD,25
109.0,11342.325668612202,-7279.493782459949,-23896.406459379967,-23650.403159904858,18466.318364896582,8568.630643919783,25706.718946304198,51424.211433435856,0.0,0.0,0.0,193.0,0.0,193.0,0.0,1.0,0.0,179.0,193.0,1.0,179.0,1744418726.050636,0.0,2025-04-11 20:45:26.050,BACKWARD,25
110.0,11340.559880800234,-7264.205189252519,-23933.73387262033,-23637.55090684306,18352.90561353035,8488.030253413946,25655.198175334714,51315.984286783256,0.0,0.0,0.0,193.0,0.0,192.0,0.0,1.0,0.0,178.0,192.0,1.0,178.0,1744418726.0506673,0.0,2025-04-11 20:45:26.050,BACKWARD,25
111.0,11354.283851895792,-7228.5318051018485,-23944.88739310353,-23600.29054883606,18280.508313239614,8715.861584646891,25388.854788405275,51402.70905526985,0.0,0.0,0.0,193.0,0.0,192.0,0.0,1.0,0.0,178.0,192.0,1.0,178.0,1744418726.0507128,0.0,2025-04-11 20:45:26.050,BACKWARD,25
112.0,11363.001032233362,-7222.653296310103,-23897.12171520254,-23588.041792874552,18364.72968634721,8755.848855477436,25303.53817981937,51464.109297288574,0.0,0.0,0.0,193.0,0.0,193.0,0.0,1.0,0.0,179.0,193.0,1.0,179.0,1744418726.0507443,0.0,2025-04-11 20:45:26.050,BACKWARD,25
113.0,11327.506462038335,-7268.25085499893,-23892.517255844745,-23637.126223698408,18481.85282729302,8603.432310036696,25646.36923627487,51456.26383498476,0.0,0.0,0.0,193.0,0.0,193.0,0.0,1.0,0.0,178.0,193.0,1.0,178.0,1744418726.0507755,0.0,2025-04-11 20:45:26.050,BACKWARD,25
114.0,11336.447159820456,-7246.033221010354,-23924.70376786039,-23628.833726505487,18375.458523685757,8472.361680550775,25548.334485093892,51328.38950495595,0.0,0.0,0.0,193.0,0.0,192.0,0.0,1.0,0.0,178.0,192.0,1.0,178.0,1744418726.0508068,0.0,2025-04-11 20:45:26.050,BACKWARD,25
115.0,11332.736770240876,-7212.662066538581,-23951.481157717844,-23595.19435110025,18258.894176351332,8696.415566970774,25190.550111597793,51399.75862500175,0.0,0.0,0.0,193.0,0.0,193.0,0.0,1.0,0.0,179.0,193.0,1.0,179.0,1744418726.0508504,0.0,2025-04-11 20:45:26.050,BACKWARD,25
116.0,11348.561805315234,-7187.695167982003,-23901.569712349145,-23578.676411947778,18307.48686879717,8777.261826665619,24900.22330286781,51464.51162868877,0.0,0.0,0.0,193.0,0.0,192.0,0.0,1.0,0.0,179.0,192.0,1.0,179.0,1744418726.0508823,0.0,2025-04-11 20:45:26.050,BACKWARD,25
117.0,11317.314066566714,-7223.502662599405,-23884.224758651824,-23623.446956091757,18449.37574259946,8658.372897907842,25123.11489857613,51482.86241088658,0.0,0.0,0.0,193.0,0.0,193.0,0.0,1.0,0.0,179.0,193.0,1.0,179.0,1744418726.0509136,0.0,2025-04-11 20:45:26.050,BACKWARD,25
118.0,11321.24797359085,-7226.453092867505,-23923.228552726338,-23635.271028908617,18372.10576201746,8475.312110818877,25057.780749533267,51359.41372625992,0.0,0.0,0.0,193.0,0.0,193.0,0.0,1.0,0.0,178.0,193.0,1.0,178.0,1744418726.0509477,0.0,2025-04-11 20:45:26.050,BACKWARD,25
119.0,11325.584212015177,-7208.035255436333,-23949.156576294492,-23598.994147657653,18263.453932220214,8644.939499490201,24681.466779883718,51398.395168589974,0.0,0.0,0.0,193.0,0.0,193.0,0.0,1.0,0.0,178.0,193.0,1.0,178.0,1744418726.050985,0.0,2025-04-11 20:45:26.050,BACKWARD,25
120.0,11350.506407082845,-7172.875961408135,-23903.179037949925,-23570.29450777704,18278.18373181626,8769.058736450523,24335.14885129319,51486.88572488853,0.0,0.0,0.0,193.0,0.0,192.0,0.0,1.0,0.0,178.0,192.0,1.0,178.0,1744418726.0510323,0.0,2025-04-11 20:45:26.051,BACKWARD,25
121.0,11328.892270194563,-7198.602819276192,-23857.179147860905,-23594.300281322037,18460.998649716217,8679.025909784545,24494.98617589309,51511.69616123392,0.0,0.0,0.0,193.0,0.0,193.0,0.0,1.0,0.0,179.0,193.0,1.0,179.0,1744418726.0510674,0.0,2025-04-11 20:45:26.051,BACKWARD,25
122.0,11314.296581065248,-7196.322941341751,-23892.897235500484,-23617.277874622094,18418.575038740044,8479.000148654002,24524.535182063006,51393.6789505099,0.0,0.0,0.0,193.0,0.0,192.0,0.0,1.0,0.0,178.0,192.0,1.0,178.0,1744418726.051102,0.0,2025-04-11 20:45:26.051,BACKWARD,25
123.0,11310.742653696854,-7178.41919403305,-23929.73291036283,-23587.684164963266,18308.179772875283,8610.249592095566,24201.88775085065,51393.61189527654,0.0,0.0,0.0,193.0,0.0,193.0,0.0,1.0,0.0,179.0,193.0,1.0,179.0,1744418726.0511372,0.0,2025-04-11 20:45:26.051,BACKWARD,25
124.0,11323.10316838064,-7165.410478760062,-23913.103212488084,-23567.4111327423,18281.581196973468,8771.11509694041,23827.697196924353,51483.22003879787,0.0,0.0,0.0,193.0,0.0,192.0,0.0,1.0,0.0,178.0,192.0,1.0,178.0,1744418726.0511715,0.0,2025-04-11 20:45:26.051,BACKWARD,25
125.0,11318.118729367105,-7190.422080805551,-23863.594098519578,-23586.09719110694,18448.101693165507,8717.672075947772,23920.032253269226,51518.89342294853,0.0,0.0,0.0,193.0,0.0,193.0,0.0,1.0,0.0,179.0,193.0,1.0,179.0,1744418726.0512064,0.0,2025-04-11 20:45:26.051,BACKWARD,25
126.0,11292.548333710234,-7210.985685704432,-23908.45404964138,-23642.66945632332,18420.050253874095,8503.721178021571,24095.806371665763,51434.4932358853,0.0,0.0,0.0,193.0,0.0,192.0,0.0,0.0,0.0,178.0,192.0,0.0,178.0,1744418726.051259,0.0,2025-04-11 20:45:26.051,BACKWARD,25
127.0,11293.174182554983,-7192.277275595341,-23935.723177876855,-23605.923188438795,18293.226455834683,8562.729783383582,23830.91584812592,51384.98412191679,0.0,0.0,0.0,193.0,0.0,193.0,0.0,1.0,0.0,179.0,193.0,1.0,179.0,1744418726.0512938,0.0,2025-04-11 20:45:26.051,BACKWARD,25
128.0,11302.159583826016,-7186.510525525871,-23923.27325621525,-23575.211891557206,18253.88738559334,8781.083974967478,23487.235425381117,51485.432861498935,0.0,0.0,0.0,193.0,0.0,192.0,0.0,0.0,0.0,178.0,192.0,0.0,178.0,1744418726.051329,0.0,2025-04-11 20:45:26.051,BACKWARD,25
129.0,11298.940932624451,-7210.158671159586,-23880.5367208167,-23586.588929484955,18388.802515125575,8755.9159107108,23523.66876884327,51523.52023405078,0.0,0.0,0.0,193.0,0.0,193.0,0.0,1.0,0.0,179.0,193.0,1.0,179.0,1744418726.0513632,0.0,2025-04-11 20:45:26.051,BACKWARD,25
130.0,11279.271397503782,-7238.5677383622815,-23906.21887519585,-23640.501337111156,18426.10757662148,8557.275957736487,23787.531112138167,51458.47665768584,0.0,0.0,0.0,193.0,0.0,193.0,0.0,0.0,0.0,179.0,193.0,0.0,179.0,1744418726.0514116,0.0,2025-04-11 20:45:26.051,BACKWARD,25
131.0,11280.165467281993,-7228.308287657295,-23936.281971488235,-23612.829877475488,18314.751185745143,8544.02137327449,23594.657909233323,51381.2290288483,0.0,0.0,0.0,193.0,0.0,193.0,0.0,1.0,0.0,179.0,193.0,1.0,179.0,1744418726.051446,0.0,2025-04-11 20:45:26.051,BACKWARD,25
132.0,11284.412298728503,-7202.693188511514,-23938.539497678223,-23579.123446836886,18235.089568506428,8760.632128790872,23260.32051567084,51478.39206199552,0.0,0.0,0.0,193.0,0.0,192.0,0.0,0.0,0.0,178.0,192.0,0.0,178.0,1744418726.051481,0.0,2025-04-11 20:45:26.051,BACKWARD,25
133.0,11280.724260893378,-7201.508546055383,-23884.560034818656,-23579.592833470444,18351.408046651846,8747.48930305115,23206.653977233647,51520.30158284922,0.0,0.0,0.0,193.0,0.0,193.0,0.0,0.0,0.0,179.0,193.0,0.0,179.0,1744418726.0515156,0.0,2025-04-11 20:45:26.051,BACKWARD,25
134.0,11262.217016484383,-7226.676610312058,-23882.369563862034,-23625.592723559468,18453.376704856957,8570.910521854224,23534.9563997932,51485.07523358765,0.0,0.0,0.0,193.0,0.0,193.0,0.0,0.0,0.0,179.0,193.0,0.0,179.0,1744418726.05155,0.0,2025-04-11 20:45:26.051,BACKWARD,25
135.0,11269.660147388,-7201.888525711122,-23924.770823093753,-23614.372147842903,18323.356607360438,8489.617227270273,23424.650540906256,51373.80824968914,0.0,0.0,0.0,193.0,0.0,193.0,0.0,0.0,0.0,179.0,193.0,0.0,179.0,1744418726.051585,0.0,2025-04-11 20:45:26.051,BACKWARD,25
136.0,11288.27915051927,-7168.785592172813,-23941.69109364642,-23585.76191494011,18216.247047930607,8722.96943938368,23113.447202855015,51463.17052402145,0.0,0.0,0.0,193.0,0.0,193.0,0.0,0.0,0.0,178.0,193.0,0.0,178.0,1744418726.05162,0.0,2025-04-11 20:45:26.051,BACKWARD,25
137.0,11287.921522607985,-7180.967292900956,-23901.63676758251,-23588.734696952666,18302.52478152809,8779.049966222045,22974.419352343008,51529.53285330926,0.0,0.0,0.0,193.0,0.0,193.0,0.0,0.0,0.0,179.0,193.0,0.0,179.0,1744418726.0516543,0.0,2025-04-11 20:45:26.051,BACKWARD,25
138.0,11259.914786805486,-7231.057552225298,-23876.82633123712,-23621.189429901773,18458.78582701514,8629.025057438022,23293.244635253508,51511.07031238917,0.0,0.0,0.0,193.0,0.0,193.0,0.0,0.0,0.0,179.0,193.0,0.0,179.0,1744418726.051695,0.0,2025-04-11 20:45:26.051,BACKWARD,25
139.0,11267.201455497916,-7210.046912437309,-23899.468648370344,-23610.661758263323,18367.657764870855,8480.162439365678,23258.353562158773,51377.96567415782,0.0,0.0,0.0,193.0,0.0,193.0,0.0,0.0,0.0,178.0,193.0,0.0,178.0,1744418726.0517304,0.0,2025-04-11 20:45:26.051,BACKWARD,25
140.0,11266.575606653167,-7197.619342520159,-23930.87284933005,-23584.778438184076,18250.17699601376,8693.353377980397,22981.281337890785,51440.46115165486,0.0,0.0,0.0,193.0,0.0,193.0,0.0,0.0,0.0,178.0,193.0,0.0,178.0,1744418726.0517645,0.0,2025-04-11 20:45:26.051,BACKWARD,25
141.0,11282.333586494158,-7194.512450040871,-23895.981776235316,-23575.793036913044,18282.60937721841,8786.98483550368,22768.246861487256,51513.327838579164,0.0,0.0,0.0,193.0,0.0,192.0,0.0,0.0,0.0,179.0,192.0,0.0,179.0,1744418726.0519176,0.0,2025-04-11 20:45:26.051,BACKWARD,25
142.0,11259.780676338754,-7234.030334237855,-23866.030438665206,-23610.19237162976,18427.22516384425,8671.76159283657,23065.10037959819,51521.016838671785,0.0,0.0,0.0,193.0,0.0,193.0,0.0,0.0,0.0,179.0,193.0,0.0,179.0,1744418726.051954,0.0,2025-04-11 20:45:26.051,BACKWARD,25
143.0,11250.705868089899,-7250.4812181569605,-23908.901084530484,-23629.34781662796,18353.218537952725,8467.824276426349,23124.354854149205,51389.70033999686,0.0,0.0,0.0,193.0,0.0,192.0,0.0,0.0,0.0,178.0,192.0,0.0,178.0,1744418726.0519886,0.0,2025-04-11 20:45:26.051,BACKWARD,25
144.0,11260.406525183502,-7220.1946044200195,-23930.381110952036,-23586.678336462777,18249.148815768818,8646.012383224057,22866.48277836833,51432.168654461944,0.0,0.0,0.0,193.0,0.0,193.0,0.0,0.0,0.0,179.0,193.0,0.0,179.0,1744418726.0520227,0.0,2025-04-11 20:45:26.052,BACKWARD,25
145.0,11280.925426593474,-7171.914836396556,-23902.039098982706,-23568.819292642987,18239.448158675215,8797.177230975298,22602.82160077353,51535.03138244527,0.0,0.0,0.0,193.0,0.0,192.0,0.0,0.0,0.0,178.0,192.0,0.0,178.0,1744418726.0520737,0.0,2025-04-11 20:45:26.052,BACKWARD,25
146.0,11246.794312810222,-7220.552232331304,-23868.35502008856,-23599.441182546758,18409.142602579905,8706.071520575468,22836.08440590911,51568.33548168367,0.0,0.0,0.0,193.0,0.0,193.0,0.0,0.0,0.0,179.0,193.0,0.0,179.0,1744418726.0521083,0.0,2025-04-11 20:45:26.052,BACKWARD,25
147.0,11246.347277921115,-7251.151770490619,-23897.30052915818,-23627.939656727274,18384.26511100115,8486.130355135245,22986.712811793426,51456.643814640505,0.0,0.0,0.0,193.0,0.0,192.0,0.0,0.0,0.0,178.0,192.0,0.0,178.0,1744418726.0521426,0.0,2025-04-11 20:45:26.052,BACKWARD,25
148.0,11232.64565857001,-7252.112895502198,-23949.871832117064,-23619.49069732317,18257.821292617475,8599.632513479295,22765.36348645252,51454.58745415061,0.0,0.0,0.0,193.0,0.0,193.0,0.0,0.0,0.0,179.0,193.0,0.0,179.0,1744418726.052177,0.0,2025-04-11 20:45:26.052,BACKWARD,25
149.0,11249.6553361005,-7215.053703195299,-23932.102195275093,-23597.541284268056,18212.670768817756,8773.976120230689,22455.43419783523,51551.571673342194,0.0,0.0,0.0,193.0,0.0,192.0,0.0,0.0,0.0,178.0,192.0,0.0,178.0,1744418726.0522113,0.0,2025-04-11 20:45:26.052,BACKWARD,25
150.0,11237.853615028098,-7236.421970894572,-23885.83408425261,-23611.466421063713,18367.478950915214,8714.0063898571,22589.99169945618,51578.349063199654,0.0,0.0,0.0,193.0,0.0,193.0,0.0,0.0,0.0,179.0,193.0,0.0,179.0,1744418726.052246,0.0,2025-04-11 20:45:26.052,BACKWARD,25
151.0,11219.525184574746,-7270.016642810899,-23912.49971538779,-23653.286534939594,18375.39146845239,8494.40050058371,22829.647103505984,51490.1043760901,0.0,0.0,0.0,193.0,0.0,192.0,0.0,0.0,0.0,178.0,192.0,0.0,178.0,1744418726.052282,0.0,2025-04-11 20:45:26.052,BACKWARD,25
152.0,11223.45909159888,-7256.359726948706,-23945.557945437187,-23621.569409557513,18249.774664613567,8523.25660267551,22629.91191505336,51433.353296918074,0.0,0.0,0.0,193.0,0.0,193.0,0.0,0.0,0.0,179.0,193.0,0.0,179.0,1744418726.052322,0.0,2025-04-11 20:45:26.052,BACKWARD,25
153.0,11243.46390288638,-7238.523034873371,-23946.11673904857,-23587.728868452177,18181.423030069236,8739.867358191892,22323.871829971296,51542.58627207116,0.0,0.0,0.0,193.0,0.0,192.0,0.0,0.0,0.0,178.0,192.0,0.0,178.0,1744418726.0523565,0.0,2025-04-11 20:45:26.052,BACKWARD,25
154.0,11262.217016484383,-7250.458866412505,-23884.001241207272,-23587.32653705198,18313.544191544555,8721.62833471636,22354.314905919422,51581.59006614567,0.0,0.0,0.0,193.0,0.0,193.0,0.0,0.0,0.0,179.0,193.0,0.0,179.0,1744418726.0523949,0.0,2025-04-11 20:45:26.052,BACKWARD,25
155.0,11221.045103197706,-7279.314968504306,-23898.418116380944,-23639.450805121756,18385.382698223915,8534.052495247424,22668.111046327478,51529.28698412025,0.0,0.0,0.0,193.0,0.0,192.0,0.0,0.0,0.0,178.0,192.0,0.0,178.0,1744418726.0524569,0.0,2025-04-11 20:45:26.052,BACKWARD,25
156.0,11184.656463224466,-7265.702756131024,-23953.984553096838,-23645.82105229152,18258.313030995494,8510.136128680246,22536.280457530076,51458.43195419693,0.0,0.0,0.0,193.0,0.0,193.0,0.0,0.0,0.0,179.0,193.0,0.0,179.0,1744418726.05261,0.0,2025-04-11 20:45:26.052,BACKWARD,25
157.0,11201.196754121394,-7238.634793595647,-23956.711465920387,-23608.404232073335,18175.41041081076,8726.545718496529,22210.88376174972,51550.92347275299,0.0,0.0,0.0,193.0,0.0,192.0,0.0,0.0,0.0,178.0,192.0,0.0,178.0,1744418726.052662,0.0,2025-04-11 20:45:26.052,BACKWARD,25
158.0,11210.606838537078,-7254.504532158916,-23906.6435583405,-23605.7220227387,18279.278967294573,8740.269689592087,22148.18711855258,51595.29168549677,0.0,0.0,0.0,193.0,0.0,193.0,0.0,0.0,0.0,179.0,193.0,0.0,179.0,1744418726.0527143,0.0,2025-04-11 20:45:26.052,BACKWARD,25
159.0,11193.954788917874,-7290.848468643245,-23901.480305371322,-23651.610154105445,18392.87053261644,8575.090298067367,22495.600282621417,51560.84764729114,0.0,0.0,0.0,193.0,0.0,192.0,0.0,0.0,0.0,178.0,192.0,0.0,178.0,1744418726.0528076,0.0,2025-04-11 20:45:26.052,BACKWARD,25
160.0,11193.574809262134,-7280.700776660536,-23944.954448336895,-23647.318619170026,18284.933958641763,8472.115811361768,22417.324473538934,51444.30565170117,0.0,0.0,0.0,193.0,0.0,193.0,0.0,0.0,0.0,179.0,193.0,0.0,179.0,1744418726.0528717,0.0,2025-04-11 20:45:26.052,BACKWARD,25
161.0,11202.604914022078,-7259.600729894725,-23964.22165205737,-23605.453801805237,18179.07609690143,8707.323218264964,22136.85478411374,51535.92545222348,0.0,0.0,0.0,193.0,0.0,193.0,0.0,0.0,0.0,179.0,193.0,0.0,179.0,1744418726.052904,0.0,2025-04-11 20:45:26.052,BACKWARD,25
162.0,11213.333751360626,-7255.86798857069,-23924.100270760093,-23602.39161281486,18234.150795239308,8768.321128883497,22018.16702105606,51618.22457530792,0.0,0.0,0.0,193.0,0.0,192.0,0.0,0.0,0.0,178.0,192.0,0.0,178.0,1744418726.0529363,0.0,2025-04-11 20:45:26.052,BACKWARD,25
163.0,11182.264826567749,-7298.3810065246835,-23910.979796764826,-23651.811319805543,18366.428418925814,8614.094092141879,22361.400408911755,51618.135168330096,0.0,0.0,0.0,193.0,0.0,193.0,0.0,0.0,0.0,179.0,193.0,0.0,179.0,1744418726.052968,0.0,2025-04-11 20:45:26.052,BACKWARD,25
164.0,11182.220123078838,-7292.927180877588,-23942.562811680178,-23650.581973860502,18281.402383017827,8456.313128031865,22350.917440762216,51485.81284115468,0.0,0.0,0.0,193.0,0.0,192.0,0.0,0.0,0.0,178.0,192.0,0.0,178.0,1744418726.0529997,0.0,2025-04-11 20:45:26.052,BACKWARD,25
165.0,11179.850838166576,-7276.476296958483,-23965.428646257955,-23612.740470497665,18191.928349963233,8673.862656815369,22079.366097374692,51545.20142617243,0.0,0.0,0.0,193.0,0.0,193.0,0.0,0.0,0.0,179.0,193.0,0.0,179.0,1744418726.053031,0.0,2025-04-11 20:45:26.053,BACKWARD,25
166.0,11204.728329745332,-7245.675593099069,-23928.101233017594,-23594.18852259976,18231.803862071498,8776.144239442854,21865.392847704035,51627.09821785668,0.0,0.0,0.0,193.0,0.0,192.0,0.0,0.0,0.0,178.0,192.0,0.0,178.0,1744418726.053062,0.0,2025-04-11 20:45:26.053,BACKWARD,25
167.0,11175.514599742246,-7291.20609655453,-23902.374375149535,-23634.48871785268,18384.77920112362,8660.943348520203,22164.727409449508,51648.51118904486,0.0,0.0,0.0,193.0,0.0,193.0,0.0,0.0,0.0,178.0,193.0,0.0,178.0,1744418726.0530927,0.0,2025-04-11 20:45:26.053,BACKWARD,25
168.0,11159.331936756604,-7298.49276524696,-23935.74552962131,-23655.074674496016,18312.62777002189,8456.737811176517,22245.327799955347,51521.933260194455,0.0,0.0,0.0,193.0,0.0,192.0,0.0,0.0,0.0,178.0,192.0,0.0,178.0,1744418726.0531237,0.0,2025-04-11 20:45:26.053,BACKWARD,25
169.0,11156.962651844342,-7281.103108060731,-23955.795044397717,-23607.264293106116,18199.21501865566,8627.66160102625,21996.150552767584,51543.167417426994,0.0,0.0,0.0,193.0,0.0,193.0,0.0,0.0,0.0,179.0,193.0,0.0,179.0,1744418726.0531547,0.0,2025-04-11 20:45:26.053,BACKWARD,25
170.0,11171.245416551283,-7274.978730079977,-23930.26935222976,-23590.925167909285,18186.87685571633,8783.743832557659,21752.91886960493,51652.33333734672,0.0,0.0,0.0,193.0,0.0,193.0,0.0,0.0,0.0,179.0,193.0,0.0,179.0,1744418726.0531852,0.0,2025-04-11 20:45:26.053,BACKWARD,25
171.0,11159.39899198997,-7314.295448576862,-23885.051773196672,-23614.930941454288,18348.77054080612,8705.535078708539,22001.514971436856,51696.343922179214,0.0,0.0,0.0,193.0,0.0,192.0,0.0,0.0,0.0,178.0,192.0,0.0,178.0,1744418726.0532336,0.0,2025-04-11 20:45:26.053,BACKWARD,25
172.0,11142.322259226115,-7336.870710476722,-23922.736814348318,-23654.53823262909,18316.315807857016,8484.230456856545,22206.860447747764,51588.07207203771,0.0,0.0,0.0,193.0,0.0,193.0,0.0,0.0,0.0,179.0,193.0,0.0,179.0,1744418726.0532649,0.0,2025-04-11 20:45:26.053,BACKWARD,25
173.0,11136.421398689914,-7309.221602585507,-23957.136149065038,-23621.68116827979,18209.608579827378,8580.0747370809,22006.16413428356,51564.714499081914,0.0,0.0,0.0,193.0,0.0,193.0,0.0,0.0,0.0,179.0,193.0,0.0,179.0,1744418726.0532956,0.0,2025-04-11 20:45:26.053,BACKWARD,25
174.0,11155.733305899299,-7278.82323012629,-23941.892259346518,-23591.081630120472,18171.923538675732,8780.50282961164,21737.429110697405,51675.735613791425,0.0,0.0,0.0,193.0,0.0,192.0,0.0,0.0,0.0,178.0,192.0,0.0,178.0,1744418726.0533261,0.0,2025-04-11 20:45:26.053,BACKWARD,25
175.0,11145.898538338964,-7301.756119937435,-23897.412287880456,-23615.556790299033,18319.95914220323,8732.20070984372,21919.037034396773,51719.38857071264,0.0,0.0,0.0,193.0,0.0,193.0,0.0,0.0,0.0,179.0,193.0,0.0,179.0,1744418726.0533693,0.0,2025-04-11 20:45:26.053,BACKWARD,25
176.0,11123.144462483462,-7327.818253972323,-23922.468593414855,-23667.25637522416,18337.95229648975,8494.06522441688,22229.614523603264,51627.1876248345,0.0,0.0,0.0,193.0,0.0,193.0,0.0,0.0,0.0,179.0,193.0,0.0,179.0,1744418726.0534008,0.0,2025-04-11 20:45:26.053,BACKWARD,25
177.0,11128.263011963727,-7297.643398957658,-23949.715369905876,-23633.99697947466,18228.8534318034,8515.120567693779,22078.807303763308,51556.19848444444,0.0,0.0,0.0,193.0,0.0,193.0,0.0,0.0,0.0,179.0,193.0,0.0,179.0,1744418726.0534315,0.0,2025-04-11 20:45:26.053,BACKWARD,25
178.0,11136.175529500906,-7265.6804043865695,-23950.475329217355,-23606.571389028002,18175.07513464393,8759.246320634642,21822.477498349846,51681.05532897179,0.0,0.0,0.0,193.0,0.0,192.0,0.0,0.0,0.0,178.0,192.0,0.0,178.0,1744418726.0534625,0.0,2025-04-11 20:45:26.053,BACKWARD,25
179.0,11129.447654419859,-7263.244064240941,-23899.20042743688,-23614.95329319874,18305.29639784055,8745.410590816808,21860.028429034763,51721.46728294698,0.0,0.0,0.0,193.0,0.0,193.0,0.0,0.0,0.0,179.0,193.0,0.0,179.0,1744418726.0534935,0.0,2025-04-11 20:45:26.053,BACKWARD,25
180.0,11109.040511732162,-7310.026265385898,-23913.393785166,-23660.17087223183,18364.39441018038,8553.319698967898,22193.024717929926,51668.98538696592,0.0,0.0,0.0,193.0,0.0,192.0,0.0,0.0,0.0,178.0,192.0,0.0,178.0,1744418726.0535245,0.0,2025-04-11 20:45:26.053,BACKWARD,25
181.0,11130.542889898168,-7310.9426869085655,-23939.88060234554,-23621.34589211296,18245.773702356066,8500.793099497927,22068.23492863595,51573.20816197493,0.0,0.0,0.0,193.0,0.0,193.0,0.0,0.0,0.0,179.0,193.0,0.0,179.0,1744418726.053555,0.0,2025-04-11 20:45:26.053,BACKWARD,25
182.0,11135.7284946118,-7284.4111662401165,-23944.574468681156,-23579.212853814704,18156.6349454683,8733.385352299852,21783.40664904197,51681.01062548288,0.0,0.0,0.0,193.0,0.0,192.0,0.0,0.0,0.0,178.0,192.0,0.0,178.0,1744418726.0535858,0.0,2025-04-11 20:45:26.053,BACKWARD,25
183.0,11137.784855101689,-7277.191552781052,-23891.4890755998,-23568.52871996507,18242.33153370995,8772.031518463078,21717.91603778792,51748.155265826616,0.0,0.0,0.0,193.0,0.0,193.0,0.0,0.0,0.0,179.0,193.0,0.0,179.0,1744418726.0536168,0.0,2025-04-11 20:45:26.053,BACKWARD,25
184.0,11114.069654234607,-7317.312934078328,-23887.44340985339,-23617.411985088824,18359.365267677935,8602.694702469671,22083.054135209815,51721.71315213599,0.0,0.0,0.0,193.0,0.0,193.0,0.0,0.0,0.0,178.0,193.0,0.0,178.0,1744418726.0536475,0.0,2025-04-11 20:45:26.053,BACKWARD,25
185.0,11104.81603203011,-7318.966963168021,-23924.70376786039,-23617.300226366548,18260.078818807462,8486.1527068797,22059.11541689818,51600.96902858842,0.0,0.0,0.0,193.0,0.0,193.0,0.0,0.0,0.0,179.0,193.0,0.0,179.0,1744418726.0536785,0.0,2025-04-11 20:45:26.053,BACKWARD,25
186.0,11109.241677432261,-7290.423785498594,-23939.344160478613,-23583.10205734993,18161.14999784827,8710.966552611178,21824.444451861913,51682.91052376158,0.0,0.0,0.0,193.0,0.0,193.0,0.0,0.0,0.0,178.0,193.0,0.0,178.0,1744418726.0537095,0.0,2025-04-11 20:45:26.053,BACKWARD,25
187.0,11125.625506118002,-7270.664843400103,-23893.768953534243,-23572.596737455933,18225.344207923914,8774.043175464056,21707.9248080164,51754.033774618365,0.0,0.0,0.0,193.0,0.0,193.0,0.0,0.0,0.0,179.0,193.0,0.0,179.0,1744418726.053764,0.0,2025-04-11 20:45:26.053,BACKWARD,25
188.0,11083.872447475487,-7330.276945862406,-23887.44340985339,-23628.96783697222,18380.35355572147,8641.787903522003,22094.94526326004,51770.752879470936,0.0,0.0,0.0,193.0,0.0,192.0,0.0,0.0,0.0,178.0,192.0,0.0,178.0,1744418726.053796,0.0,2025-04-11 20:45:26.053,BACKWARD,25
189.0,11074.797639226634,-7328.064123161331,-23933.331541220134,-23645.753997058153,18279.39072601685,8455.352003020287,22140.364007993223,51641.71625873045,0.0,0.0,0.0,193.0,0.0,193.0,0.0,0.0,0.0,179.0,193.0,0.0,179.0,1744418726.053827,0.0,2025-04-11 20:45:26.053,BACKWARD,25
190.0,11085.928807965376,-7303.231335071485,-23963.998134612815,-23606.95136868374,18163.765151949545,8655.690688573204,21898.62989170908,51696.43332915704,0.0,0.0,0.0,193.0,0.0,192.0,0.0,0.0,0.0,178.0,192.0,0.0,178.0,1744418726.053871,0.0,2025-04-11 20:45:26.053,BACKWARD,25
191.0,11104.90543900793,-7288.926218620089,-23925.64254112751,-23586.298356807038,18181.154809135773,8771.897407996346,21696.48071485528,51784.990940688964,0.0,0.0,0.0,193.0,0.0,193.0,0.0,0.0,0.0,179.0,193.0,0.0,179.0,1744418726.053902,0.0,2025-04-11 20:45:26.053,BACKWARD,25
192.0,11085.10179342053,-7313.088454376275,-23880.581424305612,-23609.834743718475,18354.7831600646,8667.961796279169,21992.082535276717,51798.67020829561,0.0,0.0,0.0,193.0,0.0,193.0,0.0,0.0,0.0,179.0,193.0,0.0,179.0,1744418726.053933,0.0,2025-04-11 20:45:26.053,BACKWARD,25
193.0,11065.566368766591,-7344.067972191331,-23926.02252078325,-23649.62084884892,18309.118546142407,8464.62797696924,22132.51854568941,51676.22735216944,0.0,0.0,0.0,193.0,0.0,193.0,0.0,0.0,0.0,178.0,193.0,0.0,178.0,1744418726.0539637,0.0,2025-04-11 20:45:26.053,BACKWARD,25
194.0,11072.182485125362,-7324.197271370563,-23947.010808826784,-23604.067993649005,18200.712585534166,8606.94153391618,21915.348996561646,51685.57038135176,0.0,0.0,0.0,193.0,0.0,193.0,0.0,0.0,0.0,179.0,193.0,0.0,179.0,1744418726.0539947,0.0,2025-04-11 20:45:26.053,BACKWARD,25
195.0,11081.793735241145,-7303.141928093663,-23928.861192329074,-23582.565615483003,18171.320041575436,8765.638919548861,21674.732467500267,51785.37092034471,0.0,0.0,0.0,193.0,0.0,193.0,0.0,0.0,0.0,179.0,193.0,0.0,179.0,1744418726.0540252,0.0,2025-04-11 20:45:26.054,BACKWARD,25
196.0,11073.300072348127,-7334.4790738200045,-23888.695107542888,-23602.168095370307,18314.70648225623,8684.926770320746,21894.114839329104,51815.411664892636,0.0,0.0,0.0,193.0,0.0,193.0,0.0,0.0,0.0,179.0,193.0,0.0,179.0,1744418726.054056,0.0,2025-04-11 20:45:26.054,BACKWARD,25
197.0,11052.915281404887,-7358.328385153817,-23918.467631157357,-23639.696674310766,18303.37414781739,8475.446221285609,22120.493307172455,51722.294297491826,0.0,0.0,0.0,193.0,0.0,193.0,0.0,0.0,0.0,178.0,193.0,0.0,178.0,1744418726.0540867,0.0,2025-04-11 20:45:26.054,BACKWARD,25
198.0,11048.646098213923,-7330.768684240424,-23947.904878604997,-23604.71619423821,18204.668844302756,8567.066021807912,21935.510270060335,51701.66363735958,0.0,0.0,0.0,193.0,0.0,193.0,0.0,0.0,0.0,179.0,193.0,0.0,179.0,1744418726.0541177,0.0,2025-04-11 20:45:26.054,BACKWARD,25
199.0,11059.956080908309,-7308.819271185312,-23947.726064649352,-23585.113714350908,18157.171387335227,8769.326957383986,21674.173673888883,51818.96559226103,0.0,0.0,0.0,193.0,0.0,193.0,0.0,0.0,0.0,178.0,193.0,0.0,178.0,1744418726.0541484,0.0,2025-04-11 20:45:26.054,BACKWARD,25
200.0,11051.57417673757,-7341.542225067881,-23902.664947827452,-23607.219589617205,18297.09330762545,8714.319314279475,21794.26959684725,51855.533046189914,0.0,0.0,0.0,193.0,0.0,193.0,0.0,0.0,0.0,179.0,193.0,0.0,179.0,1744418726.0541792,0.0,2025-04-11 20:45:26.054,BACKWARD,25
201.0,11023.120406045962,-7380.836591820311,-23927.58714289512,-23659.29915419807,18325.278857383593,8502.983570454548,22098.543894117345,51782.91222845462,0.0,0.0,0.0,193.0,0.0,192.0,0.0,0.0,0.0,178.0,192.0,0.0,178.0,1744418726.0542104,0.0,2025-04-11 20:45:26.054,BACKWARD,25
202.0,11011.98923730722,-7375.852152806778,-23971.37421028307,-23638.266162665626,18194.968187209153,8522.004904986014,21956.29739240377,51722.47311144747,0.0,0.0,0.0,193.0,0.0,193.0,0.0,0.0,0.0,179.0,193.0,0.0,179.0,1744418726.0542555,0.0,2025-04-11 20:45:26.054,BACKWARD,25
203.0,11014.023246052653,-7360.7200218105345,-23979.37613479807,-23608.895970451355,18102.320206441906,8747.981041429168,21677.86171172401,51832.823673823324,0.0,0.0,0.0,193.0,0.0,192.0,0.0,0.0,0.0,178.0,192.0,0.0,178.0,1744418726.0542867,0.0,2025-04-11 20:45:26.054,BACKWARD,25
204.0,11011.117519273463,-7368.856056792267,-23922.87092481505,-23609.81239197402,18229.389873670327,8740.046172147533,21691.317461886105,51880.87992440223,0.0,0.0,0.0,193.0,0.0,193.0,0.0,0.0,0.0,179.0,193.0,0.0,179.0,1744418726.0543177,0.0,2025-04-11 20:45:26.054,BACKWARD,25
205.0,10978.59573109099,-7416.5993829488025,-23938.964180822873,-23671.547910159577,18307.263351352616,8544.40135293023,22037.210707331982,51840.087990771295,0.0,0.0,0.0,193.0,0.0,193.0,0.0,0.0,0.0,178.0,193.0,0.0,178.0,1744418726.0543487,0.0,2025-04-11 20:45:26.054,BACKWARD,25
206.0,10982.08260322602,-7410.22913577904,-23973.4082190285,-23654.11354948444,18195.281111631528,8473.166343351168,21925.206115866436,51730.966774340486,0.0,0.0,0.0,193.0,0.0,193.0,0.0,0.0,0.0,179.0,193.0,0.0,179.0,1744418726.0543923,0.0,2025-04-11 20:45:26.054,BACKWARD,25
207.0,10981.635568336913,-7391.811298347867,-23977.52094000828,-23611.6228832749,18107.39405243326,8711.72651192266,21634.56638271408,51819.14440621667,0.0,0.0,0.0,193.0,0.0,192.0,0.0,0.0,0.0,178.0,192.0,0.0,178.0,1744418726.0544238,0.0,2025-04-11 20:45:26.054,BACKWARD,25
208.0,10998.041748767107,-7382.401213932182,-23923.340311448614,-23603.732717482177,18198.544466322,8755.312413610509,21561.587937067503,51884.85853491528,0.0,0.0,0.0,193.0,0.0,193.0,0.0,0.0,0.0,179.0,193.0,0.0,179.0,1744418726.0544546,0.0,2025-04-11 20:45:26.054,BACKWARD,25
209.0,10960.088486681996,-7433.206729079096,-23915.807773567176,-23653.465348895235,18334.66659005482,8590.758870930538,21933.856240970643,51875.44845049959,0.0,0.0,0.0,193.0,0.0,192.0,0.0,0.0,0.0,178.0,192.0,0.0,178.0,1744418726.054485,0.0,2025-04-11 20:45:26.054,BACKWARD,25
210.0,10936.373285814916,-7457.704241002112,-23964.3557625241,-23665.49058741219,18215.8000130415,8437.068276055847,21896.95351087493,51749.87635014968,0.0,0.0,0.0,193.0,0.0,193.0,0.0,0.0,0.0,179.0,193.0,0.0,179.0,1744418726.0545166,0.0,2025-04-11 20:45:26.054,BACKWARD,25
211.0,10923.766901942123,-7443.667345484179,-23975.26341381829,-23614.327444353992,18112.87022982481,8674.24263647111,21622.98817908623,51819.07735098331,0.0,0.0,0.0,193.0,0.0,192.0,0.0,0.0,0.0,178.0,192.0,0.0,178.0,1744418726.0545475,0.0,2025-04-11 20:45:26.054,BACKWARD,25
212.0,10931.83588169049,-7432.826749423355,-23929.509392918277,-23595.820199945,18169.710715974656,8783.78853604657,21473.075029024487,51906.003285169994,0.0,0.0,0.0,193.0,0.0,193.0,0.0,0.0,0.0,179.0,193.0,0.0,179.0,1744418726.0545788,0.0,2025-04-11 20:45:26.054,BACKWARD,25
213.0,10889.412270714316,-7492.036520485463,-23918.78055557973,-23645.843404035975,18317.098118912952,8661.032755498023,21818.83416400363,51911.3006486059,0.0,0.0,0.0,193.0,0.0,192.0,0.0,0.0,0.0,178.0,192.0,0.0,178.0,1744418726.0546098,0.0,2025-04-11 20:45:26.054,BACKWARD,25
214.0,10865.071221002487,-7513.225974229094,-23954.342181008124,-23658.29332569758,18226.014760257574,8475.178000352145,21878.64743216603,51781.30290285384,0.0,0.0,0.0,193.0,0.0,193.0,0.0,0.0,0.0,178.0,193.0,0.0,178.0,1744418726.5302055,0.0,2025-04-11 20:45:26.530,BACKWARD,25
215.0,10863.037212257053,-7491.7906512964555,-23976.001021385317,-23617.277874622094,18107.774032089,8656.070668228946,21634.879307136456,51822.40776090715,0.0,0.0,0.0,193.0,0.0,192.0,0.0,0.0,0.0,178.0,192.0,0.0,178.0,1744418726.5304432,0.0,2025-04-11 20:45:26.530,BACKWARD,25
216.0,10868.96042453771,-7481.508848847014,-23944.507413447787,-23601.184618614272,18125.431910208692,8802.69811185576,21431.05374944851,51930.344334881825,0.0,0.0,0.0,193.0,0.0,193.0,0.0,0.0,0.0,179.0,193.0,0.0,179.0,1744418726.5305011,0.0,2025-04-11 20:45:26.530,BACKWARD,25
217.0,10845.915776004289,-7522.032561544485,-23917.573561379144,-23638.28851441008,18284.799848175033,8696.01323557058,21718.832459310586,51958.61929161779,0.0,0.0,0.0,193.0,0.0,192.0,0.0,0.0,0.0,178.0,192.0,0.0,178.0,1744418726.5307703,0.0,2025-04-11 20:45:26.530,BACKWARD,25
218.0,10844.66407831479,-7516.377570197293,-23951.145881551016,-23664.86473856744,18249.7076093802,8463.91272114667,21849.254888207306,51820.932545773096,0.0,0.0,0.0,193.0,0.0,193.0,0.0,0.0,0.0,179.0,193.0,0.0,179.0,1744418726.530815,0.0,2025-04-11 20:45:26.530,BACKWARD,25
219.0,10842.451255613716,-7496.082186231874,-23988.719163980386,-23628.05141544955,18139.871137126822,8607.790900205482,21630.073682078564,51824.48647314149,0.0,0.0,0.0,193.0,0.0,193.0,0.0,0.0,0.0,179.0,193.0,0.0,179.0,1744418726.530851,0.0,2025-04-11 20:45:26.530,BACKWARD,25
220.0,10837.28800264454,-7478.491363345548,-23974.88343416255,-23603.598607015447,18107.841087322366,8784.414384891317,21377.633080200325,51928.19856741412,0.0,0.0,0.0,193.0,0.0,193.0,0.0,0.0,0.0,178.0,193.0,0.0,178.0,1744418726.5308867,0.0,2025-04-11 20:45:26.530,BACKWARD,25
221.0,10825.016894938577,-7481.821773269388,-23928.41415743997,-23628.05141544955,18276.060316093008,8718.789663170537,21576.340088408004,51957.70287009512,0.0,0.0,0.0,193.0,0.0,192.0,0.0,0.0,0.0,179.0,192.0,0.0,179.0,1744418726.5309598,0.0,2025-04-11 20:45:26.530,BACKWARD,25
222.0,10798.060691125476,-7507.861555559821,-23967.46265500339,-23677.716991629244,18253.28388849305,8499.876677975259,21819.21414365937,51859.377546236225,0.0,0.0,0.0,193.0,0.0,193.0,0.0,0.0,0.0,179.0,193.0,0.0,179.0,1744418726.5309987,0.0,2025-04-11 20:45:26.530,BACKWARD,25
223.0,10800.675845226748,-7511.616648628313,-23993.74830648283,-23640.568392344525,18119.463994439127,8559.55583567093,21634.253458291707,51822.184243462594,0.0,0.0,0.0,193.0,0.0,192.0,0.0,0.0,0.0,178.0,192.0,0.0,178.0,1744418726.5310354,0.0,2025-04-11 20:45:26.531,BACKWARD,25
224.0,10815.80797622299,-7484.682796559668,-23983.444152288932,-23610.61705477441,18078.78381953047,8762.30850962502,21363.149149793288,51933.51828259448,0.0,0.0,0.0,193.0,0.0,193.0,0.0,0.0,0.0,178.0,193.0,0.0,178.0,1744418726.5310729,0.0,2025-04-11 20:45:26.531,BACKWARD,25
225.0,10798.306560314484,-7498.250305444039,-23938.69595988941,-23631.29241839557,18227.154699224797,8719.43786375974,21459.753389329122,51973.90788482522,0.0,0.0,0.0,193.0,0.0,192.0,0.0,0.0,0.0,178.0,192.0,0.0,178.0,1744418726.5311377,0.0,2025-04-11 20:45:26.531,BACKWARD,25
226.0,10766.70119365468,-7538.081114063396,-23958.007867098793,-23686.188302777806,18273.311051525005,8522.340181152842,21771.671983202934,51905.26567760297,0.0,0.0,0.0,193.0,0.0,193.0,0.0,0.0,0.0,179.0,193.0,0.0,179.0,1744418726.531176,0.0,2025-04-11 20:45:26.531,BACKWARD,25
227.0,10766.745897143592,-7531.129721537795,-23987.780390713262,-23654.068845995527,18152.611631466345,8514.807643271404,21625.938609354333,51823.525348129915,0.0,0.0,0.0,193.0,0.0,192.0,0.0,0.0,0.0,178.0,192.0,0.0,178.0,1744418726.5312123,0.0,2025-04-11 20:45:26.531,BACKWARD,25
228.0,10767.170580288242,-7508.375645682293,-23998.911559452004,-23627.20204916025,18075.162836928706,8748.383372829363,21351.123911276332,51933.89826225022,0.0,0.0,0.0,193.0,0.0,193.0,0.0,0.0,0.0,178.0,193.0,0.0,178.0,1744418726.531248,0.0,2025-04-11 20:45:26.531,BACKWARD,25
229.0,10775.731298414625,-7498.093843232852,-23953.671628674463,-23630.644217806366,18183.7923149815,8740.068523891989,21334.85184131287,51976.47833543758,0.0,0.0,0.0,193.0,0.0,192.0,0.0,0.0,0.0,178.0,192.0,0.0,178.0,1744418726.5312853,0.0,2025-04-11 20:45:26.531,BACKWARD,25
230.0,10759.45922845116,-7531.934384338187,-23959.863061888584,-23672.419628193336,18286.655042964823,8558.84057984836,21687.182389161873,51935.95462274011,0.0,0.0,0.0,193.0,0.0,193.0,0.0,0.0,0.0,179.0,193.0,0.0,179.0,1744418726.5313241,0.0,2025-04-11 20:45:26.531,BACKWARD,25
231.0,10747.925728312222,-7529.028657558997,-23990.015565158792,-23653.197127961772,18175.7903904665,8474.753317207495,21603.139830009917,51830.47674065551,0.0,0.0,0.0,193.0,0.0,192.0,0.0,0.0,0.0,178.0,192.0,0.0,178.0,1744418726.5313628,0.0,2025-04-11 20:45:26.531,BACKWARD,25
232.0,10741.488425909094,-7510.610820127824,-24011.80851600272,-23623.648121791855,18074.760505528513,8715.928639880258,21336.952905291666,51934.56881458388,0.0,0.0,0.0,193.0,0.0,193.0,0.0,0.0,0.0,179.0,193.0,0.0,179.0,1744418726.531464,0.0,2025-04-11 20:45:26.531,BACKWARD,25
233.0,10757.246405750086,-7483.118174447796,-23956.10796882009,-23616.808487988532,18158.91482340274,8764.297814881542,21241.265087278498,52000.21588804912,0.0,0.0,0.0,193.0,0.0,193.0,0.0,0.0,0.0,179.0,193.0,0.0,179.0,1744418726.5315063,0.0,2025-04-11 20:45:26.531,BACKWARD,25
234.0,10731.094864737375,-7518.076302775897,-23942.138128535527,-23662.696619355276,18294.053470379527,8605.734539715593,21605.732632366733,51991.74457690056,0.0,0.0,0.0,193.0,0.0,193.0,0.0,0.0,0.0,178.0,193.0,0.0,178.0,1744418726.5315452,0.0,2025-04-11 20:45:26.531,BACKWARD,25
235.0,10739.879100308312,-7530.7720936265105,-23972.625907972564,-23655.16408147384,18178.65141375678,8450.501674473486,21583.425591400337,51858.14820029119,0.0,0.0,0.0,193.0,0.0,192.0,0.0,0.0,0.0,178.0,192.0,0.0,178.0,1744418726.5315807,0.0,2025-04-11 20:45:26.531,BACKWARD,25
236.0,10749.289184723995,-7529.96743082612,-23995.894073950538,-23615.892066465865,18080.95193874263,8677.505991161584,21334.918896546234,51932.80302677191,0.0,0.0,0.0,193.0,0.0,193.0,0.0,0.0,0.0,179.0,193.0,0.0,179.0,1744418726.5316713,0.0,2025-04-11 20:45:26.531,BACKWARD,25
237.0,10754.228920248619,-7520.736160366078,-23963.998134612815,-23609.231246618183,18126.124814286806,8781.59806508995,21172.37701086724,52019.86307142533,0.0,0.0,0.0,193.0,0.0,193.0,0.0,0.0,0.0,179.0,193.0,0.0,179.0,1744418726.5317135,0.0,2025-04-11 20:45:26.531,BACKWARD,25
238.0,10726.803329801956,-7539.377515241804,-23938.673608144953,-23648.503261626156,18277.803752160522,8660.362203164364,21506.312073029527,52023.84168193838,0.0,0.0,0.0,193.0,0.0,193.0,0.0,0.0,0.0,178.0,193.0,0.0,178.0,1744418726.531751,0.0,2025-04-11 20:45:26.531,BACKWARD,25
239.0,10732.100693237864,-7523.820701100911,-23969.07198060417,-23661.82490132152,18217.297579920003,8468.494828760007,21582.308004177572,51890.31236056237,0.0,0.0,0.0,193.0,0.0,193.0,0.0,0.0,0.0,179.0,193.0,0.0,179.0,1744418726.5317888,0.0,2025-04-11 20:45:26.531,BACKWARD,25
240.0,10734.760550828047,-7499.569058366902,-23998.64333851854,-23625.100985181452,18128.896430599267,8660.362203164364,21369.675859174236,51936.40165762921,0.0,0.0,0.0,193.0,0.0,192.0,0.0,0.0,0.0,179.0,192.0,0.0,179.0,1744418726.5318277,0.0,2025-04-11 20:45:26.531,BACKWARD,25
241.0,10764.242501764596,-7470.556494063913,-23968.423780014968,-23606.72785123919,18128.337636987882,8800.284123454587,21144.32557157583,52024.221661594114,0.0,0.0,0.0,193.0,0.0,193.0,0.0,0.0,0.0,179.0,193.0,0.0,179.0,1744418726.531865,0.0,2025-04-11 20:45:26.531,BACKWARD,25
242.0,10751.904338825267,-7489.57782859538,-23921.663930614464,-23630.755976528642,18285.13512434186,8705.95976185319,21395.939158909223,52041.87953971381,0.0,0.0,0.0,193.0,0.0,192.0,0.0,0.0,0.0,178.0,192.0,0.0,178.0,1744418726.5319192,0.0,2025-04-11 20:45:26.531,BACKWARD,25
243.0,10728.032675747,-7525.184157512684,-23969.764884682285,-23675.504168928168,18237.32474295196,8492.835878471837,21584.453771645283,51938.033334974454,0.0,0.0,0.0,193.0,0.0,193.0,0.0,0.0,0.0,179.0,193.0,0.0,179.0,1744418726.5319543,0.0,2025-04-11 20:45:26.531,BACKWARD,25
244.0,10728.904393780756,-7517.606916142335,-24006.578207800176,-23636.25450566465,18112.311436213426,8605.712187971138,21384.09273434791,51946.03525948945,0.0,0.0,0.0,193.0,0.0,192.0,0.0,0.0,0.0,178.0,192.0,0.0,178.0,1744418726.531989,0.0,2025-04-11 20:45:26.531,BACKWARD,25
245.0,10753.625423148325,-7477.172610422685,-23981.633660988053,-23606.258464605628,18073.53115958347,8785.442565136262,21118.889286385693,52049.27796712852,0.0,0.0,0.0,193.0,0.0,193.0,0.0,0.0,0.0,179.0,193.0,0.0,179.0,1744418726.5320225,0.0,2025-04-11 20:45:26.532,BACKWARD,25
246.0,10750.943213813689,-7472.255226642517,-23923.11679400406,-23618.507220567135,18234.620181872866,8720.957782382702,21288.15904714573,52075.56361860796,0.0,0.0,0.0,193.0,0.0,193.0,0.0,0.0,0.0,179.0,193.0,0.0,179.0,1744418726.5320594,0.0,2025-04-11 20:45:26.532,BACKWARD,25
247.0,10734.380571172307,-7484.615741326302,-23956.376189753555,-23663.925965300317,18238.062350518983,8504.458785588597,21558.07871318802,51987.98948383206,0.0,0.0,0.0,193.0,0.0,193.0,0.0,0.0,0.0,178.0,193.0,0.0,178.0,1744418726.5321195,0.0,2025-04-11 20:45:26.532,BACKWARD,25
248.0,10748.059838778954,-7478.7595842790115,-23987.892149435538,-23630.130127683893,18105.941189043664,8550.257509977522,21387.289033805017,51942.05664897641,0.0,0.0,0.0,193.0,0.0,193.0,0.0,0.0,0.0,178.0,193.0,0.0,178.0,1744418726.532154,0.0,2025-04-11 20:45:26.532,BACKWARD,25
249.0,10769.830437878423,-7463.538046304947,-23984.114704622592,-23592.53449351007,18051.17941512816,8767.628224805383,21113.681329927604,52056.27406314303,0.0,0.0,0.0,193.0,0.0,193.0,0.0,0.0,0.0,178.0,193.0,0.0,178.0,1744418726.532186,0.0,2025-04-11 20:45:26.532,BACKWARD,25
250.0,10774.36784200285,-7473.8869039877545,-23936.79606161071,-23608.895970451355,18200.533771578524,8743.309526838008,21191.33129016534,52107.07957828994,0.0,0.0,0.0,193.0,0.0,192.0,0.0,0.0,0.0,178.0,192.0,0.0,178.0,1744418726.5322175,0.0,2025-04-11 20:45:26.532,BACKWARD,25
251.0,10759.79450461799,-7494.919895520198,-23947.591954182622,-23664.529462400613,18270.226510790173,8533.583108613862,21515.29747430056,52041.276042613514,0.0,0.0,0.0,193.0,0.0,192.0,0.0,0.0,0.0,178.0,192.0,0.0,178.0,1744418726.5323808,0.0,2025-04-11 20:45:26.532,BACKWARD,25
252.0,10759.45922845116,-7463.5603980494025,-23983.824131944675,-23642.53534585659,18158.78071293601,8502.357721609798,21392.251121074096,51953.23252120406,0.0,0.0,0.0,193.0,0.0,193.0,0.0,0.0,0.0,179.0,193.0,0.0,179.0,1744418726.532415,0.0,2025-04-11 20:45:26.532,BACKWARD,25
253.0,10764.667184909247,-7436.335973302838,-23992.384850071056,-23601.96692967021,18073.79938051693,8740.448503547728,21118.84458289678,52056.609339309856,0.0,0.0,0.0,193.0,0.0,192.0,0.0,0.0,0.0,178.0,192.0,0.0,178.0,1744418726.532456,0.0,2025-04-11 20:45:26.532,BACKWARD,25
254.0,10766.522379699038,-7443.957918162098,-23946.69788440441,-23605.654967505332,18174.49398928809,8747.757523984614,21089.094411026766,52106.74430212311,0.0,0.0,0.0,193.0,0.0,192.0,0.0,0.0,0.0,178.0,192.0,0.0,178.0,1744418726.5324883,0.0,2025-04-11 20:45:26.532,BACKWARD,25
255.0,10751.613766147348,-7478.223142412084,-23946.78729138223,-23652.839500050486,18282.967005129696,8568.854161364337,21446.364694400396,52074.87071452984,0.0,0.0,0.0,193.0,0.0,192.0,0.0,0.0,0.0,178.0,192.0,0.0,178.0,1744418726.5325205,0.0,2025-04-11 20:45:26.532,BACKWARD,25
0.0,10761.247368007585,-7472.322281875883,-23991.02139365928,-23647.117453469928,18161.820550181932,8462.258692056977,21380.18117906823,51968.20818998911,0.0,0.0,0.0,193.0,0.0,193.0,0.0,0.0,0.0,179.0,193.0,0.0,179.0,1744418726.5325608,0.0,2025-04-11 20:45:26.532,BACKWARD,25
1.0,10769.606920433871,-7433.676115712657,-23993.636547760554,-23597.608339501425,18066.758581013513,8694.001578569601,21109.0321670809,52054.55297881997,0.0,0.0,0.0,193.0,0.0,192.0,0.0,0.0,0.0,178.0,192.0,0.0,178.0,1744418726.532593,0.0,2025-04-11 20:45:26.532,BACKWARD,25
2.0,10778.972301360644,-7410.922039857154,-23942.652218657997,-23589.226435330682,18141.033427838498,8761.615605546905,20985.114095820678,52111.751092881095,0.0,0.0,0.0,193.0,0.0,193.0,0.0,0.0,0.0,179.0,193.0,0.0,179.0,1744418726.5326264,0.0,2025-04-11 20:45:26.532,BACKWARD,25
3.0,10752.351373714373,-7455.6925840011345,-23936.080805788137,-23641.328351656004,18277.624938204877,8625.85110972537,21359.79638812499,52117.22727027265,0.0,0.0,0.0,193.0,0.0,192.0,0.0,0.0,0.0,178.0,192.0,0.0,178.0,1744418726.532658,0.0,2025-04-11 20:45:26.532,BACKWARD,25
4.0,10763.102562797376,-7454.217368867085,-23975.46457951839,-23647.184508703293,18173.93519567671,8461.208160067577,21371.396943497293,51991.31989375591,0.0,0.0,0.0,193.0,0.0,193.0,0.0,0.0,0.0,179.0,193.0,0.0,179.0,1744418726.532692,0.0,2025-04-11 20:45:26.532,BACKWARD,25
5.0,10775.127801314331,-7427.059999353886,-23999.738573996852,-23609.298301851548,18061.48356932206,8667.917092790258,21127.025321367422,52054.32946137541,0.0,0.0,0.0,193.0,0.0,193.0,0.0,0.0,0.0,179.0,193.0,0.0,179.0,1744418726.5327256,0.0,2025-04-11 20:45:26.532,BACKWARD,25
6.0,10800.18410684873,-7404.954124087588,-23959.326620021657,-23590.701650464733,18084.215293433106,8772.25503590763,20942.37756042213,52129.94541286772,0.0,0.0,0.0,193.0,0.0,193.0,0.0,0.0,0.0,179.0,193.0,0.0,179.0,1744418726.5327845,0.0,2025-04-11 20:45:26.532,BACKWARD,25
7.0,10769.361051244861,-7452.205711866107,-23933.48800343132,-23638.601438832455,18231.64739986031,8658.864636285858,21260.889918910256,52138.72964843865,0.0,0.0,0.0,193.0,0.0,193.0,0.0,0.0,0.0,179.0,193.0,0.0,179.0,1744418726.5328174,0.0,2025-04-11 20:45:26.532,BACKWARD,25
8.0,10755.972356316133,-7471.763488264501,-23972.514149250288,-23661.891956554886,18177.98086142312,8437.604717922773,21355.214280511653,52003.21102180613,0.0,0.0,0.0,193.0,0.0,193.0,0.0,0.0,0.0,178.0,193.0,0.0,178.0,1744418726.532849,0.0,2025-04-11 20:45:26.532,BACKWARD,25
9.0,10769.785734389512,-7451.669269999179,-23993.27891984927,-23608.426583817793,18090.987872003065,8599.408996034741,21123.359635276753,52031.01659190853,0.0,0.0,0.0,193.0,0.0,193.0,0.0,0.0,0.0,179.0,193.0,0.0,179.0,1744418726.5328803,0.0,2025-04-11 20:45:26.532,BACKWARD,25
10.0,10780.156943816775,-7436.112455858285,-23974.12347485107,-23587.39359228535,18083.835313777367,8759.782762501569,20887.682841739996,52134.01343035859,0.0,0.0,0.0,193.0,0.0,192.0,0.0,0.0,0.0,178.0,192.0,0.0,178.0,1744418726.5329256,0.0,2025-04-11 20:45:26.532,BACKWARD,25
11.0,10747.836321334402,-7470.578845808369,-23940.953486079394,-23623.737528769678,18231.736806838133,8679.025909784545,21145.800786709882,52172.6148930329,0.0,0.0,0.0,193.0,0.0,193.0,0.0,0.0,0.0,179.0,193.0,0.0,179.0,1744418726.5329573,0.0,2025-04-11 20:45:26.532,BACKWARD,25
12.0,10748.193949245686,-7474.736270277056,-23973.564681239688,-23660.55085188757,18203.774774524543,8456.648404198695,21334.203640723663,52058.17396142173,0.0,0.0,0.0,193.0,0.0,193.0,0.0,0.0,0.0,179.0,193.0,0.0,179.0,1744418726.532988,0.0,2025-04-11 20:45:26.532,BACKWARD,25
13.0,10751.949042314178,-7458.195979380129,-24011.294425880245,-23629.05724395004,18092.35132841484,8561.969824072103,21135.317818560343,52038.52677804551,0.0,0.0,0.0,193.0,0.0,192.0,0.0,0.0,0.0,179.0,192.0,0.0,179.0,1744418726.5330193,0.0,2025-04-11 20:45:26.533,BACKWARD,25
14.0,10768.712850655658,-7432.893804656721,-23988.875626191573,-23594.277929577584,18060.18716814365,8751.311451353009,20857.50798672533,52136.002735615104,0.0,0.0,0.0,193.0,0.0,193.0,0.0,0.0,0.0,179.0,193.0,0.0,179.0,1744418726.5330515,0.0,2025-04-11 20:45:26.533,BACKWARD,25
15.0,10759.36982147334,-7462.755735249011,-23934.672645887455,-23615.08740366547,18215.84471653041,8702.875221118358,21015.132488624156,52174.5147913116,0.0,0.0,0.0,193.0,0.0,193.0,0.0,0.0,0.0,179.0,193.0,0.0,179.0,1744418726.5330844,0.0,2025-04-11 20:45:26.533,BACKWARD,25
16.0,10737.88979505179,-7483.72167154809,-23971.93300389445,-23670.899709570374,18223.84664104541,8488.656102258696,21299.670195540213,52096.46249967367,0.0,0.0,0.0,193.0,0.0,193.0,0.0,0.0,0.0,178.0,193.0,0.0,178.0,1744418726.5331166,0.0,2025-04-11 20:45:26.533,BACKWARD,25
17.0,10748.261004479053,-7452.5856915218465,-24001.973748442382,-23634.511069597134,18110.523296657004,8519.568564840385,21133.0379406259,52038.50442630106,0.0,0.0,0.0,193.0,0.0,193.0,0.0,0.0,0.0,178.0,193.0,0.0,178.0,1744418726.5331492,0.0,2025-04-11 20:45:26.533,BACKWARD,25
18.0,10763.70605989767,-7437.632374481246,-24005.930007210973,-23607.510162295122,18051.961726184098,8747.466951306695,20856.569213458206,52151.403087544815,0.0,0.0,0.0,193.0,0.0,192.0,0.0,0.0,0.0,178.0,192.0,0.0,178.0,1744418726.5331817,0.0,2025-04-11 20:45:26.533,BACKWARD,25
19.0,10759.861559851357,-7461.57109279288,-23958.61136419909,-23615.75795599913,18175.7903904665,8732.49128252164,20898.165809889535,52201.69451256925,0.0,0.0,0.0,193.0,0.0,193.0,0.0,0.0,0.0,179.0,193.0,0.0,179.0,1744418726.533214,0.0,2025-04-11 20:45:26.533,BACKWARD,25
20.0,10726.333943168396,-7506.922782292698,-23965.808625913698,-23657.801587319565,18231.245068460117,8534.186605714156,21224.925962081667,52156.96867191418,0.0,0.0,0.0,193.0,0.0,192.0,0.0,0.0,0.0,178.0,192.0,0.0,178.0,1744418726.533247,0.0,2025-04-11 20:45:26.533,BACKWARD,25
21.0,10728.323248424918,-7496.529221120981,-24005.170047899494,-23640.166060944328,18110.21037223463,8484.141049878723,21081.472466167506,52057.39165036579,0.0,0.0,0.0,193.0,0.0,192.0,0.0,0.0,0.0,179.0,192.0,0.0,179.0,1744418726.53328,0.0,2025-04-11 20:45:26.533,BACKWARD,25
22.0,10743.321268954429,-7460.587616036847,-24011.56264681371,-23599.552941269034,18035.264973075984,8735.195843600732,20781.847331744117,52158.44388704823,0.0,0.0,0.0,193.0,0.0,192.0,0.0,0.0,0.0,178.0,192.0,0.0,178.0,1744418726.5333312,0.0,2025-04-11 20:45:26.533,BACKWARD,25
23.0,10754.74301037109,-7467.226084140073,-23957.6055356986,-23593.115638865907,18133.657352168244,8778.625283077394,20726.906743872973,52227.466073926225,0.0,0.0,0.0,193.0,0.0,193.0,0.0,0.0,0.0,179.0,193.0,0.0,179.0,1744418726.5333629,0.0,2025-04-11 20:45:26.533,BACKWARD,25
24.0,10724.45639663415,-7517.58456439788,-23957.4043699985,-23644.167023201826,18255.69787689422,8612.75298747456,21081.137190000678,52206.1201579714,0.0,0.0,0.0,193.0,0.0,192.0,0.0,0.0,0.0,178.0,192.0,0.0,178.0,1744418726.533394,0.0,2025-04-11 20:45:26.533,BACKWARD,25
25.0,10716.40976863024,-7509.783805582978,-24000.722050752887,-23642.15536620085,18141.92749761671,8495.965122695581,21017.45707004751,52090.00284552608,0.0,0.0,0.0,193.0,0.0,193.0,0.0,0.0,0.0,179.0,193.0,0.0,179.0,1744418726.533425,0.0,2025-04-11 20:45:26.533,BACKWARD,25
26.0,10721.103634965853,-7482.0452907139415,-24024.817231275705,-23610.259426863126,18055.560357041402,8716.554488725005,20743.089406858613,52171.810230232506,0.0,0.0,0.0,193.0,0.0,192.0,0.0,0.0,0.0,178.0,192.0,0.0,178.0,1744418726.5334783,0.0,2025-04-11 20:45:26.533,BACKWARD,25
27.0,10740.639059619793,-7468.298967873928,-23980.449018531923,-23597.87656043489,18122.59323866287,8774.266692908608,20594.763230653196,52232.29405072857,0.0,0.0,0.0,193.0,0.0,193.0,0.0,0.0,0.0,179.0,193.0,0.0,179.0,1744418726.5335102,0.0,2025-04-11 20:45:26.533,BACKWARD,25
28.0,10722.288277421985,-7512.443663173159,-23957.203204298403,-23640.367226644426,18269.555958456513,8643.129008189322,20942.511670888864,52236.831454852996,0.0,0.0,0.0,193.0,0.0,193.0,0.0,0.0,0.0,179.0,193.0,0.0,179.0,1744418726.5335417,0.0,2025-04-11 20:45:26.533,BACKWARD,25
29.0,10713.682855806692,-7506.609857870324,-23996.743440239843,-23653.465348895235,18184.55227429298,8474.395689296209,20972.731229392437,52113.98626732663,0.0,0.0,0.0,193.0,0.0,193.0,0.0,0.0,0.0,179.0,193.0,0.0,179.0,1744418726.533573,0.0,2025-04-11 20:45:26.533,BACKWARD,25
30.0,10702.9763702126,-7501.737177579067,-24024.928989997985,-23622.172906657805,18067.63029904727,8662.060935742968,20726.124432817036,52170.04444242054,0.0,0.0,0.0,193.0,0.0,193.0,0.0,0.0,0.0,178.0,193.0,0.0,178.0,1744418726.533605,0.0,2025-04-11 20:45:26.533,BACKWARD,25
31.0,10717.750873297558,-7491.701244318634,-23980.27020457628,-23596.28958657856,18081.510732354014,8769.461067850718,20513.604046535977,52246.97914683571,0.0,0.0,0.0,193.0,0.0,192.0,0.0,0.0,0.0,178.0,192.0,0.0,178.0,1744418726.5336373,0.0,2025-04-11 20:45:26.533,BACKWARD,25
32.0,10702.104652178843,-7531.196776771161,-23953.6045734411,-23631.58299107349,18239.492862164123,8658.350546163387,20814.36911992659,52256.76921090713,0.0,0.0,0.0,193.0,0.0,193.0,0.0,0.0,0.0,179.0,193.0,0.0,179.0,1744418726.5336685,0.0,2025-04-11 20:45:26.533,BACKWARD,25
33.0,10702.127003923299,-7542.5067594655475,-23994.664728005497,-23656.77340707462,18165.12860836132,8457.587177465819,20926.172545692032,52131.040648346025,0.0,0.0,0.0,193.0,0.0,192.0,0.0,0.0,0.0,178.0,192.0,0.0,178.0,1744418726.5336998,0.0,2025-04-11 20:45:26.533,BACKWARD,25
34.0,10721.394207643772,-7502.184212468173,-24012.61317880311,-23607.15253438384,18051.17941512816,8636.781112764014,20706.164325018446,52158.42153530378,0.0,0.0,0.0,193.0,0.0,193.0,0.0,0.0,0.0,179.0,193.0,0.0,179.0,1744418726.5337305,0.0,2025-04-11 20:45:26.533,BACKWARD,25
35.0,10738.962678785645,-7474.021014454486,-23992.161332626503,-23583.817313172498,18030.884031162743,8800.619399621415,20465.77131340162,52261.843056898484,0.0,0.0,0.0,193.0,0.0,193.0,0.0,0.0,0.0,179.0,193.0,0.0,179.0,1744418726.533762,0.0,2025-04-11 20:45:26.533,BACKWARD,25
36.0,10705.010378958033,-7507.146299737251,-23954.163367052482,-23611.309958852526,18191.816591240953,8708.261991532087,20696.933054558405,52288.19576361129,0.0,0.0,0.0,193.0,0.0,192.0,0.0,0.0,0.0,178.0,192.0,0.0,178.0,1744418726.5337927,0.0,2025-04-11 20:45:26.533,BACKWARD,25
37.0,10692.024015429499,-7526.1899860131725,-23980.046687131726,-23641.149537700363,18194.31998661995,8490.399538326208,20909.47579258392,52181.15325941483,0.0,0.0,0.0,193.0,0.0,193.0,0.0,0.0,0.0,179.0,193.0,0.0,179.0,1744418726.5338397,0.0,2025-04-11 20:45:26.533,BACKWARD,25
38.0,10687.464259560616,-7509.0461980159525,-24005.393565344046,-23602.19044711476,18088.909159768722,8595.340978543876,20721.162345547957,52164.255340606614,0.0,0.0,0.0,193.0,0.0,192.0,0.0,0.0,0.0,178.0,192.0,0.0,178.0,1744418726.5338717,0.0,2025-04-11 20:45:26.533,BACKWARD,25
39.0,10697.857820732335,-7486.515639605002,-23991.244911103837,-23573.714324678698,18043.468063291082,8800.909972299334,20457.300002253058,52275.25410357167,0.0,0.0,0.0,193.0,0.0,192.0,0.0,0.0,0.0,178.0,192.0,0.0,178.0,1744418726.5339077,0.0,2025-04-11 20:45:26.533,BACKWARD,25
40.0,10692.135774151777,-7502.7206543351,-23945.133262292537,-23594.300281322037,18189.089678417407,8747.645765262338,20581.64275665793,52310.18988015531,0.0,0.0,0.0,193.0,0.0,193.0,0.0,0.0,0.0,179.0,193.0,0.0,179.0,1744418726.5339396,0.0,2025-04-11 20:45:26.533,BACKWARD,25
41.0,10664.10668660482,-7549.391096757781,-23981.18662609895,-23655.275840196115,18219.063367731975,8538.1652162272,20886.833475450694,52243.134646789396,0.0,0.0,0.0,193.0,0.0,192.0,0.0,0.0,0.0,178.0,192.0,0.0,178.0,1744418726.533985,0.0,2025-04-11 20:45:26.533,BACKWARD,25
42.0,10670.58869249686,-7544.518416466524,-24017.19528641645,-23630.420700361814,18094.944130771655,8537.874643549281,20732.20410730888,52170.826753476475,0.0,0.0,0.0,193.0,0.0,193.0,0.0,0.0,0.0,179.0,193.0,0.0,179.0,1744418726.5340164,0.0,2025-04-11 20:45:26.534,BACKWARD,25
43.0,10679.529390278984,-7521.7866923554775,-24022.537353341264,-23595.060240633517,18015.79660365541,8754.932433954767,20450.75094112765,52272.95187389277,0.0,0.0,0.0,193.0,0.0,192.0,0.0,0.0,0.0,178.0,192.0,0.0,178.0,1744418726.5340471,0.0,2025-04-11 20:45:26.534,BACKWARD,25
44.0,10681.965730424612,-7528.268698247516,-23975.688096962942,-23610.52764779659,18132.986799834587,8741.364925070397,20494.560360260053,52322.77391228365,0.0,0.0,0.0,193.0,0.0,193.0,0.0,0.0,0.0,179.0,193.0,0.0,179.0,1744418726.5340784,0.0,2025-04-11 20:45:26.534,BACKWARD,25
45.0,10658.384640024262,-7568.166562100239,-23995.290576850246,-23664.4847589117,18199.706757033677,8555.912501324714,20939.0918539872,52287.16758336635,0.0,0.0,0.0,193.0,0.0,192.0,0.0,0.0,0.0,178.0,192.0,0.0,178.0,1744418726.5341096,0.0,2025-04-11 20:45:26.534,BACKWARD,25
46.0,10655.367154522795,-7552.274471792516,-24029.220524933404,-23639.96489524423,18074.358174128316,8493.953465694603,21028.901163208626,52184.77424201659,0.0,0.0,0.0,193.0,0.0,192.0,0.0,0.0,0.0,178.0,192.0,0.0,178.0,1744418726.5341408,0.0,2025-04-11 20:45:26.534,BACKWARD,25
47.0,10647.387581752251,-7547.602957201357,-24048.28656295378,-23611.309958852526,17985.42058294065,8731.127826109867,20951.362961693165,52290.67680724583,0.0,0.0,0.0,193.0,0.0,193.0,0.0,0.0,0.0,179.0,193.0,0.0,179.0,1744418726.534172,0.0,2025-04-11 20:45:26.534,BACKWARD,25
48.0,10655.367154522795,-7545.703058922656,-23992.787181471253,-23606.05729890553,18081.890712009754,8756.832332233469,21024.1625933841,52344.79038057213,0.0,0.0,0.0,193.0,0.0,192.0,0.0,0.0,0.0,178.0,192.0,0.0,178.0,1744418726.5342033,0.0,2025-04-11 20:45:26.534,BACKWARD,25
49.0,10627.494529187028,-7576.749631971077,-23982.348916810624,-23652.54892737257,18203.70771929118,8603.901696670258,21496.20908453573,52325.098493707,0.0,0.0,0.0,193.0,0.0,193.0,0.0,0.0,0.0,179.0,193.0,0.0,179.0,1744418726.534234,0.0,2025-04-11 20:45:26.534,BACKWARD,25
50.0,10633.015410067488,-7561.081059107907,-24025.934818498474,-23650.470215138223,18083.43298237717,8470.81941018336,21511.631788209892,52197.15710844483,0.0,0.0,0.0,193.0,0.0,192.0,0.0,0.0,0.0,178.0,192.0,0.0,178.0,1744418726.5342653,0.0,2025-04-11 20:45:26.534,BACKWARD,25
51.0,10627.226308253565,-7556.722468939122,-24060.66942938202,-23625.235095648182,17986.918149819154,8703.63518042984,21288.874302968303,52287.81578395555,0.0,0.0,0.0,193.0,0.0,193.0,0.0,0.0,0.0,179.0,193.0,0.0,179.0,1744418726.5342965,0.0,2025-04-11 20:45:26.534,BACKWARD,25
52.0,10650.785046909457,-7549.882835135799,-24017.418803861,-23609.231246618183,18045.949106925622,8778.222951677199,21153.266269357955,52369.19848551732,0.0,0.0,0.0,193.0,0.0,192.0,0.0,0.0,0.0,178.0,192.0,0.0,178.0,1744418726.5343423,0.0,2025-04-11 20:45:26.534,BACKWARD,25
53.0,10644.30304101742,-7577.1966668601835,-23983.108876122104,-23631.359473628938,18211.97786473964,8654.66250832826,21500.724136915702,52371.23249426276,0.0,0.0,0.0,193.0,0.0,193.0,0.0,0.0,0.0,179.0,193.0,0.0,179.0,1744418726.534376,0.0,2025-04-11 20:45:26.534,BACKWARD,25
54.0,10637.932793847656,-7584.438632063703,-24026.22539117639,-23648.43620639279,18120.559229917435,8473.34515730681,21548.333352605507,52241.25710025515,0.0,0.0,0.0,193.0,0.0,192.0,0.0,1.0,0.0,178.0,192.0,1.0,178.0,1744418726.5344129,0.0,2025-04-11 20:45:26.534,BACKWARD,25
55.0,10647.34287826334,-7547.692364179178,-24043.413882662524,-23598.994147657653,18002.296150004408,8657.814104296458,21274.077448138887,52276.90813266136,0.0,0.0,0.0,193.0,0.0,193.0,0.0,3.0,0.0,179.0,193.0,3.0,179.0,1744418726.5344825,0.0,2025-04-11 20:45:26.534,BACKWARD,25
56.0,10651.097971331832,-7531.867329104821,-24013.686062536963,-23587.706516707723,18018.165888567673,8775.473687109195,21040.479366836473,52361.755354613706,0.0,0.0,0.0,193.0,0.0,192.0,0.0,4.0,0.0,178.0,192.0,4.0,178.0,1744418726.534579,0.0,2025-04-11 20:45:26.534,BACKWARD,25
57.0,10612.34004644633,-7590.07127166644,-23992.630719260065,-23637.86383126543,18181.713602747157,8668.542941635007,21314.332939902895,52398.83689866506,0.0,0.0,0.0,193.0,0.0,193.0,0.0,5.0,0.0,179.0,193.0,5.0,179.0,1744418726.5346239,0.0,2025-04-11 20:45:26.534,BACKWARD,25
58.0,10609.009636522489,-7614.009989978074,-24027.812365032718,-23665.78116009011,18136.78659639199,8453.273290785944,21411.384214327838,52270.20260932477,0.0,0.0,0.0,193.0,0.0,193.0,0.0,6.0,0.0,179.0,193.0,6.0,179.0,1744418726.534665,0.0,2025-04-11 20:45:26.534,BACKWARD,25
59.0,10609.09904350031,-7588.0596146654625,-24050.18646123248,-23627.91730498282,18023.440900259127,8605.287504826487,21172.108789933776,52283.27837983112,0.0,0.0,0.0,193.0,0.0,193.0,0.0,7.0,0.0,179.0,193.0,7.0,179.0,1744418726.5346997,0.0,2025-04-11 20:45:26.534,BACKWARD,25
60.0,10626.622811153271,-7542.953794354653,-24021.151545185036,-23596.714269723212,17994.920074334153,8785.755489558636,20869.957908386936,52378.98854958875,0.0,0.0,0.0,193.0,0.0,193.0,0.0,8.0,0.0,179.0,193.0,8.0,179.0,1744418726.5347383,0.0,2025-04-11 20:45:26.534,BACKWARD,25
61.0,10628.902689087712,-7573.64273949179,-23968.334373037145,-23604.80560121603,18161.97701239312,8724.86933766238,21009.656311232604,52401.04972136614,0.0,0.0,0.0,193.0,0.0,193.0,0.0,9.0,0.0,178.0,193.0,9.0,178.0,1744418726.534773,0.0,2025-04-11 20:45:26.534,BACKWARD,25
62.0,10626.622811153271,-7600.263667138061,-23995.64820476153,-23636.29920915356,18169.55425376347,8521.468463119087,21185.296319162408,52306.61360104247,0.0,0.0,0.0,193.0,0.0,193.0,0.0,10.0,0.0,179.0,193.0,10.0,179.0,1744418726.534809,0.0,2025-04-11 20:45:26.534,BACKWARD,25
63.0,10631.584898422348,-7579.297730838983,-24031.858030779127,-23607.19723787275,18051.492339550536,8599.140775101278,20933.056882984267,52277.84690592848,0.0,0.0,0.0,193.0,0.0,193.0,0.0,10.0,0.0,179.0,193.0,10.0,179.0,1744418726.534845,0.0,2025-04-11 20:45:26.534,BACKWARD,25
64.0,10639.475064215072,-7546.552425211958,-24024.057271964226,-23580.24103405965,18002.832591871334,8796.663140852826,20605.469716247288,52382.453069979325,0.0,0.0,0.0,193.0,0.0,193.0,0.0,11.0,0.0,179.0,193.0,11.0,179.0,1744418726.534882,0.0,2025-04-11 20:45:26.534,BACKWARD,25
65.0,10622.174814006665,-7568.792410944988,-23984.360573811602,-23597.653042990332,18143.045084839476,8750.842064719447,20685.220740463825,52423.066189654615,0.0,0.0,0.0,193.0,0.0,193.0,0.0,11.0,0.0,179.0,193.0,11.0,179.0,1744418726.5349195,0.0,2025-04-11 20:45:26.534,BACKWARD,25
66.0,10604.472232398062,-7604.063463695463,-24009.148658412538,-23643.898802268362,18173.152884620773,8541.942661040148,20969.1996537685,52348.92545329636,0.0,0.0,0.0,193.0,0.0,193.0,0.0,12.0,0.0,179.0,193.0,12.0,179.0,1744418726.534962,0.0,2025-04-11 20:45:26.534,BACKWARD,25
67.0,10608.584953377838,-7591.524135056035,-24039.167051216013,-23612.606360030935,18069.373735114783,8529.179814956167,20807.373023912078,52278.9421414068,0.0,0.0,0.0,193.0,0.0,193.0,0.0,12.0,0.0,179.0,193.0,12.0,179.0,1744418726.5350437,0.0,2025-04-11 20:45:26.535,BACKWARD,25
68.0,10612.362398190786,-7580.236504106106,-24050.119405999114,-23592.28862432106,18002.385556982226,8745.187073372254,20518.275561127135,52390.45499449432,0.0,0.0,0.0,193.0,0.0,192.0,0.0,12.0,0.0,178.0,192.0,12.0,178.0,1744418726.5350862,0.0,2025-04-11 20:45:26.535,BACKWARD,25
69.0,10629.796758865925,-7575.810858703954,-23990.663765748,-23585.76191494011,18113.138450758273,8735.754637212114,20497.846066694983,52432.90095721495,0.0,0.0,0.0,193.0,0.0,193.0,0.0,13.0,0.0,179.0,193.0,13.0,179.0,1744418726.535128,0.0,2025-04-11 20:45:26.535,BACKWARD,25
70.0,10602.90761028619,-7619.307353413982,-23994.84354196114,-23626.44208984877,18204.959416980677,8569.45765846463,20861.061914093723,52403.195488833844,0.0,0.0,0.0,193.0,0.0,192.0,0.0,13.0,0.0,178.0,192.0,13.0,178.0,1744418726.5351748,0.0,2025-04-11 20:45:26.535,BACKWARD,25
71.0,10604.204011464599,-7626.661077339778,-24030.963961000918,-23615.71325251022,18081.086049209363,8494.758128494994,20765.48585480283,52296.89059220441,0.0,0.0,0.0,193.0,0.0,193.0,0.0,13.0,0.0,179.0,193.0,13.0,179.0,1744418726.5352497,0.0,2025-04-11 20:45:26.535,BACKWARD,25
72.0,10606.707406843592,-7602.185917161217,-24038.38474016008,-23581.448028260234,17992.08140278833,8734.234718589154,20491.609929991955,52398.5686777316,0.0,0.0,0.0,193.0,0.0,193.0,0.0,13.0,0.0,179.0,193.0,13.0,179.0,1744418726.535287,0.0,2025-04-11 20:45:26.535,BACKWARD,25
73.0,10609.076691755854,-7590.540658300002,-23993.904768694018,-23583.05735386102,18074.313470639405,8778.915855755313,20405.063975461006,52468.775507065715,0.0,0.0,0.0,193.0,0.0,193.0,0.0,14.0,0.0,179.0,193.0,14.0,179.0,1744418726.5353277,0.0,2025-04-11 20:45:26.535,BACKWARD,25
74.0,10582.276950153942,-7632.092551242417,-23981.320736565678,-23634.15344168585,18205.853486758886,8617.89388869928,20770.33618334963,52456.39264063748,0.0,0.0,0.0,193.0,0.0,193.0,0.0,14.0,0.0,179.0,193.0,14.0,179.0,1744418726.5353687,0.0,2025-04-11 20:45:26.535,BACKWARD,25
75.0,10583.394537376707,-7621.8107487929765,-24017.6199695611,-23628.54315382757,18107.10347975534,8479.558942265385,20752.25362208529,52330.082932720536,0.0,0.0,0.0,193.0,0.0,193.0,0.0,14.0,0.0,178.0,193.0,14.0,178.0,1744418726.5354156,0.0,2025-04-11 20:45:26.535,BACKWARD,25
76.0,10571.123429670743,-7600.867164238354,-24049.560612387733,-23592.221569087695,18000.508010447982,8699.880087361347,20505.333901087513,52412.918497671904,0.0,0.0,0.0,193.0,0.0,193.0,0.0,14.0,0.0,179.0,193.0,14.0,179.0,1744418726.5354657,0.0,2025-04-11 20:45:26.535,BACKWARD,25
77.0,10591.865848525269,-7590.719472255644,-23999.06802166319,-23564.818330385486,18041.501109779016,8786.068413981011,20325.044730311005,52482.76769909474,0.0,0.0,0.0,193.0,0.0,192.0,0.0,14.0,0.0,178.0,192.0,14.0,178.0,1744418726.5355093,0.0,2025-04-11 20:45:26.535,BACKWARD,25
78.0,10573.827990749836,-7645.749467104611,-23975.241062073837,-23599.70940348022,18195.906960476277,8665.10077298889,20661.125559941003,52488.44504218639,0.0,0.0,0.0,193.0,0.0,193.0,0.0,15.0,0.0,179.0,193.0,15.0,179.0,1744418727.0105264,0.0,2025-04-11 20:45:27.010,BACKWARD,25
79.0,10569.201179647587,-7659.3169759889815,-24017.731728283376,-23623.022272947106,18113.809003091934,8470.327671805344,20729.074863085138,52353.84283707653,0.0,0.0,0.0,193.0,0.0,193.0,0.0,15.0,0.0,179.0,193.0,15.0,179.0,1744418727.0107017,0.0,2025-04-11 20:45:27.010,BACKWARD,25
80.0,10580.645272808704,-7626.6834290842335,-24045.202022218946,-23583.03500211656,17998.98809182502,8647.755819291571,20481.976328131717,52394.254791051724,0.0,0.0,0.0,193.0,0.0,193.0,0.0,15.0,0.0,179.0,193.0,15.0,179.0,1744418727.010743,0.0,2025-04-11 20:45:27.010,BACKWARD,25
81.0,10601.678264341148,-7596.9779607031305,-24010.065079935204,-23557.263440759594,18020.55752522439,8779.966387744713,20235.660104234234,52486.94747530788,0.0,0.0,0.0,193.0,0.0,193.0,0.0,15.0,0.0,179.0,193.0,15.0,179.0,1744418727.0107806,0.0,2025-04-11 20:45:27.010,BACKWARD,25
82.0,10576.979586718035,-7640.139179246328,-23977.587995241644,-23596.937787167764,18182.585320780912,8686.692558132716,20498.695432984285,52518.23991754531,0.0,0.0,0.0,193.0,0.0,192.0,0.0,15.0,0.0,178.0,192.0,15.0,178.0,1744418727.0108933,0.0,2025-04-11 20:45:27.010,BACKWARD,25
83.0,10548.36935381524,-7663.18382777975,-24014.781298015274,-23636.25450566465,18132.137433545286,8477.480230031042,20648.005085945737,52412.56086976062,0.0,0.0,0.0,193.0,0.0,193.0,0.0,15.0,0.0,179.0,193.0,15.0,179.0,1744418727.0109313,0.0,2025-04-11 20:45:27.010,BACKWARD,25
84.0,10550.537473027405,-7645.9953362936185,-24047.168975731012,-23606.124354138894,18016.780080411445,8595.139812843778,20406.449783617234,52408.42579703639,0.0,0.0,0.0,193.0,0.0,192.0,0.0,15.0,0.0,178.0,192.0,15.0,178.0,1744418727.0109684,0.0,2025-04-11 20:45:27.010,BACKWARD,25
85.0,10572.75510701598,-7615.842833023409,-24019.206943417426,-23568.774589154076,17997.267007501963,8771.651538807339,20111.78673646292,52503.465414460356,0.0,0.0,0.0,193.0,0.0,193.0,0.0,15.0,0.0,179.0,193.0,15.0,179.0,1744418727.0110035,0.0,2025-04-11 20:45:27.011,BACKWARD,25
86.0,10561.623938277238,-7634.238318710127,-23969.608422471098,-23583.86201666141,18165.754457206065,8720.667209704783,20284.96805250264,52542.11158062358,0.0,0.0,0.0,193.0,0.0,193.0,0.0,15.0,0.0,178.0,193.0,15.0,178.0,1744418727.0110557,0.0,2025-04-11 20:45:27.011,BACKWARD,25
87.0,10552.392667817196,-7652.7455631191215,-24003.381908343068,-23630.39834861736,18159.026582125018,8506.269276889478,20531.239572911214,52453.553969091656,0.0,0.0,0.0,193.0,0.0,193.0,0.0,15.0,0.0,179.0,193.0,15.0,179.0,1744418727.011089,0.0,2025-04-11 20:45:27.011,BACKWARD,25
88.0,10552.146798628188,-7633.947746032209,-24035.300199425245,-23599.396479057847,18041.14348186773,8561.656899649728,20342.45673924169,52407.30820981362,0.0,0.0,0.0,193.0,0.0,193.0,0.0,16.0,0.0,179.0,193.0,16.0,179.0,1744418727.011121,0.0,2025-04-11 20:45:27.011,BACKWARD,25
89.0,10570.721098270547,-7602.252972394583,-24031.410995890023,-23563.365466995892,17978.133914248217,8775.36192838692,20067.97731733052,52521.59267921361,0.0,0.0,0.0,193.0,0.0,192.0,0.0,16.0,0.0,178.0,192.0,16.0,178.0,1744418727.0111532,0.0,2025-04-11 20:45:27.011,BACKWARD,25
90.0,10567.882426724724,-7639.312164701482,-23977.11860860808,-23566.584118197457,18105.49415415456,8745.075314649977,20150.90228925971,52569.00072920331,0.0,0.0,0.0,193.0,0.0,193.0,0.0,16.0,0.0,179.0,193.0,16.0,179.0,1744418727.0111856,0.0,2025-04-11 20:45:27.011,BACKWARD,25
91.0,10547.251766592475,-7674.0467755850295,-23992.675422748976,-23616.853191477443,18144.699113929168,8538.522844138484,20474.488493739187,52510.372103497044,0.0,0.0,0.0,193.0,0.0,192.0,0.0,16.0,0.0,178.0,192.0,16.0,178.0,1744418727.0112188,0.0,2025-04-11 20:45:27.011,BACKWARD,25
92.0,10552.660888750659,-7643.380182192348,-24030.069891222705,-23594.81437144451,18026.14546133822,8505.822242000371,20336.242954283116,52427.08950365657,0.0,0.0,0.0,193.0,0.0,193.0,0.0,16.0,0.0,179.0,193.0,16.0,179.0,1744418727.0112536,0.0,2025-04-11 20:45:27.011,BACKWARD,25
93.0,10547.408228803662,-7622.2801354265375,-24042.922144284505,-23566.919394364286,17941.432349852606,8751.087933908455,20063.171692272626,52546.71603998137,0.0,0.0,0.0,193.0,0.0,192.0,0.0,16.0,0.0,179.0,192.0,16.0,179.0,1744418727.0112884,0.0,2025-04-11 20:45:27.011,BACKWARD,25
94.0,10563.18856038911,-7631.042019253018,-23991.781352970764,-23562.560804195502,18039.824728944866,8751.624375775382,20030.471090134513,52596.35926441661,0.0,0.0,0.0,193.0,0.0,193.0,0.0,16.0,0.0,179.0,193.0,16.0,179.0,1744418727.011323,0.0,2025-04-11 20:45:27.011,BACKWARD,25
95.0,10547.050600892378,-7679.411194254303,-23987.333355824157,-23610.728813496688,18165.799160694976,8587.741385429072,20388.121353163882,52565.804429746204,0.0,0.0,0.0,193.0,0.0,193.0,0.0,16.0,0.0,179.0,193.0,16.0,179.0,1744418727.0113587,0.0,2025-04-11 20:45:27.011,BACKWARD,25
96.0,10536.031190875912,-7678.539476220546,-24036.08251048118,-23616.13793565487,18059.896595465732,8503.899991977214,20319.41209070827,52462.29350117368,0.0,0.0,0.0,193.0,0.0,193.0,0.0,16.0,0.0,179.0,193.0,16.0,179.0,1744418727.0113933,0.0,2025-04-11 20:45:27.011,BACKWARD,25
97.0,10541.596775245283,-7640.496807157613,-24054.545051401266,-23569.825121143476,17958.039695982898,8736.15696861231,20040.887003050688,52547.76657197077,0.0,0.0,0.0,193.0,0.0,193.0,0.0,16.0,0.0,179.0,193.0,16.0,179.0,1744418727.0114288,0.0,2025-04-11 20:45:27.011,BACKWARD,25
98.0,10558.673508009137,-7625.029399994541,-24008.99219620135,-23559.297449505026,18017.316522278372,8799.725329843204,19933.352760476206,52621.952011817935,0.0,0.0,0.0,193.0,0.0,193.0,0.0,16.0,0.0,179.0,193.0,16.0,179.0,1744418727.0114841,0.0,2025-04-11 20:45:27.011,BACKWARD,25
99.0,10526.062312848844,-7678.51712447609,-24004.566550799198,-23614.550961798544,18133.098558556863,8649.298089658987,20302.603578877875,52621.102645528634,0.0,0.0,0.0,193.0,0.0,193.0,0.0,16.0,0.0,179.0,193.0,16.0,179.0,1744418727.0115204,0.0,2025-04-11 20:45:27.011,BACKWARD,25
100.0,10516.138138310687,-7689.1342030923615,-24049.135929243083,-23624.16221191433,18047.37961857076,8481.458840544086,20299.809610820965,52486.72395786333,0.0,0.0,0.0,193.0,0.0,193.0,0.0,16.0,0.0,178.0,193.0,16.0,178.0,1744418727.0115564,0.0,2025-04-11 20:45:27.011,BACKWARD,25
101.0,10522.106054080255,-7669.37526099387,-24074.639269666586,-23588.689993463755,17949.054294711863,8690.29118899002,20045.737331597487,52549.88998769403,0.0,0.0,0.0,193.0,0.0,193.0,0.0,16.0,0.0,179.0,193.0,16.0,179.0,1744418727.011612,0.0,2025-04-11 20:45:27.011,BACKWARD,25
102.0,10540.747408955982,-7654.332536975448,-24033.6238185911,-23575.323650279483,17981.598434638792,8792.081033239489,19867.437466077503,52634.960727090926,0.0,0.0,0.0,193.0,0.0,193.0,0.0,16.0,0.0,178.0,193.0,16.0,178.0,1744418727.0116918,0.0,2025-04-11 20:45:27.011,BACKWARD,25
103.0,10513.143004553676,-7709.071959146495,-24012.05438519173,-23619.133069411884,18145.883756385298,8674.019119026556,20200.590217183857,52655.32316628971,0.0,0.0,0.0,193.0,0.0,192.0,0.0,16.0,0.0,178.0,192.0,16.0,178.0,1744418727.0117984,0.0,2025-04-11 20:45:27.011,BACKWARD,25
104.0,10513.232411531499,-7700.466537531202,-24044.91144954103,-23630.174831172804,18069.91017698171,8476.273235830455,20285.236273436105,52528.34290603911,0.0,0.0,0.0,193.0,0.0,193.0,0.0,16.0,0.0,179.0,193.0,16.0,179.0,1744418727.011842,0.0,2025-04-11 20:45:27.011,BACKWARD,25
105.0,10515.22171678802,-7670.314034260993,-24066.927917829504,-23586.14189459585,17956.36331514875,8648.76164779206,20052.59931714527,52561.82581923316,0.0,0.0,0.0,193.0,0.0,192.0,0.0,16.0,0.0,178.0,192.0,16.0,178.0,1744418727.011881,0.0,2025-04-11 20:45:27.011,BACKWARD,25
106.0,10531.31497279584,-7650.242167740127,-24040.061120994225,-23562.024362328575,17950.104826701263,8787.275408181597,19819.940009109978,52654.16087557803,0.0,0.0,0.0,193.0,0.0,193.0,0.0,16.0,0.0,179.0,193.0,16.0,179.0,1744418727.0119221,0.0,2025-04-11 20:45:27.011,BACKWARD,25
107.0,10513.679446420605,-7677.846572142431,-24000.789105986252,-23587.058316118517,18114.837183336876,8699.477755961152,20079.153189558172,52677.76431772284,0.0,0.0,0.0,193.0,0.0,193.0,0.0,16.0,0.0,179.0,193.0,16.0,179.0,1744418727.0119665,0.0,2025-04-11 20:45:27.011,BACKWARD,25
108.0,10503.531754437894,-7697.203182840727,-24023.587885330664,-23618.730738011687,18092.753659815033,8489.281951103443,20268.07013369443,52563.233979133845,0.0,0.0,0.0,193.0,0.0,192.0,0.0,16.0,0.0,178.0,192.0,16.0,178.0,1744418727.0120149,0.0,2025-04-11 20:45:27.012,BACKWARD,25
109.0,10497.675597390604,-7704.333389321971,-24059.641249137076,-23589.29349056405,17971.786018822913,8602.426481536208,20079.153189558172,52557.131952897544,0.0,0.0,0.0,193.0,0.0,193.0,0.0,16.0,0.0,179.0,193.0,16.0,179.0,1744418727.01205,0.0,2025-04-11 20:45:27.012,BACKWARD,25
110.0,10519.17797555661,-7682.205162311217,-24044.5761733742,-23563.14194955134,17937.07375968382,8781.240437178665,19821.59403819967,52665.69437571697,0.0,0.0,0.0,193.0,0.0,192.0,0.0,16.0,0.0,178.0,192.0,16.0,178.0,1744418727.0120852,0.0,2025-04-11 20:45:27.012,BACKWARD,25
111.0,10513.433577231595,-7701.315903820504,-23992.340146582144,-23583.169112583295,18097.53693312847,8718.946125381724,19988.270996602892,52701.591277312196,0.0,0.0,0.0,193.0,0.0,193.0,0.0,16.0,0.0,179.0,193.0,16.0,179.0,1744418727.0121267,0.0,2025-04-11 20:45:27.012,BACKWARD,25
112.0,10477.78254482538,-7743.292479907571,-24031.254533678835,-23639.8307847775,18088.506828368525,8512.30424789241,20280.229482678114,52624.43305545248,0.0,0.0,0.0,193.0,0.0,192.0,0.0,17.0,0.0,178.0,192.0,17.0,178.0,1744418727.012169,0.0,2025-04-11 20:45:27.012,BACKWARD,25
113.0,10485.180972240089,-7718.973781940196,-24065.251536995358,-23607.040775661564,17961.057181484364,8540.467445906097,20105.01415789296,52562.406964589,0.0,0.0,0.0,193.0,0.0,193.0,0.0,16.0,0.0,179.0,193.0,16.0,179.0,1744418727.0122657,0.0,2025-04-11 20:45:27.012,BACKWARD,25
114.0,10490.321873464809,-7691.168211837794,-24061.51879567132,-23575.301298535025,17895.16423883012,8748.673945507282,19827.36078826914,52671.55053276426,0.0,0.0,0.0,193.0,0.0,192.0,0.0,17.0,0.0,178.0,192.0,17.0,178.0,1744418727.012299,0.0,2025-04-11 20:45:27.012,BACKWARD,25
115.0,10497.340321223775,-7689.469479259191,-23997.861027462608,-23568.126388564873,18038.99771440002,8721.62833471636,19886.257634908874,52716.72340830844,0.0,0.0,0.0,193.0,0.0,192.0,0.0,17.0,0.0,178.0,192.0,17.0,178.0,1744418727.0123315,0.0,2025-04-11 20:45:27.012,BACKWARD,25
116.0,10488.64549263066,-7715.8445377164535,-24005.66178627751,-23612.4722495642,18109.15984024523,8533.583108613862,20237.470595535113,52663.72742220491,0.0,0.0,0.0,193.0,0.0,193.0,0.0,17.0,0.0,179.0,193.0,17.0,179.0,1744418727.0123937,0.0,2025-04-11 20:45:27.012,BACKWARD,25
117.0,10490.388928698174,-7714.9057644493305,-24050.991124032873,-23599.73175522468,17974.781152579922,8501.038968686935,20143.257992655992,52588.044415479235,0.0,0.0,0.0,193.0,0.0,192.0,0.0,17.0,0.0,179.0,192.0,17.0,179.0,1744418727.012427,0.0,2025-04-11 20:45:27.012,BACKWARD,25
118.0,10505.096376549767,-7684.1497640788275,-24062.703438127453,-23568.23814728715,17882.06611657931,8729.652610975816,19874.254748136373,52698.216163899444,0.0,0.0,0.0,193.0,0.0,193.0,0.0,17.0,0.0,179.0,193.0,17.0,179.0,1744418727.0124598,0.0,2025-04-11 20:45:27.012,BACKWARD,25
119.0,10511.198402786065,-7705.093348633451,-24005.37121359959,-23566.18178679726,17997.021138312954,8753.300756609531,19835.40741627305,52747.993498801414,0.0,0.0,0.0,193.0,0.0,193.0,0.0,17.0,0.0,178.0,193.0,17.0,178.0,1744418727.0124974,0.0,2025-04-11 20:45:27.012,BACKWARD,25
120.0,10488.55608565284,-7760.503323138157,-24003.516018809798,-23616.58497054398,18113.987817047575,8591.541181986473,20215.454127246634,52724.5465188678,0.0,0.0,0.0,193.0,0.0,193.0,0.0,17.0,0.0,179.0,193.0,17.0,179.0,1744418727.0125313,0.0,2025-04-11 20:45:27.012,BACKWARD,25
121.0,10477.849600058747,-7755.921215524819,-24046.788996075273,-23616.58497054398,18010.543943708413,8488.63375051424,20180.02661228497,52615.380598948075,0.0,0.0,0.0,193.0,0.0,193.0,0.0,17.0,0.0,179.0,193.0,17.0,179.0,1744418727.0125668,0.0,2025-04-11 20:45:27.012,BACKWARD,25
122.0,10479.771850081903,-7736.363439126425,-24079.579005191208,-23589.561711497514,17892.750250428948,8717.672075947772,19933.37511222066,52714.55528909627,0.0,0.0,0.0,193.0,0.0,192.0,0.0,17.0,0.0,178.0,192.0,17.0,178.0,1744418727.0125988,0.0,2025-04-11 20:45:27.012,BACKWARD,25
123.0,10504.425824216107,-7716.716255750211,-24030.405167389534,-23571.792074655543,17950.64126856819,8776.747736543148,19804.29378799126,52782.54929572932,0.0,0.0,0.0,193.0,0.0,193.0,0.0,17.0,0.0,179.0,193.0,17.0,179.0,1744418727.0126312,0.0,2025-04-11 20:45:27.012,BACKWARD,25
124.0,10472.395774411652,-7737.905709493842,-24005.013585688306,-23611.712290252723,18101.180267474683,8640.357391876863,20163.083989987852,52777.47544973796,0.0,0.0,0.0,193.0,0.0,192.0,0.0,17.0,0.0,178.0,192.0,17.0,178.0,1744418727.0126717,0.0,2025-04-11 20:45:27.012,BACKWARD,25
125.0,10463.902111518635,-7735.357610625936,-24049.515908898822,-23629.30311313905,18016.869487389267,8479.469535287564,20198.08682180486,52649.80228540925,0.0,0.0,0.0,193.0,0.0,193.0,0.0,17.0,0.0,179.0,193.0,17.0,179.0,1744418727.0127082,0.0,2025-04-11 20:45:27.012,BACKWARD,25
126.0,10459.07413471629,-7733.144787924861,-24093.68295594251,-23606.034947161075,17904.775488945903,8678.154191750788,19966.27688005887,52720.85848103267,0.0,0.0,0.0,193.0,0.0,193.0,0.0,17.0,0.0,179.0,193.0,17.0,179.0,1744418727.0127485,0.0,2025-04-11 20:45:27.012,BACKWARD,25
127.0,10491.953550810045,-7709.295476591048,-24048.398321676057,-23578.38583926986,17927.44015782358,8766.510637582616,19759.635002569557,52793.47929876796,0.0,0.0,0.0,193.0,0.0,192.0,0.0,17.0,0.0,178.0,192.0,17.0,178.0,1744418727.0127947,0.0,2025-04-11 20:45:27.012,BACKWARD,25
128.0,10480.509457648928,-7740.699677550755,-24008.70162352343,-23605.38674657187,18095.86055229432,8663.603206110383,20080.896625625686,52799.380159304164,0.0,0.0,0.0,193.0,0.0,193.0,0.0,17.0,0.0,179.0,193.0,17.0,179.0,1744418727.0135312,0.0,2025-04-11 20:45:27.013,BACKWARD,25
129.0,10471.233483699976,-7745.81822703102,-24047.772472831308,-23632.477060851703,18026.413682271683,8475.669738730161,20226.875868663297,52679.79832646827,0.0,0.0,0.0,193.0,0.0,193.0,0.0,17.0,0.0,179.0,193.0,17.0,179.0,1744418727.0136003,0.0,2025-04-11 20:45:27.013,BACKWARD,25
130.0,10476.486143646973,-7728.76384601162,-24076.896795856574,-23597.340118567958,17894.985424874478,8640.178577921222,20027.92299126661,52703.35706512417,0.0,0.0,0.0,193.0,0.0,193.0,0.0,17.0,0.0,178.0,193.0,17.0,178.0,1744418727.0136564,0.0,2025-04-11 20:45:27.013,BACKWARD,25
131.0,10490.053652531346,-7713.296438848548,-24053.628629878596,-23577.5141212361,17878.892168866656,8800.30647519904,19805.5231339363,52801.70474072752,0.0,0.0,0.0,193.0,0.0,193.0,0.0,17.0,0.0,179.0,193.0,17.0,179.0,1744418727.013701,0.0,2025-04-11 20:45:27.013,BACKWARD,25
132.0,10476.039108757866,-7747.405200887347,-24010.51211482431,-23608.024252417596,18056.163854141698,8721.941259138735,20066.457398707556,52834.897081243646,0.0,0.0,0.0,193.0,0.0,193.0,0.0,17.0,0.0,179.0,193.0,17.0,179.0,1744418727.013864,0.0,2025-04-11 20:45:27.013,BACKWARD,25
133.0,10472.686347089571,-7767.789991830587,-24036.775414559295,-23636.075691709008,18045.61383075879,8498.87084947477,20296.21097996366,52734.42598991704,0.0,0.0,0.0,193.0,0.0,192.0,0.0,17.0,0.0,178.0,192.0,17.0,178.0,1744418727.0139077,0.0,2025-04-11 20:45:27.013,BACKWARD,25
134.0,10455.229634669977,-7754.356593412947,-24075.77920863381,-23601.631653503377,17921.136965887184,8591.049443608457,20120.816841222866,52725.99938225739,0.0,0.0,0.0,193.0,0.0,193.0,0.0,17.0,0.0,180.0,193.0,17.0,180.0,1744418727.0139525,0.0,2025-04-11 20:45:27.013,BACKWARD,25
135.0,10463.186855696065,-7729.032066945085,-24068.671353897018,-23579.659888703813,17868.588014672758,8780.636940078371,19861.26838460784,52838.16043593412,0.0,0.0,0.0,193.0,0.0,193.0,0.0,17.0,0.0,178.0,193.0,17.0,178.0,1744418727.0139954,0.0,2025-04-11 20:45:27.013,BACKWARD,25
136.0,10465.779658052881,-7751.6296805894,-24022.51500159681,-23600.782287214075,18018.09883333431,8747.869282706892,20018.24468591746,52883.355663222756,0.0,0.0,0.0,193.0,0.0,193.0,0.0,17.0,0.0,179.0,193.0,17.0,179.0,1744418727.014042,0.0,2025-04-11 20:45:27.014,BACKWARD,25
137.0,10443.293803130842,-7789.560590930056,-24062.23405149389,-23658.360380930946,18022.502126992003,8526.54230911044,20327.123442545348,52808.812595464304,0.0,0.0,0.0,193.0,0.0,193.0,0.0,17.0,0.0,179.0,193.0,17.0,179.0,1744418727.0140853,0.0,2025-04-11 20:45:27.014,BACKWARD,25
138.0,10454.112047447212,-7762.067945250028,-24088.944386117983,-23623.648121791855,17903.25557032294,8530.275050434477,20163.687487088144,52738.73987659692,0.0,0.0,0.0,193.0,0.0,192.0,0.0,17.0,0.0,178.0,192.0,17.0,178.0,1744418727.014128,0.0,2025-04-11 20:45:27.014,BACKWARD,25
139.0,10463.768001051903,-7731.669572790811,-24088.85497914016,-23588.734696952666,17839.57545036977,8762.196750902744,19892.337309400715,52848.19636919456,0.0,0.0,0.0,193.0,0.0,193.0,0.0,17.0,0.0,179.0,193.0,17.0,179.0,1744418727.0141857,0.0,2025-04-11 20:45:27.014,BACKWARD,25
140.0,10472.596940111749,-7742.309003151537,-24025.75600454283,-23581.895063149343,17986.001728296487,8771.763297529615,19942.204051280507,52896.94552385158,0.0,0.0,0.0,193.0,0.0,193.0,0.0,17.0,0.0,179.0,193.0,17.0,179.0,1744418727.0142252,0.0,2025-04-11 20:45:27.014,BACKWARD,25
141.0,10448.837035755758,-7801.563477702556,-24044.263248951826,-23638.690845810277,18062.847025733834,8581.46054523713,20305.039919023504,52852.107924474236,0.0,0.0,0.0,193.0,0.0,193.0,0.0,17.0,0.0,178.0,193.0,17.0,178.0,1744418727.014263,0.0,2025-04-11 20:45:27.014,BACKWARD,25
142.0,10447.004192710423,-7796.824907878031,-24087.402115750567,-23633.01350271863,17930.949381703067,8511.186660669644,20210.402632999736,52753.804952359795,0.0,0.0,0.0,193.0,0.0,193.0,0.0,17.0,0.0,179.0,193.0,17.0,179.0,1744418727.014302,0.0,2025-04-11 20:45:27.014,BACKWARD,25
143.0,10457.062477715312,-7760.883302793897,-24090.039621596294,-23594.47909527768,17843.934040538556,8730.0102388871,19938.292496000828,52852.711421574524,0.0,0.0,0.0,193.0,0.0,192.0,0.0,17.0,0.0,178.0,192.0,17.0,178.0,1744418727.014412,0.0,2025-04-11 20:45:27.014,BACKWARD,25
144.0,10469.087716232267,-7732.384828613381,-24027.074757465693,-23580.777475926578,17967.405076909672,8748.808055974014,19881.563768573258,52909.59661121328,0.0,0.0,0.0,193.0,0.0,193.0,0.0,17.0,0.0,179.0,193.0,17.0,179.0,1744418727.014466,0.0,2025-04-11 20:45:27.014,BACKWARD,25
145.0,10440.097503673733,-7789.292369996592,-24030.2710569228,-23632.789985274077,18092.239569692563,8603.27584782551,20282.285843168003,52907.115567578745,0.0,0.0,0.0,193.0,0.0,193.0,0.0,17.0,0.0,179.0,193.0,17.0,179.0,1744418727.0145147,0.0,2025-04-11 20:45:27.014,BACKWARD,25
146.0,10449.105256689223,-7784.374986216425,-24068.224319007913,-23621.457650835237,17981.017289282954,8490.667759259673,20258.257717878547,52791.02060687788,0.0,0.0,0.0,193.0,0.0,193.0,0.0,17.0,0.0,179.0,193.0,17.0,179.0,1744418727.0145636,0.0,2025-04-11 20:45:27.014,BACKWARD,25
147.0,10448.613518311206,-7749.394506143869,-24093.14651407558,-23584.48786550616,17869.236215261964,8718.052055603512,20010.68979629157,52877.544209664375,0.0,0.0,0.0,193.0,0.0,193.0,0.0,17.0,0.0,179.0,193.0,17.0,179.0,1744418727.014684,0.0,2025-04-11 20:45:27.014,BACKWARD,25
148.0,10468.841847043259,-7739.425628116803,-24050.633496121587,-23570.27215603258,17915.77254721791,8774.870190008902,19873.40538184707,52948.220425632055,0.0,0.0,0.0,193.0,0.0,192.0,0.0,17.0,0.0,178.0,192.0,17.0,178.0,1744418727.0147305,0.0,2025-04-11 20:45:27.014,BACKWARD,25
149.0,10439.06932342879,-7799.417710234847,-24031.70156856794,-23621.815278746522,18063.428171089672,8635.976449963624,20248.847633462865,52954.70243152409,0.0,0.0,0.0,193.0,0.0,193.0,0.0,17.0,0.0,179.0,193.0,17.0,179.0,1744418727.014775,0.0,2025-04-11 20:45:27.014,BACKWARD,25
150.0,10425.032427910857,-7773.601445388967,-24070.973583575917,-23635.651008564357,17973.93178629062,8458.19067456611,20303.76586958955,52828.21390965151,0.0,0.0,0.0,193.0,0.0,193.0,0.0,17.0,0.0,179.0,193.0,17.0,179.0,1744418727.0148232,0.0,2025-04-11 20:45:27.014,BACKWARD,25
151.0,10426.529994789362,-7717.275049361593,-24091.447781496976,-23591.014574887107,17871.560796685317,8654.953081006179,20062.612898661246,52875.89018057468,0.0,0.0,0.0,193.0,0.0,192.0,0.0,17.0,0.0,178.0,192.0,17.0,178.0,1744418727.0148664,0.0,2025-04-11 20:45:27.014,BACKWARD,25
152.0,10454.804951525326,-7693.783365939065,-24054.85797582364,-23572.864958389397,17895.275997552395,8784.59319884696,19873.69595452499,52966.124172940756,0.0,0.0,0.0,193.0,0.0,193.0,0.0,17.0,0.0,179.0,193.0,17.0,179.0,1744418727.0149102,0.0,2025-04-11 20:45:27.014,BACKWARD,25
153.0,10444.25492814242,-7723.153558153339,-24022.738519041362,-23610.505296052135,18060.142464654742,8687.541924422017,20186.106286776816,52987.69360634013,0.0,0.0,0.0,193.0,0.0,193.0,0.0,17.0,0.0,178.0,193.0,17.0,178.0,1744418727.0149572,0.0,2025-04-11 20:45:27.014,BACKWARD,25
154.0,10423.132529632156,-7728.987363456174,-24063.66456313903,-23641.44011037828,18000.88799010372,8478.039023642425,20333.02430308155,52868.02236652641,0.0,0.0,0.0,193.0,0.0,193.0,0.0,17.0,0.0,178.0,193.0,17.0,178.0,1744418727.0150037,0.0,2025-04-11 20:45:27.015,BACKWARD,25
155.0,10419.712712730494,-7705.741549222655,-24093.325328031224,-23604.939711682764,17880.81441888981,8617.1339293878,20125.533059302936,52879.153535265155,0.0,0.0,0.0,193.0,0.0,193.0,0.0,17.0,0.0,179.0,193.0,17.0,179.0,1744418727.015043,0.0,2025-04-11 20:45:27.015,BACKWARD,25
156.0,10429.30161110182,-7685.647330957334,-24078.57317669072,-23584.57727248398,17861.189587258054,8777.619454576905,19887.59873957619,52976.2048096901,0.0,0.0,0.0,193.0,0.0,192.0,0.0,17.0,0.0,178.0,192.0,17.0,178.0,1744418727.0150843,0.0,2025-04-11 20:45:27.015,BACKWARD,25
157.0,10414.191831850032,-7713.363494081914,-24041.37987391709,-23615.646197276856,18012.957932109588,8700.595343183917,20117.061748154374,53002.82573733637,0.0,0.0,0.0,193.0,0.0,193.0,0.0,17.0,0.0,179.0,193.0,17.0,179.0,1744418727.0151265,0.0,2025-04-11 20:45:27.015,BACKWARD,25
158.0,10411.733139959948,-7736.363439126425,-24067.732580629898,-23648.324447670515,17995.52357143445,8481.72706147755,20348.134082333338,52893.19043078309,0.0,0.0,0.0,193.0,0.0,193.0,0.0,17.0,0.0,179.0,193.0,17.0,179.0,1744418727.0152273,0.0,2025-04-11 20:45:27.015,BACKWARD,25
159.0,10417.142262118134,-7718.102063906439,-24091.179560563512,-23602.324557581494,17881.01558458991,8558.237082748066,20176.003298283016,52866.18952348108,0.0,0.0,0.0,193.0,0.0,192.0,0.0,17.0,0.0,178.0,192.0,17.0,178.0,1744418727.0152707,0.0,2025-04-11 20:45:27.015,BACKWARD,25
160.0,10425.323000588776,-7692.106985104917,-24085.546920960776,-23575.211891557206,17843.57641262727,8753.412515331807,19923.94267606052,52979.71403356958,0.0,0.0,0.0,193.0,0.0,193.0,0.0,17.0,0.0,179.0,193.0,17.0,179.0,1744418727.0153124,0.0,2025-04-11 20:45:27.015,BACKWARD,25
161.0,10419.600954008218,-7716.917421450308,-24042.631571606587,-23591.998051643142,17990.829705098833,8721.941259138735,20062.098808538773,53030.854824883325,0.0,0.0,0.0,193.0,0.0,192.0,0.0,17.0,0.0,179.0,192.0,17.0,179.0,1744418727.0153575,0.0,2025-04-11 20:45:27.015,BACKWARD,25
162.0,10395.48342174094,-7740.163235683827,-24058.680124125498,-23636.29920915356,18031.621638729768,8519.054474717912,20381.03585017155,52957.22817864754,0.0,0.0,0.0,193.0,0.0,193.0,0.0,17.0,0.0,179.0,193.0,17.0,179.0,1744418727.0154605,0.0,2025-04-11 20:45:27.015,BACKWARD,25
163.0,10398.43385200904,-7708.311999835015,-24086.57510120572,-23606.28081635008,17901.53448599988,8523.457768375609,20234.028426888995,52868.13412524869,0.0,0.0,0.0,193.0,0.0,193.0,0.0,17.0,0.0,179.0,193.0,17.0,179.0,1744418727.0155036,0.0,2025-04-11 20:45:27.015,BACKWARD,25
164.0,10408.223916080466,-7663.027365568562,-24091.76070591935,-23575.390705512847,17824.756243795902,8755.178303143777,19977.743324964445,52977.63532133524,0.0,0.0,0.0,193.0,0.0,193.0,0.0,17.0,0.0,178.0,193.0,17.0,178.0,1744418727.0155485,0.0,2025-04-11 20:45:27.015,BACKWARD,25
165.0,10414.996494650424,-7657.640595154834,-24040.485804138876,-23577.648231702835,17957.816178538345,8762.979061958678,20017.216505672517,53038.72263893159,0.0,0.0,0.0,193.0,0.0,193.0,0.0,17.0,0.0,178.0,193.0,17.0,178.0,1744418727.015586,0.0,2025-04-11 20:45:27.015,BACKWARD,25
166.0,10393.494116484419,-7693.135165349861,-24045.917278041517,-23625.369206114916,18047.08904589284,8585.03682434998,20391.630577043365,53001.708150113605,0.0,0.0,0.0,193.0,0.0,192.0,0.0,17.0,0.0,178.0,192.0,17.0,178.0,1744418727.0156248,0.0,2025-04-11 20:45:27.015,BACKWARD,25
167.0,10387.325035014754,-7688.106022847417,-24084.67520292702,-23617.322578111005,17927.864840968232,8521.356704396809,20320.35086397539,52900.52180296443,0.0,0.0,0.0,193.0,0.0,192.0,0.0,17.0,0.0,179.0,192.0,17.0,179.0,1744418727.0156631,0.0,2025-04-11 20:45:27.015,BACKWARD,25
168.0,10397.785651419837,-7670.314034260993,-24096.231054810414,-23583.03500211656,17831.0594357323,8750.126808896877,20054.566270657335,52992.901562798215,0.0,0.0,0.0,193.0,0.0,192.0,0.0,17.0,0.0,178.0,192.0,17.0,178.0,1744418727.015705,0.0,2025-04-11 20:45:27.015,BACKWARD,25
169.0,10394.567000218272,-7682.987473367152,-24052.89102231157,-23584.04083061705,17919.617047264226,8787.78949830407,20001.99496769845,53068.115182890324,0.0,0.0,0.0,193.0,0.0,193.0,0.0,17.0,0.0,178.0,193.0,17.0,178.0,1744418727.0157392,0.0,2025-04-11 20:45:27.015,BACKWARD,25
170.0,10375.031575564335,-7719.532575551579,-24056.33319095769,-23634.86869750842,18030.325237551362,8609.713150228637,20375.716134991188,53048.93738614767,0.0,0.0,0.0,193.0,0.0,192.0,0.0,17.0,0.0,178.0,192.0,17.0,178.0,1744418727.015794,0.0,2025-04-11 20:45:27.015,BACKWARD,25
171.0,10385.089860569222,-7699.8183369419985,-24098.443877511487,-23637.573258587512,17928.49068981298,8464.650328713695,20361.70159121771,52922.359457297265,0.0,0.0,0.0,193.0,0.0,193.0,0.0,17.0,0.0,179.0,193.0,17.0,179.0,1744418727.0158732,0.0,2025-04-11 20:45:27.015,BACKWARD,25
172.0,10372.036441807324,-7681.601665210923,-24128.01523542586,-23606.7725547281,17833.607534600204,8678.444764428707,20119.095756899806,52996.611952377796,0.0,0.0,0.0,193.0,0.0,192.0,0.0,17.0,0.0,179.0,192.0,17.0,179.0,1744418727.0159447,0.0,2025-04-11 20:45:27.015,BACKWARD,25
173.0,10372.327014485243,-7681.1546303218165,-24097.460400755455,-23597.7200982237,17873.550101941837,8761.190922402255,19973.205920840017,53077.59232253937,0.0,0.0,0.0,193.0,0.0,193.0,0.0,17.0,0.0,180.0,193.0,17.0,180.0,1744418727.016132,0.0,2025-04-11 20:45:27.016,BACKWARD,25
174.0,10357.373697444642,-7713.654066759833,-24056.66846712452,-23631.359473628938,18030.83932767383,8630.477920827618,20317.646302896297,53077.43586032819,0.0,0.0,0.0,193.0,0.0,193.0,0.0,17.0,0.0,179.0,193.0,17.0,179.0,1744418727.0162091,0.0,2025-04-11 20:45:27.016,BACKWARD,25
175.0,10358.871264323148,-7706.412101556314,-24080.09309531368,-23632.34295038497,17956.139797704196,8458.838875155316,20388.70249851972,52945.426457575144,0.0,0.0,0.0,193.0,0.0,193.0,0.0,17.0,0.0,179.0,193.0,17.0,179.0,1744418727.0162563,0.0,2025-04-11 20:45:27.016,BACKWARD,25
176.0,10366.470857437953,-7680.081746587962,-24106.602264237674,-23595.216702844704,17845.319848694784,8651.265043171054,20164.380391166258,52983.53618187144,0.0,0.0,0.0,193.0,0.0,193.0,0.0,17.0,0.0,179.0,193.0,17.0,179.0,1744418727.0162904,0.0,2025-04-11 20:45:27.016,BACKWARD,25
177.0,10390.744851916415,-7666.737755148144,-24080.182502291504,-23583.347926538936,17839.351932925216,8783.542666857562,19969.227310326973,53077.771136495016,0.0,0.0,0.0,193.0,0.0,193.0,0.0,17.0,0.0,179.0,193.0,17.0,179.0,1744418727.0163481,0.0,2025-04-11 20:45:27.016,BACKWARD,25
178.0,10385.805116391793,-7699.0583776305175,-24033.065024979715,-23602.19044711476,18016.780080411445,8682.557485408484,20252.15569164225,53091.69627329067,0.0,0.0,0.0,193.0,0.0,193.0,0.0,17.0,0.0,179.0,193.0,17.0,179.0,1744418727.0163815,0.0,2025-04-11 20:45:27.016,BACKWARD,25
179.0,10356.077296266234,-7731.826035001998,-24070.750066131364,-23641.19424118927,17984.66062362917,8470.10415436079,20430.23203971768,52979.53521961394,0.0,0.0,0.0,193.0,0.0,193.0,0.0,17.0,0.0,179.0,193.0,17.0,179.0,1744418727.0164154,0.0,2025-04-11 20:45:27.016,BACKWARD,25
180.0,10343.247394948889,-7724.785235498576,-24114.112450374658,-23615.24386587666,17857.881529078666,8599.006664634546,20236.129490867796,52982.887981282234,0.0,0.0,0.0,193.0,0.0,193.0,0.0,17.0,0.0,179.0,193.0,17.0,179.0,1744418727.0164487,0.0,2025-04-11 20:45:27.016,BACKWARD,25
181.0,10365.420325448553,-7679.031214598563,-24087.402115750567,-23584.91254865081,17837.38497941315,8778.155896443832,19991.13201989317,53079.872200473816,0.0,0.0,0.0,193.0,0.0,193.0,0.0,17.0,0.0,179.0,193.0,17.0,179.0,1744418727.0164816,0.0,2025-04-11 20:45:27.016,BACKWARD,25
182.0,10347.784799073315,-7698.991322397152,-24047.14662398656,-23613.366319342414,18003.681958160636,8709.938372366236,20205.641711430755,53115.25501194657,0.0,0.0,0.0,193.0,0.0,192.0,0.0,17.0,0.0,179.0,192.0,17.0,179.0,1744418727.0165136,0.0,2025-04-11 20:45:27.016,BACKWARD,25
183.0,10330.484548864908,-7729.277936134093,-24071.018287064828,-23647.944468014775,18010.7004059196,8484.364567323277,20456.495339452667,53011.65467639622,0.0,0.0,0.0,193.0,0.0,193.0,0.0,17.0,0.0,179.0,193.0,17.0,179.0,1744418727.0165453,0.0,2025-04-11 20:45:27.016,BACKWARD,25
184.0,10320.493319093386,-7730.14965416785,-24112.503124773877,-23624.13986016987,17880.993232845456,8561.45573394963,20309.73378535912,52989.191173218635,0.0,0.0,0.0,193.0,0.0,192.0,0.0,17.0,0.0,179.0,192.0,17.0,179.0,1744418727.0165768,0.0,2025-04-11 20:45:27.016,BACKWARD,25
185.0,10337.324182668232,-7699.706578219721,-24107.87631367163,-23589.964042897707,17811.18873491153,8777.239474921165,20052.711075867544,53104.70498856366,0.0,0.0,0.0,193.0,0.0,193.0,0.0,17.0,0.0,179.0,193.0,17.0,179.0,1744418727.0166087,0.0,2025-04-11 20:45:27.016,BACKWARD,25
186.0,10348.231833962422,-7699.147784608339,-24054.500347912355,-23594.85907493342,17939.823024251822,8742.661326248804,20149.158853192195,53133.80695984447,0.0,0.0,0.0,193.0,0.0,193.0,0.0,17.0,0.0,179.0,193.0,17.0,179.0,1744418727.0166404,0.0,2025-04-11 20:45:27.016,BACKWARD,25
187.0,10329.210499430956,-7728.249755889149,-24068.447836452466,-23642.714159812233,18001.379728481737,8544.758980841516,20475.740191428686,53060.716755475616,0.0,0.0,0.0,193.0,0.0,193.0,0.0,17.0,0.0,179.0,193.0,17.0,179.0,1744418727.016672,0.0,2025-04-11 20:45:27.016,BACKWARD,25
188.0,10319.576897570718,-7736.698715293255,-24101.640176968598,-23614.14863039835,17887.609349204224,8533.672515591683,20357.20889058219,52983.42442314916,0.0,0.0,0.0,193.0,0.0,193.0,0.0,17.0,0.0,179.0,193.0,17.0,179.0,1744418727.0167167,0.0,2025-04-11 20:45:27.016,BACKWARD,25
189.0,10317.922868481026,-7713.117624892906,-24113.419546296544,-23581.895063149343,17801.599836540205,8759.693355523748,20103.807163692378,53091.964494224136,0.0,0.0,0.0,193.0,0.0,193.0,0.0,17.0,0.0,178.0,193.0,17.0,178.0,1744418727.0167487,0.0,2025-04-11 20:45:27.016,BACKWARD,25
190.0,10329.210499430956,-7715.129281893884,-24061.09411252667,-23588.600586485933,17917.136003629686,8760.20744564622,20108.635140494724,53138.1431982688,0.0,0.0,0.0,193.0,0.0,193.0,0.0,17.0,0.0,180.0,193.0,17.0,180.0,1744418727.0167801,0.0,2025-04-11 20:45:27.016,BACKWARD,25
191.0,10301.024949672812,-7762.1573522278495,-24067.3302492297,-23640.076653966506,18017.920019378667,8580.61117894783,20497.19786610578,53110.24822118857,0.0,0.0,0.0,193.0,0.0,192.0,0.0,17.0,0.0,178.0,192.0,17.0,178.0,1744418727.0168116,0.0,2025-04-11 20:45:27.016,BACKWARD,25
192.0,10302.611923529139,-7745.281785164093,-24098.488581000398,-23619.557752556535,17907.34593955826,8494.86988721727,20428.868583305906,52995.62847562176,0.0,0.0,0.0,193.0,0.0,193.0,0.0,17.0,0.0,179.0,193.0,17.0,179.0,1744418727.016857,0.0,2025-04-11 20:45:27.016,BACKWARD,25
193.0,10307.551659053763,-7712.357665581426,-24112.14549686259,-23581.068048604495,17815.636732058138,8743.980079171668,20169.163664479693,53080.31923536292,0.0,0.0,0.0,193.0,0.0,193.0,0.0,17.0,0.0,179.0,193.0,17.0,179.0,1744418727.016889,0.0,2025-04-11 20:45:27.016,BACKWARD,25
194.0,10311.574973055718,-7728.830901244986,-24077.6344034236,-23587.86297891891,17881.797895645846,8795.389091418874,20096.185218833118,53144.42403846074,0.0,0.0,0.0,193.0,0.0,193.0,0.0,17.0,0.0,178.0,193.0,17.0,178.0,1744418727.0169203,0.0,2025-04-11 20:45:27.016,BACKWARD,25
195.0,10295.191144369977,-7771.455677921257,-24061.116464271126,-23629.9289619838,18013.404966998693,8636.334077874908,20468.85585413645,53114.49505263508,0.0,0.0,0.0,193.0,0.0,193.0,0.0,17.0,0.0,179.0,193.0,17.0,179.0,1744418727.0169525,0.0,2025-04-11 20:45:27.016,BACKWARD,25
196.0,10296.621656015117,-7763.699622595266,-24101.371956035135,-23632.20883991824,17911.16808786012,8483.604608011796,20473.81794140553,52968.80638227539,0.0,0.0,0.0,193.0,0.0,193.0,0.0,17.0,0.0,179.0,193.0,17.0,179.0,1744418727.016984,0.0,2025-04-11 20:45:27.016,BACKWARD,25
197.0,10304.154193896557,-7727.601555299945,-24123.991921423905,-23587.035964374063,17809.154726166096,8695.946180337212,20231.457976276633,53024.03754282446,0.0,0.0,0.0,193.0,0.0,193.0,0.0,17.0,0.0,179.0,193.0,17.0,179.0,1744418727.0170157,0.0,2025-04-11 20:45:27.017,BACKWARD,25
198.0,10322.28145864981,-7717.409159828325,-24084.652851182564,-23568.394609498337,17848.739665596448,8789.175306460298,20069.87721560922,53093.46206110264,0.0,0.0,0.0,193.0,0.0,192.0,0.0,17.0,0.0,178.0,192.0,17.0,178.0,1744418727.4896717,0.0,2025-04-11 20:45:27.489,BACKWARD,25
199.0,10311.61967654463,-7746.645241575867,-24050.745254843863,-23602.637482003865,18006.766498895468,8671.493371903107,20407.94735049574,53089.77402326751,0.0,0.0,0.0,193.0,0.0,193.0,0.0,17.0,0.0,179.0,193.0,17.0,179.0,1744418727.4898467,0.0,2025-04-11 20:45:27.489,BACKWARD,25
200.0,10311.2844003778,-7753.574282357012,-24089.011441351347,-23624.430432847792,17944.94157373209,8485.34804407931,20512.106479657472,52952.422553589655,0.0,0.0,0.0,193.0,0.0,193.0,0.0,17.0,0.0,179.0,193.0,17.0,179.0,1744418727.4898872,0.0,2025-04-11 20:45:27.489,BACKWARD,25
201.0,10299.147403138568,-7742.443113618268,-24123.611941768166,-23590.321670808993,17839.553098625314,8657.724697318637,20299.161410231758,52976.54008585693,0.0,0.0,0.0,193.0,0.0,193.0,0.0,17.0,0.0,179.0,193.0,17.0,179.0,1744418727.4899251,0.0,2025-04-11 20:45:27.489,BACKWARD,25
202.0,10302.74603399587,-7735.111741436928,-24100.187313579,-23577.692935191746,17840.693037592537,8807.347274702463,20097.41456477816,53065.9247119337,0.0,0.0,0.0,193.0,0.0,193.0,0.0,17.0,0.0,179.0,193.0,17.0,179.0,1744418727.489963,0.0,2025-04-11 20:45:27.489,BACKWARD,25
203.0,10283.501182019852,-7761.375041171914,-24060.267097981825,-23607.890141950866,17999.725699392045,8712.352360767409,20379.918262948784,53080.83332548539,0.0,0.0,0.0,193.0,0.0,192.0,0.0,17.0,0.0,178.0,192.0,17.0,178.0,1744418727.4900465,0.0,2025-04-11 20:45:27.490,BACKWARD,25
204.0,10272.213551069923,-7772.685023866299,-24096.00753736586,-23639.115528954928,17957.793826793888,8503.341198365832,20576.34539322202,52958.43517284813,0.0,0.0,0.0,193.0,0.0,193.0,0.0,17.0,0.0,179.0,193.0,17.0,179.0,1744418727.4900851,0.0,2025-04-11 20:45:27.490,BACKWARD,25
205.0,10270.26894930231,-7758.603424859456,-24136.10656691868,-23612.405194330837,17821.135261194144,8614.22820260861,20387.495504319133,52934.0941231363,0.0,0.0,0.0,193.0,0.0,193.0,0.0,17.0,0.0,178.0,193.0,17.0,178.0,1744418727.4901216,0.0,2025-04-11 20:45:27.490,BACKWARD,25
206.0,10286.630426243595,-7737.615136815923,-24111.25142708438,-23578.229377058673,17794.156705636586,8791.41048090583,20133.087948928827,53019.25426951102,0.0,0.0,0.0,193.0,0.0,193.0,0.0,17.0,0.0,179.0,193.0,17.0,179.0,1744418727.490159,0.0,2025-04-11 20:45:27.490,BACKWARD,25
207.0,10271.788867925272,-7775.858971578953,-24060.065932281726,-23599.999976158142,17958.64319308319,8727.14921559682,20319.63560815282,53035.34752551884,0.0,0.0,0.0,193.0,0.0,193.0,0.0,17.0,0.0,179.0,193.0,17.0,179.0,1744418727.490218,0.0,2025-04-11 20:45:27.490,BACKWARD,25
208.0,10264.010460854824,-7808.40311150588,-24088.54205471779,-23638.132052198896,17972.233053712018,8516.573431083374,20606.3637860255,52936.66457374866,0.0,0.0,0.0,193.0,0.0,192.0,0.0,17.0,0.0,178.0,192.0,17.0,178.0,1744418727.490256,0.0,2025-04-11 20:45:27.490,BACKWARD,25
209.0,10259.763629408317,-7796.824907878031,-24128.64108427061,-23609.410060573824,17852.025372031378,8557.49947518104,20461.636240677388,52880.204067254555,0.0,0.0,0.0,193.0,0.0,193.0,0.0,17.0,0.0,179.0,193.0,17.0,179.0,1744418727.4902928,0.0,2025-04-11 20:45:27.490,BACKWARD,25
210.0,10270.090135346669,-7753.663689334833,-24112.458421284966,-23572.216757800194,17793.173228880554,8770.288082395564,20197.550379937933,52974.05904222239,0.0,0.0,0.0,193.0,0.0,193.0,0.0,17.0,0.0,178.0,193.0,17.0,178.0,1744418727.4903295,0.0,2025-04-11 20:45:27.490,BACKWARD,25
211.0,10272.03473711428,-7766.962977285741,-24057.607240391644,-23578.81052241451,17925.942590945077,8761.950881713734,20280.877683267317,53009.15128101722,0.0,0.0,0.0,193.0,0.0,193.0,0.0,17.0,0.0,179.0,193.0,17.0,179.0,1744418727.490366,0.0,2025-04-11 20:45:27.490,BACKWARD,25
212.0,10262.021155598302,-7798.054253823073,-24067.28554574079,-23626.531496826592,17983.006594539474,8563.601501417339,20620.400681543433,52926.561585254865,0.0,0.0,0.0,193.0,0.0,192.0,0.0,17.0,0.0,178.0,192.0,17.0,178.0,1744418727.4904032,0.0,2025-04-11 20:45:27.490,BACKWARD,25
213.0,10259.160132308023,-7788.107727540461,-24107.049299126782,-23613.25456062014,17877.77458164389,8531.817320801892,20503.76927897564,52818.2673833689,0.0,0.0,0.0,193.0,0.0,193.0,0.0,17.0,0.0,179.0,193.0,17.0,179.0,1744418727.49044,0.0,2025-04-11 20:45:27.490,BACKWARD,25
214.0,10262.691707931961,-7762.470276650224,-24116.973473664937,-23579.548129981536,17794.91666494807,8757.994622945145,20236.777691457,52903.695750677085,0.0,0.0,0.0,193.0,0.0,192.0,0.0,17.0,0.0,178.0,192.0,17.0,178.0,1744418727.490477,0.0,2025-04-11 20:45:27.490,BACKWARD,25
215.0,10277.46621101692,-7756.3458986694695,-24064.33511547269,-23578.31878403649,17901.132154599687,8774.244341164153,20223.321941294904,52943.750076740995,0.0,0.0,0.0,193.0,0.0,193.0,0.0,17.0,0.0,179.0,193.0,17.0,179.0,1744418727.4905138,0.0,2025-04-11 20:45:27.490,BACKWARD,25
216.0,10247.69368740245,-7802.323437014036,-24076.650926667564,-23636.567430087023,18005.917132606166,8596.659731466738,20617.562009997608,52910.13305308021,0.0,0.0,0.0,193.0,0.0,192.0,0.0,17.0,0.0,179.0,192.0,17.0,179.0,1744418727.4905503,0.0,2025-04-11 20:45:27.490,BACKWARD,25
217.0,10256.209702039921,-7781.1786867593155,-24107.697499715985,-23616.316749610516,17897.06413710882,8493.908762205692,20568.07524777356,52778.481278238454,0.0,0.0,0.0,193.0,0.0,193.0,0.0,17.0,0.0,179.0,193.0,17.0,179.0,1744418727.4905872,0.0,2025-04-11 20:45:27.490,BACKWARD,25
218.0,10257.751972407339,-7774.316701211536,-24132.48558431692,-23582.23033931617,17788.90404568959,8728.132692352854,20320.552029675488,52853.85136054175,0.0,0.0,0.0,193.0,0.0,193.0,0.0,17.0,0.0,178.0,193.0,17.0,178.0,1744418727.4906404,0.0,2025-04-11 20:45:27.490,BACKWARD,25
219.0,10258.757800907828,-7791.25932350866,-24089.503179729367,-23578.89992939233,17861.033125046866,8787.990664004166,20220.304455793437,52913.552869981875,0.0,0.0,0.0,193.0,0.0,192.0,0.0,17.0,0.0,178.0,192.0,17.0,178.0,1744418727.4906778,0.0,2025-04-11 20:45:27.490,BACKWARD,25
220.0,10220.581021378162,-7836.678068241843,-24073.186406276993,-23626.889124737874,18013.8520018878,8642.391400622297,20596.149038809424,52901.68409367611,0.0,0.0,0.0,193.0,0.0,193.0,0.0,17.0,0.0,179.0,193.0,17.0,179.0,1744418727.4907148,0.0,2025-04-11 20:45:27.490,BACKWARD,25
221.0,10218.725826588372,-7827.670315226354,-24115.38649980861,-23635.11456669743,17925.115576400232,8467.57840723734,20617.60671348652,52758.409411717585,0.0,0.0,0.0,193.0,0.0,192.0,0.0,17.0,0.0,178.0,192.0,17.0,178.0,1744418727.4907515,0.0,2025-04-11 20:45:27.490,BACKWARD,25
222.0,10231.108693016613,-7800.9599806022625,-24147.43890135752,-23601.00580465863,17796.883618460135,8672.208627725677,20374.88912044634,52802.174127361075,0.0,0.0,0.0,193.0,0.0,193.0,0.0,17.0,0.0,179.0,193.0,17.0,179.0,1744418727.4908028,0.0,2025-04-11 20:45:27.490,BACKWARD,25
223.0,10251.560539193219,-7777.043614035084,-24107.67514797153,-23591.72983070968,17835.01569450089,8777.842972021457,20197.013938071006,52870.86103807224,0.0,0.0,0.0,193.0,0.0,193.0,0.0,17.0,0.0,179.0,193.0,17.0,179.0,1744418727.4908402,0.0,2025-04-11 20:45:27.490,BACKWARD,25
224.0,10225.207832480412,-7826.485672770224,-24074.438103966488,-23629.169002672315,18012.734414665036,8667.537113134518,20525.15989841937,52870.682224116594,0.0,0.0,0.0,193.0,0.0,193.0,0.0,17.0,0.0,179.0,193.0,17.0,179.0,1744418727.4908772,0.0,2025-04-11 20:45:27.490,BACKWARD,25
225.0,10218.099977743625,-7843.428295067346,-24103.04833686928,-23640.25546792215,17956.07274247083,8488.92432319216,20638.058559663124,52728.59218461421,0.0,0.0,0.0,193.0,0.0,193.0,0.0,17.0,0.0,179.0,193.0,17.0,179.0,1744418727.4909143,0.0,2025-04-11 20:45:27.490,BACKWARD,25
226.0,10226.683047614462,-7821.255364567682,-24125.333026091223,-23600.402307558335,17836.87088929068,8645.297127401487,20414.74228081015,52727.161672969065,0.0,0.0,0.0,193.0,0.0,193.0,0.0,17.0,0.0,178.0,193.0,17.0,178.0,1744418727.4909508,0.0,2025-04-11 20:45:27.490,BACKWARD,25
227.0,10256.187350295468,-7790.812288619553,-24097.28158679981,-23572.462626989203,17838.0108282579,8803.994513034168,20192.588292668857,52814.10995890021,0.0,0.0,0.0,193.0,0.0,192.0,0.0,17.0,0.0,178.0,192.0,17.0,178.0,1744418727.490988,0.0,2025-04-11 20:45:27.490,BACKWARD,25
228.0,10242.262213499811,-7820.137777344916,-24050.633496121587,-23590.791057442555,18007.70527216259,8741.20846285921,20453.99194407367,52835.41117136612,0.0,0.0,0.0,193.0,0.0,193.0,0.0,17.0,0.0,179.0,193.0,17.0,179.0,1744418727.4910252,0.0,2025-04-11 20:45:27.491,BACKWARD,25
229.0,10223.911431302004,-7841.796617722109,-24079.109618557646,-23623.983397958684,17981.30786196087,8539.036934260957,20675.2295106923,52715.225841429936,0.0,0.0,0.0,193.0,0.0,192.0,0.0,17.0,0.0,178.0,192.0,17.0,178.0,1744418727.4910624,0.0,2025-04-11 20:45:27.491,BACKWARD,25
230.0,10229.812291838205,-7815.2203935647485,-24111.854924184674,-23592.825066187987,17849.96901154149,8641.56438607745,20494.225084093225,52680.55828577975,0.0,0.0,0.0,193.0,0.0,193.0,0.0,17.0,0.0,179.0,193.0,17.0,179.0,1744418727.491099,0.0,2025-04-11 20:45:27.491,BACKWARD,25
231.0,10245.011478067814,-7799.037730579106,-24104.54590374779,-23570.85330138842,17798.112964405176,8832.202414536765,20250.076979407906,52773.89917062512,0.0,0.0,0.0,193.0,0.0,192.0,0.0,17.0,0.0,179.0,192.0,17.0,179.0,1744418727.4911356,0.0,2025-04-11 20:45:27.491,BACKWARD,25
232.0,10228.69470461544,-7827.513853015167,-24065.832682351196,-23593.13799061036,17965.79575130889,8762.867303236402,20407.99205398465,52784.18097307456,0.0,0.0,0.0,193.0,0.0,193.0,0.0,17.0,0.0,179.0,193.0,17.0,179.0,1744418727.4911723,0.0,2025-04-11 20:45:27.491,BACKWARD,25
233.0,10212.377931163064,-7855.945271962318,-24091.268967541335,-23641.037778978083,17999.882161603233,8543.082600007368,20709.29356924219,52687.24145737189,0.0,0.0,0.0,193.0,0.0,192.0,0.0,17.0,0.0,178.0,192.0,17.0,178.0,1744418727.4912212,0.0,2025-04-11 20:45:27.491,BACKWARD,25
234.0,10209.963942761891,-7840.008478165684,-24123.075499901235,-23612.8745809644,17885.59769220325,8583.338091771377,20576.41244845539,52631.00446832234,0.0,0.0,0.0,193.0,0.0,193.0,0.0,17.0,0.0,179.0,193.0,17.0,179.0,1744418727.4912555,0.0,2025-04-11 20:45:27.491,BACKWARD,25
235.0,10223.754969090816,-7810.280658040126,-24125.958874935972,-23584.6666794618,17806.76308950938,8801.31230369953,20310.78431734852,52727.943984025005,0.0,0.0,0.0,193.0,0.0,192.0,0.0,17.0,0.0,178.0,192.0,17.0,178.0,1744418727.4912894,0.0,2025-04-11 20:45:27.491,BACKWARD,25
236.0,10235.154358763022,-7824.831643680531,-24067.821987607716,-23583.66085096131,17937.11846317273,8783.810887791025,20354.459626014188,52750.85452209169,0.0,0.0,0.0,193.0,0.0,193.0,0.0,17.0,0.0,179.0,193.0,17.0,179.0,1744418727.4913232,0.0,2025-04-11 20:45:27.491,BACKWARD,25
237.0,10212.3108759297,-7862.9413679768295,-24081.165979047535,-23634.10873819694,18011.214496042074,8588.881324396292,20718.368377491042,52688.04612017228,0.0,0.0,0.0,193.0,0.0,192.0,0.0,17.0,0.0,178.0,192.0,17.0,178.0,1744418727.4914663,0.0,2025-04-11 20:45:27.491,BACKWARD,25
238.0,10202.811384536193,-7864.148362177416,-24123.701348745984,-23617.680206022287,17886.894093381656,8540.065114505902,20627.441481046855,52585.965703244896,0.0,0.0,0.0,193.0,0.0,193.0,0.0,17.0,0.0,179.0,193.0,17.0,179.0,1744418727.4915,0.0,2025-04-11 20:45:27.491,BACKWARD,25
239.0,10216.624762609574,-7831.581870506034,-24121.712043489464,-23568.05933333151,17806.80779299829,8779.83227727798,20353.274983558058,52665.448506527966,0.0,0.0,0.0,193.0,0.0,193.0,0.0,17.0,0.0,179.0,193.0,17.0,179.0,1744418727.4915328,0.0,2025-04-11 20:45:27.491,BACKWARD,25
240.0,10233.477977928875,-7820.182480833827,-24065.385647462088,-23554.491824447137,17912.06215763833,8813.382245705396,20312.661863882764,52702.910030235056,0.0,0.0,0.0,193.0,0.0,192.0,0.0,17.0,0.0,178.0,192.0,17.0,178.0,1744418727.4915652,0.0,2025-04-11 20:45:27.491,BACKWARD,25
241.0,10200.352692646109,-7868.84222851303,-24075.19806327797,-23607.15253438384,18030.213478829086,8650.1921594372,20697.84947608107,52666.0296518838,0.0,0.0,0.0,193.0,0.0,193.0,0.0,17.0,0.0,179.0,193.0,17.0,179.0,1744418727.491598,0.0,2025-04-11 20:45:27.491,BACKWARD,25
242.0,10203.861916525593,-7867.03173721215,-24111.76551720685,-23595.976662156187,17931.21760263653,8531.057361490413,20666.355868143542,52532.03094387423,0.0,0.0,0.0,193.0,0.0,193.0,0.0,17.0,0.0,179.0,193.0,17.0,179.0,1744418727.491631,0.0,2025-04-11 20:45:27.491,BACKWARD,25
243.0,10205.717111315384,-7848.524492803156,-24129.691616260006,-23563.14194955134,17839.687209092048,8759.693355523748,20342.63555319733,52597.38744466155,0.0,0.0,0.0,193.0,0.0,193.0,0.0,17.0,0.0,179.0,193.0,17.0,179.0,1744418727.4916637,0.0,2025-04-11 20:45:27.491,BACKWARD,25
244.0,10220.491614400342,-7836.8792339419415,-24085.345755260678,-23558.98452508265,17897.89115165367,8828.715542401736,20061.540014927392,52654.98789012288,0.0,0.0,0.0,193.0,0.0,193.0,0.0,17.0,0.0,179.0,193.0,17.0,179.0,1744418727.4916964,0.0,2025-04-11 20:45:27.491,BACKWARD,25
245.0,10201.82790778016,-7865.355356378002,-24066.078551540202,-23602.95040642624,18049.480682549558,8689.19595351171,20379.314765848492,52646.94126211897,0.0,0.0,0.0,193.0,0.0,193.0,0.0,17.0,0.0,179.0,193.0,17.0,179.0,1744418727.4917283,0.0,2025-04-11 20:45:27.491,BACKWARD,25
246.0,10190.495573341319,-7857.286376629637,-24107.116354360147,-23621.636464790878,17963.515873374447,8507.744492023527,20415.81516454401,52501.990199326305,0.0,0.0,0.0,193.0,0.0,193.0,0.0,17.0,0.0,179.0,193.0,17.0,179.0,1744418727.4917607,0.0,2025-04-11 20:45:27.491,BACKWARD,25
247.0,10190.182648918944,-7837.125103130949,-24132.06090117227,-23586.030135873574,17847.0632847623,8707.367921753874,20184.38520245376,52537.68593522143,0.0,0.0,0.0,193.0,0.0,193.0,0.0,17.0,0.0,179.0,193.0,17.0,179.0,1744418727.491793,0.0,2025-04-11 20:45:27.491,BACKWARD,25
248.0,10212.243820696332,-7834.331135074036,-24097.661566455554,-23566.718228664187,17855.691058122047,8817.226745751708,20002.173781654095,52610.50791865682,0.0,0.0,0.0,193.0,0.0,193.0,0.0,17.0,0.0,178.0,193.0,17.0,178.0,1744418727.4918404,0.0,2025-04-11 20:45:27.491,BACKWARD,25
249.0,10200.419747879476,-7879.593417596033,-24058.635420636587,-23594.166170855307,18007.325292506852,8696.90730534879,20308.862067325364,52603.80239532023,0.0,0.0,0.0,193.0,0.0,193.0,0.0,17.0,0.0,179.0,193.0,17.0,179.0,1744418727.4918733,0.0,2025-04-11 20:45:27.491,BACKWARD,25
250.0,10194.362425132087,-7882.029757741661,-24093.973528620427,-23612.360490841926,17952.205890680063,8506.090462933835,20458.70816215374,52471.07773674461,0.0,0.0,0.0,193.0,0.0,192.0,0.0,17.0,0.0,178.0,192.0,17.0,178.0,1744418727.4919057,0.0,2025-04-11 20:45:27.491,BACKWARD,25
251.0,10184.147677916013,-7870.429202369357,-24126.428261569534,-23572.641440944844,17861.658973891615,8678.712985362172,20275.91559599824,52480.62193162703,0.0,0.0,0.0,193.0,0.0,193.0,0.0,17.0,0.0,179.0,193.0,17.0,179.0,1744418727.491938,0.0,2025-04-11 20:45:27.491,BACKWARD,25
252.0,10192.373119875565,-7863.656623799399,-24109.284473572312,-23552.05548430151,17844.49283414994,8848.519187989139,20055.236822990995,52569.045432692226,0.0,0.0,0.0,193.0,0.0,192.0,0.0,17.0,0.0,179.0,192.0,17.0,179.0,1744418727.4919846,0.0,2025-04-11 20:45:27.491,BACKWARD,25
253.0,10174.379965589043,-7900.715816106298,-24066.77145561832,-23584.867845161898,18004.732490150036,8769.773992273093,20295.20515146317,52580.86950550908,0.0,0.0,0.0,193.0,0.0,193.0,0.0,17.0,0.0,179.0,193.0,17.0,179.0,1744418727.4920175,0.0,2025-04-11 20:45:27.492,BACKWARD,25
254.0,10162.980575916836,-7916.317333736102,-24099.069726356236,-23627.336159626982,17995.121240034252,8541.249756962032,20529.093805443503,52457.39846913797,0.0,0.0,0.0,193.0,0.0,192.0,0.0,17.0,0.0,179.0,192.0,17.0,179.0,1744418727.4920573,0.0,2025-04-11 20:45:27.492,BACKWARD,25
255.0,10173.798820233205,-7879.235789684748,-24126.182392380524,-23590.992223142654,17889.933930627576,8631.617859794838,20348.894041644817,52406.3694365465,0.0,0.0,0.0,193.0,0.0,193.0,0.0,17.0,0.0,179.0,193.0,17.0,179.0,1744418727.49209,0.0,2025-04-11 20:45:27.492,BACKWARD,25
0.0,10193.02132046477,-7849.9103009593855,-24112.234903840414,-23564.080722818464,17852.606517387216,8841.388981507896,20093.54771298739,52494.43530970041,0.0,0.0,0.0,193.0,0.0,193.0,0.0,17.0,0.0,179.0,193.0,17.0,179.0,1744418727.492123,0.0,2025-04-11 20:45:27.492,BACKWARD,25
1.0,10181.688986025929,-7877.849981528519,-24071.331211487202,-23586.119542851397,17993.08723128882,8785.666082580816,20236.19654610116,52516.27296403325,0.0,0.0,0.0,193.0,0.0,193.0,0.0,17.0,0.0,179.0,193.0,17.0,179.0,1744418727.492155,0.0,2025-04-11 20:45:27.492,BACKWARD,25
2.0,10173.39648883301,-7884.935484520851,-24084.831665138205,-23621.9270374688,18022.345664780816,8568.049498563945,20554.68655284483,52420.048704153145,0.0,0.0,0.0,193.0,0.0,193.0,0.0,17.0,0.0,179.0,193.0,17.0,179.0,1744418727.492188,0.0,2025-04-11 20:45:27.492,BACKWARD,25
3.0,10173.016509177269,-7879.481658873757,-24121.510877789366,-23597.943615668253,17898.137020842674,8586.713205184127,20436.155251998338,52341.59408111502,0.0,0.0,0.0,193.0,0.0,192.0,0.0,17.0,0.0,178.0,192.0,17.0,178.0,1744418727.4922204,0.0,2025-04-11 20:45:27.492,BACKWARD,25
