Sample Index,EXG Channel 0,EXG Channel 1,EXG Channel 2,EXG Channel 3,EXG Channel 4,EXG Channel 5,EXG Channel 6,EXG Channel 7,Accel Channel 0,Accel Channel 1,Accel Channel 2,Not Used,Digital Channel 0 (D11),Digital Channel 1 (D12),Digital Channel 2 (D13),Digital Channel 3 (D17),Not Used,Digital Channel 4 (D18),Analog Channel 0,Analog Channel 1,Analog Channel 2,Timestamp,Marker Channel,Timestamp (Formatted),Stimulus_Direction,Stimulus_Number
169.0,8379.445478850064,-6065.078802714205,-20033.555630869345,-23345.81593821239,12713.694597923113,15509.607256604108,30634.6303981102,51757.319481053295,0.0,0.0,0.0,193.0,0.0,192.0,0.0,1.0,0.0,178.0,192.0,1.0,178.0,1744418918.2896132,0.0,2025-04-11 20:48:38.289,BACKWARD,49
170.0,8373.254045635944,-6108.508242190867,-20062.165863772138,-23384.77502879799,12733.587650488336,15316.778757188173,30875.313982404947,51661.69871827349,0.0,0.0,0.0,193.0,0.0,192.0,0.0,1.0,0.0,179.0,192.0,1.0,179.0,1744418918.2896485,0.0,2025-04-11 20:48:38.289,BACKWARD,49
171.0,8369.32013861181,-6088.995169281384,-20096.721660700045,-23352.297944104426,12613.156451363142,15389.310167945645,30695.337736050817,51594.50937444084,0.0,0.0,0.0,193.0,0.0,192.0,0.0,1.0,0.0,178.0,192.0,1.0,178.0,1744418918.2896836,0.0,2025-04-11 20:48:38.289,BACKWARD,49
172.0,8366.503818810443,-6062.620110824122,-20097.280454311425,-23325.118222846773,12553.834921578757,15587.190161608478,30460.577364036726,51717.265154989385,0.0,0.0,0.0,193.0,0.0,193.0,0.0,1.0,0.0,179.0,193.0,1.0,179.0,1744418918.2897336,0.0,2025-04-11 20:48:38.289,BACKWARD,49
173.0,8381.188914917579,-6073.05837548475,-20031.923953524107,-23329.99090313803,12703.524554195948,15549.527472201285,30570.346781056738,51765.34375731275,0.0,0.0,0.0,193.0,0.0,193.0,0.0,1.0,0.0,179.0,193.0,1.0,179.0,1744418918.2897694,0.0,2025-04-11 20:48:38.289,BACKWARD,49
174.0,8369.364842100722,-6100.483965931412,-20046.564346142335,-23379.321203150896,12767.13761891575,15352.51919657221,30881.125435963328,51691.27007618786,0.0,0.0,0.0,193.0,0.0,193.0,0.0,1.0,0.0,179.0,193.0,1.0,179.0,1744418918.2898045,0.0,2025-04-11 20:48:38.289,BACKWARD,49
175.0,8369.811876989826,-6085.955332035463,-20094.017099620953,-23359.33874360785,12629.562631793337,15344.092588912557,30743.84102151883,51589.14495577156,0.0,0.0,0.0,193.0,0.0,193.0,0.0,1.0,0.0,179.0,193.0,1.0,179.0,1744418918.28984,0.0,2025-04-11 20:48:38.289,BACKWARD,49
176.0,8383.625255063207,-6050.349003118158,-20098.59920723429,-23317.22805705405,12547.62113662018,15558.624632194595,30489.209948683972,51691.76181456588,0.0,0.0,0.0,193.0,0.0,193.0,0.0,1.0,0.0,178.0,193.0,1.0,178.0,1744418918.289888,0.0,2025-04-11 20:48:38.289,BACKWARD,49
177.0,8384.765194030428,-6050.147837418061,-20054.67802937961,-23329.163888593186,12651.26617565944,15556.210643793422,30520.390632199127,51765.90255092413,0.0,0.0,0.0,193.0,0.0,193.0,0.0,1.0,0.0,178.0,193.0,1.0,178.0,1744418918.289924,0.0,2025-04-11 20:48:38.289,BACKWARD,49
178.0,8383.759365529939,-6067.537494604289,-20043.21158447404,-23370.67107804669,12768.165799160695,15383.275196942712,30863.087578187893,51713.73357936544,0.0,0.0,0.0,193.0,0.0,192.0,0.0,1.0,0.0,178.0,192.0,1.0,178.0,1744418918.2899592,0.0,2025-04-11 20:48:38.289,BACKWARD,49
179.0,8384.094641696769,-6065.637596325588,-20091.245483308492,-23364.72551402158,12652.495521604482,15318.41043453341,30786.734019128566,51581.701824867945,0.0,0.0,0.0,193.0,0.0,192.0,0.0,1.0,0.0,178.0,192.0,1.0,178.0,1744418918.2899947,0.0,2025-04-11 20:48:38.289,BACKWARD,49
180.0,8384.51932484142,-6051.891273485574,-20114.781870219933,-23335.80235669641,12545.922404041577,15536.295239483743,30548.33031276826,51672.42755561204,0.0,0.0,0.0,193.0,0.0,192.0,0.0,1.0,0.0,178.0,192.0,1.0,178.0,1744418918.2900302,0.0,2025-04-11 20:48:38.290,BACKWARD,49
181.0,8392.767118545427,-6043.688183270477,-20065.11629404024,-23335.80235669641,12615.682198486591,15572.080382356691,30471.75323626438,51748.512893737905,0.0,0.0,0.0,193.0,0.0,193.0,0.0,1.0,0.0,179.0,193.0,1.0,179.0,1744418918.2900658,0.0,2025-04-11 20:48:38.290,BACKWARD,49
182.0,8369.297786867355,-6085.5530006352665,-20043.457453663046,-23382.45044737464,12768.38931660525,15427.643409686496,30822.697975957155,51738.90164362212,0.0,0.0,0.0,193.0,0.0,193.0,0.0,1.0,0.0,179.0,193.0,1.0,179.0,1744418918.2901013,0.0,2025-04-11 20:48:38.290,BACKWARD,49
183.0,8374.438688092076,-6095.521878662334,-20094.195913576594,-23391.569959112403,12662.486751376004,15293.912922610394,30812.505580485533,51596.20810701944,0.0,0.0,0.0,193.0,0.0,193.0,0.0,1.0,0.0,179.0,193.0,1.0,179.0,1744418918.2901363,0.0,2025-04-11 20:48:38.290,BACKWARD,49
184.0,8376.94208347107,-6077.305206931259,-20116.30178884289,-23349.39221732524,12552.605575633714,15499.124288454568,30572.80547294682,51646.38777332161,0.0,0.0,0.0,193.0,0.0,193.0,0.0,1.0,0.0,178.0,193.0,1.0,178.0,1744418918.2901723,0.0,2025-04-11 20:48:38.290,BACKWARD,49
185.0,8393.2812086679,-6054.014689208829,-20073.073515066328,-23331.689635716633,12587.161372561619,15579.299995815754,30428.92729388801,51730.85501561821,0.0,0.0,0.0,193.0,0.0,193.0,0.0,1.0,0.0,178.0,193.0,1.0,178.0,1744418918.2902076,0.0,2025-04-11 20:48:38.290,BACKWARD,49
186.0,8369.186028145079,-6092.392634438591,-20042.49632865147,-23375.409647871216,12755.872339710277,15449.81634018616,30759.151966470716,51739.95217561152,0.0,0.0,0.0,193.0,0.0,192.0,0.0,1.0,0.0,178.0,192.0,1.0,178.0,1744418918.290243,0.0,2025-04-11 20:48:38.290,BACKWARD,49
187.0,8370.884760723682,-6098.941695563995,-20096.02875662193,-23405.897427308253,12672.768553825445,15263.49219840672,30835.930208674697,51596.29751399726,0.0,0.0,0.0,193.0,0.0,192.0,0.0,1.0,0.0,178.0,192.0,1.0,178.0,1744418918.2902913,0.0,2025-04-11 20:48:38.290,BACKWARD,49
188.0,8394.845830779772,-6051.131314174094,-20123.163774390672,-23355.024856927976,12562.932081572066,15431.800834155183,30607.741249530467,51601.147842544065,0.0,0.0,0.0,193.0,0.0,192.0,0.0,1.0,0.0,178.0,192.0,1.0,178.0,1744418918.2903268,0.0,2025-04-11 20:48:38.290,BACKWARD,49
189.0,8409.843851309282,-6019.14596785855,-20097.54867524489,-23328.940371148634,12555.310136712807,15571.879216656593,30427.16150607604,51711.18548049754,0.0,0.0,0.0,193.0,0.0,192.0,0.0,1.0,0.0,178.0,192.0,1.0,178.0,1744418918.290362,0.0,2025-04-11 20:48:38.290,BACKWARD,49
190.0,8392.342435400777,-6057.993299721873,-20052.35344795626,-23359.405798841217,12719.573106714859,15485.981462714848,30695.717715706556,51743.0143646019,0.0,0.0,0.0,193.0,0.0,193.0,0.0,1.0,0.0,179.0,193.0,1.0,179.0,1744418918.2903967,0.0,2025-04-11 20:48:38.290,BACKWARD,49
191.0,8372.672900280108,-6091.230343726915,-20086.819837906343,-23394.900369036244,12686.246655731995,15282.357070727001,30854.571563550424,51612.949563616465,0.0,0.0,0.0,193.0,0.0,192.0,0.0,1.0,0.0,178.0,192.0,1.0,178.0,1744418918.290444,0.0,2025-04-11 20:48:38.290,BACKWARD,49
192.0,8375.489220081476,-6061.949558490463,-20107.718718972053,-23347.00058066852,12574.264416010907,15401.871848329527,30643.995779036974,51580.74069985637,0.0,0.0,0.0,193.0,0.0,192.0,0.0,1.0,0.0,178.0,192.0,1.0,178.0,1744418918.290479,0.0,2025-04-11 20:48:38.290,BACKWARD,49
193.0,8389.190839432578,-6037.34028784517,-20094.620596721245,-23322.86069665679,12539.507453382905,15582.18337085049,30417.550255960257,51695.24868670091,0.0,0.0,0.0,193.0,0.0,193.0,0.0,1.0,0.0,178.0,193.0,1.0,178.0,1744418918.2905147,0.0,2025-04-11 20:48:38.290,BACKWARD,49
194.0,8383.513496340931,-6079.719195332432,-20045.40205543066,-23353.03555167145,12700.350606483295,15522.25834396581,30610.401107120648,51748.60230071573,0.0,0.0,0.0,193.0,0.0,192.0,0.0,1.0,0.0,179.0,192.0,1.0,179.0,1744418918.29055,0.0,2025-04-11 20:48:38.290,BACKWARD,49
195.0,8381.993577717969,-6093.957256550462,-20063.529320183912,-23391.34644166785,12723.37290327226,15314.431824020367,30857.432586840703,51645.40429656557,0.0,0.0,0.0,193.0,0.0,192.0,0.0,1.0,0.0,178.0,192.0,1.0,178.0,1744418918.2905855,0.0,2025-04-11 20:48:38.290,BACKWARD,49
196.0,8386.620388820218,-6066.129334703605,-20103.851867181285,-23359.7634267525,12598.136079089176,15371.585234592587,30689.012192369963,51570.07891775118,0.0,0.0,0.0,193.0,0.0,193.0,0.0,1.0,0.0,179.0,193.0,1.0,179.0,1744418918.2906208,0.0,2025-04-11 20:48:38.290,BACKWARD,49
197.0,8408.86037455325,-6031.931165686985,-20120.302751100393,-23342.95491492211,12511.835993747234,15562.379725263087,30440.281980071308,51677.479049858935,0.0,0.0,0.0,193.0,0.0,193.0,0.0,1.0,0.0,179.0,193.0,1.0,179.0,1744418918.2906559,0.0,2025-04-11 20:48:38.290,BACKWARD,49
198.0,8414.850642067271,-6031.931165686985,-20064.892776595687,-23351.62739177077,12642.660754044147,15514.770509573284,30519.60832114319,51726.22820451596,0.0,0.0,0.0,193.0,0.0,193.0,0.0,1.0,0.0,179.0,193.0,1.0,179.0,1744418918.2906904,0.0,2025-04-11 20:48:38.290,BACKWARD,49
199.0,8383.871124252215,-6060.7202125454205,-20055.214471246538,-23377.220139172096,12739.399104046715,15350.239318637769,30842.90395294475,51666.68315728702,0.0,0.0,0.0,193.0,0.0,193.0,0.0,1.0,0.0,179.0,193.0,1.0,179.0,1744418918.2907257,0.0,2025-04-11 20:48:38.290,BACKWARD,49
200.0,8381.166563173123,-6065.637596325588,-20093.68182345412,-23353.23671737155,12623.773529979413,15350.194615148857,30735.570876070367,51561.76406881381,0.0,0.0,0.0,193.0,0.0,193.0,0.0,1.0,0.0,179.0,193.0,1.0,179.0,1744418918.290761,0.0,2025-04-11 20:48:38.290,BACKWARD,49
201.0,8397.23746743649,-6044.559901304234,-20109.059823639374,-23322.23484781204,12531.013790489887,15573.220321323912,30499.42469590005,51664.671500286044,0.0,0.0,0.0,193.0,0.0,193.0,0.0,1.0,0.0,178.0,193.0,1.0,178.0,1744418918.2907965,0.0,2025-04-11 20:48:38.290,BACKWARD,49
202.0,8409.799147820371,-6026.6114505066225,-20058.008439303452,-23320.58081872235,12634.636477784692,15574.092039357667,30493.635594086125,51727.323439994274,0.0,0.0,0.0,193.0,0.0,193.0,0.0,1.0,0.0,178.0,193.0,1.0,178.0,1744418918.290832,0.0,2025-04-11 20:48:38.290,BACKWARD,49
203.0,8396.432804636099,-6049.119657173116,-20045.804386830856,-23365.552528566426,12775.564226575403,15420.982589838815,30856.04677868447,51697.03682625733,0.0,0.0,0.0,193.0,0.0,193.0,0.0,1.0,0.0,178.0,193.0,1.0,178.0,1744418918.29088,0.0,2025-04-11 20:48:38.290,BACKWARD,49
204.0,8392.700063312062,-6051.131314174094,-20097.16869558915,-23370.559319324413,12656.585890839802,15339.55518478813,30812.796153163454,51572.64936836355,0.0,0.0,0.0,193.0,0.0,193.0,0.0,1.0,0.0,179.0,193.0,1.0,179.0,1744418918.290916,0.0,2025-04-11 20:48:38.290,BACKWARD,49
205.0,8393.504726112453,-6020.531776014778,-20120.63802726722,-23337.277571830462,12539.52980512736,15545.370047732598,30582.52848178488,51656.35665134867,0.0,0.0,0.0,193.0,0.0,193.0,0.0,1.0,0.0,179.0,193.0,1.0,179.0,1744418918.2909517,0.0,2025-04-11 20:48:38.290,BACKWARD,49
206.0,8419.119825258234,-6001.264572294303,-20058.008439303452,-23314.47879248605,12604.059291369831,15588.1289348756,30482.03503871382,51726.138797538144,0.0,0.0,0.0,193.0,0.0,193.0,0.0,1.0,0.0,178.0,193.0,1.0,178.0,1744418918.290997,0.0,2025-04-11 20:48:38.290,BACKWARD,49
207.0,8400.187897704589,-6050.751334518353,-20024.279656920393,-23353.90726970521,12770.177456161673,15458.041782145714,30837.651292997754,51721.06495154679,0.0,0.0,0.0,193.0,0.0,193.0,0.0,1.0,0.0,178.0,193.0,1.0,178.0,1744418918.2910287,0.0,2025-04-11 20:48:38.291,BACKWARD,49
208.0,8403.227734950511,-6039.91073845753,-20074.25815752246,-23371.408685613715,12671.27098694694,15316.890515910449,30850.592953037376,51572.82818231919,0.0,0.0,0.0,193.0,0.0,193.0,0.0,1.0,0.0,179.0,193.0,1.0,179.0,1744418918.2910607,0.0,2025-04-11 20:48:38.291,BACKWARD,49
209.0,8401.350188416265,-6017.916621913508,-20117.441727810114,-23341.747920721522,12551.376229688673,15515.038730506747,30621.219351437016,51624.6842294555,0.0,0.0,0.0,193.0,0.0,193.0,0.0,1.0,0.0,179.0,193.0,1.0,179.0,1744418918.291092,0.0,2025-04-11 20:48:38.291,BACKWARD,49
210.0,8428.306392229366,-5991.653322178522,-20076.20275929007,-23311.9530453626,12571.604558420726,15600.936484448492,30454.87766920062,51714.49353867693,0.0,0.0,0.0,193.0,0.0,193.0,0.0,1.0,0.0,178.0,193.0,1.0,178.0,1744418918.2911236,0.0,2025-04-11 20:48:38.291,BACKWARD,49
211.0,8414.895345556182,-6019.503595769835,-20030.38168315669,-23340.51857477648,12747.62454600627,15488.037823204735,30767.824443319376,51730.36327724019,0.0,0.0,0.0,193.0,0.0,193.0,0.0,1.0,0.0,179.0,193.0,1.0,179.0,1744418918.2911549,0.0,2025-04-11 20:48:38.291,BACKWARD,49
212.0,8411.162604232146,-6019.548299258745,-20062.836416105798,-23363.51851982099,12688.504181921982,15311.012007118703,30865.814491011442,51585.00988304733,0.0,0.0,0.0,193.0,0.0,193.0,0.0,1.0,0.0,178.0,193.0,1.0,178.0,1744418918.2911892,0.0,2025-04-11 20:48:38.291,BACKWARD,49
213.0,8403.227734950511,-6000.303447282726,-20100.521457257444,-23332.85192642831,12562.395639705139,15470.268186362766,30658.77028212193,51595.55990643024,0.0,0.0,0.0,193.0,0.0,192.0,0.0,0.0,0.0,178.0,192.0,0.0,178.0,1744418918.291221,0.0,2025-04-11 20:48:38.291,BACKWARD,49
214.0,8421.757331103961,-5988.211153532405,-20079.60022444728,-23312.265969784974,12537.808720804302,15600.757670492849,30451.480204043415,51698.48968964693,0.0,0.0,0.0,193.0,0.0,192.0,0.0,0.0,0.0,178.0,192.0,0.0,178.0,1744418918.291252,0.0,2025-04-11 20:48:38.291,BACKWARD,49
215.0,8419.76802584744,-6023.102226627139,-20025.352540654247,-23339.937429420643,12713.13580431173,15515.351654929122,30689.12395109224,51721.57904166926,0.0,0.0,0.0,193.0,0.0,193.0,0.0,0.0,0.0,179.0,193.0,0.0,179.0,1744418918.291283,0.0,2025-04-11 20:48:38.291,BACKWARD,49
216.0,8410.223830965022,-6045.945709460462,-20060.713000382544,-23381.19874968514,12694.628559902736,15319.282152567168,30883.606479597867,51601.68428441099,0.0,0.0,0.0,193.0,0.0,193.0,0.0,0.0,0.0,179.0,193.0,0.0,179.0,1744418918.2913134,0.0,2025-04-11 20:48:38.291,BACKWARD,49
217.0,8422.606697393263,-6016.039075379262,-20091.848980408788,-23339.84802244282,12569.771715375391,15419.596781682585,30686.97818362453,51557.53958911176,0.0,0.0,0.0,193.0,0.0,193.0,0.0,0.0,0.0,179.0,193.0,0.0,179.0,1744418918.2913446,0.0,2025-04-11 20:48:38.291,BACKWARD,49
218.0,8430.76508411945,-5984.143136041539,-20092.363070531257,-23316.535152975935,12515.591086815726,15603.886914716591,30459.41507332505,51674.86389575767,0.0,0.0,0.0,193.0,0.0,193.0,0.0,0.0,0.0,179.0,193.0,0.0,179.0,1744418918.2913897,0.0,2025-04-11 20:48:38.291,BACKWARD,49
219.0,8424.417188694142,-6002.292752539248,-20036.930744282097,-23333.656589228704,12665.861864788756,15543.939536087459,30606.444848352057,51713.15243400961,0.0,0.0,0.0,193.0,0.0,193.0,0.0,0.0,0.0,179.0,193.0,0.0,179.0,1744418918.2914207,0.0,2025-04-11 20:48:38.291,BACKWARD,49
220.0,8419.94683980308,-6029.919508686007,-20054.54391891288,-23378.874168261787,12715.99682760201,15347.17712964739,30883.137092964305,51618.44809275247,0.0,0.0,0.0,193.0,0.0,193.0,0.0,0.0,0.0,178.0,193.0,0.0,178.0,1744418918.2914517,0.0,2025-04-11 20:48:38.291,BACKWARD,49
221.0,8413.978924033514,-6019.928278914485,-20098.621558978746,-23359.495205819036,12588.033090595376,15376.23439743929,30734.006253958498,51537.22185340188,0.0,0.0,0.0,193.0,0.0,192.0,0.0,0.0,0.0,178.0,192.0,0.0,178.0,1744418918.7437887,0.0,2025-04-11 20:48:38.743,BACKWARD,49
222.0,8414.51536590044,-5995.117842569094,-20106.534076515924,-23332.114318861284,12508.371473356661,15583.099792373157,30487.69003006101,51654.613215281155,0.0,0.0,0.0,193.0,0.0,192.0,0.0,0.0,0.0,178.0,192.0,0.0,178.0,1744418918.7439072,0.0,2025-04-11 20:48:38.743,BACKWARD,49
223.0,8427.009991050958,-5996.190726302949,-20044.06095076334,-23336.47290903007,12644.35948662275,15555.741257159862,30533.287588749838,51701.93185829304,0.0,0.0,0.0,193.0,0.0,193.0,0.0,0.0,0.0,178.0,193.0,0.0,178.0,1744418918.7439463,0.0,2025-04-11 20:48:38.743,BACKWARD,49
224.0,8416.638781623697,-6027.393761562558,-20039.232973960992,-23379.120037450797,12742.260127336995,15373.03809798218,30854.035121683493,51635.41306679405,0.0,0.0,0.0,193.0,0.0,193.0,0.0,0.0,0.0,179.0,193.0,0.0,179.0,1744418918.7439823,0.0,2025-04-11 20:48:38.743,BACKWARD,49
225.0,8406.42403440762,-6015.748502701343,-20090.753744930476,-23373.308583892416,12623.59471602377,15339.599888277042,30750.255972177503,51516.2112136139,0.0,0.0,0.0,193.0,0.0,193.0,0.0,0.0,0.0,179.0,193.0,0.0,179.0,1744418918.7440183,0.0,2025-04-11 20:48:38.744,BACKWARD,49
226.0,8417.309333957355,-5986.780641887265,-20109.5962655063,-23336.67407473017,12523.972990986465,15563.251443296844,30503.89504479111,51615.07297933972,0.0,0.0,0.0,193.0,0.0,193.0,0.0,0.0,0.0,179.0,193.0,0.0,179.0,1744418918.744054,0.0,2025-04-11 20:48:38.744,BACKWARD,49
227.0,8428.28404048491,-6001.957476372419,-20064.021058561928,-23340.04918814292,12611.837698440278,15587.234865097389,30471.46266358646,51688.63257034214,0.0,0.0,0.0,193.0,0.0,193.0,0.0,0.0,0.0,179.0,193.0,0.0,179.0,1744418918.7440896,0.0,2025-04-11 20:48:38.744,BACKWARD,49
228.0,8403.451252395065,-6042.548244303256,-20053.225165990018,-23392.35227016834,12741.075484880863,15425.76586315225,30838.321845331415,51674.08158470173,0.0,0.0,0.0,193.0,0.0,193.0,0.0,0.0,0.0,179.0,193.0,0.0,179.0,1744418918.7441251,0.0,2025-04-11 20:48:38.744,BACKWARD,49
229.0,8402.914810528137,-6026.566747017711,-20096.83341942232,-23388.217197444108,12625.628724769203,15317.046978121636,30787.493978440045,51524.369600340084,0.0,0.0,0.0,193.0,0.0,193.0,0.0,0.0,0.0,178.0,193.0,0.0,178.0,1744418918.7441604,0.0,2025-04-11 20:48:38.744,BACKWARD,49
230.0,8408.681560597606,-6002.76213917281,-20114.02191090845,-23342.060845143897,12520.731988040447,15533.523623171286,30545.804565644812,51588.407348204535,0.0,0.0,0.0,193.0,0.0,193.0,0.0,0.0,0.0,179.0,193.0,0.0,179.0,1744418918.744196,0.0,2025-04-11 20:48:38.744,BACKWARD,49
231.0,8423.746636360484,-5995.251953035826,-20065.87625335172,-23328.403929281703,12576.611349178715,15593.716870989427,30438.493840514882,51669.90180848859,0.0,0.0,0.0,193.0,0.0,193.0,0.0,0.0,0.0,179.0,193.0,0.0,179.0,1744418918.7442312,0.0,2025-04-11 20:48:38.744,BACKWARD,49
232.0,8416.795243834882,-6026.633802251077,-20027.051273232853,-23361.28334537546,12762.376697346772,15461.461599047376,30784.878824338775,51671.8464102562,0.0,0.0,0.0,193.0,0.0,193.0,0.0,0.0,0.0,179.0,193.0,0.0,179.0,1744418918.7442656,0.0,2025-04-11 20:48:38.744,BACKWARD,49
233.0,8411.76610133244,-6024.6221452500995,-20074.59343368929,-23377.376601383283,12679.31761495085,15306.429899505365,30828.308263815437,51529.063466675696,0.0,0.0,0.0,193.0,0.0,193.0,0.0,0.0,0.0,179.0,193.0,0.0,179.0,1744418918.7443237,0.0,2025-04-11 20:48:38.744,BACKWARD,49
234.0,8420.99737179248,-5985.8195168756865,-20095.134686843718,-23326.973417636564,12566.687174640558,15505.382776902054,30605.997813462953,51564.781554315276,0.0,0.0,0.0,193.0,0.0,193.0,0.0,0.0,0.0,179.0,193.0,0.0,179.0,1744418918.7443597,0.0,2025-04-11 20:48:38.744,BACKWARD,49
235.0,8438.47643595653,-5978.264627249793,-20063.775189372922,-23313.674129685656,12570.956357831521,15622.170641681034,30452.329570332717,51674.70743354648,0.0,0.0,0.0,193.0,0.0,193.0,0.0,0.0,0.0,178.0,193.0,0.0,178.0,1744418918.7443948,0.0,2025-04-11 20:48:38.744,BACKWARD,49
236.0,8420.975020048025,-6020.934107414974,-20019.183459184584,-23347.134691135252,12744.696467482623,15510.344864171133,30753.22875419006,51703.0047420269,0.0,0.0,0.0,193.0,0.0,192.0,0.0,0.0,0.0,178.0,192.0,0.0,178.0,1744418918.7444303,0.0,2025-04-11 20:48:38.744,BACKWARD,49
237.0,8407.966304775036,-6034.948651188452,-20056.957907314052,-23373.465046103604,12696.349644225795,15321.092643868047,30879.583165595912,51570.9729875294,0.0,0.0,0.0,193.0,0.0,193.0,0.0,0.0,0.0,179.0,193.0,0.0,179.0,1744418918.7445734,0.0,2025-04-11 20:48:38.744,BACKWARD,49
238.0,8411.14025248769,-6019.369485303103,-20099.64973922369,-23346.7100079906,12561.72508737148,15469.664689262474,30679.199776554084,51576.85149632114,0.0,0.0,0.0,193.0,0.0,193.0,0.0,0.0,0.0,179.0,193.0,0.0,179.0,1744418918.7446623,0.0,2025-04-11 20:48:38.744,BACKWARD,49
239.0,8433.044962053891,-5987.18297328746,-20081.7906954039,-23320.51376348898,12531.349066656718,15626.462176616453,30447.993331908387,51684.43044238454,0.0,0.0,0.0,193.0,0.0,193.0,0.0,0.0,0.0,179.0,193.0,0.0,179.0,1744418918.7447093,0.0,2025-04-11 20:48:38.744,BACKWARD,49
240.0,8417.242278723988,-6011.255802065826,-20024.86080227623,-23347.1123393908,12717.51674622497,15547.918146600503,30656.333941976303,51712.794806098325,0.0,0.0,0.0,193.0,0.0,193.0,0.0,0.0,0.0,179.0,193.0,0.0,179.0,1744418918.7447555,0.0,2025-04-11 20:48:38.744,BACKWARD,49
241.0,8402.668941339129,-6034.389857577069,-20059.751875370966,-23394.699203336146,12723.238792805529,15341.097455155546,30872.49766260358,51606.55696470225,0.0,0.0,0.0,193.0,0.0,193.0,0.0,0.0,0.0,179.0,193.0,0.0,179.0,1744418918.7448072,0.0,2025-04-11 20:48:38.744,BACKWARD,49
242.0,8413.889517055693,-6005.064368851706,-20096.96752988905,-23357.036513928953,12589.06127084032,15423.57539219563,30682.194910311093,51548.95651924092,0.0,0.0,0.0,193.0,0.0,193.0,0.0,0.0,0.0,178.0,193.0,0.0,178.0,1744418918.7448568,0.0,2025-04-11 20:48:38.744,BACKWARD,49
243.0,8428.596964907285,-5984.634874419556,-20098.532152000924,-23329.43210952665,12521.156671185097,15603.819859483227,30443.92531441752,51654.054421669774,0.0,0.0,0.0,193.0,0.0,192.0,0.0,0.0,0.0,178.0,192.0,0.0,178.0,1744418918.7449024,0.0,2025-04-11 20:48:38.744,BACKWARD,49
244.0,8433.62610740973,-5991.51921171179,-20031.45456689055,-23331.71198746109,12677.21655097205,15560.368068262109,30572.85017643573,51701.9542100375,0.0,0.0,0.0,193.0,0.0,192.0,0.0,0.0,0.0,178.0,192.0,0.0,178.0,1744418918.7449343,0.0,2025-04-11 20:48:38.744,BACKWARD,49
245.0,8413.263668210944,-6029.919508686007,-20044.77620658591,-23378.404781628225,12733.677057466157,15370.579406092098,30873.659953315255,51629.19928183548,0.0,0.0,0.0,193.0,0.0,193.0,0.0,0.0,0.0,179.0,193.0,0.0,179.0,1744418918.7449665,0.0,2025-04-11 20:48:38.744,BACKWARD,49
246.0,8414.470662411532,-6020.442369036958,-20086.17163731714,-23356.14244415074,12606.965018149021,15387.812601067139,30737.04609120442,51544.19559767194,0.0,0.0,0.0,193.0,0.0,193.0,0.0,0.0,0.0,179.0,193.0,0.0,179.0,1744418918.744998,0.0,2025-04-11 20:48:38.744,BACKWARD,49
247.0,8414.51536590044,-6000.2587437938155,-20099.560332245866,-23330.683807216144,12525.694075309524,15598.813068725238,30491.42277138505,51661.63166304013,0.0,0.0,0.0,193.0,0.0,193.0,0.0,0.0,0.0,179.0,193.0,0.0,179.0,1744418918.74503,0.0,2025-04-11 20:48:38.745,BACKWARD,49
248.0,8421.399703192676,-6001.309275783215,-20041.714017595532,-23338.372807308773,12643.063085444343,15578.405926037542,30513.953329795997,51719.768550368375,0.0,0.0,0.0,193.0,0.0,193.0,0.0,0.0,0.0,179.0,193.0,0.0,179.0,1744418918.7450895,0.0,2025-04-11 20:48:38.745,BACKWARD,49
249.0,8405.217040207033,-6038.033191923284,-20033.28740993588,-23383.92566250869,12758.755714745012,15405.448127442376,30852.694017016176,51669.432421855025,0.0,0.0,0.0,193.0,0.0,193.0,0.0,0.0,0.0,178.0,193.0,0.0,178.0,1744418918.7451246,0.0,2025-04-11 20:48:38.745,BACKWARD,49
250.0,8387.581513831796,-6046.795075749765,-20084.69642218309,-23380.237624673562,12635.172919651619,15339.868109210505,30754.860431535297,51532.0138969438,0.0,0.0,0.0,193.0,0.0,192.0,0.0,0.0,0.0,178.0,192.0,0.0,178.0,1744418918.7451575,0.0,2025-04-11 20:48:38.745,BACKWARD,49
251.0,8398.08683372579,-6026.723209228899,-20105.5953032488,-23342.664342244192,12535.171214958575,15571.119257345112,30513.23807397343,51624.97480213342,0.0,0.0,0.0,193.0,0.0,193.0,0.0,0.0,0.0,179.0,193.0,0.0,179.0,1744418918.7451887,0.0,2025-04-11 20:48:38.745,BACKWARD,49
252.0,8405.775833818416,-6024.666848739011,-20055.10271252426,-23335.9588189076,12614.11757637472,15608.357263607653,30459.34801809168,51697.93089603554,0.0,0.0,0.0,193.0,0.0,193.0,0.0,0.0,0.0,179.0,193.0,0.0,179.0,1744418918.7453492,0.0,2025-04-11 20:48:38.745,BACKWARD,49
253.0,8359.284205351378,-6083.943675034485,-20044.5303373969,-23388.6195288443,12759.135694400751,15452.655011731984,30825.693109714164,51682.12821270564,0.0,0.0,0.0,193.0,0.0,193.0,0.0,0.0,0.0,179.0,193.0,0.0,179.0,1744418918.7453809,0.0,2025-04-11 20:48:38.745,BACKWARD,49
254.0,8350.119990124702,-6088.861058814652,-20084.182332060616,-23385.266767176006,12652.339059393295,15322.366693302,30785.638783650254,51520.97213518288,0.0,0.0,0.0,193.0,0.0,193.0,0.0,0.0,0.0,178.0,193.0,0.0,178.0,1744418918.745412,0.0,2025-04-11 20:48:38.745,BACKWARD,49
255.0,8349.516493024408,-6068.476267871412,-20104.88004742623,-23342.865507944287,12552.940851800544,15546.13000704408,30551.6607226921,51578.79609808876,0.0,0.0,0.0,193.0,0.0,192.0,0.0,0.0,0.0,178.0,192.0,0.0,178.0,1744418918.745443,0.0,2025-04-11 20:48:38.745,BACKWARD,49
0.0,8348.398905801643,-6070.264407427837,-20066.16682602964,-23332.494298517027,12590.603541207736,15616.51565033384,30432.481221256403,51667.912503232066,0.0,0.0,0.0,193.0,0.0,192.0,0.0,0.0,0.0,178.0,192.0,0.0,178.0,1744418918.7454743,0.0,2025-04-11 20:48:38.745,BACKWARD,49
1.0,8312.16672803959,-6118.9465068514955,-20027.945343011063,-23372.727438536578,12761.147351401729,15480.818209745672,30767.802091574922,51668.98538696592,0.0,0.0,0.0,193.0,0.0,193.0,0.0,0.0,0.0,179.0,193.0,0.0,179.0,1744418918.745505,0.0,2025-04-11 20:48:38.745,BACKWARD,49
2.0,8295.872306331672,-6130.323544779247,-20067.21735801904,-23388.798342799946,12687.811277843866,15306.541658227643,30825.84957192535,51519.45221655992,0.0,0.0,0.0,193.0,0.0,193.0,0.0,0.0,0.0,179.0,193.0,0.0,179.0,1744418918.7455368,0.0,2025-04-11 20:48:38.745,BACKWARD,49
3.0,8279.01909101237,-6126.657858688576,-20101.907265413676,-23350.286287103452,12569.861122353212,15495.59271283063,30615.83258102329,51557.87486527859,0.0,0.0,0.0,193.0,0.0,193.0,0.0,0.0,0.0,179.0,193.0,0.0,179.0,1744418918.745568,0.0,2025-04-11 20:48:38.745,BACKWARD,49
4.0,8280.226085212957,-6121.44990223049,-20078.572044202334,-23334.7071212181,12562.216825749496,15612.604095054163,30431.65420671156,51663.66567178556,0.0,0.0,0.0,193.0,0.0,193.0,0.0,0.0,0.0,179.0,193.0,0.0,179.0,1744418918.7456043,0.0,2025-04-11 20:48:38.745,BACKWARD,49
5.0,8263.663442571575,-6150.127190366649,-20032.192174457574,-23363.071484931887,12741.969554659076,15504.73457631285,30704.948986166597,51689.772509309354,0.0,0.0,0.0,193.0,0.0,193.0,0.0,0.0,0.0,178.0,193.0,0.0,178.0,1744418918.7456353,0.0,2025-04-11 20:48:38.745,BACKWARD,49
6.0,8249.335974375723,-6175.9434552125285,-20071.888872610198,-23397.783744070977,12712.867583378265,15315.616466476496,30854.996246695075,51560.378260657584,0.0,0.0,0.0,193.0,0.0,193.0,0.0,0.0,0.0,178.0,193.0,0.0,178.0,1744418918.7456658,0.0,2025-04-11 20:48:38.745,BACKWARD,49
7.0,8234.449712568488,-6178.849181991718,-20108.478678283536,-23361.976249453575,12588.949512118044,15460.031087402236,30659.507889688957,51542.139237182055,0.0,0.0,0.0,193.0,0.0,192.0,0.0,0.0,0.0,178.0,192.0,0.0,178.0,1744418918.7457263,0.0,2025-04-11 20:48:38.745,BACKWARD,49
8.0,8232.572166034242,-6169.237931875937,-20098.59920723429,-23340.496223032027,12549.163406987598,15626.19395568299,30443.210058594952,51653.361517591664,0.0,0.0,0.0,193.0,0.0,193.0,0.0,0.0,0.0,178.0,193.0,0.0,178.0,1744418918.745762,0.0,2025-04-11 20:48:38.745,BACKWARD,49
9.0,8224.927869430527,-6192.595504831732,-20038.540069882878,-23360.523386063982,12714.812185145878,15543.939536087459,30625.935569517085,51676.853201014186,0.0,0.0,0.0,193.0,0.0,193.0,0.0,0.0,0.0,179.0,193.0,0.0,179.0,1744418918.7457948,0.0,2025-04-11 20:48:38.745,BACKWARD,49
10.0,8205.57125873223,-6218.523528399888,-20064.132817284208,-23400.86828480581,12726.412740518183,15344.874899968494,30861.34414212038,51572.15762998553,0.0,0.0,0.0,193.0,0.0,193.0,0.0,0.0,0.0,179.0,193.0,0.0,179.0,1744418918.7458293,0.0,2025-04-11 20:48:38.745,BACKWARD,49
11.0,8203.67136045353,-6203.078472981271,-20097.146343844695,-23366.647764044734,12602.49466925796,15422.949543350882,30700.545692508902,51511.89732693402,0.0,0.0,0.0,193.0,0.0,193.0,0.0,0.0,0.0,179.0,193.0,0.0,179.0,1744418918.7463756,0.0,2025-04-11 20:48:38.746,BACKWARD,49
12.0,8216.3895030486,-6175.69758602352,-20101.5943409913,-23343.71487423359,12529.71738931148,15620.628371313618,30470.25566938587,51626.69588645648,0.0,0.0,0.0,193.0,0.0,193.0,0.0,0.0,0.0,179.0,193.0,0.0,179.0,1744418918.7464187,0.0,2025-04-11 20:48:38.746,BACKWARD,49
13.0,8211.561526246252,-6193.936609499051,-20044.284468207894,-23358.489377318547,12674.93667303761,15570.918091645015,30577.119359626697,51679.69187256001,0.0,0.0,0.0,193.0,0.0,193.0,0.0,0.0,0.0,179.0,193.0,0.0,179.0,1744418918.7464526,0.0,2025-04-11 20:48:38.746,BACKWARD,49
14.0,8187.868677123628,-6235.019115807905,-20054.700381124065,-23404.601026129847,12738.885013924244,15364.365621133522,30884.3887906538,51610.423816493014,0.0,0.0,0.0,193.0,0.0,193.0,0.0,0.0,0.0,179.0,193.0,0.0,179.0,1744418918.7464893,0.0,2025-04-11 20:48:38.746,BACKWARD,49
15.0,8185.946427100472,-6226.793673848352,-20096.341681044305,-23379.902348506734,12610.362483306228,15357.861263497027,30751.507669867002,51510.91385017799,0.0,0.0,0.0,193.0,0.0,193.0,0.0,0.0,0.0,178.0,193.0,0.0,178.0,1744418918.746527,0.0,2025-04-11 20:48:38.746,BACKWARD,49
16.0,8203.3360842867,-6195.165955444093,-20103.65070148119,-23337.545792763925,12521.357836885196,15585.446725540964,30504.386783169128,51622.113778843144,0.0,0.0,0.0,193.0,0.0,193.0,0.0,0.0,0.0,178.0,193.0,0.0,178.0,1744418918.7465627,0.0,2025-04-11 20:48:38.746,BACKWARD,49
17.0,8220.3904653061,-6188.281618151858,-20053.7839596014,-23343.469005044582,12630.702570760557,15585.26791158532,30514.534475151835,51685.83860228522,0.0,0.0,0.0,193.0,0.0,192.0,0.0,0.0,0.0,178.0,192.0,0.0,178.0,1744418918.7466094,0.0,2025-04-11 20:48:38.746,BACKWARD,49
18.0,8213.126148358126,-6207.213545705503,-20037.735407082488,-23386.518464865505,12748.451560551115,15411.773671123228,30858.10313917436,51638.7881802068,0.0,0.0,0.0,193.0,0.0,193.0,0.0,0.0,0.0,179.0,193.0,0.0,179.0,1744418918.7466414,0.0,2025-04-11 20:48:38.746,BACKWARD,49
19.0,8213.439072780498,-6204.911316026606,-20084.763477416454,-23382.785723541467,12628.266230614929,15342.662077267418,30779.737923114055,51504.54360300823,0.0,0.0,0.0,193.0,0.0,193.0,0.0,0.0,0.0,179.0,193.0,0.0,179.0,1744418918.746678,0.0,2025-04-11 20:48:38.746,BACKWARD,49
20.0,8217.261221082357,-6186.761699528897,-20109.484506784025,-23345.011275412,12528.778616044357,15564.391382264064,30539.121394052672,51592.38595871758,0.0,0.0,0.0,193.0,0.0,193.0,0.0,0.0,0.0,179.0,193.0,0.0,179.0,1744418918.746718,0.0,2025-04-11 20:48:38.746,BACKWARD,49
21.0,8228.370038076644,-6181.263170392892,-20063.10463703926,-23338.216345097586,12604.618084981214,15604.401004839065,30471.93205022002,51673.23221841243,0.0,0.0,0.0,193.0,0.0,193.0,0.0,0.0,0.0,179.0,193.0,0.0,179.0,1744418918.7467608,0.0,2025-04-11 20:48:38.746,BACKWARD,49
22.0,8212.992037891394,-6217.428292921579,-20034.449700647558,-23380.841121773854,12757.861644966799,15453.794950699204,30823.703804457644,51657.7424595049,0.0,0.0,0.0,193.0,0.0,193.0,0.0,0.0,0.0,179.0,193.0,0.0,179.0,1744418918.7469122,0.0,2025-04-11 20:48:38.746,BACKWARD,49
23.0,8213.684941969508,-6205.537164871355,-20077.432105235115,-23385.445581131647,12660.877425775221,15330.860356195017,30817.24415031006,51510.80209145571,0.0,0.0,0.0,193.0,0.0,193.0,0.0,0.0,0.0,179.0,193.0,0.0,179.0,1744418918.7469535,0.0,2025-04-11 20:48:38.746,BACKWARD,49
24.0,8217.864718182649,-6180.123231425671,-20109.573913761844,-23340.205650354106,12544.447188907527,15540.02798080778,30585.903595197633,51568.80486831723,0.0,0.0,0.0,193.0,0.0,193.0,0.0,0.0,0.0,178.0,193.0,0.0,178.0,1744418918.7469895,0.0,2025-04-11 20:48:38.746,BACKWARD,49
25.0,8237.377791092133,-6162.644167261621,-20066.815026618842,-23319.217362310574,12572.029241565377,15620.606019569163,30439.45496552646,51661.27403512884,0.0,0.0,0.0,193.0,0.0,193.0,0.0,0.0,0.0,178.0,193.0,0.0,178.0,1744418918.7470245,0.0,2025-04-11 20:48:38.747,BACKWARD,49
26.0,8227.967706676449,-6193.266057165391,-20022.647979575155,-23356.924755206677,12744.383543060248,15494.63158781905,30761.074216493875,51672.092279445205,0.0,0.0,0.0,193.0,0.0,192.0,0.0,0.0,0.0,178.0,192.0,0.0,178.0,1744418918.7474747,0.0,2025-04-11 20:48:38.747,BACKWARD,49
27.0,8226.224270608935,-6191.857897264707,-20065.652735907166,-23388.39601139975,12676.143667238197,15311.235524563257,30852.694017016176,51534.53964406725,0.0,0.0,0.0,193.0,0.0,192.0,0.0,0.0,0.0,178.0,192.0,0.0,178.0,1744418918.7475088,0.0,2025-04-11 20:48:38.747,BACKWARD,49
28.0,8242.406933594577,-6154.9328154245395,-20094.531189743422,-23345.145385878728,12558.797008847834,15476.325509110155,30629.869476541222,51545.87197850609,0.0,0.0,0.0,193.0,0.0,192.0,0.0,0.0,0.0,178.0,192.0,0.0,178.0,1744418918.74754,0.0,2025-04-11 20:48:38.747,BACKWARD,49
29.0,8263.395221638111,-6126.367286010657,-20083.176503560127,-23331.24260082753,12549.72220059898,15616.403891611564,30437.242142825384,51663.46450608546,0.0,0.0,0.0,193.0,0.0,192.0,0.0,0.0,0.0,178.0,192.0,0.0,178.0,1744418918.7475717,0.0,2025-04-11 20:48:38.747,BACKWARD,49
30.0,8257.807285524284,-6146.752076953898,-20033.600334358256,-23360.501034319524,12723.059978849886,15515.731634584861,30686.26292780196,51695.8521838012,0.0,0.0,0.0,193.0,0.0,193.0,0.0,0.0,0.0,179.0,193.0,0.0,179.0,1744418918.7476163,0.0,2025-04-11 20:48:38.747,BACKWARD,49
31.0,8254.67804130054,-6170.7802022433525,-20070.72658189852,-23402.477610406593,12694.405042458182,15316.622294976985,30863.266392143538,51580.24896147835,0.0,0.0,0.0,193.0,0.0,193.0,0.0,0.0,0.0,179.0,193.0,0.0,179.0,1744418918.7476482,0.0,2025-04-11 20:48:38.747,BACKWARD,49
32.0,8266.502114117398,-6148.674326977054,-20104.008329392473,-23367.787703011956,12566.351898473727,15437.47817724683,30669.16384329365,51552.64455707605,0.0,0.0,0.0,193.0,0.0,193.0,0.0,0.0,0.0,179.0,193.0,0.0,179.0,1744418918.7476802,0.0,2025-04-11 20:48:38.747,BACKWARD,49
33.0,8279.153201479103,-6116.3090010057695,-20093.45830600957,-23342.28436258845,12513.557078070293,15605.742109506382,30442.092471372187,51668.046613698796,0.0,0.0,0.0,193.0,0.0,193.0,0.0,0.0,0.0,179.0,193.0,0.0,179.0,1744418918.7477112,0.0,2025-04-11 20:48:38.747,BACKWARD,49
34.0,8285.299931204312,-6135.173873326048,-20034.49440413647,-23352.029723170963,12678.110620750263,15537.83750985116,30604.723764029,51707.2068699845,0.0,0.0,0.0,193.0,0.0,193.0,0.0,0.0,0.0,179.0,193.0,0.0,179.0,1744418918.7477431,0.0,2025-04-11 20:48:38.747,BACKWARD,49
35.0,8280.06962300177,-6163.985271928939,-20068.357296986258,-23406.411517430726,12707.994903087008,15332.536737029164,30866.552098578468,51617.86694739664,0.0,0.0,0.0,193.0,0.0,193.0,0.0,0.0,0.0,178.0,193.0,0.0,178.0,1744418918.747774,0.0,2025-04-11 20:48:38.747,BACKWARD,49
36.0,8282.774184080861,-6140.851216417696,-20115.31831208686,-23385.49028462056,12568.92234908609,15373.3286706601,30697.88583491872,51543.68150754947,0.0,0.0,0.0,193.0,0.0,192.0,0.0,0.0,0.0,178.0,192.0,0.0,178.0,1744418918.7478151,0.0,2025-04-11 20:48:38.747,BACKWARD,49
37.0,8288.45152717251,-6109.5587741802665,-20120.816841222866,-23353.706104005112,12501.129508153143,15583.591530751173,30449.69206448699,51658.100087416184,0.0,0.0,0.0,193.0,0.0,193.0,0.0,0.0,0.0,178.0,193.0,0.0,178.0,1744418918.7478464,0.0,2025-04-11 20:48:38.747,BACKWARD,49
38.0,8302.130794779157,-6117.06896031725,-20061.49531143848,-23361.015124441998,12641.297297632373,15564.726658430895,30528.79488811432,51722.56251842529,0.0,0.0,0.0,193.0,0.0,192.0,0.0,0.0,0.0,178.0,192.0,0.0,178.0,1744418918.747895,0.0,2025-04-11 20:48:38.747,BACKWARD,49
39.0,8290.038501028837,-6149.5013415219,-20067.97731733052,-23413.027633789497,12723.015275360976,15373.194560193368,30850.414139081735,51665.40910785307,0.0,0.0,0.0,193.0,0.0,192.0,0.0,0.0,0.0,178.0,192.0,0.0,178.0,1744418918.747926,0.0,2025-04-11 20:48:38.747,BACKWARD,49
40.0,8299.73915812244,-6129.228309300936,-20112.144364374206,-23396.844970803853,12593.710433687023,15350.641650037964,30725.75846025449,51554.61151058811,0.0,0.0,0.0,193.0,0.0,192.0,0.0,0.0,0.0,178.0,192.0,0.0,178.0,1744418918.7479568,0.0,2025-04-11 20:48:38.747,BACKWARD,49
41.0,8310.64680941663,-6091.096233260183,-20125.242486625015,-23368.01122045651,12509.243191390418,15570.672222456005,30480.55982357977,51661.9445874625,0.0,0.0,0.0,193.0,0.0,192.0,0.0,0.0,0.0,178.0,192.0,0.0,178.0,1744418918.7479875,0.0,2025-04-11 20:48:38.747,BACKWARD,49
42.0,8324.460187490009,-6078.579256365211,-20054.365104957236,-23361.685676775658,12619.996085166465,15569.018193366313,30459.571535536237,51719.27681199036,0.0,0.0,0.0,193.0,0.0,193.0,0.0,0.0,0.0,179.0,193.0,0.0,179.0,1744418918.7481215,0.0,2025-04-11 20:48:38.748,BACKWARD,49
43.0,8311.674989661573,-6120.488777218911,-20037.355427426748,-23405.29393020796,12751.290232096939,15400.843668084583,30810.896254884752,51679.53541034883,0.0,0.0,0.0,193.0,0.0,193.0,0.0,0.0,0.0,179.0,193.0,0.0,179.0,1744418918.7481532,0.0,2025-04-11 20:48:38.748,BACKWARD,49
44.0,8314.759530396406,-6114.006771326873,-20087.266872795448,-23398.320185937904,12641.252594143461,15321.584382246065,30760.89540253823,51541.24516740384,0.0,0.0,0.0,193.0,0.0,193.0,0.0,0.0,0.0,179.0,193.0,0.0,179.0,1744418918.748184,0.0,2025-04-11 20:48:38.748,BACKWARD,49
45.0,8319.587507198752,-6081.306169188759,-20120.79448947841,-23360.00929594151,12527.884546266145,15540.318553485698,30529.37603347016,51621.197357320474,0.0,0.0,0.0,193.0,0.0,193.0,0.0,0.0,0.0,179.0,193.0,0.0,179.0,1744418918.748215,0.0,2025-04-11 20:48:38.748,BACKWARD,49
46.0,8330.02577185938,-6079.540381376789,-20084.31644252735,-23355.985981939553,12572.230407265473,15580.886969672081,30425.30631128625,51698.33322743574,0.0,0.0,0.0,193.0,0.0,193.0,0.0,0.0,0.0,178.0,193.0,0.0,178.0,1744418918.7482457,0.0,2025-04-11 20:48:38.748,BACKWARD,49
47.0,8332.93149863857,-6101.78036710982,-20041.66931410662,-23388.284252677473,12740.449636036115,15439.109854592069,30755.62039084678,51680.764756293866,0.0,0.0,0.0,193.0,0.0,193.0,0.0,0.0,0.0,178.0,193.0,0.0,178.0,1744418918.7482765,0.0,2025-04-11 20:48:38.748,BACKWARD,49
48.0,8322.090902577747,-6110.944582336496,-20090.530227485924,-23409.116078509818,12649.902719247666,15306.45225124982,30791.517292442,51544.75439128332,0.0,0.0,0.0,193.0,0.0,192.0,0.0,0.0,0.0,178.0,192.0,0.0,178.0,1744418918.7483072,0.0,2025-04-11 20:48:38.748,BACKWARD,49
49.0,8313.574887940274,-6104.9766665669285,-20129.914001216173,-23376.571938582892,12523.034217719343,15499.906599510503,30568.938621156052,51591.916572084025,0.0,0.0,0.0,193.0,0.0,192.0,0.0,0.0,0.0,178.0,192.0,0.0,178.0,1744418918.748338,0.0,2025-04-11 20:48:38.748,BACKWARD,49
50.0,8350.052934891335,-6070.778497550309,-20087.02100360644,-23353.303772604915,12547.285860453352,15585.223208096411,30391.219900991906,51674.3498056352,0.0,0.0,0.0,193.0,0.0,192.0,0.0,0.0,0.0,178.0,192.0,0.0,178.0,1744418918.7483687,0.0,2025-04-11 20:48:38.748,BACKWARD,49
51.0,8347.437780790066,-6094.739567606398,-20043.055122262853,-23392.73224982408,12727.03858936293,15472.838636975128,30697.617613985258,51688.6996255755,0.0,0.0,0.0,193.0,0.0,192.0,0.0,0.0,0.0,178.0,192.0,0.0,178.0,1744418918.7483995,0.0,2025-04-11 20:48:38.748,BACKWARD,49
52.0,8340.665202220107,-6095.96891355144,-20076.24746277898,-23413.988758801075,12677.12714399423,15290.671919664375,30809.085763583873,51541.982774970864,0.0,0.0,0.0,193.0,0.0,193.0,0.0,0.0,0.0,179.0,193.0,0.0,179.0,1744418918.7484305,0.0,2025-04-11 20:48:38.748,BACKWARD,49
53.0,8331.88096664917,-6082.803736067264,-20117.93346618813,-23381.24345317405,12545.631831363658,15453.258508832278,30617.128982201695,51555.72909781088,0.0,0.0,0.0,193.0,0.0,193.0,0.0,0.0,0.0,179.0,193.0,0.0,179.0,1744418918.7484767,0.0,2025-04-11 20:48:38.748,BACKWARD,49
54.0,8349.136513368669,-6046.795075749765,-20100.83438167982,-23359.67401977468,12508.61734254567,15597.248446613366,30408.743668644867,51666.772564264844,0.0,0.0,0.0,193.0,0.0,193.0,0.0,0.0,0.0,179.0,193.0,0.0,179.0,1744418918.7485085,0.0,2025-04-11 20:48:38.748,BACKWARD,49
55.0,8349.449437791043,-6056.406325865546,-20035.366122170224,-23370.559319324413,12692.058109290376,15513.272942694777,30642.72172960302,51695.203983212,0.0,0.0,0.0,193.0,0.0,193.0,0.0,0.0,0.0,179.0,193.0,0.0,179.0,1744418918.7485392,0.0,2025-04-11 20:48:38.748,BACKWARD,49
56.0,8334.920803895093,-6093.577276894722,-20076.716849412544,-23415.039290790475,12684.07853651983,15321.405568290422,30862.126453176315,51590.933095327986,0.0,0.0,0.0,193.0,0.0,193.0,0.0,0.0,0.0,179.0,193.0,0.0,179.0,1744418918.7485704,0.0,2025-04-11 20:48:38.748,BACKWARD,49
57.0,8344.822626688794,-6074.198314451971,-20113.530172530434,-23376.706049049622,12558.72995361447,15412.108947290058,30667.554517692868,51540.82048425919,0.0,0.0,0.0,193.0,0.0,193.0,0.0,0.0,0.0,179.0,193.0,0.0,179.0,1744418918.7487092,0.0,2025-04-11 20:48:38.748,BACKWARD,49
58.0,8363.307519353333,-6042.257671625337,-20101.951968902587,-23346.441787057138,12503.364682598673,15594.119202389624,30423.249950796362,51655.50728505937,0.0,0.0,0.0,193.0,0.0,193.0,0.0,0.0,0.0,179.0,193.0,0.0,179.0,1744418918.748741,0.0,2025-04-11 20:48:38.748,BACKWARD,49
59.0,8369.074269422803,-6046.169226905015,-20032.795671557866,-23354.689580761147,12670.041641001897,15549.013382078814,30572.403141546627,51704.41290192758,0.0,0.0,0.0,193.0,0.0,193.0,0.0,0.0,0.0,178.0,193.0,0.0,178.0,1744418918.7487717,0.0,2025-04-11 20:48:38.748,BACKWARD,49
60.0,8352.623385503697,-6078.780422065309,-20060.489482937992,-23409.429002932193,12708.218420531563,15341.566841789108,30858.661932785744,51624.907746900055,0.0,0.0,0.0,193.0,0.0,193.0,0.0,0.0,0.0,179.0,193.0,0.0,179.0,1744418918.7488024,0.0,2025-04-11 20:48:38.748,BACKWARD,49
61.0,8364.223940876002,-6067.9398260044845,-20103.31542531436,-23378.740057795058,12583.942721360056,15375.60854859454,30704.725468722045,51542.51921683779,0.0,0.0,0.0,193.0,0.0,192.0,0.0,0.0,0.0,178.0,192.0,0.0,178.0,1744418918.748833,0.0,2025-04-11 20:48:38.748,BACKWARD,49
62.0,8372.114106668723,-6043.822293737208,-20112.725509730044,-23345.81593821239,12501.017749430866,15583.166847606522,30459.97386693643,51661.117572917654,0.0,0.0,0.0,193.0,0.0,192.0,0.0,0.0,0.0,178.0,192.0,0.0,178.0,1744418918.7488642,0.0,2025-04-11 20:48:38.748,BACKWARD,49
63.0,8386.910961498137,-6035.261575610826,-20040.618782117224,-23335.355321807307,12629.294410859873,15559.518701972807,30496.31780342076,51715.07468403276,0.0,0.0,0.0,193.0,0.0,193.0,0.0,0.0,0.0,178.0,193.0,0.0,178.0,1744418918.748895,0.0,2025-04-11 20:48:38.748,BACKWARD,49
64.0,8370.638891534674,-6065.838762025686,-20038.607125116247,-23383.836255530867,12723.484661994537,15390.42775516841,30842.881601200297,51674.08158470173,0.0,0.0,0.0,193.0,0.0,193.0,0.0,0.0,0.0,179.0,193.0,0.0,179.0,1744418918.7489257,0.0,2025-04-11 20:48:38.748,BACKWARD,49
65.0,8374.617502047719,-6045.029287937795,-20079.667279680645,-23368.547662323435,12600.68417795708,15350.46283608232,30738.02956796045,51553.35981289862,0.0,0.0,0.0,193.0,0.0,193.0,0.0,0.0,0.0,179.0,193.0,0.0,179.0,1744418918.7489564,0.0,2025-04-11 20:48:38.748,BACKWARD,49
66.0,8376.27153113741,-6021.135273115072,-20102.6448729807,-23333.745996206522,12505.28693262183,15575.276681813799,30490.193425440008,51645.739572732404,0.0,0.0,0.0,193.0,0.0,193.0,0.0,0.0,0.0,179.0,193.0,0.0,179.0,1744418918.7489872,0.0,2025-04-11 20:48:38.748,BACKWARD,49
67.0,8383.267627151923,-6015.100302112139,-20053.11340726774,-23328.940371148634,12592.63754995317,15584.954987162948,30453.22364011093,51715.99110555543,0.0,0.0,0.0,193.0,0.0,193.0,0.0,0.0,0.0,179.0,193.0,0.0,179.0,1744418918.749018,0.0,2025-04-11 20:48:38.749,BACKWARD,49
68.0,8368.18019964459,-6048.67262228401,-20032.706264580043,-23374.962612982108,12732.961801643587,15422.949543350882,30806.560016460422,51687.93966626402,0.0,0.0,0.0,193.0,0.0,193.0,0.0,0.0,0.0,178.0,193.0,0.0,178.0,1744418918.7490652,0.0,2025-04-11 20:48:38.749,BACKWARD,49
69.0,8375.444516592564,-6039.173130890505,-20085.478733239026,-23375.990793227054,12618.006779909943,15318.477489766776,30767.802091574922,51540.12758018108,0.0,0.0,0.0,193.0,0.0,193.0,0.0,0.0,0.0,178.0,193.0,0.0,178.0,1744418918.7491016,0.0,2025-04-11 20:48:38.749,BACKWARD,49
70.0,8374.505743325442,-6021.6270114930885,-20123.007312179485,-23353.974324938576,12487.740813224413,15534.59650690514,30533.444050961025,51621.0855985982,0.0,0.0,0.0,193.0,0.0,192.0,0.0,0.0,0.0,178.0,192.0,0.0,178.0,1744418918.7491329,0.0,2025-04-11 20:48:38.749,BACKWARD,49
71.0,8401.081967482802,-6010.294677054248,-20067.507930696956,-23339.08806313134,12533.874813780167,15592.733394233393,30409.660090167534,51702.915335049074,0.0,0.0,0.0,193.0,0.0,192.0,0.0,0.0,0.0,178.0,192.0,0.0,178.0,1744418918.7491636,0.0,2025-04-11 20:48:38.749,BACKWARD,49
72.0,8383.871124252215,-6053.277081641803,-20028.727654067,-23374.694392048645,12715.37097875726,15456.231290844833,30750.6583035777,51700.12136699216,0.0,0.0,0.0,193.0,0.0,193.0,0.0,0.0,0.0,179.0,193.0,0.0,179.0,1744418918.749252,0.0,2025-04-11 20:48:38.749,BACKWARD,49
73.0,8379.311368383333,-6057.680375299499,-20072.78294238841,-23390.161799211717,12637.07281793032,15295.36578599999,30793.283080253972,51546.58723432866,0.0,0.0,0.0,193.0,0.0,193.0,0.0,0.0,0.0,179.0,193.0,0.0,179.0,1744418918.7492838,0.0,2025-04-11 20:48:38.749,BACKWARD,49
74.0,8384.429917863597,-6023.213985349415,-20101.5943409913,-23346.441787057138,12516.552211827304,15491.457640106397,30571.553775257325,51588.563810415726,0.0,0.0,0.0,193.0,0.0,193.0,0.0,0.0,0.0,179.0,193.0,0.0,179.0,1744418918.7493145,0.0,2025-04-11 20:48:38.749,BACKWARD,49
75.0,8411.453176910065,-5997.844755392642,-20068.603166175268,-23324.984112380043,12526.118758454175,15607.2843798738,30396.405505705538,51692.76764306637,0.0,0.0,0.0,193.0,0.0,193.0,0.0,0.0,0.0,179.0,193.0,0.0,179.0,1744418918.7493455,0.0,2025-04-11 20:48:38.749,BACKWARD,49
76.0,8398.019778492426,-6034.568671532711,-20015.38366262718,-23347.827595213366,12719.595458459313,15505.650997835517,30690.308593548372,51714.314724721284,0.0,0.0,0.0,193.0,0.0,193.0,0.0,0.0,0.0,179.0,193.0,0.0,179.0,1744418918.749376,0.0,2025-04-11 20:48:38.749,BACKWARD,49
77.0,8381.70300504005,-6053.657061297544,-20055.527395668913,-23380.57290084039,12677.708289350068,15319.460966522809,30836.489002286078,51583.55701965774,0.0,0.0,0.0,193.0,0.0,193.0,0.0,0.0,0.0,178.0,193.0,0.0,178.0,1744418918.7494068,0.0,2025-04-11 20:48:38.749,BACKWARD,49
78.0,8384.273455652412,-6035.462741310924,-20096.36403278876,-23354.801339483423,12549.409276176606,15462.199206614401,30644.241648225983,51582.08180452369,0.0,0.0,0.0,193.0,0.0,192.0,0.0,0.0,0.0,178.0,192.0,0.0,178.0,1744418918.887066,0.0,2025-04-11 20:48:38.887,BACKWARD,49
79.0,8385.256932408445,-6010.987581132363,-20082.282433781915,-23335.869411929776,12520.352008384707,15619.577839324218,30436.146907347073,51699.67433210306,0.0,0.0,0.0,193.0,0.0,192.0,0.0,0.0,0.0,178.0,192.0,0.0,178.0,1744418918.8871248,0.0,2025-04-11 20:48:38.887,BACKWARD,49
80.0,8370.124801412201,-6029.293659841259,-20027.699473822056,-23356.701237762125,12691.186391256619,15539.31272498521,30647.08031977181,51733.31370750829,0.0,0.0,0.0,193.0,0.0,193.0,0.0,0.0,0.0,178.0,193.0,0.0,178.0,1744418918.8871613,0.0,2025-04-11 20:48:38.887,BACKWARD,49
81.0,8380.428955606098,-6050.997203707362,-20049.023038032417,-23391.704069579133,12703.479850707037,15341.969173189304,30870.888337002798,51622.381999776604,0.0,0.0,0.0,193.0,0.0,193.0,0.0,0.0,0.0,179.0,193.0,0.0,179.0,1744418918.8871973,0.0,2025-04-11 20:48:38.887,BACKWARD,49
82.0,8380.048975950358,-6044.604604793144,-20091.178428075127,-23361.752732009023,12572.275110754385,15422.614267184052,30702.780866954432,51570.74947008485,0.0,0.0,0.0,193.0,0.0,193.0,0.0,0.0,0.0,179.0,193.0,0.0,179.0,1744418918.8872333,0.0,2025-04-11 20:48:38.887,BACKWARD,49
83.0,8389.682577810596,-6017.626049235589,-20089.83732340781,-23331.264952571983,12504.705787265992,15617.879106745615,30466.902907717576,51691.96298026598,0.0,0.0,0.0,193.0,0.0,193.0,0.0,0.0,0.0,179.0,193.0,0.0,179.0,1744418918.8873153,0.0,2025-04-11 20:48:38.887,BACKWARD,49
84.0,8393.32591215681,-6022.610488249122,-20025.24078193197,-23338.328103819862,12655.535358850404,15579.903492916048,30580.226252105982,51735.370067998185,0.0,0.0,0.0,193.0,0.0,193.0,0.0,0.0,0.0,179.0,193.0,0.0,179.0,1744418918.88735,0.0,2025-04-11 20:48:38.887,BACKWARD,49
85.0,8383.312330640832,-6045.72219201591,-20035.92491578161,-23380.796418284943,12712.621714189258,15378.201350951356,30874.64343007129,51647.415953566546,0.0,0.0,0.0,193.0,0.0,193.0,0.0,0.0,0.0,179.0,193.0,0.0,179.0,1744418918.8873851,0.0,2025-04-11 20:48:38.887,BACKWARD,49
86.0,8392.029510978402,-6028.511348785323,-20076.605090690267,-23357.215327884594,12586.356709761229,15378.1789992069,30729.580608556345,51537.2665568908,0.0,0.0,0.0,193.0,0.0,193.0,0.0,0.0,0.0,178.0,193.0,0.0,178.0,1744418918.8874197,0.0,2025-04-11 20:48:38.887,BACKWARD,49
87.0,8399.830269793305,-6010.071159609694,-20087.15511407317,-23322.27955130095,12503.923476210055,15606.412661840042,30496.094285976207,51659.575302550234,0.0,0.0,0.0,193.0,0.0,192.0,0.0,0.0,0.0,178.0,192.0,0.0,178.0,1744418918.8875716,0.0,2025-04-11 20:48:38.887,BACKWARD,49
88.0,8415.208269978557,-5999.722301926888,-20023.720863309012,-23321.38548152274,12625.382855580194,15596.242618112878,30513.059260017784,51720.72967537995,0.0,0.0,0.0,193.0,0.0,192.0,0.0,0.0,0.0,178.0,192.0,0.0,178.0,1744418918.8876047,0.0,2025-04-11 20:48:38.887,BACKWARD,49
89.0,8393.415319134632,-6036.379162833591,-20011.449755603047,-23368.145330923242,12746.7081244836,15421.38492123901,30856.04677868447,51676.40616612508,0.0,0.0,0.0,193.0,0.0,193.0,0.0,0.0,0.0,179.0,193.0,0.0,179.0,1744418918.8876364,0.0,2025-04-11 20:48:38.887,BACKWARD,49
90.0,8394.599961590762,-6039.888386713074,-20058.522529425925,-23363.00442969852,12625.092282902275,15361.079914698592,30772.741827099544,51546.67664130648,0.0,0.0,0.0,193.0,0.0,193.0,0.0,0.0,0.0,178.0,193.0,0.0,178.0,1744418918.8876677,0.0,2025-04-11 20:48:38.887,BACKWARD,49
91.0,8401.640761094184,-6022.409322549024,-20083.981166360518,-23329.946199649123,12519.949676984512,15585.26791158532,30535.23219051745,51641.64920349708,0.0,0.0,0.0,193.0,0.0,193.0,0.0,0.0,0.0,179.0,193.0,0.0,179.0,1744418918.8876984,0.0,2025-04-11 20:48:38.887,BACKWARD,49
92.0,8411.162604232146,-6015.323819556692,-20037.288372193383,-23328.403929281703,12585.864971383211,15612.939371220991,30475.17305316604,51715.789939855335,0.0,0.0,0.0,193.0,0.0,193.0,0.0,0.0,0.0,178.0,193.0,0.0,178.0,1744418918.8877292,0.0,2025-04-11 20:48:38.887,BACKWARD,49
93.0,8397.125708714213,-6039.307241357236,-20012.857915503733,-23368.547662323435,12726.211574818084,15457.304174578689,30826.631882981288,51701.462471659484,0.0,0.0,0.0,193.0,0.0,192.0,0.0,0.0,0.0,178.0,192.0,0.0,178.0,1744418918.8877604,0.0,2025-04-11 20:48:38.887,BACKWARD,49
94.0,8383.960531230037,-6035.820369222209,-20063.64107890619,-23377.309546149918,12627.21569862553,15334.883670196972,30811.186827562673,51564.513333381816,0.0,0.0,0.0,193.0,0.0,192.0,0.0,0.0,0.0,178.0,192.0,0.0,178.0,1744418918.887797,0.0,2025-04-11 20:48:38.887,BACKWARD,49
95.0,8389.727281299505,-6005.734921185365,-20093.50300949848,-23338.52926951996,12517.33452288324,15539.402131963032,30574.571260758792,51628.819302179734,0.0,0.0,0.0,193.0,0.0,193.0,0.0,0.0,0.0,179.0,193.0,0.0,179.0,1744418918.8878367,0.0,2025-04-11 20:48:38.887,BACKWARD,49
96.0,8404.479432640008,-5988.032339576762,-20058.38841895919,-23324.33591179084,12548.783427331857,15612.492336331885,30437.063328869743,51720.34969572422,0.0,0.0,0.0,193.0,0.0,193.0,0.0,0.0,0.0,179.0,193.0,0.0,179.0,1744418918.8878686,0.0,2025-04-11 20:48:38.887,BACKWARD,49
97.0,8389.123784199213,-6033.227566865393,-20016.43419461658,-23358.399970340728,12715.37097875726,15485.288558636734,30750.36773089978,51720.7073236355,0.0,0.0,0.0,193.0,0.0,193.0,0.0,0.0,0.0,179.0,193.0,0.0,179.0,1744418918.8878996,0.0,2025-04-11 20:48:38.887,BACKWARD,49
98.0,8388.967321988026,-6040.022497179806,-20056.242651491484,-23376.996621727543,12643.107788933254,15325.428882292377,30812.639690952266,51577.49969691035,0.0,0.0,0.0,193.0,0.0,193.0,0.0,0.0,0.0,179.0,193.0,0.0,179.0,1744418918.887931,0.0,2025-04-11 20:48:38.887,BACKWARD,49
99.0,8390.353130144254,-6020.978810903885,-20090.485523997013,-23344.13955737824,12522.810700274791,15514.949323528925,30599.851083737743,51612.10019732716,0.0,0.0,0.0,193.0,0.0,193.0,0.0,0.0,0.0,179.0,193.0,0.0,179.0,1744418918.8879817,0.0,2025-04-11 20:48:38.887,BACKWARD,49
100.0,8407.362807674743,-6005.37729327408,-20063.842244606287,-23323.531248990446,12527.48221486595,15640.85670004567,30405.435610465483,51716.19227125553,0.0,0.0,0.0,193.0,0.0,193.0,0.0,0.0,0.0,179.0,193.0,0.0,179.0,1744418918.888014,0.0,2025-04-11 20:48:38.888,BACKWARD,49
101.0,8400.366711660232,-6031.931165686985,-20012.947322481552,-23353.6614005162,12712.75582465599,15548.70045765644,30676.718732919544,51749.22814956047,0.0,0.0,0.0,193.0,0.0,193.0,0.0,0.0,0.0,179.0,193.0,0.0,179.0,1744418918.8880463,0.0,2025-04-11 20:48:38.888,BACKWARD,49
102.0,8393.258856923445,-6048.896139728563,-20053.24751773447,-23385.937319509667,12674.869617804245,15350.529891315688,30844.82620296791,51630.24981382487,0.0,0.0,0.0,193.0,0.0,193.0,0.0,0.0,0.0,178.0,193.0,0.0,178.0,1744418918.8880773,0.0,2025-04-11 20:48:38.888,BACKWARD,49
103.0,8382.440612607075,-6040.201311135449,-20089.233826307514,-23345.368903323284,12551.130360499665,15476.549026554709,30656.82568035432,51616.50349098486,0.0,0.0,0.0,193.0,0.0,193.0,0.0,0.0,0.0,178.0,193.0,0.0,178.0,1744418918.8881288,0.0,2025-04-11 20:48:38.888,BACKWARD,49
104.0,8384.765194030428,-6017.558994002223,-20074.861654622753,-23322.972455379066,12507.835031489734,15639.090912233702,30430.134288088597,51732.39728598563,0.0,0.0,0.0,193.0,0.0,193.0,0.0,0.0,0.0,179.0,193.0,0.0,179.0,1744418918.8881607,0.0,2025-04-11 20:48:38.888,BACKWARD,49
105.0,8394.510554612942,-6022.47637778239,-20015.33895913827,-23336.696426474624,12681.8433620743,15562.379725263087,30609.887016998175,51763.332100311774,0.0,0.0,0.0,193.0,0.0,192.0,0.0,0.0,0.0,178.0,192.0,0.0,178.0,1744418918.8881936,0.0,2025-04-11 20:48:38.888,BACKWARD,49
106.0,8393.817650534827,-6035.842720966664,-20031.8792500352,-23372.369810625292,12712.8005281449,15371.4287723814,30858.01373219654,51664.55974156377,0.0,0.0,0.0,193.0,0.0,193.0,0.0,0.0,0.0,179.0,193.0,0.0,179.0,1744418918.8882256,0.0,2025-04-11 20:48:38.888,BACKWARD,49
107.0,8385.994539975469,-6023.750427216342,-20073.36408774425,-23343.13372887775,12581.215808536508,15436.24883130179,30697.729372707534,51606.84753738017,0.0,0.0,0.0,193.0,0.0,193.0,0.0,0.0,0.0,178.0,193.0,0.0,178.0,1744418918.8882568,0.0,2025-04-11 20:48:38.888,BACKWARD,49
108.0,8407.340455930287,-5990.938066355952,-20070.950099343074,-23307.885027871733,12502.738833753925,15624.003484726369,30443.947666161977,51714.538242165836,0.0,0.0,0.0,193.0,0.0,193.0,0.0,0.0,0.0,179.0,193.0,0.0,179.0,1744418918.888288,0.0,2025-04-11 20:48:38.888,BACKWARD,49
109.0,8417.152871746168,-5999.588191460156,-20008.25345614594,-23314.94817911961,12651.713210548545,15596.130859390601,30536.640350418136,51758.6158822317,0.0,0.0,0.0,193.0,0.0,193.0,0.0,0.0,0.0,179.0,193.0,0.0,179.0,1744418918.8883193,0.0,2025-04-11 20:48:38.888,BACKWARD,49
110.0,8392.834173778794,-6046.146875160561,-20031.745139568466,-23379.72353455109,12721.361246271283,15410.43256645591,30871.000095725074,51703.38472168264,0.0,0.0,0.0,193.0,0.0,193.0,0.0,0.0,0.0,178.0,193.0,0.0,178.0,1744418918.88835,0.0,2025-04-11 20:48:38.888,BACKWARD,49
111.0,8386.955664987048,-6032.6017180206445,-20072.40296273267,-23366.80422625592,12580.411145736116,15389.198409223369,30734.073309191863,51591.80481336175,0.0,0.0,0.0,193.0,0.0,193.0,0.0,0.0,0.0,179.0,193.0,0.0,179.0,1744418918.8883812,0.0,2025-04-11 20:48:38.888,BACKWARD,49
112.0,8389.727281299505,-5999.811708904709,-20080.15901805866,-23330.795565938424,12489.484249291927,15606.32325486222,30475.88830898861,51689.39252965362,0.0,0.0,0.0,193.0,0.0,193.0,0.0,0.0,0.0,179.0,193.0,0.0,179.0,1744418919.3515716,0.0,2025-04-11 20:48:39.351,BACKWARD,49
113.0,8408.346284430776,-6003.030360106273,-20024.167898198117,-23325.185278080142,12604.416919281117,15607.977283951914,30478.74933227889,51758.52647525388,0.0,0.0,0.0,193.0,0.0,193.0,0.0,0.0,0.0,178.0,193.0,0.0,178.0,1744418919.3517308,0.0,2025-04-11 20:48:39.351,BACKWARD,49
114.0,8403.51830762843,-6038.659040768032,-20006.979406711987,-23357.483548818058,12730.413702775682,15432.694903933396,30821.826257923396,51712.61599214268,0.0,0.0,0.0,193.0,0.0,193.0,0.0,0.0,0.0,178.0,193.0,0.0,178.0,1744418919.352083,0.0,2025-04-11 20:48:39.352,BACKWARD,49
115.0,8386.530981842398,-6045.945709460462,-20064.28927949539,-23354.197842383128,12607.25559082694,15350.529891315688,30750.47948962206,51575.15276374254,0.0,0.0,0.0,193.0,0.0,192.0,0.0,0.0,0.0,178.0,192.0,0.0,178.0,1744418919.3521247,0.0,2025-04-11 20:48:39.352,BACKWARD,49
116.0,8383.714662041028,-6024.6221452500995,-20094.12885834323,-23321.38548152274,12500.056624419287,15571.141609089567,30515.339137952225,51675.02035796885,0.0,0.0,0.0,193.0,0.0,192.0,0.0,0.0,0.0,178.0,192.0,0.0,178.0,1744418919.352157,0.0,2025-04-11 20:48:39.352,BACKWARD,49
117.0,8402.847755294772,-6000.035226349262,-20040.90935479514,-23312.444783740615,12580.902884114133,15613.766385765837,30424.099317085664,51747.95410012652,0.0,0.0,0.0,193.0,0.0,192.0,0.0,0.0,0.0,178.0,192.0,0.0,178.0,1744418919.3521936,0.0,2025-04-11 20:48:39.352,BACKWARD,49
118.0,8376.852676493249,-6046.236282138381,-20023.922029009107,-23370.514615835502,12734.638182477735,15471.832808474639,30789.148007529737,51745.67422219208,0.0,0.0,0.0,193.0,0.0,193.0,0.0,0.0,0.0,178.0,193.0,0.0,178.0,1744418919.3522549,0.0,2025-04-11 20:48:39.352,BACKWARD,49
119.0,8384.049938207858,-6038.346116345659,-20067.59733767478,-23381.086990962864,12638.525681319916,15337.968210931804,30797.887539611762,51602.51129895584,0.0,0.0,0.0,193.0,0.0,192.0,0.0,0.0,0.0,179.0,192.0,0.0,179.0,1744418919.352308,0.0,2025-04-11 20:48:39.352,BACKWARD,49
120.0,8379.579589316796,-6012.172223588494,-20103.628349736733,-23345.257144601008,12510.293723379818,15547.806387878227,30567.8657374222,51658.5918257942,0.0,0.0,0.0,193.0,0.0,193.0,0.0,0.0,0.0,179.0,193.0,0.0,179.0,1744418919.3523412,0.0,2025-04-11 20:48:39.352,BACKWARD,49
121.0,8405.57466811832,-5999.5658397157,-20055.05800903535,-23317.22805705405,12533.137206213141,15637.347476166187,30406.7767151328,51750.882178650165,0.0,0.0,0.0,193.0,0.0,193.0,0.0,0.0,0.0,179.0,193.0,0.0,179.0,1744418919.3523731,0.0,2025-04-11 20:48:39.352,BACKWARD,49
122.0,8390.554295844353,-6042.861168725631,-20012.433232359082,-23354.57782203887,12721.361246271283,15526.50517541232,30740.264742405983,51771.17756261559,0.0,0.0,0.0,193.0,0.0,193.0,0.0,0.0,0.0,179.0,193.0,0.0,179.0,1744418919.3524048,0.0,2025-04-11 20:48:39.352,BACKWARD,49
123.0,8380.406603861644,-6044.649308282055,-20063.6857823951,-23381.95870899662,12657.368201895739,15344.94195520186,30833.96325516263,51633.17789234852,0.0,0.0,0.0,193.0,0.0,193.0,0.0,0.0,0.0,179.0,193.0,0.0,179.0,1744418919.3524356,0.0,2025-04-11 20:48:39.352,BACKWARD,49
124.0,8384.251103907956,-6014.273287567293,-20099.94031190161,-23340.630333498757,12526.05170322081,15512.512983383296,30617.844238024267,51650.38873557911,0.0,0.0,0.0,193.0,0.0,193.0,0.0,0.0,0.0,178.0,193.0,0.0,178.0,1744418919.3524663,0.0,2025-04-11 20:48:39.352,BACKWARD,49
125.0,8406.334627429798,-5979.5386766837455,-20066.6362126632,-23310.72369941756,12512.037159447333,15643.091874491201,30407.44726746646,51749.16109432711,0.0,0.0,0.0,193.0,0.0,192.0,0.0,0.0,0.0,178.0,192.0,0.0,178.0,1744418919.3524969,0.0,2025-04-11 20:48:39.352,BACKWARD,49
126.0,8402.42307215012,-6003.924429884485,-20005.34772936675,-23327.822783925865,12696.349644225795,15559.652812439539,30654.366988464237,51776.22905686248,0.0,0.0,0.0,193.0,0.0,192.0,0.0,0.0,0.0,178.0,192.0,0.0,178.0,1744418919.3525279,0.0,2025-04-11 20:48:39.352,BACKWARD,49
127.0,8389.23554292149,-6035.395686077558,-20041.758721084443,-23367.161854167207,12675.36135618226,15363.337440888577,30850.503546059557,51668.31483463226,0.0,0.0,0.0,193.0,0.0,192.0,0.0,0.0,0.0,178.0,192.0,0.0,178.0,1744418919.3525584,0.0,2025-04-11 20:48:39.352,BACKWARD,49
128.0,8383.602903318751,-6024.666848739011,-20079.77903840292,-23337.322275319373,12548.403447676117,15474.716183509372,30674.103578818274,51647.974747177934,0.0,0.0,0.0,193.0,0.0,192.0,0.0,0.0,0.0,178.0,192.0,0.0,178.0,1744418919.3525891,0.0,2025-04-11 20:48:39.352,BACKWARD,49
129.0,8403.361845417243,-5991.318046011692,-20064.78101787341,-23313.38355700774,12500.458955819484,15641.035514001313,30435.856334669155,51757.3641845422,0.0,0.0,0.0,193.0,0.0,193.0,0.0,0.0,0.0,179.0,193.0,0.0,179.0,1744418919.352639,0.0,2025-04-11 20:48:39.352,BACKWARD,49
130.0,8405.775833818416,-6003.7232641843875,-19995.334147850772,-23325.811126924888,12672.947367781087,15582.98803365088,30587.356458587226,51785.95206570054,0.0,0.0,0.0,193.0,0.0,193.0,0.0,0.0,0.0,179.0,193.0,0.0,179.0,1744418919.3526702,0.0,2025-04-11 20:48:39.352,BACKWARD,49
131.0,8380.51836258392,-6038.726096001398,-20022.6256278307,-23383.880959019778,12708.307827509383,15393.847572070072,30872.25179341457,51706.67042811757,0.0,0.0,0.0,193.0,0.0,193.0,0.0,0.0,0.0,179.0,193.0,0.0,179.0,1744418919.3527007,0.0,2025-04-11 20:48:39.352,BACKWARD,49
132.0,8401.394891905176,-6013.222755577893,-20065.608032418255,-23357.170624395683,12581.685195170068,15436.092369090602,30714.739050238022,51632.239119081394,0.0,0.0,0.0,193.0,0.0,193.0,0.0,1.0,0.0,179.0,193.0,1.0,179.0,1744418919.3527324,0.0,2025-04-11 20:48:39.352,BACKWARD,49
133.0,8419.075121769325,-5993.75438615732,-20074.816951133842,-23326.9063624032,12502.023577931355,15636.520461621341,30461.247916370383,51738.208739544,0.0,0.0,0.0,193.0,0.0,193.0,0.0,2.0,0.0,179.0,193.0,2.0,179.0,1744418919.3527794,0.0,2025-04-11 20:48:39.352,BACKWARD,49
134.0,8416.28115371241,-6002.203345561426,-20006.800592756343,-23327.666321714678,12637.497501074971,15616.269781144832,30523.810449100787,51791.54000181437,0.0,0.0,0.0,193.0,0.0,193.0,0.0,3.0,0.0,179.0,193.0,3.0,179.0,1744418919.352848,0.0,2025-04-11 20:48:39.352,BACKWARD,49
135.0,8384.541676585875,-6031.417075564513,-20010.04159570236,-23375.543758337946,12731.307772553895,15436.24883130179,30862.349970620868,51736.86763487669,0.0,0.0,0.0,193.0,0.0,193.0,0.0,4.0,0.0,178.0,193.0,4.0,178.0,1744418919.3528872,0.0,2025-04-11 20:48:39.352,BACKWARD,49
136.0,8385.279284152899,-6013.37921778908,-20060.958869571554,-23362.758560509512,12600.304198301339,15394.406365681454,30748.534887854446,51614.38007526161,0.0,0.0,0.0,193.0,0.0,192.0,0.0,5.0,0.0,178.0,192.0,5.0,178.0,1744418919.3529236,0.0,2025-04-11 20:48:39.352,BACKWARD,49
137.0,8392.677711567607,-5985.6407029200445,-20077.230939535017,-23326.19110658063,12500.838935475223,15606.144440906579,30495.066105731265,51707.81036708479,0.0,0.0,0.0,193.0,0.0,192.0,0.0,6.0,0.0,178.0,192.0,6.0,178.0,1744418919.3529596,0.0,2025-04-11 20:48:39.352,BACKWARD,49
138.0,8398.131537214702,-5999.297618782237,-20027.58771509978,-23325.922885647167,12590.380023763184,15617.633237556605,30473.295506631795,51782.19697263205,0.0,0.0,0.0,193.0,0.0,192.0,0.0,7.0,0.0,178.0,192.0,7.0,178.0,1744418919.3529956,0.0,2025-04-11 20:48:39.352,BACKWARD,49
139.0,8382.306502140344,-6040.201311135449,-20008.588732312768,-23367.318316378394,12721.629467204746,15457.43828504542,30826.43071728119,51758.012385131406,0.0,0.0,0.0,193.0,0.0,192.0,0.0,8.0,0.0,178.0,192.0,8.0,178.0,1744418919.3530312,0.0,2025-04-11 20:48:39.353,BACKWARD,49
140.0,8383.267627151923,-6026.834967951175,-20052.889889823186,-23367.832406500867,12618.051483398853,15361.482246098787,30769.14319624224,51612.70369442746,0.0,0.0,0.0,193.0,0.0,192.0,0.0,9.0,0.0,179.0,192.0,9.0,179.0,1744418919.3530667,0.0,2025-04-11 20:48:39.353,BACKWARD,49
141.0,8391.1801446891,-6004.416168262502,-20085.50108498348,-23336.8081851969,12511.903048980601,15578.94236790447,30525.57623691276,51691.31477967677,0.0,0.0,0.0,193.0,0.0,193.0,0.0,10.0,0.0,178.0,193.0,10.0,178.0,1744418919.3531024,0.0,2025-04-11 20:48:39.353,BACKWARD,49
142.0,8403.272438439422,-5992.145060556539,-20042.630439118202,-23322.9054001457,12567.58124441877,15633.324162164232,30416.63383443759,51780.744109242456,0.0,0.0,0.0,193.0,0.0,192.0,0.0,10.0,0.0,178.0,192.0,10.0,178.0,1744418919.353138,0.0,2025-04-11 20:48:39.353,BACKWARD,49
143.0,8386.732147542494,-6025.963249917419,-20006.91235147862,-23362.512691320502,12741.343705814328,15495.190381430433,30766.572745629877,51782.95693194353,0.0,0.0,0.0,193.0,0.0,192.0,0.0,11.0,0.0,178.0,192.0,11.0,178.0,1744418919.3531737,0.0,2025-04-11 20:48:39.353,BACKWARD,49
144.0,8382.015929462425,-6036.222700622404,-20057.33788696979,-23386.16083695422,12649.858015758755,15344.114940657013,30802.894330369752,51642.27505234183,0.0,0.0,0.0,193.0,0.0,193.0,0.0,11.0,0.0,179.0,193.0,11.0,179.0,1744418919.3532357,0.0,2025-04-11 20:48:39.353,BACKWARD,49
145.0,8392.633008078696,-6004.885554896064,-20090.351413530283,-23351.470929559582,12520.508470595894,15529.343846958143,30573.833653191767,51677.411994625574,0.0,0.0,0.0,193.0,0.0,193.0,0.0,12.0,0.0,179.0,193.0,12.0,179.0,1744418919.353271,0.0,2025-04-11 20:48:39.353,BACKWARD,49
146.0,8405.552316373864,-5986.892400609541,-20060.19891026007,-23336.98699915254,12532.690171324037,15636.743979065894,30410.911787857032,51777.05607140733,0.0,0.0,0.0,193.0,0.0,193.0,0.0,12.0,0.0,179.0,193.0,12.0,179.0,1744418919.3533065,0.0,2025-04-11 20:48:39.353,BACKWARD,49
147.0,8386.620388820218,-6030.523005786301,-20017.596485328257,-23377.06367696091,12708.106661809286,15530.662599881007,30724.842038731822,51806.113339199226,0.0,0.0,0.0,193.0,0.0,193.0,0.0,12.0,0.0,179.0,193.0,12.0,179.0,1744418919.3533428,0.0,2025-04-11 20:48:39.353,BACKWARD,49
148.0,8383.647606807663,-6046.683317027488,-20062.21056726105,-23412.312377966926,12652.406114626661,15334.838966708061,30838.724176731608,51673.79101202381,0.0,0.0,0.0,193.0,0.0,193.0,0.0,13.0,0.0,179.0,193.0,13.0,179.0,1744418919.353398,0.0,2025-04-11 20:48:39.353,BACKWARD,49
149.0,8380.719528284017,-6011.635781721567,-20097.056936866873,-23376.30371764943,12529.225650933464,15482.315776624177,30627.567246862323,51667.80074450979,0.0,0.0,0.0,193.0,0.0,193.0,0.0,13.0,0.0,179.0,193.0,13.0,179.0,1744418919.3534343,0.0,2025-04-11 20:48:39.353,BACKWARD,49
150.0,8396.164583702634,-5982.198534273927,-20073.229977277515,-23348.56520278039,12507.387996600628,15625.031664971313,30418.757250160845,51773.3680335722,0.0,0.0,0.0,193.0,0.0,193.0,0.0,13.0,0.0,179.0,193.0,13.0,179.0,1744418919.35347,0.0,2025-04-11 20:48:39.353,BACKWARD,49
151.0,8391.560124344842,-6022.051694637739,-20011.49445909196,-23363.33970586535,12692.281626734928,15550.421541979498,30647.370892449726,51807.856775266744,0.0,0.0,0.0,193.0,0.0,193.0,0.0,14.0,0.0,179.0,193.0,14.0,179.0,1744418919.353506,0.0,2025-04-11 20:48:39.353,BACKWARD,49
152.0,8379.356071872244,-6055.6687182985215,-20049.403017688157,-23404.891598807764,12689.733527867023,15360.52112108721,30862.975819465617,51705.46343391698,0.0,0.0,0.0,193.0,0.0,193.0,0.0,14.0,0.0,179.0,193.0,14.0,179.0,1744418919.3535411,0.0,2025-04-11 20:48:39.353,BACKWARD,49
153.0,8387.402699876155,-6027.885499940575,-20085.098753583283,-23367.67594428968,12561.143942015642,15447.715276207362,30671.711942161557,51655.37317459264,0.0,0.0,0.0,193.0,0.0,192.0,0.0,14.0,0.0,179.0,192.0,14.0,179.0,1744418919.353577,0.0,2025-04-11 20:48:39.353,BACKWARD,49
154.0,8401.730168072007,-5998.80588040422,-20083.22120704904,-23339.378635809262,12501.218915130963,15635.71579882095,30429.508439243848,51768.96473991451,0.0,0.0,0.0,193.0,0.0,193.0,0.0,14.0,0.0,179.0,193.0,14.0,179.0,1744418919.3536124,0.0,2025-04-11 20:48:39.353,BACKWARD,49
155.0,8397.528040114408,-6015.323819556692,-20028.705302322545,-23357.52825230697,12652.048486715375,15576.081344614191,30560.221440818485,51812.66240032463,0.0,0.0,0.0,193.0,0.0,192.0,0.0,14.0,0.0,178.0,192.0,14.0,178.0,1744418919.353648,0.0,2025-04-11 20:48:39.353,BACKWARD,49
156.0,8377.456173593542,-6042.660003025532,-20045.24559321947,-23406.09859300835,12700.685882650123,15382.828162053605,30847.351950091357,51735.75004765392,0.0,0.0,0.0,193.0,0.0,193.0,0.0,14.0,0.0,179.0,193.0,14.0,179.0,1744418919.3536835,0.0,2025-04-11 20:48:39.353,BACKWARD,49
157.0,8388.095603954269,-6016.821386435197,-20082.282433781915,-23379.030630472975,12578.354785246229,15408.152688521468,30700.813913442365,51647.79593322229,0.0,0.0,0.0,193.0,0.0,193.0,0.0,15.0,0.0,179.0,193.0,15.0,179.0,1744418919.3537188,0.0,2025-04-11 20:48:39.353,BACKWARD,49
158.0,8404.233563451,-5983.070252307684,-20097.325157800336,-23345.145385878728,12495.8991999506,15620.941295735991,30459.12450064713,51765.58962650176,0.0,0.0,0.0,193.0,0.0,193.0,0.0,15.0,0.0,179.0,193.0,15.0,179.0,1744418919.353754,0.0,2025-04-11 20:48:39.353,BACKWARD,49
159.0,8407.42986290811,-5998.5600112152115,-20039.85882280574,-23352.834385971357,12618.63262875469,15603.641045527584,30499.312937177772,51824.88880454169,0.0,0.0,0.0,193.0,0.0,193.0,0.0,15.0,0.0,179.0,193.0,15.0,179.0,1744418919.3538027,0.0,2025-04-11 20:48:39.353,BACKWARD,49
160.0,8387.782679531894,-6037.787322734275,-20042.54103214038,-23402.365851684317,12717.002656102499,15415.57346768063,30841.361682577335,51778.44187956356,0.0,0.0,0.0,193.0,0.0,193.0,0.0,15.0,0.0,180.0,193.0,15.0,180.0,1744418919.3538392,0.0,2025-04-11 20:48:39.353,BACKWARD,49
161.0,8395.494031368975,-6022.006991148829,-20083.64589019369,-23384.752677053533,12600.326550045795,15362.75629553274,30745.249181419516,51655.037898425806,0.0,0.0,0.0,193.0,0.0,193.0,0.0,15.0,0.0,179.0,193.0,15.0,179.0,1744418919.3538752,0.0,2025-04-11 20:48:39.353,BACKWARD,49
162.0,8394.845830779772,-5994.112014068605,-20102.80133519189,-23347.939353935642,12499.85545871919,15584.396193551565,30491.981564996433,51742.23205354596,0.0,0.0,0.0,193.0,0.0,193.0,0.0,15.0,0.0,179.0,193.0,15.0,179.0,1744418919.3539107,0.0,2025-04-11 20:48:39.353,BACKWARD,49
163.0,8404.770005317927,-5993.307351268215,-20047.279601964903,-23337.18816485264,12583.115706815208,15610.190106652988,30440.371387049126,51811.74597880197,0.0,0.0,0.0,193.0,0.0,193.0,0.0,15.0,0.0,178.0,193.0,15.0,178.0,1744418919.3539608,0.0,2025-04-11 20:48:39.353,BACKWARD,49
164.0,8379.333720127788,-6037.34028784517,-20028.39237790017,-23381.712839807613,12733.811167932889,15460.455770546887,30811.566807218413,51801.68769379708,0.0,0.0,0.0,193.0,0.0,193.0,0.0,15.0,0.0,179.0,193.0,15.0,179.0,1744418919.353997,0.0,2025-04-11 20:48:39.353,BACKWARD,49
165.0,8384.765194030428,-6034.85924421063,-20080.44959073658,-23390.0723922339,12622.20890786754,15347.937088958872,30789.371524974293,51665.43145959753,0.0,0.0,0.0,193.0,0.0,193.0,0.0,15.0,0.0,179.0,193.0,15.0,179.0,1744418919.3540332,0.0,2025-04-11 20:48:39.354,BACKWARD,49
166.0,8399.271476181922,-6005.980790374374,-20100.87908516873,-23346.754711479512,12509.958447212988,15556.568271704708,30546.96685635649,51726.138797538144,0.0,0.0,0.0,193.0,0.0,193.0,0.0,15.0,0.0,179.0,193.0,15.0,179.0,1744418919.3540688,0.0,2025-04-11 20:48:39.354,BACKWARD,49
167.0,8403.563011117341,-5993.016778590296,-20051.34761945577,-23335.511784018494,12559.132285014664,15617.812051512248,30420.187761805984,51797.15028967265,0.0,0.0,0.0,193.0,0.0,193.0,0.0,15.0,0.0,180.0,193.0,15.0,180.0,1744418919.3541045,0.0,2025-04-11 20:48:39.354,BACKWARD,49
168.0,8382.597074818263,-6031.774703475798,-20013.10378469274,-23381.80224678543,12735.33108655585,15486.048517948213,30763.242335706036,51797.1279379282,0.0,0.0,0.0,193.0,0.0,193.0,0.0,16.0,0.0,179.0,193.0,16.0,179.0,1744418919.3541403,0.0,2025-04-11 20:48:39.354,BACKWARD,49
169.0,8382.66413005163,-6024.845662694653,-20058.567232914833,-23404.981005785587,12648.606318069258,15324.445405536344,30816.283025298482,51654.5908635367,0.0,0.0,0.0,193.0,0.0,193.0,0.0,16.0,0.0,179.0,193.0,16.0,179.0,1744418919.3541763,0.0,2025-04-11 20:48:39.354,BACKWARD,49
170.0,8389.481412110497,-5990.915714611497,-20088.049183851384,-23358.891708718744,12526.67755206556,15516.201021218423,30591.446827822547,51676.56262833627,0.0,0.0,0.0,193.0,0.0,193.0,0.0,16.0,0.0,178.0,193.0,16.0,178.0,1744418919.354212,0.0,2025-04-11 20:48:39.354,BACKWARD,49
171.0,8406.491089640986,-5981.5950371736335,-20065.250404506973,-23339.646856742726,12521.782520029847,15640.655534345573,30415.940930359477,51779.51476329741,0.0,0.0,0.0,193.0,0.0,193.0,0.0,16.0,0.0,179.0,193.0,16.0,179.0,1744418919.3542476,0.0,2025-04-11 20:48:39.354,BACKWARD,49
172.0,8400.389063404687,-6009.512365998312,-20023.072662719806,-23371.229871658074,12697.042548303909,15538.642172651551,30705.060744888873,51808.86260376723,0.0,0.0,0.0,193.0,0.0,193.0,0.0,16.0,0.0,179.0,193.0,16.0,179.0,1744418919.3542833,0.0,2025-04-11 20:48:39.354,BACKWARD,49
173.0,8396.455156380553,-6022.141101615561,-20061.763532371944,-23404.042232518463,12662.732620565013,15339.89046095496,30845.273237857014,51670.95234047799,0.0,0.0,0.0,193.0,0.0,193.0,0.0,16.0,0.0,179.0,193.0,16.0,179.0,1744418919.354319,0.0,2025-04-11 20:48:39.354,BACKWARD,49
174.0,8386.978016731504,-6019.078912625184,-20092.67599495363,-23364.077313432375,12536.71348532599,15476.213750387878,30647.907334316653,51670.617064311155,0.0,0.0,0.0,193.0,0.0,193.0,0.0,16.0,0.0,179.0,193.0,16.0,179.0,1744418919.354367,0.0,2025-04-11 20:48:39.354,BACKWARD,49
175.0,8393.99646449047,-6007.120729341595,-20067.97731733052,-23333.969513651075,12510.785461757834,15644.030647758324,30428.12263108762,51786.77908024539,0.0,0.0,0.0,193.0,0.0,193.0,0.0,16.0,0.0,179.0,193.0,16.0,179.0,1744418919.354402,0.0,2025-04-11 20:48:39.354,BACKWARD,49
176.0,8398.75738605945,-6024.532738272279,-20006.130040422686,-23359.361095352306,12684.369109197749,15568.459399754931,30632.596389364768,51816.30573467085,0.0,0.0,0.0,193.0,0.0,193.0,0.0,16.0,0.0,180.0,193.0,16.0,180.0,1744418919.3544383,0.0,2025-04-11 20:48:39.354,BACKWARD,49
177.0,8400.433766893599,-6037.34028784517,-20025.48665112098,-23393.671023091203,12701.691711150612,15367.561920590631,30865.792139266985,51700.81427107028,0.0,0.0,0.0,193.0,0.0,193.0,0.0,16.0,0.0,179.0,193.0,16.0,179.0,1744418919.3544743,0.0,2025-04-11 20:48:39.354,BACKWARD,49
178.0,8390.822516777816,-6027.170244118005,-20066.30093649637,-23361.573918053382,12582.087526570265,15444.116645350057,30696.99176514051,51642.20799710846,0.0,0.0,0.0,193.0,0.0,193.0,0.0,16.0,0.0,179.0,193.0,16.0,179.0,1744418919.3545237,0.0,2025-04-11 20:48:39.354,BACKWARD,49
179.0,8389.928446999604,-5997.107147825617,-20076.180407545617,-23338.126938119764,12509.734929768436,15641.169624468044,30466.12059666164,51769.67999573708,0.0,0.0,0.0,193.0,0.0,193.0,0.0,16.0,0.0,179.0,193.0,16.0,179.0,1744418919.354568,0.0,2025-04-11 20:48:39.354,BACKWARD,49
180.0,8404.188859962089,-5989.999293088829,-20019.317569651317,-23345.90534519021,12643.018381955431,15581.937501661481,30566.792853688345,51813.936449758585,0.0,0.0,0.0,193.0,0.0,193.0,0.0,16.0,0.0,179.0,193.0,16.0,179.0,1744418919.3546057,0.0,2025-04-11 20:48:39.354,BACKWARD,49
181.0,8389.056728965847,-6035.015706421817,-20030.00170350095,-23394.229816702584,12712.264086277974,15396.865057571538,30881.795988296988,51744.55663496931,0.0,0.0,0.0,193.0,0.0,193.0,0.0,16.0,0.0,179.0,193.0,16.0,179.0,1744418919.354642,0.0,2025-04-11 20:48:39.354,BACKWARD,49
182.0,8387.80503127635,-6022.230508593382,-20080.561349458858,-23379.231796173073,12577.214846279008,15405.76105186475,30756.201536202618,51656.06607867075,0.0,0.0,0.0,193.0,0.0,193.0,0.0,16.0,0.0,179.0,193.0,16.0,179.0,1744418919.3546784,0.0,2025-04-11 20:48:39.354,BACKWARD,49
183.0,8407.273400696922,-5977.527019682768,-20083.6905936826,-23336.964647408087,12493.976949927444,15618.639066057094,30488.002954483385,51755.352527541225,0.0,0.0,0.0,193.0,0.0,193.0,0.0,16.0,0.0,179.0,193.0,16.0,179.0,1744418919.3547144,0.0,2025-04-11 20:48:39.354,BACKWARD,49
184.0,8428.19463350709,-5980.119822039584,-20023.96673249802,-23334.081272373354,12609.535468761382,15614.124013677123,30492.562710352267,51808.39321713367,0.0,0.0,0.0,193.0,0.0,193.0,0.0,16.0,0.0,179.0,193.0,16.0,179.0,1744418919.354748,0.0,2025-04-11 20:48:39.354,BACKWARD,49
185.0,8403.674769839618,-6031.774703475798,-20025.777223798897,-23393.402802157736,12723.529365483448,15446.307116306678,30850.794118737474,51770.730527726475,0.0,0.0,0.0,193.0,0.0,193.0,0.0,16.0,0.0,179.0,193.0,16.0,179.0,1744418919.35478,0.0,2025-04-11 20:48:39.354,BACKWARD,49
186.0,8389.302598154854,-6029.204252863437,-20074.88400636721,-23384.327993908882,12606.11565185972,15383.833990554094,30773.70295211112,51644.57728202073,0.0,0.0,0.0,193.0,0.0,193.0,0.0,16.0,0.0,179.0,193.0,16.0,179.0,1744418919.354812,0.0,2025-04-11 20:48:39.354,BACKWARD,49
187.0,8376.003310203947,-6012.708665455421,-20108.143402116704,-23356.075388917376,12492.971121426956,15604.937446705992,30532.818202116276,51743.260233790905,0.0,0.0,0.0,193.0,0.0,193.0,0.0,16.0,0.0,179.0,193.0,16.0,179.0,1744418919.3548436,0.0,2025-04-11 20:48:39.354,BACKWARD,49
188.0,8403.384197161698,-5988.188801787949,-20050.610011888744,-23339.624504998268,12562.932081572066,15637.235717443911,30452.866012199644,51821.08900798429,0.0,0.0,0.0,193.0,0.0,193.0,0.0,17.0,0.0,179.0,193.0,17.0,179.0,1744418919.354875,0.0,2025-04-11 20:48:39.354,BACKWARD,49
189.0,8393.862354023739,-6022.141101615561,-20018.982293484485,-23375.186130426664,12723.462310250081,15492.195247673422,30807.968176361108,51806.91800199962,0.0,0.0,0.0,193.0,0.0,193.0,0.0,16.0,0.0,179.0,193.0,16.0,179.0,1744418919.3549209,0.0,2025-04-11 20:48:39.354,BACKWARD,49
190.0,8402.71364482804,-6021.247031837348,-20069.83251212031,-23383.72449680859,12620.644285755669,15362.823350766106,30798.13340880077,51661.51990431785,0.0,0.0,0.0,193.0,0.0,193.0,0.0,16.0,0.0,179.0,193.0,16.0,179.0,1744418919.3549528,0.0,2025-04-11 20:48:39.354,BACKWARD,49
191.0,8411.184955976601,-5980.030415061762,-20097.123992100238,-23345.324199834373,12505.175173899554,15570.694574200461,30558.455653006513,51712.0571985313,0.0,0.0,0.0,193.0,0.0,193.0,0.0,16.0,0.0,179.0,193.0,16.0,179.0,1744418919.3549845,0.0,2025-04-11 20:48:39.354,BACKWARD,49
192.0,8417.242278723988,-5959.623272374067,-20056.756741613954,-23331.019083382977,12541.630869106159,15656.234700230922,30424.83692465269,51808.75084504495,0.0,0.0,0.0,193.0,0.0,193.0,0.0,17.0,0.0,179.0,193.0,17.0,179.0,1744418919.3550165,0.0,2025-04-11 20:48:39.355,BACKWARD,49
193.0,8392.253028422956,-6008.685351453466,-20014.86957250471,-23373.062714703407,12717.42733924715,15535.535280172264,30760.202498460116,51823.12301672972,0.0,0.0,0.0,193.0,0.0,193.0,0.0,17.0,0.0,179.0,193.0,17.0,179.0,1744418919.3550613,0.0,2025-04-11 20:48:39.355,BACKWARD,49
194.0,8381.300673639855,-6035.5745000332,-20064.602203917766,-23404.44456391866,12644.337134878295,15358.554167575143,30838.56771452042,51679.088375459716,0.0,0.0,0.0,193.0,0.0,193.0,0.0,17.0,0.0,179.0,193.0,17.0,179.0,1744418919.3550932,0.0,2025-04-11 20:48:39.355,BACKWARD,49
195.0,8391.046034222369,-6000.4375577494575,-20091.82662866433,-23360.00929594151,12519.636752562137,15528.338018457654,30604.991984962464,51690.93480002103,0.0,0.0,0.0,193.0,0.0,193.0,0.0,17.0,0.0,179.0,193.0,17.0,179.0,1744418919.355125,0.0,2025-04-11 20:48:39.355,BACKWARD,49
196.0,8408.86037455325,-5975.001272559318,-20068.849035364277,-23344.519537033982,12508.550287312304,15659.587461899218,30416.25385478185,51797.70908328403,0.0,0.0,0.0,193.0,0.0,193.0,0.0,17.0,0.0,178.0,193.0,17.0,178.0,1744418919.3551567,0.0,2025-04-11 20:48:39.355,BACKWARD,49
197.0,8410.246182709478,-6007.120729341595,-20017.48472660598,-23371.14046468025,12684.167943497652,15554.64602168155,30676.69638117509,51819.56908936132,0.0,0.0,0.0,193.0,0.0,193.0,0.0,17.0,0.0,179.0,193.0,17.0,179.0,1744418919.355188,0.0,2025-04-11 20:48:39.355,BACKWARD,49
198.0,8393.99646449047,-6029.807749963731,-20050.49825316647,-23396.733212081577,12669.102867734775,15376.860246284039,30849.073034414418,51703.16120423809,0.0,0.0,0.0,193.0,0.0,193.0,0.0,17.0,0.0,179.0,193.0,17.0,179.0,1744418919.3552196,0.0,2025-04-11 20:48:39.355,BACKWARD,49
199.0,8381.032452706391,-6017.179014346482,-20093.033622864918,-23360.8139587419,12542.614345862192,15504.131079212557,30666.12400604773,51688.744329064415,0.0,0.0,0.0,193.0,0.0,193.0,0.0,17.0,0.0,179.0,193.0,17.0,179.0,1744418919.3552513,0.0,2025-04-11 20:48:39.355,BACKWARD,49
200.0,8399.986732004492,-5988.501726210324,-20081.16484655915,-23332.33783630584,12494.826316216746,15658.872206076647,30432.16829683403,51805.93452524359,0.0,0.0,0.0,193.0,0.0,193.0,0.0,17.0,0.0,179.0,193.0,17.0,179.0,1744418919.3552833,0.0,2025-04-11 20:48:39.355,BACKWARD,49
201.0,8405.775833818416,-6007.411302019514,-20020.97159874101,-23351.292115603937,12659.893949019188,15583.099792373157,30609.171761175607,51840.46797042704,0.0,0.0,0.0,193.0,0.0,193.0,0.0,17.0,0.0,179.0,193.0,17.0,179.0,1744418919.3553145,0.0,2025-04-11 20:48:39.355,BACKWARD,49
202.0,8392.655359823151,-6025.404456306035,-20046.541994397878,-23395.68268009218,12688.101850521785,15379.542455618675,30862.573488065424,51733.067838319286,0.0,0.0,0.0,193.0,0.0,193.0,0.0,17.0,0.0,179.0,193.0,17.0,179.0,1744418919.355346,0.0,2025-04-11 20:48:39.355,BACKWARD,49
203.0,8391.381310389199,-6003.879726395575,-20082.125971570727,-23364.881976232766,12566.128381029175,15434.72891267883,30694.398962783693,51655.61904378165,0.0,0.0,0.0,193.0,0.0,193.0,0.0,17.0,0.0,179.0,193.0,17.0,179.0,1744418919.3553777,0.0,2025-04-11 20:48:39.355,BACKWARD,49
204.0,8402.981865761503,-5966.261740477293,-20080.851922136775,-23331.533173505446,12496.390938328617,15644.18710996951,30451.59196276569,51771.91517018261,0.0,0.0,0.0,193.0,0.0,193.0,0.0,17.0,0.0,178.0,193.0,17.0,178.0,1744418919.355421,0.0,2025-04-11 20:48:39.355,BACKWARD,49
205.0,8413.822461822327,-5969.927426567963,-20017.507078350434,-23335.13180436275,12635.68700977409,15612.42528109852,30533.689920150035,51816.68571432659,0.0,0.0,0.0,193.0,0.0,193.0,0.0,17.0,0.0,179.0,193.0,17.0,179.0,1744418919.3554528,0.0,2025-04-11 20:48:39.355,BACKWARD,49
206.0,8393.392967390177,-6010.853470665631,-20023.184421442085,-23383.23275843057,12713.694597923113,15424.96120035186,30861.947639220674,51753.13970484015,0.0,0.0,0.0,193.0,0.0,192.0,0.0,17.0,0.0,179.0,192.0,17.0,179.0,1744418919.3554842,0.0,2025-04-11 20:48:39.355,BACKWARD,49
207.0,8395.739900557983,-6005.265534551804,-20073.297032510884,-23365.37371461078,12578.734764901968,15408.644426899486,30743.572800585367,51648.24296811139,0.0,0.0,0.0,193.0,0.0,193.0,0.0,17.0,0.0,179.0,193.0,17.0,179.0,1744418919.3555157,0.0,2025-04-11 20:48:39.355,BACKWARD,49
208.0,8408.18982221959,-5981.907961596008,-20083.109448326763,-23330.125013604764,12481.28115907683,15632.206574941467,30485.387800382116,51746.702402437026,0.0,0.0,0.0,193.0,0.0,193.0,0.0,17.0,0.0,179.0,193.0,17.0,179.0,1744418919.3555613,0.0,2025-04-11 20:48:39.355,BACKWARD,49
209.0,8411.631990865706,-5977.884647594053,-20034.002665758453,-23337.6575514862,12585.39558474965,15641.773121568338,30478.771684023344,51817.80330154936,0.0,0.0,0.0,193.0,0.0,193.0,0.0,17.0,0.0,179.0,193.0,17.0,179.0,1744418919.355593,0.0,2025-04-11 20:48:39.355,BACKWARD,49
210.0,8404.65824659565,-6010.09351135415,-20022.111537708228,-23382.137522952264,12716.823842146856,15468.211825872879,30827.570656248412,51775.04441440635,0.0,0.0,0.0,193.0,0.0,193.0,0.0,17.0,0.0,179.0,193.0,17.0,179.0,1744418919.3556252,0.0,2025-04-11 20:48:39.355,BACKWARD,49
211.0,8407.563973374841,-6012.418092777502,-20065.228052762515,-23377.622470572293,12606.987369893477,15384.973929521315,30769.6125828758,51639.07875288472,0.0,0.0,0.0,193.0,0.0,193.0,0.0,17.0,0.0,179.0,193.0,17.0,179.0,1744418919.3556569,0.0,2025-04-11 20:48:39.355,BACKWARD,49
212.0,8410.447348409576,-5988.769947143787,-20089.83732340781,-23341.56910676588,12495.630979017136,15610.212458397444,30530.963007326485,51734.028963330864,0.0,0.0,0.0,193.0,0.0,193.0,0.0,17.0,0.0,179.0,193.0,17.0,179.0,1744418919.35569,0.0,2025-04-11 20:48:39.355,BACKWARD,49
213.0,8424.551299160874,-5969.301577723215,-20037.713055338034,-23329.38740603774,12561.367459460194,15658.648688632094,30432.101241600663,51814.76346430343,0.0,0.0,0.0,193.0,0.0,193.0,0.0,17.0,0.0,179.0,193.0,17.0,179.0,1744418919.355728,0.0,2025-04-11 20:48:39.355,BACKWARD,49
214.0,8399.249124437467,-5998.42590074848,-20009.348691624247,-23369.441732101648,12718.61198170328,15513.697625839428,30774.977001545074,51802.24648740846,0.0,0.0,0.0,193.0,0.0,193.0,0.0,17.0,0.0,179.0,193.0,17.0,179.0,1744418919.35576,0.0,2025-04-11 20:48:39.355,BACKWARD,49
215.0,8402.937162272592,-5992.6144471901,-20051.34761945577,-23371.9674792251,12623.058274156843,15366.71255430133,30779.60381264732,51642.386811064105,0.0,0.0,0.0,193.0,0.0,193.0,0.0,17.0,0.0,179.0,193.0,17.0,179.0,1744418919.3558116,0.0,2025-04-11 20:48:39.355,BACKWARD,49
216.0,8413.129557744212,-5962.216074730883,-20080.382535503213,-23329.767385693478,12505.421043088561,15570.426353266997,30553.001827359418,51693.214677955475,0.0,0.0,0.0,193.0,0.0,193.0,0.0,17.0,0.0,179.0,193.0,17.0,179.0,1744418919.3558447,0.0,2025-04-11 20:48:39.355,BACKWARD,49
217.0,8428.753427118472,-5941.473655876357,-20050.878232822208,-23318.926789632653,12521.00020897391,15669.399877715097,30403.893340098068,51792.5234785704,0.0,0.0,0.0,193.0,0.0,193.0,0.0,17.0,0.0,179.0,193.0,17.0,179.0,1744418919.3558764,0.0,2025-04-11 20:48:39.355,BACKWARD,49
218.0,8412.682522855106,-5996.056615836217,-20009.25928464643,-23359.33874360785,12698.718929138056,15546.711152399917,30715.94604443861,51803.58759207578,0.0,0.0,0.0,193.0,0.0,193.0,0.0,17.0,0.0,179.0,193.0,17.0,179.0,1744418919.3559084,0.0,2025-04-11 20:48:39.355,BACKWARD,49
219.0,8393.504726112453,-6024.33157257218,-20060.06479979334,-23396.174418470197,12639.866785987233,15369.03713572468,30838.18773486468,51681.390605138615,0.0,0.0,0.0,193.0,0.0,193.0,0.0,17.0,0.0,179.0,193.0,17.0,179.0,1744418919.3559575,0.0,2025-04-11 20:48:39.355,BACKWARD,49
220.0,8410.916735043136,-5988.121746554583,-20085.277567538928,-23350.733321992557,12516.440453105028,15521.185460231956,30614.066793211317,51678.395471381606,0.0,0.0,0.0,193.0,0.0,193.0,0.0,17.0,0.0,179.0,193.0,17.0,179.0,1744418919.3559897,0.0,2025-04-11 20:48:39.355,BACKWARD,49
221.0,8421.109130514757,-5964.94298755443,-20065.630384162712,-23328.962722893088,12502.112984909176,15659.72157236595,30404.899168598557,51778.73245224148,0.0,0.0,0.0,193.0,0.0,193.0,0.0,17.0,0.0,179.0,193.0,17.0,179.0,1744418919.3560212,0.0,2025-04-11 20:48:39.356,BACKWARD,49
222.0,8415.543546145385,-5985.104261053117,-20007.448793345546,-23347.00058066852,12681.686899863113,15571.007498622836,30637.044386511374,51799.69838854056,0.0,0.0,0.0,193.0,0.0,193.0,0.0,17.0,0.0,178.0,193.0,17.0,178.0,1744418919.3560526,0.0,2025-04-11 20:48:39.356,BACKWARD,49
223.0,8406.356979174254,-6013.781549189276,-20039.322380938815,-23388.686584077666,12675.294300948895,15378.849551540561,30833.85149644035,51686.352692407694,0.0,0.0,0.0,193.0,0.0,193.0,0.0,17.0,0.0,179.0,193.0,17.0,179.0,1744418919.3560991,0.0,2025-04-11 20:48:39.356,BACKWARD,49
224.0,8398.37740640371,-6003.186822317461,-20082.304785526372,-23362.177415153674,12544.558947629805,15473.240968375323,30648.7343488615,51651.10399140167,0.0,0.0,0.0,193.0,0.0,193.0,0.0,17.0,0.0,179.0,193.0,17.0,179.0,1744418919.3561313,0.0,2025-04-11 20:48:39.356,BACKWARD,49
225.0,8414.09068275579,-5965.0994497656175,-20070.21249177605,-23329.90149616021,12491.18298187053,15653.060752518268,30408.78837213378,51754.57021648529,0.0,0.0,0.0,193.0,0.0,193.0,0.0,17.0,0.0,179.0,193.0,17.0,179.0,1744418919.356163,0.0,2025-04-11 20:48:39.356,BACKWARD,49
226.0,8412.682522855106,-5983.561990685701,-20009.035767201873,-23347.53702253545,12652.227300671018,15597.918998947025,30564.088292609253,51795.18333616058,0.0,0.0,0.0,193.0,0.0,193.0,0.0,17.0,0.0,180.0,193.0,17.0,180.0,1744418919.3561947,0.0,2025-04-11 20:48:39.356,BACKWARD,49
227.0,8401.260781438445,-6002.7844909172645,-20021.463337119025,-23389.24537768905,12705.379748985739,15407.169211765435,30845.38499657929,51709.12912000765,0.0,0.0,0.0,193.0,0.0,193.0,0.0,17.0,0.0,179.0,193.0,17.0,179.0,1744418919.3562264,0.0,2025-04-11 20:48:39.356,BACKWARD,49
228.0,8403.540659372886,-5988.032339576762,-20067.01619231894,-23364.43494134366,12584.032128337876,15436.204127812878,30694.197797083594,51624.05838061075,0.0,0.0,0.0,193.0,0.0,193.0,0.0,17.0,0.0,179.0,193.0,17.0,179.0,1744418919.356258,0.0,2025-04-11 20:48:39.356,BACKWARD,49
229.0,8419.835081080804,-5961.567874141679,-20083.26591053795,-23338.10458637531,12500.57071454176,15633.48062437542,30444.77468070682,51731.34675399623,0.0,0.0,0.0,193.0,0.0,193.0,0.0,17.0,0.0,179.0,193.0,17.0,179.0,1744418919.3562896,0.0,2025-04-11 20:48:39.356,BACKWARD,49
230.0,8421.556165403863,-5970.75444111281,-20021.39628188566,-23341.09972013232,12630.322591104818,15609.13957466359,30503.38095466864,51787.360225601224,0.0,0.0,0.0,193.0,0.0,193.0,0.0,17.0,0.0,179.0,193.0,17.0,179.0,1744418919.356321,0.0,2025-04-11 20:48:39.356,BACKWARD,49
231.0,8387.335644642788,-6023.5045580273345,-20018.15527893964,-23389.692412578155,12726.099816095808,15425.363531752055,30842.14399363327,51731.90554760761,0.0,0.0,0.0,193.0,0.0,193.0,0.0,17.0,0.0,179.0,193.0,17.0,179.0,1744418919.3563523,0.0,2025-04-11 20:48:39.356,BACKWARD,49
232.0,8389.973150488515,-6026.298526084248,-20064.69161089559,-23377.600118827835,12584.993253349454,15392.439412169388,30733.246294647015,51613.26248803884,0.0,0.0,0.0,193.0,0.0,193.0,0.0,17.0,0.0,179.0,193.0,17.0,179.0,1744418919.8313737,0.0,2025-04-11 20:48:39.831,BACKWARD,49
233.0,8403.831232050805,-5994.1567175575165,-20080.047259336385,-23342.172603866173,12480.655310232081,15613.52051657683,30480.202195668484,51711.8560328312,0.0,0.0,0.0,193.0,0.0,193.0,0.0,17.0,0.0,179.0,193.0,17.0,179.0,1744418919.8315177,0.0,2025-04-11 20:48:39.831,BACKWARD,49
234.0,8421.690275870595,-5973.682519636455,-20019.228162673495,-23331.33200780535,12588.144849317652,15639.493243633897,30454.22946861142,51787.181411645586,0.0,0.0,0.0,193.0,0.0,193.0,0.0,17.0,0.0,179.0,193.0,17.0,179.0,1744418919.8317273,0.0,2025-04-11 20:48:39.831,BACKWARD,49
235.0,8396.94689475857,-6015.703799212432,-20010.44392710256,-23382.00341248553,12726.502147496003,15472.950395697404,30823.234417824082,51765.32140556829,0.0,0.0,0.0,193.0,0.0,193.0,0.0,17.0,0.0,178.0,193.0,17.0,178.0,1744418919.8317711,0.0,2025-04-11 20:48:39.831,BACKWARD,49
236.0,8395.292865668878,-6013.535680000267,-20066.189177774093,-23390.944110267654,12601.824116924301,15356.117827429514,30779.089722524852,51619.74449393088,0.0,0.0,0.0,193.0,0.0,193.0,0.0,17.0,0.0,178.0,193.0,17.0,178.0,1744418919.83181,0.0,2025-04-11 20:48:39.831,BACKWARD,49
237.0,8401.707816327551,-5989.619313433089,-20085.590491961302,-23350.643915014734,12489.819525458757,15569.88991140007,30537.132088796152,51687.0008929969,0.0,0.0,0.0,193.0,0.0,193.0,0.0,17.0,0.0,179.0,193.0,17.0,179.0,1744418919.8318508,0.0,2025-04-11 20:48:39.831,BACKWARD,49
238.0,8414.738883344995,-5979.784545872753,-20029.420558145113,-23331.66728397218,12548.24698546493,15635.693447076494,30423.696985685467,51764.98612940146,0.0,0.0,0.0,193.0,0.0,193.0,0.0,17.0,0.0,179.0,193.0,17.0,179.0,1744418919.8319623,0.0,2025-04-11 20:48:39.831,BACKWARD,49
239.0,8396.745729058472,-6010.697008454444,-19991.75786873792,-23367.497130334035,12715.080406079342,15502.11942221158,30767.533870641455,51768.62946374768,0.0,0.0,0.0,193.0,0.0,193.0,0.0,17.0,0.0,179.0,193.0,17.0,179.0,1744418919.831993,0.0,2025-04-11 20:48:39.831,BACKWARD,49
240.0,8393.99646449047,-6013.200403833438,-20036.59546811527,-23379.09768570634,12626.45573931405,15355.603737307041,30807.14116181626,51630.294517313785,0.0,0.0,0.0,193.0,0.0,193.0,0.0,17.0,0.0,179.0,193.0,17.0,179.0,1744418919.8320243,0.0,2025-04-11 20:48:39.832,BACKWARD,49
241.0,8401.730168072007,-5975.3141969816925,-20064.244576006484,-23334.483603773548,12509.265543134874,15542.151396531035,30581.120321884195,51668.046613698796,0.0,0.0,0.0,193.0,0.0,193.0,0.0,17.0,0.0,179.0,193.0,17.0,179.0,1744418919.8320556,0.0,2025-04-11 20:48:39.832,BACKWARD,49
242.0,8435.950688833082,-5940.9148622649745,-20021.217467930015,-23304.93459760363,12532.757226557402,15655.452389174985,30415.11391581463,51765.29905382384,0.0,0.0,0.0,193.0,0.0,193.0,0.0,17.0,0.0,179.0,193.0,17.0,179.0,1744418919.8320856,0.0,2025-04-11 20:48:39.832,BACKWARD,49
243.0,8419.499804913976,-5990.04399657774,-19987.689851247054,-23347.559374279903,12713.940467112121,15553.863710625616,30726.496067821514,51792.88110648169,0.0,0.0,0.0,193.0,0.0,193.0,0.0,17.0,0.0,179.0,193.0,17.0,179.0,1744418919.832116,0.0,2025-04-11 20:48:39.832,BACKWARD,49
244.0,8413.174261233124,-6003.5444502287455,-20028.682950578088,-23377.980098483575,12667.940577023099,15356.2742896407,30852.694017016176,51649.00292742287,0.0,0.0,0.0,193.0,0.0,193.0,0.0,17.0,0.0,179.0,193.0,17.0,179.0,1744418919.8321466,0.0,2025-04-11 20:48:39.832,BACKWARD,49
245.0,8413.71070310005,-5985.685406408955,-20064.803369617865,-23344.63129575626,12533.807758546802,15508.601428103619,30648.957866306053,51645.13607563211,0.0,0.0,0.0,193.0,0.0,193.0,0.0,17.0,0.0,178.0,193.0,17.0,178.0,1744418919.8321764,0.0,2025-04-11 20:48:39.832,BACKWARD,49
246.0,8427.90406082917,-5961.299653208215,-20046.050256019862,-23320.33494953334,12508.61734254567,15660.48153167743,30430.849543911165,51752.089172850756,0.0,0.0,0.0,193.0,0.0,192.0,0.0,17.0,0.0,179.0,192.0,17.0,179.0,1744418919.832206,0.0,2025-04-11 20:48:39.832,BACKWARD,49
247.0,8421.690275870595,-5984.478412208368,-19988.114534391705,-23339.736263720544,12687.69951912159,15578.025946381802,30646.38741569369,51778.93361794158,0.0,0.0,0.0,193.0,0.0,192.0,0.0,17.0,0.0,178.0,192.0,17.0,178.0,1744418919.8322356,0.0,2025-04-11 20:48:39.832,BACKWARD,49
248.0,8409.039188508892,-6000.4375577494575,-20014.78016552689,-23370.805188513423,12690.717004623057,15380.548284119164,30861.858232242852,51661.16227640656,0.0,0.0,0.0,193.0,0.0,192.0,0.0,17.0,0.0,179.0,192.0,17.0,179.0,1744418919.8322654,0.0,2025-04-11 20:48:39.832,BACKWARD,49
249.0,8402.870107039227,-5992.770909401287,-20057.53905266989,-23337.47873753056,12560.920424571088,15467.742439239317,30678.953907365074,51605.66289492403,0.0,0.0,0.0,193.0,0.0,193.0,0.0,17.0,0.0,179.0,193.0,17.0,179.0,1744418919.832297,0.0,2025-04-11 20:48:39.832,BACKWARD,49
250.0,8417.465796168543,-5970.866199835086,-20050.96763980003,-23305.76161214848,12496.86032496218,15659.252185732388,30431.698910200466,51720.23793700194,0.0,0.0,0.0,193.0,0.0,193.0,0.0,17.0,0.0,179.0,193.0,17.0,179.0,1744418919.832343,0.0,2025-04-11 20:48:39.832,BACKWARD,49
251.0,8412.079025754812,-5979.359862728103,-19999.089240919264,-23324.559429235393,12648.583966324803,15607.530249062807,30556.354589027716,51768.070670136294,0.0,0.0,0.0,193.0,0.0,193.0,0.0,17.0,0.0,179.0,193.0,17.0,179.0,1744418919.8323932,0.0,2025-04-11 20:48:39.832,BACKWARD,49
252.0,8399.115013970735,-6005.243182807349,-20014.467241104514,-23372.794493769943,12709.157193798685,15409.24792399978,30854.4821565726,51695.38279716764,0.0,0.0,0.0,193.0,0.0,193.0,0.0,17.0,0.0,179.0,193.0,17.0,179.0,1744418919.832425,0.0,2025-04-11 20:48:39.832,BACKWARD,49
253.0,8405.842889051783,-5999.007046104318,-20062.165863772138,-23355.53894705045,12572.29746249884,15425.408235240966,30718.69530900661,51612.54723221627,0.0,0.0,0.0,193.0,0.0,193.0,0.0,17.0,0.0,178.0,193.0,17.0,178.0,1744418919.832471,0.0,2025-04-11 20:48:39.832,BACKWARD,49
254.0,8422.00320029297,-5970.150944012516,-20077.610919190756,-23327.420452525672,12487.159667868575,15633.882955775614,30470.367428108148,51720.72967537995,0.0,0.0,0.0,193.0,0.0,192.0,0.0,17.0,0.0,179.0,192.0,17.0,179.0,1744418919.832503,0.0,2025-04-11 20:48:39.832,BACKWARD,49
255.0,8424.461892183053,-5973.682519636455,-20026.24661043246,-23335.690597974135,12598.024320366898,15611.37474910912,30494.46260863097,51777.21253361852,0.0,0.0,0.0,193.0,0.0,193.0,0.0,17.0,0.0,179.0,193.0,17.0,179.0,1744418919.8325353,0.0,2025-04-11 20:48:39.832,BACKWARD,49
0.0,8405.060577995846,-6014.340342800659,-20014.131964937686,-23376.77310428299,12709.336007754328,15437.992267369304,30836.064319141427,51730.76560864039,0.0,0.0,0.0,193.0,0.0,193.0,0.0,17.0,0.0,179.0,193.0,17.0,179.0,1744418919.8325675,0.0,2025-04-11 20:48:39.832,BACKWARD,49
1.0,8406.625200107717,-6005.064368851706,-20054.07453227932,-23361.506862820013,12583.003948092932,15383.878694043005,30740.644722061723,51603.651237923055,0.0,0.0,0.0,193.0,0.0,193.0,0.0,17.0,0.0,179.0,193.0,17.0,179.0,1744418919.8325987,0.0,2025-04-11 20:48:39.832,BACKWARD,49
2.0,8420.103302014268,-5973.4366504474465,-20062.992878316985,-23315.529324475447,12485.930321923533,15615.845098000182,30489.79109403981,51692.87940178865,0.0,0.0,0.0,193.0,0.0,193.0,0.0,17.0,0.0,179.0,193.0,17.0,179.0,1744418919.8326306,0.0,2025-04-11 20:48:39.832,BACKWARD,49
3.0,8425.311258472355,-5961.590225886134,-20013.841392259765,-23315.305807030894,12580.478200969483,15657.419342687053,30447.322779574726,51777.234885362974,0.0,0.0,0.0,193.0,0.0,193.0,0.0,17.0,0.0,179.0,193.0,17.0,179.0,1744418919.832662,0.0,2025-04-11 20:48:39.832,BACKWARD,49
4.0,8403.719473328529,-6002.985656617362,-20000.497400819946,-23369.53113907947,12729.18435683064,15496.35267214211,30819.076993355397,51767.84715269174,0.0,0.0,0.0,193.0,0.0,193.0,0.0,17.0,0.0,179.0,193.0,17.0,179.0,1744418919.8326936,0.0,2025-04-11 20:48:39.832,BACKWARD,49
5.0,8402.534830872397,-6007.724226441887,-20052.241689233982,-23375.163778682207,12614.966942664021,15370.08766771408,30793.461894209613,51625.0865608557,0.0,0.0,0.0,193.0,0.0,193.0,0.0,17.0,0.0,180.0,193.0,17.0,180.0,1744418919.832725,0.0,2025-04-11 20:48:39.832,BACKWARD,49
6.0,8409.173298975624,-5987.13826979855,-20081.678936681623,-23336.361150307795,12503.655255276592,15584.03856564028,30549.872583135675,51685.302160418294,0.0,0.0,0.0,193.0,0.0,193.0,0.0,17.0,0.0,179.0,193.0,17.0,179.0,1744418919.8327563,0.0,2025-04-11 20:48:39.832,BACKWARD,49
7.0,8425.177148005623,-5963.668938120478,-20038.07068324932,-23324.134746090742,12545.140092985643,15661.509711922374,30418.757250160845,51778.508934796926,0.0,0.0,0.0,193.0,0.0,193.0,0.0,17.0,0.0,179.0,193.0,17.0,179.0,1744418919.8327878,0.0,2025-04-11 20:48:39.832,BACKWARD,49
8.0,8408.90507804216,-5991.072176822684,-19991.802572226832,-23353.840214471846,12724.266973050473,15542.799597120238,30755.32981816886,51791.092966925266,0.0,0.0,0.0,193.0,0.0,193.0,0.0,17.0,0.0,179.0,193.0,17.0,179.0,1744418919.8328195,0.0,2025-04-11 20:48:39.832,BACKWARD,49
9.0,8406.669903596629,-5999.387025760058,-20039.970581528018,-23380.930528751676,12637.87748073071,15362.778647277195,30823.077955612895,51650.433439068016,0.0,0.0,0.0,193.0,0.0,193.0,0.0,17.0,0.0,179.0,193.0,17.0,179.0,1744418919.83287,0.0,2025-04-11 20:48:39.832,BACKWARD,49
10.0,8416.527022901419,-5980.879781351064,-20070.324250498325,-23336.85288868581,12515.300514137807,15526.773396345783,30593.05615342333,51673.41103236807,0.0,0.0,0.0,193.0,0.0,193.0,0.0,17.0,0.0,179.0,193.0,17.0,179.0,1744418919.832902,0.0,2025-04-11 20:48:39.832,BACKWARD,49
11.0,8426.652363139674,-5969.726260867866,-20048.128968254205,-23321.966626878577,12509.33259836824,15648.165720482555,30405.614424421125,51777.90543769663,0.0,0.0,0.0,193.0,0.0,193.0,0.0,17.0,0.0,179.0,193.0,17.0,179.0,1744418919.832934,0.0,2025-04-11 20:48:39.832,BACKWARD,49
12.0,8413.2860199554,-5998.224735048382,-19994.596540283746,-23349.52632779197,12692.683958135123,15546.755855888827,30681.770227166442,51796.43503385008,0.0,0.0,0.0,193.0,0.0,193.0,0.0,17.0,0.0,179.0,193.0,17.0,179.0,1744418919.8329656,0.0,2025-04-11 20:48:39.832,BACKWARD,49
13.0,8396.969246503026,-6012.66396196651,-20030.471090134513,-23383.25511017503,12667.515893878448,15365.617318823019,30850.034159425995,51675.69091030251,0.0,0.0,0.0,193.0,0.0,193.0,0.0,17.0,0.0,179.0,193.0,17.0,179.0,1744418919.8330104,0.0,2025-04-11 20:48:39.833,BACKWARD,49
14.0,8393.772947045916,-5988.188801787949,-20072.35825924376,-23357.32708660687,12534.925345769567,15506.053329235714,30658.34559897728,51665.36440436416,0.0,0.0,0.0,193.0,0.0,193.0,0.0,17.0,0.0,179.0,193.0,17.0,179.0,1744418919.833047,0.0,2025-04-11 20:48:39.833,BACKWARD,49
15.0,8414.51536590044,-5953.811818815687,-20057.36023871425,-23326.481679258548,12492.166458626565,15668.774028870348,30424.0322618523,51773.949178928044,0.0,0.0,0.0,193.0,0.0,193.0,0.0,17.0,0.0,179.0,193.0,17.0,179.0,1744418919.8330784,0.0,2025-04-11 20:48:39.833,BACKWARD,49
16.0,8421.80203459287,-5966.239388732838,-19993.948339694543,-23333.90245841771,12660.720963564036,15599.930655948003,30602.265072138915,51799.0278362069,0.0,0.0,0.0,193.0,0.0,193.0,0.0,17.0,0.0,179.0,193.0,17.0,179.0,1744418919.83311,0.0,2025-04-11 20:48:39.833,BACKWARD,49
17.0,8408.56980187533,-6008.66299970901,-20028.57119185581,-23378.851816517334,12681.50808590747,15406.096328031581,30849.855345470354,51697.32739893525,0.0,0.0,0.0,193.0,0.0,193.0,0.0,17.0,0.0,179.0,193.0,17.0,179.0,1744418919.8331416,0.0,2025-04-11 20:48:39.833,BACKWARD,49
18.0,8401.439595394088,-5995.654284436022,-20072.939404599598,-23349.99571442553,12549.275165709874,15465.551968282696,30676.718732919544,51632.395581292585,0.0,0.0,0.0,193.0,0.0,193.0,0.0,17.0,0.0,179.0,193.0,17.0,179.0,1744418919.8331733,0.0,2025-04-11 20:48:39.833,BACKWARD,49
19.0,8414.291848455889,-5969.614502145589,-20069.87721560922,-23326.66049321419,12484.253941089386,15645.863490803658,30432.63768346759,51742.969661112984,0.0,0.0,0.0,193.0,0.0,193.0,0.0,17.0,0.0,178.0,193.0,17.0,178.0,1744418919.8332047,0.0,2025-04-11 20:48:39.833,BACKWARD,49
20.0,8421.153834003668,-5977.616426660589,-20003.269017132407,-23335.42237704067,12631.283716116395,15603.596342038672,30532.505277693905,51787.784908745874,0.0,0.0,0.0,193.0,0.0,193.0,0.0,17.0,0.0,179.0,193.0,17.0,179.0,1744418919.8332365,0.0,2025-04-11 20:48:39.833,BACKWARD,49
21.0,8389.682577810596,-6008.350075286637,-20014.44488936006,-23391.39114515676,12707.480812964537,15412.399519967978,30846.971970435618,51718.11452127869,0.0,0.0,0.0,193.0,0.0,193.0,0.0,17.0,0.0,179.0,193.0,17.0,179.0,1744418919.8332677,0.0,2025-04-11 20:48:39.833,BACKWARD,49
22.0,8390.442537122075,-6013.356866044625,-20064.021058561928,-23379.857645017823,12584.00977659342,15401.737737862795,30719.678785762644,51620.81737766473,0.0,0.0,0.0,193.0,0.0,193.0,0.0,17.0,0.0,179.0,193.0,17.0,179.0,1744418919.8332992,0.0,2025-04-11 20:48:39.833,BACKWARD,49
23.0,8417.063464768347,-5978.108165038606,-20069.810160375855,-23335.42237704067,12494.647502261103,15617.387368367597,30459.571535536237,51720.99789631342,0.0,0.0,0.0,193.0,0.0,193.0,0.0,17.0,0.0,179.0,193.0,17.0,179.0,1744418919.8333309,0.0,2025-04-11 20:48:39.833,BACKWARD,49
24.0,8416.638781623697,-5982.377348229569,-20011.405052114136,-23332.226077583564,12615.525736275404,15630.641952829596,30470.725056019433,51789.282475624386,0.0,0.0,0.0,193.0,0.0,193.0,0.0,17.0,0.0,178.0,193.0,17.0,178.0,1744418919.8333752,0.0,2025-04-11 20:48:39.833,BACKWARD,49
25.0,8386.46392660903,-6021.04586613725,-20016.00951147193,-23390.787648056466,12730.838385920333,15457.05830538968,30835.5278772745,51763.265045078406,0.0,0.0,0.0,193.0,0.0,193.0,0.0,17.0,0.0,179.0,193.0,17.0,179.0,1744418919.8334274,0.0,2025-04-11 20:48:39.833,BACKWARD,49
26.0,8390.822516777816,-6003.90207814003,-20061.607070160757,-23381.0199357295,12609.334303061283,15374.759182305239,30761.722417083078,51634.340183060194,0.0,0.0,0.0,193.0,0.0,193.0,0.0,17.0,0.0,178.0,193.0,17.0,178.0,1744418919.8334572,0.0,2025-04-11 20:48:39.833,BACKWARD,49
27.0,8396.455156380553,-5980.633912162056,-20082.77417215993,-23336.38350205225,12497.597932529205,15591.682862243995,30517.462553675483,51724.75298938191,0.0,0.0,0.0,193.0,0.0,193.0,0.0,17.0,0.0,178.0,193.0,17.0,178.0,1744418919.8334866,0.0,2025-04-11 20:48:39.833,BACKWARD,49
28.0,8418.784549091406,-5966.284092221748,-20031.05223549035,-23321.787812922932,12565.793104862345,15631.42426388553,30429.329625288206,51798.87137399571,0.0,0.0,0.0,193.0,0.0,193.0,0.0,17.0,0.0,179.0,193.0,17.0,179.0,1744418919.8335297,0.0,2025-04-11 20:48:39.833,BACKWARD,49
29.0,8404.881764040205,-6002.203345561426,-20003.984272954975,-23365.37371461078,12720.109548581786,15486.987291215337,30781.90604232622,51781.794641231856,0.0,0.0,0.0,193.0,0.0,193.0,0.0,17.0,0.0,179.0,193.0,17.0,179.0,1744418919.8335595,0.0,2025-04-11 20:48:39.833,BACKWARD,49
30.0,8401.66311283864,-6001.041054849751,-20041.602258873256,-23368.458255345617,12627.908602703645,15370.914682258926,30777.52510041298,51639.190511607,0.0,0.0,0.0,193.0,0.0,193.0,0.0,17.0,0.0,179.0,193.0,17.0,179.0,1744418919.8335893,0.0,2025-04-11 20:48:39.833,BACKWARD,49
31.0,8403.09362448378,-5975.872990593075,-20072.96175634405,-23339.445691042627,12515.322865882263,15584.284434829287,30556.42164426108,51708.0562362738,0.0,0.0,0.0,193.0,0.0,193.0,0.0,17.0,0.0,179.0,193.0,17.0,179.0,1744418919.833619,0.0,2025-04-11 20:48:39.833,BACKWARD,49
32.0,8422.897270071182,-5961.254949719304,-20041.088168750783,-23327.867487414776,12539.798026060824,15656.793493842304,30403.714526142423,51793.64106579317,0.0,0.0,0.0,193.0,0.0,193.0,0.0,17.0,0.0,179.0,193.0,17.0,179.0,1744418919.8336487,0.0,2025-04-11 20:48:39.833,BACKWARD,49
33.0,8398.28799942589,-6010.317028798703,-20002.86668573221,-23363.51851982099,12716.153289813195,15536.429349950475,30724.193838142615,51801.642990308166,0.0,0.0,0.0,193.0,0.0,193.0,0.0,17.0,0.0,179.0,193.0,17.0,179.0,1744418919.8336785,0.0,2025-04-11 20:48:39.833,BACKWARD,49
34.0,8396.164583702634,-6007.500708997334,-20048.30778220985,-23385.6690985762,12642.54899532187,15359.18001641989,30812.23735955207,51657.898921716085,0.0,0.0,0.0,193.0,0.0,193.0,0.0,17.0,0.0,180.0,193.0,17.0,180.0,1744418919.8337083,0.0,2025-04-11 20:48:39.833,BACKWARD,49
35.0,8412.391950177187,-5976.118859782084,-20067.887910352696,-23330.728510705056,12529.516223611383,15532.406035948521,30586.037705664363,51658.07773567173,0.0,0.0,0.0,193.0,0.0,193.0,0.0,17.0,0.0,179.0,193.0,17.0,179.0,1744418919.8337379,0.0,2025-04-11 20:48:39.833,BACKWARD,49
36.0,8422.360828204255,-5963.534827653745,-20045.7820350864,-23318.300940787907,12523.19067993053,15663.2978514788,30386.7719038453,51758.88410316517,0.0,0.0,0.0,193.0,0.0,193.0,0.0,17.0,0.0,178.0,193.0,17.0,178.0,1744418919.8337672,0.0,2025-04-11 20:48:39.833,BACKWARD,49
37.0,8404.121804728724,-5997.151851314527,-19994.328319350283,-23346.262973101497,12694.539152924914,15561.955042118436,30640.01716852393,51785.996769189456,0.0,0.0,0.0,193.0,0.0,193.0,0.0,17.0,0.0,179.0,193.0,17.0,179.0,1744418919.8337967,0.0,2025-04-11 20:48:39.833,BACKWARD,49
38.0,8400.903153527159,-6006.964267130407,-20017.417671372616,-23369.687601290658,12677.730641094524,15369.439467124877,30809.465743239612,51661.251683384384,0.0,0.0,0.0,193.0,0.0,193.0,0.0,17.0,0.0,179.0,193.0,17.0,179.0,1744418919.8338263,0.0,2025-04-11 20:48:39.833,BACKWARD,49
39.0,8408.14511873068,-5980.030415061762,-20047.771340342922,-23331.957856650097,12553.544348900838,15495.59271283063,30620.168819447616,51633.7366859599,0.0,0.0,0.0,193.0,0.0,193.0,0.0,17.0,0.0,179.0,193.0,17.0,179.0,1744418919.833867,0.0,2025-04-11 20:48:39.833,BACKWARD,49
40.0,8425.355961961266,-5951.330775181148,-20039.00945651644,-23305.336929003828,12510.137261168631,15678.184113286034,30398.35010747315,51757.38653628666,0.0,0.0,0.0,193.0,0.0,193.0,0.0,17.0,0.0,179.0,193.0,17.0,179.0,1744418919.833897,0.0,2025-04-11 20:48:39.833,BACKWARD,49
41.0,8419.94683980308,-5965.077098021162,-19987.131057635674,-23328.33687404834,12673.237940459006,15610.503031075363,30565.518804254392,51795.33979837177,0.0,0.0,0.0,193.0,0.0,193.0,0.0,17.0,0.0,179.0,193.0,17.0,179.0,1744418919.8339264,0.0,2025-04-11 20:48:39.833,BACKWARD,49
42.0,8407.340455930287,-5989.798127388732,-20011.874438747698,-23378.024801972486,12709.783042643434,15421.608438683563,30836.690167986177,51709.71026536349,0.0,0.0,0.0,193.0,0.0,193.0,0.0,17.0,0.0,179.0,193.0,17.0,179.0,1744418919.8339558,0.0,2025-04-11 20:48:39.833,BACKWARD,49
43.0,8398.019778492426,-5994.648455935533,-20067.329116741315,-23363.809092498912,12571.358689231718,15471.11755265207,30683.02192485594,51644.28670934281,0.0,0.0,0.0,193.0,0.0,193.0,0.0,17.0,0.0,179.0,193.0,17.0,179.0,1744418919.8339972,0.0,2025-04-11 20:48:39.833,BACKWARD,49
44.0,8396.969246503026,-5975.537714426246,-20080.06961108084,-23340.96560966559,12486.46676379046,15660.123903766145,30432.481221256403,51759.82287643229,0.0,0.0,0.0,193.0,0.0,193.0,0.0,17.0,0.0,179.0,193.0,17.0,179.0,1744418919.834027,0.0,2025-04-11 20:48:39.834,BACKWARD,49
45.0,8411.699046099073,-5965.881760821553,-20016.81417427232,-23340.205650354106,12613.961114163532,15612.559391565252,30488.51704460586,51800.70421704104,0.0,0.0,0.0,193.0,0.0,193.0,0.0,17.0,0.0,179.0,193.0,17.0,179.0,1744418919.8340566,0.0,2025-04-11 20:48:39.834,BACKWARD,49
46.0,8401.841926794283,-5990.781604144765,-20016.702415550044,-23378.78476128397,12699.501240193993,15437.634639458018,30812.192656063162,51747.99880361543,0.0,0.0,0.0,193.0,0.0,193.0,0.0,17.0,0.0,179.0,193.0,17.0,179.0,1744418919.8340864,0.0,2025-04-11 20:48:39.834,BACKWARD,49
47.0,8416.594078134785,-5986.2889035092485,-20058.701343381566,-23354.86839471679,12572.811552621311,15423.95537185137,30691.64969821569,51640.777485463324,0.0,0.0,0.0,193.0,0.0,193.0,0.0,17.0,0.0,179.0,193.0,17.0,179.0,1744418919.8341155,0.0,2025-04-11 20:48:39.834,BACKWARD,49
48.0,8421.824386337326,-5974.75540337031,-20079.957852358562,-23327.15223159221,12473.279234561829,15642.980115768923,30443.388872550593,51752.849132162235,0.0,0.0,0.0,193.0,0.0,193.0,0.0,17.0,0.0,179.0,193.0,17.0,179.0,1744418919.8341453,0.0,2025-04-11 20:48:39.834,BACKWARD,49
49.0,8430.027476552425,-5963.914807309486,-20011.807383514333,-23318.09977508781,12575.069078811299,15644.56708962525,30411.559988446235,51812.461234624534,0.0,0.0,0.0,193.0,0.0,193.0,0.0,17.0,0.0,179.0,193.0,17.0,179.0,1744418919.8341749,0.0,2025-04-11 20:48:39.834,BACKWARD,49
50.0,8406.178165218613,-5992.927371612474,-19989.29917684784,-23359.04817092993,12718.187298558629,15487.479029593353,30768.249126464027,51779.470059808504,0.0,0.0,0.0,193.0,0.0,193.0,0.0,17.0,0.0,180.0,193.0,17.0,180.0,1744418919.8342044,0.0,2025-04-11 20:48:39.834,BACKWARD,49
51.0,8402.624237850217,-5994.670807679989,-20038.785939071888,-23364.8149209994,12610.54129726187,15400.754261106762,30724.037375931428,51641.00100290788,0.0,0.0,0.0,193.0,0.0,193.0,0.0,17.0,0.0,179.0,193.0,17.0,179.0,1744418919.834234,0.0,2025-04-11 20:48:39.834,BACKWARD,49
52.0,8404.166508217635,-5982.243237762837,-20071.73241039901,-23337.456385786103,12499.408423830084,15615.107490433156,30496.027230742842,51725.915280093584,0.0,0.0,0.0,193.0,0.0,194.0,0.0,17.0,0.0,179.0,194.0,17.0,179.0,1744418919.8342636,0.0,2025-04-11 20:48:39.834,BACKWARD,49
53.0,8419.075121769325,-5972.296711480226,-20033.73444482499,-23332.42724328366,12550.72802909947,15667.924662581047,30402.239311008372,51816.28338292639,0.0,0.0,0.0,193.0,0.0,193.0,0.0,17.0,0.0,179.0,193.0,17.0,179.0,1744418919.8342931,0.0,2025-04-11 20:48:39.834,BACKWARD,49
54.0,8401.439595394088,-6000.079929838173,-20003.6713485326,-23372.57097632539,12712.174679300151,15523.979428288869,30752.84877453432,51811.74597880197,0.0,0.0,0.0,193.0,0.0,193.0,0.0,17.0,0.0,179.0,193.0,17.0,179.0,1744418919.8343337,0.0,2025-04-11 20:48:39.834,BACKWARD,49
55.0,8399.85262153776,-5998.8505838931305,-20048.82187233232,-23384.752677053533,12622.052445656354,15372.166379948423,30785.012934805505,51663.33039561873,0.0,0.0,0.0,193.0,0.0,192.0,0.0,17.0,0.0,179.0,192.0,17.0,179.0,1744418919.8343637,0.0,2025-04-11 20:48:39.834,BACKWARD,49
56.0,8406.178165218613,-5971.447345190924,-20080.136666314207,-23348.676961502668,12493.306397593786,15565.598376464652,30559.506184995913,51710.44787293051,0.0,0.0,0.0,193.0,0.0,193.0,0.0,17.0,0.0,179.0,193.0,17.0,179.0,1744418919.8343933,0.0,2025-04-11 20:48:39.834,BACKWARD,49
57.0,8428.507557929464,-5942.546539610212,-20034.762625069932,-23321.18431582264,12514.160575170587,15663.677831134539,30383.329735199182,51799.25135365145,0.0,0.0,0.0,193.0,0.0,193.0,0.0,17.0,0.0,179.0,193.0,17.0,179.0,1744418919.8344223,0.0,2025-04-11 20:48:39.834,BACKWARD,49
58.0,8415.52119440093,-5979.13634528355,-19987.354575080226,-23350.66626675919,12694.963836069564,15553.193158291955,30687.55932898037,51818.25033643846,0.0,0.0,0.0,193.0,0.0,193.0,0.0,17.0,0.0,179.0,193.0,17.0,179.0,1744418919.8344643,0.0,2025-04-11 20:48:39.834,BACKWARD,49
59.0,8416.705836857062,-5999.297618782237,-20028.235915688983,-23376.259014160518,12643.9348034781,15373.775705549206,30803.698993170143,51682.999930739395,0.0,0.0,0.0,193.0,0.0,193.0,0.0,17.0,0.0,180.0,193.0,17.0,180.0,1744418919.8345091,0.0,2025-04-11 20:48:39.834,BACKWARD,49
60.0,8404.680598340106,-5990.938066355952,-20077.67797442412,-23356.030685428464,12515.926362982556,15522.526564899275,30601.169836660607,51690.554820365294,0.0,0.0,0.0,193.0,0.0,193.0,0.0,17.0,0.0,180.0,193.0,17.0,180.0,1744418919.8345406,0.0,2025-04-11 20:48:39.834,BACKWARD,49
61.0,8417.510499657452,-5963.780696842754,-20065.183349273604,-23340.29505733193,12482.868132933156,15647.718685593449,30379.217014219408,51789.751862257945,0.0,0.0,0.0,193.0,0.0,193.0,0.0,17.0,0.0,179.0,193.0,17.0,179.0,1744418919.8345718,0.0,2025-04-11 20:48:39.834,BACKWARD,49
62.0,8424.216022994045,-5963.735993353844,-19993.121325149696,-23341.367941065782,12671.159228224664,15578.160056848534,30600.63339479368,51805.21926942102,0.0,0.0,0.0,193.0,0.0,193.0,0.0,17.0,0.0,179.0,193.0,17.0,179.0,1744418919.8346033,0.0,2025-04-11 20:48:39.834,BACKWARD,49
63.0,8407.720435586029,-5991.653322178522,-20025.86663077672,-23379.857645017823,12668.611129356757,15403.525877419219,30816.081859598384,51697.685026846535,0.0,0.0,0.0,193.0,0.0,193.0,0.0,17.0,0.0,179.0,193.0,17.0,179.0,1744418919.8346353,0.0,2025-04-11 20:48:39.834,BACKWARD,49
64.0,8407.631028608206,-5978.689310394444,-20068.87138710873,-23352.119130148785,12539.239232449441,15505.092204224135,30641.626494124714,51664.02329969684,0.0,0.0,0.0,193.0,0.0,193.0,0.0,17.0,0.0,178.0,193.0,17.0,178.0,1744418919.8346665,0.0,2025-04-11 20:48:39.834,BACKWARD,49
65.0,8421.444406681587,-5946.145170467516,-20069.810160375855,-23332.449595028116,12479.425964287038,15672.663232405572,30402.149904030553,51777.61486501871,0.0,0.0,0.0,193.0,0.0,193.0,0.0,17.0,0.0,179.0,193.0,17.0,179.0,1744418919.8346977,0.0,2025-04-11 20:48:39.834,BACKWARD,49
66.0,8421.220889237034,-5967.893417822531,-20008.745194523955,-23351.314467348395,12637.966887708531,15615.688635788994,30544.28464702185,51818.51855737193,0.0,0.0,0.0,193.0,0.0,193.0,0.0,17.0,0.0,179.0,193.0,17.0,179.0,1744418919.8347294,0.0,2025-04-11 20:48:39.834,BACKWARD,49
67.0,8401.171374460624,-6008.908868898019,-20024.77139529841,-23397.470819648603,12685.263178975962,15415.52876419172,30835.14789761876,51739.840416889245,0.0,0.0,0.0,193.0,0.0,193.0,0.0,17.0,0.0,179.0,193.0,17.0,179.0,1744418919.834761,0.0,2025-04-11 20:48:39.834,BACKWARD,49
68.0,8404.188859962089,-5983.7631563857985,-20063.171692272626,-23364.300830876928,12560.96512806,15446.48593026232,30675.042352085395,51646.63364251061,0.0,0.0,0.0,193.0,0.0,193.0,0.0,17.0,0.0,179.0,193.0,17.0,179.0,1744418919.8347924,0.0,2025-04-11 20:48:39.834,BACKWARD,49
69.0,8412.727226344017,-5945.273452433759,-20074.97341334503,-23335.936467163145,12478.621301486648,15650.736171094915,30421.148886817562,51751.88800715066,0.0,0.0,0.0,193.0,0.0,193.0,0.0,17.0,0.0,179.0,193.0,17.0,179.0,1744418919.8348358,0.0,2025-04-11 20:48:39.834,BACKWARD,49
70.0,8425.780645105917,-5962.596054386622,-20017.127098694695,-23342.351417821817,12601.086509357276,15617.365016623142,30466.12059666164,51804.705179298544,0.0,0.0,0.0,193.0,0.0,193.0,0.0,17.0,0.0,179.0,193.0,17.0,179.0,1744418919.8348677,0.0,2025-04-11 20:48:39.834,BACKWARD,49
71.0,8409.486223397997,-6002.538621728257,-20015.33895913827,-23390.273557933993,12703.189278029118,15438.081674347124,30810.829199651387,51756.93950139755,0.0,0.0,0.0,193.0,0.0,193.0,0.0,17.0,0.0,179.0,193.0,17.0,179.0,1744418919.8348987,0.0,2025-04-11 20:48:39.834,BACKWARD,49
72.0,8406.915772785636,-5991.049825078228,-20062.724657383522,-23377.443656616648,12573.146828788142,15395.970987793326,30700.299823319892,51631.30034581427,0.0,0.0,0.0,193.0,0.0,193.0,0.0,17.0,0.0,179.0,193.0,17.0,179.0,1744418919.8349302,0.0,2025-04-11 20:48:39.834,BACKWARD,49
73.0,8428.90988932966,-5946.346336167614,-20062.568195172335,-23325.252333313507,12484.097478878199,15630.261973173854,30446.27224758533,51724.48476844845,0.0,0.0,0.0,193.0,0.0,193.0,0.0,17.0,0.0,179.0,193.0,17.0,179.0,1744418919.8349743,0.0,2025-04-11 20:48:39.834,BACKWARD,49
74.0,8437.157683033667,-5944.602900100101,-20009.795726513355,-23325.587609480335,12581.752250403435,15665.845950346704,30433.107070101152,51812.77415904691,0.0,0.0,0.0,193.0,0.0,193.0,0.0,17.0,0.0,179.0,193.0,17.0,179.0,1744418919.835006,0.0,2025-04-11 20:48:39.835,BACKWARD,49
75.0,8400.165545960135,-5988.3452639991365,-19999.96095895302,-23375.364944382305,12713.985170601032,15503.706396067906,30805.196560048647,51803.92286824261,0.0,0.0,0.0,193.0,0.0,193.0,0.0,17.0,0.0,179.0,193.0,17.0,179.0,1744418919.8350413,0.0,2025-04-11 20:48:39.835,BACKWARD,49
76.0,8391.649531322662,-5983.360824985603,-20051.034695033395,-23386.67492707669,12602.897000658155,15395.345138948578,30757.296771680925,51659.3964885946,0.0,0.0,0.0,193.0,0.0,193.0,0.0,17.0,0.0,179.0,193.0,17.0,179.0,1744418919.835073,0.0,2025-04-11 20:48:39.835,BACKWARD,49
77.0,8410.38029317621,-5950.7049263364,-20077.946195357585,-23350.420397570182,12491.562961526271,15603.261065871844,30509.527684393848,51728.016344072385,0.0,0.0,0.0,193.0,0.0,193.0,0.0,17.0,0.0,179.0,193.0,17.0,179.0,1744418919.8351047,0.0,2025-04-11 20:48:39.835,BACKWARD,49
78.0,8421.80203459287,-5953.6553566044995,-20037.221316960015,-23336.04822588542,12547.017639519889,15673.177322528045,30403.178084275496,51823.659458596645,0.0,0.0,0.0,193.0,0.0,193.0,0.0,17.0,0.0,179.0,193.0,17.0,179.0,1744418919.835136,0.0,2025-04-11 20:48:39.835,BACKWARD,49
79.0,8411.319066443333,-5984.053729063718,-20000.698566520045,-23367.407723356217,12715.147461312708,15544.45362620993,30745.025663974964,51826.051095253366,0.0,0.0,0.0,193.0,0.0,193.0,0.0,17.0,0.0,178.0,193.0,17.0,178.0,1744418919.8351676,0.0,2025-04-11 20:48:39.835,BACKWARD,49
80.0,8405.529964629408,-5991.51921171179,-20053.515738667935,-23386.987851499063,12624.064102657332,15390.450106912866,30792.970155831597,51677.45669811448,0.0,0.0,0.0,193.0,0.0,193.0,0.0,17.0,0.0,178.0,193.0,17.0,178.0,1744418919.835199,0.0,2025-04-11 20:48:39.835,BACKWARD,49
81.0,8406.446386152076,-5972.94491206943,-20094.240617065505,-23352.38735108225,12486.936150424022,15577.847132426159,30572.00081014643,51708.54797465182,0.0,0.0,0.0,193.0,0.0,192.0,0.0,17.0,0.0,178.0,192.0,17.0,178.0,1744418919.8352304,0.0,2025-04-11 20:48:39.835,BACKWARD,49
82.0,8431.882671342215,-5952.291900192726,-20061.91999458313,-23330.99673163852,12494.42398481655,15680.933377854035,30392.270432981306,51801.03949320788,0.0,0.0,0.0,193.0,0.0,193.0,0.0,17.0,0.0,179.0,193.0,17.0,179.0,1744418919.835262,0.0,2025-04-11 20:48:39.835,BACKWARD,49
83.0,8411.721397843528,-5992.189764045449,-20010.779203269387,-23365.172548910687,12677.21655097205,15565.93365263148,30684.20656731207,51825.49230164198,0.0,0.0,0.0,193.0,0.0,193.0,0.0,17.0,0.0,179.0,193.0,17.0,179.0,1744418919.8352933,0.0,2025-04-11 20:48:39.835,BACKWARD,49
84.0,8404.971171018025,-5998.157679815016,-20039.031808260897,-23392.575787612892,12636.424617341116,15368.679507813396,30811.5221037295,51685.99506449641,0.0,0.0,0.0,193.0,0.0,193.0,0.0,17.0,0.0,179.0,193.0,17.0,179.0,1744418919.8353384,0.0,2025-04-11 20:48:39.835,BACKWARD,49
85.0,8411.274362954422,-5975.090679537139,-20074.369916244737,-23358.087045918353,12515.792252515825,15518.458547408409,30607.71889778601,51676.13794519162,0.0,0.0,0.0,193.0,0.0,193.0,0.0,17.0,0.0,179.0,193.0,17.0,179.0,1744418919.8353703,0.0,2025-04-11 20:48:39.835,BACKWARD,49
86.0,8423.746636360484,-5955.175275227461,-20058.16490151464,-23336.204688096608,12489.797173714302,15668.081124792234,30387.10718001213,51786.77908024539,0.0,0.0,0.0,193.0,0.0,193.0,0.0,17.0,0.0,179.0,193.0,17.0,179.0,1744418919.8354023,0.0,2025-04-11 20:48:39.835,BACKWARD,49
