Sample Index,EXG Channel 0,EXG Channel 1,EXG Channel 2,EXG Channel 3,EXG Channel 4,EXG Channel 5,EXG Channel 6,EXG Channel 7,Accel Channel 0,Accel Channel 1,Accel Channel 2,Not Used,Digital Channel 0 (D11),Digital Channel 1 (D12),Digital Channel 2 (D13),Digital Channel 3 (D17),Not Used,Digital Channel 4 (D18),Analog Channel 0,Analog Channel 1,Analog Channel 2,Timestamp,Marker Channel,Timestamp (Formatted),Stimulus_Direction,Stimulus_Number
29.0,18323.24484863816,3348.7383542941043,-65947.83853862746,-64385.63041515713,-38376.64882858382,-36013.51064604648,-31618.978872177468,-22872.696563326903,0.0,0.0,0.0,193.0,1.0,155.0,0.0,10.0,3.0,251.0,411.0,10.0,1019.0,1744252613.3932009,0.0,2025-04-09 22:36:53.393,BACKWARD,5
30.0,18257.32955423946,3353.3428136518974,-65915.98730277864,-64325.34776036117,-38340.77427873305,-35983.760474176466,-31590.189825319034,-22834.67624600843,0.0,0.0,0.0,193.0,1.0,155.0,0.0,9.0,3.0,251.0,411.0,9.0,1019.0,1744252613.3932135,0.0,2025-04-09 22:36:53.393,BACKWARD,5
31.0,18178.092620145395,3339.417676856241,-65958.6120794549,-64383.81992385625,-38367.104633701405,-36007.47567504355,-31480.80038795476,-22863.04060972221,0.0,0.0,0.0,193.0,1.0,154.0,0.0,8.0,3.0,249.0,410.0,8.0,1017.0,1744252613.3932264,0.0,2025-04-09 22:36:53.393,BACKWARD,5
32.0,18211.664940317267,3312.8638044433364,-65972.20194008375,-64354.06975198624,-38429.51070422062,-36074.15092875373,-31341.459613020375,-22912.460316712895,0.0,0.0,0.0,193.0,1.0,155.0,0.0,8.0,3.0,250.0,411.0,8.0,1018.0,1744252613.393239,0.0,2025-04-09 22:36:53.393,BACKWARD,5
33.0,18322.417834093314,3338.7247727781264,-65978.34866980895,-64387.195037269004,-38414.64679415784,-36052.15681220971,-31486.433027557498,-22898.557531661696,0.0,0.0,0.0,193.0,1.0,155.0,0.0,7.0,3.0,252.0,411.0,7.0,1020.0,1744252613.393252,0.0,2025-04-09 22:36:53.393,BACKWARD,5
34.0,18273.24399629164,3361.90353177828,-65914.22151496667,-64315.66945501202,-38333.15233387379,-35979.424235752136,-31696.248852759465,-22823.790946458692,0.0,0.0,0.0,193.0,1.0,155.0,0.0,7.0,3.0,252.0,411.0,7.0,1020.0,1744252613.393264,0.0,2025-04-09 22:36:53.393,BACKWARD,5
35.0,18184.46286731516,3338.478903589118,-65966.05521035854,-64370.47593241643,-38367.082281956944,-36018.40567808219,-31449.373835250597,-22857.251507908288,0.0,0.0,0.0,193.0,1.0,154.0,0.0,6.0,3.0,251.0,410.0,6.0,1019.0,1744252613.393278,0.0,2025-04-09 22:36:53.393,BACKWARD,5
36.0,18165.329774061414,3286.399339008253,-65996.85591421794,-64369.246586471396,-38436.171524068304,-36085.818539359396,-31437.661521156017,-22912.482668457353,0.0,0.0,0.0,193.0,1.0,155.0,0.0,6.0,3.0,250.0,411.0,6.0,1018.0,1744252613.3932903,0.0,2025-04-09 22:36:53.393,BACKWARD,5
37.0,18314.371206089403,3330.5663860519394,-65998.48759156319,-64374.901577818586,-38440.97714912619,-36083.47160619159,-31383.011505962793,-22915.567209192184,0.0,0.0,0.0,193.0,1.0,154.0,0.0,6.0,3.0,250.0,410.0,6.0,1018.0,1744252613.3933032,0.0,2025-04-09 22:36:53.393,BACKWARD,5
38.0,18280.016574861595,3357.701403820682,-65918.9600847912,-64311.15440263205,-38332.05709839548,-35977.457282240066,-31783.53241485744,-22818.113603367045,0.0,0.0,0.0,193.0,1.0,155.0,0.0,6.0,3.0,252.0,411.0,6.0,1020.0,1744252613.3933156,0.0,2025-04-09 22:36:53.393,BACKWARD,5
39.0,18214.972998496654,3355.5779880974283,-65945.066922315,-64326.59945805067,-38344.90935145728,-35997.730314461034,-31425.904503572525,-22833.357493085565,0.0,0.0,0.0,193.0,1.0,155.0,0.0,5.0,3.0,252.0,411.0,5.0,1020.0,1744252613.3933284,0.0,2025-04-09 22:36:53.393,BACKWARD,5
40.0,18162.20052983767,3304.973638650613,-65977.94633840876,-64348.07948447222,-38399.87229107288,-36054.79431805543,-31473.13373960659,-22883.537159387728,0.0,0.0,0.0,193.0,1.0,155.0,0.0,5.0,3.0,250.0,411.0,5.0,1018.0,1744252613.393353,0.0,2025-04-09 22:36:53.393,BACKWARD,5
41.0,18306.123412385394,3327.5936040393835,-65994.8219054725,-64344.92788850402,-38441.40183227084,-36090.73592313957,-31259.38400738049,-22914.717842902883,0.0,0.0,0.0,193.0,1.0,154.0,0.0,5.0,3.0,249.0,410.0,5.0,1017.0,1744252613.3933654,0.0,2025-04-09 22:36:53.393,BACKWARD,5
42.0,18297.89797042584,3364.9210172797466,-65915.45086091172,-64304.89591418456,-38322.37879304634,-35968.427177480124,-31793.501292884506,-22813.46444052034,0.0,0.0,0.0,193.0,1.0,155.0,0.0,5.0,3.0,250.0,411.0,5.0,1018.0,1744252613.3933785,0.0,2025-04-09 22:36:53.393,BACKWARD,5
43.0,18231.334475437936,3365.2786451910315,-65942.7646926361,-64306.77346071881,-38343.881171212335,-35998.46792202806,-31414.460410411408,-22839.66068502196,0.0,0.0,0.0,193.0,1.0,155.0,0.0,4.0,3.0,252.0,411.0,4.0,1020.0,1744252613.3933914,0.0,2025-04-09 22:36:53.393,BACKWARD,5
44.0,18146.710770930145,3306.3370950623867,-65988.18343736928,-64357.8919002881,-38396.13954974885,-36046.18889644014,-31513.076306948224,-22884.81120882168,0.0,0.0,0.0,193.0,1.0,155.0,0.0,4.0,3.0,251.0,411.0,4.0,1019.0,1744252613.3934045,0.0,2025-04-09 22:36:53.393,BACKWARD,5
45.0,18292.265330823106,3331.907490719258,-65990.9774054262,-64323.67137952702,-38444.8216491725,-36094.75923714152,-31224.694099985853,-22930.967561121888,0.0,0.0,0.0,193.0,1.0,155.0,0.0,4.0,3.0,251.0,411.0,4.0,1019.0,1744252613.3934174,0.0,2025-04-09 22:36:53.393,BACKWARD,5
46.0,18320.070900925508,3370.710119093671,-65927.94548606224,-64316.8317457237,-38336.750964731094,-35981.07826484183,-31782.571289845862,-22840.130071655523,0.0,0.0,0.0,193.0,1.0,155.0,0.0,4.0,3.0,251.0,411.0,4.0,1019.0,1744252613.3934307,0.0,2025-04-09 22:36:53.393,BACKWARD,5
47.0,18244.05261803301,3367.156191725277,-65941.49064320215,-64298.23509433688,-38348.865610225876,-36000.59133775131,-31454.492384730864,-22843.52753681273,0.0,0.0,0.0,193.0,1.0,154.0,0.0,4.0,3.0,249.0,410.0,4.0,1017.0,1744252613.3934443,0.0,2025-04-09 22:36:53.393,BACKWARD,5
48.0,18150.890547143288,3319.278755102009,-65984.20482685624,-64361.55758637877,-38386.21537521069,-36036.532942835445,-31525.70504256547,-22881.234929708833,0.0,0.0,0.0,193.0,1.0,154.0,0.0,4.0,3.0,249.0,410.0,4.0,1017.0,1744252613.3934565,0.0,2025-04-09 22:36:53.393,BACKWARD,5
49.0,18249.19351925773,3310.7627404645373,-66005.79661200006,-64334.3331616322,-38462.30071333655,-36113.86997865081,-31236.652283269443,-22950.659447987015,0.0,0.0,0.0,193.0,1.0,155.0,0.0,4.0,3.0,252.0,411.0,4.0,1020.0,1744252613.3934684,0.0,2025-04-09 22:36:53.393,BACKWARD,5
50.0,18310.459650809724,3351.6664328177494,-65960.28846028906,-64351.36519090715,-38371.507927359096,-36016.93046294814,-31721.551027482874,-22877.56924361816,0.0,0.0,0.0,193.0,1.0,155.0,0.0,4.0,3.0,251.0,411.0,4.0,1019.0,1744252613.3934815,0.0,2025-04-09 22:36:53.393,BACKWARD,5
51.0,18249.37233321337,3358.5060666210734,-65929.57716340746,-64292.49069601187,-38337.01918566456,-35997.21622433856,-31541.3959671731,-22850.613039805063,0.0,0.0,0.0,193.0,1.0,155.0,0.0,4.0,3.0,251.0,411.0,4.0,1019.0,1744252613.393494,0.0,2025-04-09 22:36:53.393,BACKWARD,5
52.0,18159.384210036304,3324.710229004649,-65973.23012032868,-64360.30588868927,-38366.478784856656,-36023.524227562455,-31512.875141248125,-22875.13290347253,0.0,0.0,0.0,193.0,1.0,154.0,0.0,4.0,3.0,248.0,410.0,4.0,1016.0,1744252613.3935027,0.0,2025-04-09 22:36:53.393,BACKWARD,5
53.0,18233.256725461095,3315.7918829669816,-65979.73447796518,-64317.502298057356,-38429.398945498346,-36081.12467302378,-31298.61131889955,-22913.041462068733,0.0,0.0,0.0,193.0,1.0,154.0,0.0,4.0,3.0,249.0,410.0,4.0,1017.0,1744252613.3935115,0.0,2025-04-09 22:36:53.393,BACKWARD,5
54.0,18322.015502693117,3345.6985170481826,-65969.07269586,-64352.59453685219,-38386.23772695514,-36027.301672375404,-31585.406552005596,-22873.38946740502,0.0,0.0,0.0,193.0,1.0,155.0,0.0,4.0,3.0,252.0,411.0,4.0,1020.0,1744252613.3935204,0.0,2025-04-09 22:36:53.393,BACKWARD,5
55.0,18260.347039740926,3358.99780499909,-65922.42460518178,-64286.612187220126,-38331.96769141766,-35979.08895958531,-31626.82433448128,-22824.841478448092,0.0,0.0,0.0,193.0,1.0,155.0,0.0,3.0,3.0,252.0,411.0,3.0,1020.0,1744252613.393535,0.0,2025-04-09 22:36:53.393,BACKWARD,5
56.0,18172.527035776024,3338.3000896334756,-65974.81709418501,-64353.220385696935,-38368.713959302186,-36010.69432624511,-31481.292126332777,-22865.633412079027,0.0,0.0,0.0,193.0,1.0,155.0,0.0,3.0,3.0,251.0,411.0,3.0,1019.0,1744252613.3935437,0.0,2025-04-09 22:36:53.393,BACKWARD,5
57.0,18187.83798072791,3296.6140862243283,-66004.50021082166,-64344.10087395917,-38445.93923639527,-36085.23739400356,-31386.386619375542,-22933.381549523063,0.0,0.0,0.0,193.0,1.0,155.0,0.0,3.0,3.0,249.0,411.0,3.0,1017.0,1744252613.3935523,0.0,2025-04-09 22:36:53.393,BACKWARD,5
58.0,18319.44505208076,3340.155284423266,-66000.18632414179,-64365.73736259191,-38421.285262261066,-36060.27049544698,-31466.204698825444,-22920.238723783343,0.0,0.0,0.0,193.0,1.0,155.0,0.0,3.0,3.0,251.0,411.0,3.0,1019.0,1744252613.3935611,0.0,2025-04-09 22:36:53.393,BACKWARD,5
59.0,18267.767818900087,3362.6858428342157,-65922.40225343732,-64288.981472132386,-38323.541083758006,-35968.20366003557,-31715.42664950212,-22828.37305407203,0.0,0.0,0.0,193.0,1.0,154.0,0.0,3.0,3.0,249.0,410.0,3.0,1017.0,1744252613.39357,0.0,2025-04-09 22:36:53.393,BACKWARD,5
60.0,18187.92738770573,3349.7218310501376,-65961.98719286766,-64332.254449397864,-38348.79855499251,-35995.36102954877,-31436.208657766423,-22851.462406094364,0.0,0.0,0.0,193.0,1.0,154.0,0.0,3.0,3.0,249.0,410.0,3.0,1017.0,1744252613.8649547,0.0,2025-04-09 22:36:53.864,BACKWARD,5
61.0,18160.92648040372,3303.31960956092,-65987.64699550236,-64339.675228557026,-38412.29986099003,-36059.55523962441,-31449.32913176169,-22909.174610277965,0.0,0.0,0.0,193.0,1.0,155.0,0.0,3.0,3.0,250.0,411.0,3.0,1018.0,1744252613.8649957,0.0,2025-04-09 22:36:53.864,BACKWARD,5
62.0,18304.49173504016,3332.0416011859897,-65993.90548394984,-64350.02408623983,-38428.99661409815,-36071.826347330374,-31333.658854205474,-22921.512773217295,0.0,0.0,0.0,193.0,1.0,155.0,0.0,3.0,3.0,252.0,411.0,3.0,1020.0,1744252613.865016,0.0,2025-04-09 22:36:53.865,BACKWARD,5
63.0,18279.726002183677,3360.9871102556126,-65910.17584922026,-64295.284664068786,-38312.58872897491,-35962.16868903264,-31779.19617643311,-22825.735548226305,0.0,0.0,0.0,193.0,1.0,155.0,0.0,3.0,3.0,251.0,411.0,3.0,1019.0,1744252613.8650362,0.0,2025-04-09 22:36:53.865,BACKWARD,5
64.0,18211.441422872715,3358.5060666210734,-65942.22825076917,-64314.842440467175,-38336.03570890852,-35991.8965091582,-31412.135828988055,-22849.316638626653,0.0,0.0,0.0,193.0,1.0,154.0,0.0,3.0,3.0,249.0,410.0,3.0,1017.0,1744252613.865054,0.0,2025-04-09 22:36:53.865,BACKWARD,5
65.0,18142.86627088383,3297.9551908916465,-65986.39529781287,-64356.729609576425,-38400.00640153961,-36055.57662911137,-31493.250309616367,-22912.482668457353,0.0,0.0,0.0,193.0,1.0,155.0,0.0,3.0,3.0,249.0,411.0,3.0,1017.0,1744252613.8650715,0.0,2025-04-09 22:36:53.865,BACKWARD,5
66.0,18291.751240700632,3323.123255148322,-65992.0726409045,-64339.76463553484,-38435.970358368206,-36089.39481847225,-31257.08177770159,-22939.952962392923,0.0,0.0,0.0,193.0,1.0,155.0,0.0,3.0,3.0,251.0,411.0,3.0,1019.0,1744252613.865089,0.0,2025-04-09 22:36:53.865,BACKWARD,5
67.0,18292.75706920112,3360.875351533336,-65914.78030857806,-64307.33225433019,-38316.25441506558,-35964.13564254471,-31802.598452877817,-22825.735548226305,0.0,0.0,0.0,193.0,1.0,156.0,0.0,3.0,3.0,252.0,412.0,3.0,1020.0,1744252613.8651068,0.0,2025-04-09 22:36:53.865,BACKWARD,5
68.0,18216.627027586346,3350.258272917065,-65946.72095140468,-64315.28947535628,-38341.10955489988,-36004.9499279201,-31429.301968729735,-22857.631487564027,0.0,0.0,0.0,193.0,1.0,155.0,0.0,3.0,3.0,250.0,411.0,3.0,1018.0,1744252613.8651245,0.0,2025-04-09 22:36:53.865,BACKWARD,5
69.0,18135.40078823576,3301.7549874490487,-65984.42834430079,-64366.787894581306,-38383.33200017596,-36048.11114646329,-31533.438746147007,-22900.569188662674,0.0,0.0,0.0,193.0,1.0,154.0,0.0,3.0,3.0,249.0,410.0,3.0,1017.0,1744252613.8651333,0.0,2025-04-09 22:36:53.865,BACKWARD,5
70.0,18266.314955510494,3311.6344584982944,-65999.4263648303,-64342.111568702654,-38447.280341062586,-36109.936071626675,-31235.489992557767,-22953.609878255116,0.0,0.0,0.0,193.0,1.0,155.0,0.0,3.0,3.0,250.0,411.0,3.0,1018.0,1744252613.8651745,0.0,2025-04-09 22:36:53.865,BACKWARD,5
71.0,18306.034005407575,3359.1989706991876,-65932.12526227537,-64334.15434767656,-38330.98421466163,-35988.90137540118,-31776.91629849867,-22852.691752039405,0.0,0.0,0.0,193.0,1.0,155.0,0.0,3.0,3.0,252.0,411.0,3.0,1020.0,1744252613.8651836,0.0,2025-04-09 22:36:53.865,BACKWARD,5
72.0,18232.675580105257,3362.4399736452074,-65935.79094836605,-64304.00184440635,-38330.42542105024,-36000.36782030676,-31470.2280128274,-22851.372999116542,0.0,0.0,0.0,193.0,1.0,155.0,0.0,3.0,3.0,251.0,411.0,3.0,1019.0,1744252613.865193,0.0,2025-04-09 22:36:53.865,BACKWARD,5
73.0,18134.707884157644,3310.874499186814,-65990.39626007035,-64380.37775521014,-38379.889831529836,-36046.725338307064,-31522.91107450856,-22904.927778831458,0.0,0.0,0.0,193.0,1.0,155.0,0.0,3.0,3.0,251.0,411.0,3.0,1019.0,1744252613.8652017,0.0,2025-04-09 22:36:53.865,BACKWARD,5
74.0,18225.254800946095,3297.418749024719,-66005.97542595571,-64349.01825773934,-38454.18703009928,-36122.56480724392,-31271.76687380873,-22970.12781740759,0.0,0.0,0.0,193.0,1.0,155.0,0.0,3.0,3.0,250.0,411.0,3.0,1018.0,1744252613.8652103,0.0,2025-04-09 22:36:53.865,BACKWARD,5
75.0,18294.47815352418,3337.6518890442717,-65974.16889359581,-64373.06873477325,-38381.297991430525,-36038.142268436226,-31698.484027204995,-22902.73730787484,0.0,0.0,0.0,193.0,1.0,154.0,0.0,3.0,3.0,250.0,410.0,3.0,1018.0,1744252613.8652196,0.0,2025-04-09 22:36:53.865,BACKWARD,5
76.0,18246.354847711904,3360.5624271109614,-65930.53828841905,-64299.5761990042,-38335.05223215249,-36001.306593573885,-31576.018819334367,-22854.412836362462,0.0,0.0,0.0,193.0,1.0,155.0,0.0,3.0,3.0,252.0,411.0,3.0,1020.0,1744252613.8652287,0.0,2025-04-09 22:36:53.865,BACKWARD,5
77.0,18152.254003555063,3324.486711560096,-65982.17081811081,-64373.426362684535,-38371.37381689237,-36039.14809693672,-31500.738144008894,-22892.701374614404,0.0,0.0,0.0,193.0,1.0,155.0,0.0,3.0,3.0,251.0,411.0,3.0,1019.0,1744252613.8652377,0.0,2025-04-09 22:36:53.865,BACKWARD,5
78.0,18206.7475565371,3307.186461351688,-65993.43609731628,-64340.54694659078,-38438.29493979156,-36105.532777968976,-31322.706499422373,-22951.128834620577,0.0,0.0,0.0,193.0,1.0,155.0,0.0,3.0,3.0,251.0,411.0,3.0,1019.0,1744252613.8652465,0.0,2025-04-09 22:36:53.865,BACKWARD,5
79.0,18315.689959012267,3343.910377491758,-65978.10280061993,-64368.8442550712,-38401.66043062931,-36060.00227451352,-31564.842947106714,-22925.53608721925,0.0,0.0,0.0,193.0,1.0,155.0,0.0,3.0,3.0,249.0,411.0,3.0,1017.0,1744252613.8652556,0.0,2025-04-09 22:36:53.865,BACKWARD,5
80.0,18256.32372573897,3359.646005588294,-65926.22440173918,-64302.03489089428,-38341.89186595582,-36007.67684074365,-31669.091483246266,-22874.70822032788,0.0,0.0,0.0,193.0,1.0,155.0,0.0,3.0,3.0,250.0,411.0,3.0,1018.0,1744252613.8652644,0.0,2025-04-09 22:36:53.865,BACKWARD,5
81.0,18165.955622906164,3336.3331361214086,-65977.09697211946,-64366.3408596922,-38373.89956401582,-36043.9090185057,-31471.45735877244,-22912.169744034978,0.0,0.0,0.0,193.0,1.0,155.0,0.0,3.0,3.0,252.0,411.0,3.0,1020.0,1744252613.8652735,0.0,2025-04-09 22:36:53.865,BACKWARD,5
82.0,18175.34335557739,3305.1748043507105,-65992.45262056025,-64348.4371123835,-38435.47861999019,-36100.011897088516,-31409.78889582025,-22957.34261957915,0.0,0.0,0.0,193.0,1.0,155.0,0.0,3.0,3.0,252.0,411.0,3.0,1020.0,1744252613.8652823,0.0,2025-04-09 22:36:53.865,BACKWARD,5
83.0,18309.5208775426,3338.769476267037,-65994.68779500578,-64369.13482774912,-38436.596207212955,-36089.70774289462,-31435.89573334405,-22956.560308523218,0.0,0.0,0.0,193.0,1.0,155.0,0.0,3.0,3.0,252.0,411.0,3.0,1020.0,1744252613.865291,0.0,2025-04-09 22:36:53.865,BACKWARD,5
84.0,18269.064220078497,3369.9501597821904,-65916.18846847874,-64300.98435890488,-38335.34280483041,-35993.46113127007,-31763.259382636475,-22864.649935322996,0.0,0.0,0.0,193.0,1.0,155.0,0.0,3.0,3.0,248.0,411.0,3.0,1016.0,1744252613.865306,0.0,2025-04-09 22:36:53.865,BACKWARD,5
85.0,18198.65622504428,3373.258217961576,-65948.97847759468,-64331.85211799767,-38355.079395184446,-36015.05291641389,-31443.450622969944,-22880.631432608538,0.0,0.0,0.0,193.0,1.0,154.0,0.0,3.0,3.0,249.0,410.0,3.0,1017.0,1744252613.8653145,0.0,2025-04-09 22:36:53.865,BACKWARD,5
86.0,18149.370628520326,3301.486766515585,-65990.19509437027,-64356.61785085414,-38427.23082628618,-36080.99056255705,-31467.970486637416,-22941.53993624925,0.0,0.0,0.0,193.0,1.0,154.0,0.0,2.0,3.0,250.0,410.0,2.0,1018.0,1744252613.8653235,0.0,2025-04-09 22:36:53.865,BACKWARD,5
87.0,18290.72306045569,3320.284583602498,-66008.05413819005,-64368.17370273754,-38465.407605815846,-36109.48903673757,-31326.886275635516,-22976.185140154976,0.0,0.0,0.0,193.0,1.0,154.0,0.0,2.0,3.0,249.0,410.0,2.0,1017.0,1744252613.8653328,0.0,2025-04-09 22:36:53.865,BACKWARD,5
88.0,18257.307202495005,3345.1173716923445,-65939.97072457918,-64331.203917408464,-38362.38841562133,-36003.31825057486,-31826.715985145092,-22887.448714667407,0.0,0.0,0.0,193.0,1.0,155.0,0.0,2.0,3.0,249.0,411.0,2.0,1017.0,1744252613.865342,0.0,2025-04-09 22:36:53.865,BACKWARD,5
89.0,18197.046899443496,3351.6440810732943,-65959.59555621094,-64335.338990132695,-38368.19986917971,-36021.221997883564,-31446.98219859388,-22896.188246749432,0.0,0.0,0.0,193.0,1.0,155.0,0.0,2.0,3.0,251.0,411.0,2.0,1019.0,1744252613.8653505,0.0,2025-04-09 22:36:53.865,BACKWARD,5
90.0,18128.896430599267,3300.0786066149008,-65994.50898105014,-64371.682926617024,-38411.897529589834,-36072.116920008295,-31516.496123849887,-22940.98114263787,0.0,0.0,0.0,193.0,1.0,155.0,0.0,3.0,3.0,252.0,411.0,3.0,1020.0,1744252613.8653593,0.0,2025-04-09 22:36:53.865,BACKWARD,5
91.0,18268.03603983355,3316.283621344998,-66009.79757425757,-64356.68490608751,-38465.407605815846,-36121.91660665472,-31246.643513040963,-22984.857617003636,0.0,0.0,0.0,193.0,1.0,155.0,0.0,2.0,3.0,251.0,411.0,2.0,1019.0,1744252613.865368,0.0,2025-04-09 22:36:53.865,BACKWARD,5
92.0,18279.033098105563,3351.487618862107,-65938.33904723395,-64335.7860250218,-38351.32430211596,-35999.16082610617,-31812.09794427132,-22880.72083958636,0.0,0.0,0.0,193.0,1.0,154.0,0.0,2.0,3.0,249.0,410.0,2.0,1017.0,1744252613.8653767,0.0,2025-04-09 22:36:53.865,BACKWARD,5
93.0,18217.923428764752,3360.5624271109614,-65944.6645909148,-64315.55769628975,-38355.906409729294,-36012.43776231263,-31455.252344042343,-22884.43122916594,0.0,0.0,0.0,193.0,1.0,154.0,0.0,2.0,3.0,249.0,410.0,2.0,1017.0,1744252613.8653855,0.0,2025-04-09 22:36:53.865,BACKWARD,5
94.0,18133.38913123478,3313.5790602659063,-65985.23300710118,-64370.02889752733,-38398.352372449925,-36048.42407088567,-31538.579647371727,-22922.49624997333,0.0,0.0,0.0,193.0,1.0,154.0,0.0,2.0,3.0,250.0,410.0,2.0,1018.0,1744252613.8653944,0.0,2025-04-09 22:36:53.865,BACKWARD,5
95.0,18258.38008622886,3321.1115981473445,-65995.51480955063,-64334.44492035448,-38457.696253978764,-36105.6221849468,-31238.1722018924,-22963.48934930436,0.0,0.0,0.0,193.0,1.0,155.0,0.0,2.0,3.0,249.0,411.0,2.0,1017.0,1744252613.8654032,0.0,2025-04-09 22:36:53.865,BACKWARD,5
96.0,18297.585046003467,3353.745145052093,-65952.08537007397,-64349.532347861816,-38369.049235469014,-36008.39209656621,-31754.609257532273,-22890.935586802436,0.0,0.0,0.0,193.0,1.0,154.0,0.0,2.0,3.0,250.0,410.0,2.0,1018.0,1744252613.865412,0.0,2025-04-09 22:36:53.865,BACKWARD,5
97.0,18225.768891068565,3352.2699299180426,-65948.30792526102,-64314.1271846446,-38365.070624955966,-36013.667108257665,-31509.164751668544,-22885.660575110982,0.0,0.0,0.0,193.0,1.0,154.0,0.0,2.0,3.0,249.0,410.0,2.0,1017.0,1744252613.8654208,0.0,2025-04-09 22:36:53.865,BACKWARD,5
98.0,18130.01401782203,3307.588792751884,-65994.1290013944,-64384.468124445455,-38399.76053235061,-36048.71464356359,-31529.66130133406,-22923.92676161847,0.0,0.0,0.0,193.0,1.0,155.0,0.0,2.0,3.0,251.0,411.0,2.0,1019.0,1744252613.8654296,0.0,2025-04-09 22:36:53.865,BACKWARD,5
99.0,18218.526925865048,3302.7608159495376,-66003.06969917651,-64343.83265302571,-38465.07232964901,-36114.58523447338,-31282.13808323599,-22978.420314600506,0.0,0.0,0.0,193.0,1.0,155.0,0.0,2.0,3.0,251.0,411.0,2.0,1019.0,1744252613.8654425,0.0,2025-04-09 22:36:53.865,BACKWARD,5
100.0,18309.073842653495,3358.1707904542436,-65966.323431292,-64360.32824043373,-38390.95394503522,-36032.64373930022,-31660.55311686434,-22918.24941852682,0.0,0.0,0.0,193.0,1.0,155.0,0.0,2.0,3.0,252.0,411.0,2.0,1020.0,1744252613.8654516,0.0,2025-04-09 22:36:53.865,BACKWARD,5
101.0,18245.03609478904,3364.898665535291,-65931.25354424161,-64298.123335614604,-38349.98319744864,-35997.97618365004,-31597.409438778097,-22878.016278507268,0.0,0.0,0.0,193.0,1.0,155.0,0.0,2.0,3.0,251.0,411.0,2.0,1019.0,1744252613.8654604,0.0,2025-04-09 22:36:53.865,BACKWARD,5
102.0,18155.383247778806,3328.733543006604,-65984.31658557852,-64370.72180160545,-38387.377665922366,-36029.13451542074,-31504.51558882184,-22911.007453323302,0.0,0.0,0.0,193.0,1.0,154.0,0.0,2.0,3.0,249.0,410.0,2.0,1017.0,1744252613.865469,0.0,2025-04-09 22:36:53.865,BACKWARD,5
103.0,18187.815628983455,3293.328379789398,-66008.54587656807,-64352.50512987437,-38463.03832090358,-36105.37631575779,-31356.278819594245,-22977.615651800115,0.0,0.0,0.0,193.0,1.0,154.0,0.0,2.0,3.0,251.0,410.0,2.0,1019.0,1744252613.8654778,0.0,2025-04-09 22:36:53.865,BACKWARD,5
104.0,18304.91641818481,3331.616918041339,-65998.19701888526,-64379.48368543192,-38429.91303562082,-36064.47262340458,-31536.61269385966,-22949.385398553062,0.0,0.0,0.0,193.0,1.0,154.0,0.0,2.0,3.0,249.0,410.0,2.0,1017.0,1744252613.8654869,0.0,2025-04-09 22:36:53.865,BACKWARD,5
105.0,18264.75033339862,3369.1454969817996,-65920.27883771407,-64294.77057394631,-38337.84620020941,-35981.301782286384,-31700.60744292825,-22869.030877236233,0.0,0.0,0.0,193.0,1.0,154.0,0.0,2.0,3.0,251.0,410.0,2.0,1019.0,1744252613.8654957,0.0,2025-04-09 22:36:53.865,BACKWARD,5
106.0,18172.817608453945,3341.161112923755,-65979.46625703172,-64364.41860966905,-38380.44862514122,-36027.5028380755,-31465.243573813867,-22910.426307967464,0.0,0.0,0.0,193.0,1.0,155.0,0.0,2.0,3.0,252.0,411.0,2.0,1020.0,1744252613.8655045,0.0,2025-04-09 22:36:53.865,BACKWARD,5
107.0,18157.97605013562,3289.0144931095238,-66010.5351818246,-64368.196054481996,-38447.928541651796,-36099.788379643964,-31423.289349471255,-22968.004401684335,0.0,0.0,0.0,193.0,1.0,155.0,0.0,2.0,3.0,251.0,411.0,2.0,1019.0,1744252613.8655128,0.0,2025-04-09 22:36:53.865,BACKWARD,5
108.0,18311.756051988134,3337.4730750886292,-65998.576998541,-64369.15717949357,-38433.08698333347,-36078.48716717806,-31399.842369537637,-22959.533090535773,0.0,0.0,0.0,193.0,1.0,155.0,0.0,2.0,3.0,251.0,411.0,2.0,1019.0,1744252613.8655217,0.0,2025-04-09 22:36:53.865,BACKWARD,5
109.0,18274.763914914598,3369.994863271101,-65919.94356154723,-64303.86773393962,-38330.760697217076,-35972.15991880416,-31762.924106469647,-22862.414760877462,0.0,0.0,0.0,193.0,1.0,156.0,0.0,2.0,3.0,252.0,412.0,2.0,1020.0,1744252613.8655303,0.0,2025-04-09 22:36:53.865,BACKWARD,5
110.0,18180.953643435674,3340.714078034649,-65983.91425417832,-64363.3904294241,-38382.773206564576,-36029.693309032125,-31426.84327683965,-22909.66634865598,0.0,0.0,0.0,193.0,1.0,155.0,0.0,2.0,3.0,252.0,411.0,2.0,1020.0,1744252613.8655388,0.0,2025-04-09 22:36:53.865,BACKWARD,5
111.0,18128.404692221247,3282.711301173127,-66017.84420226148,-64387.64207215811,-38441.357128781936,-36086.310277737415,-31489.495216547875,-22966.573890039195,0.0,0.0,0.0,193.0,1.0,155.0,0.0,2.0,3.0,251.0,411.0,2.0,1019.0,1744252613.8655477,0.0,2025-04-09 22:36:53.865,BACKWARD,5
112.0,18293.673490723788,3327.9288802062133,-66007.49534457867,-64365.78206608082,-38456.153983611344,-36093.999277830044,-31308.155513781967,-22981.9742419689,0.0,0.0,0.0,193.0,1.0,155.0,0.0,2.0,3.0,250.0,411.0,2.0,1018.0,1744252613.865556,0.0,2025-04-09 22:36:53.865,BACKWARD,5
113.0,18286.610339475912,3369.1678487262548,-65922.13403250385,-64317.4799463129,-38333.465258296164,-35970.59529669229,-31815.182485006153,-22873.52357787175,0.0,0.0,0.0,193.0,1.0,155.0,0.0,2.0,3.0,249.0,411.0,2.0,1017.0,1744252613.8655648,0.0,2025-04-09 22:36:53.865,BACKWARD,5
114.0,18216.09058571942,3363.803430056981,-65952.64416368534,-64327.359417362146,-38354.00651145059,-36004.32407907535,-31429.257265240823,-22894.24364498182,0.0,0.0,0.0,193.0,1.0,155.0,0.0,2.0,3.0,251.0,411.0,2.0,1019.0,1744252613.8655777,0.0,2025-04-09 22:36:53.865,BACKWARD,5
115.0,18129.209355021638,3295.4070920237414,-66006.28835037808,-64386.7480023799,-38418.066611059505,-36065.79137632744,-31521.771135541338,-22953.45341604393,0.0,0.0,0.0,193.0,1.0,154.0,0.0,2.0,3.0,250.0,410.0,2.0,1018.0,1744252613.865586,0.0,2025-04-09 22:36:53.865,BACKWARD,5
116.0,18269.198330545227,3318.7646649795374,-66020.30289415157,-64366.07263875874,-38474.9294489538,-36115.47930425159,-31255.114824189524,-22993.440686874474,0.0,0.0,0.0,193.0,1.0,155.0,0.0,2.0,3.0,250.0,411.0,2.0,1018.0,1744252613.8655949,0.0,2025-04-09 22:36:53.865,BACKWARD,5
117.0,18286.923263898287,3360.160095710766,-65947.12328280488,-64347.94537400549,-38356.331092873945,-35991.36006729127,-31812.768496604982,-22885.25824371079,0.0,0.0,0.0,193.0,1.0,155.0,0.0,2.0,3.0,249.0,411.0,2.0,1017.0,1744252613.8656034,0.0,2025-04-09 22:36:53.865,BACKWARD,5
118.0,18217.65520783129,3349.4312583722185,-65956.17573930928,-64329.818109252235,-38363.61776156638,-36008.928538433145,-31464.26009705783,-22895.227121737855,0.0,0.0,0.0,193.0,1.0,155.0,0.0,2.0,3.0,252.0,411.0,2.0,1020.0,1744252613.865612,0.0,2025-04-09 22:36:53.865,BACKWARD,5
119.0,18130.058721310943,3300.682103715194,-65995.47010606171,-64387.57501692475,-38403.76149460811,-36048.17820169666,-31538.95962702747,-22939.617686226095,0.0,0.0,0.0,193.0,1.0,155.0,0.0,2.0,3.0,251.0,411.0,2.0,1019.0,1744252613.8656204,0.0,2025-04-09 22:36:53.865,BACKWARD,5
120.0,18237.011818529587,3296.5023275020517,-66015.51962083812,-64359.92590903353,-38477.79047224408,-36121.84955142135,-31245.436518840375,-23005.376518413606,0.0,0.0,0.0,193.0,1.0,156.0,0.0,2.0,3.0,252.0,412.0,2.0,1020.0,1744252613.8656292,0.0,2025-04-09 22:36:53.865,BACKWARD,5
121.0,18294.567560502,3344.4021158697747,-65959.43909399975,-64361.80345556777,-38377.095863472925,-36008.59326226631,-31748.887210951714,-22918.048252826724,0.0,0.0,0.0,193.0,1.0,156.0,0.0,2.0,3.0,252.0,412.0,2.0,1020.0,1744252613.8656378,0.0,2025-04-09 22:36:53.865,BACKWARD,5
122.0,18227.154699224797,3352.2922816624978,-65942.69763740273,-64311.713196243436,-38357.98512196364,-36002.491236030015,-31529.258969933868,-22898.40106945051,0.0,0.0,0.0,193.0,1.0,155.0,0.0,2.0,3.0,249.0,411.0,2.0,1017.0,1744252613.8656464,0.0,2025-04-09 22:36:53.865,BACKWARD,5
123.0,18138.17240454822,3320.329287091409,-65984.62951000089,-64377.02499354184,-38388.87523280087,-36032.42022185567,-31527.850810033182,-22931.414596010996,0.0,0.0,0.0,193.0,1.0,154.0,0.0,2.0,3.0,249.0,410.0,2.0,1017.0,1744252613.8656552,0.0,2025-04-09 22:36:53.865,BACKWARD,5
124.0,18224.539545123524,3320.8210254694254,-65978.08044887548,-64321.86088822614,-38442.09473634896,-36077.43663518866,-31288.463626916844,-22953.051084643732,0.0,0.0,0.0,193.0,1.0,155.0,0.0,2.0,3.0,250.0,411.0,2.0,1018.0,1744252613.8656638,0.0,2025-04-09 22:36:53.865,BACKWARD,5
125.0,18307.889200197365,3349.833589772414,-65961.65191670084,-64356.46138864296,-38391.06570375749,-36016.28226235894,-31607.06539238279,-22909.44283121143,0.0,0.0,0.0,193.0,1.0,155.0,0.0,2.0,3.0,251.0,411.0,2.0,1019.0,1744252613.8656726,0.0,2025-04-09 22:36:53.865,BACKWARD,5
126.0,18244.209080244193,3358.260197432065,-65920.54705864753,-64294.3235390572,-38343.25532236759,-35979.11131132976,-31600.650441724116,-22874.015316249766,0.0,0.0,0.0,193.0,1.0,155.0,0.0,2.0,3.0,252.0,411.0,2.0,1020.0,1744252613.8656812,0.0,2025-04-09 22:36:53.865,BACKWARD,5
127.0,18157.529015246513,3335.573176809928,-65967.23985281466,-64359.18830146651,-38373.944267504725,-36009.822608211354,-31472.239669828377,-22912.01328182379,0.0,0.0,0.0,193.0,1.0,155.0,0.0,2.0,3.0,251.0,411.0,2.0,1019.0,1744252613.86569,0.0,2025-04-09 22:36:53.865,BACKWARD,5
128.0,18179.70194574618,3297.3740455358084,-65988.94339668077,-64342.26803091384,-38445.536904995075,-36084.835062603364,-31355.094177138115,-22981.21428265742,0.0,0.0,0.0,193.0,1.0,155.0,0.0,2.0,3.0,249.0,411.0,2.0,1017.0,1744252613.8656983,0.0,2025-04-09 22:36:53.865,BACKWARD,5
129.0,18292.91353141231,3328.398266839775,-65993.39139382738,-64376.421496441544,-38433.69048043376,-36061.47748964757,-31481.582699010694,-22962.796445226246,0.0,0.0,0.0,193.0,1.0,155.0,0.0,2.0,3.0,250.0,411.0,2.0,1018.0,1744252613.865711,0.0,2025-04-09 22:36:53.865,BACKWARD,5
130.0,18233.010856272085,3343.1727699247326,-65934.7627681211,-64315.06595791173,-38358.74508127512,-35988.3425817898,-31705.591881941782,-22886.822865822658,0.0,0.0,0.0,193.0,1.0,156.0,0.0,2.0,3.0,252.0,412.0,2.0,1020.0,1744252613.86572,0.0,2025-04-09 22:36:53.865,BACKWARD,5
131.0,18158.713657702643,3332.1533599082663,-65972.78308543957,-64363.23396721292,-38380.49332863013,-36018.80800948239,-31455.0735300867,-22919.52346796077,0.0,0.0,0.0,193.0,1.0,155.0,0.0,2.0,3.0,252.0,411.0,2.0,1020.0,1744252613.8657286,0.0,2025-04-09 22:36:53.865,BACKWARD,5
132.0,18147.962468619644,3294.93770539018,-65987.06585014652,-64354.94147002,-38433.444611244755,-36070.28407696296,-31445.3728729931,-22964.472826060395,0.0,0.0,0.0,193.0,1.0,155.0,0.0,2.0,3.0,250.0,411.0,2.0,1018.0,1744252613.8657372,0.0,2025-04-09 22:36:53.865,BACKWARD,5
133.0,18300.602531504934,3341.362278623853,-65984.92008267881,-64360.48470264491,-38438.71962293621,-36070.775815340974,-31366.58297378814,-22971.468922074906,0.0,0.0,0.0,193.0,1.0,155.0,0.0,2.0,3.0,249.0,411.0,2.0,1017.0,1744252613.865746,0.0,2025-04-09 22:36:53.865,BACKWARD,5
134.0,18267.834874133456,3367.7596888255703,-65906.66662534077,-64305.76763221832,-38331.4983047841,-35965.49909895648,-31773.76470253047,-22869.790836547716,0.0,0.0,0.0,193.0,1.0,156.0,0.0,2.0,3.0,249.0,412.0,2.0,1017.0,1744252613.8657548,0.0,2025-04-09 22:36:53.865,BACKWARD,5
135.0,18181.55714053597,3339.440028600696,-65960.53432947808,-64350.225251939926,-38374.52541286057,-36011.990727423516,-31420.003643036325,-22905.307758487197,0.0,0.0,0.0,193.0,1.0,156.0,0.0,2.0,3.0,253.0,412.0,2.0,1021.0,1744252613.8657637,0.0,2025-04-09 22:36:53.865,BACKWARD,5
136.0,18131.44452946717,3292.680179200194,-65986.66351874633,-64371.481760916926,-38418.64775641534,-36059.5105361355,-31497.13951315159,-22949.78772995326,0.0,0.0,0.0,193.0,1.0,155.0,0.0,2.0,3.0,250.0,411.0,2.0,1018.0,1744252613.8657725,0.0,2025-04-09 22:36:53.865,BACKWARD,5
137.0,18289.896045910842,3331.5945662968834,-65987.35642282444,-64351.342839162695,-38448.01794862961,-36083.33749572486,-31259.965152736328,-22973.569986053706,0.0,0.0,0.0,193.0,1.0,155.0,0.0,2.0,3.0,250.0,411.0,2.0,1018.0,1744252613.8657813,0.0,2025-04-09 22:36:53.865,BACKWARD,5
138.0,18278.228435305173,3356.717927064649,-65920.63646562534,-64328.29819062927,-38344.05998516798,-35974.372741505234,-31798.28456619794,-22881.27963319774,0.0,0.0,0.0,193.0,1.0,155.0,0.0,2.0,3.0,248.0,411.0,2.0,1016.0,1744252613.8657897,0.0,2025-04-09 22:36:53.865,BACKWARD,5
139.0,18212.22373392865,3360.0930404774003,-65939.83661411246,-64324.74426326088,-38360.33205513145,-35997.30563131638,-31427.849105340138,-22895.71886011587,0.0,0.0,0.0,193.0,1.0,156.0,0.0,2.0,3.0,252.0,412.0,2.0,1020.0,1744252613.8657985,0.0,2025-04-09 22:36:53.865,BACKWARD,5
140.0,18130.34929398886,3305.241859584077,-65980.76265821012,-64376.75677260838,-38411.338735978454,-36048.759347052495,-31523.872199520138,-22950.458282286916,0.0,0.0,0.0,193.0,1.0,155.0,0.0,2.0,3.0,252.0,411.0,2.0,1020.0,1744252613.8658068,0.0,2025-04-09 22:36:53.865,BACKWARD,5
141.0,18249.059408790996,3301.4644147711297,-66012.8821149924,-64368.799551582284,-38488.09462643798,-36122.29658631046,-31229.298559343646,-23014.898361551568,0.0,0.0,0.0,193.0,1.0,155.0,0.0,2.0,3.0,251.0,411.0,2.0,1019.0,1744252613.8658156,0.0,2025-04-09 22:36:53.865,BACKWARD,5
142.0,18274.026307347573,3338.188330911199,-65950.34193400644,-64361.199958467485,-38377.54289836203,-35999.630212739736,-31793.255423695497,-22907.0064910658,0.0,0.0,0.0,193.0,1.0,155.0,0.0,2.0,3.0,249.0,411.0,2.0,1017.0,1744252613.8658245,0.0,2025-04-09 22:36:53.865,BACKWARD,5
143.0,18214.61537058537,3352.3146334069534,-65939.25546875662,-64315.7812137343,-38363.34954063291,-35995.33867780431,-31471.993800639368,-22887.381659434042,0.0,0.0,0.0,193.0,1.0,155.0,0.0,2.0,3.0,252.0,411.0,2.0,1020.0,1744252613.865833,0.0,2025-04-09 22:36:53.865,BACKWARD,5
144.0,18115.664197881724,3300.8609176708364,-65993.83842871648,-64392.715918149464,-38410.288203989054,-36046.814745284886,-31524.94508325399,-22945.987933395856,0.0,0.0,0.0,193.0,1.0,155.0,0.0,2.0,3.0,252.0,411.0,2.0,1020.0,1744252613.8658462,0.0,2025-04-09 22:36:53.865,BACKWARD,5
145.0,18226.528850380048,3307.9464206631687,-65997.01237642913,-64349.57705135072,-38466.10050989396,-36106.24803379155,-31256.03124571219,-22999.609768344137,0.0,0.0,0.0,193.0,1.0,155.0,0.0,2.0,3.0,249.0,411.0,2.0,1017.0,1744252613.8658552,0.0,2025-04-09 22:36:53.865,BACKWARD,5
146.0,18293.76289770161,3350.548845594984,-65953.38177125237,-64363.83746431321,-38379.9121832743,-36007.78859946592,-31704.56370169684,-22919.29995051622,0.0,0.0,0.0,193.0,1.0,155.0,0.0,2.0,3.0,250.0,411.0,2.0,1018.0,1744252613.8658648,0.0,2025-04-09 22:36:53.865,BACKWARD,5
147.0,18226.484146891136,3353.387517140808,-65933.33225647596,-64313.38957707758,-38358.700377786205,-35997.84207318331,-31546.11218525317,-22903.229046252854,0.0,0.0,0.0,193.0,1.0,155.0,0.0,2.0,3.0,252.0,411.0,2.0,1020.0,1744252613.865873,0.0,2025-04-09 22:36:53.865,BACKWARD,5
148.0,18132.696227156666,3316.1718626227216,-65982.28257683308,-64385.02691805684,-38391.80331132452,-36031.95083522211,-31514.775039526827,-22939.416520525996,0.0,0.0,0.0,193.0,1.0,155.0,0.0,2.0,3.0,252.0,411.0,2.0,1020.0,1744252613.865882,0.0,2025-04-09 22:36:53.865,BACKWARD,5
149.0,18190.60959704037,3300.324475803909,-65995.0230711726,-64352.92981301902,-38459.46204179073,-36101.129484311285,-31314.928092351925,-22995.564102597727,0.0,0.0,0.0,193.0,1.0,155.0,0.0,2.0,3.0,248.0,411.0,2.0,1016.0,1744252613.8658907,0.0,2025-04-09 22:36:53.865,BACKWARD,5
150.0,18297.89797042584,3348.6265955718277,-65970.83848367196,-64377.65084238659,-38406.48840743165,-36034.05189920091,-31588.69225844053,-22942.612819983104,0.0,0.0,0.0,193.0,1.0,155.0,0.0,2.0,3.0,249.0,411.0,2.0,1017.0,1744252613.8658993,0.0,2025-04-09 22:36:53.865,BACKWARD,5
151.0,18235.447196417714,3354.058069474467,-65920.03296852505,-64310.90853344304,-38343.948226445704,-35981.01120960846,-31636.97202646399,-22879.066810496668,0.0,0.0,0.0,193.0,1.0,156.0,0.0,2.0,3.0,252.0,412.0,2.0,1020.0,1744252613.865908,0.0,2025-04-09 22:36:53.865,BACKWARD,5
152.0,18134.551421946457,3312.4391212986857,-65985.74709722366,-64391.84420011571,-38391.06570375749,-36032.59903581131,-31463.187213323978,-22928.464165742895,0.0,0.0,0.0,193.0,1.0,155.0,0.0,2.0,3.0,252.0,411.0,2.0,1020.0,1744252613.8659167,0.0,2025-04-09 22:36:53.865,BACKWARD,5
153.0,18153.25983205555,3281.392548250264,-65999.24755087466,-64370.5429876498,-38455.19285859977,-36093.57459468539,-31388.82295952117,-22988.769172283315,0.0,0.0,0.0,193.0,1.0,155.0,0.0,2.0,3.0,251.0,411.0,2.0,1019.0,1744252613.8659253,0.0,2025-04-09 22:36:53.865,BACKWARD,5
154.0,18290.499543011134,3322.9444411926797,-65992.40791707134,-64383.439944200516,-38444.70989045023,-36066.01489377199,-31461.443777256463,-22979.381439612083,0.0,0.0,0.0,193.0,1.0,155.0,0.0,2.0,3.0,248.0,411.0,2.0,1016.0,1744252613.865934,0.0,2025-04-09 22:36:53.865,BACKWARD,5
155.0,18249.32762972446,3351.71113630666,-65917.08253825695,-64307.89104794158,-38348.61974103686,-35971.6905321706,-31739.879457936226,-22883.090124498623,0.0,0.0,0.0,193.0,1.0,155.0,0.0,2.0,3.0,250.0,411.0,2.0,1018.0,1744252613.8659427,0.0,2025-04-09 22:36:53.865,BACKWARD,5
156.0,18173.041125898497,3343.910377491758,-65959.72966667768,-64353.62271709713,-38374.6595233273,-36007.40861981018,-31434.93460833247,-22911.09686030112,0.0,0.0,0.0,193.0,1.0,155.0,0.0,2.0,3.0,252.0,411.0,2.0,1020.0,1744252613.8659513,0.0,2025-04-09 22:36:53.865,BACKWARD,5
157.0,18139.02177083752,3292.903696644747,-65989.50219029214,-64366.47497015894,-38438.831381658485,-36071.33460895236,-31455.364102764623,-22975.335773865674,0.0,0.0,0.0,193.0,1.0,156.0,0.0,2.0,3.0,252.0,412.0,2.0,1020.0,1744252613.86596,0.0,2025-04-09 22:36:53.865,BACKWARD,5
158.0,18282.631728962868,3318.0494091569676,-66003.20380964325,-64379.97542380994,-38464.93821918228,-36092.747580140545,-31337.168078084957,-22996.21230318693,0.0,0.0,0.0,193.0,1.0,155.0,0.0,2.0,3.0,249.0,411.0,2.0,1017.0,1744252613.8659685,0.0,2025-04-09 22:36:53.865,BACKWARD,5
159.0,18257.865996106386,3353.6333863298164,-65928.39252095134,-64333.528498831816,-38357.314569629976,-35984.16280557666,-31796.8540545528,-22888.163970489975,0.0,0.0,0.0,193.0,1.0,155.0,0.0,2.0,3.0,250.0,411.0,2.0,1018.0,1744252613.8660233,0.0,2025-04-09 22:36:53.866,BACKWARD,5
160.0,18183.881721959322,3350.2806246615205,-65966.79281792555,-64359.05419099977,-38388.60701186741,-36021.11023916129,-31431.42538445299,-22919.054081327213,0.0,0.0,0.0,193.0,1.0,155.0,0.0,2.0,3.0,250.0,411.0,2.0,1018.0,1744252613.866032,0.0,2025-04-09 22:36:53.866,BACKWARD,5
161.0,18121.073320039908,3299.743330448071,-65994.46427756123,-64386.25626400188,-38435.56802696801,-36065.94783853863,-31524.207475686966,-22964.33871559366,0.0,0.0,0.0,193.0,1.0,156.0,0.0,2.0,3.0,252.0,412.0,2.0,1020.0,1744252613.8660407,0.0,2025-04-09 22:36:53.866,BACKWARD,5
162.0,18267.09726656643,3319.614031268839,-66000.83452473099,-64365.670307358545,-38474.0800826645,-36099.09547556585,-31260.680408558896,-22993.083058963188,0.0,0.0,0.0,193.0,1.0,155.0,0.0,2.0,3.0,251.0,411.0,2.0,1019.0,1744252613.8660495,0.0,2025-04-09 22:36:53.866,BACKWARD,5
163.0,18265.085609565453,3344.580929825417,-65932.43818669775,-64348.86179552815,-38360.64497955382,-35983.827529409835,-31811.29328147093,-22897.261130483286,0.0,0.0,0.0,193.0,1.0,155.0,0.0,2.0,3.0,250.0,411.0,2.0,1018.0,1744252613.8660583,0.0,2025-04-09 22:36:53.866,BACKWARD,5
164.0,18189.648472028788,3337.204854155166,-65954.90168987533,-64346.60426933817,-38376.84999428392,-36010.18023612264,-31446.93749510497,-22913.175572535467,0.0,0.0,0.0,193.0,1.0,154.0,0.0,2.0,3.0,249.0,410.0,2.0,1017.0,1744252613.866067,0.0,2025-04-09 22:36:53.866,BACKWARD,5
165.0,18109.070433267407,3291.0485018549566,-65987.31171933553,-64392.89473210511,-38410.64583190034,-36043.14905919422,-31537.90909503807,-22944.78093919527,0.0,0.0,0.0,193.0,1.0,155.0,0.0,2.0,3.0,252.0,411.0,2.0,1020.0,1744252613.8660755,0.0,2025-04-09 22:36:53.866,BACKWARD,5
166.0,18234.284905706038,3300.36917929282,-66004.6790247773,-64367.346688192694,-38475.51059430964,-36109.176112315195,-31227.644530253954,-23003.901303279556,0.0,0.0,0.0,193.0,1.0,156.0,0.0,2.0,3.0,252.0,412.0,2.0,1020.0,1744252613.866084,0.0,2025-04-09 22:36:53.866,BACKWARD,5
167.0,18281.46943825119,3350.61590082835,-65945.29043975956,-64365.91617654755,-38370.77031979207,-35993.617593481256,-31767.95324897209,-22909.509886444794,0.0,0.0,0.0,193.0,1.0,155.0,0.0,2.0,3.0,251.0,411.0,2.0,1019.0,1744252613.8660932,0.0,2025-04-09 22:36:53.866,BACKWARD,5
168.0,18224.047806745508,3362.23880794511,-65931.03002679706,-64316.67528351251,-38355.63818879583,-35988.52139574545,-31482.56617576673,-22891.986118791836,0.0,0.0,0.0,193.0,1.0,155.0,0.0,2.0,3.0,250.0,411.0,2.0,1018.0,1744252613.866102,0.0,2025-04-09 22:36:53.866,BACKWARD,5
169.0,18121.29683748446,3306.270039829021,-65987.53523678008,-64396.359252495684,-38400.565195151,-36035.214189912585,-31509.56708306874,-22938.343636792142,0.0,0.0,0.0,193.0,1.0,155.0,0.0,2.0,3.0,249.0,411.0,2.0,1017.0,1744252613.8661103,0.0,2025-04-09 22:36:53.866,BACKWARD,5
170.0,18208.870972260353,3298.424577525208,-66001.9297602093,-64362.69752534599,-38470.146175640366,-36102.40353374524,-31254.62308581151,-22993.35127989665,0.0,0.0,0.0,193.0,1.0,155.0,0.0,2.0,3.0,252.0,411.0,2.0,1020.0,1744252613.8661191,0.0,2025-04-09 22:36:53.866,BACKWARD,5
171.0,18284.688089452757,3344.4021158697747,-65964.33412603546,-64379.707202876474,-38393.07736075847,-36009.71084948908,-31663.235326198977,-22917.891790615537,0.0,0.0,0.0,193.0,1.0,155.0,0.0,2.0,3.0,251.0,411.0,2.0,1019.0,1744252613.866128,0.0,2025-04-09 22:36:53.866,BACKWARD,5
172.0,18232.295600449517,3363.3340434234196,-65923.78806159354,-64313.031949166296,-38353.98415970614,-35978.91014562966,-31569.78268263134,-22882.173702975953,0.0,0.0,0.0,193.0,1.0,155.0,0.0,2.0,3.0,249.0,411.0,2.0,1017.0,1744252613.8661363,0.0,2025-04-09 22:36:53.866,BACKWARD,5
173.0,18137.747721403568,3326.1854441386995,-65977.36519305292,-64391.106592548684,-38392.1609392358,-36022.09371591732,-31494.747876494872,-22929.53704947675,0.0,0.0,0.0,193.0,1.0,154.0,0.0,2.0,3.0,250.0,410.0,2.0,1018.0,1744252613.866145,0.0,2025-04-09 22:36:53.866,BACKWARD,5
174.0,18185.40164058228,3300.5479932484623,-65990.1280391369,-64363.05515325727,-38452.868277176414,-36094.75923714152,-31323.73467966732,-22991.31727115122,0.0,0.0,0.0,193.0,1.0,155.0,0.0,2.0,3.0,252.0,411.0,2.0,1020.0,1744252613.86616,0.0,2025-04-09 22:36:53.866,BACKWARD,5
175.0,18289.896045910842,3330.4993308185735,-65982.68490823328,-64394.682871661535,-38419.98886108266,-36055.88955353374,-31532.634083346617,-22967.982049939877,0.0,0.0,0.0,193.0,1.0,155.0,0.0,2.0,3.0,252.0,411.0,2.0,1020.0,1744252613.8661685,0.0,2025-04-09 22:36:53.866,BACKWARD,5
176.0,18238.79995808601,3354.5945113413945,-65915.65202661182,-64317.09996665716,-38343.92587470125,-35984.43102651012,-31663.83882329927,-22896.47881942735,0.0,0.0,0.0,193.0,1.0,154.0,0.0,2.0,3.0,250.0,410.0,2.0,1018.0,1744252613.866177,0.0,2025-04-09 22:36:53.866,BACKWARD,5
177.0,18151.941079132688,3333.4497610866742,-65965.54112023606,-64381.607101155176,-38377.76641580658,-36019.679727516144,-31457.30870453223,-22930.274657043774,0.0,0.0,0.0,193.0,1.0,154.0,0.0,2.0,3.0,249.0,410.0,2.0,1017.0,1744252613.866186,0.0,2025-04-09 22:36:53.866,BACKWARD,5
178.0,18153.326887288917,3297.0164176245235,-65982.39433555536,-64368.397220182094,-38438.78667816957,-36075.55908865441,-31404.245663195332,-22971.670087775005,0.0,0.0,0.0,193.0,1.0,155.0,0.0,2.0,3.0,252.0,411.0,2.0,1020.0,1744252613.8661945,0.0,2025-04-09 22:36:53.866,BACKWARD,5
179.0,18300.736641971667,3341.161112923755,-65976.31466106352,-64376.51090341937,-38434.31632927851,-36057.007140756505,-31403.798628306227,-22967.132683650576,0.0,0.0,0.0,193.0,1.0,155.0,0.0,2.0,3.0,252.0,411.0,2.0,1020.0,1744252613.8662033,0.0,2025-04-09 22:36:53.866,BACKWARD,5
180.0,18263.14100779784,3367.6926335922044,-65900.13991595984,-64308.71806248642,-38334.62754900784,-35956.87132559673,-31740.728824225527,-22869.880243525535,0.0,0.0,0.0,193.0,1.0,155.0,0.0,2.0,3.0,251.0,411.0,2.0,1019.0,1744252614.347953,0.0,2025-04-09 22:36:54.347,BACKWARD,5
181.0,18183.322928347938,3355.2427119305985,-65947.39150373836,-64353.73447581941,-38370.05506396951,-35997.70796271658,-31415.22036972289,-22907.520581188273,0.0,0.0,0.0,193.0,1.0,154.0,0.0,2.0,3.0,250.0,410.0,2.0,1018.0,1744252614.347992,0.0,2025-04-09 22:36:54.347,BACKWARD,5
182.0,18141.033427838498,3305.1301008618,-65976.00173664115,-64370.31947020525,-38427.38728849737,-36059.75640532451,-31465.645905214064,-22963.221128370897,0.0,0.0,0.0,193.0,1.0,155.0,0.0,2.0,3.0,251.0,411.0,2.0,1019.0,1744252614.348012,0.0,2025-04-09 22:36:54.348,BACKWARD,5
183.0,18293.5170285126,3341.1164094348446,-65977.56635875301,-64366.00558352537,-38448.71085270773,-36079.98473405656,-31298.521911921733,-22982.533035580283,0.0,0.0,0.0,193.0,1.0,156.0,0.0,2.0,3.0,252.0,412.0,2.0,1020.0,1744252614.348032,0.0,2025-04-09 22:36:54.348,BACKWARD,5
184.0,18267.544301455535,3370.1736772267436,-65905.68314858475,-64331.3827313641,-38340.37194733285,-35975.93736361711,-31792.562519617382,-22888.834522823636,0.0,0.0,0.0,193.0,1.0,155.0,0.0,2.0,3.0,251.0,411.0,2.0,1019.0,1744252614.3480496,0.0,2025-04-09 22:36:54.348,BACKWARD,5
185.0,18190.520190062547,3359.1319154658217,-65939.99307632365,-64349.308830417256,-38369.22804942466,-36012.616576268265,-31418.550779646732,-22916.34952024812,0.0,0.0,0.0,193.0,1.0,154.0,0.0,2.0,3.0,249.0,410.0,2.0,1017.0,1744252614.348067,0.0,2025-04-09 22:36:54.348,BACKWARD,5
186.0,18122.30266598495,3307.0076473960457,-65967.06103885901,-64382.18824651102,-38409.394134210845,-36051.776832553966,-31517.52430409483,-22951.128834620577,0.0,0.0,0.0,193.0,1.0,154.0,0.0,2.0,3.0,250.0,410.0,2.0,1018.0,1744252614.3480847,0.0,2025-04-09 22:36:54.348,BACKWARD,5
187.0,18265.37618224337,3321.648040014272,-65979.86858843191,-64362.56341487926,-38461.406643558345,-36107.94676637015,-31228.538600032163,-23000.59324510017,0.0,0.0,0.0,193.0,1.0,155.0,0.0,2.0,3.0,252.0,411.0,2.0,1020.0,1744252614.348102,0.0,2025-04-09 22:36:54.348,BACKWARD,5
188.0,18271.6123189464,3357.0755549759338,-65913.95329403321,-64350.18054845102,-38352.911275972285,-35993.03644812542,-31790.841435294325,-22910.001624822813,0.0,0.0,0.0,193.0,1.0,155.0,0.0,2.0,3.0,252.0,411.0,2.0,1020.0,1744252614.3481197,0.0,2025-04-09 22:36:54.348,BACKWARD,5
189.0,18196.443402343204,3349.6994793056824,-65933.55577392051,-64338.06590295624,-38369.00453198011,-36011.990727423516,-31445.954018348937,-22916.997720837324,0.0,0.0,0.0,193.0,1.0,154.0,0.0,2.0,3.0,249.0,410.0,2.0,1017.0,1744252614.3481607,0.0,2025-04-09 22:36:54.348,BACKWARD,5
190.0,18116.044177537464,3312.394417809775,-65967.84334991495,-64387.7985343693,-38402.44274168524,-36036.242370157524,-31533.10346998018,-22943.417482783498,0.0,0.0,0.0,193.0,1.0,154.0,0.0,2.0,3.0,249.0,410.0,2.0,1017.0,1744252614.34817,0.0,2025-04-09 22:36:54.348,BACKWARD,5
191.0,18234.97780978415,3321.6033365253616,-65977.4769517752,-64350.20290019547,-38464.133556381894,-36095.9215278532,-31219.955530161325,-22995.16177119753,0.0,0.0,0.0,193.0,1.0,154.0,0.0,2.0,3.0,249.0,410.0,2.0,1017.0,1744252614.3481789,0.0,2025-04-09 22:36:54.348,BACKWARD,5
192.0,18289.62782497738,3365.5915696134057,-65921.55288714802,-64355.83553979821,-38360.62262780937,-35987.15793933367,-31728.077736863823,-22912.080337057156,0.0,0.0,0.0,193.0,1.0,155.0,0.0,2.0,3.0,252.0,411.0,2.0,1020.0,1744252614.3481877,0.0,2025-04-09 22:36:54.348,BACKWARD,5
193.0,18221.99144625562,3365.323348679942,-65910.55582887601,-64315.3788823341,-38345.93753170223,-35986.912070144666,-31488.93642293649,-22895.54004616023,0.0,0.0,0.0,193.0,1.0,155.0,0.0,2.0,3.0,251.0,411.0,2.0,1019.0,1744252614.3481967,0.0,2025-04-09 22:36:54.348,BACKWARD,5
194.0,18116.759433360032,3310.8521474423587,-65971.88901566136,-64399.712014163975,-38393.63615436985,-36029.02275669846,-31495.597242784173,-22939.125947848075,0.0,0.0,0.0,193.0,1.0,155.0,0.0,2.0,3.0,251.0,411.0,2.0,1019.0,1744252614.3482056,0.0,2025-04-09 22:36:54.348,BACKWARD,5
195.0,18197.60569305488,3299.676275214705,-65982.28257683308,-64360.283536944815,-38459.66320749083,-36092.121731295796,-31263.161452193435,-22992.591320585172,0.0,0.0,0.0,193.0,1.0,154.0,0.0,2.0,3.0,250.0,410.0,2.0,1018.0,1744252614.348215,0.0,2025-04-09 22:36:54.348,BACKWARD,5
196.0,18292.868827923397,3346.257310659565,-65950.23017528417,-64381.31652847726,-38389.8587095569,-36012.59422452381,-31620.141162889144,-22928.86649714309,0.0,0.0,0.0,193.0,1.0,154.0,0.0,2.0,3.0,250.0,410.0,2.0,1018.0,1744252614.348224,0.0,2025-04-09 22:36:54.348,BACKWARD,5
197.0,18243.47147267717,3370.8889330493134,-65896.31776765797,-64305.63352175159,-38330.55953151698,-35967.398997235185,-31588.647554951618,-22877.926871529446,0.0,0.0,0.0,193.0,1.0,155.0,0.0,2.0,3.0,252.0,411.0,2.0,1020.0,1744252614.348233,0.0,2025-04-09 22:36:54.348,BACKWARD,5
198.0,18152.656334955256,3344.6926885476937,-65946.22921302667,-64374.901577818586,-38362.36606387688,-36003.385305808224,-31464.595373224663,-22918.20471503791,0.0,0.0,0.0,193.0,1.0,155.0,0.0,2.0,3.0,252.0,411.0,2.0,1020.0,1744252614.348242,0.0,2025-04-09 22:36:54.348,BACKWARD,5
199.0,18177.533826534014,3309.9804294086016,-65964.49058824666,-64353.73447581941,-38433.06463158901,-36071.84869907483,-31326.841572146604,-22972.20652964193,0.0,0.0,0.0,193.0,1.0,155.0,0.0,2.0,3.0,251.0,411.0,2.0,1019.0,1744252614.3482509,0.0,2025-04-09 22:36:54.348,BACKWARD,5
200.0,18297.205066347728,3345.1173716923445,-65956.04162884255,-64382.3447087222,-38408.3659539659,-36039.21515217008,-31480.3310013212,-22954.459244544418,0.0,0.0,0.0,193.0,1.0,154.0,0.0,2.0,3.0,250.0,410.0,2.0,1018.0,1744252614.3482597,0.0,2025-04-09 22:36:54.348,BACKWARD,5
201.0,18243.13619651034,3366.9773777696346,-65893.92613100125,-64317.368187590626,-38332.5488367735,-35966.10259605677,-31676.758131594437,-22881.1008192421,0.0,0.0,0.0,193.0,1.0,154.0,0.0,2.0,3.0,249.0,410.0,2.0,1017.0,1744252614.3482685,0.0,2025-04-09 22:36:54.348,BACKWARD,5
202.0,18159.808893180954,3346.8161042709476,-65944.70929440371,-64376.24268248591,-38369.764491291586,-36006.31338433187,-31437.616817667105,-22923.43502324045,0.0,0.0,0.0,193.0,1.0,154.0,0.0,2.0,3.0,250.0,410.0,2.0,1018.0,1744252614.3482845,0.0,2025-04-09 22:36:54.348,BACKWARD,5
203.0,18138.753549904057,3288.589809964873,-65977.85693143093,-64382.9482058225,-38441.60299797094,-36078.64362938925,-31417.03086102377,-22987.36101238263,0.0,0.0,0.0,193.0,1.0,155.0,0.0,2.0,3.0,251.0,411.0,2.0,1019.0,1744252614.3482935,0.0,2025-04-09 22:36:54.348,BACKWARD,5
204.0,18284.598682474934,3324.6655255157384,-65978.01339364212,-64391.821848371255,-38447.5262102516,-36075.5143851655,-31362.805528975194,-22988.813875772226,0.0,0.0,0.0,193.0,1.0,155.0,0.0,2.0,3.0,252.0,411.0,2.0,1020.0,1744252614.348308,0.0,2025-04-09 22:36:54.348,BACKWARD,5
205.0,18249.61820240238,3355.9803194976234,-65898.84351478142,-64330.645123797076,-38339.835505465926,-35967.175479790625,-31768.310876883374,-22887.739287345325,0.0,0.0,0.0,193.0,1.0,155.0,0.0,2.0,3.0,251.0,411.0,2.0,1019.0,1744252614.348317,0.0,2025-04-09 22:36:54.348,BACKWARD,5
206.0,18181.534788791512,3358.4390113877075,-65931.07473028598,-64354.67324908653,-38357.091052185424,-35994.310497559374,-31423.378756449078,-22908.548761433216,0.0,0.0,0.0,193.0,1.0,155.0,0.0,2.0,3.0,251.0,411.0,2.0,1019.0,1744252614.348326,0.0,2025-04-09 22:36:54.348,BACKWARD,5
207.0,18127.73413988759,3300.8832694152916,-65967.2175010702,-64380.37775521014,-38413.88683484636,-36056.02366400047,-31470.138605849577,-22970.530148807782,0.0,0.0,0.0,193.0,1.0,154.0,0.0,2.0,3.0,249.0,410.0,2.0,1017.0,1744252614.3483348,0.0,2025-04-09 22:36:54.348,BACKWARD,5
208.0,18269.399496245325,3318.8317202129033,-65991.55855078204,-64384.69164189001,-38465.13938488238,-36095.742713897554,-31253.639609055474,-23002.15786721204,0.0,0.0,0.0,193.0,1.0,154.0,0.0,2.0,3.0,250.0,410.0,2.0,1018.0,1744252614.3483436,0.0,2025-04-09 22:36:54.348,BACKWARD,5
209.0,18258.670658906776,3351.129990950822,-65916.83666906794,-64349.42058913954,-38350.318473615465,-35974.663314183155,-31795.937633030135,-22890.354441446598,0.0,0.0,0.0,193.0,1.0,154.0,0.0,2.0,3.0,249.0,410.0,2.0,1017.0,1744252614.3483524,0.0,2025-04-09 22:36:54.348,BACKWARD,5
210.0,18189.760230751068,3350.2806246615205,-65941.69180890225,-64353.712124074955,-38367.12698544586,-36007.07334364335,-31420.249512225335,-22915.746023147825,0.0,0.0,0.0,193.0,1.0,154.0,0.0,2.0,3.0,249.0,410.0,2.0,1017.0,1744252614.348361,0.0,2025-04-09 22:36:54.348,BACKWARD,5
211.0,18114.792479847965,3299.4751095146075,-65977.29813781955,-64398.594426941214,-38410.0646865445,-36051.68742557614,-31507.778943512316,-22962.26000335932,0.0,0.0,0.0,193.0,1.0,154.0,0.0,2.0,3.0,251.0,410.0,2.0,1019.0,1744252614.3483698,0.0,2025-04-09 22:36:54.348,BACKWARD,5
212.0,18262.023420575075,3324.553766793462,-65978.48278027568,-64362.27284220134,-38457.0257016451,-36094.066333063405,-31214.12172485849,-22996.346413653664,0.0,0.0,0.0,193.0,1.0,155.0,0.0,2.0,3.0,252.0,411.0,2.0,1020.0,1744252614.3483784,0.0,2025-04-09 22:36:54.348,BACKWARD,5
213.0,18285.246883064137,3366.440935902707,-65908.94650327522,-64348.8394437837,-38343.72470900115,-35969.41065423616,-31776.737484543024,-22889.281557712744,0.0,0.0,0.0,193.0,1.0,155.0,0.0,2.0,3.0,251.0,411.0,2.0,1019.0,1744252614.3483875,0.0,2025-04-09 22:36:54.348,BACKWARD,5
214.0,18208.08866120442,3359.7801160550257,-65926.58202965045,-64333.30498138726,-38357.44868009671,-35992.701171958586,-31448.435061983477,-22905.710089887394,0.0,0.0,0.0,193.0,1.0,155.0,0.0,2.0,3.0,251.0,411.0,2.0,1019.0,1744252614.348396,0.0,2025-04-09 22:36:54.348,BACKWARD,5
215.0,18124.694302641667,3320.865728958336,-65961.49545448965,-64387.57501692475,-38386.23772695514,-36021.51257056148,-31516.607882572163,-22934.096805345634,0.0,0.0,0.0,193.0,1.0,154.0,0.0,2.0,3.0,249.0,410.0,2.0,1017.0,1744252614.348405,0.0,2025-04-09 22:36:54.348,BACKWARD,5
216.0,18231.93797253823,3320.0163626690346,-65971.73255345017,-64349.15236820607,-38452.64475973186,-36086.153815526224,-31226.45988779782,-22990.93729149548,0.0,0.0,0.0,193.0,1.0,154.0,0.0,2.0,3.0,250.0,410.0,2.0,1018.0,1744252614.3484137,0.0,2025-04-09 22:36:54.348,BACKWARD,5
217.0,18288.912569154807,3359.9812817551237,-65931.2088407527,-64363.23396721292,-38367.14933719031,-35989.03548586792,-31693.41018121364,-22910.694528900927,0.0,0.0,0.0,193.0,1.0,155.0,0.0,2.0,3.0,251.0,411.0,2.0,1019.0,1744252614.3484223,0.0,2025-04-09 22:36:54.348,BACKWARD,5
218.0,18214.727129307645,3357.8802177763246,-65917.55192489052,-64315.960027689944,-38349.64792128181,-35983.179328820625,-31502.123952165122,-22882.508979142785,0.0,0.0,0.0,193.0,1.0,155.0,0.0,2.0,3.0,251.0,411.0,2.0,1019.0,1744252614.348431,0.0,2025-04-09 22:36:54.348,BACKWARD,5
219.0,18126.01305556453,3318.7646649795374,-65959.30498353303,-64379.237816242916,-38377.18527045075,-36012.66127975718,-31485.561309523742,-22917.06477607069,0.0,0.0,0.0,193.0,1.0,155.0,0.0,2.0,3.0,252.0,411.0,2.0,1020.0,1744252614.3484447,0.0,2025-04-09 22:36:54.348,BACKWARD,5
220.0,18206.009948970073,3319.0775894019116,-65956.17573930928,-64324.274876627314,-38432.97522461119,-36065.09847224933,-31280.931089035406,-22963.042314415256,0.0,0.0,0.0,193.0,1.0,154.0,0.0,2.0,3.0,250.0,410.0,2.0,1018.0,1744252614.3484535,0.0,2025-04-09 22:36:54.348,BACKWARD,5
221.0,18291.70653721172,3351.9570054956685,-65948.57614619448,-64358.62950785512,-38395.67016311528,-36013.6000530243,-31573.62718267765,-22925.3125697747,0.0,0.0,0.0,193.0,1.0,154.0,0.0,2.0,3.0,250.0,410.0,2.0,1018.0,1744252614.348462,0.0,2025-04-09 22:36:54.348,BACKWARD,5
222.0,18223.757234067587,3358.3049009209753,-65909.17002071977,-64298.01157689233,-38341.82481072245,-35974.171575805136,-31607.49007552744,-22872.651859837995,0.0,0.0,0.0,193.0,1.0,155.0,0.0,2.0,3.0,252.0,411.0,2.0,1020.0,1744252614.3484707,0.0,2025-04-09 22:36:54.348,BACKWARD,5
223.0,18146.39784650777,3342.9492524801794,-65946.94446884924,-64350.985211251405,-38358.141584174824,-35996.43391328263,-31452.480727729886,-22886.644051867017,0.0,0.0,0.0,193.0,1.0,155.0,0.0,2.0,3.0,251.0,411.0,2.0,1019.0,1744252614.3484795,0.0,2025-04-09 22:36:54.348,BACKWARD,5
224.0,18164.54746300548,3308.125234618811,-65966.18932082526,-64327.5829348067,-38424.86154137392,-36065.00906527151,-31335.49169725081,-22938.388340281053,0.0,0.0,0.0,193.0,1.0,155.0,0.0,2.0,3.0,249.0,411.0,2.0,1017.0,1744252614.3484883,0.0,2025-04-09 22:36:54.348,BACKWARD,5
225.0,18297.67445298129,3349.543017094495,-65960.0202393556,-64343.787949536796,-38406.68957313175,-36034.297768389915,-31423.78108784927,-22919.63522668305,0.0,0.0,0.0,193.0,1.0,154.0,0.0,2.0,3.0,249.0,410.0,2.0,1017.0,1744252614.3484972,0.0,2025-04-09 22:36:54.348,BACKWARD,5
226.0,18247.31597272348,3370.5089533935734,-65892.02623272255,-64272.35177425764,-38316.85791216587,-35950.41167144915,-31679.730913606993,-22834.206859374866,0.0,0.0,0.0,193.0,1.0,155.0,0.0,2.0,3.0,252.0,411.0,2.0,1020.0,1744252614.348506,0.0,2025-04-09 22:36:54.348,BACKWARD,5
227.0,18157.30549780196,3346.4361246152075,-65952.01831484059,-64330.511013330346,-38360.22029640917,-35996.36685804926,-31400.15529396001,-22879.62560410805,0.0,0.0,0.0,193.0,1.0,155.0,0.0,2.0,3.0,250.0,411.0,2.0,1018.0,1744252614.3485148,0.0,2025-04-09 22:36:54.348,BACKWARD,5
228.0,18133.92557310171,3306.135929362289,-65973.45363777324,-64324.565449305235,-38414.80325636903,-36045.92067550668,-31421.612968637106,-22924.44085174094,0.0,0.0,0.0,193.0,1.0,155.0,0.0,2.0,3.0,251.0,411.0,2.0,1019.0,1744252614.3485236,0.0,2025-04-09 22:36:54.348,BACKWARD,5
229.0,18282.072935351483,3338.3447931223864,-65975.88997791887,-64320.45272832546,-38427.54375070855,-36050.39102439774,-31311.86590336155,-22934.029750112266,0.0,0.0,0.0,193.0,1.0,154.0,0.0,2.0,3.0,250.0,410.0,2.0,1018.0,1744252614.3485324,0.0,2025-04-09 22:36:54.348,BACKWARD,5
230.0,18250.37816171386,3363.0658224899557,-65904.36439566188,-64269.28958526726,-38328.547874516,-35948.48942142599,-31754.609257532273,-22842.18643214541,0.0,0.0,0.0,193.0,1.0,154.0,0.0,2.0,3.0,250.0,410.0,2.0,1018.0,1744252614.3485413,0.0,2025-04-09 22:36:54.348,BACKWARD,5
231.0,18182.093582402897,3359.422488143741,-65936.55090767752,-64286.67924245349,-38350.87726722685,-35973.344561260295,-31393.1591979455,-22860.62662132104,0.0,0.0,0.0,193.0,1.0,155.0,0.0,2.0,3.0,252.0,411.0,2.0,1020.0,1744252614.34855,0.0,2025-04-09 22:36:54.348,BACKWARD,5
232.0,18124.090805541375,3310.3827608087972,-65962.47893124569,-64307.24284735237,-38392.1609392358,-36018.98682343803,-31468.953963393447,-22902.893770086022,0.0,0.0,0.0,193.0,1.0,155.0,0.0,2.0,3.0,251.0,411.0,2.0,1019.0,1744252614.348559,0.0,2025-04-09 22:36:54.348,BACKWARD,5
233.0,18280.24009230615,3349.230092672121,-65961.24958530064,-64282.0747830957,-38423.63219542887,-36049.876934275264,-31222.1683528624,-22929.224125054378,0.0,0.0,0.0,193.0,1.0,154.0,0.0,2.0,3.0,249.0,410.0,2.0,1017.0,1744252614.3485723,0.0,2025-04-09 22:36:54.348,BACKWARD,5
234.0,18269.935938112252,3376.7674418410593,-65897.88238976985,-64261.086495052165,-38323.608138991374,-35940.7333661,-31770.881327495736,-22841.270010622742,0.0,0.0,0.0,193.0,1.0,155.0,0.0,2.0,3.0,250.0,411.0,2.0,1018.0,1744252614.348581,0.0,2025-04-09 22:36:54.348,BACKWARD,5
235.0,18204.31121639147,3369.056090003978,-65915.76378533409,-64253.24103274835,-38339.5002292991,-35966.03554082341,-31406.234968451856,-22860.62662132104,0.0,0.0,0.0,193.0,1.0,155.0,0.0,2.0,3.0,249.0,411.0,2.0,1017.0,1744252614.3485897,0.0,2025-04-09 22:36:54.348,BACKWARD,5
236.0,18128.605857921346,3324.3078976044535,-65946.81035838251,-64299.24092283737,-38373.78780529354,-36004.90522443119,-31491.350411337666,-22900.0550985402,0.0,0.0,0.0,193.0,1.0,155.0,0.0,2.0,3.0,249.0,411.0,2.0,1017.0,1744252614.3485985,0.0,2025-04-09 22:36:54.348,BACKWARD,5
237.0,18256.23431876115,3334.23207214261,-65965.0717336025,-64276.732716170874,-38439.23371305868,-36069.63587637376,-31190.048896080127,-22956.73912247886,0.0,0.0,0.0,193.0,1.0,155.0,0.0,2.0,3.0,252.0,411.0,2.0,1020.0,1744252614.3486073,0.0,2025-04-09 22:36:54.348,BACKWARD,5
238.0,18298.14383961485,3381.058976776478,-65898.39647989231,-64268.01553583331,-38326.78208670403,-35946.25424698046,-31742.80753645987,-22851.23888864981,0.0,0.0,0.0,193.0,1.0,155.0,0.0,2.0,3.0,252.0,411.0,2.0,1020.0,1744252614.3486161,0.0,2025-04-09 22:36:54.348,BACKWARD,5
239.0,18231.26742020457,3383.361206455375,-65893.72496530115,-64231.783358071254,-38318.60134823339,-35954.47968894002,-31443.450622969944,-22846.254449636275,0.0,0.0,0.0,193.0,1.0,155.0,0.0,2.0,3.0,251.0,411.0,2.0,1019.0,1744252614.3486247,0.0,2025-04-09 22:36:54.348,BACKWARD,5
240.0,18125.8789450978,3323.5926417818837,-65953.94056486375,-64315.28947535628,-38367.97635173516,-36008.146227377205,-31485.918937435024,-22908.10172654411,0.0,0.0,0.0,193.0,1.0,154.0,0.0,2.0,3.0,249.0,410.0,2.0,1017.0,1744252614.3486335,0.0,2025-04-09 22:36:54.348,BACKWARD,5
241.0,18222.058501488984,3317.200042867666,-65964.95997488021,-64279.86196039462,-38432.684651933276,-36073.90505956472,-31212.400640535434,-22957.029695156776,0.0,0.0,0.0,193.0,1.0,154.0,0.0,2.0,3.0,249.0,410.0,2.0,1017.0,1744252614.3486423,0.0,2025-04-09 22:36:54.348,BACKWARD,5
242.0,18292.198275589737,3356.9861479981123,-65929.82303259648,-64302.191353105474,-38356.755776018595,-35984.92276488814,-31647.812622524816,-22886.219368722366,0.0,0.0,0.0,193.0,1.0,154.0,0.0,2.0,3.0,252.0,410.0,2.0,1020.0,1744252614.3486512,0.0,2025-04-09 22:36:54.348,BACKWARD,5
243.0,18226.037112002028,3362.127049222833,-65902.97858750566,-64248.167186757,-38329.33018557193,-35967.51075595746,-31528.789583300306,-22860.112531198567,0.0,0.0,0.0,193.0,1.0,155.0,0.0,2.0,3.0,251.0,411.0,2.0,1019.0,1744252614.3486598,0.0,2025-04-09 22:36:54.348,BACKWARD,5
244.0,18125.8789450978,3322.3409440923865,-65961.80837891203,-64326.46534758394,-38369.71978780267,-36006.55925352088,-31466.31645754772,-22898.37871770605,0.0,0.0,0.0,193.0,1.0,155.0,0.0,2.0,3.0,250.0,411.0,2.0,1018.0,1744252614.3486686,0.0,2025-04-09 22:36:54.348,BACKWARD,5
245.0,18180.30544284647,3306.7394264625823,-65967.91040514832,-64288.80265817674,-38426.33675650797,-36063.13151873726,-31280.729923335308,-22940.757625193313,0.0,0.0,0.0,193.0,1.0,155.0,0.0,2.0,3.0,252.0,411.0,2.0,1020.0,1744252614.3486772,0.0,2025-04-09 22:36:54.348,BACKWARD,5
246.0,18282.00588011812,3338.545958822484,-65958.25445154363,-64321.43620508149,-38389.545785134535,-36013.62240476876,-31515.37853662712,-22913.756717891305,0.0,0.0,0.0,193.0,1.0,154.0,0.0,2.0,3.0,249.0,410.0,2.0,1017.0,1744252614.348686,0.0,2025-04-09 22:36:54.348,BACKWARD,5
247.0,18235.067216761974,3364.295168434998,-65895.66956706876,-64245.44027393345,-38311.381734774324,-35948.511773170445,-31619.336500088753,-22850.613039805063,0.0,0.0,0.0,193.0,1.0,154.0,0.0,2.0,3.0,249.0,410.0,2.0,1017.0,1744252614.3486948,0.0,2025-04-09 22:36:54.348,BACKWARD,5
248.0,18151.002305865564,3347.5984153268832,-65943.43524496976,-64308.96393167543,-38336.50509554209,-35983.760474176466,-31421.07652677018,-22881.749019831303,0.0,0.0,0.0,193.0,1.0,155.0,0.0,2.0,3.0,252.0,411.0,2.0,1020.0,1744252614.348708,0.0,2025-04-09 22:36:54.348,BACKWARD,5
249.0,18160.144169347783,3311.2768305870095,-65959.34968702194,-64291.75308844484,-38396.877157315874,-36043.57374233887,-31351.87552593655,-22930.855802399612,0.0,0.0,0.0,193.0,1.0,155.0,0.0,2.0,3.0,252.0,411.0,2.0,1020.0,1744252614.3487165,0.0,2025-04-09 22:36:54.348,BACKWARD,5
250.0,18276.373240515382,3321.7374469920933,-65982.37198381091,-64332.2320976534,-38412.612785412406,-36051.150983709216,-31375.411912847987,-22948.021942141288,0.0,0.0,0.0,193.0,1.0,155.0,0.0,2.0,3.0,251.0,411.0,2.0,1019.0,1744252614.3487256,0.0,2025-04-09 22:36:54.348,BACKWARD,5
251.0,18229.61339111488,3340.0211739565343,-65915.76378533409,-64274.788114403265,-38318.19901683319,-35962.861593110756,-31707.916463365134,-22862.05713296618,0.0,0.0,0.0,193.0,1.0,155.0,0.0,2.0,3.0,249.0,411.0,2.0,1017.0,1744252614.348734,0.0,2025-04-09 22:36:54.348,BACKWARD,5
252.0,18151.471692499126,3326.744237750082,-65964.51293999111,-64323.82784173821,-38353.335959116936,-35997.395038294206,-31409.632433609062,-22892.343746703118,0.0,0.0,0.0,193.0,1.0,154.0,0.0,2.0,3.0,250.0,410.0,2.0,1018.0,1744252614.3487427,0.0,2025-04-09 22:36:54.348,BACKWARD,5
253.0,18116.312398470927,3282.4430802396632,-65987.91521643582,-64331.5838970642,-38407.49423593214,-36048.31231216339,-31447.161012549524,-22934.029750112266,0.0,0.0,0.0,193.0,1.0,155.0,0.0,2.0,3.0,250.0,411.0,2.0,1018.0,1744252614.3487515,0.0,2025-04-09 22:36:54.348,BACKWARD,5
254.0,18265.309127010005,3314.361371321842,-65995.73832699518,-64332.58972556469,-38428.28135827558,-36068.339475195346,-31278.42769365641,-22953.63222999957,0.0,0.0,0.0,193.0,1.0,155.0,0.0,2.0,3.0,252.0,411.0,2.0,1020.0,1744252614.3487604,0.0,2025-04-09 22:36:54.348,BACKWARD,5
255.0,18248.6570773908,3351.7334880511153,-65911.40519516531,-64280.06312609472,-38311.42643826323,-35948.77999410391,-31760.644228535206,-22846.299153125186,0.0,0.0,0.0,193.0,1.0,155.0,0.0,2.0,3.0,252.0,411.0,2.0,1020.0,1744252614.3487692,0.0,2025-04-09 22:36:54.348,BACKWARD,5
0.0,18172.08000088692,3343.6645083027493,-65949.42551248378,-64300.358510060134,-38339.92491244375,-35982.19585206459,-31386.476026353364,-22869.455560380884,0.0,0.0,0.0,193.0,1.0,155.0,0.0,2.0,3.0,250.0,411.0,2.0,1018.0,1744252614.3487782,0.0,2025-04-09 22:36:54.348,BACKWARD,5
1.0,18104.10834599833,3289.7521006765487,-65981.54496926606,-64336.54598433328,-38387.578831622464,-36029.08981193183,-31475.927707663504,-22915.768374892283,0.0,0.0,0.0,193.0,1.0,155.0,0.0,2.0,3.0,251.0,411.0,2.0,1019.0,1744252614.3487868,0.0,2025-04-09 22:36:54.348,BACKWARD,5
2.0,18249.595850657923,3309.9804294086016,-65990.55272228154,-64315.5800480342,-38432.75170716664,-36069.121786251286,-31205.426896265377,-22953.54282302175,0.0,0.0,0.0,193.0,1.0,154.0,0.0,2.0,3.0,249.0,410.0,2.0,1017.0,1744252614.3487954,0.0,2025-04-09 22:36:54.348,BACKWARD,5
3.0,18253.28388849305,3343.32923213592,-65925.79971859453,-64298.16803910352,-38323.67519422474,-35954.50204068447,-31766.947420471603,-22864.515824856262,0.0,0.0,0.0,193.0,1.0,155.0,0.0,2.0,3.0,252.0,411.0,2.0,1020.0,1744252614.348804,0.0,2025-04-09 22:36:54.348,BACKWARD,5
4.0,18181.154809135773,3337.830702999914,-65946.1174543044,-64289.36145178813,-38342.22714212265,-35982.08409334232,-31415.689756356453,-22883.984194276836,0.0,0.0,0.0,193.0,1.0,155.0,0.0,2.0,3.0,250.0,411.0,2.0,1018.0,1744252614.3488128,0.0,2025-04-09 22:36:54.348,BACKWARD,5
5.0,18095.14529647175,3291.3837780217864,-65984.36128906743,-64343.564432092244,-38381.45445364171,-36018.47273331556,-31505.36495511114,-22915.366043492086,0.0,0.0,0.0,193.0,1.0,155.0,0.0,2.0,3.0,252.0,411.0,2.0,1020.0,1744252614.3488212,0.0,2025-04-09 22:36:54.348,BACKWARD,5
6.0,18224.51719337907,3310.6062782533504,-65984.58480651198,-64300.8278966937,-38433.06463158901,-36069.121786251286,-31207.08092535507,-22958.39315156855,0.0,0.0,0.0,193.0,1.0,154.0,0.0,2.0,3.0,250.0,410.0,2.0,1018.0,1744252614.34883,0.0,2025-04-09 22:36:54.348,BACKWARD,5
7.0,18266.940804355243,3353.834552029914,-65932.50524193111,-64306.08055664069,-38337.466220553666,-35961.11815704324,-31725.619044973737,-22875.1999587059,0.0,0.0,0.0,193.0,1.0,154.0,0.0,2.0,3.0,251.0,410.0,2.0,1019.0,1744252614.3488436,0.0,2025-04-09 22:36:54.348,BACKWARD,5
8.0,18195.16935290925,3350.258272917065,-65928.0572447845,-64270.42952423448,-38331.92298792875,-35966.88490711271,-31466.18234708099,-22864.582880089627,0.0,0.0,0.0,193.0,1.0,155.0,0.0,2.0,3.0,250.0,411.0,2.0,1018.0,1744252614.3488524,0.0,2025-04-09 22:36:54.348,BACKWARD,5
9.0,18097.380470917284,3298.424577525208,-65981.58967275497,-64347.92302226103,-38372.96079074869,-36011.588396023326,-31485.360143823644,-22910.783935878746,0.0,0.0,0.0,193.0,1.0,155.0,0.0,2.0,3.0,251.0,411.0,2.0,1019.0,1744252614.3488612,0.0,2025-04-09 22:36:54.348,BACKWARD,5
10.0,18189.290844117506,3297.2399350690766,-65982.05905938853,-64301.073765882706,-38429.17542805379,-36073.4133211867,-31240.787355993674,-22961.187119625465,0.0,0.0,0.0,193.0,1.0,155.0,0.0,2.0,3.0,251.0,411.0,2.0,1019.0,1744252614.34887,0.0,2025-04-09 22:36:54.348,BACKWARD,5
11.0,18269.42184798978,3334.902624476269,-65952.13007356288,-64323.716083015934,-38362.52252608806,-35996.63507898272,-31611.982776162957,-22903.25139799731,0.0,0.0,0.0,193.0,1.0,154.0,0.0,2.0,3.0,252.0,410.0,2.0,1020.0,1744252614.3488789,0.0,2025-04-09 22:36:54.348,BACKWARD,5
12.0,18221.23148694414,3356.002671242079,-65904.11852647287,-64251.855224592124,-38311.6946591967,-35956.066662796344,-31549.107319010178,-22855.083388696123,0.0,0.0,0.0,193.0,1.0,154.0,0.0,2.0,3.0,250.0,410.0,2.0,1018.0,1744252614.3488877,0.0,2025-04-09 22:36:54.348,BACKWARD,5
13.0,18138.708846415146,3334.7908657539924,-65945.44690197073,-64314.37305383362,-38337.041537409015,-35983.35814277627,-31445.909314860026,-22887.29225245622,0.0,0.0,0.0,193.0,1.0,155.0,0.0,2.0,3.0,252.0,411.0,2.0,1020.0,1744252614.3488965,0.0,2025-04-09 22:36:54.348,BACKWARD,5
14.0,18165.30742231696,3297.396397280264,-65973.6771552178,-64299.755012959846,-38418.4689424597,-36066.68544610566,-31290.587042640098,-22958.527262035284,0.0,0.0,0.0,193.0,1.0,155.0,0.0,2.0,3.0,252.0,411.0,2.0,1020.0,1744252614.3489048,0.0,2025-04-09 22:36:54.348,BACKWARD,5
15.0,18272.19346430224,3327.057162172456,-65975.64410872986,-64337.79768202278,-38400.67695387328,-36034.498934090014,-31481.672105988517,-22934.141508834542,0.0,0.0,0.0,193.0,1.0,155.0,0.0,2.0,3.0,251.0,411.0,2.0,1019.0,1744252614.3489137,0.0,2025-04-09 22:36:54.348,BACKWARD,5
16.0,18214.481260118635,3338.523607078029,-65918.7589190911,-64275.72688767039,-38332.81705770696,-35970.528241458924,-31649.667817314607,-22869.410856891973,0.0,0.0,0.0,193.0,1.0,154.0,0.0,2.0,3.0,249.0,410.0,2.0,1017.0,1744252614.3489223,0.0,2025-04-09 22:36:54.348,BACKWARD,5
17.0,18135.892526613778,3327.414790083741,-65956.51101547612,-64326.957085961956,-38357.96277021918,-35997.50679701648,-31425.680986127973,-22901.418554951975,0.0,0.0,0.0,193.0,1.0,155.0,0.0,6.0,3.0,250.0,411.0,6.0,1018.0,1744252614.3489308,0.0,2025-04-09 22:36:54.348,BACKWARD,5
18.0,18130.639866666777,3288.5674582204174,-65975.48764651867,-64320.47508006991,-38420.41354422731,-36058.6611698462,-31385.716067041885,-22958.303744590732,0.0,0.0,0.0,193.0,1.0,155.0,0.0,17.0,3.0,248.0,411.0,17.0,1016.0,1744252614.3489397,0.0,2025-04-09 22:36:54.348,BACKWARD,5
19.0,18274.13806606985,3327.70536276166,-65973.76656219561,-64331.427434853016,-38420.90528260533,-36048.66994007468,-31356.63644750553,-22961.70120974794,0.0,0.0,0.0,193.0,1.0,155.0,0.0,27.0,3.0,252.0,411.0,27.0,1020.0,1744252614.3489485,0.0,2025-04-09 22:36:54.348,BACKWARD,5
20.0,18235.536603395536,3354.326290407931,-65897.43535488074,-64268.99901258934,-38317.953147644184,-35943.99672079048,-31724.74732693998,-22860.38075213203,0.0,0.0,0.0,193.0,1.0,154.0,0.0,36.0,3.0,252.0,410.0,36.0,1020.0,1744252614.3489573,0.0,2025-04-09 22:36:54.348,BACKWARD,5
21.0,18159.16069259175,3344.5138745920513,-65940.57422167948,-64307.354606074645,-38348.88796197033,-35980.608878208266,-31393.1591979455,-22889.661537368484,0.0,0.0,0.0,193.0,1.0,155.0,0.0,39.0,3.0,249.0,411.0,39.0,1017.0,1744252614.348966,0.0,2025-04-09 22:36:54.348,BACKWARD,5
22.0,18106.34352044386,3282.867763384314,-65973.90067266235,-64330.06397844124,-38408.50006443263,-36042.32204464937,-31444.36704449261,-22946.792596196246,0.0,0.0,0.0,193.0,1.0,155.0,0.0,39.0,3.0,252.0,411.0,39.0,1020.0,1744252614.3489795,0.0,2025-04-09 22:36:54.348,BACKWARD,5
23.0,18252.076894292462,3305.778301451004,-65986.28353909058,-64328.477004584915,-38443.9722828832,-36071.066388018895,-31250.555068320642,-22974.329945365185,0.0,0.0,0.0,193.0,1.0,155.0,0.0,39.0,3.0,252.0,411.0,39.0,1020.0,1744252614.3489883,0.0,2025-04-09 22:36:54.348,BACKWARD,5
24.0,18249.729961124656,3352.2922816624978,-65895.24488392411,-64276.66566093751,-38318.13196159982,-35942.58856088979,-31770.277830395444,-22863.085313211122,0.0,0.0,0.0,193.0,1.0,155.0,0.0,38.0,3.0,251.0,411.0,38.0,1019.0,1744252614.348997,0.0,2025-04-09 22:36:54.348,BACKWARD,5
25.0,18176.46094280016,3346.905511248769,-65923.94452380473,-64287.84153316516,-38344.43996482372,-35979.334828774314,-31385.693715297428,-22893.26016822579,0.0,0.0,0.0,193.0,1.0,155.0,0.0,39.0,3.0,250.0,411.0,39.0,1018.0,1744252614.3490057,0.0,2025-04-09 22:36:54.349,BACKWARD,5
26.0,18099.05685175143,3290.869687899314,-65960.78019866708,-64333.01440870934,-38395.692514859744,-36028.93334972064,-31489.830492714704,-22941.808157182713,0.0,0.0,0.0,193.0,1.0,155.0,0.0,39.0,3.0,249.0,411.0,39.0,1017.0,1744252614.349014,0.0,2025-04-09 22:36:54.349,BACKWARD,5
27.0,18234.016684772574,3307.588792751884,-65975.75586745213,-64313.724853244414,-38454.18703009928,-36082.75635036902,-31199.54838747363,-22985.662279804026,0.0,0.0,0.0,193.0,1.0,155.0,0.0,39.0,3.0,252.0,411.0,39.0,1020.0,1744252614.3490229,0.0,2025-04-09 22:36:54.349,BACKWARD,5
28.0,18244.119673266374,3332.1533599082663,-65915.98730277864,-64310.70736774294,-38347.34569160291,-35972.04816008188,-31758.23024013403,-22888.208673978887,0.0,0.0,0.0,193.0,1.0,155.0,0.0,39.0,3.0,251.0,411.0,39.0,1019.0,1744252614.3490317,0.0,2025-04-09 22:36:54.349,BACKWARD,5
29.0,18177.98086142312,3329.292336617987,-65922.82693658197,-64286.54513198676,-38348.48563057013,-35987.873195156244,-31416.248549967833,-22892.209636236388,0.0,0.0,0.0,193.0,1.0,155.0,0.0,39.0,3.0,251.0,411.0,39.0,1019.0,1744252614.3490405,0.0,2025-04-09 22:36:54.349,BACKWARD,5
30.0,18085.087011466865,3279.425594738197,-65970.30204180504,-64350.04643798428,-38391.82566306897,-36026.78758225293,-31494.94904219497,-22932.219258811387,0.0,0.0,0.0,193.0,1.0,154.0,0.0,40.0,3.0,250.0,410.0,40.0,1018.0,1744252614.349049,0.0,2025-04-09 22:36:54.349,BACKWARD,5
31.0,18203.215980913163,3289.4615279986297,-65974.21359708472,-64305.6782252405,-38447.7273759517,-36082.599888157834,-31204.979861376272,-22979.60495705664,0.0,0.0,0.0,193.0,1.0,155.0,0.0,40.0,3.0,251.0,411.0,40.0,1019.0,1744252614.349058,0.0,2025-04-09 22:36:54.349,BACKWARD,5
32.0,18261.062295563497,3330.7675517520374,-65927.23023023966,-64318.23990562438,-38352.88892422783,-35982.53112823142,-31694.170140525122,-22898.557531661696,0.0,0.0,0.0,193.0,1.0,155.0,0.0,40.0,3.0,252.0,411.0,40.0,1020.0,1744252614.3490665,0.0,2025-04-09 22:36:54.349,BACKWARD,5
33.0,18202.679539046232,3343.5303978360175,-65900.58695084894,-64259.63363166257,-38325.26216808107,-35963.37568323323,-31483.124969378114,-22864.314659156164,0.0,0.0,0.0,193.0,1.0,155.0,0.0,40.0,3.0,251.0,411.0,40.0,1019.0,1744252614.3490753,0.0,2025-04-09 22:36:54.349,BACKWARD,5
34.0,18098.788630817966,3297.9104874027357,-65958.45561724373,-64341.44101636899,-38368.87042151337,-36010.56021577838,-31474.653658229552,-22913.890828358035,0.0,0.0,0.0,193.0,1.0,154.0,0.0,40.0,3.0,249.0,410.0,40.0,1017.0,1744252614.349084,0.0,2025-04-09 22:36:54.349,BACKWARD,5
35.0,18173.51051253206,3292.3672547778197,-65964.13296033538,-64299.86677168212,-38430.56123621002,-36073.34626595334,-31257.439405612877,-22966.328020850186,0.0,0.0,0.0,193.0,1.0,154.0,0.0,41.0,3.0,250.0,410.0,41.0,1018.0,1744252614.3490927,0.0,2025-04-09 22:36:54.349,BACKWARD,5
36.0,18269.488903223148,3332.5109878195512,-65936.59561116644,-64322.50908881535,-38369.42921512476,-35998.80319819489,-31579.684505425037,-22911.454488212406,0.0,0.0,0.0,193.0,1.0,154.0,0.0,41.0,3.0,249.0,410.0,41.0,1017.0,1744252614.3491018,0.0,2025-04-09 22:36:54.349,BACKWARD,5
37.0,18209.541524594013,3345.6985170481826,-65893.2555786676,-64258.38193397307,-38318.42253427774,-35959.50883144246,-31574.521252455863,-22870.90842377048,0.0,0.0,0.0,193.0,1.0,155.0,0.0,41.0,3.0,250.0,411.0,41.0,1018.0,1744252614.3491151,0.0,2025-04-09 22:36:54.349,BACKWARD,5
38.0,18112.289084468972,3311.7015137316603,-65950.25252702863,-64331.67330404202,-38360.73438653164,-36000.14430286221,-31440.79076537976,-22914.02493882477,0.0,0.0,0.0,193.0,1.0,155.0,0.0,41.0,3.0,252.0,411.0,41.0,1020.0,1744252614.349124,0.0,2025-04-09 22:36:54.349,BACKWARD,5
39.0,18135.154919046752,3273.614141179817,-65971.15140809435,-64310.46149855394,-38430.158904809825,-36063.35503618181,-31323.175886055935,-22963.288183604265,0.0,0.0,0.0,193.0,1.0,155.0,0.0,41.0,3.0,251.0,411.0,41.0,1019.0,1744252614.3491333,0.0,2025-04-09 22:36:54.349,BACKWARD,5
40.0,18262.29164150854,3314.1825573661995,-65967.5751289815,-64333.32733313172,-38409.8635208444,-36030.98971021053,-31438.712053145417,-22947.91018341901,0.0,0.0,0.0,193.0,1.0,154.0,0.0,42.0,3.0,250.0,410.0,42.0,1018.0,1744252614.349142,0.0,2025-04-09 22:36:54.349,BACKWARD,5
41.0,18211.17320193925,3338.0765721889225,-65902.64331133882,-64264.59571893165,-38330.40306930579,-35952.51273542795,-31669.002076268447,-22872.00365924879,0.0,0.0,0.0,193.0,1.0,154.0,0.0,42.0,3.0,249.0,410.0,42.0,1017.0,1744252614.349151,0.0,2025-04-09 22:36:54.349,BACKWARD,5
42.0,18137.25598302555,3330.588737796395,-65942.00473332462,-64310.237981109385,-38353.73829051713,-35980.13949157471,-31412.582863877164,-22903.54197067523,0.0,0.0,0.0,193.0,1.0,155.0,0.0,42.0,3.0,252.0,411.0,42.0,1020.0,1744252614.3491597,0.0,2025-04-09 22:36:54.349,BACKWARD,5
43.0,18124.671950897213,3296.0552926129453,-65958.45561724373,-64303.44305079497,-38405.683744631264,-36031.52615207746,-31401.518750371786,-22946.88200317407,0.0,0.0,0.0,193.0,1.0,155.0,0.0,42.0,3.0,250.0,411.0,42.0,1018.0,1744252614.3491683,0.0,2025-04-09 22:36:54.349,BACKWARD,5
44.0,18267.320784010983,3322.9891446815905,-65969.5197307491,-64319.87158296962,-38425.04035532956,-36041.65149231571,-31311.038888816704,-22960.337753336164,0.0,0.0,0.0,193.0,1.0,155.0,0.0,42.0,3.0,251.0,411.0,42.0,1019.0,1744252614.8249533,0.0,2025-04-09 22:36:54.824,BACKWARD,5
45.0,18238.174109241263,3358.6625288322603,-65887.46647685367,-64262.09232355265,-38311.85112140788,-35930.74213632848,-31741.57819051483,-22856.603307319085,0.0,0.0,0.0,193.0,1.0,155.0,0.0,42.0,3.0,251.0,411.0,42.0,1019.0,1744252614.8249922,0.0,2025-04-09 22:36:54.824,BACKWARD,5
46.0,18161.79819843748,3345.7208687926377,-65929.53245991856,-64296.26814082482,-38342.718880500666,-35969.54476470289,-31379.368171616577,-22892.790781592226,0.0,0.0,0.0,193.0,1.0,154.0,0.0,42.0,3.0,251.0,410.0,42.0,1019.0,1744252614.8250124,0.0,2025-04-09 22:36:54.825,BACKWARD,5
47.0,18094.072412737896,3274.329397002387,-65974.34770755145,-64336.724798288924,-38411.18227376727,-36035.01302421249,-31461.019094111813,-22955.599183511637,0.0,0.0,0.0,193.0,1.0,155.0,0.0,42.0,3.0,252.0,411.0,42.0,1020.0,1744252614.8250325,0.0,2025-04-09 22:36:54.825,BACKWARD,5
48.0,18239.604620886403,3294.781243178993,-65988.13873388038,-64332.254449397864,-38450.789564942075,-36075.67084737669,-31233.03130066768,-22986.69046004897,0.0,0.0,0.0,193.0,1.0,155.0,0.0,42.0,3.0,252.0,411.0,42.0,1020.0,1744252614.8250527,0.0,2025-04-09 22:36:54.825,BACKWARD,5
49.0,18238.71055110819,3338.769476267037,-65904.25263693961,-64292.758916945335,-38324.92689191424,-35944.44375567958,-31770.747217029002,-22868.673249324947,0.0,0.0,0.0,193.0,1.0,154.0,0.0,43.0,3.0,251.0,410.0,43.0,1019.0,1744252614.8250704,0.0,2025-04-09 22:36:54.825,BACKWARD,5
50.0,18175.812742210954,3343.910377491758,-65918.44599466873,-64284.086440096675,-38332.5488367735,-35961.63224716571,-31390.07465721067,-22875.043496494713,0.0,0.0,0.0,193.0,1.0,154.0,0.0,43.0,3.0,249.0,410.0,43.0,1017.0,1744252614.825091,0.0,2025-04-09 22:36:54.825,BACKWARD,5
51.0,18099.034500006976,3297.038769368979,-65951.52657646258,-64326.666513284035,-38369.67508431376,-35999.65256448419,-31479.615745498628,-22917.824735382168,0.0,0.0,0.0,193.0,1.0,154.0,0.0,43.0,3.0,250.0,410.0,43.0,1018.0,1744252614.8251083,0.0,2025-04-09 22:36:54.825,BACKWARD,5
52.0,18227.98171376964,3306.158281106744,-65968.0668673595,-64301.09611762716,-38432.90816937783,-36059.890515791245,-31176.190814517835,-22971.15599765253,0.0,0.0,0.0,193.0,1.0,155.0,0.0,43.0,3.0,252.0,411.0,43.0,1020.0,1744252614.82515,0.0,2025-04-09 22:36:54.825,BACKWARD,5
53.0,18242.443292432225,3325.872519716325,-65924.9056488163,-64313.948370688966,-38345.37873809085,-35961.028750065416,-31729.2400275755,-22893.66249962598,0.0,0.0,0.0,193.0,1.0,154.0,0.0,43.0,3.0,249.0,410.0,43.0,1017.0,1744252614.8251593,0.0,2025-04-09 22:36:54.825,BACKWARD,5
54.0,18184.46286731516,3339.6411943007943,-65917.08253825695,-64276.956233615434,-38336.92977868674,-35963.04040706639,-31436.476878699887,-22889.996813535312,0.0,0.0,0.0,193.0,1.0,154.0,0.0,43.0,3.0,249.0,410.0,43.0,1017.0,1744252614.8251684,0.0,2025-04-09 22:36:54.825,BACKWARD,5
55.0,18092.753659815033,3294.4459670121632,-65962.61304171241,-64343.27385941433,-38376.31355241699,-35998.87025342826,-31498.547673052275,-22926.34075001964,0.0,0.0,0.0,193.0,1.0,154.0,0.0,43.0,3.0,250.0,410.0,43.0,1018.0,1744252614.8251777,0.0,2025-04-09 22:36:54.825,BACKWARD,5
56.0,18199.617350055858,3295.8988304017585,-65971.79960868355,-64304.04654789526,-38441.78181192659,-36065.254934460514,-31226.862219198018,-22980.700192534947,0.0,0.0,0.0,193.0,1.0,155.0,0.0,43.0,3.0,252.0,411.0,43.0,1020.0,1744252614.8251865,0.0,2025-04-09 22:36:54.825,BACKWARD,5
57.0,18262.783379886554,3333.248595386576,-65935.45567219921,-64326.867678984134,-38362.12019468787,-35981.21237530856,-31673.11479724822,-22912.01328182379,0.0,0.0,0.0,193.0,1.0,155.0,0.0,43.0,3.0,252.0,411.0,43.0,1020.0,1744252614.8251956,0.0,2025-04-09 22:36:54.825,BACKWARD,5
58.0,18196.868085487855,3344.4021158697747,-65904.56556136197,-64269.17782654498,-38325.17276110325,-35959.10650004226,-31510.841132502694,-22874.864682539068,0.0,0.0,0.0,193.0,1.0,154.0,0.0,43.0,3.0,250.0,410.0,43.0,1018.0,1744252614.8252044,0.0,2025-04-09 22:36:54.825,BACKWARD,5
59.0,18098.766279073512,3298.5810397363953,-65953.62764044138,-64343.296211158784,-38357.56043881899,-35995.293974315406,-31456.928724876492,-22913.53320044675,0.0,0.0,0.0,193.0,1.0,154.0,0.0,43.0,3.0,249.0,410.0,43.0,1017.0,1744252614.8252137,0.0,2025-04-09 22:36:54.825,BACKWARD,5
60.0,18156.411428023748,3274.9552458471353,-65969.74324819366,-64314.61892302262,-38431.7235269217,-36069.76998684049,-31261.909754503937,-22980.990765212868,0.0,0.0,0.0,193.0,1.0,155.0,0.0,43.0,3.0,251.0,411.0,43.0,1019.0,1744252614.8252225,0.0,2025-04-09 22:36:54.825,BACKWARD,5
61.0,18260.928185096764,3318.4070370682525,-65949.33610550596,-64340.368132635136,-38384.091959487436,-36010.76138147848,-31535.226885703432,-22940.9140874045,0.0,0.0,0.0,193.0,1.0,155.0,0.0,43.0,3.0,252.0,411.0,43.0,1020.0,1744252614.8252316,0.0,2025-04-09 22:36:54.825,BACKWARD,5
62.0,18211.843754272908,3346.547883337484,-65887.6005873204,-64261.511178196815,-38313.05811560847,-35946.99185454749,-31603.533816758852,-22874.305888927687,0.0,0.0,0.0,193.0,1.0,155.0,0.0,43.0,3.0,252.0,411.0,43.0,1020.0,1744252614.8252409,0.0,2025-04-09 22:36:54.825,BACKWARD,5
63.0,18112.132622257785,3312.1709003652218,-65951.88420437387,-64339.13878669009,-38361.4049388653,-35991.6953434581,-31426.977387306382,-22916.505982459305,0.0,0.0,0.0,193.0,1.0,154.0,0.0,43.0,3.0,250.0,410.0,43.0,1018.0,1744252614.82525,0.0,2025-04-09 22:36:54.825,BACKWARD,5
64.0,18112.959636802632,3268.808516121926,-65981.05323088804,-64335.24958315487,-38434.98688161217,-36064.69614084913,-31350.24384859131,-22981.59426231316,0.0,0.0,0.0,193.0,1.0,154.0,0.0,43.0,3.0,249.0,410.0,43.0,1017.0,1744252614.8252585,0.0,2025-04-09 22:36:54.825,BACKWARD,5
65.0,18251.629859403358,3312.7296939766043,-65972.29134706156,-64351.54400486279,-38415.27264300259,-36039.37161438127,-31406.88316904106,-22964.53988129376,0.0,0.0,0.0,193.0,1.0,154.0,0.0,43.0,3.0,250.0,410.0,43.0,1018.0,1744252614.8252673,0.0,2025-04-09 22:36:54.825,BACKWARD,5
66.0,18212.38019613984,3338.188330911199,-65896.4071746358,-64280.6219197061,-38318.31077555547,-35946.05308128036,-31697.679364404605,-22869.99200224781,0.0,0.0,0.0,193.0,1.0,155.0,0.0,43.0,3.0,251.0,411.0,43.0,1019.0,1744252614.8252764,0.0,2025-04-09 22:36:54.825,BACKWARD,5
67.0,18132.49506145657,3325.1796156382106,-65938.94254433425,-64326.934734217495,-38346.2504561246,-35981.14532007519,-31400.40116314902,-22901.172685762966,0.0,0.0,0.0,193.0,1.0,154.0,0.0,43.0,3.0,249.0,410.0,43.0,1017.0,1744252614.825291,0.0,2025-04-09 22:36:54.825,BACKWARD,5
68.0,18100.91204654122,3278.0621383264233,-65964.62469871339,-64337.52946108931,-38404.67791613077,-36041.785602782445,-31419.780125591773,-22958.571965524196,0.0,0.0,0.0,193.0,1.0,154.0,0.0,43.0,3.0,248.0,410.0,43.0,1016.0,1744252614.8252995,0.0,2025-04-09 22:36:54.825,BACKWARD,5
69.0,18250.37816171386,3311.433292798197,-65969.56443423801,-64338.7364552899,-38423.1181053064,-36053.90024827722,-31284.61912687053,-22970.1725208965,0.0,0.0,0.0,193.0,1.0,154.0,0.0,44.0,3.0,250.0,410.0,44.0,1018.0,1744252614.8253083,0.0,2025-04-09 22:36:54.825,BACKWARD,5
70.0,18220.404472399292,3337.875406488825,-65897.92709325875,-64294.77057394631,-38318.15431334428,-35945.784860346896,-31750.451833063584,-22875.423476150452,0.0,0.0,0.0,193.0,1.0,155.0,0.0,44.0,3.0,253.0,411.0,44.0,1021.0,1744252614.8253171,0.0,2025-04-09 22:36:54.825,BACKWARD,5
71.0,18145.906108129755,3331.393400596786,-65940.08248330146,-64323.00082719336,-38352.33013061644,-35985.21333756606,-31390.32052639968,-22916.975369092866,0.0,0.0,0.0,193.0,1.0,155.0,0.0,43.0,3.0,251.0,411.0,43.0,1019.0,1744252614.825326,0.0,2025-04-09 22:36:54.825,BACKWARD,5
72.0,18079.94611024214,3282.0183970950125,-65977.25343433063,-64357.154292721076,-38409.237671999654,-36039.63983531473,-31487.863539202637,-22973.03354418678,0.0,0.0,0.0,193.0,1.0,154.0,0.0,44.0,3.0,249.0,410.0,44.0,1017.0,1744252614.8253348,0.0,2025-04-09 22:36:54.825,BACKWARD,5
73.0,18227.735844580635,3297.172879835711,-65987.04349840207,-64339.54111809029,-38452.08596612048,-36078.71068462261,-31226.169315119903,-22998.849809032658,0.0,0.0,0.0,193.0,1.0,154.0,0.0,44.0,3.0,249.0,410.0,44.0,1017.0,1744252614.8253436,0.0,2025-04-09 22:36:54.825,BACKWARD,5
74.0,18246.66777213428,3343.70921179166,-65901.39161364932,-64302.77249846131,-38322.8928831688,-35941.85095332276,-31778.838548521824,-22879.737362830325,0.0,0.0,0.0,193.0,1.0,154.0,0.0,44.0,3.0,250.0,410.0,44.0,1018.0,1744252614.8253524,0.0,2025-04-09 22:36:54.825,BACKWARD,5
75.0,18177.511474789557,3342.5022175910735,-65919.85415456942,-64292.691861711966,-38340.23783686612,-35963.57684893332,-31409.1630469755,-22889.058040268188,0.0,0.0,0.0,193.0,1.0,155.0,0.0,44.0,3.0,252.0,411.0,44.0,1020.0,1744252614.8253613,0.0,2025-04-09 22:36:54.825,BACKWARD,5
76.0,18091.92664527019,3291.4731849996074,-65961.16017832281,-64349.4876443729,-38384.62840135436,-36004.21232035307,-31495.53018755081,-22926.67602618647,0.0,0.0,0.0,193.0,1.0,155.0,0.0,43.0,3.0,252.0,411.0,43.0,1020.0,1744252614.8253703,0.0,2025-04-09 22:36:54.825,BACKWARD,5
77.0,18218.41516714277,3304.392493294775,-65969.45267551574,-64315.3788823341,-38443.03350961608,-36061.6116001143,-31190.49593096923,-22974.8216837432,0.0,0.0,0.0,193.0,1.0,154.0,0.0,44.0,3.0,250.0,410.0,44.0,1018.0,1744252614.8253791,0.0,2025-04-09 22:36:54.825,BACKWARD,5
78.0,18250.355809969406,3334.7908657539924,-65924.0115790381,-64329.50518482986,-38351.503116071595,-35966.99666583499,-31724.65791996216,-22905.687738142937,0.0,0.0,0.0,193.0,1.0,154.0,0.0,44.0,3.0,249.0,410.0,44.0,1017.0,1744252614.825388,0.0,2025-04-09 22:36:54.825,BACKWARD,5
79.0,18190.16256215126,3348.0901537049003,-65910.80169806501,-64285.65106220855,-38339.58963627692,-35966.50492745697,-31469.378646538098,-22897.81992409467,0.0,0.0,0.0,193.0,1.0,155.0,0.0,44.0,3.0,251.0,411.0,44.0,1019.0,1744252614.8253968,0.0,2025-04-09 22:36:54.825,BACKWARD,5
80.0,18095.927607527687,3311.0086096535456,-65955.72870442018,-64353.19803395248,-38377.69936057322,-35999.80902669537,-31500.358164353154,-22933.023921611777,0.0,0.0,0.0,193.0,1.0,155.0,0.0,44.0,3.0,252.0,411.0,44.0,1020.0,1744252614.8254056,0.0,2025-04-09 22:36:54.825,BACKWARD,5
81.0,18188.463829572658,3302.5149467605293,-65960.98136436718,-64310.640312509575,-38439.90426539234,-36065.00906527151,-31234.75238499074,-22985.148189681553,0.0,0.0,0.0,193.0,1.0,155.0,0.0,44.0,3.0,251.0,411.0,44.0,1019.0,1744252614.8254144,0.0,2025-04-09 22:36:54.825,BACKWARD,5
82.0,18265.219720032183,3340.781133268015,-65927.63256163985,-64335.02606571032,-38362.36606387688,-35985.079227099326,-31626.757279247915,-22924.217334296387,0.0,0.0,0.0,193.0,1.0,154.0,0.0,44.0,3.0,250.0,410.0,44.0,1018.0,1744252614.825428,0.0,2025-04-09 22:36:54.825,BACKWARD,5
83.0,18206.23346641463,3358.7519358100817,-65888.22643616515,-64269.758971900825,-38319.47306626714,-35953.5856191618,-31535.539810125807,-22886.91227280048,0.0,0.0,0.0,193.0,1.0,154.0,0.0,44.0,3.0,250.0,410.0,44.0,1018.0,1744252614.8254368,0.0,2025-04-09 22:36:54.825,BACKWARD,5
84.0,18109.40570943424,3322.0727231589226,-65940.55186993502,-64342.64801056958,-38357.515735330075,-35989.3931137792,-31460.460300500432,-22922.406842995508,0.0,0.0,0.0,193.0,1.0,154.0,0.0,44.0,3.0,251.0,410.0,44.0,1019.0,1744252614.8254516,0.0,2025-04-09 22:36:54.825,BACKWARD,5
85.0,18152.432817510704,3296.74819669106,-65956.4663119872,-64313.92601894451,-38427.38728849737,-36059.532887879956,-31300.935900322904,-22982.957718724934,0.0,0.0,0.0,193.0,1.0,155.0,0.0,44.0,3.0,251.0,411.0,44.0,1019.0,1744252614.8254604,0.0,2025-04-09 22:36:54.825,BACKWARD,5
86.0,18271.724077668678,3342.1669414242438,-65940.48481470166,-64336.50128084437,-38387.64588685583,-36010.60491926729,-31503.12978066561,-22948.200756096932,0.0,0.0,0.0,193.0,1.0,155.0,0.0,44.0,3.0,252.0,411.0,44.0,1020.0,1744252614.8254693,0.0,2025-04-09 22:36:54.825,BACKWARD,5
87.0,18209.049786215997,3348.939519994202,-65891.95917748919,-64280.666623195015,-38326.22329309265,-35954.16676451764,-31626.131430403166,-22878.396258163008,0.0,0.0,0.0,193.0,1.0,154.0,0.0,44.0,3.0,249.0,410.0,44.0,1017.0,1744252614.825478,0.0,2025-04-09 22:36:54.825,BACKWARD,5
88.0,18121.207430506638,3323.8608627153476,-65938.5178611896,-64340.435187868505,-38354.230028895145,-35986.42033176665,-31412.202884221424,-22909.129906789054,0.0,0.0,0.0,193.0,1.0,154.0,0.0,44.0,3.0,250.0,410.0,44.0,1018.0,1744252614.825487,0.0,2025-04-09 22:36:54.825,BACKWARD,5
89.0,18121.900334584756,3277.548048203951,-65960.62373645589,-64332.455615097955,-38421.12880004988,-36054.95078026662,-31371.58976454613,-22975.26871863231,0.0,0.0,0.0,193.0,1.0,154.0,0.0,44.0,3.0,249.0,410.0,44.0,1017.0,1744252614.8254955,0.0,2025-04-09 22:36:54.825,BACKWARD,5
90.0,18265.42088573228,3318.9881824240906,-65955.10285557543,-64342.44684486948,-38415.5185121916,-36042.970245238575,-31366.806491232695,-22972.564157553217,0.0,0.0,0.0,193.0,1.0,154.0,0.0,44.0,3.0,249.0,410.0,44.0,1017.0,1744252614.8255043,0.0,2025-04-09 22:36:54.825,BACKWARD,5
91.0,18217.923428764752,3339.7306012786153,-65880.55978781698,-64279.81725690571,-38316.276766810035,-35945.94132255809,-31711.470390733528,-22882.39722042051,0.0,0.0,0.0,193.0,1.0,155.0,0.0,44.0,3.0,252.0,411.0,44.0,1020.0,1744252614.825513,0.0,2025-04-09 22:36:54.825,BACKWARD,5
92.0,18142.553346461456,3331.393400596786,-65922.64812262633,-64316.07178641222,-38341.645996766805,-35973.7915961494,-31386.02899146426,-22906.559456176696,0.0,0.0,0.0,193.0,1.0,155.0,0.0,44.0,3.0,251.0,411.0,44.0,1019.0,1744252614.825522,0.0,2025-04-09 22:36:54.825,BACKWARD,5
93.0,18096.329938927884,3279.582056949384,-65953.33706776347,-64335.338990132695,-38400.18521549526,-36030.90030323271,-31431.335977475166,-22955.77799746728,0.0,0.0,0.0,193.0,1.0,154.0,0.0,44.0,3.0,250.0,410.0,44.0,1018.0,1744252614.8255308,0.0,2025-04-09 22:36:54.825,BACKWARD,5
94.0,18247.27126923457,3308.6840282301937,-65960.69079168925,-64333.61790580963,-38429.28718677607,-36055.01783549999,-31256.008893967737,-22981.683669290982,0.0,0.0,0.0,193.0,1.0,154.0,0.0,44.0,3.0,249.0,410.0,44.0,1017.0,1744252614.8255394,0.0,2025-04-09 22:36:54.825,BACKWARD,5
95.0,18236.43067317375,3343.5080460915624,-65881.25269189509,-64287.68507095398,-38311.649955707784,-35934.4301741636,-31757.98437094502,-22868.785008047227,0.0,0.0,0.0,193.0,1.0,154.0,0.0,44.0,3.0,252.0,410.0,44.0,1020.0,1744252614.825548,0.0,2025-04-09 22:36:54.825,BACKWARD,5
96.0,18158.35602979136,3332.3768773528195,-65920.97174179218,-64308.51689678632,-38342.96474968967,-35971.869346126245,-31376.55185181521,-22901.53031367425,0.0,0.0,0.0,193.0,1.0,155.0,0.0,44.0,3.0,251.0,411.0,44.0,1019.0,1744252614.8255615,0.0,2025-04-09 22:36:54.825,BACKWARD,5
97.0,18082.67302306569,3278.5091732155292,-65960.73549517816,-64351.476949629425,-38395.60310788192,-36021.51257056148,-31481.56034726624,-22953.900450933033,0.0,0.0,0.0,193.0,1.0,155.0,0.0,44.0,3.0,251.0,411.0,44.0,1019.0,1744252614.8255703,0.0,2025-04-09 22:36:54.825,BACKWARD,5
98.0,18225.52302187956,3300.5479932484623,-65969.98911738266,-64328.00761795135,-38444.59813172795,-36065.43374841616,-31236.920504202906,-22986.668108304515,0.0,0.0,0.0,193.0,1.0,154.0,0.0,44.0,3.0,249.0,410.0,44.0,1017.0,1744252614.8255792,0.0,2025-04-09 22:36:54.825,BACKWARD,5
99.0,18252.43452220375,3353.2981101629866,-65889.07580245445,-64301.45374553845,-38318.646051722295,-35933.290235196386,-31845.15617432072,-22874.238833694322,0.0,0.0,0.0,193.0,1.0,154.0,0.0,44.0,3.0,251.0,410.0,44.0,1019.0,1744252614.825588,0.0,2025-04-09 22:36:54.825,BACKWARD,5
100.0,18178.249082356582,3346.1455519372885,-65908.8570962974,-64292.691861711966,-38337.06388915347,-35965.74496814549,-31520.586493085208,-22901.28444448524,0.0,0.0,0.0,193.0,1.0,154.0,0.0,44.0,3.0,249.0,410.0,44.0,1017.0,1744252614.8255966,0.0,2025-04-09 22:36:54.825,BACKWARD,5
101.0,18084.259996922017,3291.4731849996074,-65958.63443119937,-64362.42930441252,-38385.92480253277,-36016.86340771477,-31625.416174580598,-22952.559346265716,0.0,0.0,0.0,193.0,1.0,154.0,0.0,44.0,3.0,251.0,410.0,44.0,1019.0,1744252614.8256056,0.0,2025-04-09 22:36:54.825,BACKWARD,5
102.0,18205.339396636416,3302.0455601269678,-65961.16017832281,-64321.07857717021,-38441.24537005966,-36075.44732993213,-31335.96108388437,-22998.380422399096,0.0,0.0,0.0,193.0,1.0,155.0,0.0,44.0,3.0,251.0,411.0,44.0,1019.0,1744252614.825614,0.0,2025-04-09 22:36:54.825,BACKWARD,5
103.0,18249.41703670228,3333.4274093422187,-65917.5072214016,-64336.188356422,-38354.96763646217,-35974.97623860553,-31843.34568301984,-22926.832488397657,0.0,0.0,0.0,193.0,1.0,155.0,0.0,44.0,3.0,250.0,411.0,44.0,1018.0,1744252614.8256228,0.0,2025-04-09 22:36:54.825,BACKWARD,5
104.0,18188.59794003939,3343.8880257473024,-65896.2060089357,-64283.86292265212,-38329.33018557193,-35961.00639832096,-31622.77866873487,-22899.719822373372,0.0,0.0,0.0,193.0,1.0,154.0,0.0,44.0,3.0,250.0,410.0,44.0,1018.0,1744252614.8256316,0.0,2025-04-09 22:36:54.825,BACKWARD,5
105.0,18093.58067435988,3310.3827608087972,-65942.58587868046,-64352.88510953011,-38359.25917139759,-35992.16473009166,-31621.392860578642,-22930.229953554866,0.0,0.0,0.0,193.0,1.0,154.0,0.0,44.0,3.0,249.0,410.0,44.0,1017.0,1744252614.8256404,0.0,2025-04-09 22:36:54.825,BACKWARD,5
106.0,18163.362820549348,3284.521792474007,-65959.95318412223,-64320.855059725654,-38435.053936845536,-36064.67378910468,-31389.471160110377,-22991.563140340226,0.0,0.0,0.0,193.0,1.0,155.0,0.0,44.0,3.0,252.0,411.0,44.0,1020.0,1744252614.8256495,0.0,2025-04-09 22:36:54.825,BACKWARD,5
107.0,18252.523929181567,3322.162130136744,-65932.058207042,-64344.838481526196,-38370.83737502544,-35984.587488721314,-31750.898867952692,-22927.97242736488,0.0,0.0,0.0,193.0,1.0,155.0,0.0,44.0,3.0,252.0,411.0,44.0,1020.0,1744252614.825658,0.0,2025-04-09 22:36:54.825,BACKWARD,5
108.0,18196.08577443192,3340.0211739565343,-65885.52187508607,-64274.67635568099,-38317.26024356607,-35941.515677155934,-31720.94753038258,-22880.564377375173,0.0,0.0,0.0,193.0,1.0,155.0,0.0,44.0,3.0,251.0,411.0,44.0,1019.0,1744252614.8256671,0.0,2025-04-09 22:36:54.825,BACKWARD,5
109.0,18104.220104720607,3311.0533131424563,-65938.02612281157,-64347.006600738365,-38351.27959862704,-35983.11227358726,-31594.68252595455,-22922.317436017685,0.0,0.0,0.0,193.0,1.0,154.0,0.0,44.0,3.0,250.0,410.0,44.0,1018.0,1744252614.825676,0.0,2025-04-09 22:36:54.825,BACKWARD,5
110.0,18126.795366620467,3274.93289410268,-65962.92596613479,-64333.59555406518,-38424.705079162726,-36061.56689662539,-31462.159033079035,-22984.231768158887,0.0,0.0,0.0,193.0,1.0,154.0,0.0,44.0,3.0,249.0,410.0,44.0,1017.0,1744252614.825685,0.0,2025-04-09 22:36:54.825,BACKWARD,5
111.0,18249.19351925773,3315.8589382003474,-65953.40412299683,-64358.65185959958,-38397.97239279418,-36024.5524078074,-31611.334575573754,-22956.98499166787,0.0,0.0,0.0,193.0,1.0,155.0,0.0,44.0,3.0,251.0,411.0,44.0,1019.0,1744252614.8256984,0.0,2025-04-09 22:36:54.825,BACKWARD,5
112.0,18198.03037619953,3336.579005310417,-65889.52283734355,-64291.03783262227,-38318.31077555547,-35951.75277611647,-31820.54690367543,-22885.772333833258,0.0,0.0,0.0,193.0,1.0,154.0,0.0,44.0,3.0,249.0,410.0,44.0,1017.0,1744252614.8257072,0.0,2025-04-09 22:36:54.825,BACKWARD,5
113.0,18122.637942151778,3329.2699848735315,-65929.5101081741,-64339.518766345835,-38340.50605779959,-35980.385360763714,-31570.117958798168,-22914.02493882477,0.0,0.0,0.0,193.0,1.0,154.0,0.0,44.0,3.0,250.0,410.0,44.0,1018.0,1744252614.825716,0.0,2025-04-09 22:36:54.825,BACKWARD,5
114.0,18098.34159592886,3277.6598069262277,-65963.3730010239,-64347.83361528321,-38414.624442413384,-36052.670902332175,-31548.794394587803,-22973.59233779816,0.0,0.0,0.0,193.0,1.0,154.0,0.0,44.0,3.0,249.0,410.0,44.0,1017.0,1744252614.8257248,0.0,2025-04-09 22:36:54.825,BACKWARD,5
115.0,18245.79605410052,3314.3390195773864,-65964.31177429101,-64356.03670549831,-38420.54765469404,-36050.32396916437,-31498.27945211881,-22976.855692488636,0.0,0.0,0.0,193.0,1.0,154.0,0.0,44.0,3.0,251.0,410.0,44.0,1019.0,1744252614.8257334,0.0,2025-04-09 22:36:54.825,BACKWARD,5
116.0,18207.753385037588,3339.0824006894113,-65891.86977051136,-64302.21370484993,-38318.95897614467,-35949.33878771529,-31910.378564641305,-22885.928796044445,0.0,0.0,0.0,193.0,1.0,155.0,0.0,44.0,3.0,252.0,411.0,44.0,1020.0,1744252614.8257422,0.0,2025-04-09 22:36:54.825,BACKWARD,5
117.0,18132.338599245384,3330.1864063961993,-65931.67822738626,-64334.22140290993,-38345.49049681312,-35981.54765147539,-31564.686484895527,-22912.482668457353,0.0,0.0,0.0,193.0,1.0,155.0,0.0,44.0,3.0,251.0,411.0,44.0,1019.0,1744252614.8257513,0.0,2025-04-09 22:36:54.825,BACKWARD,5
118.0,18076.503941596027,3274.5305627024845,-65963.88709114636,-64355.5896706092,-38401.88394807386,-36033.02371895596,-31623.315110601798,-22962.88585220407,0.0,0.0,0.0,193.0,1.0,155.0,0.0,44.0,3.0,251.0,411.0,44.0,1019.0,1744252614.82576,0.0,2025-04-09 22:36:54.825,BACKWARD,5
119.0,18227.691141091724,3303.9901618945796,-65971.28551856107,-64346.5372141048,-38439.77015492561,-36064.45027166013,-31414.236892966856,-22995.117067708623,0.0,0.0,0.0,193.0,1.0,155.0,0.0,44.0,3.0,249.0,411.0,44.0,1017.0,1744252614.8257685,0.0,2025-04-09 22:36:54.825,BACKWARD,5
120.0,18226.30533293549,3348.850113016381,-65888.22643616515,-64304.091251384176,-38320.63535697882,-35940.86747656673,-31943.637960390803,-22884.967671032868,0.0,0.0,0.0,193.0,1.0,154.0,0.0,44.0,3.0,249.0,410.0,44.0,1017.0,1744252614.8257773,0.0,2025-04-09 22:36:54.825,BACKWARD,5
121.0,18154.44447451168,3347.6878223047047,-65917.82014582398,-64312.27198985482,-38346.78689799153,-35974.1939275496,-31565.468795951463,-22911.476839956864,0.0,0.0,0.0,193.0,1.0,154.0,0.0,44.0,3.0,250.0,410.0,44.0,1018.0,1744252614.8257864,0.0,2025-04-09 22:36:54.825,BACKWARD,5
122.0,18079.14144744175,3291.7637576775264,-65952.10772181842,-64354.22621419743,-38392.1609392358,-36012.88479720173,-31676.869890316713,-22954.705113733427,0.0,0.0,0.0,193.0,1.0,155.0,0.0,44.0,3.0,252.0,411.0,44.0,1020.0,1744252614.825795,0.0,2025-04-09 22:36:54.825,BACKWARD,5
123.0,18225.053635245997,3319.1446446352775,-65955.03580034207,-64317.39053933508,-38443.18997182727,-36056.180126211664,-31388.39827637652,-22992.390154885074,0.0,0.0,0.0,193.0,1.0,154.0,0.0,44.0,3.0,249.0,410.0,44.0,1017.0,1744252614.8258035,0.0,2025-04-09 22:36:54.825,BACKWARD,5
124.0,18246.354847711904,3353.968662496646,-65894.41786937928,-64312.65196951055,-38332.79470596251,-35946.85774408076,-31934.764317842048,-22899.25043573981,0.0,0.0,0.0,193.0,1.0,155.0,0.0,44.0,3.0,252.0,411.0,44.0,1020.0,1744252614.8258123,0.0,2025-04-09 22:36:54.825,BACKWARD,5
125.0,18177.153846878275,3354.750973552582,-65897.27889266955,-64286.38866977557,-38328.81609544946,-35963.59920067778,-31601.700973713516,-22898.803400850702,0.0,0.0,0.0,193.0,1.0,155.0,0.0,44.0,3.0,252.0,411.0,44.0,1020.0,1744252614.8258214,0.0,2025-04-09 22:36:54.825,BACKWARD,5
126.0,18080.326089897884,3303.587830494384,-65945.69277115974,-64357.154292721076,-38369.80919478049,-36006.0004599095,-31659.569640108308,-22942.031674627266,0.0,0.0,0.0,193.0,1.0,155.0,0.0,44.0,3.0,251.0,411.0,44.0,1019.0,1744252614.8258348,0.0,2025-04-09 22:36:54.825,BACKWARD,5
127.0,18182.384155080814,3298.513984503029,-65958.94735562174,-64323.98430394939,-38439.099602591945,-36076.85548983282,-31382.273898395768,-23003.27545443481,0.0,0.0,0.0,193.0,1.0,155.0,0.0,44.0,3.0,249.0,411.0,44.0,1017.0,1744252614.8258436,0.0,2025-04-09 22:36:54.825,BACKWARD,5
128.0,18238.911716808285,3337.875406488825,-65918.17777373527,-64342.75976929186,-38353.44771783921,-35984.20750906557,-31846.83255515487,-22927.994779109333,0.0,0.0,0.0,193.0,1.0,154.0,0.0,44.0,3.0,250.0,410.0,44.0,1018.0,1744252614.8258524,0.0,2025-04-09 22:36:54.825,BACKWARD,5
129.0,18179.27726260153,3350.3923833837966,-65892.49561935611,-64286.65689070903,-38327.676156482245,-35963.53214544441,-31665.49285238896,-22899.42924969545,0.0,0.0,0.0,193.0,1.0,154.0,0.0,44.0,3.0,249.0,410.0,44.0,1017.0,1744252614.8258612,0.0,2025-04-09 22:36:54.825,BACKWARD,5
130.0,18086.517523112005,3312.9308596767023,-65942.63058216937,-64360.26118520036,-38364.82475576696,-35997.88677667222,-31638.760166020416,-22938.790671681247,0.0,0.0,0.0,193.0,1.0,154.0,0.0,44.0,3.0,252.0,410.0,44.0,1020.0,1744252614.82587,0.0,2025-04-09 22:36:54.825,BACKWARD,5
131.0,18154.7350471896,3295.2729815570096,-65953.73939916365,-64323.82784173821,-38431.85763738843,-36061.45513790311,-31434.12994553208,-22982.756553024836,0.0,0.0,0.0,193.0,1.0,155.0,0.0,44.0,3.0,252.0,411.0,44.0,1020.0,1744252614.8258789,0.0,2025-04-09 22:36:54.825,BACKWARD,5
132.0,18247.450083190215,3327.772417995026,-65937.9143640893,-64355.00852525336,-38383.5108141316,-36001.10542787379,-31717.617120458737,-22939.416520525996,0.0,0.0,0.0,193.0,1.0,155.0,0.0,44.0,3.0,252.0,411.0,44.0,1020.0,1744252614.8258877,0.0,2025-04-09 22:36:54.825,BACKWARD,5
133.0,18188.352070850382,3344.357412380864,-65890.37220363285,-64287.95329188744,-38328.01143264907,-35949.919933071134,-31760.08543492382,-22887.49341815632,0.0,0.0,0.0,193.0,1.0,155.0,0.0,44.0,3.0,250.0,411.0,44.0,1018.0,1744252614.8258965,0.0,2025-04-09 22:36:54.825,BACKWARD,5
134.0,18098.05102325094,3317.5353190344954,-65944.59753568143,-64356.6402025986,-38365.696473800715,-35985.88388989972,-31610.038174395348,-22929.40293901002,0.0,0.0,0.0,193.0,1.0,154.0,0.0,44.0,3.0,249.0,410.0,44.0,1017.0,1744252614.825905,0.0,2025-04-09 22:36:54.825,BACKWARD,5
135.0,18114.434851936683,3282.152507561744,-65962.23306205668,-64338.91526924554,-38429.08602107597,-36050.34632090882,-31515.065612204748,-22984.94702398146,0.0,0.0,0.0,193.0,1.0,154.0,0.0,44.0,3.0,249.0,410.0,44.0,1017.0,1744252614.825914,0.0,2025-04-09 22:36:54.825,BACKWARD,5
136.0,18257.17309202827,3334.2767756315206,-65946.98917233816,-64350.80639729577,-38400.07345677298,-36015.72346874756,-31595.62129922167,-22960.941250436455,0.0,0.0,0.0,193.0,1.0,154.0,0.0,44.0,3.0,252.0,410.0,44.0,1020.0,1744252614.8259227,0.0,2025-04-09 22:36:54.825,BACKWARD,5
137.0,18210.390890883315,3357.746107309593,-65882.30322388449,-64287.506256998335,-38316.38852553231,-35936.03949976439,-31854.812127925412,-22881.793723320214,0.0,0.0,0.0,193.0,1.0,155.0,0.0,44.0,3.0,252.0,411.0,44.0,1020.0,1744252614.8259315,0.0,2025-04-09 22:36:54.825,BACKWARD,5
138.0,18121.430947951194,3336.1096186768555,-65939.25546875662,-64346.96189724945,-38357.649845796805,-35982.12879683123,-31573.515423955374,-22922.093918573133,0.0,0.0,0.0,193.0,1.0,155.0,0.0,44.0,3.0,250.0,411.0,44.0,1018.0,1744252614.8259404,0.0,2025-04-09 22:36:54.825,BACKWARD,5
139.0,18098.609816862325,3286.622856452806,-65956.98040210968,-64345.73255130441,-38410.735238878166,-36035.39300386822,-31585.92064212807,-22968.160863895522,0.0,0.0,0.0,193.0,1.0,155.0,0.0,44.0,3.0,249.0,411.0,44.0,1017.0,1744252614.8259492,0.0,2025-04-09 22:36:54.825,BACKWARD,5
140.0,18252.03219080355,3324.9337464492023,-65954.67817243078,-64344.03381872581,-38422.29109076156,-36042.344396393826,-31463.678951701993,-22979.515550078817,0.0,0.0,0.0,193.0,1.0,155.0,0.0,44.0,3.0,251.0,411.0,44.0,1019.0,1744252614.8259575,0.0,2025-04-09 22:36:54.825,BACKWARD,5
141.0,18224.07015848996,3355.2650636750536,-65877.85522673788,-64295.888161169074,-38312.65578420828,-35941.85095332276,-31910.624433830315,-22887.940453045423,0.0,0.0,0.0,193.0,1.0,155.0,0.0,44.0,3.0,252.0,411.0,44.0,1020.0,1744252614.8260095,0.0,2025-04-09 22:36:54.826,BACKWARD,5
142.0,18147.493081986082,3341.7869617685037,-65918.73656734664,-64322.97847544891,-38342.20479037819,-35979.22307005204,-31545.396929430597,-22917.020072581778,0.0,0.0,0.0,193.0,1.0,155.0,0.0,44.0,3.0,253.0,411.0,44.0,1021.0,1744252614.8260183,0.0,2025-04-09 22:36:54.826,BACKWARD,5
143.0,18070.066639192897,3270.7978213784486,-65972.15723659482,-64372.867569073154,-38414.69149764675,-36048.71464356359,-31634.960369463013,-22985.572872826204,0.0,0.0,0.0,193.0,1.0,155.0,0.0,44.0,3.0,252.0,411.0,44.0,1020.0,1744252614.8260272,0.0,2025-04-09 22:36:54.826,BACKWARD,5
144.0,18218.906905520787,3299.6315717257944,-65977.54400700856,-64355.29909793128,-38453.76234695463,-36080.61058290131,-31400.199997448923,-23014.49603015137,0.0,0.0,0.0,193.0,1.0,155.0,0.0,44.0,3.0,252.0,411.0,44.0,1020.0,1744252614.826036,0.0,2025-04-09 22:36:54.826,BACKWARD,5
145.0,18223.332550922936,3336.7354675216043,-65899.3576049039,-64323.89489697158,-38333.889941440815,-35952.579790661315,-31945.962541814155,-22897.77522060576,0.0,0.0,0.0,193.0,1.0,154.0,0.0,44.0,3.0,251.0,410.0,44.0,1019.0,1744252614.8260446,0.0,2025-04-09 22:36:54.826,BACKWARD,5
146.0,18156.903166401764,3338.098923933378,-65919.4071196803,-64317.45759456845,-38348.59738929241,-35975.66914268365,-31577.516386212876,-22913.01911032428,0.0,0.0,0.0,193.0,1.0,154.0,0.0,44.0,3.0,250.0,410.0,44.0,1018.0,1744252614.8260531,0.0,2025-04-09 22:36:54.826,BACKWARD,5
147.0,18078.359136385818,3294.267153056521,-65952.4653497297,-64363.09985674619,-38384.427235654264,-36012.59422452381,-31670.0749600023,-22952.604049754627,0.0,0.0,0.0,193.0,1.0,154.0,0.0,44.0,3.0,250.0,410.0,44.0,1018.0,1744252614.826062,0.0,2025-04-09 22:36:54.826,BACKWARD,5
148.0,18201.003158212086,3297.0834728578893,-65970.34674529395,-64340.47989135741,-38451.59422774246,-36078.196594500136,-31365.57714528765,-23005.823553302715,0.0,0.0,0.0,193.0,1.0,155.0,0.0,44.0,3.0,252.0,411.0,44.0,1020.0,1744252614.8260708,0.0,2025-04-09 22:36:54.826,BACKWARD,5
149.0,18229.83690855943,3330.4099238407525,-65915.49556440063,-64342.15627219156,-38349.04442418151,-35963.10746229976,-31903.471875604617,-22906.559456176696,0.0,0.0,0.0,193.0,1.0,154.0,0.0,44.0,3.0,251.0,410.0,44.0,1019.0,1744252614.8260794,0.0,2025-04-09 22:36:54.826,BACKWARD,5
150.0,18163.787503694,3339.037697200501,-65910.01938700907,-64302.63838799458,-38340.595464777405,-35967.600162935276,-31617.97304367698,-22894.48951417083,0.0,0.0,0.0,193.0,1.0,154.0,0.0,44.0,3.0,251.0,410.0,44.0,1019.0,1744252614.826088,0.0,2025-04-09 22:36:54.826,BACKWARD,5
151.0,18078.873226508287,3306.247688084565,-65940.93184959076,-64356.28257468731,-38363.61776156638,-35991.158901591174,-31657.73679706297,-22913.734366146848,0.0,0.0,0.0,193.0,1.0,154.0,0.0,44.0,3.0,252.0,410.0,44.0,1020.0,1744252614.8260968,0.0,2025-04-09 22:36:54.826,BACKWARD,5
152.0,18179.299614345982,3302.9172781607244,-65949.02318108358,-64316.60822827915,-38430.11420132091,-36059.666998346685,-31381.49158733983,-22973.63704128707,0.0,0.0,0.0,193.0,1.0,154.0,0.0,44.0,3.0,250.0,410.0,44.0,1018.0,1744252614.8261056,0.0,2025-04-09 22:36:54.826,BACKWARD,5
153.0,18246.399551200815,3334.3661826093416,-65918.24482896863,-64342.87152801413,-38356.28638938504,-35977.680799684626,-31799.58096737635,-22913.15322079101,0.0,0.0,0.0,193.0,1.0,155.0,0.0,44.0,3.0,252.0,411.0,44.0,1020.0,1744252614.8261144,0.0,2025-04-09 22:36:54.826,BACKWARD,5
154.0,18189.894341217798,3347.196083926688,-65881.74443027312,-64278.498503982846,-38316.544987743495,-35949.07056678183,-31686.74936136596,-22876.98809826232,0.0,0.0,0.0,193.0,1.0,155.0,0.0,44.0,3.0,252.0,411.0,44.0,1020.0,1744252614.8261232,0.0,2025-04-09 22:36:54.826,BACKWARD,5
155.0,18102.364909930817,3317.8482434568696,-65928.79485235154,-64346.49251061589,-38350.09495617091,-35980.00538110798,-31626.913741459102,-22910.649825412016,0.0,0.0,0.0,193.0,1.0,155.0,0.0,44.0,3.0,251.0,411.0,44.0,1019.0,1744252614.8261318,0.0,2025-04-09 22:36:54.826,BACKWARD,5
156.0,18142.955677861653,3296.0105891240346,-65947.68207641627,-64320.184507392,-38422.2687390171,-36054.72726282207,-31445.41757648201,-22970.59720404115,0.0,0.0,0.0,193.0,1.0,155.0,0.0,44.0,3.0,252.0,411.0,44.0,1020.0,1744252614.8261456,0.0,2025-04-09 22:36:54.826,BACKWARD,5
157.0,18250.288754736037,3330.7675517520374,-65929.80068085201,-64344.436150126,-38375.37477914987,-36001.12777961824,-31665.69401808906,-22930.408767510507,0.0,0.0,0.0,193.0,1.0,155.0,0.0,44.0,3.0,251.0,411.0,44.0,1019.0,1744252614.8261545,0.0,2025-04-09 22:36:54.826,BACKWARD,5
158.0,18191.54837030749,3337.7636477665483,-65878.10109592689,-64277.515027226815,-38310.48766499611,-35945.67310162462,-31763.728769270037,-22869.343801658608,0.0,0.0,0.0,193.0,1.0,154.0,0.0,44.0,3.0,251.0,410.0,44.0,1019.0,1744252614.8261633,0.0,2025-04-09 22:36:54.826,BACKWARD,5
159.0,18103.14722098675,3313.6684672437273,-65927.56550640649,-64338.71410354544,-38342.20479037819,-35980.09478808579,-31574.20832803349,-22904.681909642448,0.0,0.0,0.0,193.0,1.0,154.0,0.0,44.0,3.0,250.0,410.0,44.0,1018.0,1744252614.826172,0.0,2025-04-09 22:36:54.826,BACKWARD,5
160.0,18108.511639656026,3277.615103437317,-65945.93864034876,-64323.55962080474,-38408.92474757728,-36044.04312897243,-31520.452382618474,-22961.857671959126,0.0,0.0,0.0,193.0,1.0,155.0,0.0,44.0,3.0,250.0,411.0,44.0,1018.0,1744252614.8261805,0.0,2025-04-09 22:36:54.826,BACKWARD,5
161.0,18249.282926235548,3320.217528369132,-65945.62571592638,-64339.250545412375,-38404.499102175134,-36030.22975089905,-31544.033473018822,-22957.052046901234,0.0,0.0,0.0,193.0,1.0,155.0,0.0,44.0,3.0,251.0,411.0,44.0,1019.0,1744252614.8261893,0.0,2025-04-09 22:36:54.826,BACKWARD,5
162.0,18209.966207738664,3349.811238027959,-65870.9038342123,-64270.384820745574,-38305.12324632684,-35935.480706153,-31874.101683390345,-22855.016333462758,0.0,0.0,0.0,193.0,1.0,155.0,0.0,45.0,3.0,251.0,411.0,45.0,1019.0,1744252614.826198,0.0,2025-04-09 22:36:54.826,BACKWARD,5
163.0,18134.462014968638,3342.6363280578053,-65908.4100614083,-64303.308940328236,-38325.44098203671,-35966.147299545686,-31554.53879291282,-22869.05322898069,0.0,0.0,0.0,193.0,1.0,154.0,0.0,44.0,3.0,249.0,410.0,44.0,1017.0,1744252614.8262067,0.0,2025-04-09 22:36:54.826,BACKWARD,5
164.0,18091.658424336725,3284.8794203852917,-65941.35653273542,-64317.61405677963,-38387.75764557811,-36029.15686716519,-31586.121807828167,-22923.30091277372,0.0,0.0,0.0,193.0,1.0,155.0,0.0,44.0,3.0,252.0,411.0,44.0,1020.0,1744252614.8262153,0.0,2025-04-09 22:36:54.826,BACKWARD,5
165.0,18236.251859218104,3307.901717174258,-65955.0134485976,-64316.78704223479,-38417.4184104703,-36050.21221044209,-31429.011396051814,-22943.305724061218,0.0,0.0,0.0,193.0,1.0,155.0,0.0,44.0,3.0,250.0,411.0,44.0,1018.0,1744252615.3059595,0.0,2025-04-09 22:36:55.305,BACKWARD,5
166.0,18215.017701985562,3344.335060636409,-65875.53064531453,-64264.32749799818,-38294.37205724383,-35932.28440669589,-31919.31926242343,-22837.112586154057,0.0,0.0,0.0,193.0,1.0,155.0,0.0,45.0,3.0,251.0,411.0,45.0,1019.0,1744252615.3059988,0.0,2025-04-09 22:36:55.305,BACKWARD,5
167.0,18141.21224179414,3338.478903589118,-65911.69576784322,-64279.05729759423,-38317.48376101062,-35965.566154189844,-31544.324045696743,-22861.274821910243,0.0,0.0,0.0,193.0,1.0,154.0,0.0,44.0,3.0,249.0,410.0,44.0,1017.0,1744252615.3060188,0.0,2025-04-09 22:36:55.306,BACKWARD,5
168.0,18081.801305031935,3296.971714135613,-65937.6684949003,-64303.19718160596,-38359.39328186432,-36004.41348605317,-31639.922456732093,-22906.76062187679,0.0,0.0,0.0,193.0,1.0,154.0,0.0,44.0,3.0,250.0,410.0,44.0,1018.0,1744252615.306039,0.0,2025-04-09 22:36:55.306,BACKWARD,5
169.0,18230.775681826555,3323.0114964260456,-65944.15050079233,-64274.363431258615,-38404.74497136414,-36046.90415226271,-31357.798738217207,-22946.323209562684,0.0,0.0,0.0,193.0,1.0,155.0,0.0,44.0,3.0,252.0,411.0,44.0,1020.0,1744252615.3060591,0.0,2025-04-09 22:36:55.306,BACKWARD,5
170.0,18228.115824236374,3346.1232001928333,-65885.9018547418,-64262.271137508294,-38303.15629281477,-35934.944264286074,-31905.03649771649,-22842.02996993422,0.0,0.0,0.0,193.0,1.0,155.0,0.0,44.0,3.0,251.0,411.0,44.0,1019.0,1744252615.30611,0.0,2025-04-09 22:36:55.306,BACKWARD,5
171.0,18149.92942213171,3335.170845409733,-65910.48877364263,-64255.02917230478,-38325.843313436904,-35963.77801463342,-31557.44451969201,-22863.28647891122,0.0,0.0,0.0,193.0,1.0,156.0,0.0,44.0,3.0,252.0,412.0,44.0,1020.0,1744252615.3061273,0.0,2025-04-09 22:36:55.306,BACKWARD,5
172.0,18067.47383683608,3293.574248978406,-65950.09606481744,-64308.53924853078,-38371.82085178147,-36001.84303544081,-31658.98849475247,-22906.067717798676,0.0,0.0,0.0,193.0,1.0,155.0,0.0,44.0,3.0,250.0,411.0,44.0,1018.0,1744252615.3061366,0.0,2025-04-09 22:36:55.306,BACKWARD,5
173.0,18198.343300621906,3314.450778299663,-65946.94446884924,-64258.69485839544,-38420.05591631602,-36048.37936739676,-31363.051398164203,-22938.567154236694,0.0,0.0,0.0,193.0,1.0,154.0,0.0,44.0,3.0,249.0,410.0,44.0,1017.0,1744252615.3061457,0.0,2025-04-09 22:36:55.306,BACKWARD,5
174.0,18241.973905798663,3344.960909481157,-65893.99318623461,-64262.5170066973,-38317.170836588244,-35940.30868295535,-31863.126976862786,-22854.36813287355,0.0,0.0,0.0,193.0,1.0,154.0,0.0,45.0,3.0,251.0,410.0,45.0,1019.0,1744252615.3061547,0.0,2025-04-09 22:36:55.306,BACKWARD,5
175.0,18175.45511429967,3344.6926885476937,-65884.20312216319,-64217.724110808864,-38308.63247020632,-35942.40974693415,-31612.25099709642,-22851.887089239015,0.0,0.0,0.0,193.0,1.0,155.0,0.0,44.0,3.0,251.0,411.0,44.0,1019.0,1744252615.3061635,0.0,2025-04-09 22:36:55.306,BACKWARD,5
176.0,18080.795476531446,3301.4420630266745,-65935.00863731011,-64291.350757044645,-38348.150354403304,-35985.61566896625,-31635.049776440836,-22903.184342763943,0.0,0.0,0.0,193.0,1.0,155.0,0.0,44.0,3.0,251.0,411.0,44.0,1019.0,1744252615.3061726,0.0,2025-04-09 22:36:55.306,BACKWARD,5
177.0,18168.235500840605,3302.358484549342,-65936.30503848851,-64241.12638725357,-38404.81202659751,-36039.393966125725,-31382.385657118044,-22935.840241413145,0.0,0.0,0.0,193.0,1.0,155.0,0.0,44.0,3.0,252.0,411.0,44.0,1020.0,1744252615.3061814,0.0,2025-04-09 22:36:55.306,BACKWARD,5
178.0,18249.014705302085,3338.747124522582,-65915.65202661182,-64271.703573668434,-38345.11051715738,-35970.12591005873,-31745.646208005695,-22881.681964597938,0.0,0.0,0.0,193.0,1.0,155.0,0.0,45.0,3.0,251.0,411.0,45.0,1019.0,1744252615.3061905,0.0,2025-04-09 22:36:55.306,BACKWARD,5
179.0,18196.93514072122,3358.416659643252,-65868.66865976676,-64200.17799141145,-38292.494510709585,-35925.89180778168,-31698.03699231589,-22830.004731417266,0.0,0.0,0.0,193.0,1.0,155.0,0.0,45.0,3.0,249.0,411.0,45.0,1017.0,1744252615.3061996,0.0,2025-04-09 22:36:55.306,BACKWARD,5
180.0,18103.929532042686,3327.2359761280986,-65920.43529992524,-64271.43535273497,-38326.06683088146,-35957.050139552375,-31591.173302075065,-22864.47112136735,0.0,0.0,0.0,193.0,1.0,154.0,0.0,44.0,3.0,249.0,410.0,44.0,1017.0,1744252615.3062084,0.0,2025-04-09 22:36:55.306,BACKWARD,5
181.0,18124.470785197114,3283.5606674624287,-65954.40995149732,-64263.14285554205,-38409.50589293312,-36042.254989416004,-31443.785899136772,-22940.31059030421,0.0,0.0,0.0,193.0,1.0,155.0,0.0,44.0,3.0,252.0,411.0,44.0,1020.0,1744252615.3062172,0.0,2025-04-09 22:36:55.306,BACKWARD,5
182.0,18242.51034766559,3321.1115981473445,-65944.26225951461,-64290.657852966535,-38376.961753006195,-36004.793465708906,-31621.72813674547,-22918.227066782365,0.0,0.0,0.0,193.0,1.0,155.0,0.0,44.0,3.0,251.0,411.0,44.0,1019.0,1744252615.306226,0.0,2025-04-09 22:36:55.306,BACKWARD,5
183.0,18184.373460337338,3334.3438308648865,-65888.42760186525,-64228.67646559197,-38304.16212131526,-35939.861648066246,-31799.312746442887,-22851.551813072183,0.0,0.0,0.0,193.0,1.0,154.0,0.0,45.0,3.0,250.0,410.0,45.0,1018.0,1744252615.3062348,0.0,2025-04-09 22:36:55.306,BACKWARD,5
184.0,18106.567037888413,3323.8608627153476,-65930.40417795231,-64277.939710371465,-38329.33018557193,-35964.40386347817,-31570.229717520444,-22872.897729027,0.0,0.0,0.0,193.0,1.0,154.0,0.0,44.0,3.0,249.0,410.0,44.0,1017.0,1744252615.306244,0.0,2025-04-09 22:36:55.306,BACKWARD,5
185.0,18098.67687209569,3285.5052692300405,-65947.79383513854,-64266.7191346549,-38385.38836066584,-36019.07623041585,-31533.014063002356,-22922.540953462238,0.0,0.0,0.0,193.0,1.0,155.0,0.0,44.0,3.0,252.0,411.0,44.0,1020.0,1744252615.3062577,0.0,2025-04-09 22:36:55.306,BACKWARD,5
186.0,18240.878670320355,3318.652906257261,-65948.50909096112,-64280.174884816995,-38384.62840135436,-36010.4484570561,-31478.498158275863,-22917.221238281876,0.0,0.0,0.0,193.0,1.0,155.0,0.0,44.0,3.0,251.0,411.0,44.0,1019.0,1744252615.3062668,0.0,2025-04-09 22:36:55.306,BACKWARD,5
187.0,18200.533771578524,3337.4730750886292,-65883.01847970707,-64231.13515748205,-38292.919193854235,-35921.5779211018,-31863.283439073974,-22841.448824578387,0.0,0.0,0.0,193.0,1.0,155.0,0.0,45.0,3.0,251.0,411.0,45.0,1019.0,1744252615.3062756,0.0,2025-04-09 22:36:55.306,BACKWARD,5
188.0,18121.006264806543,3332.1757116527215,-65928.92896281826,-64269.35664050063,-38327.676156482245,-35960.40290122067,-31539.563124127762,-22880.564377375173,0.0,0.0,0.0,193.0,1.0,154.0,0.0,44.0,3.0,249.0,410.0,44.0,1017.0,1744252615.3062847,0.0,2025-04-09 22:36:55.306,BACKWARD,5
189.0,18080.840180020354,3286.332283774887,-65950.69956191773,-64282.56652147372,-38377.36408440639,-36007.855654699284,-31600.426924279564,-22922.093918573133,0.0,0.0,0.0,193.0,1.0,154.0,0.0,44.0,3.0,250.0,410.0,44.0,1018.0,1744252615.3062935,0.0,2025-04-09 22:36:55.306,BACKWARD,5
190.0,18234.866051061876,3309.220470097121,-65956.68982943175,-64274.162265558516,-38405.348468464435,-36034.297768389915,-31391.862796767095,-22941.36112229361,0.0,0.0,0.0,193.0,1.0,154.0,0.0,45.0,3.0,250.0,410.0,45.0,1018.0,1744252615.3063023,0.0,2025-04-09 22:36:55.306,BACKWARD,5
191.0,18214.570667096457,3333.9191477202357,-65887.46647685367,-64246.93784081195,-38296.38371424481,-35928.506961882944,-31905.483532605595,-22850.72479852734,0.0,0.0,0.0,193.0,1.0,155.0,0.0,45.0,3.0,250.0,411.0,45.0,1018.0,1744252615.3063111,0.0,2025-04-09 22:36:55.306,BACKWARD,5
192.0,18139.871137126822,3332.6003947973722,-65914.82501206697,-64252.86105309261,-38318.73545870012,-35955.75373837397,-31535.137478725614,-22877.502188384795,0.0,0.0,0.0,193.0,1.0,155.0,0.0,44.0,3.0,252.0,411.0,44.0,1020.0,1744252615.30632,0.0,2025-04-09 22:36:55.306,BACKWARD,5
193.0,18058.108455909307,3274.1505830467445,-65958.34385852145,-64300.76084146033,-38373.96661924918,-36009.53203553343,-31636.88261948617,-22934.096805345634,0.0,0.0,0.0,193.0,1.0,155.0,0.0,44.0,3.0,251.0,411.0,44.0,1019.0,1744252615.3063288,0.0,2025-04-09 22:36:55.306,BACKWARD,5
194.0,18201.02550995654,3294.55772573444,-65969.02799237109,-64274.38578300307,-38424.99565184065,-36057.8118035569,-31348.411005545975,-22967.043276672757,0.0,0.0,0.0,193.0,1.0,155.0,0.0,44.0,3.0,250.0,411.0,44.0,1018.0,1744252615.3063378,0.0,2025-04-09 22:36:55.306,BACKWARD,5
195.0,18225.925353279752,3336.713115777149,-65897.74827930311,-64255.275041493784,-38305.32441202694,-35929.848066550265,-31898.59919531336,-22847.103815925577,0.0,0.0,0.0,193.0,1.0,154.0,0.0,45.0,3.0,249.0,410.0,45.0,1017.0,1744252615.306347,0.0,2025-04-09 22:36:55.306,BACKWARD,5
196.0,18159.16069259175,3342.1669414242438,-65901.61513109387,-64227.78239581375,-38307.06784809445,-35941.5827323893,-31561.221964504955,-22848.46727233735,0.0,0.0,0.0,193.0,1.0,155.0,0.0,44.0,3.0,249.0,411.0,44.0,1017.0,1744252615.3063557,0.0,2025-04-09 22:36:55.306,BACKWARD,5
197.0,18070.29015663745,3294.6024292233506,-65945.93864034876,-64289.51791399931,-38347.166877647265,-35979.24542179649,-31635.228590396477,-22895.24947348231,0.0,0.0,0.0,193.0,1.0,155.0,0.0,44.0,3.0,251.0,411.0,44.0,1019.0,1744252615.3063643,0.0,2025-04-09 22:36:55.306,BACKWARD,5
198.0,18180.864236457855,3296.3458652908644,-65957.69565793224,-64253.889233337555,-38412.00928831212,-36044.33370165035,-31340.409081030975,-22955.06274164471,0.0,0.0,0.0,193.0,1.0,155.0,0.0,44.0,3.0,251.0,411.0,44.0,1019.0,1744252615.3063731,0.0,2025-04-09 22:36:55.306,BACKWARD,5
199.0,18238.867013319377,3340.6917262901934,-65909.17002071977,-64263.3663729866,-38317.05907786597,-35941.91800855613,-31825.352528733318,-22877.77040931826,0.0,0.0,0.0,193.0,1.0,154.0,0.0,45.0,3.0,249.0,410.0,45.0,1017.0,1744252615.306382,0.0,2025-04-09 22:36:55.306,BACKWARD,5
