Sample Index,EXG Channel 0,EXG Channel 1,EXG Channel 2,EXG Channel 3,EXG Channel 4,EXG Channel 5,EXG Channel 6,EXG Channel 7,Accel Channel 0,Accel Channel 1,Accel Channel 2,Not Used,Digital Channel 0 (D11),Digital Channel 1 (D12),Digital Channel 2 (D13),Digital Channel 3 (D17),Not Used,Digital Channel 4 (D18),Analog Channel 0,Analog Channel 1,Analog Channel 2,Timestamp,Marker Channel,Timestamp (Formatted),Stimulus_Direction,Stimulus_Number
169.0,13962.218339707655,2082.8473070677887,-61840.90666066488,-59052.99592649889,-35435.025147798675,-32814.46192436956,-19181.171856066212,-21927.91067694553,0.0,0.0,0.0,193.0,1.0,155.0,0.0,10.0,3.0,252.0,411.0,10.0,1020.0,1744252741.728106,0.0,2025-04-09 22:39:01.728,BACKWARD,21
170.0,13962.665374596761,2104.5955544228023,-61792.62689264142,-59068.75390633988,-35345.75228044418,-32722.551551169345,-19599.9764919253,-21857.90501331151,0.0,0.0,0.0,193.0,1.0,154.0,0.0,9.0,3.0,249.0,410.0,9.0,1017.0,1744252741.7281148,0.0,2025-04-09 22:39:01.728,BACKWARD,21
171.0,13900.907504666748,2102.1368625327186,-61806.86495385945,-59050.961917753455,-35351.04964388009,-32742.33284501229,-19285.465095694675,-21871.51722568479,0.0,0.0,0.0,193.0,1.0,155.0,0.0,9.0,3.0,250.0,411.0,9.0,1018.0,1744252741.7281234,0.0,2025-04-09 22:39:01.728,BACKWARD,21
172.0,13833.49464338954,2061.0096527349538,-61840.839605431516,-59102.86266837868,-35391.260432155184,-32781.80602572036,-19388.84191380047,-21913.76202270532,0.0,0.0,0.0,193.0,1.0,155.0,0.0,8.0,3.0,252.0,411.0,8.0,1020.0,1744252741.728132,0.0,2025-04-09 22:39:01.728,BACKWARD,21
173.0,13944.225185421132,2071.6267313512244,-61840.10199786449,-59047.27387991833,-35438.042633300145,-32825.86131404177,-19153.187472008165,-21951.223546412417,0.0,0.0,0.0,193.0,1.0,154.0,0.0,7.0,3.0,250.0,410.0,7.0,1018.0,1744252741.7281408,0.0,2025-04-09 22:39:01.728,BACKWARD,21
174.0,13969.1473804888,2090.268086226951,-61811.4917649617,-59094.234895018926,-35364.81831846456,-32746.400862503157,-19580.30695680463,-21893.131362573073,0.0,0.0,0.0,193.0,1.0,155.0,0.0,7.0,3.0,252.0,411.0,7.0,1020.0,1744252741.7281497,0.0,2025-04-09 22:39:01.728,BACKWARD,21
175.0,13907.925952425714,2094.0231792954423,-61805.21092476975,-59046.759789795855,-35356.525821271636,-32748.81485090433,-19316.086985598446,-21876.121685042584,0.0,0.0,0.0,193.0,1.0,154.0,0.0,7.0,3.0,249.0,410.0,7.0,1017.0,1744252741.728161,0.0,2025-04-09 22:39:01.728,BACKWARD,21
176.0,13833.584050367363,2061.993129490987,-61842.515986265666,-59112.898601639106,-35385.13605417443,-32781.67191525363,-19395.21216097023,-21914.521982016802,0.0,0.0,0.0,193.0,1.0,154.0,0.0,6.0,3.0,251.0,410.0,6.0,1019.0,1744252741.7281737,0.0,2025-04-09 22:39:01.728,BACKWARD,21
177.0,13908.75296697056,2060.2720451679284,-61840.43727403132,-59047.54210085179,-35437.550894922126,-32828.252950698494,-19167.537291948473,-21946.95436322145,0.0,0.0,0.0,193.0,1.0,154.0,0.0,6.0,3.0,249.0,410.0,6.0,1017.0,1744252741.7281823,0.0,2025-04-09 22:39:01.728,BACKWARD,21
178.0,13977.842209081915,2097.219478752551,-61819.292523776596,-59096.02303457535,-35381.42566459485,-32754.000455617963,-19532.049540525622,-21891.38792650556,0.0,0.0,0.0,193.0,1.0,154.0,0.0,6.0,3.0,252.0,410.0,6.0,1020.0,1744252741.7281911,0.0,2025-04-09 22:39:01.728,BACKWARD,21
179.0,13921.560516543452,2096.7277403745343,-61796.851372343466,-59038.75786528085,-35353.57539100354,-32738.555400199344,-19383.36573640892,-21873.551234430222,0.0,0.0,0.0,193.0,1.0,154.0,0.0,5.0,3.0,250.0,410.0,5.0,1018.0,1744252741.7282,0.0,2025-04-09 22:39:01.728,BACKWARD,21
180.0,13843.396466183242,2069.100984227775,-61839.9455356533,-59106.662464936075,-35378.43053083784,-32760.370702787724,-19370.60289032494,-21889.778600904778,0.0,0.0,0.0,193.0,1.0,154.0,0.0,5.0,3.0,252.0,410.0,5.0,1020.0,1744252741.7282088,0.0,2025-04-09 22:39:01.728,BACKWARD,21
181.0,13883.920178880713,2048.9173589846323,-61841.107826364976,-59051.90069102057,-35432.38764195295,-32813.83607552482,-19211.860801203347,-21932.24691536986,0.0,0.0,0.0,193.0,1.0,154.0,0.0,5.0,3.0,251.0,410.0,5.0,1019.0,1744252741.7282174,0.0,2025-04-09 22:39:01.728,BACKWARD,21
182.0,13984.43597369623,2085.8871443137105,-61830.066064604056,-59095.50894445288,-35395.86489151298,-32773.82645294982,-19427.80100438607,-21911.683310470977,0.0,0.0,0.0,193.0,1.0,154.0,0.0,5.0,3.0,250.0,410.0,5.0,1018.0,1744252741.728226,0.0,2025-04-09 22:39:01.728,BACKWARD,21
183.0,13928.936592213702,2092.5256124169364,-61792.76100310815,-59046.0892374622,-35347.294550811595,-32738.354234499246,-19452.633792475914,-21874.154731530518,0.0,0.0,0.0,193.0,1.0,154.0,0.0,5.0,3.0,250.0,410.0,5.0,1018.0,1744252741.7282348,0.0,2025-04-09 22:39:01.728,BACKWARD,21
184.0,13862.93189083718,2083.830783823822,-61832.52475649414,-59100.73925265542,-35372.97670519075,-32766.159804601648,-19357.01302969611,-21905.313063301215,0.0,0.0,0.0,193.0,1.0,155.0,0.0,4.0,3.0,251.0,411.0,4.0,1019.0,1744252741.7282434,0.0,2025-04-09 22:39:01.728,BACKWARD,21
185.0,13862.350745481343,2048.1797514176073,-61839.096169364,-59067.14458073909,-35418.037822012644,-32815.40069763669,-19288.236712007132,-21939.15360440655,0.0,0.0,0.0,193.0,1.0,154.0,0.0,4.0,3.0,251.0,410.0,4.0,1019.0,1744252741.728252,0.0,2025-04-09 22:39:01.728,BACKWARD,21
186.0,13973.81889507996,2073.325463929828,-61842.33717231002,-59093.76550838537,-35412.47223764327,-32807.01879346595,-19325.430014780763,-21929.117671146116,0.0,0.0,0.0,193.0,1.0,155.0,0.0,4.0,3.0,251.0,411.0,4.0,1019.0,1744252741.7282612,0.0,2025-04-09 22:39:01.728,BACKWARD,21
187.0,13943.66639180975,2093.5314409174252,-61784.22263672622,-59051.67717357602,-35335.02344310563,-32728.18419077208,-19522.14771773192,-21851.80298707521,0.0,0.0,0.0,193.0,1.0,154.0,0.0,4.0,3.0,250.0,410.0,4.0,1018.0,1744252741.7282698,0.0,2025-04-09 22:39:01.728,BACKWARD,21
188.0,13869.50330370704,2083.3166937013502,-61825.930991879824,-59088.6469589051,-35363.030178908135,-32761.331827799302,-19305.42520349326,-21881.351993245127,0.0,0.0,0.0,193.0,1.0,154.0,0.0,4.0,3.0,252.0,410.0,4.0,1020.0,1744252741.7282784,0.0,2025-04-09 22:39:01.728,BACKWARD,21
189.0,13831.572393366385,2039.2390536354847,-61847.81334970157,-59093.184363029526,-35413.52276963267,-32812.56202609087,-19337.075273641978,-21930.704645002443,0.0,0.0,0.0,193.0,1.0,154.0,0.0,4.0,3.0,249.0,410.0,4.0,1017.0,1744252741.728287,0.0,2025-04-09 22:39:01.728,BACKWARD,21
190.0,13961.637194351817,2068.810411549856,-61847.92510842385,-59083.818982102755,-35432.54410416414,-32826.844790797804,-19238.682894549715,-21955.269212158826,0.0,0.0,0.0,193.0,1.0,154.0,0.0,4.0,3.0,249.0,410.0,4.0,1017.0,1744252741.7282956,0.0,2025-04-09 22:39:01.728,BACKWARD,21
191.0,13956.51864487155,2099.1417287757076,-61777.27124420062,-59059.36617366865,-35326.41802149034,-32715.577806899288,-19588.10771561953,-21858.240289478337,0.0,0.0,0.0,193.0,1.0,155.0,0.0,4.0,3.0,251.0,411.0,4.0,1019.0,1744252741.728309,0.0,2025-04-09 22:39:01.728,BACKWARD,21
192.0,13891.676234206705,2097.577106663836,-61805.07681430302,-59060.61787135815,-35344.65704496587,-32741.729347911998,-19281.57589215945,-21869.594975661636,0.0,0.0,0.0,193.0,1.0,154.0,0.0,4.0,3.0,250.0,410.0,4.0,1018.0,1744252741.7283175,0.0,2025-04-09 22:39:01.728,BACKWARD,21
193.0,13824.643352585239,2048.1126961842415,-61842.11365486547,-59100.60514218869,-35394.88141475694,-32790.366743846746,-19374.73796304917,-21913.80672619423,0.0,0.0,0.0,193.0,1.0,155.0,0.0,3.0,3.0,252.0,411.0,3.0,1020.0,1744252741.7283263,0.0,2025-04-09 22:39:01.728,BACKWARD,21
194.0,13939.866595252348,2060.4732108680264,-61846.986335156726,-59062.78599057031,-35435.13690652095,-32825.816610552865,-19163.804550624438,-21943.512194575334,0.0,0.0,0.0,193.0,1.0,154.0,0.0,3.0,3.0,250.0,410.0,3.0,1018.0,1744252741.7283351,0.0,2025-04-09 22:39:01.728,BACKWARD,21
195.0,13948.606127334373,2082.9367140456097,-61800.137078778396,-59085.98710131492,-35348.16626884535,-32735.292045508868,-19602.50223904875,-21879.832074622165,0.0,0.0,0.0,193.0,1.0,155.0,0.0,3.0,3.0,252.0,411.0,3.0,1020.0,1744252741.728344,0.0,2025-04-09 22:39:01.728,BACKWARD,21
196.0,13895.028995875002,2088.0105600369648,-61805.76971838114,-59057.91331027905,-35354.93884741531,-32756.32503704131,-19300.597226690916,-21887.677536925978,0.0,0.0,0.0,193.0,1.0,154.0,0.0,3.0,3.0,249.0,410.0,3.0,1017.0,1744252741.7283528,0.0,2025-04-09 22:39:01.728,BACKWARD,21
197.0,13835.26043120151,2062.1719434466295,-61828.881422147926,-59104.96373235747,-35381.895051228414,-32781.04606640888,-19405.69512911977,-21910.453964525936,0.0,0.0,0.0,193.0,1.0,154.0,0.0,3.0,3.0,252.0,410.0,3.0,1020.0,1744252741.7283614,0.0,2025-04-09 22:39:01.728,BACKWARD,21
198.0,13939.576022574429,2076.1417837311965,-61824.254611045675,-59041.70829554895,-35429.95130180732,-32822.57560760684,-19157.70252438814,-21940.71822651842,0.0,0.0,0.0,193.0,1.0,154.0,0.0,3.0,3.0,249.0,410.0,3.0,1017.0,1744252741.72837,0.0,2025-04-09 22:39:01.728,BACKWARD,21
199.0,13975.852903825391,2092.615019394758,-61798.863029344444,-59094.63722641912,-35357.62105674995,-32747.33963577028,-19572.39443926745,-21887.029336336775,0.0,0.0,0.0,193.0,1.0,154.0,0.0,3.0,3.0,252.0,410.0,3.0,1020.0,1744252742.2005785,0.0,2025-04-09 22:39:02.200,BACKWARD,21
200.0,13907.367158814332,2089.418719937649,-61798.30423573306,-59053.13003696562,-35352.1448793584,-32757.487327752988,-19325.76529094759,-21883.967147346397,0.0,0.0,0.0,193.0,1.0,155.0,0.0,3.0,3.0,252.0,411.0,3.0,1020.0,1744252742.200615,0.0,2025-04-09 22:39:02.200,BACKWARD,21
201.0,13832.35470442232,2058.4615538670487,-61842.38187579893,-59127.09195936823,-35384.73372277424,-32792.333697358816,-19392.015861513122,-21921.38396756458,0.0,0.0,0.0,193.0,1.0,154.0,0.0,3.0,3.0,249.0,410.0,3.0,1017.0,1744252742.2006352,0.0,2025-04-09 22:39:02.200,BACKWARD,21
202.0,13906.473089036119,2055.6005305767694,-61832.70357044978,-59054.13586546611,-35429.32545296258,-32833.17033447866,-19180.277786288,-21948.78720626679,0.0,0.0,0.0,193.0,1.0,155.0,0.0,3.0,3.0,251.0,411.0,3.0,1019.0,1744252742.2006552,0.0,2025-04-09 22:39:02.200,BACKWARD,21
203.0,13986.447630697206,2093.643199639702,-61813.01168358466,-59099.24168577691,-35376.24005988122,-32768.79731044737,-19502.56758958907,-21910.275150570294,0.0,0.0,0.0,193.0,1.0,155.0,0.0,3.0,3.0,252.0,411.0,3.0,1020.0,1744252742.2006783,0.0,2025-04-09 22:39:02.200,BACKWARD,21
204.0,13938.391380118297,2111.748112648501,-61774.61138661044,-59028.07373143122,-35334.17407681633,-32736.342577498268,-19397.380280182395,-21873.014792563295,0.0,0.0,0.0,193.0,1.0,154.0,0.0,3.0,3.0,249.0,410.0,3.0,1017.0,1744252742.2006958,0.0,2025-04-09 22:39:02.200,BACKWARD,21
205.0,13854.125303521789,2083.5849146348137,-61823.47229998974,-59099.44285147701,-35369.4004260779,-32764.885755167696,-19359.628183797384,-21894.114839329104,0.0,0.0,0.0,193.0,1.0,155.0,0.0,3.0,3.0,252.0,411.0,3.0,1020.0,1744252742.2007132,0.0,2025-04-09 22:39:02.200,BACKWARD,21
206.0,13883.137867824778,2062.909551013655,-61823.44994824529,-59048.90555726356,-35423.089316259546,-32816.31711915936,-19229.1386996673,-21935.644380527065,0.0,0.0,0.0,193.0,1.0,154.0,0.0,3.0,3.0,250.0,410.0,3.0,1018.0,1744252742.2007473,0.0,2025-04-09 22:39:02.200,BACKWARD,21
207.0,13985.754726619092,2094.7831386069224,-61819.493689476694,-59089.27280774985,-35400.53640610414,-32781.20252862007,-19399.324881950008,-21911.61625523761,0.0,0.0,0.0,193.0,1.0,155.0,0.0,3.0,3.0,252.0,411.0,3.0,1020.0,1744252742.2007563,0.0,2025-04-09 22:39:02.200,BACKWARD,21
208.0,13945.275717410532,2110.384656236727,-61766.74357256217,-59031.448844843966,-35329.36845175844,-32721.99275755796,-19474.493798553205,-21853.099388253617,0.0,0.0,0.0,193.0,1.0,154.0,0.0,3.0,3.0,250.0,410.0,3.0,1018.0,1744252742.2007656,0.0,2025-04-09 22:39:02.200,BACKWARD,21
209.0,13870.576187440896,2093.12910951723,-61813.81634638505,-59087.88699959362,-35359.72212072875,-32760.750682443464,-19325.40766303631,-21898.272263797793,0.0,0.0,0.0,193.0,1.0,154.0,0.0,3.0,3.0,250.0,410.0,3.0,1018.0,1744252742.2007744,0.0,2025-04-09 22:39:02.200,BACKWARD,21
210.0,13865.725858894093,2060.0708794678308,-61821.99708485569,-59061.221368458435,-35407.264281185184,-32806.795276021396,-19298.183238289745,-21936.426691583,0.0,0.0,0.0,193.0,1.0,155.0,0.0,3.0,3.0,251.0,411.0,3.0,1019.0,1744252742.2007835,0.0,2025-04-09 22:39:02.200,BACKWARD,21
211.0,13983.34073821792,2087.9435048035984,-61827.249744802684,-59074.3418424537,-35413.992156266235,-32802.86136899726,-19290.784810875037,-21933.252743870347,0.0,0.0,0.0,193.0,1.0,154.0,0.0,3.0,3.0,249.0,410.0,3.0,1017.0,1744252742.2007923,0.0,2025-04-09 22:39:02.200,BACKWARD,21
212.0,13939.017228963046,2098.448824697593,-61784.55791289305,-59053.80058929927,-35345.72992869972,-32729.972330328506,-19544.566517420593,-21864.208205247905,0.0,0.0,0.0,193.0,1.0,154.0,0.0,3.0,3.0,250.0,410.0,3.0,1018.0,1744252742.2008014,0.0,2025-04-09 22:39:02.200,BACKWARD,21
213.0,13877.214655544121,2096.8842025857216,-61813.03403532911,-59073.73834535341,-35364.058359153074,-32755.38626377419,-19308.509744228097,-21889.868007882596,0.0,0.0,0.0,193.0,1.0,154.0,0.0,3.0,3.0,251.0,410.0,3.0,1019.0,1744252742.2008104,0.0,2025-04-09 22:39:02.200,BACKWARD,21
214.0,13840.222518470588,2050.8172572633334,-61828.032055858625,-59079.907426823076,-35404.403257894905,-32796.4911218275,-19356.65540178483,-21931.174031636005,0.0,0.0,0.0,193.0,1.0,154.0,0.0,3.0,3.0,250.0,410.0,3.0,1018.0,1744252742.2008195,0.0,2025-04-09 22:39:02.200,BACKWARD,21
215.0,13960.251386195587,2072.5878563628025,-61839.096169364,-59069.64797611809,-35443.80938336961,-32822.91088377367,-19222.500231564074,-21960.05248547226,0.0,0.0,0.0,193.0,1.0,155.0,0.0,3.0,3.0,252.0,411.0,3.0,1020.0,1744252742.2008288,0.0,2025-04-09 22:39:02.200,BACKWARD,21
216.0,13961.748953074093,2107.9483160910986,-61776.04189825558,-59057.75684806787,-35345.99814963319,-32714.884902821173,-19612.02408218671,-21867.046876793727,0.0,0.0,0.0,193.0,1.0,154.0,0.0,3.0,3.0,250.0,410.0,3.0,1018.0,1744252742.200838,0.0,2025-04-09 22:39:02.200,BACKWARD,21
217.0,13912.552763527961,2119.7500371635006,-61788.35770945045,-59042.06592346024,-35347.7415857007,-32726.10547853774,-19298.809087134494,-21863.939984314442,0.0,0.0,0.0,193.0,1.0,155.0,0.0,3.0,3.0,251.0,411.0,3.0,1019.0,1744252742.200847,0.0,2025-04-09 22:39:02.200,BACKWARD,21
218.0,13855.466408189108,2080.545077388892,-61813.23520102921,-59078.16399075556,-35382.386789606426,-32766.5844877463,-19387.769030066615,-21905.20130457894,0.0,0.0,0.0,193.0,1.0,154.0,0.0,3.0,3.0,250.0,410.0,3.0,1018.0,1744252742.2008564,0.0,2025-04-09 22:39:02.200,BACKWARD,21
219.0,13957.52447337204,2083.137879745708,-61830.401340770884,-59047.87737701862,-35441.23893275725,-32826.26364544197,-19162.41874246821,-21958.174938938017,0.0,0.0,0.0,193.0,1.0,155.0,0.0,3.0,3.0,251.0,411.0,3.0,1019.0,1744252742.2008655,0.0,2025-04-09 22:39:02.200,BACKWARD,21
220.0,13980.949101561202,2114.698542916601,-61782.21097972524,-59073.0901447642,-35350.98258864672,-32731.49224895147,-19612.895800220467,-21890.00211834933,0.0,0.0,0.0,193.0,1.0,154.0,0.0,3.0,3.0,249.0,410.0,3.0,1017.0,1744252742.2008746,0.0,2025-04-09 22:39:02.200,BACKWARD,21
221.0,13908.283580336998,2099.477004942537,-61797.65603514386,-59048.54792935228,-35360.54913527359,-32755.34156028528,-19317.83042166596,-21890.98559510536,0.0,0.0,0.0,193.0,1.0,154.0,0.0,3.0,3.0,249.0,410.0,3.0,1017.0,1744252742.2008893,0.0,2025-04-09 22:39:02.200,BACKWARD,21
222.0,13822.877564773271,2044.7599345159454,-61842.515986265666,-59121.07934010975,-35398.50239735871,-32796.804046249876,-19414.59112341298,-21928.938857190475,0.0,0.0,0.0,193.0,1.0,155.0,0.0,2.0,3.0,252.0,411.0,2.0,1020.0,1744252742.2008982,0.0,2025-04-09 22:39:02.200,BACKWARD,21
223.0,13916.66548450774,2052.963024731043,-61831.49657624919,-59049.26318517485,-35437.550894922126,-32836.41133742468,-19174.198111796155,-21957.77260753782,0.0,0.0,0.0,193.0,1.0,154.0,0.0,2.0,3.0,249.0,410.0,2.0,1017.0,1744252742.2009077,0.0,2025-04-09 22:39:02.200,BACKWARD,21
224.0,13960.609014106873,2079.7851180774114,-61808.3401689935,-59102.66150267858,-35372.753187746195,-32760.81773767683,-19566.426523497885,-21896.417069008003,0.0,0.0,0.0,193.0,1.0,155.0,0.0,3.0,3.0,252.0,411.0,3.0,1020.0,1744252742.2009165,0.0,2025-04-09 22:39:02.200,BACKWARD,21
225.0,13903.634417490295,2088.681112370624,-61790.61523564044,-59047.251528173874,-35354.849440437494,-32755.05098760736,-19368.16655017931,-21889.890359627054,0.0,0.0,0.0,193.0,1.0,154.0,0.0,2.0,3.0,250.0,410.0,2.0,1018.0,1744252742.200926,0.0,2025-04-09 22:39:02.200,BACKWARD,21
226.0,13829.985419510058,2061.5907980907914,-61832.010666371665,-59117.570116230265,-35385.80660650809,-32782.20835712056,-19406.499791920163,-21913.493801771856,0.0,0.0,0.0,193.0,1.0,155.0,0.0,3.0,3.0,252.0,411.0,3.0,1020.0,1744252742.200935,0.0,2025-04-09 22:39:02.200,BACKWARD,21
227.0,13889.686928950183,2052.806562519856,-61824.72399767924,-59050.470179375436,-35431.046537285634,-32832.723299589554,-19197.622739985316,-21947.28963938828,0.0,0.0,0.0,193.0,1.0,154.0,0.0,2.0,3.0,249.0,410.0,2.0,1017.0,1744252742.2009447,0.0,2025-04-09 22:39:02.200,BACKWARD,21
228.0,13969.48265665563,2079.31573144385,-61818.599619698485,-59106.50600272489,-35393.4061996229,-32788.466845568044,-19476.28193810963,-21926.18959262247,0.0,0.0,0.0,193.0,1.0,155.0,0.0,2.0,3.0,251.0,411.0,2.0,1019.0,1744252742.2009535,0.0,2025-04-09 22:39:02.200,BACKWARD,21
229.0,13918.23010661961,2087.0717867698418,-61779.55112213506,-59044.27874616132,-35346.02050137764,-32752.18996431708,-19423.151841539366,-21881.642565923044,0.0,0.0,0.0,193.0,1.0,154.0,0.0,2.0,3.0,251.0,410.0,2.0,1019.0,1744252742.2009623,0.0,2025-04-09 22:39:02.200,BACKWARD,21
230.0,13847.531538907473,2071.4702691400375,-61821.393587755396,-59106.30483702479,-35370.54036504512,-32775.72635122852,-19360.052866942035,-21898.04874635324,0.0,0.0,0.0,193.0,1.0,154.0,0.0,2.0,3.0,251.0,410.0,2.0,1019.0,1744252742.2009716,0.0,2025-04-09 22:39:02.200,BACKWARD,21
231.0,13868.162199039722,2050.7054985410573,-61826.17686106883,-59060.05907774676,-35425.860932572,-32821.50272387299,-19259.648830848793,-21933.96799969292,0.0,0.0,0.0,193.0,1.0,155.0,0.0,2.0,3.0,252.0,411.0,2.0,1020.0,1744252742.2009804,0.0,2025-04-09 22:39:02.200,BACKWARD,21
232.0,13984.570084162962,2091.899763572188,-61821.77356741114,-59088.781069371835,-35409.857083542,-32796.35701136077,-19384.908006776335,-21925.653150755545,0.0,0.0,0.0,193.0,1.0,155.0,0.0,2.0,3.0,250.0,411.0,2.0,1018.0,1744252742.2009895,0.0,2025-04-09 22:39:02.200,BACKWARD,21
233.0,13943.71109529866,2104.059112555875,-61769.13520921889,-59038.3331821362,-35338.08563209601,-32731.89458035166,-19503.57341808956,-21860.408408690502,0.0,0.0,0.0,193.0,1.0,156.0,0.0,2.0,3.0,251.0,412.0,2.0,1019.0,1744252742.200998,0.0,2025-04-09 22:39:02.200,BACKWARD,21
234.0,13867.60340542834,2084.6130948797577,-61815.80565164157,-59087.68583389352,-35367.634638265925,-32765.77982494591,-19316.668130954284,-21893.4666387399,0.0,0.0,0.0,193.0,1.0,155.0,0.0,2.0,3.0,250.0,411.0,2.0,1018.0,1744252742.2010071,0.0,2025-04-09 22:39:02.201,BACKWARD,21
235.0,13856.986326812068,2055.9805102325095,-61821.8406226445,-59066.205807471975,-35409.76767656418,-32805.320060887345,-19312.376596018865,-21932.24691536986,0.0,0.0,0.0,193.0,1.0,155.0,0.0,2.0,3.0,252.0,411.0,2.0,1020.0,1744252742.2010157,0.0,2025-04-09 22:39:02.201,BACKWARD,21
236.0,13977.372822448353,2080.9474087890876,-61827.696779691796,-59074.5430081538,-35427.20203723932,-32815.311290658865,-19272.545787399507,-21947.20023241046,0.0,0.0,0.0,193.0,1.0,154.0,0.0,2.0,3.0,249.0,410.0,2.0,1017.0,1744252742.2010293,0.0,2025-04-09 22:39:02.201,BACKWARD,21
237.0,13948.248499423087,2097.5994584082914,-61773.31498543203,-59056.03576374481,-35345.349949043986,-32734.599141430754,-19575.9707183803,-21877.149865287527,0.0,0.0,0.0,193.0,1.0,155.0,0.0,2.0,3.0,252.0,411.0,2.0,1020.0,1744252742.2010386,0.0,2025-04-09 22:39:02.201,BACKWARD,21
238.0,13885.551856225951,2101.287496243417,-61799.95826482276,-59065.87053130514,-35358.64923699489,-32751.25119104996,-19300.329005757452,-21881.28493801176,0.0,0.0,0.0,193.0,1.0,155.0,0.0,2.0,3.0,252.0,411.0,2.0,1020.0,1744252742.2010472,0.0,2025-04-09 22:39:02.201,BACKWARD,21
239.0,13833.82991955637,2053.521818342426,-61826.2439163022,-59086.322377481745,-35403.53153986115,-32795.97703170503,-19362.17628266529,-21926.34605483366,0.0,0.0,0.0,193.0,1.0,154.0,0.0,2.0,3.0,250.0,410.0,2.0,1018.0,1744252742.2010565,0.0,2025-04-09 22:39:02.201,BACKWARD,21
240.0,13957.010383249568,2068.117507471741,-61834.78228268413,-59062.36130742566,-35443.7646798807,-32823.93906401862,-19197.734498707592,-21955.246860414372,0.0,0.0,0.0,193.0,1.0,155.0,0.0,2.0,3.0,252.0,411.0,2.0,1020.0,1744252742.2010653,0.0,2025-04-09 22:39:02.201,BACKWARD,21
241.0,13957.837397794414,2100.683999143124,-61780.26637795763,-59067.43515341701,-35348.81446943456,-32726.28429249338,-19619.48956483478,-21877.70865889891,0.0,0.0,0.0,193.0,1.0,154.0,0.0,2.0,3.0,250.0,410.0,2.0,1018.0,1744252742.201082,0.0,2025-04-09 22:39:02.201,BACKWARD,21
242.0,13884.590731214374,2095.4313391961264,-61807.401395726374,-59060.10378123567,-35366.36058883197,-32752.592295717277,-19305.58166570445,-21888.035164837263,0.0,0.0,0.0,193.0,1.0,155.0,0.0,2.0,3.0,252.0,411.0,2.0,1020.0,1744252742.2010913,0.0,2025-04-09 22:39:02.201,BACKWARD,21
243.0,13822.74345430654,2053.9465014870766,-61835.922221651344,-59104.04731083481,-35398.03301072514,-32784.57764203282,-19399.54839939456,-21911.973883148898,0.0,0.0,0.0,193.0,1.0,155.0,0.0,2.0,3.0,249.0,411.0,2.0,1017.0,1744252742.2011,0.0,2025-04-09 22:39:02.201,BACKWARD,21
244.0,13928.131929413312,2054.773516031923,-61842.00189614319,-59056.92983352302,-35443.25058975823,-32835.00317752399,-19156.36141972082,-21953.123444691115,0.0,0.0,0.0,193.0,1.0,155.0,0.0,2.0,3.0,251.0,411.0,2.0,1019.0,1744252742.2011087,0.0,2025-04-09 22:39:02.201,BACKWARD,21
245.0,13951.489502369108,2076.4547081535707,-61809.41305272735,-59096.15714504208,-35363.9466004308,-32746.445565992068,-19594.25444534474,-21882.5142839568,0.0,0.0,0.0,193.0,1.0,155.0,0.0,2.0,3.0,251.0,411.0,2.0,1019.0,1744252742.2011175,0.0,2025-04-09 22:39:02.201,BACKWARD,21
246.0,13892.279731306999,2082.288513456406,-61806.12734629242,-59053.59942359918,-35359.76682421766,-32755.498022496467,-19326.927581659267,-21883.63187117957,0.0,0.0,0.0,193.0,1.0,155.0,0.0,2.0,3.0,249.0,411.0,2.0,1017.0,1744252742.2011263,0.0,2025-04-09 22:39:02.201,BACKWARD,21
247.0,13816.239096670044,2046.7268880280124,-61839.58790774202,-59117.25719180789,-35388.1535396759,-32784.689400755095,-19412.199486756264,-21918.455889040935,0.0,0.0,0.0,193.0,1.0,154.0,0.0,2.0,3.0,249.0,410.0,2.0,1017.0,1744252742.2011352,0.0,2025-04-09 22:39:02.201,BACKWARD,21
248.0,13903.790879701482,2054.17001893163,-61826.80270991358,-59042.937641494,-35430.01835704069,-32826.017776252964,-19173.236986784577,-21943.758063764344,0.0,0.0,0.0,193.0,1.0,155.0,0.0,2.0,3.0,253.0,411.0,2.0,1021.0,1744252742.201144,0.0,2025-04-09 22:39:02.201,BACKWARD,21
249.0,13960.363144917865,2080.5003738999812,-61805.859125358955,-59098.951113099,-35371.210917378776,-32758.5825632313,-19542.39839820843,-21899.61336846511,0.0,0.0,0.0,193.0,1.0,154.0,0.0,2.0,3.0,249.0,410.0,2.0,1017.0,1744252742.2011528,0.0,2025-04-09 22:39:02.201,BACKWARD,21
250.0,13904.260266335043,2081.5285541449257,-61786.21194198274,-59044.32344965023,-35350.06616712405,-32751.966446872528,-19374.06741071551,-21885.24119678035,0.0,0.0,0.0,193.0,1.0,155.0,0.0,2.0,3.0,252.0,411.0,2.0,1020.0,1744252742.2011616,0.0,2025-04-09 22:39:02.201,BACKWARD,21
251.0,13836.154500979723,2068.9445220165876,-61820.477166232726,-59107.6012382032,-35364.95242893129,-32769.28904882539,-19371.474608358694,-21891.544388716746,0.0,0.0,0.0,193.0,1.0,155.0,0.0,2.0,3.0,250.0,411.0,2.0,1018.0,1744252742.2011766,0.0,2025-04-09 22:39:02.201,BACKWARD,21
252.0,13882.735536424583,2054.9746817320206,-61819.20311679877,-59044.01052522785,-35415.71324058929,-32817.32294765984,-19191.028975371002,-21926.748386233856,0.0,0.0,0.0,193.0,1.0,155.0,0.0,2.0,3.0,250.0,411.0,2.0,1018.0,1744252742.2011852,0.0,2025-04-09 22:39:02.201,BACKWARD,21
253.0,13966.420467665252,2085.3059989578724,-61820.81244239956,-59097.36413924267,-35392.735647289235,-32779.190871619096,-19439.110987080454,-21912.040938382263,0.0,0.0,0.0,193.0,1.0,155.0,0.0,2.0,3.0,251.0,411.0,2.0,1019.0,1744252742.201194,0.0,2025-04-09 22:39:02.201,BACKWARD,21
254.0,13926.52260381253,2099.678170642635,-61767.54823536256,-59024.2292313849,-35326.50742846816,-32720.472838935002,-19443.76014992716,-21852.652353364512,0.0,0.0,0.0,193.0,1.0,154.0,0.0,2.0,3.0,250.0,410.0,2.0,1018.0,1744252742.2012029,0.0,2025-04-09 22:39:02.201,BACKWARD,21
255.0,13855.801684355938,2081.9532372895765,-61810.2400672722,-59079.08041227823,-35351.60843749147,-32753.888696895683,-19340.428035310273,-21887.632833437066,0.0,0.0,0.0,193.0,1.0,155.0,0.0,2.0,3.0,252.0,411.0,2.0,1020.0,1744252742.2012117,0.0,2025-04-09 22:39:02.201,BACKWARD,21
0.0,13853.007716299024,2042.904739726155,-61831.54127973811,-59053.24179568789,-35419.58009238006,-32816.54063660391,-19279.452476436196,-21935.06323517123,0.0,0.0,0.0,193.0,1.0,155.0,0.0,2.0,3.0,251.0,411.0,2.0,1019.0,1744252742.2012205,0.0,2025-04-09 22:39:02.201,BACKWARD,21
1.0,13967.515703143563,2078.801641321378,-61831.027189615634,-59073.13484825312,-35411.555816120606,-32796.088790427304,-19360.946936720247,-21916.95832216243,0.0,0.0,0.0,193.0,1.0,154.0,0.0,2.0,3.0,250.0,410.0,2.0,1018.0,1744252742.201229,0.0,2025-04-09 22:39:02.201,BACKWARD,21
2.0,13930.14358641429,2093.4196821951487,-61775.12547673291,-59025.63739128559,-35328.85436163597,-32728.363004727726,-19532.943610303835,-21853.457016164903,0.0,0.0,0.0,193.0,1.0,155.0,0.0,2.0,3.0,252.0,411.0,2.0,1020.0,1744252742.201238,0.0,2025-04-09 22:39:02.201,BACKWARD,21
3.0,13865.122361793801,2088.7258158595346,-61806.97671258172,-59050.09019971969,-35344.52293449914,-32748.97131311552,-19311.929561129757,-21861.16836800198,0.0,0.0,0.0,193.0,1.0,154.0,0.0,2.0,3.0,249.0,410.0,2.0,1017.0,1744252742.201247,0.0,2025-04-09 22:39:02.201,BACKWARD,21
4.0,13837.875585302781,2054.4382398650932,-61823.5393552231,-59038.5343478363,-35390.992211221725,-32793.56304330385,-19319.506802500106,-21895.90297888553,0.0,0.0,0.0,193.0,1.0,155.0,0.0,2.0,3.0,252.0,411.0,2.0,1020.0,1744252742.201256,0.0,2025-04-09 22:39:02.201,BACKWARD,21
5.0,13963.76061007507,2083.227286723529,-61831.2954105491,-59031.314734377236,-35416.026165011666,-32806.63881381021,-19240.538089339505,-21911.929179659986,0.0,0.0,0.0,193.0,1.0,154.0,0.0,2.0,3.0,249.0,410.0,2.0,1017.0,1744252742.2012649,0.0,2025-04-09 22:39:02.201,BACKWARD,21
6.0,13949.343734901398,2104.3943887227047,-61771.124514475414,-59008.515955032824,-35323.4899429667,-32709.788705085364,-19586.476038274293,-21828.69128330842,0.0,0.0,0.0,193.0,1.0,155.0,0.0,2.0,3.0,252.0,411.0,2.0,1020.0,1744252742.2012734,0.0,2025-04-09 22:39:02.201,BACKWARD,21
7.0,13882.55672246894,2103.7908916224114,-61802.39460496839,-59011.71225448993,-35339.98553037471,-32738.175420543605,-19285.77802011705,-21839.04014099123,0.0,0.0,0.0,193.0,1.0,154.0,0.0,2.0,3.0,249.0,410.0,2.0,1017.0,1744252742.2012823,0.0,2025-04-09 22:39:02.201,BACKWARD,21
8.0,13831.63944859975,2064.317710914339,-61823.11467207845,-59032.18645241099,-35373.647257524404,-32777.11215938475,-19369.105323446434,-21882.04489732324,0.0,0.0,0.0,193.0,1.0,154.0,0.0,2.0,3.0,250.0,410.0,2.0,1018.0,1744252742.201291,0.0,2025-04-09 22:39:02.201,BACKWARD,21
9.0,13961.123104229344,2089.619885637747,-61818.867840631945,-58985.89598964405,-35405.54319686213,-32799.933290473615,-19165.302117502943,-21900.596845221145,0.0,0.0,0.0,193.0,1.0,155.0,0.0,2.0,3.0,252.0,411.0,2.0,1020.0,1744252742.2013,0.0,2025-04-09 22:39:02.201,BACKWARD,21
10.0,13959.536130373017,2104.3720369782495,-61782.590959380985,-59012.56162077923,-35329.52491396963,-32715.04136503236,-19601.362300081528,-21834.346274655614,0.0,0.0,0.0,193.0,1.0,154.0,0.0,2.0,3.0,250.0,410.0,2.0,1018.0,1744252742.2013135,0.0,2025-04-09 22:39:02.201,BACKWARD,21
11.0,13900.616931988829,2105.959010834576,-61789.69881411777,-58981.93973087546,-35328.697899424784,-32722.104516280237,-19293.10939229839,-21827.618399574567,0.0,0.0,0.0,193.0,1.0,154.0,0.0,2.0,3.0,249.0,410.0,2.0,1017.0,1744252742.2013228,0.0,2025-04-09 22:39:02.201,BACKWARD,21
12.0,13827.2138031976,2066.061146981853,-61822.60058195599,-59033.460501844944,-35364.30422834209,-32755.05098760736,-19381.48818987467,-21858.5085104118,0.0,0.0,0.0,193.0,1.0,154.0,0.0,2.0,3.0,251.0,410.0,2.0,1019.0,1744252742.2013316,0.0,2025-04-09 22:39:02.201,BACKWARD,21
13.0,13929.383627102809,2074.375995919227,-61823.7405209232,-58977.402326751035,-35416.20497896731,-32803.017831208446,-19148.538309161464,-21904.262531311815,0.0,0.0,0.0,193.0,1.0,154.0,0.0,2.0,3.0,250.0,410.0,2.0,1018.0,1744252742.2013404,0.0,2025-04-09 22:39:02.201,BACKWARD,21
14.0,13964.788790320015,2100.5722404208473,-61796.1361165209,-59026.285591874796,-35345.93109439982,-32721.322205224304,-19577.311823047618,-21845.164518971982,0.0,0.0,0.0,193.0,1.0,154.0,0.0,2.0,3.0,250.0,410.0,2.0,1018.0,1744252742.2013493,0.0,2025-04-09 22:39:02.201,BACKWARD,21
15.0,13906.741309969582,2108.194185280107,-61784.42380242632,-58974.3177860162,-35331.9389023708,-32718.394126700656,-19321.607866478906,-21831.440547876424,0.0,0.0,0.0,193.0,1.0,154.0,0.0,2.0,3.0,250.0,410.0,2.0,1018.0,1744252742.201358,0.0,2025-04-09 22:39:02.201,BACKWARD,21
16.0,13825.760939808004,2070.509144128459,-61831.094244849,-59048.927909008016,-35367.85815571048,-32756.682664952597,-19392.1276202354,-21876.345202487137,0.0,0.0,0.0,193.0,1.0,155.0,0.0,2.0,3.0,251.0,411.0,2.0,1019.0,1744252742.201367,0.0,2025-04-09 22:39:02.201,BACKWARD,21
17.0,13900.236952333087,2067.2681411824396,-61825.863936646456,-58983.25848379833,-35418.7083743463,-32807.82345626634,-19186.64803345776,-21926.547220533757,0.0,0.0,0.0,193.0,1.0,154.0,0.0,2.0,3.0,250.0,410.0,2.0,1018.0,1744252742.2013755,0.0,2025-04-09 22:39:02.201,BACKWARD,21
18.0,13975.808200336482,2102.8744700997436,-61799.913561333844,-59026.285591874796,-35355.60939974897,-32730.531123939887,-19519.264342697184,-21858.620269134077,0.0,0.0,0.0,193.0,1.0,155.0,0.0,2.0,3.0,251.0,411.0,2.0,1019.0,1744252742.2013843,0.0,2025-04-09 22:39:02.201,BACKWARD,21
19.0,13917.760719986049,2103.0085805664758,-61770.208092952744,-58965.75706788982,-35318.930187097816,-32705.743039338955,-19381.73405906368,-21816.531934324736,0.0,0.0,0.0,193.0,1.0,155.0,0.0,2.0,3.0,249.0,411.0,2.0,1017.0,1744252742.2013931,0.0,2025-04-09 22:39:02.201,BACKWARD,21
20.0,13841.004829526524,2078.3769581767274,-61816.29739001959,-59036.67915304651,-35346.13226009992,-32741.5281822119,-19365.394933866854,-21859.044952278728,0.0,0.0,0.0,193.0,1.0,154.0,0.0,2.0,3.0,250.0,410.0,2.0,1018.0,1744252742.2014017,0.0,2025-04-09 22:39:02.201,BACKWARD,21
21.0,13877.549931710952,2058.729774800512,-61819.9407243658,-58987.617073967114,-35400.37994389295,-32797.45224683908,-19226.389435099296,-21907.391775535558,0.0,0.0,0.0,193.0,1.0,155.0,0.0,2.0,3.0,252.0,411.0,2.0,1020.0,1744252742.2014103,0.0,2025-04-09 22:39:02.201,BACKWARD,21
22.0,13974.690613113717,2089.418719937649,-61822.10884357797,-59038.69081004749,-35379.77163550516,-32772.84297619379,-19410.232533244198,-21902.183819077472,0.0,0.0,0.0,193.0,1.0,154.0,0.0,2.0,3.0,249.0,410.0,2.0,1017.0,1744252742.2014189,0.0,2025-04-09 22:39:02.201,BACKWARD,21
23.0,13928.489557324596,2104.2379265115173,-61781.13809599139,-58988.2205710674,-35326.17215230133,-32720.450487190545,-19466.156597871377,-21847.80202481771,0.0,0.0,0.0,193.0,1.0,155.0,0.0,2.0,3.0,251.0,411.0,2.0,1019.0,1744252742.2014277,0.0,2025-04-09 22:39:02.201,BACKWARD,21
24.0,13854.79585585545,2087.742339103501,-61829.03788435911,-59047.89972876308,-35358.38101606143,-32753.218144562026,-19336.69529398624,-21866.622193649077,0.0,0.0,0.0,193.0,1.0,154.0,0.0,2.0,3.0,251.0,410.0,2.0,1019.0,1744252742.2014408,0.0,2025-04-09 22:39:02.201,BACKWARD,21
25.0,13847.486835418564,2050.191408418585,-61830.37898902643,-59014.50622254685,-35399.32941190355,-32794.34535435979,-19291.589473675427,-21898.719298686898,0.0,0.0,0.0,193.0,1.0,154.0,0.0,2.0,3.0,250.0,410.0,2.0,1018.0,1744252742.2014496,0.0,2025-04-09 22:39:02.201,BACKWARD,21
26.0,13947.443836622697,2061.970777746532,-61844.57234675555,-59040.948336237474,-35411.44405739833,-32795.06061018236,-19310.16377331779,-21906.18478133497,0.0,0.0,0.0,193.0,1.0,155.0,0.0,2.0,3.0,252.0,411.0,2.0,1020.0,1744252742.2014585,0.0,2025-04-09 22:39:02.201,BACKWARD,21
27.0,13924.645057278283,2094.492565929004,-61782.05451751406,-58997.541248505266,-35324.428716233815,-32710.48160916348,-19546.57817442157,-21833.31809441067,0.0,0.0,0.0,193.0,1.0,154.0,0.0,2.0,3.0,251.0,410.0,2.0,1019.0,1744252742.2014673,0.0,2025-04-09 22:39:02.201,BACKWARD,21
28.0,13860.607309413828,2093.6655513841574,-61813.078738818025,-59020.02710342731,-35342.86890540944,-32733.57096118581,-19311.236657051642,-21853.99345803183,0.0,0.0,0.0,193.0,1.0,154.0,0.0,2.0,3.0,249.0,410.0,2.0,1017.0,1744252742.201476,0.0,2025-04-09 22:39:02.201,BACKWARD,21
29.0,13827.996114253536,2054.147667187174,-61827.42855875833,-59021.97170519492,-35385.49368208572,-32774.564060516845,-19355.96249770671,-21896.975862619383,0.0,0.0,0.0,193.0,1.0,155.0,0.0,2.0,3.0,252.0,411.0,2.0,1020.0,1744252742.2014847,0.0,2025-04-09 22:39:02.201,BACKWARD,21
30.0,13941.699438297683,2063.5353998584033,-61842.4489310323,-59018.97657143791,-35422.75404009272,-32803.53192133092,-19227.79759499998,-21925.54139203327,0.0,0.0,0.0,193.0,1.0,154.0,0.0,2.0,3.0,250.0,410.0,2.0,1018.0,1744252742.2014935,0.0,2025-04-09 22:39:02.201,BACKWARD,21
31.0,13930.478862581118,2083.6072663792693,-61788.80474433956,-59014.86385045813,-35334.710518683256,-32711.08510626377,-19600.423526814408,-21841.767053814776,0.0,0.0,0.0,193.0,1.0,155.0,0.0,2.0,3.0,253.0,411.0,2.0,1021.0,1744252742.201502,0.0,2025-04-09 22:39:02.201,BACKWARD,21
32.0,13869.682117662684,2090.22338273804,-61813.81634638505,-59014.05918765774,-35354.067129381554,-32737.48251646549,-19313.24831405262,-21862.487120924845,0.0,0.0,0.0,193.0,1.0,154.0,0.0,2.0,3.0,249.0,410.0,2.0,1017.0,1744252742.2015104,0.0,2025-04-09 22:39:02.201,BACKWARD,21
33.0,13813.914515246692,2053.45476310906,-61833.977619883735,-59042.915289749544,-35385.270164641166,-32771.88185118221,-19412.713576878738,-21896.662938197012,0.0,0.0,0.0,193.0,1.0,155.0,0.0,2.0,3.0,251.0,411.0,2.0,1019.0,1744252742.2015193,0.0,2025-04-09 22:39:02.201,BACKWARD,21
34.0,13926.85787997936,2068.6539493386686,-61836.10103560699,-59001.69867297396,-35423.62575812647,-32814.35016564729,-19182.26709154452,-21927.62010426761,0.0,0.0,0.0,193.0,1.0,154.0,0.0,2.0,3.0,249.0,410.0,2.0,1017.0,1744252742.201528,0.0,2025-04-09 22:39:02.201,BACKWARD,21
35.0,13942.124121442333,2094.1125862732633,-61792.448078685775,-59032.275859388814,-35335.2916640391,-32728.921798339106,-19616.896762477965,-21865.191682003937,0.0,0.0,0.0,193.0,1.0,155.0,0.0,2.0,3.0,251.0,411.0,2.0,1019.0,1744252742.201537,0.0,2025-04-09 22:39:02.201,BACKWARD,21
36.0,13887.407051015742,2100.371074720749,-61789.67646237332,-58992.53445774728,-35327.870884879936,-32732.09574605176,-19308.71090992819,-21851.80298707521,0.0,0.0,0.0,193.0,1.0,155.0,0.0,2.0,3.0,249.0,411.0,2.0,1017.0,1744252742.2015457,0.0,2025-04-09 22:39:02.201,BACKWARD,21
37.0,13818.92130600468,2067.066975482342,-61819.00195109868,-59046.9386037515,-35354.40240554838,-32758.090824853283,-19392.753469080148,-21866.912766326997,0.0,0.0,0.0,193.0,1.0,155.0,0.0,2.0,3.0,252.0,411.0,2.0,1020.0,1744252742.201554,0.0,2025-04-09 22:39:02.201,BACKWARD,21
38.0,13907.009530903046,2064.2730074254287,-61823.89698313439,-58992.020367624806,-35410.505284131206,-32817.07707847084,-19150.617021395807,-21917.04772914025,0.0,0.0,0.0,193.0,1.0,155.0,0.0,2.0,3.0,251.0,411.0,2.0,1019.0,1744252742.201563,0.0,2025-04-09 22:39:02.201,BACKWARD,21
39.0,13948.181444189722,2078.4440134100932,-61804.07098580254,-59049.86668227514,-35350.37909154643,-32746.020882847417,-19576.373049780494,-21869.8631965951,0.0,0.0,0.0,193.0,1.0,154.0,0.0,2.0,3.0,250.0,410.0,2.0,1018.0,1744252742.2016177,0.0,2025-04-09 22:39:02.201,BACKWARD,21
40.0,13891.65388246225,2083.2943419568946,-61788.31300596154,-58995.01550138182,-35332.1400680709,-32740.14237405567,-19368.21125366822,-21858.866138323086,0.0,0.0,0.0,193.0,1.0,155.0,0.0,2.0,3.0,252.0,411.0,2.0,1020.0,1744252742.2016263,0.0,2025-04-09 22:39:02.201,BACKWARD,21
41.0,13810.002959967014,2051.487809596993,-61832.83768091651,-59072.33018545272,-35363.38780681942,-32778.989705919,-19417.049815303068,-21910.47631627039,0.0,0.0,0.0,193.0,1.0,155.0,0.0,2.0,3.0,251.0,411.0,2.0,1019.0,1744252742.2016351,0.0,2025-04-09 22:39:02.201,BACKWARD,21
42.0,13875.404164243242,2042.413001348138,-61823.04761684509,-59003.062129385726,-35407.219577696276,-32822.12857271774,-19214.61006577135,-21939.444177084468,0.0,0.0,0.0,193.0,1.0,154.0,0.0,2.0,3.0,250.0,410.0,2.0,1018.0,1744252742.201644,0.0,2025-04-09 22:39:02.201,BACKWARD,21
43.0,13955.579871604428,2070.6879580841014,-61812.721110906736,-59053.93469976601,-35365.28770509812,-32761.91297315514,-19504.33337740104,-21884.302423513225,0.0,0.0,0.0,193.0,1.0,155.0,0.0,2.0,3.0,252.0,411.0,2.0,1020.0,1744252742.2016528,0.0,2025-04-09 22:39:02.201,BACKWARD,21
44.0,13899.588751743884,2078.6228273657357,-61777.56181687854,-58992.04271936926,-35320.80773363206,-32726.463106449024,-19420.22376301572,-21834.41332988898,0.0,0.0,0.0,193.0,1.0,154.0,0.0,2.0,3.0,250.0,410.0,2.0,1018.0,1744252742.2016613,0.0,2025-04-09 22:39:02.201,BACKWARD,21
45.0,13825.515070618996,2062.55192310237,-61818.174936553834,-59053.21944394344,-35346.244018822195,-32750.96061837204,-19368.88180600188,-21867.918594827486,0.0,0.0,0.0,193.0,1.0,155.0,0.0,2.0,3.0,250.0,411.0,2.0,1018.0,1744252742.20167,0.0,2025-04-09 22:39:02.201,BACKWARD,21
46.0,13849.677306375183,2041.7871525033895,-61819.20311679877,-59002.45863228544,-35398.56945259207,-32802.28022364142,-19269.081267008933,-21915.460755283922,0.0,0.0,0.0,193.0,1.0,155.0,0.0,2.0,3.0,252.0,411.0,2.0,1020.0,1744252742.2016788,0.0,2025-04-09 22:39:02.201,BACKWARD,21
47.0,13959.804351306482,2076.298245942384,-61816.073872575034,-59038.62375481412,-35382.72206577326,-32778.20739486306,-19405.829239586503,-21904.53075224528,0.0,0.0,0.0,193.0,1.0,155.0,0.0,2.0,3.0,249.0,411.0,2.0,1017.0,1744252742.201687,0.0,2025-04-09 22:39:02.201,BACKWARD,21
48.0,13919.615914775839,2091.922115316643,-61762.586148093484,-58986.41007976652,-35313.34225098399,-32713.834370831773,-19516.403319406905,-21842.638771848535,0.0,0.0,0.0,193.0,1.0,155.0,0.0,2.0,3.0,251.0,411.0,2.0,1019.0,1744252742.201696,0.0,2025-04-09 22:39:02.201,BACKWARD,21
49.0,13861.79195186996,2092.4138536946602,-61790.95051180727,-59020.764710994335,-35322.059431321555,-32733.302740252348,-19334.504823029616,-21857.74855110032,0.0,0.0,0.0,193.0,1.0,154.0,0.0,2.0,3.0,252.0,410.0,2.0,1020.0,1744252742.2017047,0.0,2025-04-09 22:39:02.201,BACKWARD,21
50.0,13848.31384996341,2059.31092015635,-61800.58411366751,-59001.810431696234,-35366.159423131874,-32779.749665230476,-19302.363014502887,-21892.393755006047,0.0,0.0,0.0,193.0,1.0,155.0,0.0,2.0,3.0,251.0,411.0,2.0,1019.0,1744252742.2017138,0.0,2025-04-09 22:39:02.201,BACKWARD,21
51.0,13961.793656563004,2077.6840540986127,-61816.96794235324,-59023.51397556234,-35391.126321688454,-32799.01686895095,-19272.679897866237,-21916.846563440155,0.0,0.0,0.0,193.0,1.0,154.0,0.0,2.0,3.0,250.0,410.0,2.0,1018.0,1744252742.2017229,0.0,2025-04-09 22:39:02.201,BACKWARD,21
52.0,13927.014342190545,2085.395405935694,-61772.08563948699,-59007.755995721345,-35319.824256876025,-32723.445620947557,-19567.387648509462,-21846.59503061712,0.0,0.0,0.0,193.0,1.0,155.0,0.0,2.0,3.0,252.0,411.0,2.0,1020.0,1744252742.2017317,0.0,2025-04-09 22:39:02.201,BACKWARD,21
53.0,13857.478065190086,2076.678225598124,-61808.94366609379,-59031.53825182179,-35349.93205665732,-32749.61951370472,-19318.76919493308,-21868.767961116788,0.0,0.0,0.0,193.0,1.0,154.0,0.0,2.0,3.0,251.0,410.0,2.0,1019.0,1744252742.2017403,0.0,2025-04-09 22:39:02.201,BACKWARD,21
54.0,13818.340160648842,2041.1389519141856,-61822.33236102252,-59039.80839727025,-35385.24781289671,-32786.164615889145,-19383.030460242087,-21909.04580462525,0.0,0.0,0.0,193.0,1.0,155.0,0.0,2.0,3.0,251.0,411.0,2.0,1019.0,1744252742.2017734,0.0,2025-04-09 22:39:02.201,BACKWARD,21
55.0,13940.201871419176,2061.322577157328,-61827.42855875833,-59019.133033649094,-35416.987290023244,-32816.92061625965,-19217.806365228458,-21938.371293350614,0.0,0.0,0.0,193.0,1.0,154.0,0.0,2.0,3.0,249.0,410.0,2.0,1017.0,1744252742.2017822,0.0,2025-04-09 22:39:02.201,BACKWARD,21
56.0,13939.084284196411,2089.642237382202,-61774.72314533272,-59024.56450755173,-35325.52395171213,-32725.122001781703,-19625.32337013762,-21871.986612318353,0.0,0.0,0.0,193.0,1.0,154.0,0.0,2.0,3.0,248.0,410.0,2.0,1016.0,1744252742.2017908,0.0,2025-04-09 22:39:02.201,BACKWARD,21
57.0,13878.712222422628,2092.6597228836686,-61793.72212811973,-59010.30409458925,-35341.147821086386,-32740.656464178144,-19313.181258819255,-21871.450170451426,0.0,0.0,0.0,193.0,1.0,155.0,0.0,2.0,3.0,252.0,411.0,2.0,1020.0,1744252742.2017994,0.0,2025-04-09 22:39:02.201,BACKWARD,21
58.0,13815.032102469457,2051.9124927416437,-61822.42176800034,-59051.20778694246,-35379.14578666041,-32771.92655467112,-19420.93901883829,-21896.90880738602,0.0,0.0,0.0,193.0,1.0,154.0,0.0,2.0,3.0,250.0,410.0,2.0,1018.0,1744252742.201808,0.0,2025-04-09 22:39:02.201,BACKWARD,21
59.0,13932.80344400447,2073.928961030121,-61815.89505861939,-58994.0767281147,-35412.42753415436,-32809.45513361158,-19173.08052457339,-21924.58026702169,0.0,0.0,0.0,193.0,1.0,154.0,0.0,2.0,3.0,250.0,410.0,2.0,1018.0,1744252742.2018168,0.0,2025-04-09 22:39:02.201,BACKWARD,21
60.0,13953.121179714344,2089.351664704283,-61781.048689013565,-59032.94641172248,-35333.70469018277,-32725.792554115364,-19604.290378605176,-21863.60470814761,0.0,0.0,0.0,193.0,1.0,154.0,0.0,2.0,3.0,250.0,410.0,2.0,1018.0,1744252742.2018256,0.0,2025-04-09 22:39:02.201,BACKWARD,21
61.0,13897.890019165281,2093.1067577727745,-61775.684270344296,-58985.96304487742,-35325.16632380084,-32726.7760308714,-19321.25023856762,-21856.809777833198,0.0,0.0,0.0,193.0,1.0,155.0,0.0,2.0,3.0,250.0,411.0,2.0,1018.0,1744252742.2018342,0.0,2025-04-09 22:39:02.201,BACKWARD,21
62.0,13822.944620006636,2063.3789376472164,-61814.57630569653,-59049.08437121921,-35360.21385910676,-32757.733196941997,-19404.376376196906,-21887.610481692613,0.0,0.0,0.0,193.0,1.0,154.0,0.0,2.0,3.0,251.0,410.0,2.0,1019.0,1744252742.201843,0.0,2025-04-09 22:39:02.201,BACKWARD,21
63.0,13907.434214047697,2060.4955626124815,-61816.61031444196,-58988.44408851196,-35418.01547026819,-32808.91869174465,-19177.573225208907,-21925.943723433462,0.0,0.0,0.0,193.0,1.0,154.0,0.0,2.0,3.0,249.0,410.0,2.0,1017.0,1744252742.6815827,0.0,2025-04-09 22:39:02.681,BACKWARD,21
64.0,13959.357316417376,2082.6908448566014,-61798.93008457781,-59044.99400198388,-35360.9961701627,-32740.745871155963,-19564.906604874923,-21877.932176343464,0.0,0.0,0.0,193.0,1.0,155.0,0.0,2.0,3.0,252.0,411.0,2.0,1020.0,1744252742.6816192,0.0,2025-04-09 22:39:02.681,BACKWARD,21
65.0,13903.410900045741,2093.8443653398,-61771.88447378689,-58983.50435298734,-35330.19546630329,-32723.71384188102,-19392.64171035787,-21857.212109233395,0.0,0.0,0.0,193.0,1.0,154.0,0.0,2.0,3.0,250.0,410.0,2.0,1018.0,1744252742.6816392,0.0,2025-04-09 22:39:02.681,BACKWARD,21
66.0,13830.991248010547,2072.900780785177,-61811.2905992616,-59050.336068908706,-35353.843611937,-32748.97131311552,-19404.018748285624,-21886.403487492025,0.0,0.0,0.0,193.0,1.0,154.0,0.0,2.0,3.0,250.0,410.0,2.0,1018.0,1744252742.6816597,0.0,2025-04-09 22:39:02.681,BACKWARD,21
67.0,13875.471219476607,2054.3488328872722,-61815.35861675246,-58996.51306826033,-35404.58207185055,-32805.811799265364,-19211.36906282533,-21921.920409431506,0.0,0.0,0.0,193.0,1.0,154.0,0.0,2.0,3.0,251.0,410.0,2.0,1019.0,1744252742.6816769,0.0,2025-04-09 22:39:02.681,BACKWARD,21
68.0,13957.300955927487,2078.9134000436547,-61809.86008761646,-59051.76658055384,-35369.75805398918,-32761.19771733257,-19460.41219954636,-21889.443324737946,0.0,0.0,0.0,193.0,1.0,154.0,0.0,2.0,3.0,249.0,410.0,2.0,1017.0,1744252742.6816945,0.0,2025-04-09 22:39:02.681,BACKWARD,21
69.0,13911.70339723866,2090.357493204772,-61763.301403916055,-58986.58889372217,-35313.386954472895,-32717.34359471126,-19446.129434839422,-21850.484234152347,0.0,0.0,0.0,193.0,1.0,155.0,0.0,2.0,3.0,252.0,411.0,2.0,1020.0,1744252742.6817815,0.0,2025-04-09 22:39:02.681,BACKWARD,21
70.0,13833.74051257855,2070.8444202952887,-61812.788166140104,-59051.14073170909,-35348.16626884535,-32749.61951370472,-19360.58930880896,-21882.00019383433,0.0,0.0,0.0,193.0,1.0,154.0,0.0,2.0,3.0,250.0,410.0,2.0,1018.0,1744252742.6817913,0.0,2025-04-09 22:39:02.681,BACKWARD,21
71.0,13850.124341264289,2042.8823879816996,-61819.87366913244,-59012.33810333468,-35401.34106890453,-32800.223863151536,-19284.168694516266,-21923.574438521202,0.0,0.0,0.0,193.0,1.0,154.0,0.0,2.0,3.0,252.0,410.0,2.0,1020.0,1744252742.6818008,0.0,2025-04-09 22:39:02.681,BACKWARD,21
72.0,13971.539017145518,2085.6859786136124,-61809.23423877171,-59028.54311806478,-35381.78329250614,-32765.109272612248,-19370.245262413653,-21894.740688173853,0.0,0.0,0.0,193.0,1.0,155.0,0.0,2.0,3.0,250.0,411.0,2.0,1018.0,1744252742.68181,0.0,2025-04-09 22:39:02.681,BACKWARD,21
73.0,13929.80831024746,2102.963877077565,-61753.60074682245,-58982.45382099794,-35307.866073592435,-32697.249376445936,-19526.752177089715,-21831.17232694296,0.0,0.0,0.0,193.0,1.0,154.0,0.0,2.0,3.0,250.0,410.0,2.0,1018.0,1744252742.6818192,0.0,2025-04-09 22:39:02.681,BACKWARD,21
74.0,13860.227329758089,2095.543097918403,-61791.4869536742,-59021.50231856136,-35332.90002738238,-32730.598179173256,-19327.62048573738,-21866.465731437893,0.0,0.0,0.0,193.0,1.0,155.0,0.0,2.0,3.0,251.0,411.0,2.0,1019.0,1744252742.6818285,0.0,2025-04-09 22:39:02.681,BACKWARD,21
75.0,13832.108835233312,2056.449896866071,-61809.301294005076,-59017.63546677059,-35383.794949507115,-32781.49310129799,-19340.45038705473,-21911.057461626227,0.0,0.0,0.0,193.0,1.0,154.0,0.0,2.0,3.0,249.0,410.0,2.0,1017.0,1744252742.681837,0.0,2025-04-09 22:39:02.681,BACKWARD,21
76.0,13951.80242679148,2074.063071496853,-61820.544221466094,-59025.05624592975,-35412.33812717654,-32798.905110228676,-19277.083191523932,-21929.85527871314,0.0,0.0,0.0,193.0,1.0,155.0,0.0,2.0,3.0,253.0,411.0,2.0,1021.0,1744252742.6818461,0.0,2025-04-09 22:39:02.681,BACKWARD,21
77.0,13924.354484600364,2080.6344843667134,-61767.99527025167,-59013.18746962398,-35324.24990227818,-32711.196864986046,-19599.440050058372,-21849.210184718395,0.0,0.0,0.0,193.0,1.0,154.0,0.0,2.0,3.0,249.0,410.0,2.0,1017.0,1744252742.6818554,0.0,2025-04-09 22:39:02.681,BACKWARD,21
78.0,13869.279786262488,2084.389577435205,-61789.095317017476,-59015.48969930288,-35329.189637802796,-32731.24637976246,-19299.658453423795,-21863.71646686989,0.0,0.0,0.0,193.0,1.0,155.0,0.0,2.0,3.0,251.0,411.0,2.0,1019.0,1744252742.6818645,0.0,2025-04-09 22:39:02.681,BACKWARD,21
79.0,13818.518974604485,2038.836722235289,-61812.5422969511,-59040.16602518154,-35372.395559834906,-32771.88185118221,-19378.046021228554,-21899.725127187387,0.0,0.0,0.0,193.0,1.0,155.0,0.0,2.0,3.0,251.0,411.0,2.0,1019.0,1744252742.6818733,0.0,2025-04-09 22:39:02.681,BACKWARD,21
80.0,13936.960868473157,2057.545132344381,-61818.21964004274,-59011.91342019003,-35409.790028308635,-32809.83511326732,-19189.531408492498,-21933.677427014998,0.0,0.0,0.0,193.0,1.0,155.0,0.0,2.0,3.0,252.0,411.0,2.0,1020.0,1744252742.6818826,0.0,2025-04-09 22:39:02.681,BACKWARD,21
81.0,13946.393304633297,2088.8822780707214,-61765.55893010604,-59025.078597674205,-35315.89034985189,-32713.499094664945,-19618.707253778848,-21860.18489124595,0.0,0.0,0.0,193.0,1.0,154.0,0.0,2.0,3.0,249.0,410.0,2.0,1017.0,1744252742.681892,0.0,2025-04-09 22:39:02.681,BACKWARD,21
82.0,13888.725803938605,2094.827842095833,-61775.97484302221,-58996.490716515866,-35321.500637710174,-32720.249321490446,-19310.186125062242,-21851.110082997096,0.0,0.0,0.0,193.0,1.0,155.0,0.0,2.0,3.0,251.0,411.0,2.0,1019.0,1744252742.6819007,0.0,2025-04-09 22:39:02.681,BACKWARD,21
83.0,13818.384864137754,2058.6627195671463,-61809.48010796072,-59046.80449328476,-35359.23038235073,-32754.425138762614,-19411.03719604459,-21885.42001073599,0.0,0.0,0.0,193.0,1.0,155.0,0.0,2.0,3.0,250.0,411.0,2.0,1018.0,1744252742.6819096,0.0,2025-04-09 22:39:02.681,BACKWARD,21
84.0,13925.09209216739,2074.9794930195208,-61804.76388988065,-58988.13116408959,-35403.084504972045,-32801.72143003004,-19165.21271052512,-21927.553049034246,0.0,0.0,0.0,193.0,1.0,155.0,0.0,2.0,3.0,250.0,411.0,2.0,1018.0,1744252742.6819513,0.0,2025-04-09 22:39:02.681,BACKWARD,21
85.0,13943.487577854106,2084.188411735107,-61789.94468330678,-59052.30302242077,-35342.57833273153,-32736.81196413183,-19592.622767999503,-21878.558025188213,0.0,0.0,0.0,193.0,1.0,155.0,0.0,2.0,3.0,251.0,411.0,2.0,1019.0,1744252742.6819603,0.0,2025-04-09 22:39:02.681,BACKWARD,21
86.0,13886.535332981985,2086.356530947272,-61783.32856694801,-59005.38671080908,-35332.7882686601,-32736.61079843173,-19345.34541909044,-21866.778655860264,0.0,0.0,0.0,193.0,1.0,154.0,0.0,2.0,3.0,250.0,410.0,2.0,1018.0,1744252742.6819694,0.0,2025-04-09 22:39:02.681,BACKWARD,21
87.0,13815.277971658466,2056.9416352440876,-61815.2915615191,-59064.06004000426,-35358.537478272614,-32753.776938173407,-19412.75828036765,-21886.42583923648,0.0,0.0,0.0,193.0,1.0,154.0,0.0,2.0,3.0,251.0,410.0,2.0,1019.0,1744252742.6819782,0.0,2025-04-09 22:39:02.681,BACKWARD,21
88.0,13889.888094650281,2049.923187485121,-61813.704587662774,-58998.18944909447,-35412.56164462109,-32809.43278186712,-19184.725783434606,-21936.91842996102,0.0,0.0,0.0,193.0,1.0,155.0,0.0,2.0,3.0,251.0,411.0,2.0,1019.0,1744252742.6819873,0.0,2025-04-09 22:39:02.681,BACKWARD,21
89.0,13950.640136079805,2072.74431857399,-61799.80180261157,-59055.16404571105,-35360.70559748478,-32746.53497296989,-19537.235145239254,-21891.23146429437,0.0,0.0,0.0,193.0,1.0,154.0,0.0,2.0,3.0,249.0,410.0,2.0,1017.0,1744252742.681996,0.0,2025-04-09 22:39:02.681,BACKWARD,21
90.0,13897.778260443005,2082.4673274120482,-61771.79506680907,-58994.59081823717,-35328.22851279122,-32726.28429249338,-19399.324881950008,-21855.379266188058,0.0,0.0,0.0,193.0,1.0,154.0,0.0,2.0,3.0,250.0,410.0,2.0,1018.0,1744252742.682005,0.0,2025-04-09 22:39:02.682,BACKWARD,21
91.0,13826.073864230379,2070.2409231949955,-61812.788166140104,-59063.00950801486,-35352.748376458694,-32752.81581316183,-19394.295739447563,-21883.318946757194,0.0,0.0,0.0,193.0,1.0,154.0,0.0,2.0,3.0,249.0,410.0,2.0,1017.0,1744252742.682014,0.0,2025-04-09 22:39:02.682,BACKWARD,21
92.0,13864.74238213806,2046.6598327946465,-61813.92810510733,-59008.98534166638,-35403.33037416105,-32806.661165554666,-19241.81213877346,-21927.687159500976,0.0,0.0,0.0,193.0,1.0,155.0,0.0,2.0,3.0,252.0,411.0,2.0,1020.0,1744252742.6820245,0.0,2025-04-09 22:39:02.682,BACKWARD,21
93.0,13962.844188552403,2073.3031121853724,-61811.64822717288,-59057.42157190104,-35379.25754538269,-32774.29583958338,-19445.61534471695,-21916.04190063976,0.0,0.0,0.0,193.0,1.0,154.0,0.0,2.0,3.0,249.0,410.0,2.0,1017.0,1744252742.6820333,0.0,2025-04-09 22:39:02.682,BACKWARD,21
94.0,13912.37394957232,2086.2671239694505,-61764.84367428347,-59001.050472384755,-35320.5395126986,-32722.41744070261,-19484.574435302547,-21858.5085104118,0.0,0.0,0.0,193.0,1.0,154.0,0.0,2.0,3.0,252.0,410.0,2.0,1020.0,1744252742.6820424,0.0,2025-04-09 22:39:02.682,BACKWARD,21
95.0,13843.128245249778,2079.0028070214757,-61800.829982856514,-59049.889034019594,-35337.68330069582,-32742.15403105665,-19353.21323313871,-21875.94287108694,0.0,0.0,0.0,193.0,1.0,154.0,0.0,2.0,3.0,249.0,410.0,2.0,1017.0,1744252742.6820512,0.0,2025-04-09 22:39:02.682,BACKWARD,21
96.0,13841.854195815826,2040.580158302803,-61809.368349238444,-59022.30698136175,-35388.42176060936,-32795.66410728265,-19297.06565106698,-21923.753252476843,0.0,0.0,0.0,193.0,1.0,155.0,0.0,2.0,3.0,252.0,411.0,2.0,1020.0,1744252742.68206,0.0,2025-04-09 22:39:02.682,BACKWARD,21
97.0,13957.457418138674,2063.9824347475096,-61818.35375050947,-59049.978440997416,-35399.798798537115,-32794.63592703771,-19336.62823875287,-21931.24108686937,0.0,0.0,0.0,193.0,1.0,153.0,0.0,2.0,3.0,249.0,409.0,2.0,1017.0,1744252742.682069,0.0,2025-04-09 22:39:02.682,BACKWARD,21
98.0,13923.169842144232,2081.4614989115594,-61763.48021787169,-59013.768614979825,-35322.0370795771,-32719.846990090253,-19554.848319870034,-21862.062437780194,0.0,0.0,0.0,193.0,1.0,155.0,0.0,2.0,3.0,252.0,411.0,2.0,1020.0,1744252742.6820853,0.0,2025-04-09 22:39:02.682,BACKWARD,21
99.0,13863.803608870938,2086.580048391825,-61790.65993912935,-59032.432321600005,-35334.442297749796,-32740.321188011312,-19322.72545370167,-21882.5142839568,0.0,0.0,0.0,193.0,1.0,154.0,0.0,2.0,3.0,248.0,410.0,2.0,1016.0,1744252742.6820993,0.0,2025-04-09 22:39:02.682,BACKWARD,21
100.0,13834.008733512013,2049.0067659624538,-61803.80276486907,-59027.24671688637,-35378.76580700467,-32778.87794719672,-19357.25889888512,-21916.04190063976,0.0,0.0,0.0,193.0,1.0,154.0,0.0,2.0,3.0,251.0,410.0,2.0,1019.0,1744252742.6821082,0.0,2025-04-09 22:39:02.682,BACKWARD,21
101.0,13937.810234762459,2054.0806119538083,-61830.960134382265,-59038.020257713826,-35427.3137959616,-32820.65335758369,-19251.982182500626,-21960.00778198335,0.0,0.0,0.0,193.0,1.0,154.0,0.0,2.0,3.0,250.0,410.0,2.0,1018.0,1744252742.6821172,0.0,2025-04-09 22:39:02.682,BACKWARD,21
102.0,13921.739330499093,2078.868696554744,-61774.58903486598,-59029.86187098764,-35338.80088791858,-32724.227932003494,-19631.581858585105,-21875.13820828655,0.0,0.0,0.0,193.0,1.0,154.0,0.0,2.0,3.0,251.0,410.0,2.0,1019.0,1744252742.6821263,0.0,2025-04-09 22:39:02.682,BACKWARD,21
103.0,13870.1738560407,2090.893935071699,-61785.00494778216,-59016.406120825544,-35338.063280351555,-32732.85570536324,-19328.53690726005,-21869.974955317375,0.0,0.0,0.0,193.0,1.0,155.0,0.0,2.0,3.0,252.0,411.0,2.0,1020.0,1744252742.682135,0.0,2025-04-09 22:39:02.682,BACKWARD,21
104.0,13817.356683892809,2052.0018997194647,-61803.9368753358,-59043.3846763831,-35366.40529232089,-32770.40663604816,-19396.530913893093,-21904.75426968983,0.0,0.0,0.0,193.0,1.0,155.0,0.0,2.0,3.0,250.0,411.0,2.0,1018.0,1744252742.682144,0.0,2025-04-09 22:39:02.682,BACKWARD,21
105.0,13926.94728695718,2058.483905611504,-61813.32460800703,-59012.96395217943,-35416.31673768959,-32816.80885753738,-19185.485742746085,-21948.943668477976,0.0,0.0,0.0,193.0,1.0,155.0,0.0,2.0,3.0,251.0,411.0,2.0,1019.0,1744252742.6821527,0.0,2025-04-09 22:39:02.682,BACKWARD,21
106.0,13941.52062434204,2084.6354466242133,-61765.402467894855,-59037.796740269274,-35329.21198954726,-32720.13756276817,-19623.714044536835,-21869.61732740609,0.0,0.0,0.0,193.0,1.0,154.0,0.0,2.0,3.0,250.0,410.0,2.0,1018.0,1744252742.6821616,0.0,2025-04-09 22:39:02.682,BACKWARD,21
107.0,13892.190324329178,2100.5498886763917,-61761.15563644835,-58993.78615543678,-35321.925320854825,-32719.08703077877,-19313.181258819255,-21854.954583043407,0.0,0.0,0.0,193.0,1.0,155.0,0.0,2.0,3.0,251.0,411.0,2.0,1019.0,1744252742.6821709,0.0,2025-04-09 22:39:02.682,BACKWARD,21
108.0,13819.368340893787,2058.5062573559594,-61797.72309037723,-59052.50418812087,-35358.71629222826,-32756.90618239715,-19410.053719288557,-21900.887417899063,0.0,0.0,0.0,193.0,1.0,154.0,0.0,2.0,3.0,249.0,410.0,2.0,1017.0,1744252742.6821797,0.0,2025-04-09 22:39:02.682,BACKWARD,21
109.0,13918.297161852975,2062.0154812354426,-61796.20317175426,-58991.886257158076,-35410.23706319774,-32803.91190098666,-19175.539216463472,-21942.10403467465,0.0,0.0,0.0,193.0,1.0,155.0,0.0,2.0,3.0,252.0,411.0,2.0,1020.0,1744252742.6821883,0.0,2025-04-09 22:39:02.682,BACKWARD,21
110.0,13959.916110028758,2097.3982927081934,-61766.14007546188,-59037.57322282472,-35335.80575416157,-32714.05788827633,-19592.265140088217,-21864.252908736817,0.0,0.0,0.0,193.0,1.0,154.0,0.0,2.0,3.0,249.0,410.0,2.0,1017.0,1744252742.682197,0.0,2025-04-09 22:39:02.682,BACKWARD,21
111.0,13895.65484471975,2096.213650252062,-61757.51230210213,-58986.499486744346,-35320.941844098794,-32716.85185633324,-19352.54268080505,-21857.90501331151,0.0,0.0,0.0,193.0,1.0,155.0,0.0,2.0,3.0,252.0,411.0,2.0,1020.0,1744252742.682206,0.0,2025-04-09 22:39:02.682,BACKWARD,21
112.0,13816.283800158955,2060.4955626124815,-61803.489840446695,-59062.47306614793,-35354.71532997076,-32749.463051493534,-19408.757318110147,-21895.14301957405,0.0,0.0,0.0,193.0,1.0,154.0,0.0,2.0,3.0,250.0,410.0,2.0,1018.0,1744252742.6822147,0.0,2025-04-09 22:39:02.682,BACKWARD,21
113.0,13892.167972584723,2065.278835925917,-61789.60940713995,-58987.23709431137,-35396.803664780105,-32791.17140664714,-19202.60717899885,-21930.771700235808,0.0,0.0,0.0,193.0,1.0,155.0,0.0,2.0,3.0,252.0,411.0,2.0,1020.0,1744252742.6822236,0.0,2025-04-09 22:39:02.682,BACKWARD,21
114.0,13968.43212466623,2100.9745718210424,-61775.2819389441,-59039.629583314614,-35351.340216558005,-32733.48155420799,-19516.96211301829,-21887.588129948155,0.0,0.0,0.0,193.0,1.0,155.0,0.0,2.0,3.0,252.0,411.0,2.0,1020.0,1744252742.6822371,0.0,2025-04-09 22:39:02.682,BACKWARD,21
115.0,13920.80055723197,2110.250545769995,-61733.66299076832,-58969.802733636236,-35303.14985551237,-32693.494283377444,-19422.078957805512,-21833.675722321954,0.0,0.0,0.0,193.0,1.0,154.0,0.0,2.0,3.0,249.0,410.0,2.0,1017.0,1744252742.682246,0.0,2025-04-09 22:39:02.682,BACKWARD,21
116.0,13832.578221866874,2068.4974871274817,-61792.69394787478,-59051.654821831566,-35343.04771936509,-32736.901371109652,-19364.41145711082,-21877.753362387823,0.0,0.0,0.0,193.0,1.0,155.0,0.0,2.0,3.0,252.0,411.0,2.0,1020.0,1744252742.6822548,0.0,2025-04-09 22:39:02.682,BACKWARD,21
117.0,13864.608271671328,2055.086440454297,-61783.507380903655,-58996.066033371215,-35382.319734373064,-32783.795330976885,-19246.573060342438,-21915.43840353947,0.0,0.0,0.0,193.0,1.0,154.0,0.0,2.0,3.0,249.0,410.0,2.0,1017.0,1744252742.6822636,0.0,2025-04-09 22:39:02.682,BACKWARD,21
118.0,13960.698421084693,2082.824955323333,-61786.61427338294,-59040.30013564827,-35371.25562086768,-32763.96933364503,-19394.8768848034,-21904.53075224528,0.0,0.0,0.0,193.0,1.0,154.0,0.0,2.0,3.0,252.0,410.0,2.0,1020.0,1744252742.6822722,0.0,2025-04-09 22:39:02.682,BACKWARD,21
119.0,13915.70435949616,2094.7607868624673,-61738.08863617047,-58988.13116408959,-35310.48122769371,-32707.598234128745,-19498.454868609297,-21855.625135377068,0.0,0.0,0.0,193.0,1.0,154.0,0.0,2.0,3.0,250.0,410.0,2.0,1018.0,1744252742.6822808,0.0,2025-04-09 22:39:02.682,BACKWARD,21
120.0,13841.049533015435,2076.611170364758,-61786.61427338294,-59041.998868226874,-35344.03119612112,-32742.601065945753,-19348.429959825273,-21892.23729279486,0.0,0.0,0.0,193.0,1.0,154.0,0.0,2.0,3.0,252.0,410.0,2.0,1020.0,1744252742.6822896,0.0,2025-04-09 22:39:02.682,BACKWARD,21
121.0,13836.489777146553,2044.1564374156521,-61790.4364216848,-59017.70252200396,-35384.53255707414,-32788.623307779235,-19326.927581659267,-21938.371293350614,0.0,0.0,0.0,193.0,1.0,154.0,0.0,2.0,3.0,249.0,410.0,2.0,1017.0,1744252742.6822987,0.0,2025-04-09 22:39:02.682,BACKWARD,21
122.0,13949.455493623675,2065.480001626015,-61798.28188398861,-59031.9852867109,-35396.06605721308,-32789.71854325754,-19302.363014502887,-21931.017569424817,0.0,0.0,0.0,193.0,1.0,154.0,0.0,2.0,3.0,251.0,410.0,2.0,1019.0,1744252742.6823075,0.0,2025-04-09 22:39:02.682,BACKWARD,21
123.0,13925.762644501048,2086.6024001362803,-61738.37920884839,-59000.35756830664,-35306.256747991654,-32700.199806714038,-19563.431389740872,-21839.59893460261,0.0,0.0,0.0,193.0,1.0,154.0,0.0,2.0,3.0,251.0,410.0,2.0,1019.0,1744252742.6823163,0.0,2025-04-09 22:39:02.682,BACKWARD,21
124.0,13855.26524248901,2077.6617023541576,-61778.34412793448,-59027.87256573112,-35332.58710296,-32736.23081877599,-19304.844058137423,-21873.640641408045,0.0,0.0,0.0,193.0,1.0,154.0,0.0,2.0,3.0,250.0,410.0,2.0,1018.0,1744252742.682325,0.0,2025-04-09 22:39:02.682,BACKWARD,21
125.0,13820.374169394276,2046.1010391832638,-61790.81640134054,-59029.50424307636,-35370.2497923672,-32768.81966219183,-19370.0217449691,-21912.510325015824,0.0,0.0,0.0,193.0,1.0,154.0,0.0,2.0,3.0,250.0,410.0,2.0,1018.0,1744252742.682334,0.0,2025-04-09 22:39:02.682,BACKWARD,21
126.0,13943.37581913183,2068.7880598054003,-61793.90094207537,-59007.21955385442,-35399.84350202602,-32788.824473479326,-19218.968655940134,-21935.085586915684,0.0,0.0,0.0,193.0,1.0,154.0,0.0,2.0,3.0,252.0,410.0,2.0,1020.0,1744252742.6823428,0.0,2025-04-09 22:39:02.682,BACKWARD,21
127.0,13936.916164984246,2092.704426372579,-61742.179005405786,-59012.11458589013,-35313.85634110646,-32693.382524655168,-19613.99103569878,-21846.952658528407,0.0,0.0,0.0,193.0,1.0,155.0,0.0,2.0,3.0,251.0,411.0,2.0,1019.0,1744252742.6823516,0.0,2025-04-09 22:39:02.682,BACKWARD,21
128.0,13877.058193332934,2094.6937316291014,-61760.84271202597,-59002.95037066345,-35324.004033089164,-32718.639995889665,-19307.01217734959,-21865.75047561532,0.0,0.0,0.0,193.0,1.0,154.0,0.0,2.0,3.0,250.0,410.0,2.0,1018.0,1744252742.6823604,0.0,2025-04-09 22:39:02.682,BACKWARD,21
129.0,13816.68613155915,2051.867789252733,-61786.94954954977,-59043.65289731657,-35355.251771837684,-32754.782766673896,-19404.219913985722,-21901.356804532625,0.0,0.0,0.0,193.0,1.0,154.0,0.0,2.0,3.0,251.0,410.0,2.0,1019.0,1744252742.6823738,0.0,2025-04-09 22:39:02.682,BACKWARD,21
130.0,13935.597412061385,2073.705443585568,-61780.46754365773,-58988.95817863443,-35392.936812989334,-32786.27637461142,-19171.448847228152,-21927.106014145138,0.0,0.0,0.0,193.0,1.0,154.0,0.0,2.0,3.0,250.0,410.0,2.0,1018.0,1744252742.6823823,0.0,2025-04-09 22:39:02.682,BACKWARD,21
131.0,13950.506025613073,2096.2360019965176,-61743.2742408841,-59024.430397085,-35312.89521609488,-32696.735286323463,-19604.715061749826,-21851.020676019274,0.0,0.0,0.0,193.0,1.0,154.0,0.0,2.0,3.0,252.0,410.0,2.0,1020.0,1744252742.6823912,0.0,2025-04-09 22:39:02.682,BACKWARD,21
132.0,13885.775373670504,2094.134938017719,-61752.527863088595,-58990.63455946858,-35319.60073943147,-32712.157989997628,-19312.82363090797,-21853.501719653814,0.0,0.0,0.0,193.0,1.0,154.0,0.0,2.0,3.0,250.0,410.0,2.0,1018.0,1744252742.6824005,0.0,2025-04-09 22:39:02.682,BACKWARD,21
133.0,13809.265352399989,2057.9027602556657,-61794.4373839423,-59059.32147017974,-35355.07295788205,-32752.771109672918,-19408.51144892114,-21899.591016720657,0.0,0.0,0.0,193.0,1.0,154.0,0.0,2.0,3.0,251.0,410.0,2.0,1019.0,1744252742.6824088,0.0,2025-04-09 22:39:02.682,BACKWARD,21
134.0,13899.074661621413,2053.7006322980683,-61794.50443917566,-58996.8259926827,-35404.93969976183,-32805.43181960962,-19171.717068161615,-21932.24691536986,0.0,0.0,0.0,193.0,1.0,154.0,0.0,2.0,3.0,251.0,410.0,2.0,1019.0,1744252742.6824176,0.0,2025-04-09 22:39:02.682,BACKWARD,21
135.0,13950.014287235057,2073.0125395074533,-61775.01371801063,-59051.76658055384,-35346.62399847794,-32736.744908898465,-19566.96296536481,-21886.448190980936,0.0,0.0,0.0,193.0,1.0,154.0,0.0,2.0,3.0,251.0,410.0,2.0,1019.0,1744252742.6824267,0.0,2025-04-09 22:39:02.682,BACKWARD,21
136.0,13894.514905752529,2081.796775078389,-61748.951583975744,-58988.57819897869,-35320.18188478731,-32717.455353433535,-19376.59315783896,-21857.927365055963,0.0,0.0,0.0,193.0,1.0,154.0,0.0,2.0,3.0,249.0,410.0,2.0,1017.0,1744252742.6824353,0.0,2025-04-09 22:39:02.682,BACKWARD,21
137.0,13828.532556120463,2069.190391205596,-61778.50059014566,-59049.50905436386,-35336.85628615097,-32736.163763542627,-19392.1276202354,-21875.80876062021,0.0,0.0,0.0,193.0,1.0,155.0,0.0,1.0,3.0,251.0,411.0,1.0,1019.0,1744252742.682444,0.0,2025-04-09 22:39:02.682,BACKWARD,21
138.0,13879.136905567279,2058.327443400317,-61775.103124988455,-58986.96887337791,-35386.56656581957,-32789.76324674645,-19202.406013298754,-21916.04190063976,0.0,0.0,0.0,193.0,1.0,154.0,0.0,2.0,3.0,250.0,410.0,2.0,1018.0,1744252742.682453,0.0,2025-04-09 22:39:02.682,BACKWARD,21
139.0,13961.48073214063,2087.1835454921184,-61768.28584292959,-59039.87545250362,-35352.72602471424,-32746.356159014245,-19472.057458407577,-21897.24408355285,0.0,0.0,0.0,193.0,1.0,154.0,0.0,1.0,3.0,251.0,410.0,1.0,1019.0,1744252742.6824615,0.0,2025-04-09 22:39:02.682,BACKWARD,21
140.0,13910.94343792718,2094.9843043070205,-61730.06435991101,-58981.71621343091,-35305.69795438027,-32716.51658016641,-19438.060455091054,-21870.064362295194,0.0,0.0,0.0,193.0,1.0,154.0,0.0,2.0,3.0,250.0,410.0,2.0,1018.0,1744252742.6824708,0.0,2025-04-09 22:39:02.682,BACKWARD,21
141.0,13840.490739404053,2083.182583234618,-61770.69983133076,-59039.71899029244,-35326.86505637944,-32735.895542609163,-19355.806035495527,-21878.312155999203,0.0,0.0,0.0,193.0,1.0,154.0,0.0,2.0,3.0,251.0,410.0,2.0,1019.0,1744252742.6824796,0.0,2025-04-09 22:39:02.682,BACKWARD,21
142.0,13851.2195767426,2050.7278502855124,-61778.56764537903,-58998.792946194764,-35381.04568493911,-32785.69522925559,-19258.79946455949,-21912.66678722701,0.0,0.0,0.0,193.0,1.0,154.0,0.0,2.0,3.0,249.0,410.0,2.0,1017.0,1744252742.6824882,0.0,2025-04-09 22:39:02.682,BACKWARD,21
143.0,13953.434104136719,2073.1019464852748,-61790.99521529618,-59041.41772287104,-35386.298344886105,-32777.425083807124,-19363.83031175498,-21916.600694251145,0.0,0.0,0.0,193.0,1.0,155.0,0.0,2.0,3.0,251.0,411.0,2.0,1019.0,1744252742.6824968,0.0,2025-04-09 22:39:02.682,BACKWARD,21
144.0,13916.352560085365,2089.0834437708195,-61734.95939194672,-58992.26623681382,-35311.06237304954,-32706.01126027242,-19521.834793309547,-21850.640696363535,0.0,0.0,0.0,193.0,1.0,154.0,0.0,2.0,3.0,250.0,410.0,2.0,1018.0,1744252742.68251,0.0,2025-04-09 22:39:02.682,BACKWARD,21
145.0,13853.052419787935,2086.3341792028164,-61767.54823536256,-59027.06790293073,-35323.98168134471,-32732.162801285125,-19319.998540878125,-21875.22761526437,0.0,0.0,0.0,193.0,1.0,155.0,0.0,2.0,3.0,251.0,411.0,2.0,1019.0,1744252742.682519,0.0,2025-04-09 22:39:02.682,BACKWARD,21
146.0,13825.872698530282,2039.8872542246884,-61784.89318905988,-59017.903687704056,-35372.93200170183,-32775.56988901733,-19317.517497243585,-21907.369423791104,0.0,0.0,0.0,193.0,1.0,154.0,0.0,2.0,3.0,249.0,410.0,2.0,1017.0,1744252742.6825275,0.0,2025-04-09 22:39:02.682,BACKWARD,21
147.0,13952.472979125141,2070.2409231949955,-61789.54235190658,-59018.12720514861,-35386.946545475315,-32779.883775697206,-19257.972450014648,-21914.879609928084,0.0,0.0,0.0,193.0,1.0,154.0,0.0,2.0,3.0,250.0,410.0,2.0,1018.0,1744252742.6825364,0.0,2025-04-09 22:39:02.682,BACKWARD,21
148.0,13930.702380025672,2095.6548566406796,-61733.26065936812,-58998.524725261304,-35299.551224655064,-32690.297983920336,-19570.651003199935,-21843.979876515852,0.0,0.0,0.0,193.0,1.0,155.0,0.0,2.0,3.0,251.0,411.0,2.0,1019.0,1744252742.6825452,0.0,2025-04-09 22:39:02.682,BACKWARD,21
149.0,13867.893978106258,2094.9396008181097,-61762.49674111566,-59008.91828643302,-35318.59491093098,-32714.28140572088,-19294.76342138808,-21866.175158759972,0.0,0.0,0.0,193.0,1.0,154.0,0.0,2.0,3.0,251.0,410.0,2.0,1019.0,1744252742.6825538,0.0,2025-04-09 22:39:02.682,BACKWARD,21
150.0,13817.110814703801,2051.3984026191715,-61788.603578639464,-59031.40414135506,-35364.23717310872,-32751.76528117243,-19365.529044333583,-21893.690156184453,0.0,0.0,0.0,193.0,1.0,154.0,0.0,2.0,3.0,251.0,410.0,2.0,1019.0,1744252742.6825628,0.0,2025-04-09 22:39:02.682,BACKWARD,21
151.0,13928.623667791328,2066.150553959674,-61802.75223287967,-59012.718082990425,-35407.44309514083,-32791.46197932505,-19188.011489869536,-21929.452947312948,0.0,0.0,0.0,193.0,1.0,154.0,0.0,2.0,3.0,249.0,410.0,2.0,1017.0,1744252742.6825712,0.0,2025-04-09 22:39:02.682,BACKWARD,21
152.0,13922.342827599387,2076.4323564091155,-61757.71346780223,-59031.33708612169,-35321.90296911037,-32698.61283285771,-19614.236904887784,-21855.155748743506,0.0,0.0,0.0,193.0,1.0,155.0,0.0,2.0,3.0,252.0,411.0,2.0,1020.0,1744252742.6825829,0.0,2025-04-09 22:39:02.682,BACKWARD,21
153.0,13861.613137914317,2079.4721936550372,-61771.392735408874,-59010.70642598945,-35326.64153893489,-32716.29306272186,-19309.33675877294,-21858.95554530091,0.0,0.0,0.0,193.0,1.0,154.0,0.0,2.0,3.0,250.0,410.0,2.0,1018.0,1744252742.6825917,0.0,2025-04-09 22:39:02.682,BACKWARD,21
154.0,13800.749337762516,2037.7638385014343,-61802.8863433464,-59060.6402231026,-35359.386844561915,-32757.86730740873,-19405.31514946403,-21905.916560401507,0.0,0.0,0.0,193.0,1.0,155.0,0.0,2.0,3.0,252.0,411.0,2.0,1020.0,1744252742.6826005,0.0,2025-04-09 22:39:02.682,BACKWARD,21
155.0,13909.758795471049,2049.677318296113,-61795.46556418724,-59000.91636191802,-35401.05049622661,-32799.55331081788,-19165.25741401403,-21939.041845684274,0.0,0.0,0.0,193.0,1.0,154.0,0.0,2.0,3.0,251.0,410.0,2.0,1019.0,1744252742.682609,0.0,2025-04-09 22:39:02.682,BACKWARD,21
156.0,13938.860766751859,2078.3993099211825,-61758.205206180246,-59040.90363274857,-35318.6843179088,-32711.465085919514,-19587.660680730427,-21866.398676204524,0.0,0.0,0.0,193.0,1.0,154.0,0.0,2.0,3.0,250.0,410.0,2.0,1018.0,1744252742.682618,0.0,2025-04-09 22:39:02.682,BACKWARD,21
157.0,13877.326414266397,2082.2661617119506,-61758.965165491725,-58998.61413223913,-35320.941844098794,-32723.87030409221,-19319.752671689115,-21865.839882593144,0.0,0.0,0.0,193.0,1.0,155.0,0.0,2.0,3.0,253.0,411.0,2.0,1021.0,1744252742.6826267,0.0,2025-04-09 22:39:02.682,BACKWARD,21
158.0,13800.391709851232,2044.1564374156521,-61799.95826482276,-59066.13875223861,-35354.6929782263,-32756.34738878577,-19405.69512911977,-21900.775659176787,0.0,0.0,0.0,193.0,1.0,154.0,0.0,9.0,3.0,249.0,410.0,9.0,1017.0,1744252742.6826353,0.0,2025-04-09 22:39:02.682,BACKWARD,21
159.0,13880.746231168061,2045.542245571881,-61791.91163681885,-58994.5237630038,-35399.463522370286,-32802.74961027499,-19174.198111796155,-21932.67159851451,0.0,0.0,0.0,193.0,1.0,155.0,0.0,20.0,3.0,252.0,411.0,20.0,1020.0,1744252742.6826491,0.0,2025-04-09 22:39:02.682,BACKWARD,21
160.0,13938.23491790711,2068.452783638571,-61780.55695063555,-59054.44878988848,-35350.28968456861,-32743.71865316852,-19531.9601335478,-21887.990461348352,0.0,0.0,0.0,193.0,1.0,154.0,0.0,30.0,3.0,249.0,410.0,30.0,1017.0,1744252742.682658,0.0,2025-04-09 22:39:02.682,BACKWARD,21
161.0,13897.733556954094,2091.028045538431,-61739.45209258224,-58978.609320951626,-35308.84955034847,-32707.888806806663,-19385.153875965345,-21847.80202481771,0.0,0.0,0.0,193.0,1.0,154.0,0.0,38.0,3.0,250.0,410.0,38.0,1018.0,1744252742.6826668,0.0,2025-04-09 22:39:02.682,BACKWARD,21
162.0,13827.2138031976,2071.760841817956,-61778.6347006124,-59046.603327584664,-35335.67164369484,-32735.448507720055,-19373.86624501541,-21878.356859488114,0.0,0.0,0.0,193.0,1.0,155.0,0.0,39.0,3.0,253.0,411.0,39.0,1021.0,1744252742.6826756,0.0,2025-04-09 22:39:02.682,BACKWARD,21
163.0,13856.874568089792,2039.5519780578588,-61791.66576762984,-59004.29147533077,-35400.715220059785,-32801.833188752316,-19219.862725718347,-21937.074892172204,0.0,0.0,0.0,193.0,1.0,154.0,0.0,39.0,3.0,249.0,410.0,39.0,1017.0,1744252742.6826844,0.0,2025-04-09 22:39:02.682,BACKWARD,21
164.0,13943.554633087473,2065.278835925917,-61793.67742463082,-59058.24858644588,-35377.916440715366,-32767.903240669162,-19445.86121390596,-21912.890304671564,0.0,0.0,0.0,193.0,1.0,155.0,0.0,38.0,3.0,252.0,411.0,38.0,1020.0,1744252742.682693,0.0,2025-04-09 22:39:02.682,BACKWARD,21
165.0,13899.342882554876,2081.2379814670066,-61744.45888334023,-58995.663701971025,-35316.113867296444,-32714.527274909888,-19465.597804259993,-21858.75437960081,0.0,0.0,0.0,193.0,1.0,154.0,0.0,39.0,3.0,249.0,410.0,39.0,1017.0,1744252742.6827016,0.0,2025-04-09 22:39:02.682,BACKWARD,21
166.0,13841.071884759891,2084.6577983686684,-61770.96805226422,-59035.427455357014,-35326.70859416826,-32726.19488551556,-19349.413436581308,-21876.389905976048,0.0,0.0,0.0,193.0,1.0,155.0,0.0,38.0,3.0,252.0,411.0,38.0,1020.0,1744252742.6827106,0.0,2025-04-09 22:39:02.682,BACKWARD,21
167.0,13846.123379006789,2061.1214114572304,-61775.12547673291,-58998.167097350015,-35379.83869073852,-32771.81479594884,-19281.598243903907,-21909.11285985862,0.0,0.0,0.0,193.0,1.0,154.0,0.0,39.0,3.0,250.0,410.0,39.0,1018.0,1744252742.6827197,0.0,2025-04-09 22:39:02.682,BACKWARD,21
168.0,13948.51672035655,2069.995054005987,-61792.06809903003,-59036.25446990186,-35394.03204846764,-32777.89447044068,-19338.639895753848,-21927.15071763405,0.0,0.0,0.0,193.0,1.0,155.0,0.0,39.0,3.0,251.0,411.0,39.0,1019.0,1744252742.6827283,0.0,2025-04-09 22:39:02.682,BACKWARD,21
169.0,13908.104766381357,2078.3769581767274,-61738.133339659376,-58998.88235317259,-35310.99531781618,-32702.47968464848,-19541.101997030022,-21848.964315529385,0.0,0.0,0.0,193.0,1.0,154.0,0.0,39.0,3.0,249.0,410.0,39.0,1017.0,1744252742.6827376,0.0,2025-04-09 22:39:02.682,BACKWARD,21
170.0,13841.608326626818,2076.588818620303,-61775.4831046442,-59028.163138409036,-35330.46368723675,-32729.413536717122,-19313.650645452817,-21870.89137684004,0.0,0.0,0.0,193.0,1.0,154.0,0.0,39.0,3.0,250.0,410.0,39.0,1018.0,1744252742.6827464,0.0,2025-04-09 22:39:02.682,BACKWARD,21
171.0,13810.606457067306,2035.416905333627,-61793.85623858646,-59027.7831587533,-35377.53646105963,-32773.96056341655,-19348.87699471438,-21917.181839606983,0.0,0.0,0.0,193.0,1.0,154.0,0.0,39.0,3.0,252.0,410.0,39.0,1020.0,1744252742.6827552,0.0,2025-04-09 22:39:02.682,BACKWARD,21
172.0,13935.28448763901,2055.8911032546885,-61801.09820378998,-59024.89978371857,-35405.92317651787,-32793.96537470405,-19259.20179595969,-21941.96992420792,0.0,0.0,0.0,193.0,1.0,154.0,0.0,40.0,3.0,251.0,410.0,40.0,1019.0,1744252742.6827638,0.0,2025-04-09 22:39:02.682,BACKWARD,21
173.0,13906.048405891468,2061.7919637908894,-61760.82036028151,-59030.040684943284,-35325.59100694549,-32716.449524933047,-19606.749070495258,-21858.93319355645,0.0,0.0,0.0,193.0,1.0,154.0,0.0,40.0,3.0,252.0,410.0,40.0,1020.0,1744252742.6827726,0.0,2025-04-09 22:39:02.682,BACKWARD,21
174.0,13854.192358755156,2076.0523767533755,-61770.8786452864,-59015.44499581397,-35321.25476852116,-32721.36690871321,-19298.138534800833,-21849.634867863046,0.0,0.0,0.0,193.0,1.0,153.0,0.0,40.0,3.0,249.0,409.0,40.0,1017.0,1744252742.682786,0.0,2025-04-09 22:39:02.682,BACKWARD,21
175.0,13795.563733048884,2032.7123442545349,-61799.019491555635,-59047.22917642941,-35365.37711207594,-32764.885755167696,-19383.298681175555,-21901.11093534362,0.0,0.0,0.0,193.0,1.0,154.0,0.0,40.0,3.0,252.0,410.0,40.0,1020.0,1744252742.6827948,0.0,2025-04-09 22:39:02.682,BACKWARD,21
176.0,13915.436138562696,2051.130181685708,-61802.28284624611,-59007.9795131659,-35404.29149917263,-32795.15001716018,-19184.54696947896,-21922.38979606507,0.0,0.0,0.0,193.0,1.0,154.0,0.0,41.0,3.0,250.0,410.0,41.0,1018.0,1744252742.6828032,0.0,2025-04-09 22:39:02.682,BACKWARD,21
177.0,13923.0357316775,2075.448879653082,-61756.88645325738,-59032.231155899906,-35314.6833556513,-32702.07735324828,-19608.179582140398,-21848.673742851468,0.0,0.0,0.0,193.0,1.0,154.0,0.0,41.0,3.0,252.0,410.0,41.0,1020.0,1744252742.682812,0.0,2025-04-09 22:39:02.682,BACKWARD,21
178.0,13860.450847202641,2076.6558738536687,-61772.75619182065,-59010.281742844796,-35329.50256222517,-32724.607911659234,-19311.59428496293,-21869.28205123926,0.0,0.0,0.0,193.0,1.0,155.0,0.0,41.0,3.0,253.0,411.0,41.0,1021.0,1744252742.6828208,0.0,2025-04-09 22:39:02.682,BACKWARD,21
179.0,13789.953445190604,2037.4285623346047,-61808.36252073795,-59068.440981917505,-35368.50635629968,-32762.315304555337,-19426.92928635231,-21912.845601182653,0.0,0.0,0.0,193.0,1.0,154.0,0.0,41.0,3.0,249.0,410.0,41.0,1017.0,1744252742.6828296,0.0,2025-04-09 22:39:02.682,BACKWARD,21
180.0,13891.028033617502,2047.486847339493,-61799.22065725573,-59000.46932702891,-35406.81724629608,-32797.988688706006,-19173.102876317844,-21929.43059556849,0.0,0.0,0.0,193.0,1.0,155.0,0.0,41.0,3.0,252.0,411.0,41.0,1020.0,1744252742.6828384,0.0,2025-04-09 22:39:02.682,BACKWARD,21
181.0,13927.729598013115,2069.100984227775,-61773.31498543203,-59051.520711364836,-35336.94569312879,-32717.812981344818,-19584.39732603995,-21866.08575178215,0.0,0.0,0.0,193.0,1.0,154.0,0.0,42.0,3.0,249.0,410.0,42.0,1017.0,1744252742.6828473,0.0,2025-04-09 22:39:02.682,BACKWARD,21
182.0,13874.711260165128,2084.769557090945,-61758.09344745797,-58993.830858925685,-35320.00307083167,-32710.772181841396,-19347.20061388023,-21850.7077515969,0.0,0.0,0.0,193.0,1.0,154.0,0.0,42.0,3.0,252.0,410.0,42.0,1020.0,1744252742.682856,0.0,2025-04-09 22:39:02.682,BACKWARD,21
183.0,13808.483041344052,2064.6529870811687,-61785.675500115816,-59049.59846134168,-35337.839762907,-32724.451449448046,-19401.381242439897,-21867.583318660658,0.0,0.0,0.0,193.0,1.0,154.0,0.0,42.0,3.0,251.0,410.0,42.0,1019.0,1744252742.6828647,0.0,2025-04-09 22:39:02.682,BACKWARD,21
184.0,13877.281710777488,2050.8172572633334,-61784.669671615324,-58986.700652444444,-35395.596670579514,-32784.24236586599,-19190.693699204174,-21921.04869139775,0.0,0.0,0.0,193.0,1.0,155.0,0.0,42.0,3.0,252.0,411.0,42.0,1020.0,1744252743.1665857,0.0,2025-04-09 22:39:03.166,BACKWARD,21
185.0,13955.28929892651,2083.9201908016435,-61771.86212204244,-59043.5858420832,-35349.50737351267,-32732.76629838542,-19522.9076770434,-21890.896188127543,0.0,0.0,0.0,193.0,1.0,155.0,0.0,42.0,3.0,252.0,411.0,42.0,1020.0,1744252743.1666243,0.0,2025-04-09 22:39:03.166,BACKWARD,21
186.0,13897.577094742906,2092.5032606724812,-61743.96714496221,-58989.20404782344,-35317.49967545267,-32712.023879530894,-19424.93998109579,-21861.056609279705,0.0,0.0,0.0,193.0,1.0,154.0,0.0,42.0,3.0,249.0,410.0,42.0,1017.0,1744252743.1666443,0.0,2025-04-09 22:39:03.166,BACKWARD,21
187.0,13824.129262462768,2073.258408696462,-61783.37327043692,-59053.17474045453,-35342.91360889836,-32737.57192344331,-19391.45706790174,-21884.011850835308,0.0,0.0,0.0,193.0,1.0,155.0,0.0,42.0,3.0,252.0,411.0,42.0,1020.0,1744252743.1666644,0.0,2025-04-09 22:39:03.166,BACKWARD,21
188.0,13855.332297722376,2050.638443307691,-61781.74159309168,-58998.524725261304,-35389.71816178777,-32788.64565952369,-19247.556537098473,-21917.628874496088,0.0,0.0,0.0,193.0,1.0,155.0,0.0,42.0,3.0,253.0,411.0,42.0,1021.0,1744252743.1667151,0.0,2025-04-09 22:39:03.166,BACKWARD,21
189.0,13955.736333815616,2077.326426187328,-61781.27220645812,-59041.864757760144,-35370.76388248967,-32764.10344411176,-19410.165478010833,-21905.00013887884,0.0,0.0,0.0,193.0,1.0,154.0,0.0,43.0,3.0,250.0,410.0,43.0,1018.0,1744252743.1667328,0.0,2025-04-09 22:39:03.166,BACKWARD,21
190.0,13902.829754689903,2079.963932033054,-61738.58037454848,-58995.73075720439,-35318.61726267544,-32716.42717318859,-19490.09531618301,-21853.32290569817,0.0,0.0,0.0,193.0,1.0,155.0,0.0,43.0,3.0,252.0,411.0,43.0,1020.0,1744252743.1667502,0.0,2025-04-09 22:39:03.166,BACKWARD,21
191.0,13836.422721913186,2072.74431857399,-61773.73966857668,-59042.40119962707,-35341.72896644223,-32742.71282466803,-19353.861433727914,-21882.13430430106,0.0,0.0,0.0,193.0,1.0,155.0,0.0,42.0,3.0,252.0,411.0,42.0,1020.0,1744252743.1667595,0.0,2025-04-09 22:39:03.166,BACKWARD,21
192.0,13826.789120052948,2034.1205041552194,-61783.216808225734,-59022.48579531739,-35390.656935054896,-32797.429895094625,-19323.440709524242,-21932.224563625405,0.0,0.0,0.0,193.0,1.0,154.0,0.0,43.0,3.0,249.0,410.0,43.0,1017.0,1744252743.1667688,0.0,2025-04-09 22:39:03.166,BACKWARD,21
193.0,13948.606127334373,2064.317710914339,-61783.86500881494,-59035.18158616801,-35394.03204846764,-32788.64565952369,-19320.534982745052,-21927.843621712163,0.0,0.0,0.0,193.0,1.0,154.0,0.0,43.0,3.0,250.0,410.0,43.0,1018.0,1744252743.166778,0.0,2025-04-09 22:39:03.166,BACKWARD,21
194.0,13920.174708387221,2082.422623923138,-61724.632886008374,-59000.20110609545,-35306.390858458384,-32702.502036392932,-19565.331288019574,-21845.924478283465,0.0,0.0,0.0,193.0,1.0,154.0,0.0,43.0,3.0,249.0,410.0,43.0,1017.0,1744252743.1667871,0.0,2025-04-09 22:39:03.166,BACKWARD,21
195.0,13855.64522214475,2081.8861820562106,-61762.742610304675,-59026.285591874796,-35332.60945470446,-32730.5758274288,-19321.652569967817,-21867.650373894023,0.0,0.0,0.0,193.0,1.0,155.0,0.0,43.0,3.0,251.0,411.0,43.0,1019.0,1744252743.1667993,0.0,2025-04-09 22:39:03.166,BACKWARD,21
196.0,13815.92617224767,2043.3964781041716,-61777.51711338963,-59034.242812900884,-35366.29353359861,-32769.19964184757,-19366.51252108962,-21900.84271441015,0.0,0.0,0.0,193.0,1.0,154.0,0.0,43.0,3.0,249.0,410.0,43.0,1017.0,1744252743.1668081,0.0,2025-04-09 22:39:03.166,BACKWARD,21
197.0,13941.252403408576,2066.3070161708615,-61780.89222680238,-59018.46248131544,-35388.06413269808,-32794.72533401553,-19215.213562871642,-21927.01660716732,0.0,0.0,0.0,193.0,1.0,154.0,0.0,43.0,3.0,252.0,410.0,43.0,1020.0,1744252743.166817,0.0,2025-04-09 22:39:03.166,BACKWARD,21
198.0,13932.781092260015,2092.4362054391154,-61727.44920580974,-59018.26131561534,-35298.634803132394,-32698.38931541316,-19598.59068376907,-21847.757321328798,0.0,0.0,0.0,193.0,1.0,154.0,0.0,43.0,3.0,251.0,410.0,43.0,1019.0,1744252743.166826,0.0,2025-04-09 22:39:03.166,BACKWARD,21
199.0,13872.520789208507,2092.123281016741,-61750.583261320986,-59007.28660908778,-35316.1362190409,-32718.684699378577,-19295.277511510554,-21856.742722599833,0.0,0.0,0.0,193.0,1.0,153.0,0.0,43.0,3.0,249.0,409.0,43.0,1017.0,1744252743.1668348,0.0,2025-04-09 22:39:03.166,BACKWARD,21
200.0,13794.915532459681,2027.8173122188227,-61797.03018629911,-59063.45654290397,-35372.86494646847,-32777.02275240693,-19398.833143571992,-21912.510325015824,0.0,0.0,0.0,193.0,1.0,154.0,0.0,43.0,3.0,252.0,410.0,43.0,1020.0,1744252743.1668437,0.0,2025-04-09 22:39:03.166,BACKWARD,21
201.0,13914.27384785102,2051.0407747078866,-61792.381023452406,-59013.09806264616,-35408.58303410805,-32814.86425576976,-19184.278748545497,-21950.06125570074,0.0,0.0,0.0,193.0,1.0,154.0,0.0,43.0,3.0,250.0,410.0,43.0,1018.0,1744252743.1668532,0.0,2025-04-09 22:39:03.166,BACKWARD,21
202.0,13946.326249399932,2092.324446716839,-61736.54636580305,-59030.57712681021,-35309.72126838223,-32709.006394029428,-19617.366149111527,-21863.068266280683,0.0,0.0,0.0,193.0,1.0,155.0,0.0,43.0,3.0,252.0,411.0,43.0,1020.0,1744252743.166862,0.0,2025-04-09 22:39:03.166,BACKWARD,21
203.0,13877.237007288577,2082.154402989674,-61749.89035724287,-59001.51985901831,-35319.91366385385,-32728.072432049805,-19319.81972692248,-21865.012868048296,0.0,0.0,0.0,193.0,1.0,154.0,0.0,43.0,3.0,249.0,410.0,43.0,1017.0,1744252743.1668768,0.0,2025-04-09 22:39:03.166,BACKWARD,21
204.0,13803.11862267478,2044.1340856711968,-61785.56374139354,-59062.51776963685,-35352.681321225326,-32756.168574830124,-19422.816565372537,-21894.7183364294,0.0,0.0,0.0,193.0,1.0,155.0,0.0,43.0,3.0,252.0,411.0,43.0,1020.0,1744252743.1668856,0.0,2025-04-09 22:39:03.166,BACKWARD,21
205.0,13891.899751651259,2049.967890974032,-61782.70271810326,-58997.675358972,-35398.81532178108,-32806.5941103213,-19169.280728015987,-21940.472357329414,0.0,0.0,0.0,193.0,1.0,154.0,0.0,43.0,3.0,251.0,410.0,43.0,1019.0,1744252743.166895,0.0,2025-04-09 22:39:03.166,BACKWARD,21
206.0,13946.28154591102,2088.703464115079,-61752.93019448879,-59042.64706881608,-35329.189637802796,-32720.472838935002,-19566.135950819964,-21870.645507651032,0.0,0.0,0.0,193.0,1.0,155.0,0.0,43.0,3.0,251.0,411.0,43.0,1019.0,1744252743.1669035,0.0,2025-04-09 22:39:03.166,BACKWARD,21
207.0,13887.65292020475,2090.737472860512,-61736.1216826584,-58987.32650128919,-35310.43652420479,-32710.369850441202,-19356.40953259582,-21840.64946659201,0.0,0.0,0.0,193.0,1.0,155.0,0.0,43.0,3.0,252.0,411.0,43.0,1020.0,1744252743.1669128,0.0,2025-04-09 22:39:03.166,BACKWARD,21
208.0,13808.773614021971,2057.9251120001213,-61783.37327043692,-59064.28355744881,-35345.46170776626,-32749.306589282347,-19398.229646471696,-21894.7183364294,0.0,0.0,0.0,193.0,1.0,154.0,0.0,43.0,3.0,250.0,410.0,43.0,1018.0,1744252743.1669216,0.0,2025-04-09 22:39:03.166,BACKWARD,21
209.0,13871.73847815257,2051.286643896895,-61778.120610489925,-58997.58595199418,-35395.66372581288,-32797.0946189278,-19214.81123147145,-21933.476261314903,0.0,0.0,0.0,193.0,1.0,155.0,0.0,43.0,3.0,252.0,411.0,43.0,1020.0,1744252743.1669304,0.0,2025-04-09 22:39:03.166,BACKWARD,21
210.0,13956.496293127097,2085.5295164024255,-61767.39177315137,-59045.39633338408,-35355.117661370954,-32740.455298478046,-19499.080717454042,-21894.85244689613,0.0,0.0,0.0,193.0,1.0,154.0,0.0,44.0,3.0,249.0,410.0,44.0,1017.0,1744252743.1669393,0.0,2025-04-09 22:39:03.166,BACKWARD,21
211.0,13897.599446487362,2088.0776152703306,-61738.73683675967,-58990.9251321465,-35320.315995254045,-32711.263920219415,-19457.75234195618,-21864.85640583711,0.0,0.0,0.0,193.0,1.0,154.0,0.0,44.0,3.0,252.0,410.0,44.0,1020.0,1744252743.1669483,0.0,2025-04-09 22:39:03.166,BACKWARD,21
212.0,13825.246849685533,2069.3468534167832,-61776.3324709335,-59050.58193809771,-35334.62111170544,-32733.660368163633,-19379.02949798459,-21887.543426459244,0.0,0.0,0.0,193.0,1.0,154.0,0.0,43.0,3.0,249.0,410.0,43.0,1017.0,1744252743.1669571,0.0,2025-04-09 22:39:03.166,BACKWARD,21
213.0,13845.251660973032,2042.5694635593254,-61775.70662208875,-59004.29147533077,-35378.0505511821,-32782.811854220854,-19258.732409326127,-21928.491822301366,0.0,0.0,0.0,193.0,1.0,154.0,0.0,43.0,3.0,250.0,410.0,43.0,1018.0,1744252743.166966,0.0,2025-04-09 22:39:03.166,BACKWARD,21
214.0,13957.300955927487,2081.5285541449257,-61770.40925865284,-59030.21949889893,-35361.39850156289,-32750.044196849372,-19367.69716354575,-21901.11093534362,0.0,0.0,0.0,193.0,1.0,155.0,0.0,44.0,3.0,252.0,411.0,44.0,1020.0,1744252743.166975,0.0,2025-04-09 22:39:03.166,BACKWARD,21
215.0,13905.020225646524,2088.0776152703306,-61727.53861278756,-58990.701614701946,-35301.920509567324,-32691.37086765419,-19501.47235411076,-21840.113024725084,0.0,0.0,0.0,193.0,1.0,154.0,0.0,44.0,3.0,250.0,410.0,44.0,1018.0,1744252743.166984,0.0,2025-04-09 22:39:03.166,BACKWARD,21
216.0,13837.652067858227,2081.3497401892832,-61769.00109875216,-59036.343876879684,-35327.289739524094,-32722.171571513605,-19330.615619494394,-21871.7630948738,0.0,0.0,0.0,193.0,1.0,154.0,0.0,44.0,3.0,251.0,410.0,44.0,1019.0,1744252743.166993,0.0,2025-04-09 22:39:03.166,BACKWARD,21
217.0,13817.468442615085,2038.7920187463785,-61783.73089834821,-59026.15148140806,-35376.597687792506,-32774.87698493922,-19328.156927604312,-21924.71437748842,0.0,0.0,0.0,193.0,1.0,154.0,0.0,44.0,3.0,249.0,410.0,44.0,1017.0,1744252743.1670015,0.0,2025-04-09 22:39:03.167,BACKWARD,21
218.0,13929.85301373637,2054.0135567204425,-61795.13028802041,-59038.86962400313,-35396.13311244644,-32786.56694728934,-19284.593377660916,-21927.888325201075,0.0,0.0,0.0,193.0,1.0,154.0,0.0,44.0,3.0,252.0,410.0,44.0,1020.0,1744252743.1670153,0.0,2025-04-09 22:39:03.167,BACKWARD,21
219.0,13905.601371002362,2072.8560772962664,-61737.66395302582,-59016.09319640317,-35306.86024509195,-32697.919928779596,-19578.049430614643,-21833.340446155125,0.0,0.0,0.0,193.0,1.0,154.0,0.0,44.0,3.0,250.0,410.0,44.0,1018.0,1744252743.1670241,0.0,2025-04-09 22:39:03.167,BACKWARD,21
220.0,13841.965954538102,2071.64908309568,-61772.42091565382,-59032.45467334446,-35329.48021048072,-32733.034519318884,-19312.175430318766,-21862.732990113855,0.0,0.0,0.0,193.0,1.0,154.0,0.0,44.0,3.0,251.0,410.0,44.0,1019.0,1744252743.1670332,0.0,2025-04-09 22:39:03.167,BACKWARD,21
221.0,13789.77463123496,2025.805655217845,-61784.826133826515,-59053.10768522116,-35379.726932016245,-32782.09659839828,-19387.679623088792,-21915.013720394818,0.0,0.0,0.0,193.0,1.0,154.0,0.0,43.0,3.0,251.0,410.0,43.0,1019.0,1744252743.1670423,0.0,2025-04-09 22:39:03.167,BACKWARD,21
222.0,13923.505118311063,2062.3731091467275,-61753.89131950037,-59013.38863532408,-35399.77644679266,-32804.67186029814,-19223.90839146476,-21940.025322440306,0.0,0.0,0.0,193.0,1.0,154.0,0.0,44.0,3.0,250.0,410.0,44.0,1018.0,1744252743.167051,0.0,2025-04-09 22:39:03.167,BACKWARD,21
223.0,13932.825795748926,2092.1679845056515,-61688.04308033503,-59008.85123119965,-35295.080875764,-32702.70320209303,-19617.656721789448,-21848.18200447345,0.0,0.0,0.0,193.0,1.0,154.0,0.0,44.0,3.0,253.0,410.0,44.0,1021.0,1744252743.16706,0.0,2025-04-09 22:39:03.167,BACKWARD,21
224.0,13862.306041992431,2082.132051245219,-61717.65914173832,-58997.34008280517,-35317.99141383069,-32733.235685018983,-19298.987901090135,-21854.21697547638,0.0,0.0,0.0,193.0,1.0,154.0,0.0,44.0,3.0,249.0,410.0,44.0,1017.0,1744252743.1670687,0.0,2025-04-09 22:39:03.167,BACKWARD,21
225.0,13801.799869751916,2045.4528385940598,-61748.30338338654,-59037.14853968007,-35354.290646826106,-32765.24338307898,-19409.159649510344,-21884.28007176877,0.0,0.0,0.0,193.0,1.0,155.0,0.0,44.0,3.0,251.0,411.0,44.0,1019.0,1744252743.1670775,0.0,2025-04-09 22:39:03.167,BACKWARD,21
226.0,13909.84820244887,2054.706460798557,-61749.532729331586,-58978.743431418356,-35402.57041484957,-32803.53192133092,-19168.274899515498,-21911.236275581872,0.0,0.0,0.0,193.0,1.0,154.0,0.0,44.0,3.0,248.0,410.0,44.0,1016.0,1744252743.1670864,0.0,2025-04-09 22:39:03.167,BACKWARD,21
227.0,13933.988086460602,2074.711272086057,-61717.83795569396,-59018.5295365488,-35324.294605767085,-32717.34359471126,-19612.135840908988,-21846.125643983563,0.0,0.0,0.0,193.0,1.0,155.0,0.0,44.0,3.0,252.0,411.0,44.0,1020.0,1744252743.1670952,0.0,2025-04-09 22:39:03.167,BACKWARD,21
228.0,13884.434269003186,2089.7763478489337,-61708.5172782561,-58960.52675968728,-35311.911739338844,-32707.933510295574,-19340.048055654534,-21827.394882130015,0.0,0.0,0.0,193.0,1.0,154.0,0.0,44.0,3.0,252.0,410.0,44.0,1020.0,1744252743.1671047,0.0,2025-04-09 22:39:03.167,BACKWARD,21
229.0,13808.103061688313,2058.4615538670487,-61747.2752031416,-59020.6306005276,-35340.656082708374,-32734.666196664122,-19420.022597315623,-21865.102275026118,0.0,0.0,0.0,193.0,1.0,154.0,0.0,44.0,3.0,249.0,410.0,44.0,1017.0,1744252743.1671135,0.0,2025-04-09 22:39:03.167,BACKWARD,21
230.0,13890.022205117013,2051.800734019367,-61746.04585719656,-58952.033096794265,-35388.399408864905,-32786.99163043399,-19182.959995622638,-21908.978749391885,0.0,0.0,0.0,193.0,1.0,154.0,0.0,44.0,3.0,251.0,410.0,44.0,1019.0,1744252743.1671224,0.0,2025-04-09 22:39:03.167,BACKWARD,21
231.0,13953.925842514736,2085.931847802621,-61723.381188318876,-59001.58691425168,-35324.96515810074,-32715.108420265726,-19547.271078499685,-21850.37247543007,0.0,0.0,0.0,193.0,1.0,154.0,0.0,44.0,3.0,250.0,410.0,44.0,1018.0,1744252743.167131,0.0,2025-04-09 22:39:03.167,BACKWARD,21
232.0,13886.110649837334,2086.2671239694505,-61709.83603117896,-58949.61910839309,-35310.48122769371,-32710.70512660803,-19381.622300341405,-21838.12371946856,0.0,0.0,0.0,193.0,1.0,153.0,0.0,44.0,3.0,251.0,409.0,44.0,1019.0,1744252743.1671398,0.0,2025-04-09 22:39:03.167,BACKWARD,21
233.0,13819.278933915966,2065.9493882595766,-61744.1236071734,-59008.024216654805,-35332.27417853763,-32727.29012099387,-19397.492038904675,-21851.08773125264,0.0,0.0,0.0,193.0,1.0,154.0,0.0,44.0,3.0,250.0,410.0,44.0,1018.0,1744252743.1671531,0.0,2025-04-09 22:39:03.167,BACKWARD,21
234.0,13864.518864693508,2053.186542175596,-61739.42974083778,-58942.9135850565,-35379.77163550516,-32776.6874762401,-19217.739309995093,-21888.303385770727,0.0,0.0,0.0,193.0,1.0,154.0,0.0,44.0,3.0,249.0,410.0,44.0,1017.0,1744252743.167162,0.0,2025-04-09 22:39:03.167,BACKWARD,21
235.0,13944.04637146549,2071.023234250931,-61742.91661297281,-59000.35756830664,-35357.643408494405,-32746.445565992068,-19455.427760532828,-21875.965222831397,0.0,0.0,0.0,193.0,1.0,155.0,0.0,44.0,3.0,252.0,411.0,44.0,1020.0,1744252743.1671708,0.0,2025-04-09 22:39:03.167,BACKWARD,21
236.0,13906.249571591565,2091.7656531054563,-61686.43375473425,-58927.69204708243,-35288.86709080543,-32686.565242596298,-19456.679458222327,-21817.291893636215,0.0,0.0,0.0,193.0,1.0,154.0,0.0,44.0,3.0,249.0,410.0,44.0,1017.0,1744252743.1671796,0.0,2025-04-09 22:39:03.167,BACKWARD,21
237.0,13831.505338133018,2070.9785307620205,-61734.44530182425,-58991.14864959105,-35322.17119004383,-32721.076336035294,-19354.241413383654,-21858.866138323086,0.0,0.0,0.0,193.0,1.0,154.0,0.0,44.0,3.0,252.0,410.0,44.0,1020.0,1744252743.1671884,0.0,2025-04-09 22:39:03.167,BACKWARD,21
238.0,13841.854195815826,2047.7103647840459,-61739.00505769313,-58952.18955900545,-35372.01558017917,-32761.600048732766,-19283.766363116072,-21887.610481692613,0.0,0.0,0.0,193.0,1.0,154.0,0.0,44.0,3.0,252.0,410.0,44.0,1020.0,1744252743.1671977,0.0,2025-04-09 22:39:03.167,BACKWARD,21
239.0,13951.310688413465,2074.5101063859593,-61747.901051986344,-58984.890161143565,-35376.1506529034,-32755.945057385572,-19356.07425642899,-21895.075964340685,0.0,0.0,0.0,193.0,1.0,154.0,0.0,44.0,3.0,248.0,410.0,44.0,1016.0,1744252743.1672063,0.0,2025-04-09 22:39:03.167,BACKWARD,21
240.0,13911.502231538563,2086.960028047565,-61694.92741762727,-58945.327573457675,-35302.52400666762,-32689.739190308952,-19552.277869257676,-21835.12858571155,0.0,0.0,0.0,193.0,1.0,155.0,0.0,44.0,3.0,252.0,411.0,44.0,1020.0,1744252743.167215,0.0,2025-04-09 22:39:03.167,BACKWARD,21
241.0,13850.772541853494,2088.5022984149814,-61726.84570870945,-58971.99320459285,-35320.42775397632,-32708.581710884777,-19341.92560218878,-21843.354027671103,0.0,0.0,0.0,193.0,1.0,153.0,0.0,44.0,3.0,250.0,409.0,44.0,1018.0,1744252743.1672237,0.0,2025-04-09 22:39:03.167,BACKWARD,21
242.0,13831.684152088661,2061.5684463463363,-61729.97495293319,-58954.60354740662,-35354.067129381554,-32735.940246098075,-19358.35413436343,-21863.64941163652,0.0,0.0,0.0,193.0,1.0,154.0,0.0,44.0,3.0,251.0,410.0,44.0,1019.0,1744252743.1672325,0.0,2025-04-09 22:39:03.167,BACKWARD,21
243.0,13945.43217962172,2076.901743042677,-61744.66004904033,-58961.42082946549,-35378.31877211556,-32764.975162145518,-19256.51958662505,-21898.47342949789,0.0,0.0,0.0,193.0,1.0,153.0,0.0,44.0,3.0,250.0,409.0,44.0,1018.0,1744252743.167241,0.0,2025-04-09 22:39:03.167,BACKWARD,21
244.0,13921.18053688771,2084.9483710465875,-61700.649464207825,-58962.24784401034,-35297.96425079874,-32692.354344410225,-19601.764631481725,-21843.443434648925,0.0,0.0,0.0,193.0,1.0,154.0,0.0,44.0,3.0,252.0,410.0,44.0,1020.0,1744252743.1672497,0.0,2025-04-09 22:39:03.167,BACKWARD,21
245.0,13862.462504203619,2091.296266471895,-61721.88362144037,-58963.61130042211,-35308.80484685956,-32710.503960907932,-19318.188049577242,-21849.52310914077,0.0,0.0,0.0,193.0,1.0,153.0,0.0,44.0,3.0,251.0,409.0,44.0,1019.0,1744252743.1672585,0.0,2025-04-09 22:39:03.167,BACKWARD,21
246.0,13810.517050089486,2051.867789252733,-61741.128473416386,-58985.158382077025,-35343.98649263221,-32736.00730133144,-19387.41140215533,-21863.51530116979,0.0,0.0,0.0,193.0,1.0,154.0,0.0,44.0,3.0,249.0,410.0,44.0,1017.0,1744252743.167267,0.0,2025-04-09 22:39:03.167,BACKWARD,21
247.0,13932.71403702665,2070.196219706085,-61741.486101327675,-58951.49665492734,-35380.84451923901,-32768.81966219183,-19192.057155615945,-21894.85244689613,0.0,0.0,0.0,193.0,1.0,154.0,0.0,44.0,3.0,251.0,410.0,44.0,1019.0,1744252743.167276,0.0,2025-04-09 22:39:03.167,BACKWARD,21
248.0,13934.479824838618,2087.407062936671,-61697.43081300626,-58974.02721333828,-35297.56191939854,-32681.357286138213,-19620.584800313092,-21827.685454807932,0.0,0.0,0.0,193.0,1.0,154.0,0.0,44.0,3.0,249.0,410.0,44.0,1017.0,1744252743.1672895,0.0,2025-04-09 22:39:03.167,BACKWARD,21
249.0,13876.722917166106,2090.581010649325,-61706.662083466304,-58947.38393394756,-35300.04296303308,-32700.311565436314,-19315.30467454251,-21836.447338634414,0.0,0.0,0.0,193.0,1.0,155.0,0.0,44.0,3.0,252.0,411.0,44.0,1020.0,1744252743.1672983,0.0,2025-04-09 22:39:03.167,BACKWARD,21
250.0,13801.39753835172,2046.3022048833616,-61743.05072343955,-59004.13501311959,-35340.20904781926,-32741.885810123185,-19414.144088523877,-21881.486103711857,0.0,0.0,0.0,193.0,1.0,154.0,0.0,44.0,3.0,249.0,410.0,44.0,1017.0,1744252743.167307,0.0,2025-04-09 22:39:03.167,BACKWARD,21
251.0,13899.365234299332,2048.7832485179006,-61743.74362751766,-58948.30035547023,-35389.98638272123,-32790.21028163556,-19170.04068732747,-21915.90779017303,0.0,0.0,0.0,193.0,1.0,155.0,0.0,44.0,3.0,251.0,411.0,44.0,1019.0,1744252743.1673155,0.0,2025-04-09 22:39:03.167,BACKWARD,21
252.0,13935.642115550294,2075.381824419716,-61714.66400798131,-58996.13308860458,-35314.32572774002,-32708.916987051605,-19593.06980288861,-21852.697056853423,0.0,0.0,0.0,193.0,1.0,154.0,0.0,44.0,3.0,249.0,410.0,44.0,1017.0,1744252743.1673243,0.0,2025-04-09 22:39:03.167,BACKWARD,21
253.0,13887.60821671584,2087.8764495702326,-61700.35889152991,-58942.53360540076,-35299.37241069942,-32712.94030105356,-19352.229756382676,-21854.21697547638,0.0,0.0,0.0,193.0,1.0,154.0,0.0,44.0,3.0,251.0,410.0,44.0,1019.0,1744252743.1673331,0.0,2025-04-09 22:39:03.167,BACKWARD,21
254.0,13815.523840847474,2056.002861976965,-61736.90399371434,-59008.73947247738,-35326.2392075347,-32735.470859464513,-19421.050777560566,-21875.13820828655,0.0,0.0,0.0,193.0,1.0,154.0,0.0,44.0,3.0,249.0,410.0,44.0,1017.0,1744252743.167342,0.0,2025-04-09 22:39:03.167,BACKWARD,21
255.0,13886.490629493073,2050.772553774423,-61732.50070005664,-58940.90192805552,-35376.91061221488,-32781.560156531355,-19195.588731239885,-21904.28488305627,0.0,0.0,0.0,193.0,1.0,154.0,0.0,44.0,3.0,249.0,410.0,44.0,1017.0,1744252743.1673503,0.0,2025-04-09 22:39:03.167,BACKWARD,21
0.0,13947.734409300616,2072.319635429339,-61730.62315352239,-59008.76182422183,-35341.1925245753,-32734.107403052738,-19529.546145146625,-21874.892339097543,0.0,0.0,0.0,193.0,1.0,154.0,0.0,44.0,3.0,251.0,410.0,44.0,1019.0,1744252743.167359,0.0,2025-04-09 22:39:03.167,BACKWARD,21
1.0,13895.833658675392,2079.7851180774114,-61697.47551649517,-58945.84166358014,-35301.94286131178,-32703.75373408243,-19418.569733926026,-21841.8564607926,0.0,0.0,0.0,193.0,1.0,154.0,0.0,44.0,3.0,249.0,410.0,44.0,1017.0,1744252743.167368,0.0,2025-04-09 22:39:03.167,BACKWARD,21
2.0,13820.329465905364,2057.6568910666574,-61740.569679805005,-59013.343931835174,-35330.597797703485,-32732.09574605176,-19394.183980725287,-21879.09446705514,0.0,0.0,0.0,193.0,1.0,154.0,0.0,44.0,3.0,252.0,410.0,44.0,1020.0,1744252743.1673768,0.0,2025-04-09 22:39:03.167,BACKWARD,21
3.0,13852.851254087836,2036.6462512786688,-61740.05558968253,-58959.07389629768,-35381.42566459485,-32779.92847918612,-19259.67118259325,-21918.880572185586,0.0,0.0,0.0,193.0,1.0,154.0,0.0,44.0,3.0,249.0,410.0,44.0,1017.0,1744252743.1673853,0.0,2025-04-09 22:39:03.167,BACKWARD,21
4.0,13945.722752299638,2061.7472603019787,-61740.010886193624,-59001.385748551584,-35362.22551610774,-32746.512621225433,-19438.79806265808,-21894.740688173853,0.0,0.0,0.0,193.0,1.0,154.0,0.0,44.0,3.0,252.0,410.0,44.0,1020.0,1744252743.167394,0.0,2025-04-09 22:39:03.167,BACKWARD,21
5.0,13893.330263296399,2072.8113738073557,-61696.112060083404,-58948.03213453676,-35303.395724701375,-32694.500111877933,-19501.360595388483,-21843.17521371546,0.0,0.0,0.0,193.0,1.0,154.0,0.0,44.0,3.0,250.0,410.0,44.0,1018.0,1744252743.1674027,0.0,2025-04-09 22:39:03.167,BACKWARD,21
6.0,13832.77938756697,2075.1359552307076,-61730.48904305566,-58991.66273971352,-35321.25476852116,-32717.634167389177,-19362.489207087663,-21869.99730706183,0.0,0.0,0.0,193.0,1.0,154.0,0.0,44.0,3.0,251.0,410.0,44.0,1019.0,1744252743.1674163,0.0,2025-04-09 22:39:03.167,BACKWARD,21
7.0,13835.238079457054,2047.64330955068,-61736.61342103642,-58962.13608528806,-35367.5452312881,-32762.71763595553,-19318.366863532887,-21905.514229001314,0.0,0.0,0.0,193.0,1.0,154.0,0.0,44.0,3.0,251.0,410.0,44.0,1019.0,1744252743.1674252,0.0,2025-04-09 22:39:03.167,BACKWARD,21
8.0,13954.842264037403,2069.6150743502467,-61736.00992393612,-58977.78230640678,-35368.70752199978,-32754.402787018156,-19332.224945095175,-21902.921426644498,0.0,0.0,0.0,193.0,1.0,154.0,0.0,44.0,3.0,250.0,410.0,44.0,1018.0,1744252743.167434,0.0,2025-04-09 22:39:03.167,BACKWARD,21
9.0,13920.957019443158,2084.166059990652,-61680.667004664785,-58944.50055891283,-35285.98371577069,-32675.18820466855,-19562.78318915167,-21822.36573962757,0.0,0.0,0.0,193.0,1.0,154.0,0.0,44.0,3.0,251.0,410.0,44.0,1019.0,1744252743.1674423,0.0,2025-04-09 22:39:03.167,BACKWARD,21
10.0,13847.59859414084,2072.967836018543,-61724.18585111927,-58981.42564075299,-35316.337384741,-32716.71774586651,-19326.033511881054,-21858.03912377824,0.0,0.0,0.0,193.0,1.0,153.0,0.0,44.0,3.0,250.0,409.0,44.0,1018.0,1744252743.1674514,0.0,2025-04-09 22:39:03.167,BACKWARD,21
11.0,13800.101137173313,2024.3080883393395,-61749.89035724287,-58998.83764968368,-35368.57341153305,-32771.568926759835,-19377.666041572815,-21909.939874403462,0.0,0.0,0.0,193.0,1.0,154.0,0.0,44.0,3.0,252.0,410.0,44.0,1020.0,1744252743.1674604,0.0,2025-04-09 22:39:03.167,BACKWARD,21
12.0,13922.856917721858,2043.709402526546,-61757.40054337985,-58987.9747018784,-35399.32941190355,-32794.412409593155,-19250.484615622117,-21927.731862989887,0.0,0.0,0.0,193.0,1.0,154.0,0.0,44.0,3.0,248.0,410.0,44.0,1016.0,1744252743.1674693,0.0,2025-04-09 22:39:03.167,BACKWARD,21
13.0,13915.726711240615,2068.251617938473,-61701.34236828594,-58981.09036458616,-35306.45791369175,-32699.126922980184,-19624.138727681486,-21843.108158482097,0.0,0.0,0.0,193.0,1.0,154.0,0.0,44.0,3.0,252.0,410.0,44.0,1020.0,1744252743.1674778,0.0,2025-04-09 22:39:03.167,BACKWARD,21
14.0,13858.50624543503,2074.4877546415037,-61715.73689171516,-58968.79690513574,-35312.15760852786,-32719.08703077877,-19324.982979891658,-21854.328734198658,0.0,0.0,0.0,193.0,1.0,154.0,0.0,44.0,3.0,250.0,410.0,44.0,1018.0,1744252743.1674867,0.0,2025-04-09 22:39:03.167,BACKWARD,21
15.0,13798.603570294807,2034.2099111330406,-61742.246060639154,-59003.911495675035,-35350.915533413354,-32756.95088588606,-19408.489097176684,-21895.94768237444,0.0,0.0,0.0,193.0,1.0,154.0,0.0,44.0,3.0,252.0,410.0,44.0,1020.0,1744252743.1674964,0.0,2025-04-09 22:39:03.167,BACKWARD,21
16.0,13919.168879886733,2055.3099578988504,-61742.20135715025,-58956.70461138542,-35394.74730429021,-32790.992592691495,-19189.777277681504,-21925.653150755545,0.0,0.0,0.0,193.0,1.0,154.0,0.0,44.0,3.0,251.0,410.0,44.0,1019.0,1744252743.1675093,0.0,2025-04-09 22:39:03.167,BACKWARD,21
17.0,13929.249516636077,2076.678225598124,-61705.09746135443,-58990.03106236828,-35315.21979751823,-32704.75956258292,-19629.860774262044,-21862.017734291287,0.0,0.0,0.0,193.0,1.0,154.0,0.0,44.0,3.0,250.0,410.0,44.0,1018.0,1744252743.1675203,0.0,2025-04-09 22:39:03.167,BACKWARD,21
18.0,13872.520789208507,2081.997940778487,-61712.49588876914,-58956.302279985226,-35319.80190513157,-32715.600158643745,-19340.338628332454,-21869.684382639454,0.0,0.0,0.0,193.0,1.0,155.0,0.0,44.0,3.0,252.0,411.0,44.0,1020.0,1744252743.167529,0.0,2025-04-09 22:39:03.167,BACKWARD,21
19.0,13806.650198298717,2053.2759491534175,-61739.83207223798,-59008.35949282163,-35346.33342580002,-32736.18611528708,-19445.481234250215,-21896.059441096717,0.0,0.0,0.0,193.0,1.0,154.0,0.0,44.0,3.0,250.0,410.0,44.0,1018.0,1744252743.167538,0.0,2025-04-09 22:39:03.167,BACKWARD,21
20.0,13896.146583097767,2053.544170086881,-61741.351990860945,-58952.301317727724,-35394.72495254576,-32791.551386302875,-19191.587768982383,-21932.403377581046,0.0,0.0,0.0,193.0,1.0,155.0,0.0,44.0,3.0,252.0,411.0,44.0,1020.0,1744252743.1675467,0.0,2025-04-09 22:39:03.167,BACKWARD,21
21.0,13933.228127149121,2063.513048113948,-61728.38797907686,-59016.71904524792,-35337.638597206904,-32725.546684926354,-19588.64415748646,-21874.311193741705,0.0,0.0,0.0,193.0,1.0,154.0,0.0,44.0,3.0,249.0,410.0,44.0,1017.0,1744252743.1675608,0.0,2025-04-09 22:39:03.167,BACKWARD,21
22.0,13877.46052473313,2068.475135383026,-61714.97693240368,-58962.98545157736,-35322.551169699575,-32717.455353433535,-19379.990622996167,-21862.151844758017,0.0,0.0,0.0,193.0,1.0,155.0,0.0,44.0,3.0,252.0,411.0,44.0,1020.0,1744252743.1675696,0.0,2025-04-09 22:39:03.167,BACKWARD,21
23.0,13809.555925077908,2050.4596293520485,-61747.40931360833,-59022.39638833957,-35344.85821066597,-32733.10157455225,-19437.16638531284,-21889.55508346022,0.0,0.0,0.0,193.0,1.0,154.0,0.0,44.0,3.0,248.0,410.0,44.0,1016.0,1744252743.1675787,0.0,2025-04-09 22:39:03.167,BACKWARD,21
24.0,13873.996004342558,2045.7657630164342,-61740.41321759382,-58953.62007065059,-35392.28861240013,-32782.56598503184,-19220.95796119666,-21928.558877534735,0.0,0.0,0.0,193.0,1.0,154.0,0.0,44.0,3.0,252.0,410.0,44.0,1020.0,1744252743.1675875,0.0,2025-04-09 22:39:03.167,BACKWARD,21
25.0,13947.80146453398,2076.0523767533755,-61735.205261135736,-59015.06501615823,-35355.7435102157,-32738.980083343995,-19513.72111007227,-21903.39081327806,0.0,0.0,0.0,193.0,1.0,154.0,0.0,44.0,3.0,252.0,410.0,44.0,1020.0,1744252743.1675963,0.0,2025-04-09 22:39:03.167,BACKWARD,21
26.0,13894.358443541341,2080.813298322356,-61698.74956592912,-58954.73765787335,-35311.68822189429,-32711.57684464179,-19448.632830218416,-21873.37242047458,0.0,0.0,0.0,193.0,1.0,153.0,0.0,44.0,3.0,249.0,409.0,44.0,1017.0,1744252743.1676054,0.0,2025-04-09 22:39:03.167,BACKWARD,21
27.0,13819.144823449235,2058.1709811891296,-61745.30824962953,-59022.3293331062,-35346.51223975566,-32742.176382801103,-19404.9798732972,-21903.033185366774,0.0,0.0,0.0,193.0,1.0,154.0,0.0,44.0,3.0,252.0,410.0,44.0,1020.0,1744252743.167614,0.0,2025-04-09 22:39:03.167,BACKWARD,21
28.0,13847.062152273913,2037.4732658235152,-61741.776674005596,-58970.74150690335,-35397.42951362485,-32782.90126119868,-19303.100622069913,-21931.218735124916,0.0,0.0,0.0,193.0,1.0,154.0,0.0,44.0,3.0,249.0,410.0,44.0,1017.0,1744252743.1676228,0.0,2025-04-09 22:39:03.167,BACKWARD,21
29.0,13956.652755338284,2072.2078767070625,-61733.05949366802,-59001.27398982931,-35371.43443482333,-32755.34156028528,-19423.487117706194,-21912.935008160475,0.0,0.0,0.0,193.0,1.0,154.0,0.0,44.0,3.0,250.0,410.0,44.0,1018.0,1744252743.1676316,0.0,2025-04-09 22:39:03.167,BACKWARD,21
30.0,13907.925952425714,2079.293379699395,-61684.645615177826,-58954.60354740662,-35301.65228863386,-32696.51176887891,-19514.68223508385,-21849.858385307598,0.0,0.0,0.0,193.0,1.0,154.0,0.0,44.0,3.0,252.0,410.0,44.0,1020.0,1744252743.1676404,0.0,2025-04-09 22:39:03.167,BACKWARD,21
31.0,13838.233213214065,2067.223437693529,-61725.057569153025,-59000.11169911763,-35326.41802149034,-32726.28429249338,-19353.861433727914,-21883.363650246105,0.0,0.0,0.0,193.0,1.0,154.0,0.0,44.0,3.0,250.0,410.0,44.0,1018.0,1744252743.1676495,0.0,2025-04-09 22:39:03.167,BACKWARD,21
32.0,13819.725968805073,2027.906719196644,-61739.58620304897,-58983.63846345407,-35377.782330248636,-32774.94404017258,-19341.992657422146,-21927.39658682306,0.0,0.0,0.0,193.0,1.0,155.0,0.0,44.0,3.0,251.0,411.0,44.0,1019.0,1744252743.167658,0.0,2025-04-09 22:39:03.167,BACKWARD,21
33.0,13941.297106897488,2062.0154812354426,-61743.54246181756,-58991.64038796907,-35389.22642340975,-32776.53101402891,-19310.879029140357,-21932.939819447973,0.0,0.0,0.0,193.0,1.0,154.0,0.0,44.0,3.0,249.0,410.0,44.0,1017.0,1744252743.167667,0.0,2025-04-09 22:39:03.167,BACKWARD,21
34.0,13915.391435073787,2082.713196601057,-61691.574655958975,-58971.09913481464,-35310.391820715886,-32698.5681293688,-19596.534323279182,-21868.36562971659,0.0,0.0,0.0,193.0,1.0,154.0,0.0,44.0,3.0,252.0,410.0,44.0,1020.0,1744252743.1676755,0.0,2025-04-09 22:39:03.167,BACKWARD,21
35.0,13849.07380927489,2074.1301267302188,-61729.68438025527,-58993.987321136876,-35337.07980359552,-32728.586522172278,-19341.67973299977,-21887.163446803504,0.0,0.0,0.0,193.0,1.0,154.0,0.0,44.0,3.0,249.0,410.0,44.0,1017.0,1744252743.1676843,0.0,2025-04-09 22:39:03.167,BACKWARD,21
36.0,13810.271180900478,2036.6909547675796,-61745.062380440526,-59000.35756830664,-35376.1506529034,-32761.48829001049,-19410.36664371093,-21917.695929729456,0.0,0.0,0.0,193.0,1.0,154.0,0.0,44.0,3.0,252.0,410.0,44.0,1020.0,1744252743.1676984,0.0,2025-04-09 22:39:03.167,BACKWARD,21
37.0,13933.51869982704,2057.45572536656,-61744.5259385736,-58972.19437029295,-35398.72591480326,-32784.89056645519,-19233.251420647077,-21934.504441559846,0.0,0.0,0.0,193.0,1.0,154.0,0.0,44.0,3.0,251.0,410.0,44.0,1019.0,1744252743.1677072,0.0,2025-04-09 22:39:03.167,BACKWARD,21
38.0,13912.820984461427,2064.585931847803,-61710.39482479034,-58995.84251592666,-35325.32278601203,-32709.386373685167,-19633.25823941925,-21883.028374079273,0.0,0.0,0.0,193.0,1.0,154.0,0.0,44.0,3.0,250.0,410.0,44.0,1018.0,1744252743.167716,0.0,2025-04-09 22:39:03.167,BACKWARD,21
39.0,13854.1700070107,2067.3575481602606,-61726.175156375786,-58981.872675642095,-35336.252789050675,-32729.748812883954,-19348.988753436657,-21895.34418527415,0.0,0.0,0.0,193.0,1.0,154.0,0.0,44.0,3.0,251.0,410.0,44.0,1019.0,1744252743.167725,0.0,2025-04-09 22:39:03.167,BACKWARD,21
40.0,13796.413099338186,2031.192425631574,-61743.45305483974,-59013.07571090171,-35359.252734095186,-32753.44166200658,-19441.636734203905,-21910.677481970488,0.0,0.0,0.0,193.0,1.0,154.0,0.0,44.0,3.0,248.0,410.0,44.0,1016.0,1744252743.167734,0.0,2025-04-09 22:39:03.167,BACKWARD,21
41.0,13907.344807069876,2048.4032688621605,-61741.64256353886,-58960.79498062075,-35399.731743303746,-32794.50181657098,-19195.47697251761,-21939.891211973576,0.0,0.0,0.0,193.0,1.0,154.0,0.0,44.0,3.0,252.0,410.0,44.0,1020.0,1744252743.1677427,0.0,2025-04-09 22:39:03.167,BACKWARD,21
42.0,13935.105673683367,2079.9192285441436,-61702.951693886724,-58997.541248505266,-35316.404439974365,-32700.80330381433,-19628.720835294826,-21860.31900171268,0.0,0.0,0.0,193.0,1.0,154.0,0.0,45.0,3.0,250.0,410.0,45.0,1018.0,1744252743.167752,0.0,2025-04-09 22:39:03.167,BACKWARD,21
43.0,13878.086373577878,2084.8142605798557,-61699.621283962886,-58952.48013168337,-35312.47053295023,-32707.352364939736,-19352.766198249603,-21854.775769087766,0.0,0.0,0.0,193.0,1.0,154.0,0.0,44.0,3.0,251.0,410.0,44.0,1019.0,1744252743.1677608,0.0,2025-04-09 22:39:03.167,BACKWARD,21
44.0,13797.374224349765,2035.3498501002612,-61747.141092674865,-59026.0844261747,-35355.341178815506,-32751.25119104996,-19449.32573429653,-21908.33054880268,0.0,0.0,0.0,193.0,1.0,155.0,0.0,44.0,3.0,252.0,411.0,44.0,1020.0,1744252743.1677697,0.0,2025-04-09 22:39:03.167,BACKWARD,21
45.0,13874.711260165128,2025.3139168398282,-61751.902014243846,-58968.171056290994,-35410.68409808685,-32807.287014399415,-19211.816097714436,-21952.87757550211,0.0,0.0,0.0,193.0,1.0,155.0,0.0,44.0,3.0,251.0,411.0,44.0,1019.0,1744252743.1677785,0.0,2025-04-09 22:39:03.167,BACKWARD,21
46.0,13929.741255014093,2054.8852747541996,-61728.87971745488,-59021.167042394525,-35344.634693221415,-32733.99564433046,-19589.560579009125,-21897.534656230768,0.0,0.0,0.0,193.0,1.0,154.0,0.0,44.0,3.0,250.0,410.0,44.0,1018.0,1744252743.1677873,0.0,2025-04-09 22:39:03.167,BACKWARD,21
47.0,13887.65292020475,2073.8172023078446,-61692.73694667065,-58947.87567232558,-35303.105152023454,-32706.502998650434,-19396.709727848738,-21858.7096761119,0.0,0.0,0.0,193.0,1.0,155.0,0.0,44.0,3.0,251.0,411.0,44.0,1019.0,1744252743.1677961,0.0,2025-04-09 22:39:03.167,BACKWARD,21
48.0,13815.188564680644,2052.4712863530262,-61733.21595587921,-59016.31671384773,-35331.223646548235,-32734.15210654165,-19411.30541697805,-21894.33835677366,0.0,0.0,0.0,193.0,1.0,154.0,0.0,44.0,3.0,250.0,410.0,44.0,1018.0,1744252743.5675795,0.0,2025-04-09 22:39:03.567,BACKWARD,21
49.0,13866.686983905673,2047.7327165285012,-61726.55513603153,-58951.474303182884,-35377.44705408181,-32783.05772340986,-19234.436063103207,-21933.38685433708,0.0,0.0,0.0,193.0,1.0,155.0,0.0,44.0,3.0,252.0,411.0,44.0,1020.0,1744252743.5676215,0.0,2025-04-09 22:39:03.567,BACKWARD,21
50.0,13942.705266798172,2069.5703708613364,-61729.527918044085,-59010.0805771447,-35355.56469626006,-32748.546629970868,-19488.776563260148,-21914.454926783434,0.0,0.0,0.0,193.0,1.0,154.0,0.0,45.0,3.0,250.0,410.0,45.0,1018.0,1744252743.5676417,0.0,2025-04-09 22:39:03.567,BACKWARD,21
51.0,13891.296254550965,2075.8288593088223,-61691.52995247006,-58952.301317727724,-35310.74944862717,-32704.58074862728,-19487.860141737478,-21864.789350603744,0.0,0.0,0.0,193.0,1.0,154.0,0.0,45.0,3.0,252.0,410.0,45.0,1020.0,1744252743.5676925,0.0,2025-04-09 22:39:03.567,BACKWARD,21
52.0,13817.356683892809,2059.288568411895,-61737.95452570374,-59015.75792023634,-35339.35968152996,-32734.7779553864,-19393.64753885836,-21894.04778409574,0.0,0.0,0.0,193.0,1.0,155.0,0.0,44.0,3.0,251.0,411.0,44.0,1019.0,1744252743.5677125,0.0,2025-04-09 22:39:03.567,BACKWARD,21
53.0,13828.420797398187,2031.6394605206801,-61742.044894939056,-58977.62584419559,-35386.99124896422,-32784.287069354905,-19308.57679946146,-21941.701703274455,0.0,0.0,0.0,193.0,1.0,154.0,0.0,44.0,3.0,249.0,410.0,44.0,1017.0,1744252743.5677223,0.0,2025-04-09 22:39:03.567,BACKWARD,21
54.0,13936.111502183856,2055.3993648766714,-61746.93992697477,-59009.76765272232,-35385.02429545215,-32773.49117678299,-19388.730155078192,-21941.031150940795,0.0,0.0,0.0,193.0,1.0,155.0,0.0,44.0,3.0,251.0,411.0,44.0,1019.0,1744252743.567732,0.0,2025-04-09 22:39:03.567,BACKWARD,21
55.0,13901.712167467138,2071.358510417761,-61690.34531001393,-58964.50537020033,-35306.90494858086,-32700.60213811423,-19554.669505914393,-21862.37536220257,0.0,0.0,0.0,193.0,1.0,154.0,0.0,45.0,3.0,249.0,410.0,45.0,1017.0,1744252743.567741,0.0,2025-04-09 22:39:03.567,BACKWARD,21
56.0,13839.395503925742,2067.290492926895,-61728.49973779914,-59002.16805960752,-35332.85532389347,-32731.536952440376,-19358.465893085708,-21900.507438243323,0.0,0.0,0.0,193.0,1.0,154.0,0.0,44.0,3.0,252.0,410.0,44.0,1020.0,1744252743.5677495,0.0,2025-04-09 22:39:03.567,BACKWARD,21
57.0,13807.745433777027,2026.453855807049,-61747.61047930843,-58998.100042116654,-35386.63362105294,-32778.542671029885,-19382.337556163973,-21946.663790543535,0.0,0.0,0.0,193.0,1.0,154.0,0.0,44.0,3.0,252.0,410.0,44.0,1020.0,1744252743.567759,0.0,2025-04-09 22:39:03.567,BACKWARD,21
58.0,13927.729598013115,2048.0679926953308,-61752.14788343286,-58999.44114678397,-35401.09519971552,-32787.81864497884,-19295.948063844215,-21949.547165578268,0.0,0.0,0.0,193.0,1.0,154.0,0.0,45.0,3.0,250.0,410.0,45.0,1018.0,1744252743.567768,0.0,2025-04-09 22:39:03.567,BACKWARD,21
59.0,13905.623722746817,2067.223437693529,-61694.48038273816,-58984.15255357654,-35311.285890494095,-32701.80913231482,-19607.710195506836,-21868.85736809461,0.0,0.0,0.0,193.0,1.0,155.0,0.0,45.0,3.0,252.0,411.0,45.0,1020.0,1744252743.567777,0.0,2025-04-09 22:39:03.567,BACKWARD,21
60.0,13841.653030115729,2062.283702168906,-61727.784481976574,-58999.46349852843,-35337.012748362155,-32737.48251646549,-19332.82844219547,-21893.198417806438,0.0,0.0,0.0,193.0,1.0,154.0,0.0,44.0,3.0,250.0,410.0,44.0,1018.0,1744252743.567786,0.0,2025-04-09 22:39:03.567,BACKWARD,21
61.0,13797.709500516594,2025.157454628641,-61741.30728737203,-59015.17677488051,-35369.33337084453,-32762.89644991117,-19416.200449013766,-21916.24306633986,0.0,0.0,0.0,193.0,1.0,154.0,0.0,44.0,3.0,252.0,410.0,44.0,1020.0,1744252743.5677948,0.0,2025-04-09 22:39:03.567,BACKWARD,21
62.0,13920.979371187614,2050.571388074325,-61738.692133270764,-58975.658890683524,-35402.86098752749,-32786.67870601162,-19217.85106871737,-21936.29258111627,0.0,0.0,0.0,193.0,1.0,154.0,0.0,44.0,3.0,252.0,410.0,44.0,1020.0,1744252743.5678036,0.0,2025-04-09 22:39:03.567,BACKWARD,21
63.0,13925.673237523228,2070.9561790175653,-61692.37931875936,-58997.78711769428,-35316.29268125209,-32698.165797968602,-19641.908364523457,-21870.533748928756,0.0,0.0,0.0,193.0,1.0,154.0,0.0,44.0,3.0,250.0,410.0,44.0,1018.0,1744252743.5678127,0.0,2025-04-09 22:39:03.567,BACKWARD,21
64.0,13872.096106063856,2074.264237196951,-61702.10232759742,-58973.93780636047,-35319.01959407563,-32714.23670223197,-19337.097625386432,-21877.976879832375,0.0,0.0,0.0,193.0,1.0,154.0,0.0,44.0,3.0,251.0,410.0,44.0,1019.0,1744252743.5678215,0.0,2025-04-09 22:39:03.567,BACKWARD,21
65.0,13805.465555842586,2043.932919971099,-61729.86319421091,-59021.681132517,-35350.6920159688,-32745.260923535938,-19436.00409460117,-21911.839772682164,0.0,0.0,0.0,193.0,1.0,153.0,0.0,44.0,3.0,249.0,409.0,44.0,1017.0,1744252743.56783,0.0,2025-04-09 22:39:03.567,BACKWARD,21
66.0,13904.193211101678,2052.180713675107,-61731.338409344964,-58966.94171034596,-35400.782275293146,-32790.3890955912,-19189.84433291487,-21942.752235263855,0.0,0.0,0.0,193.0,1.0,155.0,0.0,44.0,3.0,252.0,411.0,44.0,1020.0,1744252743.5678449,0.0,2025-04-09 22:39:03.567,BACKWARD,21
67.0,13930.456510836662,2069.0115772499535,-61702.459955508704,-59014.28270510229,-35330.08370758101,-32709.94516729655,-19622.305884636153,-21879.09446705514,0.0,0.0,0.0,193.0,1.0,154.0,0.0,45.0,3.0,250.0,410.0,45.0,1018.0,1744252743.567854,0.0,2025-04-09 22:39:03.567,BACKWARD,21
68.0,13874.107763064834,2070.352681917272,-61695.2626937941,-58965.466495211906,-35319.667794664834,-32714.460219676523,-19368.50182634614,-21877.552196687724,0.0,0.0,0.0,193.0,1.0,154.0,0.0,44.0,3.0,252.0,410.0,44.0,1020.0,1744252743.5678625,0.0,2025-04-09 22:39:03.567,BACKWARD,21
69.0,13807.901895988214,2049.3420421292835,-61725.92928718678,-59024.944487207475,-35337.370376273444,-32740.321188011312,-19428.784481142102,-21911.504496515336,0.0,0.0,0.0,193.0,1.0,155.0,0.0,44.0,3.0,252.0,411.0,44.0,1020.0,1744252743.567871,0.0,2025-04-09 22:39:03.567,BACKWARD,21
70.0,13877.393469499764,2040.6695652806243,-61728.16446163231,-58962.98545157736,-35393.69677230081,-32794.904147971174,-19200.863742931335,-21952.47524410191,0.0,0.0,0.0,193.0,1.0,154.0,0.0,44.0,3.0,250.0,410.0,44.0,1018.0,1744252743.5678804,0.0,2025-04-09 22:39:03.567,BACKWARD,21
71.0,13937.60906906236,2063.356585902761,-61717.03329289357,-59021.2788011168,-35344.74645194369,-32732.252208262948,-19547.651058155425,-21909.76106044782,0.0,0.0,0.0,193.0,1.0,155.0,0.0,44.0,3.0,252.0,411.0,44.0,1020.0,1744252743.567896,0.0,2025-04-09 22:39:03.567,BACKWARD,21
72.0,13883.584902713885,2074.5324581304144,-61685.003243089115,-58956.794018363245,-35307.39668695888,-32703.932548038072,-19416.60278041396,-21874.110028041607,0.0,0.0,0.0,193.0,1.0,154.0,0.0,45.0,3.0,248.0,410.0,45.0,1016.0,1744252743.5679076,0.0,2025-04-09 22:39:03.567,BACKWARD,21
73.0,13808.751262277516,2050.1020014407636,-61731.070188411504,-59027.42553084201,-35337.54919022908,-32735.113231553227,-19401.515352906627,-21904.418993523002,0.0,0.0,0.0,193.0,1.0,155.0,0.0,44.0,3.0,253.0,411.0,44.0,1021.0,1744252743.5679164,0.0,2025-04-09 22:39:03.567,BACKWARD,21
74.0,13844.938736550659,2028.5549197858477,-61734.8699849689,-58975.033041838775,-35390.29930714361,-32791.260813624955,-19255.781979058025,-21956.72207554842,0.0,0.0,0.0,193.0,1.0,155.0,0.0,44.0,3.0,252.0,411.0,44.0,1020.0,1744252743.567925,0.0,2025-04-09 22:39:03.567,BACKWARD,21
75.0,13936.290316139499,2053.767687531434,-61735.76405474712,-59023.91630696253,-35368.17108013285,-32760.66127546564,-19450.309211052565,-21939.757101506842,0.0,0.0,0.0,193.0,1.0,154.0,0.0,45.0,3.0,250.0,410.0,45.0,1018.0,1744252743.567934,0.0,2025-04-09 22:39:03.567,BACKWARD,21
76.0,13896.817135431425,2079.583952377314,-61677.20248427421,-58957.062239296705,-35296.51138740914,-32693.494283377444,-19491.771697017157,-21861.36953370208,0.0,0.0,0.0,193.0,1.0,154.0,0.0,45.0,3.0,252.0,410.0,45.0,1020.0,1744252743.5679426,0.0,2025-04-09 22:39:03.567,BACKWARD,21
77.0,13830.007771254514,2069.100984227775,-61708.897257911834,-58999.66466422852,-35311.62116666093,-32715.778972599386,-19338.148157375832,-21874.57941467517,0.0,0.0,0.0,193.0,1.0,153.0,0.0,44.0,3.0,249.0,409.0,44.0,1017.0,1744252743.5679512,0.0,2025-04-09 22:39:03.567,BACKWARD,21
78.0,13828.420797398187,2028.8007889748562,-61721.347179573444,-58975.949463361445,-35368.551059788595,-32771.36776105974,-19291.701232397703,-21926.278999600294,0.0,0.0,0.0,193.0,1.0,153.0,0.0,44.0,3.0,250.0,409.0,44.0,1018.0,1744252743.56796,0.0,2025-04-09 22:39:03.567,BACKWARD,21
79.0,13938.32432488493,2047.5762543173141,-61729.77378723309,-59001.27398982931,-35376.84355698151,-32768.88671742519,-19333.498994529127,-21931.017569424817,0.0,0.0,0.0,193.0,1.0,154.0,0.0,44.0,3.0,249.0,410.0,44.0,1017.0,1744252743.5679688,0.0,2025-04-09 22:39:03.567,BACKWARD,21
80.0,13903.433251790197,2067.4022516491714,-61672.53096968305,-58962.04667831024,-35296.466683920225,-32690.432094387066,-19556.077665815075,-21858.419103433982,0.0,0.0,0.0,193.0,1.0,154.0,0.0,45.0,3.0,252.0,410.0,45.0,1020.0,1744252743.5679774,0.0,2025-04-09 22:39:03.567,BACKWARD,21
