Sample Index,EXG Channel 0,EXG Channel 1,EXG Channel 2,EXG Channel 3,EXG Channel 4,EXG Channel 5,EXG Channel 6,EXG Channel 7,Accel Channel 0,Accel Channel 1,Accel Channel 2,Not Used,Digital Channel 0 (D11),Digital Channel 1 (D12),Digital Channel 2 (D13),Digital Channel 3 (D17),Not Used,Digital Channel 4 (D18),Analog Channel 0,Analog Channel 1,Analog Channel 2,Timestamp,Marker Channel,Timestamp (Formatted),Stimulus_Direction,Stimulus_Number
115.0,3180.519125523463,-14957.76503774703,-30554.834670404754,-23597.071897634494,14077.151009696843,5826.697448098355,30476.357695622173,42670.73186287068,0.0,0.0,0.0,193.0,0.0,193.0,0.0,1.0,0.0,179.0,193.0,1.0,179.0,1744418613.3594701,0.0,2025-04-11 20:43:33.359,BACKWARD,11
116.0,3202.714407767583,-14908.635903434266,-30559.461481507,-23551.831966856953,13970.421429922751,6059.468514855924,30210.12606741501,42781.104776990986,0.0,0.0,0.0,193.0,0.0,193.0,0.0,1.0,0.0,179.0,193.0,1.0,179.0,1744418613.3595018,0.0,2025-04-11 20:43:33.359,BACKWARD,11
117.0,3226.5413673569406,-14898.42115621819,-30507.448972159506,-23536.8562980719,14048.049038416033,6102.361512465658,30070.0476849136,42850.462240035806,0.0,0.0,0.0,193.0,0.0,192.0,0.0,1.0,0.0,178.0,192.0,1.0,178.0,1744418613.359533,0.0,2025-04-11 20:43:33.359,BACKWARD,11
118.0,3184.654198247695,-14974.4841425996,-30512.500466406404,-23599.843513946955,14182.695947014803,5954.03533626024,30452.41897731054,42829.65276594791,0.0,0.0,0.0,193.0,0.0,192.0,0.0,1.0,0.0,178.0,192.0,1.0,178.0,1744418613.3595643,0.0,2025-04-11 20:43:33.359,BACKWARD,11
119.0,3181.2790848349437,-14971.779581520508,-30553.828841904266,-23603.710365737723,14069.663175304315,5818.226136949795,30512.902797806597,42707.12050284392,0.0,0.0,0.0,193.0,0.0,192.0,0.0,1.0,0.0,178.0,192.0,1.0,178.0,1744418613.359596,0.0,2025-04-11 20:43:33.359,BACKWARD,11
120.0,3181.3684918127647,-14944.868081196319,-30580.695638739544,-23573.110827578406,13952.987069247612,6032.3111453427255,30285.406742740484,42783.675227603344,0.0,0.0,0.0,193.0,0.0,193.0,0.0,1.0,0.0,179.0,193.0,1.0,179.0,1744418613.35978,0.0,2025-04-11 20:43:33.359,BACKWARD,11
121.0,3203.8990502237143,-14916.011979104518,-30533.399347472114,-23554.67063840278,13985.62061615236,6112.822128870742,30070.67353375835,42859.93937968485,0.0,0.0,0.0,193.0,0.0,193.0,0.0,1.0,0.0,179.0,193.0,1.0,179.0,1744418613.359812,0.0,2025-04-11 20:43:33.359,BACKWARD,11
122.0,3196.500622809008,-14941.805892205943,-30497.100114476696,-23585.873673662387,14166.915615429356,5988.099394810128,30387.10718001213,42851.55747551411,0.0,0.0,0.0,193.0,0.0,193.0,0.0,1.0,0.0,179.0,193.0,1.0,179.0,1744418613.3598433,0.0,2025-04-11 20:43:33.359,BACKWARD,11
123.0,3194.4219105746643,-14950.478369054601,-30533.868734105676,-23605.029118660586,14103.928399554301,5796.701407039333,30517.686071120035,42709.668601711826,0.0,0.0,0.0,193.0,0.0,192.0,0.0,1.0,0.0,178.0,192.0,1.0,178.0,1744418613.3598745,0.0,2025-04-11 20:43:33.359,BACKWARD,11
124.0,3189.2810093499434,-14931.904069412241,-30565.071769365284,-23573.066124089495,13971.941348545713,5971.000310301818,30306.41738252847,42748.04654694159,0.0,0.0,0.0,193.0,0.0,192.0,0.0,1.0,0.0,178.0,192.0,1.0,178.0,1744418613.3599207,0.0,2025-04-11 20:43:33.359,BACKWARD,11
125.0,3220.6405068207396,-14894.889580594252,-30519.742431609924,-23535.023455026563,13964.609976364372,6105.736625878409,30055.004960895178,42852.540952270145,0.0,0.0,0.0,193.0,0.0,192.0,0.0,1.0,0.0,178.0,192.0,1.0,178.0,1744418613.359958,0.0,2025-04-11 20:43:33.359,BACKWARD,11
126.0,3207.274163636466,-14927.09844435435,-30480.917451491056,-23561.063237316997,14144.876795396423,6005.824328163187,30300.09183884762,42862.263961108205,0.0,0.0,0.0,193.0,0.0,193.0,0.0,1.0,0.0,179.0,193.0,1.0,179.0,1744418613.3599896,0.0,2025-04-11 20:43:33.359,BACKWARD,11
127.0,3189.7056924945946,-14952.735895244587,-30529.621902659168,-23607.599569272945,14102.117908253422,5788.788889502155,30530.76184162639,42730.96981417773,0.0,0.0,0.0,193.0,0.0,192.0,0.0,1.0,0.0,178.0,192.0,1.0,178.0,1744418613.3600209,0.0,2025-04-11 20:43:33.360,BACKWARD,11
128.0,3198.2217071320665,-14922.739854185565,-30558.05332160632,-23569.84747288793,13986.33587197493,5923.145225423005,30362.833185533666,42733.562616534546,0.0,0.0,0.0,193.0,0.0,193.0,0.0,1.0,0.0,179.0,193.0,1.0,179.0,1744418613.360052,0.0,2025-04-11 20:43:33.360,BACKWARD,11
129.0,3212.191547416633,-14891.536818925957,-30546.050434833818,-23545.79699585402,13945.05219996598,6108.262373001859,30077.08848441702,42847.2659405787,0.0,0.0,0.0,193.0,0.0,193.0,0.0,1.0,0.0,179.0,193.0,1.0,179.0,1744418613.3600836,0.0,2025-04-11 20:43:33.360,BACKWARD,11
130.0,3202.8485182343147,-14916.995455860551,-30507.583082626235,-23571.725019422178,14126.280144009608,6041.989450691874,30210.349584859563,42867.40486233293,0.0,0.0,0.0,193.0,0.0,193.0,0.0,1.0,0.0,179.0,193.0,1.0,179.0,1744418613.3601148,0.0,2025-04-11 20:43:33.360,BACKWARD,11
131.0,3186.710558737583,-14958.502645314056,-30535.254542261904,-23620.451822334748,14147.961336131257,5822.540023629668,30518.37897519815,42760.60822732547,0.0,0.0,0.0,193.0,0.0,193.0,0.0,1.0,0.0,179.0,193.0,1.0,179.0,1744418613.360146,0.0,2025-04-11 20:43:33.360,BACKWARD,11
132.0,3186.2635238484772,-14950.008982421039,-30563.82007167579,-23596.8707319344,14012.375654265363,5878.151163834473,30400.093543540665,42724.5325117746,0.0,0.0,0.0,193.0,0.0,193.0,0.0,1.0,0.0,179.0,193.0,1.0,179.0,1744418613.3601768,0.0,2025-04-11 20:43:33.360,BACKWARD,11
133.0,3207.3412188698317,-14904.14320279875,-30556.309885538805,-23557.12933029286,13935.217432405643,6084.658930857055,30104.62583358596,42833.96665262779,0.0,0.0,0.0,193.0,0.0,192.0,0.0,1.0,0.0,178.0,192.0,1.0,178.0,1744418613.360208,0.0,2025-04-11 20:43:33.360,BACKWARD,11
134.0,3226.3178499123874,-14893.012034060006,-30495.334326664728,-23545.48407143165,14090.383242414386,6066.285796914792,30124.67534836237,42866.175516387884,0.0,0.0,0.0,193.0,0.0,192.0,0.0,1.0,0.0,178.0,192.0,1.0,178.0,1744418613.3602393,0.0,2025-04-11 20:43:33.360,BACKWARD,11
135.0,3186.330579081843,-14946.85738645284,-30519.42950718755,-23601.676356992288,14162.825246194036,5876.564189978146,30499.71526857797,42798.8520620885,0.0,0.0,0.0,193.0,0.0,193.0,0.0,1.0,0.0,178.0,193.0,1.0,178.0,1744418613.36039,0.0,2025-04-11 20:43:33.360,BACKWARD,11
136.0,3180.072090634357,-14933.893374668763,-30555.415815760593,-23584.71138295071,14031.39698879683,5850.524407687713,30429.709604943946,42717.84934018247,0.0,0.0,0.0,193.0,0.0,193.0,0.0,1.0,0.0,179.0,193.0,1.0,179.0,1744418613.360423,0.0,2025-04-11 20:43:33.360,BACKWARD,11
137.0,3192.522012295963,-14895.694243394644,-30560.221440818485,-23547.09339703243,13934.85980449436,6085.485945401901,30135.29242697864,42824.42245774537,0.0,0.0,0.0,193.0,0.0,193.0,0.0,1.0,0.0,179.0,193.0,1.0,179.0,1744418613.3604548,0.0,2025-04-11 20:43:33.360,BACKWARD,11
138.0,3205.8660037357813,-14897.527086439979,-30512.835742573232,-23555.609411669902,14032.715741719692,6083.563695378744,30046.310132302064,42865.30379835413,0.0,0.0,0.0,193.0,0.0,193.0,0.0,1.0,0.0,179.0,193.0,1.0,179.0,1744418613.3604863,0.0,2025-04-11 20:43:33.360,BACKWARD,11
139.0,3185.235343603533,-14951.39479057727,-30521.731736866444,-23618.328406611494,14148.676591953827,5895.473765787336,30425.708642686444,42817.42636173086,0.0,0.0,0.0,193.0,0.0,193.0,0.0,1.0,0.0,178.0,193.0,1.0,178.0,1744418613.3605323,0.0,2025-04-11 20:43:33.360,BACKWARD,11
140.0,3190.1527273837005,-14937.268488081514,-30558.299190795326,-23612.62871177539,14032.49222427514,5805.284476910171,30417.326738515705,42699.54326147357,0.0,0.0,0.0,193.0,0.0,192.0,0.0,1.0,0.0,178.0,192.0,1.0,178.0,1744418613.3605635,0.0,2025-04-11 20:43:33.360,BACKWARD,11
141.0,3192.9913989295246,-14906.624246433288,-30573.967763658497,-23574.85426364592,13939.084284196411,6050.594872307167,30157.06302607811,42797.91328882138,0.0,0.0,0.0,193.0,0.0,192.0,0.0,1.0,0.0,178.0,192.0,1.0,178.0,1744418613.360595,0.0,2025-04-11 20:43:33.360,BACKWARD,11
142.0,3219.8358440203483,-14889.52516192498,-30522.067013033273,-23549.61914415588,14024.333837548953,6107.0330270568165,29988.17324497381,42865.75083324323,0.0,0.0,0.0,193.0,0.0,193.0,0.0,1.0,0.0,179.0,193.0,1.0,179.0,1744418613.360626,0.0,2025-04-11 20:43:33.360,BACKWARD,11
143.0,3191.7844047289377,-14937.134377614782,-30516.724946108458,-23600.804638958532,14175.074002155543,5951.241368203327,30351.29968539473,42847.802382445625,0.0,0.0,0.0,193.0,0.0,193.0,0.0,1.0,0.0,179.0,193.0,1.0,179.0,1744418613.3606572,0.0,2025-04-11 20:43:33.360,BACKWARD,11
144.0,3198.556983298896,-14926.38318853178,-30551.325446525272,-23597.787153457066,14086.069355734511,5788.654779035423,30419.517209472328,42714.54128200308,0.0,0.0,0.0,193.0,0.0,193.0,0.0,1.0,0.0,179.0,193.0,1.0,179.0,1744418613.3606887,0.0,2025-04-11 20:43:33.360,BACKWARD,11
145.0,3205.7542450135047,-14893.190848015649,-30560.24379256294,-23551.675504645766,13979.42918293824,6017.894270169052,30188.780151460192,42788.52555615015,0.0,0.0,0.0,193.0,0.0,193.0,0.0,1.0,0.0,179.0,193.0,1.0,179.0,1744418613.3607252,0.0,2025-04-11 20:43:33.360,BACKWARD,11
146.0,3218.4947393530297,-14876.583501885356,-30522.916379322578,-23538.979713795154,13977.52928465954,6126.479044732934,29969.55424184254,42877.59725780455,0.0,0.0,0.0,193.0,0.0,193.0,0.0,1.0,0.0,178.0,193.0,1.0,178.0,1744418613.3607569,0.0,2025-04-11 20:43:33.360,BACKWARD,11
147.0,3192.1196808957675,-14911.049891835439,-30500.721097078454,-23582.23033931617,14157.527882758128,5991.228639033871,30274.18616702392,42867.98600768876,0.0,0.0,0.0,193.0,0.0,192.0,0.0,1.0,0.0,178.0,192.0,1.0,178.0,1744418613.360788,0.0,2025-04-11 20:43:33.360,BACKWARD,11
148.0,3185.0565296478903,-14918.493022739056,-30532.460574204993,-23600.29054883606,14118.389978216885,5789.615904047001,30450.295561587285,42735.30605260206,0.0,0.0,0.0,193.0,0.0,192.0,0.0,1.0,0.0,178.0,192.0,1.0,178.0,1744418613.360819,0.0,2025-04-11 20:43:33.360,BACKWARD,11
149.0,3189.5492302834073,-14899.941074841152,-30561.428435019072,-23574.80956015701,13994.382499978841,5946.972185012363,30248.302846944673,42751.08638418751,0.0,0.0,0.0,193.0,0.0,193.0,0.0,1.0,0.0,178.0,193.0,1.0,178.0,1744418613.3608508,0.0,2025-04-11 20:43:33.360,BACKWARD,11
150.0,3212.973858472569,-14866.502865136012,-30535.947446340022,-23554.447120958226,13970.108505500379,6101.758015365364,29976.72915181269,42843.5108475102,0.0,0.0,0.0,193.0,0.0,193.0,0.0,1.0,0.0,179.0,193.0,1.0,179.0,1744418613.360972,0.0,2025-04-11 20:43:33.360,BACKWARD,11
151.0,3200.6356955332394,-14899.225819018582,-30502.218663956963,-23582.342098038447,14147.51430124215,6011.054636365729,30189.562462516125,42857.90537093942,0.0,0.0,0.0,193.0,0.0,193.0,0.0,1.0,0.0,179.0,193.0,1.0,179.0,1744418613.3610048,0.0,2025-04-11 20:43:33.361,BACKWARD,11
152.0,3196.29945710891,-14919.09651983935,-30527.722004380466,-23607.130182639383,14129.990533589189,5804.703331554334,30437.77858469231,42750.482887087215,0.0,0.0,0.0,193.0,0.0,192.0,0.0,1.0,0.0,178.0,192.0,1.0,178.0,1744418613.361036,0.0,2025-04-11 20:43:33.361,BACKWARD,11
153.0,3197.77467224296,-14897.303568995425,-30556.95808612801,-23573.33434502296,13998.67403491426,5921.513548077768,30282.053981072186,42750.192314409294,0.0,0.0,0.0,193.0,0.0,192.0,0.0,1.0,0.0,178.0,192.0,1.0,178.0,1744418613.3610673,0.0,2025-04-11 20:43:33.361,BACKWARD,11
154.0,3218.8300155198594,-14865.407629657702,-30543.18941154354,-23543.740635364135,13938.056103951467,6121.092274319205,29997.404515433853,42873.39512984695,0.0,0.0,0.0,193.0,0.0,192.0,0.0,1.0,0.0,178.0,192.0,1.0,178.0,1744418613.836583,0.0,2025-04-11 20:43:33.836,BACKWARD,11
155.0,3221.579280087862,-14892.877923593274,-30491.109846962674,-23553.865975602388,14104.062510021033,6054.4393723534795,30095.931004992846,42888.21433642082,0.0,0.0,0.0,193.0,0.0,193.0,0.0,1.0,0.0,179.0,193.0,1.0,179.0,1744418613.8367262,0.0,2025-04-11 20:43:33.836,BACKWARD,11
156.0,3192.656122762695,-14931.389979289768,-30510.98054778344,-23602.52572328159,14150.308269299063,5828.127959743495,30414.376308247603,42777.28262868913,0.0,0.0,0.0,193.0,0.0,192.0,0.0,1.0,0.0,178.0,192.0,1.0,178.0,1744418613.836768,0.0,2025-04-11 20:43:33.836,BACKWARD,11
157.0,3190.1303756392454,-14908.412385989714,-30546.76569065639,-23578.94463288124,14033.989791153645,5851.329070488104,30292.04521084371,42712.61903197993,0.0,0.0,0.0,193.0,0.0,193.0,0.0,0.0,0.0,179.0,193.0,0.0,179.0,1744418613.836832,0.0,2025-04-11 20:43:33.836,BACKWARD,11
158.0,3195.9194774531697,-14883.177266499672,-30558.209783817507,-23554.022437813575,13946.214490677654,6089.956294292962,30012.648405152373,42838.012318374196,0.0,0.0,0.0,193.0,0.0,193.0,0.0,0.0,0.0,179.0,193.0,0.0,179.0,1744418613.83687,0.0,2025-04-11 20:43:33.836,BACKWARD,11
159.0,3206.558907813896,-14879.265711219992,-30496.98835575442,-23552.301353490515,14078.961500997722,6083.5860471232,30022.527876201617,42895.0763219686,0.0,0.0,0.0,193.0,0.0,192.0,0.0,0.0,0.0,178.0,192.0,0.0,178.0,1744418613.836907,0.0,2025-04-11 20:43:33.836,BACKWARD,11
160.0,3189.102195394301,-14920.437624506669,-30509.79590532731,-23601.028156403085,14165.507455528672,5879.916951646442,30412.945796602464,42838.369946285486,0.0,0.0,0.0,193.0,0.0,192.0,0.0,0.0,0.0,178.0,192.0,0.0,178.0,1744418613.836946,0.0,2025-04-11 20:43:33.836,BACKWARD,11
161.0,3193.5725442853627,-14917.464842494112,-30551.727777925465,-23591.126333609383,14038.214270855698,5820.304849184138,30359.994513987844,42736.37893633592,0.0,0.0,0.0,193.0,0.0,192.0,0.0,0.0,0.0,178.0,192.0,0.0,178.0,1744418613.836984,0.0,2025-04-11 20:43:33.836,BACKWARD,11
162.0,3197.5064513094967,-14884.540722911444,-30561.540193741348,-23561.957307095206,13945.722752299638,6077.171096464526,30096.19922592631,42842.90735040991,0.0,0.0,0.0,193.0,0.0,193.0,0.0,0.0,0.0,179.0,193.0,0.0,179.0,1744418613.8370216,0.0,2025-04-11 20:43:33.837,BACKWARD,11
163.0,3208.548213070418,-14870.70499309361,-30512.053431517295,-23551.6084494124,14031.86637543039,6108.687056146509,29989.670811852317,42889.06370271012,0.0,0.0,0.0,193.0,0.0,193.0,0.0,0.0,0.0,179.0,193.0,0.0,179.0,1744418613.8370605,0.0,2025-04-11 20:43:33.837,BACKWARD,11
164.0,3184.3859773142312,-14925.064435608916,-30507.627786115147,-23603.86682794891,14161.081810126521,5930.454245859891,30365.940078012954,42843.35438529902,0.0,0.0,0.0,193.0,0.0,193.0,0.0,0.0,0.0,179.0,193.0,0.0,179.0,1744418613.837102,0.0,2025-04-11 20:43:33.837,BACKWARD,11
165.0,3178.328654566843,-14924.52799374199,-30544.86579237769,-23613.25456062014,14060.1189804219,5808.413721133915,30385.475502666894,42720.911529172845,0.0,0.0,0.0,193.0,0.0,193.0,0.0,0.0,0.0,179.0,193.0,0.0,179.0,1744418613.8371432,0.0,2025-04-11 20:43:33.837,BACKWARD,11
166.0,3176.1605353546784,-14899.47168820759,-30563.52949899787,-23577.983507869663,13954.328173914932,6038.524930301301,30138.600485158026,42813.537158195635,0.0,0.0,0.0,193.0,0.0,192.0,0.0,0.0,0.0,178.0,192.0,0.0,178.0,1744418613.8375788,0.0,2025-04-11 20:43:33.837,BACKWARD,11
167.0,3203.943753712625,-14871.979042527562,-30510.55586463879,-23558.85041461592,14004.776061150558,6105.177832267026,29947.716587509705,42882.44758635135,0.0,0.0,0.0,193.0,0.0,192.0,0.0,0.0,0.0,178.0,192.0,0.0,178.0,1744418613.837624,0.0,2025-04-11 20:43:33.837,BACKWARD,11
168.0,3179.4685935340635,-14912.100423824839,-30499.782323811334,-23594.210874344215,14145.390885518897,5971.201476001916,30304.22691157185,42876.457318837325,0.0,0.0,0.0,193.0,0.0,192.0,0.0,0.0,0.0,178.0,192.0,0.0,178.0,1744418613.8376644,0.0,2025-04-11 20:43:33.837,BACKWARD,11
169.0,3190.1527273837005,-14907.294798766949,-30534.919266095076,-23593.428563288282,14062.0188787006,5796.656703550423,30403.31219474223,42728.84639845448,0.0,0.0,0.0,193.0,0.0,193.0,0.0,0.0,0.0,179.0,193.0,0.0,179.0,1744418613.837758,0.0,2025-04-11 20:43:33.837,BACKWARD,11
170.0,3201.5744688003624,-14883.020804288484,-30557.025141361373,-23552.748388379623,13983.430145195742,5982.734976140854,30184.53332001368,42772.11937571995,0.0,0.0,0.0,193.0,0.0,193.0,0.0,0.0,0.0,179.0,193.0,0.0,179.0,1744418613.8377967,0.0,2025-04-11 20:43:33.837,BACKWARD,11
171.0,3213.5773555728624,-14872.604891372312,-30533.064071305285,-23543.271248730573,13982.491371928618,6114.185585282516,29962.200517916743,42864.90146695393,0.0,0.0,0.0,193.0,0.0,193.0,0.0,0.0,0.0,179.0,193.0,0.0,179.0,1744418613.8378346,0.0,2025-04-11 20:43:33.837,BACKWARD,11
172.0,3193.0137506739798,-14908.926476112185,-30497.077762732242,-23578.452894503225,14167.832036952024,6008.752406686832,30253.153175491476,42859.38058607347,0.0,0.0,0.0,193.0,0.0,193.0,0.0,0.0,0.0,179.0,193.0,0.0,179.0,1744418613.8378737,0.0,2025-04-11 20:43:33.837,BACKWARD,11
173.0,3169.7679364404603,-14923.276296052492,-30540.507202208904,-23608.605397773434,14120.401635217862,5810.872413023998,30476.447102599992,42739.12820090392,0.0,0.0,0.0,193.0,0.0,192.0,0.0,0.0,0.0,178.0,192.0,0.0,178.0,1744418613.8379104,0.0,2025-04-11 20:43:33.837,BACKWARD,11
174.0,3166.9963201280025,-14903.38324348727,-30575.755903214922,-23586.879502162876,13985.173581263254,5957.544560139723,30325.863400204587,42777.61790485596,0.0,0.0,0.0,193.0,0.0,192.0,0.0,0.0,0.0,178.0,192.0,0.0,178.0,1744418613.8379471,0.0,2025-04-11 20:43:33.837,BACKWARD,11
175.0,3208.4364543481415,-14863.954766268107,-30542.56356269879,-23553.016609313087,13962.955947274679,6123.662724931565,30063.744492977203,42891.902374255944,0.0,0.0,0.0,193.0,0.0,192.0,0.0,0.0,0.0,178.0,192.0,0.0,178.0,1744418613.8379843,0.0,2025-04-11 20:43:33.837,BACKWARD,11
176.0,3211.3421811273315,-14883.221969988583,-30500.251710444896,-23572.39557175584,14135.265545280641,6041.721229758409,30251.74501559079,42909.53790063118,0.0,0.0,0.0,193.0,0.0,193.0,0.0,0.0,0.0,179.0,193.0,0.0,179.0,1744418613.8380227,0.0,2025-04-11 20:43:33.838,BACKWARD,11
177.0,3188.4092913161867,-14908.971179601096,-30530.605379415203,-23608.51599079561,14126.727178898715,5826.071599253607,30546.72098716748,42801.48956793422,0.0,0.0,0.0,193.0,0.0,193.0,0.0,0.0,0.0,179.0,193.0,0.0,179.0,1744418613.8380606,0.0,2025-04-11 20:43:33.838,BACKWARD,11
178.0,3174.707671965083,-14900.432813219168,-30563.8647751647,-23586.052487618028,13994.494258701117,5911.298800861693,30415.426840237003,42775.67330308835,0.0,0.0,0.0,193.0,0.0,193.0,0.0,0.0,0.0,179.0,193.0,0.0,179.0,1744418613.8380997,0.0,2025-04-11 20:43:33.838,BACKWARD,11
179.0,3192.320846595865,-14874.840065817842,-30552.197164559027,-23557.822234370975,13942.861729009359,6100.483965931412,30120.607330871506,42873.462185080316,0.0,0.0,0.0,193.0,0.0,192.0,0.0,0.0,0.0,178.0,192.0,0.0,178.0,1744418613.8381357,0.0,2025-04-11 20:43:33.838,BACKWARD,11
180.0,3190.0633204058795,-14888.5640369134,-30506.934882037032,-23575.256595046118,14083.677719077794,6059.692032300477,30197.11735214202,42904.64286859547,0.0,0.0,0.0,193.0,0.0,192.0,0.0,0.0,0.0,178.0,192.0,0.0,178.0,1744418613.8381753,0.0,2025-04-11 20:43:33.838,BACKWARD,11
181.0,3173.5677329978625,-14917.196621560648,-30526.537361924336,-23622.016444446617,14134.706751669259,5858.705146158355,30560.735530940954,42837.788800929644,0.0,0.0,0.0,193.0,0.0,192.0,0.0,0.0,0.0,178.0,192.0,0.0,178.0,1744418613.8383565,0.0,2025-04-11 20:43:33.838,BACKWARD,11
182.0,3199.3392943548315,-14883.624301388778,-30539.680187664057,-23586.164246340304,14029.720607962681,5861.990852593285,30462.969000693443,42776.5450211221,0.0,0.0,0.0,193.0,0.0,192.0,0.0,0.0,0.0,178.0,192.0,0.0,178.0,1744418613.8383982,0.0,2025-04-11 20:43:33.838,BACKWARD,11
183.0,3219.5676230868844,-14850.342553894825,-30538.33908299674,-23551.04965580102,13957.636232094317,6091.163288493549,30185.181520602888,42893.95873474583,0.0,0.0,0.0,193.0,0.0,192.0,0.0,0.0,0.0,178.0,192.0,0.0,178.0,1744418613.838436,0.0,2025-04-11 20:43:33.838,BACKWARD,11
184.0,3226.653126079217,-14849.426132372158,-30492.719172563455,-23546.691065632232,14071.02663171609,6076.858172042153,30169.512947739717,42947.51351446075,0.0,0.0,0.0,193.0,0.0,192.0,0.0,0.0,0.0,179.0,192.0,0.0,179.0,1744418613.8384745,0.0,2025-04-11 20:43:33.838,BACKWARD,11
185.0,3185.168288370167,-14910.267580779504,-30516.14380075262,-23602.972758170697,14136.9866296037,5895.965504165352,30574.638315992157,42900.17251970441,0.0,0.0,0.0,193.0,0.0,192.0,0.0,0.0,0.0,178.0,192.0,0.0,178.0,1744418613.8385386,0.0,2025-04-11 20:43:33.838,BACKWARD,11
186.0,3187.939904682625,-14905.461955721612,-30539.121394052672,-23579.99516487064,14025.876107916369,5835.772256347211,30541.155402798107,42786.558602638084,0.0,0.0,0.0,193.0,0.0,192.0,0.0,0.0,0.0,178.0,192.0,0.0,178.0,1744418613.8385797,0.0,2025-04-11 20:43:33.838,BACKWARD,11
187.0,3196.3665123422757,-14874.996528029029,-30543.6587981771,-23551.13906277884,13951.131874457822,6081.417927911035,30272.442730956405,42884.12396718549,0.0,0.0,0.0,193.0,0.0,193.0,0.0,0.0,0.0,179.0,193.0,0.0,179.0,1744418613.8386157,0.0,2025-04-11 20:43:33.838,BACKWARD,11
188.0,3213.107968939301,-14863.08304823435,-30490.931033007033,-23550.490862189636,14043.802206969525,6116.644277172599,30139.248685747232,42932.91782533143,0.0,0.0,0.0,193.0,0.0,193.0,0.0,0.0,0.0,179.0,193.0,0.0,179.0,1744418613.8386517,0.0,2025-04-11 20:43:33.838,BACKWARD,11
189.0,3179.4462417896084,-14915.766109915508,-30492.60741384118,-23609.58887452947,14194.005929709188,5960.316176452181,30519.094231020717,42897.222089436305,0.0,0.0,0.0,193.0,0.0,193.0,0.0,0.0,0.0,179.0,193.0,0.0,179.0,1744418613.8386855,0.0,2025-04-11 20:43:33.838,BACKWARD,11
190.0,3171.086689363324,-14914.067377336905,-30539.881353364155,-23621.90468572434,14088.952730769246,5822.472968396302,30562.47896700847,42766.017349483656,0.0,0.0,0.0,193.0,0.0,192.0,0.0,0.0,0.0,178.0,192.0,0.0,178.0,1744418613.8387191,0.0,2025-04-11 20:43:33.838,BACKWARD,11
191.0,3185.7047302370943,-14872.671946605677,-30553.985304115453,-23578.9669846257,13965.660508353772,6038.301412856747,30309.613681985582,42842.59442598753,0.0,0.0,0.0,193.0,0.0,193.0,0.0,0.0,0.0,179.0,193.0,0.0,179.0,1744418613.8387516,0.0,2025-04-11 20:43:33.838,BACKWARD,11
192.0,3217.6006695748174,-14835.45629208759,-30509.594739627213,-23551.720208134677,13973.371860190853,6120.332315007725,30090.723048534757,42912.91301404393,0.0,0.0,0.0,193.0,0.0,193.0,0.0,0.0,0.0,179.0,193.0,0.0,179.0,1744418613.8387854,0.0,2025-04-11 20:43:33.838,BACKWARD,11
193.0,3198.10994840979,-14881.813810087897,-30490.84162602921,-23594.255577833126,14137.768940659636,5983.13730754105,30419.405450750048,42904.352295917546,0.0,0.0,0.0,193.0,0.0,193.0,0.0,0.0,0.0,179.0,193.0,0.0,179.0,1744418613.8388188,0.0,2025-04-11 20:43:33.838,BACKWARD,11
194.0,3193.9972274300135,-14890.70980438111,-30523.18460025604,-23611.600531530446,14096.775841328603,5788.9453517133425,30538.070862063276,42764.27391341614,0.0,0.0,0.0,193.0,0.0,192.0,0.0,0.0,0.0,178.0,192.0,0.0,178.0,1744418613.8388517,0.0,2025-04-11 20:43:33.838,BACKWARD,11
195.0,3191.0244454174576,-14866.055830246905,-30546.028083089364,-23573.915490378797,13977.931616059735,5976.454135948913,30326.042214160232,42814.05124831811,0.0,0.0,0.0,193.0,0.0,192.0,0.0,0.0,0.0,178.0,192.0,0.0,178.0,1744418613.838884,0.0,2025-04-11 20:43:33.838,BACKWARD,11
196.0,3206.0895211803345,-14844.933431736641,-30513.66275711808,-23548.792129611033,13977.797505593004,6114.92319284954,30066.069074400555,42906.4757116408,0.0,0.0,0.0,193.0,0.0,193.0,0.0,0.0,0.0,178.0,193.0,0.0,178.0,1744418613.8390293,0.0,2025-04-11 20:43:33.839,BACKWARD,11
197.0,3182.5084307799857,-14889.547513669433,-30480.51512009086,-23593.5179702661,14155.873853668434,6009.177089831483,30308.026708129255,42900.66425808243,0.0,0.0,0.0,193.0,0.0,192.0,0.0,0.0,0.0,178.0,192.0,0.0,178.0,1744418613.8390615,0.0,2025-04-11 20:43:33.839,BACKWARD,11
198.0,3180.854401690293,-14897.012996317506,-30505.929053536544,-23618.216647889218,14120.736911384693,5792.47692733728,30513.126315251153,42764.676244816335,0.0,0.0,0.0,193.0,0.0,192.0,0.0,0.0,0.0,178.0,192.0,0.0,178.0,1744418613.8390925,0.0,2025-04-11 20:43:33.839,BACKWARD,11
199.0,3195.0924629083233,-14865.407629657702,-30529.37603347016,-23569.623955443378,14000.640988426327,5933.672897061455,30342.090766679143,42780.00954151268,0.0,0.0,0.0,193.0,0.0,193.0,0.0,0.0,0.0,179.0,193.0,0.0,179.0,1744418613.8391247,0.0,2025-04-11 20:43:33.839,BACKWARD,11
200.0,3218.941774242136,-14825.822690227353,-30514.825047829756,-23536.36455969388,13969.594415377906,6118.298306262292,30063.588030766015,42900.35133366005,0.0,0.0,0.0,193.0,0.0,193.0,0.0,0.0,0.0,179.0,193.0,0.0,179.0,1744418613.8391817,0.0,2025-04-11 20:43:33.839,BACKWARD,11
201.0,3203.4073118456977,-14858.120960965272,-30479.531643334823,-23571.859129888908,14134.37147550243,6039.843683224164,30212.964738960833,42920.64671762547,0.0,0.0,0.0,193.0,0.0,193.0,0.0,0.0,0.0,179.0,193.0,0.0,179.0,1744418613.8392189,0.0,2025-04-11 20:43:33.839,BACKWARD,11
202.0,3175.5793899988403,-14908.18886854516,-30517.820181586765,-23622.239961891173,14146.37436227493,5822.830596307587,30521.396460699616,42816.532291952644,0.0,0.0,0.0,193.0,0.0,193.0,0.0,0.0,0.0,179.0,193.0,0.0,179.0,1744418613.8392515,0.0,2025-04-11 20:43:33.839,BACKWARD,11
203.0,3177.1216603662565,-14895.582484672366,-30548.062091834796,-23598.43535404627,14013.96262812169,5869.121059074529,30381.183967731475,42771.47117513075,0.0,0.0,0.0,193.0,0.0,192.0,0.0,0.0,0.0,178.0,192.0,0.0,178.0,1744418613.839285,0.0,2025-04-11 20:43:33.839,BACKWARD,11
204.0,3198.422872832164,-14855.684620819644,-30535.768632384377,-23562.963135595695,13947.28737441151,6086.87175355813,30081.223557141253,42884.571002074605,0.0,0.0,0.0,193.0,0.0,192.0,0.0,0.0,0.0,177.0,192.0,0.0,177.0,1744418613.8393185,0.0,2025-04-11 20:43:33.839,BACKWARD,11
205.0,3204.4131403461865,-14859.909100521696,-30478.12348343414,-23565.980621097162,14086.091707478967,6051.041907196272,30103.62000508547,42908.04033375267,0.0,0.0,0.0,193.0,0.0,192.0,0.0,0.0,0.0,178.0,192.0,0.0,178.0,1744418613.839351,0.0,2025-04-11 20:43:33.839,BACKWARD,11
206.0,3169.72323295155,-14912.838031391864,-30503.112733735175,-23628.118470682915,14135.220841791732,5837.336878459082,30468.087550173706,42828.87045489198,0.0,0.0,0.0,193.0,0.0,193.0,0.0,0.0,0.0,178.0,193.0,0.0,178.0,1744418613.8393834,0.0,2025-04-11 20:43:33.839,BACKWARD,11
207.0,3177.0546051328906,-14887.37939445727,-30527.498486935914,-23596.24488308965,14022.322180547975,5822.316506185116,30384.715543355414,42746.12429691843,0.0,0.0,0.0,193.0,0.0,192.0,0.0,0.0,0.0,178.0,192.0,0.0,178.0,1744418613.8394165,0.0,2025-04-11 20:43:33.839,BACKWARD,11
208.0,3189.7950994724156,-14855.550510352912,-30526.872638091165,-23546.33343772095,13956.071609982446,6066.352852148158,30100.826037028557,42864.655597764926,0.0,0.0,0.0,193.0,0.0,192.0,0.0,0.0,0.0,178.0,192.0,0.0,178.0,1744418613.8394494,0.0,2025-04-11 20:43:33.839,BACKWARD,11
209.0,3200.1886606441335,-14854.611737085788,-30480.425713113036,-23540.94666730722,14053.368753596396,6088.972817536929,30042.57739097803,42928.55923516265,0.0,0.0,0.0,193.0,0.0,192.0,0.0,0.0,0.0,179.0,192.0,0.0,179.0,1744418613.8394816,0.0,2025-04-11 20:43:33.839,BACKWARD,11
210.0,3175.400576043198,-14891.983853815062,-30487.824140527744,-23596.267234834104,14163.674612483337,5916.21618464186,30427.36267177614,42885.37566487499,0.0,0.0,0.0,193.0,0.0,193.0,0.0,0.0,0.0,178.0,193.0,0.0,178.0,1744418613.8395135,0.0,2025-04-11 20:43:33.839,BACKWARD,11
211.0,3179.781517956438,-14888.161705513205,-30521.61997814417,-23585.493694006647,14059.314317621509,5830.117265000018,30407.380212233093,42771.20295419729,0.0,0.0,0.0,193.0,0.0,193.0,0.0,0.0,0.0,178.0,193.0,0.0,178.0,1744418613.8395784,0.0,2025-04-11 20:43:33.839,BACKWARD,11
212.0,3186.375282570754,-14861.876054033764,-30540.708367909,-23551.78726336804,13969.549711888994,6069.102116716161,30155.364293499508,42881.553516573134,0.0,0.0,0.0,193.0,0.0,192.0,0.0,0.0,0.0,178.0,192.0,0.0,178.0,1744418613.83962,0.0,2025-04-11 20:43:33.839,BACKWARD,11
213.0,3204.7931200019266,-14836.015085698973,-30495.647251087103,-23541.460757429693,14019.595267724428,6106.518936934345,30001.69605036927,42948.00525283876,0.0,0.0,0.0,193.0,0.0,192.0,0.0,0.0,0.0,178.0,192.0,0.0,178.0,1744418613.839661,0.0,2025-04-11 20:43:33.839,BACKWARD,11
214.0,3185.3247505813542,-14877.321109452381,-30471.485015330916,-23587.103019607428,14180.125496402443,5947.262757690282,30358.38518838706,42918.65741236894,0.0,0.0,0.0,193.0,0.0,192.0,0.0,0.0,0.0,178.0,192.0,0.0,178.0,1744418613.8397005,0.0,2025-04-11 20:43:33.839,BACKWARD,11
215.0,3189.683340750139,-14877.70108910812,-30500.721097078454,-23594.367336555402,14091.299663937052,5795.4050058609255,30418.86900888312,42783.58582062552,0.0,0.0,0.0,193.0,0.0,192.0,0.0,0.0,0.0,178.0,192.0,0.0,178.0,1744418613.8397775,0.0,2025-04-11 20:43:33.839,BACKWARD,11
216.0,3189.39276807222,-14854.298812663415,-30525.844457846222,-23558.47043496018,13980.47971492764,6008.640647964555,30181.426427534396,42847.869437678986,0.0,0.0,0.0,193.0,0.0,193.0,0.0,0.0,0.0,179.0,193.0,0.0,179.0,1744418613.8398209,0.0,2025-04-11 20:43:33.839,BACKWARD,11
217.0,3200.1886606441335,-14832.774082752954,-30490.12637020664,-23538.71149286169,14000.52922970405,6108.798814868786,29962.424035361295,42925.02765953871,0.0,0.0,0.0,193.0,0.0,193.0,0.0,0.0,0.0,179.0,193.0,0.0,179.0,1744418613.8398645,0.0,2025-04-11 20:43:33.839,BACKWARD,11
218.0,3183.6483697472063,-14875.689432107143,-30458.7892244803,-23577.111789835908,14175.52103704465,5979.829249361665,30277.807149625678,42918.344487946575,0.0,0.0,0.0,193.0,0.0,192.0,0.0,0.0,0.0,178.0,192.0,0.0,178.0,1744418613.8399074,0.0,2025-04-11 20:43:33.839,BACKWARD,11
219.0,3176.4734597770525,-14900.164592285704,-30507.247806459407,-23604.157400626827,14100.352120441452,5782.6645115214005,30435.07402361322,42788.97259103925,0.0,0.0,0.0,193.0,0.0,192.0,0.0,0.0,0.0,178.0,192.0,0.0,178.0,1744418613.8399494,0.0,2025-04-11 20:43:33.839,BACKWARD,11
220.0,3169.3879567847202,-14883.154914755216,-30543.122356310174,-23572.440275244746,13966.733392087626,5934.8128360286755,30230.086175213597,42822.79078040014,0.0,0.0,0.0,193.0,0.0,192.0,0.0,0.0,0.0,178.0,192.0,0.0,178.0,1744418613.8399887,0.0,2025-04-11 20:43:33.839,BACKWARD,11
221.0,3204.68136127965,-14828.862527473275,-30497.301280176795,-23530.955437535697,13963.71590658616,6085.977683779917,29950.912886966813,42916.221072223314,0.0,0.0,0.0,193.0,0.0,192.0,0.0,0.0,0.0,178.0,192.0,0.0,178.0,1744418613.8400302,0.0,2025-04-11 20:43:33.840,BACKWARD,11
222.0,3193.192564629622,-14846.386295126236,-30454.83296571171,-23556.011743070096,14156.94673740229,6029.941860430463,30182.74518045726,42928.29101422918,0.0,0.0,0.0,193.0,0.0,193.0,0.0,0.0,0.0,179.0,193.0,0.0,179.0,1744418613.8400788,0.0,2025-04-11 20:43:33.840,BACKWARD,11
223.0,3167.9350933951255,-14879.489228664546,-30502.93391977953,-23604.179752371285,14130.772844645126,5825.043419008663,30444.64057024009,42809.75971338269,0.0,0.0,0.0,193.0,0.0,193.0,0.0,0.0,0.0,179.0,193.0,0.0,179.0,1744418613.8401349,0.0,2025-04-11 20:43:33.840,BACKWARD,11
224.0,3164.492924749008,-14877.6116821303,-30533.287588749838,-23580.911586393308,13989.331005731941,5923.614612056567,30277.494225203303,42794.113492263976,0.0,0.0,0.0,193.0,0.0,193.0,0.0,0.0,0.0,179.0,193.0,0.0,179.0,1744418613.8401852,0.0,2025-04-11 20:43:33.840,BACKWARD,11
225.0,3183.3577970692872,-14848.576766082857,-30518.84836183171,-23550.960248823198,13959.983165262123,6124.4673877319565,29988.08383799599,42906.27454594071,0.0,0.0,0.0,193.0,0.0,193.0,0.0,0.0,0.0,178.0,193.0,0.0,178.0,1744418613.8402245,0.0,2025-04-11 20:43:33.840,BACKWARD,11
226.0,3171.9584073970805,-14873.56601638389,-30482.61618406966,-23572.79790315603,14129.565850444538,6054.394668864568,30112.918330778877,42928.31336597364,0.0,0.0,0.0,193.0,0.0,192.0,0.0,0.0,0.0,178.0,192.0,0.0,178.0,1744418613.84035,0.0,2025-04-11 20:43:33.840,BACKWARD,11
227.0,3159.8437619023043,-14909.351159256836,-30503.403306413093,-23613.65689202033,14175.096353899999,5826.608041120535,30437.890343414587,42820.64501293242,0.0,0.0,0.0,193.0,0.0,192.0,0.0,0.0,0.0,178.0,192.0,0.0,178.0,1744418613.8404112,0.0,2025-04-11 20:43:33.840,BACKWARD,11
228.0,3161.72130843655,-14893.771993371487,-30533.779327127857,-23590.254615575628,14046.68558200426,5875.670120199933,30332.680682263457,42781.28359094663,0.0,0.0,0.0,193.0,0.0,193.0,0.0,0.0,0.0,179.0,193.0,0.0,179.0,1744418613.8404608,0.0,2025-04-11 20:43:33.840,BACKWARD,11
229.0,3172.5172010084634,-14853.158873696195,-30528.146687525117,-23556.257612259105,13941.498272597584,6117.359532995169,30051.56279224906,42912.5777378771,0.0,0.0,0.0,193.0,0.0,193.0,0.0,0.0,0.0,179.0,193.0,0.0,179.0,1744418613.8405056,0.0,2025-04-11 20:43:33.840,BACKWARD,11
230.0,3180.005035400991,-14852.331859151347,-30468.065198429253,-23555.94468783673,14082.35896615493,6093.39846293908,30054.80379519508,42938.55046493417,0.0,0.0,0.0,193.0,0.0,192.0,0.0,0.0,0.0,178.0,192.0,0.0,178.0,1744418613.8410347,0.0,2025-04-11 20:43:33.841,BACKWARD,11
231.0,3147.013860584958,-14908.345330756347,-30490.998088240398,-23613.992168187164,14182.13715340342,5897.686588488411,30434.11289860164,42871.02584493469,0.0,0.0,0.0,193.0,0.0,192.0,0.0,0.0,0.0,178.0,192.0,0.0,178.0,1744418613.841118,0.0,2025-04-11 20:43:33.841,BACKWARD,11
232.0,3155.9992618559913,-14882.841990332841,-30518.267216475873,-23589.584063241968,14052.273518118087,5846.746962874766,30373.338505427662,42778.310808934075,0.0,0.0,0.0,193.0,0.0,192.0,0.0,0.0,0.0,178.0,192.0,0.0,178.0,1744418613.84119,0.0,2025-04-11 20:43:33.841,BACKWARD,11
233.0,3170.6173027297623,-14847.41447537118,-30520.18946649903,-23546.22167899867,13962.330098429931,6087.363491936147,30093.47231310276,42885.80034801964,0.0,0.0,0.0,193.0,0.0,192.0,0.0,0.0,0.0,178.0,192.0,0.0,178.0,1744418613.841272,0.0,2025-04-11 20:43:33.841,BACKWARD,11
234.0,3180.943808668114,-14844.50874859199,-30467.79697749579,-23544.746463864623,14074.066468962012,6123.930945865029,30018.95159708877,42944.49602895928,0.0,0.0,0.0,193.0,0.0,193.0,0.0,0.0,0.0,179.0,193.0,0.0,179.0,1744418613.8413682,0.0,2025-04-11 20:43:33.841,BACKWARD,11
235.0,3149.6066629417737,-14891.04508054794,-30467.97579145143,-23604.80560121603,14194.43061285384,5945.295804178215,30413.25872102484,42904.53110987319,0.0,0.0,0.0,193.0,0.0,193.0,0.0,0.0,0.0,179.0,193.0,0.0,179.0,1744418613.8414688,0.0,2025-04-11 20:43:33.841,BACKWARD,11
236.0,3155.1945990556,-14883.736060111054,-30501.235187200928,-23596.155476111828,14083.87888477789,5827.502110898747,30409.749497145356,42773.57223910955,0.0,0.0,0.0,193.0,0.0,193.0,0.0,0.0,0.0,179.0,193.0,0.0,179.0,1744418613.8415372,0.0,2025-04-11 20:43:33.841,BACKWARD,11
237.0,3167.778631183938,-14855.103475463806,-30514.109792007184,-23556.861109359397,13984.19010450722,6061.100192201161,30158.046502834142,42864.9685221873,0.0,0.0,0.0,193.0,0.0,193.0,0.0,0.0,0.0,178.0,193.0,0.0,178.0,1744418613.8415954,0.0,2025-04-11 20:43:33.841,BACKWARD,11
238.0,3192.879640207248,-14843.79349276942,-30465.718265261447,-23540.94666730722,14046.953802937724,6129.250661045392,29988.195596718266,42935.42122071043,0.0,0.0,0.0,193.0,0.0,192.0,0.0,0.0,0.0,178.0,192.0,0.0,178.0,1744418613.8416865,0.0,2025-04-11 20:43:33.841,BACKWARD,11
239.0,3161.00605261398,-14897.638845162255,-30461.091454159196,-23596.781324956577,14196.934008232834,5985.5289441977675,30342.04606319023,42907.61565060802,0.0,0.0,0.0,193.0,0.0,192.0,0.0,0.0,0.0,178.0,192.0,0.0,178.0,1744418613.8418076,0.0,2025-04-11 20:43:33.841,BACKWARD,11
240.0,3164.9846631270248,-14887.580560157367,-30488.472341116947,-23598.323595323993,14115.75247237116,5825.713971342322,30437.26449456984,42780.7471490797,0.0,0.0,0.0,193.0,0.0,193.0,0.0,0.0,0.0,179.0,193.0,0.0,179.0,1744418613.8419025,0.0,2025-04-11 20:43:33.841,BACKWARD,11
241.0,3157.787401412416,-14869.788571570942,-30521.61997814417,-23572.28381303356,13980.837342838926,6023.303392327237,30231.04730022518,42854.84318194904,0.0,0.0,0.0,193.0,0.0,193.0,0.0,0.0,0.0,179.0,193.0,0.0,179.0,1744418613.8421512,0.0,2025-04-11 20:43:33.842,BACKWARD,11
242.0,3179.91562842317,-14831.701199019099,-30494.350849908693,-23566.405304241813,13974.869427069358,6110.92223059204,29998.633861378894,42935.98001432181,0.0,0.0,0.0,193.0,0.0,192.0,0.0,0.0,0.0,178.0,192.0,0.0,178.0,1744418613.842209,0.0,2025-04-11 20:43:33.842,BACKWARD,11
243.0,3167.868038161759,-14857.450408631614,-30458.56570703575,-23599.016499402107,14169.508417786172,5981.572685429178,30283.506844461783,42925.96643280583,0.0,0.0,0.0,193.0,0.0,192.0,0.0,0.0,0.0,178.0,192.0,0.0,178.0,1744418613.8422716,0.0,2025-04-11 20:43:33.842,BACKWARD,11
244.0,3147.7738198964385,-14895.023691060984,-30500.743448822912,-23621.234133390684,14122.994437574678,5787.157212156918,30475.50832933287,42796.12514926495,0.0,0.0,0.0,193.0,0.0,192.0,0.0,0.0,0.0,178.0,192.0,0.0,178.0,1744418613.842353,0.0,2025-04-11 20:43:33.842,BACKWARD,11
245.0,3147.7738198964385,-14888.675795635678,-30530.359510226193,-23585.247824817638,13982.558427161985,5946.949833267908,30280.779931638233,42814.878262862956,0.0,0.0,0.0,193.0,0.0,193.0,0.0,0.0,0.0,179.0,193.0,0.0,179.0,1744418613.8425388,0.0,2025-04-11 20:43:33.842,BACKWARD,11
246.0,3174.081823120335,-14857.182187698148,-30499.93878602252,-23553.865975602388,13955.244595437598,6113.045646315294,30013.341309230487,42919.88675831399,0.0,0.0,0.0,193.0,0.0,193.0,0.0,0.0,0.0,179.0,193.0,0.0,179.0,1744418613.8425937,0.0,2025-04-11 20:43:33.842,BACKWARD,11
247.0,3165.4093462716755,-14876.22587397407,-30456.26347735685,-23582.520911994092,14144.51916748514,6023.839834194164,30207.108581913544,42921.74195310378,0.0,0.0,0.0,193.0,0.0,192.0,0.0,0.0,0.0,178.0,192.0,0.0,178.0,1744418613.8426802,0.0,2025-04-11 20:43:33.842,BACKWARD,11
248.0,3143.2811192609215,-14899.292874251947,-30494.350849908693,-23630.688921295277,14145.837920408001,5808.905459511931,30482.21385266946,42805.8034546141,0.0,0.0,0.0,193.0,0.0,192.0,0.0,0.0,0.0,178.0,192.0,0.0,178.0,1744418613.842722,0.0,2025-04-11 20:43:33.842,BACKWARD,11
249.0,3149.137276308212,-14875.376507684769,-30523.69869037851,-23595.37316505589,14017.807128168002,5901.173460623439,30323.96350192589,42777.5955531115,0.0,0.0,0.0,193.0,0.0,192.0,0.0,0.0,0.0,178.0,192.0,0.0,178.0,1744418613.8427615,0.0,2025-04-11 20:43:33.842,BACKWARD,11
250.0,3174.461802776075,-14833.846966486808,-30508.45480065999,-23562.583155939956,13970.935520045225,6102.875602588129,30031.66973968384,42882.402882862436,0.0,0.0,0.0,193.0,0.0,192.0,0.0,0.0,0.0,178.0,192.0,0.0,178.0,1744418613.8428037,0.0,2025-04-11 20:43:33.842,BACKWARD,11
251.0,3165.1187735937565,-14854.343516152325,-30462.589021037704,-23573.982545612165,14130.370513244929,6055.62401480961,30124.09420300653,42918.27743271321,0.0,0.0,0.0,193.0,0.0,193.0,0.0,0.0,0.0,179.0,193.0,0.0,179.0,1744418613.842854,0.0,2025-04-11 20:43:33.842,BACKWARD,11
252.0,3134.1839592676115,-14899.315225996403,-30486.32657364924,-23623.134031669382,14156.61146123546,5850.032669309696,30470.009800196865,42838.079373607565,0.0,0.0,0.0,193.0,0.0,193.0,0.0,0.0,0.0,178.0,193.0,0.0,178.0,1744418613.8429115,0.0,2025-04-11 20:43:33.842,BACKWARD,11
253.0,3143.0576018163683,-14878.528103652967,-30502.50923663488,-23591.416906287304,14030.234698085154,5872.138544575995,30370.790406559758,42784.79281482611,0.0,0.0,0.0,193.0,0.0,192.0,0.0,0.0,0.0,178.0,192.0,0.0,178.0,1744418613.8429928,0.0,2025-04-11 20:43:33.842,BACKWARD,11
254.0,3163.978834626536,-14842.36298112428,-30504.252672702394,-23549.596792411423,13929.629496291816,6107.63652415711,30091.974746224256,42905.58164186259,0.0,0.0,0.0,193.0,0.0,192.0,0.0,0.0,0.0,178.0,192.0,0.0,178.0,1744418613.8430383,0.0,2025-04-11 20:43:33.843,BACKWARD,11
255.0,3171.8913521637146,-14847.012143970984,-30457.962209935453,-23550.960248823198,14045.009201170113,6094.11371876165,30072.9981151817,42943.914883603444,0.0,0.0,0.0,193.0,0.0,192.0,0.0,0.0,0.0,179.0,192.0,0.0,179.0,1744418613.8430774,0.0,2025-04-11 20:43:33.843,BACKWARD,11
0.0,3146.5221222069413,-14890.083955536362,-30468.0428466848,-23607.934845439773,14157.952565902779,5904.973257180841,30451.100224387676,42880.27946713918,0.0,0.0,0.0,193.0,0.0,192.0,0.0,0.0,0.0,178.0,192.0,0.0,178.0,1744418613.8431125,0.0,2025-04-11 20:43:33.843,BACKWARD,11
1.0,3156.8709798897485,-14870.682641349154,-30499.312937177772,-23593.920301666298,14060.16368391081,5836.711029614334,30405.614424421125,42779.54015487911,0.0,0.0,0.0,193.0,0.0,193.0,0.0,0.0,0.0,179.0,193.0,0.0,179.0,1744418613.8432097,0.0,2025-04-11 20:43:33.843,BACKWARD,11
2.0,3160.7378316805166,-14840.194861912116,-30523.005786300397,-23569.646307187835,13961.19015946271,6066.710480059443,30140.455679947816,42884.079263696585,0.0,0.0,0.0,193.0,0.0,193.0,0.0,0.0,0.0,179.0,193.0,0.0,179.0,1744418613.8432436,0.0,2025-04-11 20:43:33.843,BACKWARD,11
3.0,3178.7309859670386,-14827.186146639127,-30474.346038621195,-23569.176920554273,14037.163738866298,6092.72791060542,30012.1343150299,42931.621424153025,0.0,0.0,0.0,193.0,0.0,192.0,0.0,0.0,0.0,178.0,192.0,0.0,178.0,1744418613.843276,0.0,2025-04-11 20:43:33.843,BACKWARD,11
4.0,3164.917607893659,-14864.245338946026,-30454.609448267158,-23609.63357801838,14187.680386028336,5935.08105696214,30380.11108399762,42893.243478923265,0.0,0.0,0.0,193.0,0.0,192.0,0.0,0.0,0.0,178.0,192.0,0.0,178.0,1744418613.8433108,0.0,2025-04-11 20:43:33.843,BACKWARD,11
5.0,3150.880712375726,-14877.119943752283,-30500.341117422715,-23615.53443855458,14089.623283102905,5797.997808217741,30413.25872102484,42762.97751223773,0.0,0.0,0.0,193.0,0.0,193.0,0.0,0.0,0.0,179.0,193.0,0.0,179.0,1744418613.8433652,0.0,2025-04-11 20:43:33.843,BACKWARD,11
6.0,3149.874883875237,-14854.164702196682,-30511.38287918364,-23567.835815886952,13969.639118866817,6025.404456306035,30172.35161928554,42847.19888534533,0.0,0.0,0.0,193.0,0.0,193.0,0.0,0.0,0.0,179.0,193.0,0.0,179.0,1744418613.8433971,0.0,2025-04-11 20:43:33.843,BACKWARD,11
7.0,3183.5366110249297,-14813.842155199309,-30455.03413141181,-23532.184783480738,14009.827555397458,6109.961105580462,29976.84091053497,42919.64088912498,0.0,0.0,0.0,193.0,0.0,193.0,0.0,0.0,0.0,179.0,193.0,0.0,179.0,1744418613.8434286,0.0,2025-04-11 20:43:33.843,BACKWARD,11
8.0,3161.4083840141757,-14854.924661508163,-30433.844677668178,-23579.548129981536,14187.90390347289,5965.412374187991,30316.14039136653,42904.01701975072,0.0,0.0,0.0,193.0,0.0,193.0,0.0,0.0,0.0,179.0,193.0,0.0,179.0,1744418613.8434613,0.0,2025-04-11 20:43:33.843,BACKWARD,11
9.0,3148.913758863659,-14881.657347876711,-30472.8931752316,-23597.317766823504,14111.907972324845,5792.745148270745,30438.426785281514,42778.17669846734,0.0,0.0,0.0,193.0,0.0,193.0,0.0,0.0,0.0,178.0,193.0,0.0,178.0,1744418613.8434927,0.0,2025-04-11 20:43:33.843,BACKWARD,11
10.0,3143.14700879419,-14867.195769214126,-30512.925149551054,-23575.03307760156,13978.780982349037,5996.570705958689,30228.856829268556,42839.7110509528,0.0,0.0,0.0,193.0,0.0,192.0,0.0,0.0,0.0,178.0,192.0,0.0,178.0,1744418613.8435252,0.0,2025-04-11 20:43:33.843,BACKWARD,11
11.0,3172.494849264008,-14830.516556562969,-30481.81152126927,-23548.479205188658,13979.362127704875,6129.585937212221,29978.472587880206,42931.97905206431,0.0,0.0,0.0,193.0,0.0,192.0,0.0,0.0,0.0,178.0,192.0,0.0,178.0,1744418613.8435562,0.0,2025-04-11 20:43:33.843,BACKWARD,11
12.0,3153.9205496216478,-14867.240472703037,-30459.303314602774,-23589.00291788613,14151.023525121633,6004.974961873885,30220.877256498014,42916.645755367965,0.0,0.0,0.0,193.0,0.0,193.0,0.0,0.0,0.0,179.0,193.0,0.0,179.0,1744418613.8435872,0.0,2025-04-11 20:43:33.843,BACKWARD,11
13.0,3139.1236947922343,-14885.457144434113,-30498.08359123273,-23623.648121791855,14115.819527604524,5786.330197612071,30419.78543040579,42781.12712873544,0.0,0.0,0.0,193.0,0.0,193.0,0.0,0.0,0.0,178.0,193.0,0.0,178.0,1744418613.8436189,0.0,2025-04-11 20:43:33.843,BACKWARD,11
14.0,3142.1858837826117,-14866.99460351403,-30524.36924271217,-23586.924205651787,13996.952950591201,5930.186024926427,30243.854849798066,42808.32920173755,0.0,0.0,0.0,193.0,0.0,193.0,0.0,0.0,0.0,179.0,193.0,0.0,179.0,1744418613.84365,0.0,2025-04-11 20:43:33.843,BACKWARD,11
15.0,3173.1206981087566,-14829.846004229308,-30494.283794675328,-23545.08174003145,13962.374801918842,6123.238041786914,29963.496919095152,42931.50966543075,0.0,0.0,0.0,193.0,0.0,193.0,0.0,0.0,0.0,179.0,193.0,0.0,179.0,1744418613.843681,0.0,2025-04-11 20:43:33.843,BACKWARD,11
16.0,3167.6668724616616,-14863.217158701082,-30442.45009928347,-23561.89025186184,14124.290838753086,6042.302375114247,30126.552894896617,42949.25695052826,0.0,0.0,0.0,193.0,0.0,193.0,0.0,0.0,0.0,178.0,193.0,0.0,178.0,1744418613.843726,0.0,2025-04-11 20:43:33.843,BACKWARD,11
17.0,3139.14604653669,-14901.997435331039,-30484.918413748554,-23617.56844730001,14114.858402592947,5823.791721319166,30433.88938115709,42849.47876327977,0.0,0.0,0.0,193.0,0.0,192.0,0.0,0.0,0.0,178.0,192.0,0.0,178.0,1744418613.8437572,0.0,2025-04-11 20:43:33.843,BACKWARD,11
18.0,3138.0955145472903,-14878.773972841977,-30519.273044976362,-23585.605452728923,13977.417525937264,5901.173460623439,30299.42128651396,42821.24851003272,0.0,0.0,0.0,193.0,0.0,192.0,0.0,0.0,0.0,178.0,192.0,0.0,178.0,1744418614.317149,0.0,2025-04-11 20:43:34.317,BACKWARD,11
19.0,3157.8991601346925,-14838.674943289156,-30508.723021593458,-23552.748388379623,13916.285504851998,6122.053399330784,30002.724230614214,42927.50870317325,0.0,0.0,0.0,193.0,0.0,193.0,0.0,0.0,0.0,179.0,193.0,0.0,179.0,1744418614.3173811,0.0,2025-04-11 20:43:34.317,BACKWARD,11
20.0,3162.4589160035753,-14846.341591637325,-30439.03028238181,-23556.726998892667,14112.310303725042,6075.740584819387,30042.219763066743,42943.46784871434,0.0,0.0,0.0,193.0,0.0,193.0,0.0,0.0,0.0,179.0,193.0,0.0,179.0,1744418614.3178144,0.0,2025-04-11 20:43:34.317,BACKWARD,11
21.0,3131.345287721788,-14903.070319064895,-30466.18765189501,-23608.58304602898,14180.416069080362,5867.288216029193,30398.68538363998,42869.68474026737,0.0,0.0,0.0,193.0,0.0,193.0,0.0,0.0,0.0,179.0,193.0,0.0,179.0,1744418614.3178947,0.0,2025-04-11 20:43:34.317,BACKWARD,11
22.0,3132.038191799902,-14892.90027533773,-30497.79301855481,-23580.352792781927,14059.761352510615,5865.075393328118,30323.71763273688,42809.73736163823,0.0,0.0,0.0,193.0,0.0,193.0,0.0,0.0,0.0,178.0,193.0,0.0,178.0,1744418614.3179665,0.0,2025-04-11 20:43:34.317,BACKWARD,11
23.0,3140.62126167074,-14861.250205189015,-30505.7502395809,-23550.446158700724,13958.217377450155,6104.864907844652,30049.595838736994,42934.19187476538,0.0,0.0,0.0,193.0,0.0,193.0,0.0,0.0,0.0,179.0,193.0,0.0,179.0,1744418614.3180463,0.0,2025-04-11 20:43:34.318,BACKWARD,11
24.0,3154.3899362552092,-14852.398914384714,-30446.965151663444,-23549.95442032271,14062.175340911788,6095.767747851342,29999.572634646018,42976.88370667502,0.0,0.0,0.0,193.0,0.0,192.0,0.0,0.0,0.0,178.0,192.0,0.0,178.0,1744418614.318128,0.0,2025-04-11 20:43:34.318,BACKWARD,11
25.0,3127.3443254642875,-14886.373565956781,-30456.73286399041,-23612.405194330837,14144.9885541187,5903.609800769067,30381.899223554043,42922.09958101506,0.0,0.0,0.0,193.0,0.0,192.0,0.0,0.0,0.0,178.0,192.0,0.0,178.0,1744418614.318241,0.0,2025-04-11 20:43:34.318,BACKWARD,11
26.0,3135.323898234832,-14874.437734417646,-30486.572442838245,-23594.657909233323,14039.041285400544,5838.119189515018,30353.601915073625,42814.453579718305,0.0,0.0,0.0,193.0,0.0,193.0,0.0,0.0,0.0,178.0,193.0,0.0,178.0,1744418614.318338,0.0,2025-04-11 20:43:34.318,BACKWARD,11
27.0,3139.9283575926256,-14861.764295311486,-30504.923225036055,-23564.885385618854,13953.47880762563,6084.748337834876,30093.785237525135,42918.903281557956,0.0,0.0,0.0,193.0,0.0,193.0,0.0,0.0,0.0,179.0,193.0,0.0,179.0,1744418614.3184497,0.0,2025-04-11 20:43:34.318,BACKWARD,11
28.0,3149.271386774944,-14858.70210632111,-30469.003971696377,-23560.772664639077,14032.1122446194,6106.92126833454,29954.712683524216,42979.25299158728,0.0,0.0,0.0,193.0,0.0,193.0,0.0,0.0,0.0,179.0,193.0,0.0,179.0,1744418614.3185143,0.0,2025-04-11 20:43:34.318,BACKWARD,11
29.0,3121.7340376060056,-14897.884714351263,-30460.577364036726,-23618.01548218912,14177.957377190278,5929.157844681483,30333.306531108206,42959.00231111077,0.0,0.0,0.0,193.0,0.0,192.0,0.0,0.0,0.0,178.0,192.0,0.0,178.0,1744418614.3185945,0.0,2025-04-11 20:43:34.318,BACKWARD,11
30.0,3125.2879649743995,-14887.80407760192,-30497.256576687883,-23623.893990980865,14064.902253735336,5782.865677221498,30396.11493302762,42834.793667172635,0.0,0.0,0.0,193.0,0.0,193.0,0.0,0.0,0.0,178.0,193.0,0.0,178.0,1744418614.318672,0.0,2025-04-11 20:43:34.318,BACKWARD,11
31.0,3150.970119353547,-14854.03059172995,-30495.244919686906,-23564.907737363308,13949.746066301594,6012.775720688787,30142.62379915998,42897.423255136404,0.0,0.0,0.0,193.0,0.0,192.0,0.0,0.0,0.0,178.0,192.0,0.0,178.0,1744418614.3188674,0.0,2025-04-11 20:43:34.318,BACKWARD,11
32.0,3164.9846631270248,-14838.116149677773,-30453.44715755548,-23543.673580130766,13982.714889373172,6135.397390770601,29938.91000019431,42992.84285221611,0.0,0.0,0.0,193.0,0.0,192.0,0.0,0.0,0.0,178.0,192.0,0.0,178.0,1744418614.318948,0.0,2025-04-11 20:43:34.318,BACKWARD,11
33.0,3130.1606452656565,-14887.647615390733,-30444.662921984545,-23598.792981957555,14129.029408577611,6004.863203151608,30264.440806441406,42989.288924847715,0.0,0.0,0.0,193.0,0.0,193.0,0.0,0.0,0.0,179.0,193.0,0.0,179.0,1744418614.319023,0.0,2025-04-11 20:43:34.319,BACKWARD,11
34.0,3120.370581194232,-14896.722423639587,-30485.9465939935,-23622.932865969287,14049.837177972458,5796.43318610587,30410.598863434658,42847.82473419008,0.0,0.0,0.0,193.0,0.0,193.0,0.0,0.0,0.0,179.0,193.0,0.0,179.0,1744418614.3190944,0.0,2025-04-11 20:43:34.319,BACKWARD,11
35.0,3127.8584155867597,-14860.602004599812,-30505.45966690298,-23573.982545612165,13956.33983091591,5980.969188328885,30199.240767865274,42888.5719643321,0.0,0.0,0.0,193.0,0.0,192.0,0.0,0.0,0.0,178.0,192.0,0.0,178.0,1744418614.3192055,0.0,2025-04-11 20:43:34.319,BACKWARD,11
36.0,3151.461857731564,-14825.710931505077,-30475.97771596643,-23544.321780719973,13951.80242679148,6121.539309208311,29932.249180346633,42986.98669516882,0.0,0.0,0.0,193.0,0.0,192.0,0.0,0.0,0.0,178.0,192.0,0.0,178.0,1744418614.3192554,0.0,2025-04-11 20:43:34.319,BACKWARD,11
37.0,3125.399723696676,-14877.522275152478,-30444.618218495634,-23586.834798673965,14139.735894171703,6026.209119106426,30174.005648375234,42998.36373309657,0.0,0.0,0.0,193.0,0.0,192.0,0.0,0.0,0.0,178.0,192.0,0.0,178.0,1744418614.319318,0.0,2025-04-11 20:43:34.319,BACKWARD,11
38.0,3114.2238514690225,-14895.113098038806,-30475.731846777424,-23631.471232351214,14130.951658600767,5821.7577125737325,30412.051726824255,42879.09482468305,0.0,0.0,0.0,193.0,0.0,192.0,0.0,0.0,0.0,178.0,192.0,0.0,178.0,1744418614.31944,0.0,2025-04-11 20:43:34.319,BACKWARD,11
39.0,3116.391970681187,-14874.460086162102,-30512.61222512868,-23602.168095370307,14004.463136728185,5946.636908845533,30246.626466110527,42881.687627039864,0.0,0.0,0.0,193.0,0.0,192.0,0.0,0.0,0.0,178.0,192.0,0.0,178.0,1744418614.3194835,0.0,2025-04-11 20:43:34.319,BACKWARD,11
40.0,3132.5522819223743,-14850.834292272843,-30504.118562235664,-23569.53454846556,13937.877289995826,6136.671440204554,29964.905078995835,42992.395817327,0.0,0.0,0.0,193.0,0.0,193.0,0.0,0.0,0.0,179.0,193.0,0.0,179.0,1744418614.3195336,0.0,2025-04-11 20:43:34.319,BACKWARD,11
41.0,3132.2393575,-14860.914929022185,-30441.153698105063,-23578.09526659194,14107.370568200418,6064.430602125001,30089.33724037853,43001.26945987576,0.0,0.0,0.0,193.0,0.0,193.0,0.0,0.0,0.0,179.0,193.0,0.0,179.0,1744418614.3195736,0.0,2025-04-11 20:43:34.319,BACKWARD,11
42.0,3119.1859387381005,-14880.070374020384,-30453.98359942241,-23613.43337457578,14158.556063003072,5857.296986257671,30417.617311193626,42908.28620294169,0.0,0.0,0.0,193.0,0.0,193.0,0.0,0.0,0.0,179.0,193.0,0.0,179.0,1744418614.3196127,0.0,2025-04-11 20:43:34.319,BACKWARD,11
43.0,3120.4376364275977,-14859.238548188037,-30487.824140527744,-23584.599624228435,14033.96743940919,5916.909088719975,30303.13167609354,42872.52341181319,0.0,0.0,0.0,193.0,0.0,192.0,0.0,0.0,0.0,178.0,192.0,0.0,178.0,1744418614.319652,0.0,2025-04-11 20:43:34.319,BACKWARD,11
44.0,3121.041133527891,-14847.302716648903,-30500.497579633902,-23564.438350729746,13933.496348082585,6133.318678536258,30022.55022794607,42998.47549181885,0.0,0.0,0.0,193.0,0.0,192.0,0.0,0.0,0.0,178.0,192.0,0.0,178.0,1744418614.3196924,0.0,2025-04-11 20:43:34.319,BACKWARD,11
45.0,3128.7971888538827,-14859.462065632591,-30451.100224387676,-23580.062220104006,14053.614622785404,6076.813468553241,30044.119661345445,43028.4044776445,0.0,0.0,0.0,193.0,0.0,192.0,0.0,0.0,0.0,178.0,192.0,0.0,178.0,1744418614.319732,0.0,2025-04-11 20:43:34.319,BACKWARD,11
46.0,3111.6981043455726,-14893.66023464921,-30465.56180305026,-23629.39252011687,14140.451149994273,5865.231855539305,30410.911787857032,42956.990654109795,0.0,0.0,0.0,193.0,0.0,193.0,0.0,0.0,0.0,179.0,193.0,0.0,179.0,1744418614.3198147,0.0,2025-04-11 20:43:34.319,BACKWARD,11
47.0,3115.5202526474304,-14862.613661600788,-30496.384858654128,-23605.878484949888,14025.339666049442,5831.078390011596,30336.212257887397,42871.33876935706,0.0,0.0,0.0,193.0,0.0,193.0,0.0,0.0,0.0,179.0,193.0,0.0,179.0,1744418614.3198547,0.0,2025-04-11 20:43:34.319,BACKWARD,11
48.0,3117.1295782482125,-14835.389236854226,-30495.647251087103,-23577.111789835908,13928.936592213702,6069.906779516552,30059.36355106396,42979.588267754116,0.0,0.0,0.0,193.0,0.0,192.0,0.0,0.0,0.0,178.0,192.0,0.0,178.0,1744418614.3198943,0.0,2025-04-11 20:43:34.319,BACKWARD,11
49.0,3118.4706829155307,-14854.231757430049,-30446.7863377078,-23575.748333424133,14023.283305559553,6084.30130294577,29996.21987297772,43028.96327125589,0.0,0.0,0.0,193.0,0.0,192.0,0.0,0.0,0.0,178.0,192.0,0.0,178.0,1744418614.3199344,0.0,2025-04-11 20:43:34.319,BACKWARD,11
50.0,3091.1568511911455,-14903.047967320439,-30443.657093484057,-23615.869714721408,14145.569699474538,5909.6894752609105,30385.140226500065,42979.565916009655,0.0,0.0,0.0,193.0,0.0,192.0,0.0,0.0,0.0,178.0,192.0,0.0,178.0,1744418614.3199933,0.0,2025-04-11 20:43:34.319,BACKWARD,11
51.0,3112.8380433127936,-14873.945996039629,-30465.293582116796,-23589.42760103078,14050.977116939679,5811.990000246764,30371.259793193316,42852.898580181434,0.0,0.0,0.0,193.0,0.0,192.0,0.0,0.0,0.0,178.0,192.0,0.0,178.0,1744418614.3200324,0.0,2025-04-11 20:43:34.320,BACKWARD,11
52.0,3106.5124996319414,-14856.042248730928,-30498.977661010944,-23568.84164438744,13940.581851074918,6049.05260193975,30123.378947183963,42950.419241239935,0.0,0.0,0.0,193.0,0.0,193.0,0.0,0.0,0.0,178.0,193.0,0.0,178.0,1744418614.3200712,0.0,2025-04-11 20:43:34.320,BACKWARD,11
53.0,3122.8963283176818,-14845.693391048122,-30454.296523844783,-23554.447120958226,13990.940331332724,6118.097140562194,29956.992561458657,43013.339401881625,0.0,0.0,0.0,193.0,0.0,193.0,0.0,0.0,0.0,179.0,193.0,0.0,179.0,1744418614.3201103,0.0,2025-04-11 20:43:34.320,BACKWARD,11
54.0,3090.4862988574864,-14892.408536959712,-30450.139099376098,-23602.123391881396,14148.408371020363,5988.233505276859,30332.72538575237,43002.923488965454,0.0,0.0,0.0,193.0,0.0,192.0,0.0,0.0,0.0,178.0,192.0,0.0,178.0,1744418614.3201804,0.0,2025-04-11 20:43:34.320,BACKWARD,11
55.0,3088.5864005787853,-14894.33078698287,-30493.03209698583,-23613.142801897862,14070.467838104707,5815.2980584261495,30405.882645354588,42858.866495951,0.0,0.0,0.0,193.0,0.0,192.0,0.0,0.0,0.0,178.0,192.0,0.0,178.0,1744418614.32026,0.0,2025-04-11 20:43:34.320,BACKWARD,11
56.0,3092.497955858464,-14874.258920462004,-30513.28277746234,-23575.368353768394,13960.877235040336,6020.174148103493,30176.48669200977,42923.55244440466,0.0,0.0,0.0,193.0,0.0,192.0,0.0,0.0,0.0,178.0,192.0,0.0,178.0,1744418614.3203197,0.0,2025-04-11 20:43:34.320,BACKWARD,11
57.0,3125.198557996578,-14841.446559601613,-30470.814462997256,-23546.71341737669,13980.14443876081,6138.705448949987,29944.766157241604,43016.17807342745,0.0,0.0,0.0,193.0,0.0,193.0,0.0,0.0,0.0,179.0,193.0,0.0,179.0,1744418614.3203783,0.0,2025-04-11 20:43:34.320,BACKWARD,11
58.0,3114.0226857689245,-14868.46981864808,-30441.64543648308,-23574.42958050127,14155.270356568142,6027.013781906818,30238.155154961965,43017.92150949496,0.0,0.0,0.0,193.0,0.0,193.0,0.0,0.0,0.0,178.0,193.0,0.0,178.0,1744418614.3204155,0.0,2025-04-11 20:43:34.320,BACKWARD,11
59.0,3091.2239064245114,-14886.507676423513,-30481.006858468874,-23601.743412225656,14099.189829729776,5835.34757320256,30420.34422401717,42890.49421435526,0.0,0.0,0.0,193.0,0.0,192.0,0.0,0.0,0.0,178.0,192.0,0.0,178.0,1744418614.3204508,0.0,2025-04-11 20:43:34.320,BACKWARD,11
60.0,3085.010121465936,-14867.531045380956,-30517.99899554241,-23572.75319966712,13960.363144917865,5993.642627435044,30240.300922429673,42923.55244440466,0.0,0.0,0.0,193.0,0.0,192.0,0.0,0.0,0.0,178.0,192.0,0.0,178.0,1744418614.3204854,0.0,2025-04-11 20:43:34.320,BACKWARD,11
61.0,3119.990601538492,-14830.918887963164,-30488.762913794868,-23538.555030650503,13934.815101005448,6137.7890274273195,29963.698084795247,43014.27817514875,0.0,0.0,0.0,193.0,0.0,192.0,0.0,0.0,0.0,178.0,192.0,0.0,178.0,1744418614.3205197,0.0,2025-04-11 20:43:34.320,BACKWARD,11
62.0,3119.364752693743,-14856.958670253596,-30445.31112257375,-23558.60454542691,14103.146088498366,6046.839779238675,30164.170880814898,43017.16155018348,0.0,0.0,0.0,193.0,0.0,192.0,0.0,0.0,0.0,179.0,192.0,0.0,179.0,1744418614.3205805,0.0,2025-04-11 20:43:34.320,BACKWARD,11
63.0,3100.432825140098,-14891.670929392689,-30474.97188746594,-23601.452839547735,14106.208277488742,5826.406875420436,30417.617311193626,42893.35523764554,0.0,0.0,0.0,193.0,0.0,193.0,0.0,0.0,0.0,179.0,193.0,0.0,179.0,1744418614.3206153,0.0,2025-04-11 20:43:34.320,BACKWARD,11
64.0,3093.570839592319,-14883.84781883333,-30503.693879091014,-23576.374182268883,13990.716813888172,5941.093676220617,30273.51561469026,42881.44175785086,0.0,0.0,0.0,193.0,0.0,193.0,0.0,0.0,0.0,179.0,193.0,0.0,179.0,1744418614.3206496,0.0,2025-04-11 20:43:34.320,BACKWARD,11
65.0,3112.525118890419,-14842.98882996903,-30492.22743418544,-23547.249859243617,13944.627516821327,6137.409047771579,29977.444407635263,42988.663076002966,0.0,0.0,0.0,193.0,0.0,192.0,0.0,0.0,0.0,178.0,192.0,0.0,178.0,1744418614.3207002,0.0,2025-04-11 20:43:34.320,BACKWARD,11
66.0,3112.167490979134,-14868.201597714615,-30439.566724248736,-23567.05350483102,14120.17811777331,6078.5345528763,30078.206071639786,43016.17807342745,0.0,0.0,0.0,193.0,0.0,193.0,0.0,0.0,0.0,179.0,193.0,0.0,179.0,1744418614.320735,0.0,2025-04-11 20:43:34.320,BACKWARD,11
67.0,3098.0188367389246,-14902.6679876647,-30457.11284364615,-23609.231246618183,14160.299499070587,5870.216294552839,30416.16444780403,42923.82066533812,0.0,0.0,0.0,193.0,0.0,192.0,0.0,0.0,0.0,178.0,192.0,0.0,178.0,1744418614.3207695,0.0,2025-04-11 20:43:34.320,BACKWARD,11
68.0,3098.130595461201,-14881.098554265327,-30487.578271338734,-23581.492731749146,14021.539869492039,5904.727387991833,30320.789554213236,42874.2668478807,0.0,0.0,0.0,193.0,0.0,192.0,0.0,0.0,0.0,178.0,192.0,0.0,178.0,1744418614.3208044,0.0,2025-04-11 20:43:34.320,BACKWARD,11
69.0,3115.2743834584217,-14834.428111842646,-30493.345021408204,-23545.014684798087,13934.815101005448,6128.803626156286,30030.37333850543,42986.27143934625,0.0,0.0,0.0,193.0,0.0,192.0,0.0,0.0,0.0,178.0,192.0,0.0,178.0,1744418614.3208392,0.0,2025-04-11 20:43:34.320,BACKWARD,11
70.0,3128.976002809525,-14824.816861726864,-30437.35390154766,-23544.634705142344,14092.976044771201,6109.134091035616,30023.086669813,43020.49196010733,0.0,0.0,0.0,193.0,0.0,192.0,0.0,0.0,0.0,178.0,192.0,0.0,178.0,1744418614.3208737,0.0,2025-04-11 20:43:34.320,BACKWARD,11
71.0,3096.5436216048747,-14881.970272299084,-30456.17407037903,-23608.62774951789,14178.650281268392,5912.081111917629,30415.337433259185,42956.05188084267,0.0,0.0,0.0,193.0,0.0,193.0,0.0,0.0,0.0,179.0,193.0,0.0,179.0,1744418614.320908,0.0,2025-04-11 20:43:34.320,BACKWARD,11
72.0,3090.888630257682,-14889.301644480425,-30501.548111623302,-23598.949444168742,14028.670075973283,5851.262015254738,30373.85259555013,42856.16193487191,0.0,0.0,0.0,193.0,0.0,193.0,0.0,0.0,0.0,179.0,193.0,0.0,179.0,1744418614.320943,0.0,2025-04-11 20:43:34.320,BACKWARD,11
73.0,3113.3297816908103,-14856.288117919938,-30500.251710444896,-23555.810577369997,13934.815101005448,6089.464555914946,30096.75801953769,42960.54458147819,0.0,0.0,0.0,193.0,0.0,192.0,0.0,0.0,0.0,178.0,192.0,0.0,178.0,1744418614.3209777,0.0,2025-04-11 20:43:34.320,BACKWARD,11
74.0,3120.95172655007,-14849.157911438693,-30451.949590676977,-23554.871804102877,14032.939259164246,6126.300230777291,30007.641614394382,43027.868035777574,0.0,0.0,0.0,193.0,0.0,192.0,0.0,0.0,0.0,178.0,192.0,0.0,178.0,1744418614.3210125,0.0,2025-04-11 20:43:34.321,BACKWARD,11
75.0,3080.6962347860617,-14905.529010954979,-30467.12642516213,-23615.065051921018,14163.719315972248,5944.446437888913,30387.554214901236,42981.041131143706,0.0,0.0,0.0,193.0,0.0,192.0,0.0,0.0,0.0,178.0,192.0,0.0,178.0,1744418614.3210468,0.0,2025-04-11 20:43:34.321,BACKWARD,11
76.0,3077.3881766066766,-14911.563981957912,-30509.237111715927,-23622.821107247008,14062.622375800895,5808.458424622825,30401.926386585998,42845.544856255634,0.0,0.0,0.0,193.0,0.0,192.0,0.0,0.0,0.0,178.0,192.0,0.0,178.0,1744418614.3210812,0.0,2025-04-11 20:43:34.321,BACKWARD,11
77.0,3088.5864005787853,-14879.221007731083,-30525.687995635035,-23585.00195562863,13946.795636033492,6037.206177378438,30155.38664524396,42936.40469746646,0.0,0.0,0.0,193.0,0.0,192.0,0.0,0.0,0.0,178.0,192.0,0.0,178.0,1744418614.321134,0.0,2025-04-11 20:43:34.321,BACKWARD,11
78.0,3113.7991683243717,-14851.527196350957,-30471.93205022002,-23552.971905824175,13988.682805142738,6127.037838344317,29972.281154666085,43018.2567856618,0.0,0.0,0.0,193.0,0.0,193.0,0.0,0.0,0.0,179.0,193.0,0.0,179.0,1744418614.3211691,0.0,2025-04-11 20:43:34.321,BACKWARD,11
79.0,3092.6097145807403,-14885.747717112032,-30447.16631736354,-23585.448990517736,14156.924385657834,5994.313179768704,30315.179266354953,42999.5483755527,0.0,0.0,0.0,193.0,0.0,193.0,0.0,0.0,0.0,179.0,193.0,0.0,179.0,1744418614.3212042,0.0,2025-04-11 20:43:34.321,BACKWARD,11
80.0,3091.4250721246094,-14879.46687692009,-30479.88927124611,-23591.19338884275,14088.416288902317,5821.824767807098,30420.36657576163,42859.335882584564,0.0,0.0,0.0,193.0,0.0,193.0,0.0,0.0,0.0,179.0,193.0,0.0,179.0,1744418614.3212397,0.0,2025-04-11 20:43:34.321,BACKWARD,11
81.0,3088.0946622007687,-14859.37265865477,-30515.09326876322,-23571.52385372208,13974.042412524512,6011.032284621273,30208.44968658086,42915.10348500055,0.0,0.0,0.0,193.0,0.0,193.0,0.0,0.0,0.0,179.0,193.0,0.0,179.0,1744418614.32129,0.0,2025-04-11 20:43:34.321,BACKWARD,11
82.0,3121.823444583827,-14823.989847182018,-30473.78724500981,-23546.109920276394,13967.515703143563,6124.512091220867,29959.563012071016,43001.96236395388,0.0,0.0,0.0,193.0,0.0,192.0,0.0,0.0,0.0,178.0,192.0,0.0,178.0,1744418614.3213255,0.0,2025-04-11 20:43:34.321,BACKWARD,11
83.0,3094.8672407707263,-14876.605853629811,-30441.667788227536,-23590.85811267592,14129.945830100278,6019.90592717003,30229.59443683558,42999.570727297156,0.0,0.0,0.0,193.0,0.0,192.0,0.0,0.0,0.0,178.0,192.0,0.0,178.0,1744418614.3213608,0.0,2025-04-11 20:43:34.321,BACKWARD,11
84.0,3081.8361737532823,-14906.445432477645,-30481.520948591347,-23615.266217621116,14086.918722023813,5820.8189393066095,30427.675596198515,42869.260057122716,0.0,0.0,0.0,193.0,0.0,192.0,0.0,0.0,0.0,178.0,192.0,0.0,178.0,1744418614.321396,0.0,2025-04-11 20:43:34.321,BACKWARD,11
85.0,3082.216153409023,-14883.177266499672,-30509.93001579404,-23575.68127819077,13982.156095761788,5975.247141748327,30263.412626196463,42895.94804000235,0.0,0.0,0.0,193.0,0.0,192.0,0.0,0.0,0.0,178.0,192.0,0.0,178.0,1744418614.3214324,0.0,2025-04-11 20:43:34.321,BACKWARD,11
86.0,3105.6407815981847,-14846.833330015343,-30478.950497978985,-23544.388835953338,13940.648906308283,6134.011582614373,29984.37344841641,42998.78841624122,0.0,0.0,0.0,193.0,0.0,193.0,0.0,0.0,0.0,179.0,193.0,0.0,179.0,1744418614.3214676,0.0,2025-04-11 20:43:34.321,BACKWARD,11
87.0,3099.762272806439,-14879.690394364643,-30429.128459588108,-23565.42182748578,14112.399710702863,6047.5773868057,30165.042598848653,43015.015782715775,0.0,0.0,0.0,193.0,0.0,193.0,0.0,0.0,0.0,178.0,193.0,0.0,178.0,1744418614.3215027,0.0,2025-04-11 20:43:34.321,BACKWARD,11
88.0,3089.5475255903634,-14904.344368498847,-30459.817404725243,-23600.804638958532,14121.921553840823,5824.551680630646,30458.453948313472,42907.90622328594,0.0,0.0,0.0,193.0,0.0,193.0,0.0,1.0,0.0,179.0,193.0,1.0,179.0,1744418614.321538,0.0,2025-04-11 20:43:34.321,BACKWARD,11
89.0,3101.818633296327,-14873.945996039629,-30482.727942791935,-23566.271193775083,14006.340683262431,5901.26286760126,30315.00045239931,42876.72553977079,0.0,0.0,0.0,193.0,0.0,193.0,0.0,2.0,0.0,179.0,193.0,2.0,179.0,1744418614.3215747,0.0,2025-04-11 20:43:34.321,BACKWARD,11
90.0,3121.622278883729,-14836.260954887983,-30473.854300243176,-23537.86212657239,13937.117330684345,6092.929076305518,30019.979777333712,42983.276305589236,0.0,0.0,0.0,193.0,0.0,192.0,0.0,3.0,0.0,178.0,192.0,3.0,178.0,1744418614.3216174,0.0,2025-04-11 20:43:34.321,BACKWARD,11
91.0,3114.4473689135757,-14855.058771974895,-30435.45400326896,-23557.889289604344,14085.018823745111,6056.67454679901,30098.993193983224,43015.46281760488,0.0,0.0,0.0,193.0,0.0,193.0,0.0,4.0,0.0,178.0,193.0,4.0,178.0,1744418614.3216631,0.0,2025-04-11 20:43:34.321,BACKWARD,11
92.0,3080.4056621081427,-14905.6184179328,-30458.878631458123,-23611.01938617461,14149.03421986511,5863.108439816051,30463.483090815917,42941.813819624644,0.0,0.0,0.0,193.0,0.0,192.0,0.0,6.0,0.0,178.0,192.0,6.0,178.0,1744418614.3217452,0.0,2025-04-11 20:43:34.321,BACKWARD,11
93.0,3079.243371396467,-14893.190848015649,-30490.774570795846,-23584.689031206257,14028.245392828632,5871.512695731247,30382.01098227632,42880.659446794925,0.0,0.0,0.0,193.0,0.0,193.0,0.0,7.0,0.0,179.0,193.0,7.0,179.0,1744418614.3217952,0.0,2025-04-11 20:43:34.321,BACKWARD,11
94.0,3109.105301988757,-14842.675905546655,-30478.32464913424,-23533.257667214595,13951.265984924554,6095.186602495504,30090.879510745945,42993.066369660664,0.0,0.0,0.0,193.0,0.0,193.0,0.0,8.0,0.0,179.0,193.0,8.0,179.0,1744418614.3218424,0.0,2025-04-11 20:43:34.321,BACKWARD,11
95.0,3121.465816672542,-14838.853757244797,-30421.819439151222,-23522.953513020697,14081.151971954343,6095.030140284317,30045.349007290486,43035.288814936735,0.0,0.0,0.0,193.0,0.0,193.0,0.0,8.0,0.0,179.0,193.0,8.0,179.0,1744418614.321894,0.0,2025-04-11 20:43:34.321,BACKWARD,11
96.0,3090.910982002137,-14882.573769399378,-30431.363634033638,-23578.05056310303,14196.665787299371,5913.26575437376,30435.40929978005,42990.11593939256,0.0,0.0,0.0,193.0,0.0,192.0,0.0,9.0,0.0,179.0,192.0,9.0,179.0,1744418614.322,0.0,2025-04-11 20:43:34.322,BACKWARD,11
97.0,3098.3317611612993,-14864.379449412758,-30464.51127106086,-23560.213871027696,14074.535855595572,5840.376715705003,30401.501703441347,42879.69832178335,0.0,0.0,0.0,193.0,0.0,192.0,0.0,10.0,0.0,179.0,192.0,10.0,179.0,1744418614.3220527,0.0,2025-04-11 20:43:34.322,BACKWARD,11
98.0,3108.94883977757,-14835.009257198484,-30483.622012570147,-23526.93212353374,13950.595432590895,6089.151631492571,30137.48289793526,42986.562012024166,0.0,0.0,0.0,193.0,0.0,193.0,0.0,11.0,0.0,179.0,193.0,11.0,179.0,1744418614.3220963,0.0,2025-04-11 20:43:34.322,BACKWARD,11
99.0,3126.80788359736,-14828.88487921773,-30435.766927691333,-23521.388890908827,14007.413566996285,6129.45182674549,30006.233454493697,43048.54339939873,0.0,0.0,0.0,193.0,0.0,193.0,0.0,11.0,0.0,179.0,193.0,11.0,179.0,1744418614.322138,0.0,2025-04-11 20:43:34.322,BACKWARD,11
100.0,3094.7778337929053,-14879.578635642367,-30431.25187531136,-23583.414981772305,14155.583280990515,5966.37349919957,30385.564909644716,43023.330631653145,0.0,0.0,0.0,193.0,0.0,192.0,0.0,12.0,0.0,178.0,192.0,12.0,178.0,1744418614.322176,0.0,2025-04-11 20:43:34.322,BACKWARD,11
101.0,3091.1568511911455,-14872.269615205481,-30464.623029783135,-23583.43733351676,14066.980965969678,5830.631355122489,30429.575494477212,42888.482557354284,0.0,0.0,0.0,193.0,0.0,192.0,0.0,12.0,0.0,178.0,192.0,12.0,178.0,1744418614.3222156,0.0,2025-04-11 20:43:34.322,BACKWARD,11
102.0,3091.648589569162,-14862.479551134056,-30479.598698568192,-23542.690103374734,13970.1979124782,6055.802828765253,30192.132913128487,42967.38421528151,0.0,0.0,0.0,193.0,0.0,193.0,0.0,12.0,0.0,178.0,193.0,12.0,178.0,1744418614.3222535,0.0,2025-04-11 20:43:34.322,BACKWARD,11
103.0,3106.1325199762014,-14848.755580038498,-30434.626988724114,-23524.294617688014,14019.617619468883,6154.508132279889,30004.914701570837,43063.20614376142,0.0,0.0,0.0,193.0,0.0,193.0,0.0,13.0,0.0,179.0,193.0,13.0,179.0,1744418614.322291,0.0,2025-04-11 20:43:34.322,BACKWARD,11
104.0,3087.714682545028,-14876.65055711872,-30413.97397684741,-23563.857205373908,14189.04384244011,6021.202328348438,30330.62432177357,43048.18577148745,0.0,0.0,0.0,193.0,0.0,193.0,0.0,13.0,0.0,179.0,193.0,13.0,179.0,1744418614.322342,0.0,2025-04-11 20:43:34.322,BACKWARD,11
105.0,3074.661263783129,-14891.76033637051,-30465.807672239265,-23590.120505108895,14102.810812331536,5831.905404556443,30465.405340839072,42908.554423875146,0.0,0.0,0.0,193.0,0.0,193.0,0.0,13.0,0.0,179.0,193.0,13.0,179.0,1744418614.3223825,0.0,2025-04-11 20:43:34.322,BACKWARD,11
106.0,3081.433842353087,-14864.602966857312,-30495.960175509477,-23553.08366454645,13960.117275728855,6013.602735233633,30260.641009884002,42960.1869535669,0.0,0.0,0.0,193.0,0.0,192.0,0.0,13.0,0.0,178.0,192.0,13.0,178.0,1744418614.3224256,0.0,2025-04-11 20:43:34.322,BACKWARD,11
107.0,3114.5144241469416,-14833.466986831068,-30455.168241878542,-23522.640588598322,13968.700345599693,6137.923137894051,30000.578463146507,43053.125507012075,0.0,0.0,0.0,193.0,0.0,192.0,0.0,14.0,0.0,179.0,192.0,14.0,179.0,1744418614.3225813,0.0,2025-04-11 20:43:34.322,BACKWARD,11
108.0,3093.7049500590506,-14876.22587397407,-30422.869971140623,-23558.202214026718,14153.303403056074,6043.174093148004,30255.388349937006,43064.05551005072,0.0,0.0,0.0,193.0,0.0,193.0,0.0,14.0,0.0,179.0,193.0,14.0,179.0,1744418614.3226256,0.0,2025-04-11 20:43:34.322,BACKWARD,11
109.0,3077.7011010290507,-14900.09753705234,-30463.55014604928,-23593.47326677719,14111.50564092465,5837.20276799235,30481.096265446697,42935.197703265876,0.0,0.0,0.0,193.0,0.0,193.0,0.0,14.0,0.0,179.0,193.0,14.0,179.0,1744418614.3226633,0.0,2025-04-11 20:43:34.322,BACKWARD,11
110.0,3086.239467410978,-14865.89936803572,-30490.707515562477,-23558.04575181553,13988.571046420462,5967.84871433362,30306.640899973027,42938.84103761209,0.0,0.0,0.0,193.0,0.0,193.0,0.0,14.0,0.0,179.0,193.0,14.0,179.0,1744418614.322704,0.0,2025-04-11 20:43:34.322,BACKWARD,11
111.0,3116.2578602144554,-14822.291114603415,-30461.091454159196,-23531.961266036185,13961.324269929442,6150.663632233576,30017.252864510163,43044.90006505252,0.0,0.0,0.0,193.0,0.0,192.0,0.0,14.0,0.0,178.0,192.0,14.0,178.0,1744418614.3227768,0.0,2025-04-11 20:43:34.322,BACKWARD,11
112.0,3102.399778652165,-14856.489283620034,-30417.863180382632,-23555.050618058518,14120.55809742905,6073.2818929293035,30163.9697151148,43056.79119310274,0.0,0.0,0.0,193.0,0.0,192.0,0.0,15.0,0.0,178.0,192.0,15.0,178.0,1744418614.3228176,0.0,2025-04-11 20:43:34.322,BACKWARD,11
113.0,3088.206420923045,-14868.5592256259,-30436.12455560262,-23586.633632973866,14147.626059964427,5864.181323549906,30455.369407578637,42950.910979617955,0.0,0.0,0.0,193.0,0.0,193.0,0.0,15.0,0.0,179.0,193.0,15.0,179.0,1744418614.322862,0.0,2025-04-11 20:43:34.322,BACKWARD,11
114.0,3085.8594877552378,-14858.232719687549,-30471.060332186265,-23558.872766360375,14031.933430663757,5942.390077399025,30334.20060088642,42924.17829324941,0.0,0.0,0.0,193.0,0.0,193.0,0.0,15.0,0.0,179.0,193.0,15.0,179.0,1744418614.3228996,0.0,2025-04-11 20:43:34.322,BACKWARD,11
115.0,3100.522232117919,-14841.826539257354,-30477.184710167017,-23526.350978177903,13945.05219996598,6161.750097483408,30046.734815446714,43038.37335567157,0.0,0.0,0.0,193.0,0.0,193.0,0.0,15.0,0.0,179.0,193.0,15.0,179.0,1744418614.3229396,0.0,2025-04-11 20:43:34.322,BACKWARD,11
116.0,3101.952743763059,-14851.862472517787,-30430.760136933346,-23539.806728339998,14086.203466201243,6118.566527195755,30070.494719802708,43053.684300623456,0.0,0.0,0.0,193.0,0.0,192.0,0.0,15.0,0.0,178.0,192.0,15.0,178.0,1744418614.3229792,0.0,2025-04-11 20:43:34.322,BACKWARD,11
117.0,3075.5106300724306,-14883.42313568868,-30455.68233200101,-23595.082592377974,14156.1420746019,5906.135547892517,30429.866067155133,42979.67767473193,0.0,0.0,0.0,193.0,0.0,192.0,0.0,15.0,0.0,178.0,192.0,15.0,178.0,1744418614.323017,0.0,2025-04-11 20:43:34.323,BACKWARD,11
118.0,3091.559182591341,-14863.015993000985,-30469.383951352116,-23558.872766360375,14041.455273801717,5884.744928448788,30339.743833511337,42897.04327548066,0.0,0.0,0.0,193.0,0.0,193.0,0.0,15.0,0.0,178.0,193.0,15.0,178.0,1744418614.3230555,0.0,2025-04-11 20:43:34.323,BACKWARD,11
119.0,3097.9741332500143,-14840.865414245774,-30474.83777699921,-23525.635722355335,13947.980278489624,6123.64037318711,30057.08367312952,43005.67275353346,0.0,0.0,0.0,193.0,0.0,193.0,0.0,15.0,0.0,179.0,193.0,15.0,179.0,1744418614.3230953,0.0,2025-04-11 20:43:34.323,BACKWARD,11
120.0,3107.9653630215366,-14838.987867711528,-30433.352939290162,-23526.32862643345,14049.390143083352,6128.714219178465,29996.398686933364,43051.449126177926,0.0,0.0,0.0,193.0,0.0,192.0,0.0,15.0,0.0,179.0,192.0,15.0,179.0,1744418614.3231387,0.0,2025-04-11 20:43:34.323,BACKWARD,11
121.0,3079.7351097744836,-14891.268597992492,-30447.70275923047,-23588.891159163853,14151.582318733015,5939.484350619835,30368.421121647494,42988.7971864697,0.0,0.0,0.0,193.0,0.0,192.0,0.0,15.0,0.0,178.0,192.0,15.0,178.0,1744418614.323188,0.0,2025-04-11 20:43:34.323,BACKWARD,11
122.0,3083.154926676146,-14868.983908770551,-30468.35577110717,-23566.695876919734,14046.529119793073,5863.153143304961,30359.05574072072,42884.52629858569,0.0,0.0,0.0,193.0,0.0,192.0,0.0,16.0,0.0,178.0,192.0,16.0,178.0,1744418614.3232837,0.0,2025-04-11 20:43:34.323,BACKWARD,11
123.0,3082.886705742682,-14835.83627174333,-30484.47137885945,-23533.682350359246,13935.172728916732,6103.948486321984,30115.801705813614,42994.4968813058,0.0,0.0,0.0,193.0,0.0,192.0,0.0,16.0,0.0,178.0,192.0,16.0,178.0,1744418614.3233287,0.0,2025-04-11 20:43:34.323,BACKWARD,11
124.0,3090.75451979095,-14831.880012974741,-30453.22364011093,-23535.582248637947,13998.517572703073,6151.691812478521,29974.98571574518,43062.222667005386,0.0,0.0,0.0,193.0,0.0,193.0,0.0,16.0,0.0,179.0,193.0,16.0,179.0,1744418614.3233716,0.0,2025-04-11 20:43:34.323,BACKWARD,11
125.0,3067.0840224127796,-14879.109249008805,-30432.660035212048,-23578.028211358574,14165.842731695502,5990.334569255659,30330.28904560674,43032.159570712996,0.0,0.0,0.0,193.0,0.0,193.0,0.0,16.0,0.0,179.0,193.0,16.0,179.0,1744418614.3234148,0.0,2025-04-11 20:43:34.323,BACKWARD,11
126.0,3074.9071329721373,-14879.80215308692,-30461.382026837116,-23575.793036913044,14073.50767535063,5837.336878459082,30383.575604388192,42887.94611548736,0.0,0.0,0.0,193.0,0.0,192.0,0.0,16.0,0.0,178.0,192.0,16.0,178.0,1744418614.323504,0.0,2025-04-11 20:43:34.323,BACKWARD,11
127.0,3081.3891388641764,-14851.236623673038,-30490.685163818023,-23540.07494927346,13953.545862858995,6062.86598001313,30147.78705212916,42955.7389564203,0.0,0.0,0.0,193.0,0.0,192.0,0.0,16.0,0.0,178.0,192.0,16.0,178.0,1744418614.3235505,0.0,2025-04-11 20:43:34.323,BACKWARD,11
128.0,3104.277325186411,-14820.257105857982,-30451.34609357668,-23515.242161183618,13980.345604460908,6174.803516245308,29926.571837254985,43038.61922486058,0.0,0.0,0.0,193.0,0.0,192.0,0.0,16.0,0.0,179.0,192.0,16.0,179.0,1744418614.323598,0.0,2025-04-11 20:43:34.323,BACKWARD,11
129.0,3085.457156355042,-14867.106362236305,-30432.54827648977,-23558.336324493448,14158.556063003072,6049.030250195295,30235.003558993765,43029.92439626747,0.0,0.0,0.0,193.0,0.0,193.0,0.0,16.0,0.0,179.0,193.0,16.0,179.0,1744418614.3236415,0.0,2025-04-11 20:43:34.323,BACKWARD,11
130.0,3080.3833103636875,-14875.5106181515,-30477.251765400382,-23577.581176469466,14095.479440150195,5853.385430977993,30400.808799363233,42904.66522033992,0.0,0.0,0.0,193.0,0.0,193.0,0.0,16.0,0.0,179.0,193.0,16.0,179.0,1744418614.3236833,0.0,2025-04-11 20:43:34.323,BACKWARD,11
131.0,3091.8944587581705,-14829.55543155139,-30492.339192907715,-23525.211039210684,13975.472924169651,6027.639630751566,30209.880198226,42943.24433126979,0.0,0.0,0.0,193.0,0.0,193.0,0.0,16.0,0.0,179.0,193.0,16.0,179.0,1744418614.3237238,0.0,2025-04-11 20:43:34.323,BACKWARD,11
132.0,3108.501804888464,-14798.397099780692,-30460.97969543692,-23499.774754020546,13954.328173914932,6179.899713981118,29944.408529330318,43032.89717828002,0.0,0.0,0.0,193.0,0.0,192.0,0.0,16.0,0.0,178.0,192.0,16.0,178.0,1744418614.3237622,0.0,2025-04-11 20:43:34.323,BACKWARD,11
133.0,3076.3823481061877,-14850.946050995119,-30426.289788042282,-23542.42188244127,14117.719425883226,6085.128317490616,30180.532357756183,43047.13523949805,0.0,0.0,0.0,193.0,0.0,192.0,0.0,16.0,0.0,178.0,192.0,16.0,178.0,1744418614.3238025,0.0,2025-04-11 20:43:34.323,BACKWARD,11
134.0,3061.2502171099445,-14873.029574516962,-30456.531698290313,-23582.25269106063,14106.096518766466,5860.314471759138,30448.21684935294,42943.31138650315,0.0,0.0,0.0,193.0,0.0,192.0,0.0,16.0,0.0,178.0,192.0,16.0,178.0,1744418614.3238475,0.0,2025-04-11 20:43:34.323,BACKWARD,11
135.0,3060.065574653813,-14860.154969710706,-30484.158454437074,-23559.118635549385,13994.606017423393,5972.810801602698,30305.99269938382,42948.5863981946,0.0,0.0,0.0,193.0,0.0,193.0,0.0,16.0,0.0,179.0,193.0,16.0,179.0,1744418614.323886,0.0,2025-04-11 20:43:34.323,BACKWARD,11
136.0,3072.403737593143,-14851.41543762868,-30481.453893357982,-23534.442309670725,13927.908411968758,6151.401239800602,30022.41611747934,43052.94669305643,0.0,0.0,0.0,193.0,0.0,193.0,0.0,16.0,0.0,179.0,193.0,16.0,179.0,1744418614.323931,0.0,2025-04-11 20:43:34.323,BACKWARD,11
137.0,3072.783717248883,-14868.738039581543,-30431.65420671156,-23542.690103374734,14095.032405261089,6083.6083988676555,30138.645188646937,43066.20127751843,0.0,0.0,0.0,193.0,0.0,192.0,0.0,16.0,0.0,178.0,192.0,16.0,178.0,1744418614.324056,0.0,2025-04-11 20:43:34.324,BACKWARD,11
138.0,3053.9411966730595,-14890.910970081208,-30455.972904678933,-23582.118580593895,14154.622155978937,5865.410669494948,30473.496672331894,42967.40656702597,0.0,0.0,0.0,193.0,0.0,192.0,0.0,16.0,0.0,178.0,192.0,16.0,178.0,1744418614.7981184,0.0,2025-04-11 20:43:34.798,BACKWARD,11
139.0,3061.6078450212294,-14861.764295311486,-30481.36448638016,-23548.09922553292,14031.106416118912,5905.912030447964,30355.412406374504,42909.247327953264,0.0,0.0,0.0,193.0,0.0,192.0,0.0,16.0,0.0,179.0,192.0,16.0,179.0,1744418614.7982848,0.0,2025-04-11 20:43:34.798,BACKWARD,11
140.0,3084.3395691322767,-14828.571954795356,-30477.810559011767,-23511.040033226018,13952.472979125141,6146.260338575881,30071.746417492202,43020.469608362866,0.0,0.0,0.0,193.0,0.0,192.0,0.0,16.0,0.0,179.0,192.0,16.0,179.0,1744418614.7983236,0.0,2025-04-11 20:43:34.798,BACKWARD,11
141.0,3082.4843743424863,-14851.88482426224,-30439.745538204377,-23527.8038415675,14078.782687042081,6125.629678443633,30094.634603814437,43057.55115241422,0.0,0.0,0.0,193.0,0.0,193.0,0.0,16.0,0.0,179.0,193.0,16.0,179.0,1744418614.7983997,0.0,2025-04-11 20:43:34.798,BACKWARD,11
142.0,3065.6088072787297,-14889.681624136165,-30446.048730140774,-23575.502464235124,14160.1430368594,5915.411521841469,30462.27609661533,42984.10332013408,0.0,0.0,0.0,193.0,0.0,193.0,0.0,16.0,0.0,178.0,193.0,16.0,178.0,1744418614.798437,0.0,2025-04-11 20:43:34.798,BACKWARD,11
143.0,3058.9256356865926,-14871.710821594099,-30474.949535721487,-23566.98644959765,14032.380465552864,5880.699262702377,30413.079907069197,42897.289144669674,0.0,0.0,0.0,193.0,0.0,193.0,0.0,16.0,0.0,179.0,193.0,16.0,179.0,1744418614.798473,0.0,2025-04-11 20:43:34.798,BACKWARD,11
144.0,3065.050013667347,-14840.46308284558,-30479.08460844572,-23529.904905546297,13925.89675496778,6120.488777218911,30147.518831195695,43011.595965814115,0.0,0.0,0.0,193.0,0.0,192.0,0.0,17.0,0.0,178.0,192.0,17.0,178.0,1744418614.798515,0.0,2025-04-11 20:43:34.798,BACKWARD,11
145.0,3087.2005924225564,-14832.88584147523,-30424.54635197477,-23518.12553621835,14032.894555675335,6144.807475186286,30054.736739961714,43063.49671643934,0.0,0.0,0.0,193.0,0.0,192.0,0.0,16.0,0.0,178.0,192.0,16.0,178.0,1744418614.798551,0.0,2025-04-11 20:43:34.798,BACKWARD,11
146.0,3071.755537003939,-14872.694298350132,-30426.468601997927,-23560.28092626106,14167.18383636282,5980.678615650966,30437.77858469231,43015.66398330498,0.0,0.0,0.0,193.0,0.0,192.0,0.0,17.0,0.0,178.0,192.0,17.0,178.0,1744418614.798587,0.0,2025-04-11 20:43:34.798,BACKWARD,11
147.0,3069.3191968583105,-14871.509655894,-30471.060332186265,-23562.113769306394,14056.788570498058,5873.233780054305,30457.49282330189,42893.86932776801,0.0,0.0,0.0,193.0,0.0,193.0,0.0,17.0,0.0,179.0,193.0,17.0,179.0,1744418614.798623,0.0,2025-04-11 20:43:34.798,BACKWARD,11
148.0,3065.8099729788273,-14846.27453640396,-30496.630727843134,-23531.46952765817,13943.040542965002,6099.276971730826,30213.523532572217,42986.293791090706,0.0,0.0,0.0,193.0,0.0,193.0,0.0,16.0,0.0,179.0,193.0,16.0,179.0,1744418614.798659,0.0,2025-04-11 20:43:34.798,BACKWARD,11
149.0,3087.692330800573,-14821.575858780845,-30445.624046996123,-23503.529847089034,14015.862526400391,6171.674272021565,30033.994321107188,43054.98070180186,0.0,0.0,0.0,193.0,0.0,192.0,0.0,17.0,0.0,178.0,192.0,17.0,178.0,1744418614.7986956,0.0,2025-04-11 20:43:34.798,BACKWARD,11
150.0,3057.9645106750145,-14873.118981494783,-30434.35876779065,-23557.57636518197,14201.940798990823,6036.7144390004205,30396.785485361277,43041.12262023957,0.0,0.0,0.0,193.0,0.0,192.0,0.0,17.0,0.0,178.0,192.0,17.0,178.0,1744418614.798731,0.0,2025-04-11 20:43:34.798,BACKWARD,11
151.0,3057.070440896802,-14876.963481541095,-30475.329515377227,-23578.877577647876,14105.783594344091,5845.96465181883,30492.495655118903,42899.814891793125,0.0,0.0,0.0,193.0,0.0,193.0,0.0,17.0,0.0,179.0,193.0,17.0,179.0,1744418614.798767,0.0,2025-04-11 20:43:34.798,BACKWARD,11
152.0,3069.766231747417,-14846.498053848512,-30486.170111438052,-23541.728978363157,13969.259139211075,6038.301412856747,30254.0919487586,42952.9896918523,0.0,0.0,0.0,193.0,0.0,193.0,0.0,17.0,0.0,179.0,193.0,17.0,179.0,1744418614.7988248,0.0,2025-04-11 20:43:34.798,BACKWARD,11
153.0,3087.424109867109,-14826.157966394183,-30449.803823209266,-23522.104146731395,13967.76157233257,6164.4993620514115,30025.165382047344,43051.449126177926,0.0,0.0,0.0,193.0,0.0,193.0,0.0,17.0,0.0,179.0,193.0,17.0,179.0,1744418614.7988613,0.0,2025-04-11 20:43:34.798,BACKWARD,11
154.0,3075.689444028073,-14846.27453640396,-30415.426840237003,-23551.78726336804,14167.809685207569,6049.097305428661,30313.68169947645,43056.00888204681,0.0,0.0,0.0,193.0,0.0,192.0,0.0,17.0,0.0,179.0,192.0,17.0,179.0,1744418614.798897,0.0,2025-04-11 20:43:34.798,BACKWARD,11
155.0,3070.3026736143443,-14848.017972471473,-30445.892267929587,-23560.727961150165,14138.75241741567,5866.394146250981,30498.731791821934,42931.57672066411,0.0,0.0,0.0,193.0,0.0,192.0,0.0,17.0,0.0,178.0,192.0,17.0,178.0,1744418614.7989323,0.0,2025-04-11 20:43:34.798,BACKWARD,11
156.0,3067.888685213171,-14833.534042064435,-30473.831948498722,-23522.014739753573,14016.577782222961,6038.971965190407,30315.00045239931,42964.65730245797,0.0,0.0,0.0,193.0,0.0,192.0,0.0,17.0,0.0,178.0,192.0,17.0,178.0,1744418614.7989805,0.0,2025-04-11 20:43:34.798,BACKWARD,11
157.0,3077.0305486953916,-14823.02872217044,-30462.32080010424,-23505.250931412094,13987.811087108981,6198.541068856844,30051.831013182524,43074.04673982224,0.0,0.0,0.0,193.0,0.0,192.0,0.0,17.0,0.0,178.0,192.0,17.0,178.0,1744418614.7990167,0.0,2025-04-11 20:43:34.799,BACKWARD,11
158.0,3064.4912200559643,-14858.612699343288,-30429.106107843654,-23533.436481170236,14150.308269299063,6099.947524064484,30247.788756822203,43085.71435042791,0.0,0.0,0.0,193.0,0.0,192.0,0.0,17.0,0.0,178.0,192.0,17.0,178.0,1744418614.7990525,0.0,2025-04-11 20:43:34.799,BACKWARD,11
159.0,3061.317272343311,-14873.208388472605,-30458.297486102285,-23565.019496085584,14151.627022221926,5873.92668413242,30517.820181586765,42965.596075725094,0.0,0.0,0.0,193.0,0.0,193.0,0.0,17.0,0.0,179.0,193.0,17.0,179.0,1744418614.7990885,0.0,2025-04-11 20:43:34.799,BACKWARD,11
160.0,3060.914940943115,-14854.231757430049,-30491.623937085147,-23542.51128941909,14022.769215437082,5961.5231706527675,30376.601860118135,42943.31138650315,0.0,0.0,0.0,193.0,0.0,193.0,0.0,17.0,0.0,179.0,193.0,17.0,179.0,1744418614.7991233,0.0,2025-04-11 20:43:34.799,BACKWARD,11
161.0,3077.1870109065785,-14818.133690134728,-30472.781416509322,-23509.31894890296,13969.236787466622,6168.634434775643,30094.679307303348,43061.10507978262,0.0,0.0,0.0,193.0,0.0,193.0,0.0,17.0,0.0,179.0,193.0,17.0,179.0,1744418614.7991583,0.0,2025-04-11 20:43:34.799,BACKWARD,11
162.0,3080.919752230615,-14833.087007175329,-30412.364651246626,-23516.69502457321,14121.78744337409,6130.815283157263,30180.64411647846,43094.05155110974,0.0,0.0,0.0,193.0,0.0,192.0,0.0,17.0,0.0,178.0,192.0,17.0,178.0,1744418614.799194,0.0,2025-04-11 20:43:34.799,BACKWARD,11
163.0,3057.629234508185,-14874.79536232893,-30438.091509114685,-23569.154568809816,14159.114856614455,5929.023734214751,30531.410042215593,43010.27721289125,0.0,0.0,0.0,193.0,0.0,192.0,0.0,17.0,0.0,178.0,192.0,17.0,178.0,1744418614.7992296,0.0,2025-04-11 20:43:34.799,BACKWARD,11
164.0,3064.8264962227936,-14859.484417377045,-30466.299410617285,-23543.740635364135,14023.931506148758,5943.7311820663435,30429.79901192177,42944.45132547037,0.0,0.0,0.0,193.0,0.0,192.0,0.0,17.0,0.0,178.0,192.0,17.0,178.0,1744418614.799265,0.0,2025-04-11 20:43:34.799,BACKWARD,11
165.0,3072.761365504428,-14832.17058565266,-30471.954401964475,-23517.477335629148,13935.910336483757,6166.734536496942,30147.496479451238,43067.60943741911,0.0,0.0,0.0,193.0,0.0,193.0,0.0,17.0,0.0,179.0,193.0,17.0,179.0,1744418614.799301,0.0,2025-04-11 20:43:34.799,BACKWARD,11
166.0,3087.379406378199,-14826.068559416362,-30412.766982646823,-23507.106126201885,14067.204483414233,6137.878434405141,30118.39450817043,43106.255603582336,0.0,0.0,0.0,193.0,0.0,193.0,0.0,17.0,0.0,179.0,193.0,17.0,179.0,1744418614.7993364,0.0,2025-04-11 20:43:34.799,BACKWARD,11
167.0,3056.8916269411598,-14868.715687837088,-30433.375291034616,-23561.554975695013,14160.970051404245,5939.6855163199325,30503.22449245745,43042.37431792907,0.0,0.0,0.0,193.0,0.0,192.0,0.0,17.0,0.0,178.0,192.0,17.0,178.0,1744418614.7993863,0.0,2025-04-11 20:43:34.799,BACKWARD,11
168.0,3049.5155512709084,-14859.931452266152,-30472.781416509322,-23560.28092626106,14042.036419157555,5884.253190070772,30459.906811703066,42940.60682542406,0.0,0.0,0.0,193.0,0.0,192.0,0.0,17.0,0.0,178.0,192.0,17.0,178.0,1744418614.7994225,0.0,2025-04-11 20:43:34.799,BACKWARD,11
169.0,3058.456249053031,-14830.963591452073,-30484.8960620041,-23516.762079806576,13939.531319085518,6136.470274504456,30184.64507873596,43046.57644588667,0.0,0.0,0.0,193.0,0.0,193.0,0.0,17.0,0.0,179.0,193.0,17.0,179.0,1744418614.7994583,0.0,2025-04-11 20:43:34.799,BACKWARD,11
170.0,3084.18310692109,-14818.670132001655,-30428.390852021083,-23495.192646407206,14036.426131299273,6172.724804010964,30055.04966438409,43092.44222550896,0.0,0.0,0.0,193.0,0.0,193.0,0.0,17.0,0.0,179.0,193.0,17.0,179.0,1744418614.799494,0.0,2025-04-11 20:43:34.799,BACKWARD,11
171.0,3054.7682112179054,-14872.94016753914,-30424.21107580794,-23553.575402924467,14176.348051589495,6012.976886388885,30445.624046996123,43059.87573383757,0.0,0.0,0.0,193.0,0.0,193.0,0.0,17.0,0.0,179.0,193.0,17.0,179.0,1744418614.7995412,0.0,2025-04-11 20:43:34.799,BACKWARD,11
172.0,3056.444592052054,-14870.056792504407,-30464.846547227688,-23562.42669372877,14069.327899137486,5868.092878829584,30476.536509577814,42926.078191528104,0.0,0.0,0.0,193.0,0.0,193.0,0.0,17.0,0.0,179.0,193.0,17.0,179.0,1744418614.799577,0.0,2025-04-11 20:43:34.799,BACKWARD,11
173.0,3063.1277636441905,-14842.921774735663,-30487.667678316557,-23520.673635086256,13948.226147678632,6091.386805938102,30234.578875849114,43010.43367510244,0.0,0.0,0.0,193.0,0.0,192.0,0.0,17.0,0.0,178.0,192.0,17.0,178.0,1744418614.7996123,0.0,2025-04-11 20:43:34.799,BACKWARD,11
174.0,3081.523249330908,-14812.188126109617,-30447.345131319184,-23502.345204632904,13976.14347650331,6165.371080085169,30042.353873533473,43086.5190132283,0.0,0.0,0.0,193.0,0.0,192.0,0.0,17.0,0.0,179.0,192.0,17.0,179.0,1744418614.799647,0.0,2025-04-11 20:43:34.799,BACKWARD,11
175.0,3060.020871164903,-14860.400838899714,-30427.45207875396,-23549.395626711324,14181.824228981046,6025.605622006134,30382.659182865526,43072.213896776906,0.0,0.0,0.0,193.0,0.0,193.0,0.0,17.0,0.0,179.0,193.0,17.0,179.0,1744418614.799683,0.0,2025-04-11 20:43:34.799,BACKWARD,11
176.0,3054.6788042400844,-14875.667080362688,-30475.97771596643,-23574.697801434733,14106.70001586676,5856.760544390744,30509.08064950474,42940.04803181267,0.0,0.0,0.0,193.0,0.0,193.0,0.0,17.0,0.0,179.0,193.0,17.0,179.0,1744418614.7997184,0.0,2025-04-11 20:43:34.799,BACKWARD,11
177.0,3058.9032839421375,-14859.462065632591,-30501.45870464548,-23540.499632418112,13980.0997352719,6044.045811181762,30285.786722396224,42983.43276780043,0.0,0.0,0.0,193.0,0.0,192.0,0.0,17.0,0.0,178.0,192.0,17.0,178.0,1744418614.799754,0.0,2025-04-11 20:43:34.799,BACKWARD,11
178.0,3083.825479009805,-14836.059789187884,-30458.07396865773,-23513.40931813828,13978.311595715475,6173.820039489275,30029.591027449493,43067.25180950783,0.0,0.0,0.0,193.0,0.0,193.0,0.0,17.0,0.0,179.0,193.0,17.0,179.0,1744418614.7997885,0.0,2025-04-11 20:43:34.799,BACKWARD,11
179.0,3061.3843275766767,-14878.32693795287,-30431.765965433835,-23556.794054126032,14142.507510484162,6063.335366646692,30291.262899787773,43060.14395477104,0.0,0.0,0.0,193.0,0.0,193.0,0.0,17.0,0.0,179.0,193.0,17.0,179.0,1744418614.7998233,0.0,2025-04-11 20:43:34.799,BACKWARD,11
180.0,3049.1579233596235,-14891.04508054794,-30463.997180938386,-23580.352792781927,14110.566867657528,5862.482590971303,30519.36245195418,42947.46881097183,0.0,0.0,0.0,193.0,0.0,193.0,0.0,17.0,0.0,178.0,193.0,17.0,178.0,1744418614.7998583,0.0,2025-04-11 20:43:34.799,BACKWARD,11
181.0,3051.1695803606012,-14869.922682037673,-30486.661849816068,-23541.773681852064,13994.449555212208,6013.870956167097,30344.080071935663,42966.60190422558,0.0,0.0,0.0,193.0,0.0,192.0,0.0,17.0,0.0,178.0,192.0,17.0,178.0,1744418614.7998939,0.0,2025-04-11 20:43:34.799,BACKWARD,11
182.0,3074.2142288940227,-14842.675905546655,-30464.8912507166,-23512.850524526897,13957.52447337204,6187.968693729484,30059.00592315268,43064.368434473094,0.0,0.0,0.0,193.0,0.0,192.0,0.0,17.0,0.0,179.0,192.0,17.0,179.0,1744418614.7999425,0.0,2025-04-11 20:43:34.799,BACKWARD,11
183.0,3076.1364789171794,-14856.243414431026,-30411.604691935147,-23518.214943196173,14122.50269919666,6115.705503905476,30228.901532757467,43083.99326610485,0.0,0.0,0.0,193.0,0.0,193.0,0.0,17.0,0.0,179.0,193.0,17.0,179.0,1744418614.7999787,0.0,2025-04-11 20:43:34.799,BACKWARD,11
184.0,3065.877028212193,-14881.925568810175,-30434.604636979657,-23553.731865135655,14136.919574370335,5903.45333855788,30526.38089971315,42986.360846324074,0.0,0.0,0.0,193.0,0.0,193.0,0.0,17.0,0.0,179.0,193.0,17.0,179.0,1744418614.8000147,0.0,2025-04-11 20:43:34.800,BACKWARD,11
185.0,3058.8362287087716,-14878.304586208415,-30473.40726535407,-23536.27515271606,14013.560296721495,5974.464830692391,30396.11493302762,42966.780718181224,0.0,0.0,0.0,193.0,0.0,192.0,0.0,17.0,0.0,178.0,192.0,17.0,178.0,1744418614.8000505,0.0,2025-04-11 20:43:34.800,BACKWARD,11
186.0,3077.4105283511317,-14841.647725301711,-30464.51127106086,-23503.999233722596,13945.655697066271,6176.435193590545,30101.183664939843,43076.10310031213,0.0,0.0,0.0,193.0,0.0,193.0,0.0,17.0,0.0,178.0,193.0,17.0,178.0,1744418614.8000977,0.0,2025-04-11 20:43:34.800,BACKWARD,11
187.0,3066.8381532237713,-14859.37265865477,-30422.869971140623,-23529.79314682402,14098.899257051857,6133.07280934725,30157.845337134047,43102.23228958038,0.0,0.0,0.0,193.0,0.0,193.0,0.0,17.0,0.0,179.0,193.0,17.0,179.0,1744418614.8001337,0.0,2025-04-11 20:43:34.800,BACKWARD,11
188.0,3041.2901093113555,-14898.622321918288,-30456.710512245958,-23596.37899355638,14159.628946736926,5912.125815406539,30514.735640851934,43011.28304139174,0.0,0.0,0.0,193.0,0.0,192.0,0.0,17.0,0.0,178.0,192.0,17.0,178.0,1744418614.8001688,0.0,2025-04-11 20:43:34.800,BACKWARD,11
189.0,3051.08017338278,-14873.118981494783,-30487.913547505566,-23566.941746108743,14040.20357611222,5905.844975214598,30424.54635197477,42924.5806246496,0.0,0.0,0.0,193.0,0.0,192.0,0.0,17.0,0.0,178.0,192.0,17.0,178.0,1744418614.800203,0.0,2025-04-11 20:43:34.800,BACKWARD,11
190.0,3054.3211763287995,-14854.27646091896,-30493.434428386026,-23538.331513205947,13942.392342375797,6139.8453879172075,30163.366218014507,43052.92434131198,0.0,0.0,0.0,193.0,0.0,193.0,0.0,17.0,0.0,179.0,193.0,17.0,179.0,1744418614.8002384,0.0,2025-04-11 20:43:34.800,BACKWARD,11
191.0,3063.664205511118,-14863.172455212172,-30442.204230094463,-23534.9563997932,14043.556337780517,6126.724913921942,30123.356595439505,43110.45773153994,0.0,0.0,0.0,193.0,0.0,193.0,0.0,17.0,0.0,179.0,193.0,17.0,179.0,1744418614.800278,0.0,2025-04-11 20:43:34.800,BACKWARD,11
192.0,3033.2211295629895,-14930.048874622451,-30449.937933676,-23589.04762137504,14141.367571516941,5938.903205263997,30508.633614615635,43058.46757393689,0.0,0.0,0.0,193.0,0.0,193.0,0.0,17.0,0.0,179.0,193.0,17.0,179.0,1744418614.8003137,0.0,2025-04-11 20:43:34.800,BACKWARD,11
193.0,3036.4397807645537,-14921.57756347389,-30480.80569276878,-23577.447066002736,14019.10352934641,5862.035556082196,30485.477207359938,42949.54752320618,0.0,0.0,0.0,193.0,0.0,192.0,0.0,17.0,0.0,178.0,192.0,17.0,178.0,1744418614.8003497,0.0,2025-04-11 20:43:34.800,BACKWARD,11
194.0,3060.400850820643,-14870.816751815886,-30486.68420156052,-23529.569629379468,13926.61201079035,6115.236117271915,30210.148419159465,43049.30335871022,0.0,0.0,0.0,193.0,0.0,192.0,0.0,17.0,0.0,179.0,192.0,17.0,179.0,1744418614.8003848,0.0,2025-04-11 20:43:34.800,BACKWARD,11
195.0,3083.5125545874307,-14849.336725394336,-30434.11289860164,-23515.89036177282,14024.110320104399,6173.685929022543,30065.57733602254,43108.6248884946,0.0,0.0,0.0,193.0,0.0,192.0,0.0,17.0,0.0,179.0,192.0,17.0,179.0,1744418614.8004203,0.0,2025-04-11 20:43:34.800,BACKWARD,11
196.0,3043.4805802679757,-14905.126679554784,-30432.995311378876,-23572.462626989203,14191.971920963755,6020.755293459331,30441.377215549615,43080.28287652527,0.0,0.0,0.0,193.0,0.0,193.0,0.0,17.0,0.0,179.0,193.0,17.0,179.0,1744418614.8004556,0.0,2025-04-11 20:43:34.800,BACKWARD,11
197.0,3033.7128679410066,-14907.585371444866,-30473.60843105417,-23578.587004969955,14091.232608703687,5866.014166595241,30493.88146327513,42943.26668301424,0.0,0.0,0.0,193.0,0.0,193.0,0.0,17.0,0.0,179.0,193.0,17.0,179.0,1744418614.8005047,0.0,2025-04-11 20:43:34.800,BACKWARD,11
198.0,3033.8022749188276,-14880.13742925375,-30501.726925578943,-23548.859184844398,13971.471961912152,6066.844590526175,30265.916021575456,43019.66494556248,0.0,0.0,0.0,193.0,0.0,192.0,0.0,17.0,0.0,178.0,192.0,17.0,178.0,1744418614.8005412,0.0,2025-04-11 20:43:34.800,BACKWARD,11
199.0,3058.9256356865926,-14842.854719502297,-30456.397587823583,-23527.714434589678,13995.947122090713,6148.428457788045,30045.058434612565,43094.90091739904,0.0,0.0,0.0,193.0,0.0,192.0,0.0,17.0,0.0,178.0,192.0,17.0,178.0,1744418614.8005767,0.0,2025-04-11 20:43:34.800,BACKWARD,11
200.0,3046.274548324889,-14885.94888281213,-30427.385023520594,-23567.701705420222,14177.957377190278,6030.14302613056,30360.687418065958,43083.34506551565,0.0,0.0,0.0,193.0,0.0,193.0,0.0,17.0,0.0,179.0,193.0,17.0,179.0,1744418614.8006124,0.0,2025-04-11 20:43:34.800,BACKWARD,11
201.0,3045.313423313311,-14901.706862653122,-30460.0409221698,-23579.704592192724,14107.50467866715,5858.951015347364,30494.88729177562,42947.17823829392,0.0,0.0,0.0,193.0,0.0,193.0,0.0,17.0,0.0,179.0,193.0,17.0,179.0,1744418614.8006608,0.0,2025-04-11 20:43:34.800,BACKWARD,11
202.0,3039.0102313769144,-14888.47462993558,-30492.294489418804,-23554.625934913867,13973.148342746299,6044.783418748787,30292.67105968846,42993.37929408304,0.0,0.0,0.0,193.0,0.0,193.0,0.0,17.0,0.0,179.0,193.0,17.0,179.0,1744418614.8006968,0.0,2025-04-11 20:43:34.800,BACKWARD,11
203.0,3064.55827528933,-14857.115132464784,-30465.092416416697,-23533.861164314887,13959.223205950644,6177.284559879847,30033.94961761828,43095.415007521515,0.0,0.0,0.0,193.0,0.0,193.0,0.0,17.0,0.0,178.0,193.0,17.0,178.0,1744418614.8007321,0.0,2025-04-11 20:43:34.800,BACKWARD,11
204.0,3053.0024234059365,-14884.786592100454,-30423.428764752003,-23564.61716468539,14138.41714124884,6080.143878477083,30276.957783336376,43113.96695541942,0.0,0.0,0.0,193.0,0.0,192.0,0.0,17.0,0.0,179.0,192.0,17.0,179.0,1744418614.8007677,0.0,2025-04-11 20:43:34.800,BACKWARD,11
205.0,3025.2862602813557,-14917.75541517203,-30478.145835178595,-23624.20691540324,14086.874018534902,5859.532160703202,30521.84349558872,42995.88268946203,0.0,0.0,0.0,193.0,0.0,193.0,0.0,17.0,0.0,178.0,193.0,17.0,178.0,1744418614.8008034,0.0,2025-04-11 20:43:34.800,BACKWARD,11
206.0,3032.7070394405177,-14888.854609591319,-30506.152570981096,-23585.203121328726,13956.697458827193,5961.478467163857,30343.23070564636,42984.84092770111,0.0,0.0,0.0,193.0,0.0,193.0,0.0,17.0,0.0,179.0,193.0,17.0,179.0,1744418614.8008392,0.0,2025-04-11 20:43:34.800,BACKWARD,11
207.0,3059.976167675992,-14850.99075448403,-30480.157492179573,-23546.020513298576,13927.796653246482,6134.9727076259505,30055.206126595276,43090.7211411859,0.0,0.0,0.0,193.0,0.0,193.0,0.0,17.0,0.0,179.0,193.0,17.0,179.0,1744418614.8008747,0.0,2025-04-11 20:43:34.800,BACKWARD,11
208.0,3052.4212780500984,-14876.695260607632,-30430.089584599686,-23569.802769399023,14111.527992669106,6068.319805660225,30195.329212585595,43121.275975856304,0.0,0.0,0.0,193.0,0.0,192.0,0.0,17.0,0.0,179.0,192.0,17.0,179.0,1744418614.80091,0.0,2025-04-11 20:43:34.800,BACKWARD,11
209.0,3039.233748821467,-14909.105290067828,-30453.40245406657,-23609.275950107094,14144.027429107122,5853.787762378188,30506.5996058702,43012.490035592324,0.0,0.0,0.0,193.0,0.0,193.0,0.0,17.0,0.0,179.0,193.0,17.0,179.0,1744418614.8009455,0.0,2025-04-11 20:43:34.800,BACKWARD,11
210.0,3041.6477372226404,-14881.70205136562,-30481.40918986907,-23572.306164778016,14036.314372576997,5918.4960625763015,30384.134397999576,42962.13155533452,0.0,0.0,0.0,193.0,0.0,193.0,0.0,17.0,0.0,179.0,193.0,17.0,179.0,1744418614.8009813,0.0,2025-04-11 20:43:34.800,BACKWARD,11
211.0,3054.231769350978,-14835.568050809867,-30475.687143288513,-23534.062330014985,13956.76451406056,6153.032917145839,30091.68417354634,43075.45489972292,0.0,0.0,0.0,193.0,0.0,192.0,0.0,17.0,0.0,178.0,192.0,17.0,178.0,1744418614.8010173,0.0,2025-04-11 20:43:34.801,BACKWARD,11
212.0,3055.885798440671,-14851.638955073233,-30425.909808386543,-23542.824213841464,14077.486285863673,6127.30605927778,30108.023298743166,43100.13122560158,0.0,0.0,0.0,193.0,0.0,192.0,0.0,17.0,0.0,179.0,192.0,17.0,179.0,1744418614.8010528,0.0,2025-04-11 20:43:34.801,BACKWARD,11
213.0,3038.853769165727,-14894.800173616431,-30428.659072954546,-23591.685127220768,14169.508417786172,5920.3736091105475,30473.966058965452,43018.88263450654,0.0,0.0,0.0,193.0,0.0,192.0,0.0,17.0,0.0,179.0,192.0,17.0,179.0,1744418614.801101,0.0,2025-04-11 20:43:34.801,BACKWARD,11
214.0,3036.7750569313835,-14895.291911994447,-30475.396570610592,-23579.928109637276,14033.900384175824,5892.769204708244,30414.35395650315,42940.495066701784,0.0,0.0,0.0,193.0,0.0,193.0,0.0,17.0,0.0,179.0,193.0,17.0,179.0,1744418614.8011365,0.0,2025-04-11 20:43:34.801,BACKWARD,11
215.0,3043.8382081792606,-14876.5611501409,-30499.46939938896,-23556.838757614943,13920.644095020783,6126.434341244023,30140.76860437019,43059.00401580382,0.0,0.0,0.0,193.0,0.0,193.0,0.0,17.0,0.0,179.0,193.0,17.0,179.0,1744418614.8011713,0.0,2025-04-11 20:43:34.801,BACKWARD,11
216.0,3059.976167675992,-14868.358059925802,-30443.388872550593,-23546.601658654414,14039.935355178757,6129.161254067571,30047.092443358,43098.36543778962,0.0,0.0,0.0,193.0,0.0,192.0,0.0,17.0,0.0,178.0,192.0,17.0,178.0,1744418614.8013625,0.0,2025-04-11 20:43:34.801,BACKWARD,11
217.0,3044.776981446383,-14888.832257846863,-30433.21882882343,-23581.872711404885,14181.466601069762,5960.964377041385,30428.614369465635,43047.49286740934,0.0,0.0,0.0,193.0,0.0,193.0,0.0,17.0,0.0,179.0,193.0,17.0,179.0,1744418614.8014228,0.0,2025-04-11 20:43:34.801,BACKWARD,11
218.0,3040.217225577501,-14886.507676423513,-30467.17112865104,-23574.831911901467,14073.462971861718,5882.889733658998,30441.198401593974,42945.92654060442,0.0,0.0,0.0,193.0,0.0,193.0,0.0,17.0,0.0,179.0,193.0,17.0,179.0,1744418614.8014572,0.0,2025-04-11 20:43:34.801,BACKWARD,11
219.0,3044.397001790643,-14869.207426215104,-30491.22160568495,-23549.216812755683,13947.734409300616,6105.4460532004905,30189.11542762702,43039.44623940543,0.0,0.0,0.0,193.0,0.0,192.0,0.0,17.0,0.0,179.0,192.0,17.0,179.0,1744418614.8014896,0.0,2025-04-11 20:43:34.801,BACKWARD,11
220.0,3067.6428160241626,-14850.834292272843,-30442.003064394365,-23539.247934728617,14029.29592481803,6143.7792949413415,30019.219818022233,43099.192452334464,0.0,0.0,0.0,193.0,0.0,192.0,0.0,17.0,0.0,178.0,192.0,17.0,178.0,1744418614.8015215,0.0,2025-04-11 20:43:34.801,BACKWARD,11
221.0,3041.759495944917,-14888.631092146767,-30428.860238654644,-23599.24001684666,14199.61621756747,5985.752461642321,30387.598918390147,43079.72408291389,0.0,0.0,0.0,193.0,0.0,192.0,0.0,17.0,0.0,178.0,192.0,17.0,178.0,1744418614.8015535,0.0,2025-04-11 20:43:34.801,BACKWARD,11
222.0,3032.058838851314,-14903.025615575983,-30471.060332186265,-23612.85222921994,14105.425966432807,5825.892785297965,30473.496672331894,42942.59613068058,0.0,0.0,0.0,193.0,0.0,193.0,0.0,17.0,0.0,179.0,193.0,17.0,179.0,1744418614.8015852,0.0,2025-04-11 20:43:34.801,BACKWARD,11
223.0,3030.5836237172634,-14878.37164144178,-30496.74248656541,-23570.09334207694,13972.0978107569,6045.05163968225,30256.058902270666,43020.536663596235,0.0,0.0,0.0,193.0,0.0,193.0,0.0,17.0,0.0,179.0,193.0,17.0,179.0,1744418614.8016167,0.0,2025-04-11 20:43:34.801,BACKWARD,11
224.0,3057.8751036971935,-14838.563184566878,-30459.21390762495,-23536.18574573824,13975.294110214008,6170.668443521076,30029.523972216128,43113.452865296946,0.0,0.0,0.0,193.0,0.0,193.0,0.0,17.0,0.0,179.0,193.0,17.0,179.0,1744418614.8016484,0.0,2025-04-11 20:43:34.801,BACKWARD,11
225.0,3052.533036772375,-14865.56409186889,-30426.848581653667,-23562.51610070659,14156.9914408912,6060.4296398675015,30305.903292406,43094.297420298746,0.0,0.0,0.0,193.0,0.0,192.0,0.0,17.0,0.0,179.0,192.0,17.0,179.0,1744418614.8016796,0.0,2025-04-11 20:43:34.801,BACKWARD,11
226.0,3042.7429727009503,-14893.257903249016,-30456.6881605015,-23588.734696952666,14116.244210749175,5872.920855631931,30486.661849816068,42964.21026756886,0.0,0.0,0.0,193.0,0.0,192.0,0.0,17.0,0.0,178.0,192.0,17.0,178.0,1744418614.801711,0.0,2025-04-11 20:43:34.801,BACKWARD,11
227.0,3038.920824399093,-14877.70108910812,-30491.355716151684,-23564.23718502965,13981.060860283478,6020.2188515924045,30307.020879628766,43000.53185230873,0.0,0.0,0.0,193.0,0.0,192.0,0.0,17.0,0.0,178.0,192.0,17.0,178.0,1744418614.801743,0.0,2025-04-11 20:43:34.801,BACKWARD,11
228.0,3063.1277636441905,-14842.787664268932,-30463.997180938386,-23536.208097482693,13949.030810479024,6165.304024851803,30030.99918735018,43100.041818623766,0.0,0.0,0.0,193.0,0.0,192.0,0.0,17.0,0.0,178.0,192.0,17.0,178.0,1744418614.8017936,0.0,2025-04-11 20:43:34.801,BACKWARD,11
229.0,3052.0412983943584,-14864.5582633684,-30420.25481703935,-23564.594812940933,14129.096463810976,6073.125430718116,30225.28055015571,43105.763865204324,0.0,0.0,0.0,193.0,0.0,193.0,0.0,17.0,0.0,179.0,193.0,17.0,179.0,1744418614.8018255,0.0,2025-04-11 20:43:34.801,BACKWARD,11
230.0,3040.6419087221516,-14882.104382765816,-30448.08273888621,-23599.24001684666,14134.41617899134,5860.694451414878,30489.478169617436,42989.62420101454,0.0,0.0,0.0,193.0,0.0,193.0,0.0,17.0,0.0,179.0,193.0,17.0,179.0,1744418614.8018572,0.0,2025-04-11 20:43:34.801,BACKWARD,11
231.0,3039.4125627771095,-14880.964443798595,-30487.287698660817,-23568.394609498337,14007.145346062822,5952.001327514807,30339.654426533514,42974.08973861811,0.0,0.0,0.0,193.0,0.0,192.0,0.0,17.0,0.0,178.0,192.0,17.0,178.0,1744418614.8019962,0.0,2025-04-11 20:43:34.801,BACKWARD,11
232.0,3054.231769350978,-14852.287155662438,-30480.38100962413,-23531.335417191436,13945.298069154987,6151.691812478521,30067.90191744589,43093.470405753906,0.0,0.0,0.0,193.0,0.0,192.0,0.0,17.0,0.0,178.0,192.0,17.0,178.0,1744418614.8020287,0.0,2025-04-11 20:43:34.802,BACKWARD,11
233.0,3041.7371442004614,-14869.632109359754,-30435.386948035593,-23548.70272263321,14086.73990806817,6094.15842225056,30170.675238451393,43112.268222840816,0.0,0.0,0.0,193.0,0.0,192.0,0.0,17.0,0.0,178.0,192.0,17.0,178.0,1744418614.8020601,0.0,2025-04-11 20:43:34.802,BACKWARD,11
234.0,3026.470902737487,-14899.762260885509,-30455.727035489923,-23592.4674382767,14141.456978494762,5891.942190163397,30497.100114476696,43011.439503602924,0.0,0.0,0.0,193.0,0.0,192.0,0.0,17.0,0.0,179.0,192.0,17.0,179.0,1744418614.8020918,0.0,2025-04-11 20:43:34.802,BACKWARD,11
235.0,3036.5515394868303,-14881.389126943246,-30479.68810554601,-23565.55593795251,14036.895517932835,5927.481463847335,30397.50074118385,42952.16267730745,0.0,0.0,0.0,193.0,0.0,192.0,0.0,17.0,0.0,178.0,192.0,17.0,178.0,1744418614.8021235,0.0,2025-04-11 20:43:34.802,BACKWARD,11
236.0,3032.438818507054,-14859.663231332688,-30489.56757659526,-23549.596792411423,13958.57500536144,6153.45760029049,30137.43819444635,43076.66189392351,0.0,0.0,0.0,193.0,0.0,193.0,0.0,17.0,0.0,179.0,193.0,17.0,179.0,1744418614.8021553,0.0,2025-04-11 20:43:34.802,BACKWARD,11
237.0,3042.765324445406,-14854.119998707773,-30436.057500369254,-23552.748388379623,14068.433829359274,6111.950410836985,30126.798764085623,43104.176891348,0.0,0.0,0.0,193.0,0.0,192.0,0.0,17.0,0.0,179.0,192.0,17.0,179.0,1744418614.8021867,0.0,2025-04-11 20:43:34.802,BACKWARD,11
238.0,3018.2231090334785,-14907.630074933777,-30444.461756284447,-23608.940673940262,14156.164426346353,5904.50387054728,30505.124390736153,43033.29950968022,0.0,0.0,0.0,193.0,0.0,192.0,0.0,17.0,0.0,178.0,192.0,17.0,178.0,1744418614.802218,0.0,2025-04-11 20:43:34.802,BACKWARD,11
239.0,3023.6992864250287,-14893.816696860398,-30480.157492179573,-23587.32653705198,14038.415436555797,5863.890750871987,30457.962209935453,42945.54656094868,0.0,0.0,0.0,193.0,0.0,192.0,0.0,17.0,0.0,178.0,192.0,17.0,178.0,1744418614.8022544,0.0,2025-04-11 20:43:34.802,BACKWARD,11
240.0,3028.013173104903,-14860.534949366445,-30503.51506513537,-23561.66673441729,13914.98910367359,6107.368303223647,30184.130988613488,43054.10898376811,0.0,0.0,0.0,193.0,0.0,192.0,0.0,17.0,0.0,178.0,192.0,17.0,178.0,1744418614.8022864,0.0,2025-04-11 20:43:34.802,BACKWARD,11
241.0,3052.197760605545,-14837.333838621837,-30443.388872550593,-23550.490862189636,14006.072462328966,6120.332315007725,30065.15265287789,43101.226461079896,0.0,0.0,0.0,193.0,0.0,192.0,0.0,17.0,0.0,179.0,192.0,17.0,179.0,1744418614.8023176,0.0,2025-04-11 20:43:34.802,BACKWARD,11
242.0,3031.8129696623055,-14884.428964189168,-30434.045843368276,-23592.4674382767,14168.882568941424,5941.652469832,30434.604636979657,43058.73579487036,0.0,0.0,0.0,193.0,0.0,193.0,0.0,17.0,0.0,179.0,193.0,17.0,179.0,1744418614.8023493,0.0,2025-04-11 20:43:34.802,BACKWARD,11
243.0,3020.994725345937,-14900.879848108274,-30473.18374790952,-23590.72400220919,14088.908027280335,5833.961765046331,30458.92333494703,42939.22101726783,0.0,0.0,0.0,193.0,0.0,193.0,0.0,17.0,0.0,179.0,193.0,17.0,179.0,1744418614.8023968,0.0,2025-04-11 20:43:34.802,BACKWARD,11
244.0,3027.3873242601544,-14880.47270542058,-30490.394591140106,-23555.89998434782,13969.19208397771,6068.297453915769,30217.189218662887,43036.674623092964,0.0,0.0,0.0,193.0,0.0,193.0,0.0,17.0,0.0,179.0,193.0,17.0,179.0,1744418614.8024287,0.0,2025-04-11 20:43:34.802,BACKWARD,11
245.0,3042.6759174675844,-14865.407629657702,-30458.69981750248,-23552.949554079718,13992.504953444595,6142.237024573926,30032.005015850667,43099.3712662901,0.0,0.0,0.0,193.0,0.0,192.0,0.0,17.0,0.0,178.0,192.0,17.0,178.0,1744418614.8024604,0.0,2025-04-11 20:43:34.802,BACKWARD,11
246.0,3032.2153010625007,-14892.430888704168,-30439.07498587072,-23585.00195562863,14159.628946736926,6010.361732287613,30409.146000045064,43071.67745490998,0.0,0.0,0.0,193.0,0.0,192.0,0.0,17.0,0.0,178.0,192.0,17.0,178.0,1744418614.802492,0.0,2025-04-11 20:43:34.802,BACKWARD,11
247.0,3034.4504755080316,-14883.669004877687,-30454.117709889142,-23584.89019690635,14094.36185292743,5864.3154340166375,30644.44281392608,42938.28224400071,0.0,0.0,0.0,193.0,0.0,192.0,0.0,17.0,0.0,178.0,192.0,17.0,178.0,1744418614.8026128,0.0,2025-04-11 20:43:34.802,BACKWARD,11
248.0,3016.9043561106155,-14867.5086936365,-30488.338230650217,-23571.27798453307,13973.19304623521,6068.498619615868,30565.787025187856,43003.28111687674,0.0,0.0,0.0,193.0,0.0,192.0,0.0,17.0,0.0,178.0,192.0,17.0,178.0,1744418614.8026452,0.0,2025-04-11 20:43:34.802,BACKWARD,11
249.0,3030.136588828157,-14849.448484116612,-30466.5899832952,-23557.41990297078,13973.505970657585,6165.527542296355,30423.16054381854,43085.53553647227,0.0,0.0,0.0,193.0,0.0,192.0,0.0,17.0,0.0,179.0,192.0,17.0,179.0,1744418614.802677,0.0,2025-04-11 20:43:34.802,BACKWARD,11
250.0,3025.845053892738,-14880.830333331864,-30430.044881110774,-23578.274080547584,14151.694077455293,6040.380125091091,30773.635896877757,43079.65702768052,0.0,0.0,0.0,193.0,0.0,192.0,0.0,17.0,0.0,179.0,192.0,17.0,179.0,1744418614.8027084,0.0,2025-04-11 20:43:34.802,BACKWARD,11
251.0,3006.5554984278083,-14916.14608957125,-30480.492768346405,-23617.76961300011,14097.73696634018,5836.6663261254225,31054.66437991433,42958.08588958811,0.0,0.0,0.0,193.0,0.0,193.0,0.0,17.0,0.0,179.0,193.0,17.0,179.0,1744418614.80274,0.0,2025-04-11 20:43:34.802,BACKWARD,11
252.0,3003.627419904163,-14905.059624321417,-30512.545169895315,-23593.5179702661,13936.580888817418,5975.51536268179,30930.165163298272,42975.56495375216,0.0,0.0,0.0,193.0,0.0,193.0,0.0,17.0,0.0,179.0,193.0,17.0,179.0,1744418614.8027716,0.0,2025-04-11 20:43:34.802,BACKWARD,11
253.0,3027.521434726886,-14869.542702381934,-30472.60260255368,-23555.22943201416,13916.553725785463,6148.204940343492,30691.292070304404,43082.47334748189,0.0,0.0,0.0,193.0,0.0,193.0,0.0,17.0,0.0,178.0,193.0,17.0,178.0,1744418614.8028033,0.0,2025-04-11 20:43:34.802,BACKWARD,11
254.0,3012.232841519456,-14900.745737641542,-30431.050709611263,-23579.548129981536,14122.547402685572,6087.117622747139,30913.937796823717,43102.276993069296,0.0,0.0,0.0,193.0,0.0,193.0,0.0,17.0,0.0,179.0,193.0,17.0,179.0,1744418614.8028347,0.0,2025-04-11 20:43:34.802,BACKWARD,11
255.0,3003.694475137529,-14922.270467552004,-30459.258611113863,-23612.136973397373,14142.485158739706,5868.182285807406,31224.381175563478,42986.293791090706,0.0,0.0,0.0,193.0,0.0,192.0,0.0,17.0,0.0,178.0,192.0,17.0,178.0,1744418614.8028665,0.0,2025-04-11 20:43:34.802,BACKWARD,11
0.0,3003.672123393074,-14899.784612629965,-30494.55201560879,-23587.706516707723,14010.63221819785,5941.272490176259,31105.715764250253,42955.671901186935,0.0,0.0,0.0,193.0,0.0,193.0,0.0,17.0,0.0,178.0,193.0,17.0,178.0,1744418614.8028982,0.0,2025-04-11 20:43:34.802,BACKWARD,11
1.0,3034.7410481859506,-14859.909100521696,-30474.189576410008,-23547.428673199258,13955.602223348884,6152.295309578813,30834.00795865154,43063.00497806132,0.0,0.0,0.0,193.0,0.0,192.0,0.0,17.0,0.0,179.0,192.0,17.0,179.0,1744418614.8029296,0.0,2025-04-11 20:43:34.802,BACKWARD,11
2.0,3031.0306586063693,-14878.41634493069,-30423.473468240914,-23565.690048419245,14095.434736661284,6110.832823614219,30925.851276618396,43089.00005686284,0.0,0.0,0.0,193.0,0.0,193.0,0.0,17.0,0.0,179.0,193.0,17.0,179.0,1744418614.802977,0.0,2025-04-11 20:43:34.802,BACKWARD,11
3.0,2994.9996465444146,-14927.590182732367,-30460.107977403164,-23627.380863115894,14146.0390861081,5893.439757041902,31293.09043801909,43000.151872653,0.0,0.0,0.0,193.0,0.0,193.0,0.0,17.0,0.0,179.0,193.0,17.0,179.0,1744418615.2775028,0.0,2025-04-11 20:43:35.277,BACKWARD,11
4.0,3009.5506321848193,-14899.941074841152,-30489.03113472833,-23598.569464513002,14033.766273709092,5894.512640775757,31205.69511719884,42919.797351336165,0.0,0.0,0.0,193.0,0.0,192.0,0.0,17.0,0.0,178.0,192.0,17.0,178.0,1744418615.2776852,0.0,2025-04-11 20:43:35.277,BACKWARD,11
5.0,3016.457321221509,-14877.388164685746,-30493.90381501959,-23564.12542630737,13944.247537165587,6131.172911068548,30946.303122795,43043.5589603852,0.0,0.0,0.0,193.0,0.0,192.0,0.0,17.0,0.0,178.0,192.0,17.0,178.0,1744418615.2777205,0.0,2025-04-11 20:43:35.277,BACKWARD,11
6.0,3026.4485509930314,-14885.568903156389,-30438.136212603597,-23553.62010641338,14059.627242043882,6123.282745275825,30921.090355049415,43086.02727485028,0.0,0.0,0.0,193.0,0.0,192.0,0.0,17.0,0.0,178.0,192.0,17.0,178.0,1744418615.277864,0.0,2025-04-11 20:43:35.277,BACKWARD,11
7.0,3020.145359056635,-14909.66408367921,-30436.281017813806,-23592.6686039768,14179.14201964641,5943.038277988229,31308.66960390444,43028.22566368886,0.0,0.0,0.0,193.0,0.0,193.0,0.0,17.0,0.0,179.0,193.0,17.0,179.0,1744418615.2778971,0.0,2025-04-11 20:43:35.277,BACKWARD,11
8.0,3014.3339054982553,-14900.231647519071,-30475.46362584396,-23589.271138819593,14051.670021017793,5867.556436962657,31293.112789763545,42924.06653452713,0.0,0.0,0.0,193.0,0.0,193.0,0.0,17.0,0.0,179.0,193.0,17.0,179.0,1744418615.2779293,0.0,2025-04-11 20:43:35.277,BACKWARD,11
9.0,3011.6963996525287,-14882.439658932646,-30487.37710563864,-23561.353809994915,13910.406996060252,6108.6200009131435,31050.126975789903,43036.38405041505,0.0,0.0,0.0,193.0,0.0,193.0,0.0,17.0,0.0,179.0,193.0,17.0,179.0,1744418615.2779684,0.0,2025-04-11 20:43:35.277,BACKWARD,11
10.0,3028.50491148292,-14869.855626804308,-30427.92146538752,-23548.27803948856,13996.952950591201,6141.7229344514535,30923.571398683955,43102.81343493622,0.0,0.0,0.0,193.0,0.0,193.0,0.0,17.0,0.0,179.0,193.0,17.0,179.0,1744418615.2780006,0.0,2025-04-11 20:43:35.278,BACKWARD,11
11.0,3000.0958442802244,-14902.6679876647,-30421.372404262118,-23596.44604878975,14167.675574740837,5958.930368295953,31286.384914682498,43057.864076836595,0.0,0.0,0.0,193.0,0.0,193.0,0.0,17.0,0.0,179.0,193.0,17.0,179.0,1744418615.278033,0.0,2025-04-11 20:43:35.278,BACKWARD,11
12.0,2995.4243296890654,-14906.6689499222,-30466.388817595103,-23609.745336740656,14087.946902268757,5809.888936267965,31334.664682705963,42930.50383693026,0.0,0.0,0.0,193.0,0.0,193.0,0.0,17.0,0.0,179.0,193.0,17.0,179.0,1744418615.2780647,0.0,2025-04-11 20:43:35.278,BACKWARD,11
13.0,2999.693512880029,-14906.177211544182,-30489.65698357308,-23571.09917057743,13964.47586589764,6049.72315427341,31104.01703167165,43021.162512440984,0.0,0.0,0.0,193.0,0.0,192.0,0.0,17.0,0.0,178.0,192.0,17.0,178.0,1744418615.2780964,0.0,2025-04-11 20:43:35.278,BACKWARD,11
14.0,3024.1686730585902,-14887.37939445727,-30445.445233040482,-23549.395626711324,14005.53602046204,6149.344879310713,30905.82411358644,43097.38196103358,0.0,0.0,0.0,193.0,0.0,192.0,0.0,17.0,0.0,179.0,192.0,17.0,179.0,1744418615.2781284,0.0,2025-04-11 20:43:35.278,BACKWARD,11
15.0,3007.315457739289,-14917.464842494112,-30421.17123856202,-23578.34113578095,14183.277092370641,6020.3976655480465,31227.80099246514,43082.42864399298,0.0,0.0,0.0,193.0,0.0,193.0,0.0,17.0,0.0,179.0,193.0,17.0,179.0,1744418615.27816,0.0,2025-04-11 20:43:35.278,BACKWARD,11
16.0,3005.147338527124,-14912.681569180677,-30459.59388728069,-23594.613205744412,14110.946847313267,5846.903425085953,31356.39057831652,42948.40758423896,0.0,0.0,0.0,193.0,0.0,193.0,0.0,17.0,0.0,179.0,193.0,17.0,179.0,1744418615.278192,0.0,2025-04-11 20:43:35.278,BACKWARD,11
17.0,3009.3941699736324,-14881.098554265327,-30487.198291682995,-23561.510272206102,13985.799430108003,6051.757163018842,31157.303590453103,43004.51046282178,0.0,0.0,0.0,193.0,0.0,192.0,0.0,17.0,0.0,179.0,192.0,17.0,179.0,1744418615.2782428,0.0,2025-04-11 20:43:35.278,BACKWARD,11
18.0,3035.9033388976263,-14849.515539349979,-30455.816442467745,-23539.180879495252,13963.604147863884,6182.045481448828,30899.096238505394,43095.72793194389,0.0,0.0,0.0,193.0,0.0,192.0,0.0,17.0,0.0,178.0,192.0,17.0,178.0,1744418615.2782748,0.0,2025-04-11 20:43:35.278,BACKWARD,11
19.0,3020.6147456901963,-14894.062566049406,-30415.672709426013,-23572.462626989203,14147.715466942247,6065.101154458661,31137.410537887878,43092.66574295351,0.0,0.0,0.0,193.0,0.0,192.0,0.0,18.0,0.0,178.0,192.0,18.0,178.0,1744418615.2783065,0.0,2025-04-11 20:43:35.278,BACKWARD,11
20.0,2998.464166934987,-14926.539650742967,-30454.45298605597,-23611.01938617461,14120.93807708479,5840.913157571931,31370.2039563899,42964.1432123355,0.0,0.0,0.0,193.0,0.0,192.0,0.0,17.0,0.0,178.0,192.0,17.0,178.0,1744418615.278338,0.0,2025-04-11 20:43:35.278,BACKWARD,11
21.0,3001.369893714177,-14897.080051550873,-30481.342134635706,-23579.90575789282,13990.135668532334,5975.694176637433,31218.301501071634,42980.72820672133,0.0,0.0,0.0,193.0,0.0,193.0,0.0,17.0,0.0,179.0,193.0,17.0,179.0,1744418615.2784421,0.0,2025-04-11 20:43:35.278,BACKWARD,11
22.0,3014.088036309247,-14872.336670438848,-30464.243050127396,-23556.212908770194,13947.846168022892,6157.480914292445,30946.54899198401,43093.53746098727,0.0,0.0,0.0,193.0,0.0,193.0,0.0,17.0,0.0,179.0,193.0,17.0,179.0,1744418615.2784746,0.0,2025-04-11 20:43:35.278,BACKWARD,11
23.0,3014.110388053702,-14891.201542759127,-30405.212093020928,-23561.197347783727,14121.69803639627,6088.123451247627,31081.91115640535,43104.40040879255,0.0,0.0,0.0,193.0,0.0,192.0,0.0,17.0,0.0,178.0,192.0,17.0,178.0,1744418615.2785065,0.0,2025-04-11 20:43:35.278,BACKWARD,11
24.0,2996.9666000564816,-14923.499813497045,-30433.755270690355,-23602.682185492777,14144.22859480722,5876.45243125587,31396.64607008053,43006.52211982276,0.0,0.0,0.0,193.0,0.0,192.0,0.0,18.0,0.0,178.0,192.0,18.0,178.0,1744418615.278538,0.0,2025-04-11 20:43:35.278,BACKWARD,11
25.0,2987.2659429628784,-14924.058607108427,-30485.477207359938,-23588.913510908307,14004.731357661649,5931.79535052721,31280.439350657387,42965.35020653608,0.0,0.0,0.0,193.0,0.0,192.0,0.0,17.0,0.0,178.0,192.0,17.0,178.0,1744418615.2785697,0.0,2025-04-11 20:43:35.278,BACKWARD,11
26.0,3014.2668502648894,-14878.483400164057,-30475.731846777424,-23553.106016290905,13935.03861845,6150.328356066747,30988.83849249345,43077.98064684637,0.0,0.0,0.0,193.0,0.0,192.0,0.0,17.0,0.0,178.0,192.0,17.0,178.0,1744418615.2786014,0.0,2025-04-11 20:43:35.278,BACKWARD,11
27.0,3022.2017195465232,-14883.780763599965,-30424.948683374965,-23559.342152993937,14087.186942957276,6121.271088274848,31028.04345226806,43115.64333625357,0.0,0.0,0.0,193.0,0.0,192.0,0.0,18.0,0.0,178.0,192.0,18.0,178.0,1744418615.278633,0.0,2025-04-11 20:43:35.278,BACKWARD,11
28.0,2992.853879076705,-14921.041121606962,-30445.914619674044,-23611.265255363614,14151.068228610544,5908.16955663795,31391.326354900168,43038.23924520484,0.0,0.0,0.0,193.0,0.0,193.0,0.0,17.0,0.0,179.0,193.0,17.0,179.0,1744418615.2786648,0.0,2025-04-11 20:43:35.278,BACKWARD,11
29.0,2982.6838353495405,-14902.802098131431,-30484.51608234836,-23592.53449351007,14014.186145566244,5889.081166873118,31319.420792987443,42960.09754658909,0.0,0.0,0.0,193.0,0.0,192.0,0.0,17.0,0.0,179.0,192.0,17.0,179.0,1744418615.2786963,0.0,2025-04-11 20:43:35.278,BACKWARD,11
30.0,2994.9996465444146,-14877.812847830397,-30503.73858257992,-23564.304240263016,13906.450737291663,6130.234137801425,31041.879182085897,43069.64344616455,0.0,0.0,0.0,193.0,0.0,192.0,0.0,17.0,0.0,178.0,192.0,17.0,178.0,1744418615.2787278,0.0,2025-04-11 20:43:35.278,BACKWARD,11
31.0,3020.6147456901963,-14886.552379912422,-30441.913657416542,-23556.481129703658,14022.143366592332,6131.64229770211,30962.217564847182,43106.948507660454,0.0,0.0,0.0,193.0,0.0,192.0,0.0,17.0,0.0,179.0,192.0,17.0,179.0,1744418615.2787592,0.0,2025-04-11 20:43:35.278,BACKWARD,11
