Sample Index,EXG Channel 0,EXG Channel 1,EXG Channel 2,EXG Channel 3,EXG Channel 4,EXG Channel 5,EXG Channel 6,EXG Channel 7,Accel Channel 0,Accel Channel 1,Accel Channel 2,Not Used,Digital Channel 0 (D11),Digital Channel 1 (D12),Digital Channel 2 (D13),Digital Channel 3 (D17),Not Used,Digital Channel 4 (D18),Analog Channel 0,Analog Channel 1,Analog Channel 2,Timestamp,Marker Channel,Timestamp (Formatted),Stimulus_Direction,Stimulus_Number
239.0,11077.256331116716,492.27481988368277,-55358.81136164801,-51547.19073142895,-31807.068801768877,-29118.24335077326,698.2237932948821,-19117.670550068684,0.0,0.0,0.0,193.0,1.0,155.0,0.0,10.0,3.0,251.0,411.0,10.0,1019.0,1744252942.6448011,0.0,2025-04-09 22:42:22.644,BACKWARD,46
240.0,11017.063083298575,462.18937184683944,-55393.45656555374,-51609.820319392726,-31838.1153748173,-29152.754444212253,631.7273535403435,-19156.294364487454,0.0,0.0,0.0,193.0,1.0,155.0,0.0,9.0,3.0,252.0,411.0,9.0,1020.0,1744252942.6448102,0.0,2025-04-09 22:42:22.644,BACKWARD,46
241.0,11108.10173846504,475.71217724230024,-55370.21075132021,-51530.024591687274,-31865.29509607495,-29181.744656770785,699.1178630730943,-19173.795780395958,0.0,0.0,0.0,193.0,1.0,155.0,0.0,9.0,3.0,252.0,411.0,9.0,1020.0,1744252942.6448245,0.0,2025-04-09 22:42:22.644,BACKWARD,46
242.0,11136.510805667736,485.01050293570796,-55367.39443151885,-51600.92432509951,-31819.04933679692,-29125.82059214361,590.0637018756512,-19131.707445586617,0.0,0.0,0.0,193.0,1.0,155.0,0.0,8.0,3.0,250.0,411.0,8.0,1018.0,1744252942.644833,0.0,2025-04-09 22:42:22.644,BACKWARD,46
243.0,11102.312636651115,509.2397939252608,-55340.25941375011,-51532.43858008845,-31787.57808060385,-29108.050955301638,714.5405667472562,-19102.091384183335,0.0,0.0,0.0,193.0,1.0,154.0,0.0,7.0,3.0,250.0,410.0,7.0,1018.0,1744252942.6448417,0.0,2025-04-09 22:42:22.644,BACKWARD,46
244.0,11047.193234824328,491.5372123166576,-55376.044556623056,-51598.01859832032,-31812.030889037957,-29137.71172019383,662.192781232927,-19134.724931088083,0.0,0.0,0.0,193.0,1.0,154.0,0.0,7.0,3.0,249.0,410.0,7.0,1017.0,1744252942.6448505,0.0,2025-04-09 22:42:22.644,BACKWARD,46
245.0,11095.830630759077,478.8190697215879,-55362.7676204166,-51531.991545199344,-31854.074520358387,-29186.25970915076,718.09449411565,-19175.338050763377,0.0,0.0,0.0,193.0,1.0,155.0,0.0,6.0,3.0,250.0,411.0,6.0,1018.0,1744252942.6448593,0.0,2025-04-09 22:42:22.644,BACKWARD,46
246.0,11149.474817451814,489.5926105490459,-55370.9707106317,-51599.113833798634,-31836.39429049424,-29145.937162153383,594.6234577445338,-19141.83278582487,0.0,0.0,0.0,193.0,1.0,155.0,0.0,6.0,3.0,252.0,411.0,6.0,1020.0,1744252942.644873,0.0,2025-04-09 22:42:22.644,BACKWARD,46
247.0,11100.189220927861,498.0862734420626,-55346.33908824195,-51547.458952362416,-31803.62663312276,-29122.66899617541,656.7166038413768,-19118.050529724424,0.0,0.0,0.0,193.0,1.0,154.0,0.0,6.0,3.0,250.0,410.0,6.0,1018.0,1744252942.6448817,0.0,2025-04-09 22:42:22.644,BACKWARD,46
248.0,11040.152435320906,489.45850008231406,-55383.375928804395,-51605.2829152683,-31823.20676126561,-29143.52317375221,615.4105800879694,-19142.235117225067,0.0,0.0,0.0,193.0,1.0,154.0,0.0,6.0,3.0,249.0,410.0,6.0,1017.0,1744252942.6448903,0.0,2025-04-09 22:42:22.644,BACKWARD,46
249.0,11066.773362967178,471.8229737070768,-55364.57811171748,-51541.53574008176,-31854.230982569574,-29177.83310149111,642.9479292569076,-19164.095123302355,0.0,0.0,0.0,193.0,1.0,154.0,0.0,5.0,3.0,249.0,410.0,5.0,1017.0,1744252942.6448991,0.0,2025-04-09 22:42:22.644,BACKWARD,46
250.0,11144.423323204914,486.66453202540066,-55376.40218453434,-51587.93796157098,-31857.24846807104,-29166.47841530781,551.5069426902464,-19168.341954748867,0.0,0.0,0.0,193.0,1.0,154.0,0.0,5.0,3.0,249.0,410.0,5.0,1017.0,1744252942.644908,0.0,2025-04-09 22:42:22.644,BACKWARD,46
251.0,11109.10756696553,501.2602211547162,-55333.08450377995,-51543.54739708274,-31796.518778385973,-29110.71081289182,596.5233560232349,-19112.507297099506,0.0,0.0,0.0,193.0,1.0,154.0,0.0,5.0,3.0,249.0,410.0,5.0,1017.0,1744252942.6449168,0.0,2025-04-09 22:42:22.644,BACKWARD,46
252.0,11051.395362781926,498.5780118200793,-55367.97557687468,-51578.63963587757,-31814.623691394772,-29129.173353811904,610.2249753743381,-19125.292494927944,0.0,0.0,0.0,193.0,1.0,154.0,0.0,5.0,3.0,250.0,410.0,5.0,1018.0,1744252942.6449256,0.0,2025-04-09 22:42:22.644,BACKWARD,46
253.0,11044.28750804514,467.82201144957685,-55365.65099545133,-51553.56097859872,-31849.045377855946,-29163.527985039713,608.2580218622711,-19149.432378939677,0.0,0.0,0.0,193.0,1.0,154.0,0.0,5.0,3.0,250.0,410.0,5.0,1018.0,1744252942.644934,0.0,2025-04-09 22:42:22.644,BACKWARD,46
254.0,11151.978212830809,495.8287472520766,-55360.39833550434,-51553.7174408099,-31852.509898246517,-29159.169394870925,576.7197104358328,-19154.93090807568,0.0,0.0,0.0,193.0,1.0,154.0,0.0,4.0,3.0,249.0,410.0,4.0,1017.0,1744252942.6449428,0.0,2025-04-09 22:42:22.644,BACKWARD,46
255.0,11129.559413142135,508.6139450805122,-55319.36053268439,-51542.16158892651,-31783.71122881308,-29089.700173103833,561.9675590953302,-19100.571465560373,0.0,0.0,0.0,193.0,1.0,154.0,0.0,4.0,3.0,250.0,410.0,4.0,1018.0,1744252942.644951,0.0,2025-04-09 22:42:22.644,BACKWARD,46
0.0,11081.05612767412,519.7451138192552,-55345.17679753027,-51548.04009771825,-31796.38466791924,-29110.37553672499,613.5106818092682,-19118.251695424522,0.0,0.0,0.0,193.0,1.0,154.0,0.0,4.0,3.0,249.0,410.0,4.0,1017.0,1744252942.64496,0.0,2025-04-09 22:42:22.644,BACKWARD,46
1.0,11039.75010392071,478.9531801883197,-55364.8686843954,-51568.33548168367,-31841.803412652425,-29161.471624549824,566.6614254309446,-19167.783161137482,0.0,0.0,0.0,193.0,1.0,154.0,0.0,4.0,3.0,249.0,410.0,4.0,1017.0,1744252942.6449687,0.0,2025-04-09 22:42:22.644,BACKWARD,46
2.0,11141.450541192358,495.51582282970224,-55362.52175122759,-51540.418152859,-31868.670209487704,-29183.644555049486,577.6584837029558,-19187.27388230251,0.0,0.0,0.0,193.0,1.0,154.0,0.0,4.0,3.0,249.0,410.0,4.0,1017.0,1744252942.6449776,0.0,2025-04-09 22:42:22.644,BACKWARD,46
3.0,11126.385465429481,501.0367037101631,-55340.12530328337,-51572.336443941174,-31810.91330181519,-29118.04218507316,499.9638199763084,-19132.467404898096,0.0,0.0,0.0,193.0,1.0,154.0,0.0,4.0,3.0,250.0,410.0,4.0,1018.0,1744252942.6449864,0.0,2025-04-09 22:42:22.644,BACKWARD,46
4.0,11086.666415532402,518.3593056630261,-55344.640355663345,-51541.80396101523,-31808.029926780455,-29113.393022226457,600.5690217696455,-19105.64531155173,0.0,0.0,0.0,193.0,1.0,154.0,0.0,4.0,3.0,250.0,410.0,4.0,1018.0,1744252942.6449952,0.0,2025-04-09 22:42:22.644,BACKWARD,46
5.0,11035.995010852219,480.7636714891996,-55368.44496350825,-51580.226609733894,-31839.21061029561,-29145.15485109745,552.5574746796459,-19136.87069855579,0.0,0.0,0.0,193.0,1.0,154.0,0.0,4.0,3.0,249.0,410.0,4.0,1017.0,1744252942.6450083,0.0,2025-04-09 22:42:22.645,BACKWARD,46
6.0,11134.655610877946,496.7898722636548,-55352.15054180033,-51513.886632190544,-31863.574011751894,-29171.57461304362,609.2414986183046,-19160.2729750005,0.0,0.0,0.0,193.0,1.0,154.0,0.0,4.0,3.0,249.0,410.0,4.0,1017.0,1744252942.645017,0.0,2025-04-09 22:42:22.645,BACKWARD,46
7.0,11142.813997604133,503.7859682781659,-55340.460579450206,-51575.08570850918,-31808.678127369658,-29111.04608905865,496.29813388563804,-19124.77840480547,0.0,0.0,0.0,193.0,1.0,154.0,0.0,4.0,3.0,248.0,410.0,4.0,1016.0,1744252942.6450255,0.0,2025-04-09 22:42:22.645,BACKWARD,46
8.0,11096.836459259566,514.8947852724535,-55342.06990505099,-51532.63974578855,-31803.269005211474,-29121.841981630565,604.8829084495197,-19125.806585050417,0.0,0.0,0.0,193.0,1.0,154.0,0.0,3.0,3.0,251.0,410.0,3.0,1019.0,1744252942.6450343,0.0,2025-04-09 22:42:22.645,BACKWARD,46
9.0,11034.18451955134,485.36813084699287,-55375.91044615632,-51593.57060117371,-31830.180505535664,-29145.825403431107,540.7110501183331,-19145.36436144881,0.0,0.0,0.0,193.0,1.0,154.0,0.0,3.0,3.0,251.0,410.0,3.0,1019.0,1744252942.645043,0.0,2025-04-09 22:42:22.645,BACKWARD,46
10.0,11105.44188087486,484.02702617967446,-55360.33128027097,-51516.39002756954,-31869.63133449928,-29174.659153778455,599.0267514022293,-19153.031009796978,0.0,0.0,0.0,193.0,1.0,155.0,0.0,3.0,3.0,251.0,411.0,3.0,1019.0,1744252942.6450517,0.0,2025-04-09 22:42:22.645,BACKWARD,46
11.0,11131.861642821032,488.45267158182526,-55373.094126354954,-51601.37135998862,-31842.71983417509,-29138.270513805215,458.300168311616,-19145.252602726534,0.0,0.0,0.0,193.0,1.0,154.0,0.0,3.0,3.0,249.0,410.0,3.0,1017.0,1744252942.6450603,0.0,2025-04-09 22:42:22.645,BACKWARD,46
12.0,11092.723738279788,505.4399973678586,-55347.926062098275,-51540.19463541444,-31804.319537200874,-29120.545580452155,577.7702424252323,-19119.59280009184,0.0,0.0,0.0,193.0,1.0,154.0,0.0,3.0,3.0,249.0,410.0,3.0,1017.0,1744252942.645069,0.0,2025-04-09 22:42:22.645,BACKWARD,46
13.0,11035.480920729748,487.9609332038085,-55382.7724317041,-51599.516165198824,-31824.324348488375,-29132.034377102183,538.6770413729002,-19129.1146432298,0.0,0.0,0.0,193.0,1.0,154.0,0.0,3.0,3.0,250.0,410.0,3.0,1018.0,1744252942.6450777,0.0,2025-04-09 22:42:22.645,BACKWARD,46
14.0,11083.537171308657,481.3671685894929,-55360.174818059786,-51521.57563228317,-31855.706197703625,-29166.701932752363,603.3406380821035,-19148.78417835047,0.0,0.0,0.0,193.0,1.0,155.0,0.0,3.0,3.0,252.0,411.0,3.0,1020.0,1744252942.6450863,0.0,2025-04-09 22:42:22.645,BACKWARD,46
15.0,11137.114302768028,486.95510470331965,-55381.74425145915,-51598.71150239844,-31852.845174413345,-29147.501784265256,481.0318924226633,-19146.772521349492,0.0,0.0,0.0,193.0,1.0,155.0,0.0,3.0,3.0,252.0,411.0,3.0,1020.0,1744252942.6450949,0.0,2025-04-09 22:42:22.645,BACKWARD,46
16.0,11103.989017485264,508.9268695028865,-55337.68896313775,-51535.65723129002,-31795.781170818947,-29099.356126708524,575.3115505351485,-19097.911607970193,0.0,0.0,0.0,193.0,1.0,155.0,0.0,3.0,3.0,251.0,411.0,3.0,1019.0,1744252942.6451037,0.0,2025-04-09 22:42:22.645,BACKWARD,46
17.0,11050.300127303617,507.18343343537254,-55368.57907397498,-51584.16051675803,-31807.359374446798,-29118.19864728435,560.8276201281095,-19125.02427399448,0.0,0.0,0.0,193.0,1.0,154.0,0.0,3.0,3.0,251.0,410.0,3.0,1019.0,1744252942.6451123,0.0,2025-04-09 22:42:22.645,BACKWARD,46
18.0,11060.224301841772,474.169906874884,-55362.119419827395,-51536.551301068226,-31849.559467978415,-29166.25489786326,584.0063791282629,-19165.25741401403,0.0,0.0,0.0,193.0,1.0,154.0,0.0,3.0,3.0,251.0,410.0,3.0,1019.0,1744252942.6451209,0.0,2025-04-09 22:42:22.645,BACKWARD,46
19.0,11141.517596425725,484.63052327996775,-55377.430364779284,-51577.70086261044,-31858.075482615888,-29156.040150647183,506.26701191270496,-19157.099027287844,0.0,0.0,0.0,193.0,1.0,154.0,0.0,3.0,3.0,251.0,410.0,3.0,1019.0,1744252942.6451297,0.0,2025-04-09 22:42:22.645,BACKWARD,46
20.0,11106.268895419706,496.40989260791457,-55336.95135557072,-51541.62514705958,-31795.62470860776,-29099.154961008426,544.2202739978163,-19099.029195192958,0.0,0.0,0.0,193.0,1.0,155.0,0.0,3.0,3.0,252.0,411.0,3.0,1020.0,1744252942.6451433,0.0,2025-04-09 22:42:22.645,BACKWARD,46
21.0,11055.530435506158,501.3272763880821,-55365.136905328865,-51567.95550202793,-31806.398249435217,-29112.61071117052,574.1939633123832,-19108.640445308738,0.0,0.0,0.0,193.0,1.0,155.0,0.0,3.0,3.0,252.0,411.0,3.0,1020.0,1744252942.645152,0.0,2025-04-09 22:42:22.645,BACKWARD,46
22.0,11051.507121504203,479.89195345544266,-55355.30213776853,-51537.55712956872,-31835.12024106029,-29136.772946926707,574.0598528456513,-19129.427567652176,0.0,0.0,0.0,193.0,1.0,155.0,0.0,3.0,3.0,252.0,411.0,3.0,1020.0,1744252942.645161,0.0,2025-04-09 22:42:22.645,BACKWARD,46
23.0,11155.845064621577,506.0658462126072,-55355.74917265763,-51533.042077188744,-31849.291247044952,-29143.500822007754,558.1901142823833,-19140.916364302204,0.0,0.0,0.0,193.0,1.0,155.0,0.0,3.0,3.0,251.0,411.0,3.0,1019.0,1744252942.6451695,0.0,2025-04-09 22:42:22.645,BACKWARD,46
24.0,11121.468081649315,506.490529357258,-55329.35176245592,-51546.00608897282,-31788.829778293348,-29088.04614401414,529.2446052127606,-19095.11763991328,0.0,0.0,0.0,193.0,1.0,155.0,0.0,3.0,3.0,252.0,411.0,3.0,1020.0,1744252942.645178,0.0,2025-04-09 22:42:22.645,BACKWARD,46
25.0,11067.980357167764,508.97157299179713,-55355.90563486882,-51554.83502803267,-31803.38076393375,-29111.984862325775,587.0238646297294,-19118.944599502636,0.0,0.0,0.0,193.0,1.0,155.0,0.0,3.0,3.0,252.0,411.0,3.0,1020.0,1744252942.645187,0.0,2025-04-09 22:42:22.645,BACKWARD,46
26.0,11028.864804370976,467.88906668294277,-55371.59655947645,-51570.928284040485,-31841.758709163514,-29148.37350229901,536.0618872716293,-19159.13303603328,0.0,0.0,0.0,193.0,1.0,154.0,0.0,3.0,3.0,250.0,410.0,3.0,1018.0,1744252942.6451957,0.0,2025-04-09 22:42:22.645,BACKWARD,46
27.0,11121.646895604956,477.6344272654566,-55380.157277602826,-51543.748562782836,-31883.73528525058,-29180.135331170004,544.9578815648415,-19187.005661369047,0.0,0.0,0.0,193.0,1.0,155.0,0.0,3.0,3.0,249.0,411.0,3.0,1017.0,1744252942.6452043,0.0,2025-04-09 22:42:22.645,BACKWARD,46
28.0,11114.606096101536,488.5197268151912,-55354.363364501405,-51581.143031256564,-31813.617862894283,-29104.586434911067,488.13974715945096,-19112.663759310693,0.0,0.0,0.0,193.0,1.0,154.0,0.0,3.0,3.0,251.0,410.0,3.0,1019.0,1744252942.6452131,0.0,2025-04-09 22:42:22.645,BACKWARD,46
29.0,11070.774325224678,501.05905545461843,-55354.67628892378,-51542.765086026804,-31802.419638922172,-29101.926577320886,614.4494550763911,-19086.892197953726,0.0,0.0,0.0,193.0,1.0,155.0,0.0,3.0,3.0,252.0,411.0,3.0,1020.0,1744252942.6452289,0.0,2025-04-09 22:42:22.645,BACKWARD,46
30.0,11010.066987284063,458.74720320072214,-55393.14364113136,-51597.437452964485,-31848.374825522285,-29145.512479008732,534.2737477152048,-19144.850271326337,0.0,0.0,0.0,193.0,1.0,155.0,0.0,3.0,3.0,252.0,411.0,3.0,1020.0,1744252942.6452374,0.0,2025-04-09 22:42:22.645,BACKWARD,46
31.0,11104.234886674272,475.9580464313086,-55378.92793165779,-51529.80107424272,-31880.203709626643,-29177.184900901902,584.3416552950926,-19172.83465538438,0.0,0.0,0.0,193.0,1.0,155.0,0.0,3.0,3.0,251.0,411.0,3.0,1019.0,1744252942.645246,0.0,2025-04-09 22:42:22.645,BACKWARD,46
32.0,11117.042436247164,476.78506097615497,-55375.686928711766,-51599.76203438784,-31829.82287762438,-29122.28901651967,473.0970231410293,-19135.574297377385,0.0,0.0,0.0,193.0,1.0,155.0,0.0,3.0,3.0,252.0,411.0,3.0,1020.0,1744252942.6452549,0.0,2025-04-09 22:42:22.645,BACKWARD,46
33.0,11071.80250546962,492.4312820948699,-55366.05332685153,-51545.715516294906,-31812.09794427132,-29114.46590596031,594.9363821669081,-19109.087480197846,0.0,0.0,0.0,193.0,1.0,155.0,0.0,3.0,3.0,252.0,411.0,3.0,1020.0,1744252942.645264,0.0,2025-04-09 22:42:22.645,BACKWARD,46
34.0,11007.317722716061,465.8774096819651,-55401.5255453021,-51608.8815461256,-31842.384558008263,-29139.09752835006,529.3563639350372,-19132.757977576017,0.0,0.0,0.0,193.0,1.0,155.0,0.0,3.0,3.0,250.0,411.0,3.0,1018.0,1744252942.6452727,0.0,2025-04-09 22:42:22.645,BACKWARD,46
35.0,11081.279645118671,466.2126858487947,-55374.88226591138,-51526.560071296706,-31872.045322900456,-29171.23933687679,599.4514345468801,-19151.93577431867,0.0,0.0,0.0,193.0,1.0,155.0,0.0,3.0,3.0,249.0,411.0,3.0,1017.0,1744252942.645286,0.0,2025-04-09 22:42:22.645,BACKWARD,46
36.0,11120.283439193183,476.6062470205125,-55378.39148979086,-51605.39467399057,-31840.976398107578,-29128.592208456066,476.9862266762527,-19132.109776986814,0.0,0.0,0.0,193.0,1.0,154.0,0.0,3.0,3.0,250.0,410.0,3.0,1018.0,1744252942.645295,0.0,2025-04-09 22:42:22.645,BACKWARD,46
37.0,11079.200932884329,494.4652908403028,-55347.05434406452,-51545.268481405794,-31806.73352560205,-29110.95668208083,586.0180361292406,-19117.53643960195,0.0,0.0,0.0,193.0,1.0,154.0,0.0,3.0,3.0,250.0,410.0,3.0,1018.0,1744252942.6453037,0.0,2025-04-09 22:42:22.645,BACKWARD,46
38.0,11014.22441175275,472.67233999637847,-55388.24860909565,-51613.95539211696,-31832.415679981197,-29139.678673705897,539.9287390623974,-19148.717123117105,0.0,0.0,0.0,193.0,1.0,154.0,0.0,3.0,3.0,250.0,410.0,3.0,1018.0,1744252942.6453128,0.0,2025-04-09 22:42:22.645,BACKWARD,46
39.0,11070.528456035669,474.169906874884,-55357.090277324955,-51529.64461203154,-31853.895706402745,-29158.454139048357,607.1851381284164,-19138.189451478655,0.0,0.0,0.0,193.0,1.0,154.0,0.0,2.0,3.0,250.0,410.0,2.0,1018.0,1744252942.6453211,0.0,2025-04-09 22:42:22.645,BACKWARD,46
40.0,11144.602137160557,493.48181408426933,-55362.119419827395,-51583.40055744655,-31837.757746906012,-29125.01592934322,517.9569742628306,-19112.775518032973,0.0,0.0,0.0,193.0,1.0,154.0,0.0,2.0,3.0,249.0,410.0,2.0,1017.0,1744252942.64533,0.0,2025-04-09 22:42:22.645,BACKWARD,46
41.0,11104.033720974174,508.03279972467425,-55324.56848914248,-51529.421094586985,-31792.428409150652,-29086.28035620217,585.5933529845897,-19077.616224004774,0.0,0.0,0.0,193.0,1.0,153.0,0.0,2.0,3.0,250.0,409.0,2.0,1018.0,1744252942.6453388,0.0,2025-04-09 22:42:22.645,BACKWARD,46
42.0,11051.127141848463,509.1727386918949,-55357.649070936335,-51573.09640325265,-31812.388516949242,-29105.61461515601,570.2153527993385,-19104.192448162135,0.0,0.0,0.0,193.0,1.0,154.0,0.0,2.0,3.0,250.0,410.0,2.0,1018.0,1744252942.6453474,0.0,2025-04-09 22:42:22.645,BACKWARD,46
43.0,11058.637327985445,483.3117703571046,-55354.67628892378,-51533.86909173359,-31857.628447726784,-29157.06833089213,577.680835447411,-19155.64616389825,0.0,0.0,0.0,193.0,1.0,154.0,0.0,2.0,3.0,249.0,410.0,2.0,1017.0,1744252942.645356,0.0,2025-04-09 22:42:22.645,BACKWARD,46
44.0,11141.20467200335,497.66159029741175,-55373.585864732966,-51573.9234177975,-31876.40391306924,-29165.87491820752,500.47791009878046,-19176.54504496396,0.0,0.0,0.0,193.0,1.0,153.0,0.0,2.0,3.0,250.0,409.0,2.0,1018.0,1744252942.6453645,0.0,2025-04-09 22:42:22.645,BACKWARD,46
45.0,11107.073558220096,507.1387299464619,-55332.23513749065,-51548.844760518645,-31813.0590692829,-29107.983900068273,520.0356864971741,-19124.085500727357,0.0,0.0,0.0,193.0,1.0,154.0,0.0,2.0,3.0,251.0,410.0,2.0,1019.0,1744252942.645373,0.0,2025-04-09 22:42:22.645,BACKWARD,46
46.0,11063.28649083215,517.7781603071882,-55347.70254465372,-51564.669795593,-31809.281624469953,-29122.24431303076,572.87521038952,-19140.625791624283,0.0,0.0,0.0,193.0,1.0,154.0,0.0,2.0,3.0,251.0,410.0,2.0,1019.0,1744252942.6453817,0.0,2025-04-09 22:42:22.645,BACKWARD,46
47.0,11046.992069124231,488.81029949311016,-55345.95910858621,-51548.17420818499,-31840.39525275174,-29154.520232024224,568.1366405649949,-19166.30794600343,0.0,0.0,0.0,193.0,1.0,154.0,0.0,2.0,3.0,251.0,410.0,2.0,1019.0,1744252942.6453905,0.0,2025-04-09 22:42:22.645,BACKWARD,46
48.0,11138.410703946436,492.0289506946744,-55362.5664547165,-51551.75048729783,-31872.93939267867,-29170.792301987687,546.522503676713,-19164.89978610275,0.0,0.0,0.0,193.0,1.0,154.0,0.0,2.0,3.0,251.0,410.0,2.0,1019.0,1744252942.6453989,0.0,2025-04-09 22:42:22.645,BACKWARD,46
49.0,11108.459366376324,492.49833732823583,-55337.82307360448,-51572.336443941174,-31812.164999504686,-29115.650548416445,505.61881132350106,-19120.665683825693,0.0,0.0,0.0,193.0,1.0,154.0,0.0,2.0,3.0,250.0,410.0,2.0,1018.0,1744252942.6454077,0.0,2025-04-09 22:42:22.645,BACKWARD,46
50.0,11064.493485032735,509.7985875366435,-55352.17289354478,-51563.61926360361,-31814.15430476121,-29129.66509218992,586.9791611408187,-19129.06993974089,0.0,0.0,0.0,193.0,1.0,154.0,0.0,2.0,3.0,252.0,410.0,2.0,1020.0,1744252942.6454208,0.0,2025-04-09 22:42:22.645,BACKWARD,46
51.0,11025.422635724859,478.3049795991158,-55364.0193181061,-51580.651292878545,-31844.239752798054,-29152.799147701164,548.8694368445202,-19150.594669651353,0.0,0.0,0.0,193.0,1.0,155.0,0.0,2.0,3.0,252.0,411.0,2.0,1020.0,1744252942.6454296,0.0,2025-04-09 22:42:22.645,BACKWARD,46
52.0,11123.256221205738,490.68784602735593,-55357.58201570297,-51537.69124003545,-31870.726569977593,-29179.77770325872,586.3756640405255,-19175.427457741196,0.0,0.0,0.0,193.0,1.0,155.0,0.0,2.0,3.0,251.0,411.0,2.0,1019.0,1744252942.6454382,0.0,2025-04-09 22:42:22.645,BACKWARD,46
53.0,11117.511822880724,490.46432858280286,-55341.53346318406,-51588.07207203771,-31810.779191348458,-29115.38232748298,499.8744129984872,-19128.779367062973,0.0,0.0,0.0,193.0,1.0,155.0,0.0,2.0,3.0,252.0,411.0,2.0,1020.0,1744252942.6454468,0.0,2025-04-09 22:42:22.645,BACKWARD,46
54.0,11070.215531613296,505.685866556867,-55346.02616381957,-51551.10228670863,-31807.11350525779,-29116.745783894752,604.1676526269499,-19114.07191921138,0.0,0.0,0.0,193.0,1.0,155.0,0.0,2.0,3.0,252.0,411.0,2.0,1020.0,1744252942.6454551,0.0,2025-04-09 22:42:22.645,BACKWARD,46
55.0,11020.169975777862,483.69175001284486,-55365.606291962424,-51592.78829011778,-31828.839400868346,-29138.33756903858,544.6896606313778,-19137.205974722623,0.0,0.0,0.0,193.0,1.0,155.0,0.0,2.0,3.0,252.0,411.0,2.0,1020.0,1744252942.6454637,0.0,2025-04-09 22:42:22.645,BACKWARD,46
56.0,11106.33595065307,487.55860180361293,-55355.99504184664,-51527.36473409709,-31864.40102629674,-29177.654287535464,606.6263445170337,-19158.484835444073,0.0,0.0,0.0,193.0,1.0,155.0,0.0,2.0,3.0,252.0,411.0,2.0,1020.0,1744252942.6454723,0.0,2025-04-09 22:42:22.645,BACKWARD,46
57.0,11122.473910149803,490.2855146271604,-55353.11166681191,-51599.471461709916,-31823.00559556551,-29120.836153130076,480.0707674110851,-19126.03010249497,0.0,0.0,0.0,193.0,1.0,154.0,0.0,2.0,3.0,251.0,410.0,2.0,1019.0,1744252942.645481,0.0,2025-04-09 22:42:22.645,BACKWARD,46
58.0,11086.28643587666,508.65864856942284,-55332.10102702392,-51536.05956269021,-31799.804484820903,-29109.81674311361,602.1559956259723,-19107.522858085973,0.0,0.0,0.0,193.0,1.0,154.0,0.0,2.0,3.0,249.0,410.0,2.0,1017.0,1744252942.6454897,0.0,2025-04-09 22:42:22.645,BACKWARD,46
59.0,11020.32643798905,478.2826278546605,-55366.9697483742,-51601.43841522198,-31823.810258365902,-29137.66701670492,548.6235676555118,-19141.005771280023,0.0,0.0,0.0,193.0,1.0,154.0,0.0,2.0,3.0,250.0,410.0,2.0,1018.0,1744252942.645498,0.0,2025-04-09 22:42:22.645,BACKWARD,46
60.0,11081.19023814085,475.8909911979427,-55349.44598072123,-51525.93422245196,-31863.126976862786,-29175.4861683233,606.9169171949527,-19167.403181481743,0.0,0.0,0.0,193.0,1.0,154.0,0.0,2.0,3.0,249.0,410.0,2.0,1017.0,1744252942.6455066,0.0,2025-04-09 22:42:22.645,BACKWARD,46
61.0,11124.217346217316,482.12712790097333,-55363.34876577244,-51607.11575831363,-31843.859773142314,-29142.830269674098,479.7578429887108,-19156.31671623191,0.0,0.0,0.0,193.0,1.0,154.0,0.0,2.0,3.0,249.0,410.0,2.0,1017.0,1744252942.6455152,0.0,2025-04-09 22:42:22.645,BACKWARD,46
62.0,11077.926883450376,492.1407094169509,-55334.716181125186,-51544.664984305506,-31805.258310467998,-29112.05191755914,591.5165652652461,-19117.60349483532,0.0,0.0,0.0,193.0,1.0,154.0,0.0,2.0,3.0,251.0,410.0,2.0,1019.0,1744252942.6455235,0.0,2025-04-09 22:42:22.645,BACKWARD,46
63.0,11010.156394261885,466.2126858487947,-55383.26417008212,-51617.3305055297,-31837.042491083444,-29146.451252275856,545.7848961096879,-19152.69573363015,0.0,0.0,0.0,193.0,1.0,154.0,0.0,2.0,3.0,251.0,410.0,2.0,1019.0,1744252942.6455324,0.0,2025-04-09 22:42:22.645,BACKWARD,46
64.0,11049.294298803128,457.16022934439536,-55365.80745766252,-51551.19169368645,-31871.240660100066,-29188.137255685004,592.8800216770198,-19182.468257244618,0.0,0.0,0.0,193.0,1.0,155.0,0.0,2.0,3.0,251.0,411.0,2.0,1019.0,1744252942.6455407,0.0,2025-04-09 22:42:22.645,BACKWARD,46
65.0,11129.514709653224,480.6295610224678,-55371.283635054075,-51598.93501984299,-31860.757691950526,-29155.906040180453,502.84719501104297,-19162.865777357314,0.0,0.0,0.0,193.0,1.0,155.0,0.0,2.0,3.0,252.0,411.0,2.0,1020.0,1744252942.6455543,0.0,2025-04-09 22:42:22.645,BACKWARD,46
66.0,11092.701386535333,489.79377624914366,-55327.8094920885,-51544.77674302778,-31800.653851110204,-29100.27254823119,573.2998935341709,-19103.477192339564,0.0,0.0,0.0,193.0,1.0,155.0,0.0,2.0,3.0,252.0,411.0,2.0,1020.0,1744252942.6455631,0.0,2025-04-09 22:42:22.645,BACKWARD,46
67.0,11027.970734592764,478.5061452992136,-55371.909483898824,-51592.944752328964,-31822.312691487397,-29124.18891479837,578.3066842921596,-19119.771614047484,0.0,0.0,0.0,193.0,1.0,154.0,0.0,2.0,3.0,252.0,410.0,2.0,1020.0,1744252942.645572,0.0,2025-04-09 22:42:22.645,BACKWARD,46
68.0,11027.546051448113,446.14081932792897,-55373.74232694416,-51562.144048469556,-31863.50695651853,-29175.39676134548,579.06664360364,-19178.22142579811,0.0,0.0,0.0,193.0,1.0,155.0,0.0,2.0,3.0,252.0,411.0,2.0,1020.0,1744252942.6455803,0.0,2025-04-09 22:42:22.645,BACKWARD,46
69.0,11125.267878206716,469.2972265836271,-55379.822001436,-51580.42777543399,-31872.894689189758,-29168.065389164138,527.8364453120763,-19177.908501375736,0.0,0.0,0.0,193.0,1.0,155.0,0.0,2.0,3.0,251.0,411.0,2.0,1019.0,1744252942.645589,0.0,2025-04-09 22:42:22.645,BACKWARD,46
70.0,11099.541020338658,490.8666599829984,-55333.95622181371,-51555.282062921775,-31801.63732786624,-29096.42804818488,542.588596652579,-19100.571465560373,0.0,0.0,0.0,193.0,1.0,154.0,0.0,2.0,3.0,251.0,410.0,2.0,1019.0,1744252942.6455977,0.0,2025-04-09 22:42:22.645,BACKWARD,46
71.0,11047.908490646898,499.8744129984872,-55360.8677221379,-51572.2246852189,-31808.678127369658,-29119.450344973844,602.3795130705254,-19115.100099456322,0.0,0.0,0.0,193.0,1.0,154.0,0.0,2.0,3.0,249.0,410.0,2.0,1017.0,1744252942.6456065,0.0,2025-04-09 22:42:22.645,BACKWARD,46
72.0,11019.477071699748,458.5236857561691,-55376.91627465681,-51575.912723054025,-31854.812127925412,-29164.10913039555,570.5506289661681,-19157.613117410317,0.0,0.0,0.0,193.0,1.0,154.0,0.0,2.0,3.0,250.0,410.0,2.0,1018.0,1744252942.6456149,0.0,2025-04-09 22:42:22.645,BACKWARD,46
73.0,11121.468081649315,475.0192731641857,-55381.05134738104,-51564.13335372607,-31886.864529474326,-29186.01383996175,552.0433845571738,-19190.55958873744,0.0,0.0,0.0,193.0,1.0,154.0,0.0,2.0,3.0,250.0,410.0,2.0,1018.0,1744252942.6456237,0.0,2025-04-09 22:42:22.645,BACKWARD,46
74.0,11103.899610507442,485.03285468016327,-55345.7132393972,-51577.81262133272,-31815.003671050512,-29110.263778002714,518.0240294961965,-19122.900858271227,0.0,0.0,0.0,193.0,1.0,154.0,0.0,2.0,3.0,251.0,410.0,2.0,1019.0,1744252942.6456323,0.0,2025-04-09 22:42:22.645,BACKWARD,46
75.0,11048.735505191744,489.6373140379565,-55366.455658251725,-51570.21302821792,-31822.245636254032,-29126.625254944,611.2978591081928,-19115.25656166751,0.0,0.0,0.0,193.0,1.0,154.0,0.0,2.0,3.0,250.0,410.0,2.0,1018.0,1744252942.6456409,0.0,2025-04-09 22:42:22.645,BACKWARD,46
76.0,11009.329379717039,459.95419740130876,-55377.832696179474,-51593.05651105124,-31844.664435942705,-29152.463871534335,568.2036957983609,-19142.63744862526,0.0,0.0,0.0,193.0,1.0,155.0,0.0,2.0,3.0,251.0,411.0,2.0,1019.0,1744252942.6456497,0.0,2025-04-09 22:42:22.645,BACKWARD,46
77.0,11112.39327340046,476.5838952760572,-55370.61308272041,-51541.848664504134,-31877.767369481015,-29183.465741093845,597.8197572016427,-19176.36623100832,0.0,0.0,0.0,193.0,1.0,155.0,0.0,2.0,3.0,252.0,411.0,2.0,1020.0,1744252942.6456585,0.0,2025-04-09 22:42:22.645,BACKWARD,46
78.0,11118.6741135924,490.8890117274537,-55351.94937610023,-51589.2790662383,-31818.781115863458,-29108.96737682431,499.9638199763084,-19124.17490770518,0.0,0.0,0.0,193.0,1.0,154.0,0.0,2.0,3.0,249.0,410.0,2.0,1017.0,1744252942.6456668,0.0,2025-04-09 22:42:22.645,BACKWARD,46
79.0,11065.14168562194,499.0697501980961,-55357.716126169704,-51551.415211131,-31818.49054318554,-29116.052879816638,605.9781439278298,-19118.385805891252,0.0,0.0,0.0,193.0,1.0,154.0,0.0,2.0,3.0,250.0,410.0,2.0,1018.0,1744252943.118066,0.0,2025-04-09 22:42:23.118,BACKWARD,46
80.0,11005.484879670725,468.0008254052193,-55384.53821951607,-51603.78534838979,-31849.335950533863,-29142.137365595983,534.1619889929282,-19143.017428281,0.0,0.0,0.0,193.0,1.0,154.0,0.0,2.0,3.0,249.0,410.0,2.0,1017.0,1744252943.11811,0.0,2025-04-09 22:42:23.118,BACKWARD,46
81.0,11092.455517346325,479.02023542168564,-55365.80745766252,-51528.34821085313,-31880.98602068258,-29181.007049203763,603.3629898265589,-19173.147579806755,0.0,0.0,0.0,193.0,1.0,154.0,0.0,2.0,3.0,250.0,410.0,2.0,1018.0,1744252943.1182053,0.0,2025-04-09 22:42:23.118,BACKWARD,46
82.0,11117.623581603,488.6314855374677,-55366.589768718455,-51600.790214632776,-31839.143555062245,-29130.15683056794,483.848212224032,-19141.542213146953,0.0,0.0,0.0,193.0,1.0,154.0,0.0,2.0,3.0,250.0,410.0,2.0,1018.0,1744252943.118216,0.0,2025-04-09 22:42:23.118,BACKWARD,46
83.0,11075.512895049204,500.9920002212525,-55345.46737020819,-51534.89727197853,-31809.594548892328,-29108.27447274619,612.7954259866984,-19090.44612532212,0.0,0.0,0.0,193.0,1.0,154.0,0.0,2.0,3.0,250.0,410.0,2.0,1018.0,1744252943.1182256,0.0,2025-04-09 22:42:23.118,BACKWARD,46
84.0,11018.761815877178,482.3729970899817,-55376.62570197889,-51593.70471164044,-31828.794697379435,-29132.168487568917,559.6429776719782,-19113.423718622176,0.0,0.0,0.0,193.0,1.0,154.0,0.0,2.0,3.0,250.0,410.0,2.0,1018.0,1744252943.1182346,0.0,2025-04-09 22:42:23.118,BACKWARD,46
85.0,11075.691709004845,474.3710725749818,-55358.31962326999,-51514.71364673539,-31867.574974009392,-29178.6377642915,613.5777370426342,-19152.78514060797,0.0,0.0,0.0,193.0,1.0,155.0,0.0,2.0,3.0,252.0,411.0,2.0,1020.0,1744252943.1182437,0.0,2025-04-09 22:42:23.118,BACKWARD,46
86.0,11129.224136975305,486.35160760302637,-55365.5168849846,-51582.35002545715,-31843.1668690642,-29140.86331616203,491.42545359438105,-19133.763806076506,0.0,0.0,0.0,193.0,1.0,154.0,0.0,2.0,3.0,251.0,410.0,2.0,1019.0,1744252943.1182525,0.0,2025-04-09 22:42:23.118,BACKWARD,46
87.0,11075.825819471576,489.9725902047861,-55342.405181217815,-51528.59408004214,-31808.007575036,-29118.153943795438,582.0617773606513,-19107.2099336636,0.0,0.0,0.0,193.0,1.0,154.0,0.0,2.0,3.0,250.0,410.0,2.0,1018.0,1744252943.1182616,0.0,2025-04-09 22:42:23.118,BACKWARD,46
88.0,11011.296333229106,471.13006962896225,-55386.01343465012,-51591.64835115056,-31835.790793393946,-29147.18885984288,543.9520530643526,-19137.228326467077,0.0,0.0,0.0,193.0,1.0,155.0,0.0,2.0,3.0,252.0,411.0,2.0,1020.0,1744252943.1182704,0.0,2025-04-09 22:42:23.118,BACKWARD,46
89.0,11049.540167992136,468.8948951834316,-55355.74917265763,-51513.618411257085,-31849.604171467327,-29168.5347757977,613.1530538979833,-19139.754073590528,0.0,0.0,0.0,193.0,1.0,155.0,0.0,2.0,3.0,252.0,411.0,2.0,1020.0,1744252943.1182792,0.0,2025-04-09 22:42:23.118,BACKWARD,46
90.0,11138.276593479704,500.9472967323419,-55355.07862032398,-51546.542530839746,-31833.220342781588,-29134.403662014447,550.9481490788638,-19110.227419165065,0.0,0.0,0.0,193.0,1.0,155.0,0.0,2.0,3.0,252.0,411.0,2.0,1020.0,1744252943.118288,0.0,2025-04-09 22:42:23.118,BACKWARD,46
91.0,11097.596418571045,503.3165816446044,-55323.115625752886,-51506.24233558683,-31785.38760964723,-29091.443609171347,599.4737862913354,-19072.497674524508,0.0,0.0,0.0,193.0,1.0,154.0,0.0,2.0,3.0,252.0,410.0,2.0,1020.0,1744252943.1182969,0.0,2025-04-09 22:42:23.118,BACKWARD,46
92.0,11032.016400339175,490.68784602735593,-55371.44009726526,-51556.26553967781,-31820.25633099751,-29126.021757843708,594.198774599883,-19101.73375627205,0.0,0.0,0.0,193.0,1.0,155.0,0.0,2.0,3.0,252.0,411.0,2.0,1020.0,1744252943.1183054,0.0,2025-04-09 22:42:23.118,BACKWARD,46
93.0,11033.245746284218,472.7617469741997,-55361.53827447156,-51517.84289095913,-31851.325255790387,-29160.219926860325,599.3843793135142,-19131.014541508503,0.0,0.0,0.0,193.0,1.0,155.0,0.0,2.0,3.0,251.0,411.0,2.0,1019.0,1744252943.1183143,0.0,2025-04-09 22:42:23.118,BACKWARD,46
94.0,11133.090988766073,493.3700553619928,-55368.80259141953,-51530.471626576385,-31863.171680351697,-29161.359865827548,561.2746550172157,-19142.972724792093,0.0,0.0,0.0,193.0,1.0,155.0,0.0,2.0,3.0,252.0,411.0,2.0,1020.0,1744252943.1183228,0.0,2025-04-09 22:42:23.118,BACKWARD,46
95.0,11110.895706521953,512.1231689599954,-55330.1117217674,-51515.11597813559,-31795.66941209667,-29094.774019095188,558.0113003267409,-19091.96604394508,0.0,0.0,0.0,193.0,1.0,155.0,0.0,2.0,3.0,248.0,411.0,2.0,1016.0,1744252943.1183317,0.0,2025-04-09 22:42:23.118,BACKWARD,46
96.0,11059.352583808015,518.4040091519367,-55358.38667850336,-51526.403609085515,-31805.995918035023,-29104.85465584453,618.4504173338911,-19082.667718251672,0.0,0.0,0.0,193.0,1.0,154.0,0.0,2.0,3.0,252.0,410.0,2.0,1020.0,1744252943.1183467,0.0,2025-04-09 22:42:23.118,BACKWARD,46
97.0,11032.597545695013,483.3341221015599,-55365.136905328865,-51522.559109039204,-31835.96960734959,-29130.76032766823,600.9490014253856,-19102.33725337234,0.0,0.0,0.0,193.0,1.0,154.0,0.0,2.0,3.0,250.0,410.0,2.0,1018.0,1744252943.1183555,0.0,2025-04-09 22:42:23.118,BACKWARD,46
98.0,11135.080294022597,505.7976252791435,-55366.99210011865,-51496.49697500432,-31867.97730540959,-29149.80401394415,592.678855976922,-19129.807547307915,0.0,0.0,0.0,193.0,1.0,154.0,0.0,2.0,3.0,250.0,410.0,2.0,1018.0,1744252943.118364,0.0,2025-04-09 22:42:23.118,BACKWARD,46
99.0,11124.485567150781,516.7946835511545,-55339.052419549516,-51520.92743169397,-31804.453647667608,-29075.79738805263,532.7538290922438,-19073.995241403012,0.0,0.0,0.0,193.0,1.0,154.0,0.0,2.0,3.0,249.0,410.0,2.0,1017.0,1744252943.1183732,0.0,2025-04-09 22:42:23.118,BACKWARD,46
100.0,11079.759726495711,527.4117621674254,-55349.42362897678,-51504.14127160803,-31800.028002265455,-29090.258966715213,638.4105251324803,-19077.34800307131,0.0,0.0,0.0,193.0,1.0,154.0,0.0,2.0,3.0,250.0,410.0,2.0,1018.0,1744252943.1183825,0.0,2025-04-09 22:42:23.118,BACKWARD,46
101.0,11011.519850673658,474.4381278083477,-55386.48282128368,-51554.87973152158,-31847.234886555063,-29144.886630163986,570.9306086219083,-19139.195279979143,0.0,0.0,0.0,193.0,1.0,154.0,0.0,2.0,3.0,250.0,410.0,2.0,1018.0,1744252943.1183915,0.0,2025-04-09 22:42:23.118,BACKWARD,46
102.0,11116.43893914687,493.61592455100117,-55372.892960654855,-51494.306504047694,-31875.845119457856,-29173.25099387777,611.4096178304694,-19164.69862040265,0.0,0.0,0.0,193.0,1.0,153.0,0.0,2.0,3.0,250.0,409.0,2.0,1018.0,1744252943.1184006,0.0,2025-04-09 22:42:23.118,BACKWARD,46
103.0,11127.234831718783,501.0367037101631,-55354.83275113496,-51548.73300179637,-31814.511932672496,-29101.367783709502,514.5818608500792,-19105.24298015153,0.0,0.0,0.0,193.0,1.0,154.0,0.0,2.0,3.0,249.0,410.0,2.0,1017.0,1744252943.1184094,0.0,2025-04-09 22:42:23.118,BACKWARD,46
104.0,11072.875389203477,507.9657444913083,-55359.034879092564,-51512.45612054541,-31812.120296015775,-29112.81187687062,624.5300918257346,-19105.64531155173,0.0,0.0,0.0,193.0,1.0,154.0,0.0,2.0,3.0,249.0,410.0,2.0,1017.0,1744252943.118418,0.0,2025-04-09 22:42:23.118,BACKWARD,46
105.0,11007.965923305264,469.5654475170908,-55393.098937642455,-51573.83401081968,-31843.792717908946,-29144.037263874685,557.4301549709029,-19136.535422388963,0.0,0.0,0.0,193.0,1.0,154.0,0.0,2.0,3.0,251.0,410.0,2.0,1019.0,1744252943.1184266,0.0,2025-04-09 22:42:23.118,BACKWARD,46
106.0,11093.014310957707,477.74618598773316,-55368.35555653043,-51491.08785284613,-31872.402950811742,-29169.875880465017,625.1782924149386,-19152.852195841337,0.0,0.0,0.0,193.0,1.0,154.0,0.0,2.0,3.0,253.0,410.0,2.0,1021.0,1744252943.1184354,0.0,2025-04-09 22:42:23.118,BACKWARD,46
107.0,11118.897631036954,490.12905241597326,-55369.450792008734,-51563.99924325934,-31832.013348581,-29115.829362372086,511.38556139297026,-19110.987378476548,0.0,0.0,0.0,193.0,1.0,154.0,0.0,2.0,3.0,251.0,410.0,2.0,1019.0,1744252943.118444,0.0,2025-04-09 22:42:23.118,BACKWARD,46
108.0,11072.09307814754,502.2436979107497,-55349.110704554405,-51503.98480939685,-31800.609147621293,-29094.684612117366,639.2151879328713,-19068.63082273374,0.0,0.0,0.0,193.0,1.0,154.0,0.0,2.0,3.0,252.0,410.0,2.0,1020.0,1744252943.1184528,0.0,2025-04-09 22:42:23.118,BACKWARD,46
109.0,11011.542202418113,477.6344272654566,-55389.23208585168,-51573.63284511958,-31824.167886277188,-29122.065499075117,595.4728240338354,-19098.24688413702,0.0,0.0,0.0,193.0,1.0,154.0,0.0,2.0,3.0,252.0,410.0,2.0,1020.0,1744252943.1184614,0.0,2025-04-09 22:42:23.118,BACKWARD,46
110.0,11065.387554810948,471.3088835846047,-55368.824943163985,-51494.91000114799,-31857.717854704602,-29158.208269859348,657.8341910641421,-19129.561678118906,0.0,0.0,0.0,193.0,1.0,155.0,0.0,2.0,3.0,252.0,411.0,2.0,1020.0,1744252943.1184704,0.0,2025-04-09 22:42:23.118,BACKWARD,46
111.0,11120.10462523754,482.50710755671355,-55380.984292147674,-51565.45210664894,-31839.43412774016,-29126.4240892439,544.0191082977186,-19117.35762564631,0.0,0.0,0.0,193.0,1.0,155.0,0.0,2.0,3.0,253.0,411.0,2.0,1021.0,1744252943.11849,0.0,2025-04-09 22:42:23.118,BACKWARD,46
112.0,11078.060993917108,492.83361349506544,-55347.52373069808,-51510.51151877779,-31791.601394605805,-29091.644774871445,635.9965367313072,-19079.069087394368,0.0,0.0,0.0,193.0,1.0,155.0,0.0,2.0,3.0,252.0,411.0,2.0,1020.0,1744252943.118503,0.0,2025-04-09 22:42:23.118,BACKWARD,46
113.0,11019.655885655391,483.91526745739793,-55384.404109049334,-51566.30147293824,-31813.52845591646,-29111.448420458844,611.9460596973968,-19102.96310221709,0.0,0.0,0.0,193.0,1.0,155.0,0.0,2.0,3.0,252.0,411.0,2.0,1020.0,1744252943.118514,0.0,2025-04-09 22:42:23.118,BACKWARD,46
114.0,11042.208795810795,461.96585440228637,-55370.94835888724,-51510.9585536669,-31852.241677313054,-29152.195650600872,637.5611588431786,-19138.41296892321,0.0,0.0,0.0,193.0,1.0,155.0,0.0,2.0,3.0,251.0,411.0,2.0,1019.0,1744252943.118523,0.0,2025-04-09 22:42:23.118,BACKWARD,46
115.0,11121.57984037159,478.170869132384,-55386.661635239325,-51559.77476355729,-31858.433110527174,-29145.825403431107,556.2678642592268,-19140.335218946366,0.0,0.0,0.0,193.0,1.0,154.0,0.0,2.0,3.0,252.0,410.0,2.0,1020.0,1744252943.1185317,0.0,2025-04-09 22:42:23.118,BACKWARD,46
116.0,11091.449688845836,499.85206125403187,-55348.59661443193,-51527.20827188591,-31800.63149936575,-29098.216187741305,593.9976088997852,-19101.666701038685,0.0,0.0,0.0,193.0,1.0,154.0,0.0,2.0,3.0,250.0,410.0,2.0,1018.0,1744252943.1185403,0.0,2025-04-09 22:42:23.118,BACKWARD,46
117.0,11036.866728885976,498.98034322027485,-55380.783126447575,-51560.13239146858,-31819.697537386128,-29113.504780948733,604.0782456491287,-19114.67541631167,0.0,0.0,0.0,193.0,1.0,154.0,0.0,2.0,3.0,250.0,410.0,2.0,1018.0,1744252943.1185489,0.0,2025-04-09 22:42:23.118,BACKWARD,46
118.0,11013.41974895236,454.4780200097585,-55380.62666423639,-51536.05956269021,-31856.130880848275,-29150.899249422462,602.35716132607,-19138.569431134394,0.0,0.0,0.0,193.0,1.0,154.0,0.0,2.0,3.0,250.0,410.0,2.0,1018.0,1744252943.1185584,0.0,2025-04-09 22:42:23.118,BACKWARD,46
119.0,11102.491450606758,465.34096781503774,-55388.94151317376,-51547.12367619559,-31866.25622108653,-29162.298639094668,588.3649692970478,-19150.46055918462,0.0,0.0,0.0,193.0,1.0,154.0,0.0,2.0,3.0,252.0,410.0,2.0,1020.0,1744252943.1185677,0.0,2025-04-09 22:42:23.118,BACKWARD,46
120.0,11083.42541258638,480.20487787781695,-55345.60148067492,-51539.52408308078,-31792.71898182857,-29090.48248415977,575.5797714686122,-19089.529703799453,0.0,0.0,0.0,193.0,1.0,155.0,0.0,2.0,3.0,252.0,411.0,2.0,1020.0,1744252943.118576,0.0,2025-04-09 22:42:23.118,BACKWARD,46
121.0,11034.318630018071,486.57512504757943,-55362.85702739442,-51540.529911581274,-31796.742295830525,-29101.457190687324,647.2841676812372,-19089.105020654803,0.0,0.0,0.0,193.0,1.0,154.0,0.0,2.0,3.0,249.0,410.0,2.0,1017.0,1744252943.1185849,0.0,2025-04-09 22:42:23.118,BACKWARD,46
122.0,10990.285693441117,440.68699368083406,-55375.597521733944,-51552.2198739314,-31830.873409613778,-29137.28703704918,619.45624583438,-19121.716215815093,0.0,0.0,0.0,193.0,1.0,154.0,0.0,2.0,3.0,250.0,410.0,2.0,1018.0,1744252943.1185937,0.0,2025-04-09 22:42:23.118,BACKWARD,46
123.0,11093.774270269188,460.98237764625287,-55372.44592576575,-51519.87689970457,-31859.885973916767,-29160.644610004976,634.8789495085418,-19145.654934126727,0.0,0.0,0.0,193.0,1.0,154.0,0.0,2.0,3.0,249.0,410.0,2.0,1017.0,1744252943.1186023,0.0,2025-04-09 22:42:23.118,BACKWARD,46
124.0,11081.749031752233,466.5479620156243,-55346.51790219759,-51553.89625476555,-31797.412848164186,-29094.28228071717,564.2027335408609,-19096.615206791783,0.0,0.0,0.0,193.0,1.0,154.0,0.0,2.0,3.0,250.0,410.0,2.0,1018.0,1744252943.1186109,0.0,2025-04-09 22:42:23.118,BACKWARD,46
125.0,11023.835661868532,464.2010288478171,-55366.1203820849,-51541.53574008176,-31809.482790170052,-29120.947911852352,650.4134119049802,-19118.49756461353,0.0,0.0,0.0,193.0,1.0,154.0,0.0,2.0,3.0,251.0,410.0,2.0,1019.0,1744252943.1186194,0.0,2025-04-09 22:42:23.118,BACKWARD,46
126.0,10969.07388795303,421.2409760047169,-55388.114498628915,-51582.10415626814,-31842.093985330343,-29148.976999399307,588.4320245304137,-19142.659800369718,0.0,0.0,0.0,193.0,1.0,154.0,0.0,2.0,3.0,251.0,410.0,2.0,1019.0,1744252943.1186328,0.0,2025-04-09 22:42:23.118,BACKWARD,46
127.0,11061.118371619985,432.66271742137883,-55378.32443455749,-51519.47456830437,-31879.086122403878,-29176.871976479528,636.6894408094216,-19155.824977853892,0.0,0.0,0.0,193.0,1.0,154.0,0.0,2.0,3.0,250.0,410.0,2.0,1018.0,1744252943.1186414,0.0,2025-04-09 22:42:23.118,BACKWARD,46
128.0,11075.736412493756,450.6111682189904,-55365.36042277342,-51576.940903298964,-31825.732508389057,-29105.771077367197,523.5002068877467,-19110.428584865163,0.0,0.0,0.0,193.0,1.0,154.0,0.0,2.0,3.0,249.0,410.0,2.0,1017.0,1744252943.1186502,0.0,2025-04-09 22:42:23.118,BACKWARD,46
129.0,11033.782188151145,469.87837193946507,-55350.49651271063,-51520.0110101713,-31800.63149936575,-29096.85273132953,661.0081387767958,-19082.10892464029,0.0,0.0,0.0,193.0,1.0,154.0,0.0,2.0,3.0,249.0,410.0,2.0,1017.0,1744252943.1186588,0.0,2025-04-09 22:42:23.118,BACKWARD,46
130.0,10981.747327059189,445.11263908298486,-55378.547952002045,-51577.298531210254,-31824.413755466197,-29121.05967057463,607.6545247619778,-19106.606436563306,0.0,0.0,0.0,193.0,1.0,154.0,0.0,2.0,3.0,249.0,410.0,2.0,1017.0,1744252943.1186671,0.0,2025-04-09 22:42:23.118,BACKWARD,46
131.0,11059.553749508113,447.86190365098764,-55358.61019594791,-51497.03341687124,-31861.718816962104,-29162.6339152615,670.8429063371309,-19140.35757069082,0.0,0.0,0.0,193.0,1.0,154.0,0.0,2.0,3.0,249.0,410.0,2.0,1017.0,1744252943.118676,0.0,2025-04-09 22:42:23.118,BACKWARD,46
132.0,11085.124145164984,447.526627484158,-55377.54212350156,-51584.74166211387,-31845.20087780963,-29130.96149336833,529.8704540575093,-19132.199183964633,0.0,0.0,0.0,193.0,1.0,154.0,0.0,2.0,3.0,249.0,410.0,2.0,1017.0,1744252943.1186845,0.0,2025-04-09 22:42:23.118,BACKWARD,46
133.0,11043.594603967023,467.66554923838964,-55345.62383241938,-51518.87107120408,-31806.57706339086,-29106.687498889867,648.3346996706366,-19099.364471359786,0.0,0.0,0.0,193.0,1.0,154.0,0.0,2.0,3.0,250.0,410.0,2.0,1018.0,1744252943.118693,0.0,2025-04-09 22:42:23.118,BACKWARD,46
134.0,10980.450925880781,445.0008803607083,-55383.800611949046,-51588.206182504444,-31832.43803172565,-29133.062557347126,600.099635136084,-19135.753111333026,0.0,0.0,0.0,193.0,1.0,153.0,0.0,2.0,3.0,249.0,409.0,2.0,1017.0,1744252943.118702,0.0,2025-04-09 22:42:23.118,BACKWARD,46
135.0,11028.641286926424,432.8415313770213,-55366.7685826741,-51520.81567297169,-31864.624543741294,-29175.86614797904,654.615539862578,-19173.684021673682,0.0,0.0,0.0,193.0,1.0,154.0,0.0,2.0,3.0,249.0,410.0,2.0,1017.0,1744252943.1187105,0.0,2025-04-09 22:42:23.118,BACKWARD,46
136.0,11095.517706336703,450.23118856325016,-55373.96584438871,-51582.03710103477,-31840.663473685203,-29137.041167860174,564.582713196601,-19140.82695732438,0.0,0.0,0.0,193.0,1.0,153.0,0.0,2.0,3.0,249.0,409.0,2.0,1017.0,1744252943.118719,0.0,2025-04-09 22:42:23.118,BACKWARD,46
137.0,11055.262214572695,466.1903341043394,-55336.727838126164,-51525.75540849631,-31791.48963588353,-29099.42318194189,645.0936967246172,-19109.378052875763,0.0,0.0,0.0,193.0,1.0,154.0,0.0,2.0,3.0,250.0,410.0,2.0,1018.0,1744252943.1187277,0.0,2025-04-09 22:42:23.118,BACKWARD,46
138.0,10994.84544931,455.4391450213367,-55374.144658344354,-51580.718348111914,-31813.14847626072,-29126.20057179935,625.2453476483045,-19138.815300323404,0.0,0.0,0.0,193.0,1.0,154.0,0.0,2.0,3.0,250.0,410.0,2.0,1018.0,1744252943.1187365,0.0,2025-04-09 22:42:23.118,BACKWARD,46
139.0,10998.8464115675,421.39743821590406,-55374.34582404445,-51542.80978951571,-31863.171680351697,-29171.6863717659,628.486350594324,-19168.163140793222,0.0,0.0,0.0,193.0,1.0,154.0,0.0,2.0,3.0,249.0,410.0,2.0,1017.0,1744252943.118745,0.0,2025-04-09 22:42:23.118,BACKWARD,46
140.0,11089.10275567803,440.172903558362,-55383.085356126474,-51578.147897499555,-31867.574974009392,-29160.5328512827,558.3689282380258,-19154.88620458677,0.0,0.0,0.0,193.0,1.0,153.0,0.0,2.0,3.0,249.0,409.0,2.0,1017.0,1744252943.118754,0.0,2025-04-09 22:42:23.118,BACKWARD,46
141.0,11066.99688041173,462.0552613801076,-55330.312887467495,-51537.512426079804,-31790.126179471754,-29092.158864993915,614.8517864765867,-19088.41211657669,0.0,0.0,0.0,193.0,1.0,153.0,0.0,2.0,3.0,250.0,409.0,2.0,1018.0,1744252943.1187668,0.0,2025-04-09 22:42:23.118,BACKWARD,46
142.0,11001.707434857779,452.30990079759374,-55371.01541412061,-51577.857324821634,-31815.406002450705,-29124.635949687476,636.8682547650641,-19126.58889610635,0.0,0.0,0.0,193.0,1.0,153.0,0.0,2.0,3.0,249.0,409.0,2.0,1017.0,1744252943.1187756,0.0,2025-04-09 22:42:23.118,BACKWARD,46
143.0,10987.402318406383,421.35273472699345,-55368.8696466529,-51558.36660365661,-31846.139651076755,-29154.6319907465,633.8507692635977,-19145.721989360096,0.0,0.0,0.0,193.0,1.0,154.0,0.0,2.0,3.0,250.0,410.0,2.0,1018.0,1744252943.1187844,0.0,2025-04-09 22:42:23.118,BACKWARD,46
144.0,11095.696520292346,443.525665226658,-55367.75205943013,-51551.571673342194,-31860.668284972704,-29163.885612950995,616.4834638218241,-19161.99405932356,0.0,0.0,0.0,193.0,1.0,153.0,0.0,2.0,3.0,249.0,409.0,2.0,1017.0,1744252943.1187935,0.0,2025-04-09 22:42:23.118,BACKWARD,46
145.0,11068.561502523602,451.4158310193814,-55336.23609974815,-51558.18778970096,-31798.016345264477,-29100.7195831203,586.8897541629975,-19110.3615296318,0.0,0.0,0.0,193.0,1.0,153.0,0.0,2.0,3.0,250.0,409.0,2.0,1018.0,1744252943.1188023,0.0,2025-04-09 22:42:23.118,BACKWARD,46
146.0,11014.023246052653,457.80842993359926,-55363.97461461719,-51564.62509210409,-31813.886083827747,-29124.255970031736,646.5912636031227,-19130.1651752192,0.0,0.0,0.0,193.0,1.0,154.0,0.0,2.0,3.0,249.0,410.0,2.0,1017.0,1744252943.118811,0.0,2025-04-09 22:42:23.118,BACKWARD,46
147.0,10980.763850303156,425.13017953994034,-55372.15535308783,-51576.0244817763,-31841.714005674603,-29150.966304655827,609.2191468738494,-19155.26618424251,0.0,0.0,0.0,193.0,1.0,153.0,0.0,2.0,3.0,249.0,409.0,2.0,1017.0,1744252943.1188192,0.0,2025-04-09 22:42:23.118,BACKWARD,46
148.0,11091.96377896831,449.18065657385074,-55358.25256803663,-51526.560071296706,-31863.39519779625,-29159.996409415773,644.0878682241283,-19155.0203150535,0.0,0.0,0.0,193.0,1.0,154.0,0.0,2.0,3.0,250.0,410.0,2.0,1018.0,1744252943.118828,0.0,2025-04-09 22:42:23.118,BACKWARD,46
149.0,11084.520648064692,456.333214799549,-55339.72297188318,-51566.614397360616,-31807.135857002242,-29092.024754527185,560.8946753614754,-19102.60547430581,0.0,0.0,0.0,193.0,1.0,154.0,0.0,2.0,3.0,249.0,410.0,2.0,1017.0,1744252943.1188369,0.0,2025-04-09 22:42:23.118,BACKWARD,46
150.0,11033.961002106787,465.96681665978633,-55350.7647336441,-51540.50755983681,-31810.309804714896,-29107.581568668076,656.6719003524662,-19109.53451508695,0.0,0.0,0.0,193.0,1.0,154.0,0.0,2.0,3.0,250.0,410.0,2.0,1018.0,1744252943.1188457,0.0,2025-04-09 22:42:23.118,BACKWARD,46
151.0,10978.931007257821,435.1661128003732,-55377.00568163463,-51586.35098771465,-31841.334026018863,-29138.449327760856,596.4115973009583,-19143.30800095892,0.0,0.0,0.0,193.0,1.0,154.0,0.0,2.0,3.0,250.0,410.0,2.0,1018.0,1744252943.118854,0.0,2025-04-09 22:42:23.118,BACKWARD,46
152.0,11073.56829328159,448.55480772910215,-55358.543140714544,-51513.417245556986,-31867.574974009392,-29163.907964695452,661.9245602994633,-19153.522748174997,0.0,0.0,0.0,193.0,1.0,153.0,0.0,2.0,3.0,250.0,409.0,2.0,1018.0,1744252943.1188626,0.0,2025-04-09 22:42:23.118,BACKWARD,46
153.0,11076.988110183253,446.78901991713286,-55365.42747800678,-51590.9777988169,-31829.219380524086,-29115.628196671987,533.3349744480818,-19130.32163743039,0.0,0.0,0.0,193.0,1.0,154.0,0.0,2.0,3.0,251.0,410.0,2.0,1019.0,1744252943.1188712,0.0,2025-04-09 22:42:23.118,BACKWARD,46
154.0,11035.816196896578,457.9648921447864,-55354.229254034675,-51538.94293772495,-31809.415734936683,-29112.945987337353,649.0052520042959,-19113.714291300093,0.0,0.0,0.0,193.0,1.0,154.0,0.0,2.0,3.0,250.0,410.0,2.0,1018.0,1744252943.11888,0.0,2025-04-09 22:42:23.118,BACKWARD,46
155.0,10982.8425625375,439.7258686692558,-55379.37496654689,-51593.391787218075,-31827.855924112315,-29131.363824768523,598.5573647686679,-19135.708407844115,0.0,0.0,0.0,193.0,1.0,154.0,0.0,2.0,3.0,251.0,410.0,2.0,1019.0,1744252943.1188884,0.0,2025-04-09 22:42:23.118,BACKWARD,46
156.0,11049.115484847485,436.6636796788788,-55363.795800661544,-51519.161643882,-31870.324238577396,-29175.73203751231,649.7652113157764,-19173.616966440317,0.0,0.0,0.0,193.0,1.0,154.0,0.0,2.0,3.0,251.0,410.0,2.0,1019.0,1744252943.1189013,0.0,2025-04-09 22:42:23.118,BACKWARD,46
157.0,11089.348624867038,438.720040168767,-55374.18936183326,-51600.54434544377,-31841.11050857431,-29137.823478916107,530.7198203468109,-19152.025181296493,0.0,0.0,0.0,193.0,1.0,154.0,0.0,2.0,3.0,250.0,410.0,2.0,1018.0,1744252943.1189098,0.0,2025-04-09 22:42:23.118,BACKWARD,46
158.0,11043.147569077919,455.3944415324261,-55347.76959988709,-51538.518254580296,-31801.10088599931,-29114.398850726946,651.6427578500221,-19116.463555868097,0.0,0.0,0.0,193.0,1.0,154.0,0.0,2.0,3.0,249.0,410.0,2.0,1017.0,1744252943.118919,0.0,2025-04-09 22:42:23.118,BACKWARD,46
159.0,10979.355690402472,440.172903558362,-55386.5722282615,-51602.73481640039,-31823.76555487699,-29138.851659161053,609.1744433849387,-19137.653009611728,0.0,0.0,0.0,193.0,1.0,154.0,0.0,2.0,3.0,251.0,410.0,2.0,1019.0,1744252943.1189275,0.0,2025-04-09 22:42:23.118,BACKWARD,46
160.0,11012.950362318797,421.35273472699345,-55376.603350234436,-51542.04983020423,-31868.15611936523,-29186.930261484416,648.5582171151897,-19179.40606825424,0.0,0.0,0.0,193.0,1.0,154.0,0.0,2.0,3.0,250.0,410.0,2.0,1018.0,1744252943.1189358,0.0,2025-04-09 22:42:23.118,BACKWARD,46
161.0,11095.025967958685,446.14081932792897,-55375.57516998949,-51590.106080783145,-31848.48658424456,-29145.132499352992,553.58565492459,-19146.3701899493,0.0,0.0,0.0,193.0,1.0,154.0,0.0,2.0,3.0,249.0,410.0,2.0,1017.0,1744252943.1189444,0.0,2025-04-09 22:42:23.118,BACKWARD,46
162.0,11053.47407501627,453.60630197600153,-55339.72297188318,-51540.529911581274,-31796.67524059716,-29101.367783709502,629.1121994390726,-19095.475267824564,0.0,0.0,0.0,193.0,1.0,153.0,0.0,2.0,3.0,249.0,409.0,2.0,1017.0,1744252943.1189528,0.0,2025-04-09 22:42:23.118,BACKWARD,46
163.0,10990.397452163394,442.0728018370631,-55382.392452048356,-51597.68332215349,-31817.797639107426,-29128.5251532227,619.9032807234861,-19123.12437571578,0.0,0.0,0.0,193.0,1.0,154.0,0.0,2.0,3.0,249.0,410.0,2.0,1017.0,1744252943.118961,0.0,2025-04-09 22:42:23.118,BACKWARD,46
164.0,11004.836679081522,428.32647899704926,-55364.13107682837,-51547.28013840677,-31843.50214523103,-29161.516328038735,646.5242083697568,-19154.193300508654,0.0,0.0,0.0,193.0,1.0,153.0,0.0,2.0,3.0,249.0,409.0,2.0,1017.0,1744252943.11897,0.0,2025-04-09 22:42:23.118,BACKWARD,46
165.0,11089.683901033868,439.1000198245072,-55378.14562060185,-51581.32184521221,-31859.55069774994,-29165.651400762967,584.2522483172713,-19170.286556516476,0.0,0.0,0.0,193.0,1.0,153.0,0.0,2.0,3.0,250.0,409.0,2.0,1018.0,1744252943.1189785,0.0,2025-04-09 22:42:23.118,BACKWARD,46
166.0,11050.411886025893,441.69282218132287,-55348.12722779837,-51564.93801652647,-31806.554711646404,-29109.928501835886,594.9363821669081,-19116.485907612554,0.0,0.0,0.0,193.0,1.0,154.0,0.0,2.0,3.0,250.0,410.0,2.0,1018.0,1744252943.118987,0.0,2025-04-09 22:42:23.118,BACKWARD,46
167.0,10997.348844688993,444.3079762825938,-55381.49838227015,-51590.64252265007,-31823.854961854813,-29133.688406191875,628.195777916405,-19133.897916543236,0.0,0.0,0.0,193.0,1.0,154.0,0.0,2.0,3.0,249.0,410.0,2.0,1017.0,1744252943.1189957,0.0,2025-04-09 22:42:23.118,BACKWARD,46
168.0,10974.907693255866,412.2555747336835,-55384.6723299828,-51581.433603934485,-31855.236811070063,-29170.278211865214,616.4834638218241,-19163.536329690975,0.0,0.0,0.0,193.0,1.0,154.0,0.0,2.0,3.0,251.0,410.0,2.0,1019.0,1744252943.1190042,0.0,2025-04-09 22:42:23.119,BACKWARD,46
169.0,11079.603264284524,429.7122871532783,-55385.65580673883,-51569.65423460653,-31874.50401479054,-29186.19265391739,611.2978591081928,-19173.907539118238,0.0,0.0,0.0,193.0,1.0,154.0,0.0,2.0,3.0,248.0,410.0,2.0,1016.0,1744252943.1190126,0.0,2025-04-09 22:42:23.119,BACKWARD,46
170.0,11057.586795996047,438.3624122574821,-55356.48678022466,-51586.194525503466,-31812.388516949242,-29120.120897307504,563.5545329516569,-19125.9630472616,0.0,0.0,0.0,193.0,1.0,154.0,0.0,2.0,3.0,250.0,410.0,2.0,1018.0,1744252943.1190212,0.0,2025-04-09 22:42:23.119,BACKWARD,46
171.0,11011.788071607121,452.60047347551273,-55369.5178472421,-51575.175115487,-31816.009499551,-29134.38131026999,646.1665804584719,-19138.032989267467,0.0,0.0,0.0,193.0,1.0,154.0,0.0,2.0,3.0,250.0,410.0,2.0,1018.0,1744252943.119034,0.0,2025-04-09 22:42:23.119,BACKWARD,46
172.0,10974.237140922207,417.53058642513594,-55378.01151013512,-51590.41900520551,-31842.585723708362,-29153.469700034824,611.9013562084862,-19140.715198602105,0.0,0.0,0.0,193.0,1.0,154.0,0.0,2.0,3.0,249.0,410.0,2.0,1017.0,1744252943.1190424,0.0,2025-04-09 22:42:23.119,BACKWARD,46
173.0,11084.252427131227,442.58689195953514,-55358.565492459005,-51531.96919345489,-31862.45642452913,-29172.178110143916,654.1908567179271,-19154.997963309048,0.0,0.0,0.0,193.0,1.0,154.0,0.0,2.0,3.0,249.0,410.0,2.0,1017.0,1744252943.119051,0.0,2025-04-09 22:42:23.119,BACKWARD,46
174.0,11079.960892195808,448.21953156227255,-55341.89109109534,-51581.67947312349,-31805.660641868195,-29108.609748913022,559.9559020943525,-19114.854230267316,0.0,0.0,0.0,193.0,1.0,154.0,0.0,2.0,3.0,250.0,410.0,2.0,1018.0,1744252943.1190598,0.0,2025-04-09 22:42:23.119,BACKWARD,46
175.0,11034.676257929357,459.0154241341858,-55345.02033531909,-51546.83310351767,-31803.760743589493,-29117.461039717324,663.4891824113348,-19108.483983097554,0.0,0.0,0.0,193.0,1.0,154.0,0.0,2.0,3.0,250.0,410.0,2.0,1018.0,1744252943.1190684,0.0,2025-04-09 22:42:23.119,BACKWARD,46
176.0,10965.989347218198,419.85516784848784,-55381.34192005896,-51608.143938558576,-31845.15617432072,-29156.107205880548,583.6711029614333,-19151.444035940654,0.0,0.0,0.0,193.0,1.0,154.0,0.0,2.0,3.0,251.0,410.0,2.0,1019.0,1744252943.119077,0.0,2025-04-09 22:42:23.119,BACKWARD,46
177.0,11061.721868720279,436.55192095660226,-55356.19620754674,-51530.15870215401,-31871.30771533343,-29184.739790527798,652.2015514614047,-19168.163140793222,0.0,0.0,0.0,193.0,1.0,154.0,0.0,2.0,3.0,250.0,410.0,2.0,1018.0,1744252943.1190856,0.0,2025-04-09 22:42:23.119,BACKWARD,46
178.0,11089.281569633671,445.04558384961894,-55349.9153673548,-51597.236287264386,-31820.837476353347,-29128.011063100228,541.8956925744644,-19137.87652705628,0.0,0.0,0.0,193.0,1.0,154.0,0.0,2.0,3.0,250.0,410.0,2.0,1018.0,1744252943.1190941,0.0,2025-04-09 22:42:23.119,BACKWARD,46
179.0,11043.594603967023,459.86479042348753,-55338.560681171504,-51540.37344937008,-31802.464342411084,-29117.86337111752,663.5562376447008,-19107.902837741716,0.0,0.0,0.0,193.0,1.0,154.0,0.0,2.0,3.0,250.0,410.0,2.0,1018.0,1744252943.1191027,0.0,2025-04-09 22:42:23.119,BACKWARD,46
180.0,10971.957262987766,424.75019988420013,-55386.14754511685,-51617.24109855189,-31845.02206385399,-29153.402644801456,586.3309605516149,-19142.27982071398,0.0,0.0,0.0,193.0,1.0,153.0,0.0,2.0,3.0,249.0,409.0,2.0,1017.0,1744252943.1191115,0.0,2025-04-09 22:42:23.119,BACKWARD,46
181.0,11044.891005145431,434.5402639556246,-55354.18455054576,-51528.41526608649,-31866.92677342019,-29180.87293873703,649.4075834044914,-19166.375001236796,0.0,0.0,0.0,193.0,1.0,154.0,0.0,2.0,3.0,249.0,410.0,2.0,1017.0,1744252943.1191201,0.0,2025-04-09 22:42:23.119,BACKWARD,46
182.0,11081.637273029957,434.02617383315254,-55369.607254219925,-51608.79213914778,-31845.133822576267,-29147.09945286506,535.681907615889,-19141.07282651339,0.0,0.0,0.0,193.0,1.0,154.0,0.0,2.0,3.0,249.0,410.0,2.0,1017.0,1744252943.1191287,0.0,2025-04-09 22:42:23.119,BACKWARD,46
183.0,11038.61016495349,448.7559734291999,-55338.24775674913,-51548.978870985375,-31799.022173764966,-29118.220999028803,654.5931881181226,-19095.676433524663,0.0,0.0,0.0,193.0,1.0,154.0,0.0,2.0,3.0,249.0,410.0,2.0,1017.0,1744252943.1191373,0.0,2025-04-09 22:42:23.119,BACKWARD,46
184.0,10983.490763126703,440.1505518139067,-55367.03680360757,-51603.07009256722,-31812.142647760233,-29131.34147302407,631.5932430736117,-19112.775518032973,0.0,0.0,0.0,193.0,1.0,154.0,0.0,2.0,3.0,251.0,410.0,2.0,1019.0,1744252943.1191459,0.0,2025-04-09 22:42:23.119,BACKWARD,46
185.0,11013.240934996717,422.8055981165884,-55352.70933541171,-51540.328745881176,-31851.705235446127,-29172.848662477576,669.3900429475359,-19150.572317906895,0.0,0.0,0.0,193.0,1.0,154.0,0.0,2.0,3.0,251.0,410.0,2.0,1019.0,1744252943.1191545,0.0,2025-04-09 22:42:23.119,BACKWARD,46
186.0,11088.588665555557,443.7044791823005,-55363.169951816795,-51594.66583665203,-31849.24654355604,-29155.21313610234,569.7012626768665,-19146.861928327315,0.0,0.0,0.0,193.0,1.0,154.0,0.0,2.0,3.0,250.0,410.0,2.0,1018.0,1744252943.119167,0.0,2025-04-09 22:42:23.119,BACKWARD,46
187.0,11055.418676783882,460.6918049683339,-55320.56752688498,-51544.88850175006,-31792.16018821719,-29104.25115874424,627.7487430272988,-19098.91743647068,0.0,0.0,0.0,193.0,1.0,154.0,0.0,2.0,3.0,250.0,410.0,2.0,1018.0,1744252943.119176,0.0,2025-04-09 22:42:23.119,BACKWARD,46
188.0,10988.832830051522,443.1680373153731,-55368.48966699716,-51596.07399655271,-31824.458458955105,-29132.660225946933,622.4737313358464,-19124.510183872007,0.0,0.0,0.0,193.0,1.0,154.0,0.0,2.0,3.0,250.0,410.0,2.0,1018.0,1744252943.1191847,0.0,2025-04-09 22:42:23.119,BACKWARD,46
189.0,10996.499478399692,420.07868529304096,-55361.38181226037,-51559.21596994591,-31859.21542158311,-29167.998333930773,626.2511761487933,-19156.517881932006,0.0,0.0,0.0,193.0,1.0,154.0,0.0,2.0,3.0,250.0,410.0,2.0,1018.0,1744252943.1191933,0.0,2025-04-09 22:42:23.119,BACKWARD,46
190.0,11100.859773261522,448.4430490068256,-55359.43721049276,-51570.660063107025,-31861.092968117355,-29161.002237916262,594.7352164668104,-19155.042666797955,0.0,0.0,0.0,193.0,1.0,154.0,0.0,2.0,3.0,252.0,410.0,2.0,1020.0,1744252943.119202,0.0,2025-04-09 22:42:23.119,BACKWARD,46
191.0,11073.657700259411,459.37305204547073,-55321.059265263,-51553.672737320994,-31797.30108944191,-29096.517455162702,597.7750537127321,-19098.760974259494,0.0,0.0,0.0,193.0,1.0,154.0,0.0,2.0,3.0,252.0,410.0,2.0,1020.0,1744252943.1192107,0.0,2025-04-09 22:42:23.119,BACKWARD,46
192.0,11018.113615287974,463.0610898805964,-55350.451809221726,-51570.034214262276,-31812.835551838347,-29118.086888562073,645.1384002135278,-19110.048605209424,0.0,0.0,0.0,193.0,1.0,155.0,0.0,2.0,3.0,252.0,411.0,2.0,1020.0,1744252943.1192193,0.0,2025-04-09 22:42:23.119,BACKWARD,46
193.0,10988.966940518254,429.55582494209114,-55355.57035870199,-51566.63674910507,-31846.676092943682,-29154.050845390662,617.5786993001342,-19147.152501005236,0.0,0.0,0.0,193.0,1.0,155.0,0.0,2.0,3.0,253.0,411.0,2.0,1021.0,1744252943.119228,0.0,2025-04-09 22:42:23.119,BACKWARD,46
194.0,11095.025967958685,453.8745229094652,-55348.14957954283,-51539.971117969886,-31864.333971063374,-29167.216022874836,625.714734281866,-19159.781236622483,0.0,0.0,0.0,193.0,1.0,155.0,0.0,2.0,3.0,251.0,411.0,2.0,1019.0,1744252943.1192365,0.0,2025-04-09 22:42:23.119,BACKWARD,46
195.0,11075.959929938308,461.85409568000983,-55324.18850948674,-51563.68631883697,-31806.889987813236,-29100.496065675747,569.0977655765731,-19099.655044037707,0.0,0.0,0.0,193.0,1.0,154.0,0.0,2.0,3.0,250.0,410.0,2.0,1018.0,1744252943.1192448,0.0,2025-04-09 22:42:23.119,BACKWARD,46
196.0,11023.969772335264,473.0523196521187,-55348.12722779837,-51555.66204257751,-31819.20579900811,-29123.272493275705,642.4561908788909,-19123.68316932716,0.0,0.0,0.0,193.0,1.0,154.0,0.0,2.0,3.0,250.0,410.0,2.0,1018.0,1744252943.1192536,0.0,2025-04-09 22:42:23.119,BACKWARD,46
197.0,10972.337242643505,431.23220577623914,-55371.73066994318,-51591.760109872834,-31851.213497068107,-29159.638781504487,587.9179344079416,-19164.005716324536,0.0,0.0,0.0,193.0,1.0,154.0,0.0,2.0,3.0,252.0,410.0,2.0,1020.0,1744252943.119262,0.0,2025-04-09 22:42:23.119,BACKWARD,46
198.0,11068.494447290237,444.687955938334,-55358.94547211474,-51534.360830111604,-31877.40974156973,-29176.49199682379,634.2307489193379,-19165.592690180863,0.0,0.0,0.0,193.0,1.0,154.0,0.0,2.0,3.0,250.0,410.0,2.0,1018.0,1744252943.1192706,0.0,2025-04-09 22:42:23.119,BACKWARD,46
199.0,11069.120296134985,445.1796943163508,-55348.03782082055,-51592.8776970956,-31820.189275764144,-29114.421202471403,533.2232157258053,-19120.68803557015,0.0,0.0,0.0,193.0,1.0,155.0,0.0,2.0,3.0,252.0,411.0,2.0,1020.0,1744252943.262447,0.0,2025-04-09 22:42:23.262,BACKWARD,46
200.0,11024.640324668924,455.9308833993535,-55349.133056298866,-51553.56097859872,-31809.34867970332,-29112.767173381708,654.1014497401059,-19099.364471359786,0.0,0.0,0.0,193.0,1.0,155.0,0.0,2.0,3.0,252.0,411.0,2.0,1020.0,1744252943.2624846,0.0,2025-04-09 22:42:23.262,BACKWARD,46
201.0,10969.74444028669,431.1875022873285,-55370.90365539833,-51600.63375242159,-31831.476906714073,-29126.513496221723,600.6360770030113,-19107.858134252805,0.0,0.0,0.0,193.0,1.0,154.0,0.0,2.0,3.0,250.0,410.0,2.0,1018.0,1744252943.2624955,0.0,2025-04-09 22:42:23.262,BACKWARD,46
202.0,11047.483807502247,436.48486572323634,-55351.1670650443,-51524.14608289553,-31857.762558193514,-29161.181051871903,675.9838075618514,-19127.97470426258,0.0,0.0,0.0,193.0,1.0,154.0,0.0,2.0,3.0,250.0,410.0,2.0,1018.0,1744252943.2625244,0.0,2025-04-09 22:42:23.262,BACKWARD,46
203.0,11085.749994009733,452.64517696442334,-55343.85804460741,-51591.983627317386,-31810.24274948153,-29105.078173289083,560.5370474501905,-19099.31976787088,0.0,0.0,0.0,193.0,1.0,154.0,0.0,2.0,3.0,249.0,410.0,2.0,1017.0,1744252943.262534,0.0,2025-04-09 22:42:23.262,BACKWARD,46
204.0,11045.941537134831,464.69276722583385,-55326.62484963237,-51531.164530654496,-31789.790903304925,-29096.517455162702,673.6145226495889,-19084.902892697202,0.0,0.0,0.0,193.0,1.0,154.0,0.0,2.0,3.0,249.0,410.0,2.0,1017.0,1744252943.262544,0.0,2025-04-09 22:42:23.262,BACKWARD,46
205.0,10983.356652659972,439.9046826248983,-55364.17578031729,-51597.48215645339,-31819.742240875035,-29121.70787116383,610.3367340966147,-19118.698730313627,0.0,0.0,0.0,193.0,1.0,154.0,0.0,2.0,3.0,250.0,410.0,2.0,1018.0,1744252943.2625527,0.0,2025-04-09 22:42:23.262,BACKWARD,46
206.0,11039.973621365265,440.28466228063854,-55342.00284981762,-51517.21704211439,-31852.264029057507,-29156.286019836192,672.5863424046448,-19140.335218946366,0.0,0.0,0.0,193.0,1.0,154.0,0.0,2.0,3.0,250.0,410.0,2.0,1018.0,1744252943.2625616,0.0,2025-04-09 22:42:23.262,BACKWARD,46
207.0,11095.540058081158,454.5674269875797,-55353.75986740111,-51590.19548776096,-31832.77330789248,-29124.591246198568,554.1220967915174,-19127.192393206646,0.0,0.0,0.0,193.0,1.0,154.0,0.0,2.0,3.0,250.0,410.0,2.0,1018.0,1744252943.2625704,0.0,2025-04-09 22:42:23.262,BACKWARD,46
208.0,11047.550862735614,459.88714216794284,-55331.4081229458,-51543.256824404816,-31799.11158074279,-29103.960586066318,640.7351065558322,-19099.87856148226,0.0,0.0,0.0,193.0,1.0,154.0,0.0,2.0,3.0,251.0,410.0,2.0,1019.0,1744252943.2625797,0.0,2025-04-09 22:42:23.262,BACKWARD,46
209.0,10984.138963715908,443.7044791823005,-55369.69666119775,-51606.109929813145,-31818.512894929994,-29125.932350865885,617.712809766866,-19116.53061110146,0.0,0.0,0.0,193.0,1.0,154.0,0.0,2.0,3.0,251.0,410.0,2.0,1019.0,1744252943.2625885,0.0,2025-04-09 22:42:23.262,BACKWARD,46
210.0,11019.521775188658,431.1204470539626,-55346.20497777522,-51537.84770224663,-31841.535191718962,-29153.469700034824,665.3443772011253,-19131.573335119883,0.0,0.0,0.0,193.0,1.0,153.0,0.0,2.0,3.0,250.0,409.0,2.0,1018.0,1744252943.2625973,0.0,2025-04-09 22:42:23.262,BACKWARD,46
211.0,11102.714968051312,450.23118856325016,-55359.16898955929,-51582.39472894606,-31840.64112194075,-29136.035339359685,585.392187284492,-19124.577239105372,0.0,0.0,0.0,193.0,1.0,153.0,0.0,2.0,3.0,249.0,409.0,2.0,1017.0,1744252943.2626088,0.0,2025-04-09 22:42:23.262,BACKWARD,46
212.0,11054.077572116563,453.31572929808254,-55331.653992134816,-51549.738830296854,-31793.881272540246,-29096.09277201805,624.485388336824,-19092.34602360082,0.0,0.0,0.0,193.0,1.0,153.0,0.0,2.0,3.0,250.0,409.0,2.0,1018.0,1744252943.2626178,0.0,2025-04-09 22:42:23.262,BACKWARD,46
213.0,10989.235161451717,443.1456855709178,-55375.888094411865,-51598.912668098536,-31822.133877531756,-29129.03924334517,616.4387603329135,-19133.36147467631,0.0,0.0,0.0,193.0,1.0,154.0,0.0,2.0,3.0,249.0,410.0,2.0,1017.0,1744252943.2626264,0.0,2025-04-09 22:42:23.262,BACKWARD,46
214.0,10985.278902683129,418.3799527144376,-55367.506190241125,-51566.70380433844,-31853.806299424923,-29161.806900716652,612.840129475609,-19163.737495391073,0.0,0.0,0.0,193.0,1.0,154.0,0.0,2.0,3.0,249.0,410.0,2.0,1017.0,1744252943.262635,0.0,2025-04-09 22:42:23.262,BACKWARD,46
215.0,11083.134839908462,439.6364616914346,-55373.027071121585,-51579.64546437806,-31867.35145656484,-29167.841871719585,579.8713064040311,-19164.765675636016,0.0,0.0,0.0,193.0,1.0,154.0,0.0,2.0,3.0,251.0,410.0,2.0,1019.0,1744252943.2626438,0.0,2025-04-09 22:42:23.262,BACKWARD,46
216.0,11061.498351275724,450.0076711186971,-55330.26818397858,-51569.56482762872,-31793.858920795792,-29106.307519234124,580.7653761822434,-19111.657930810205,0.0,0.0,0.0,193.0,1.0,154.0,0.0,2.0,3.0,250.0,410.0,2.0,1018.0,1744252943.262653,0.0,2025-04-09 22:42:23.262,BACKWARD,46
217.0,11008.435309938826,448.3312902845491,-55360.42068724879,-51585.479269680895,-31808.320499458376,-29129.396871256457,641.6738798229552,-19117.759957046506,0.0,0.0,0.0,193.0,1.0,153.0,0.0,1.0,3.0,251.0,409.0,1.0,1019.0,1744252943.2626667,0.0,2025-04-09 22:42:23.262,BACKWARD,46
218.0,10982.12730671493,422.2021010162951,-55362.52175122759,-51586.61920864812,-31832.661549170203,-29148.418205787922,625.4688650928575,-19124.97957050557,0.0,0.0,0.0,193.0,1.0,154.0,0.0,2.0,3.0,251.0,410.0,2.0,1019.0,1744252943.262676,0.0,2025-04-09 22:42:23.262,BACKWARD,46
219.0,11087.202857399328,443.4362582488368,-55358.833713392465,-51557.29371992275,-31855.750901192536,-29167.573650786122,633.9848797303296,-19149.87941382878,0.0,0.0,0.0,193.0,1.0,154.0,0.0,2.0,3.0,249.0,410.0,2.0,1017.0,1744252943.2626848,0.0,2025-04-09 22:42:23.262,BACKWARD,46
220.0,11073.970624681786,451.14761008591773,-55335.87847183686,-51586.06041503673,-31798.619842364773,-29100.451362186835,550.5011141897577,-19110.45093660962,0.0,0.0,0.0,193.0,1.0,154.0,0.0,2.0,3.0,249.0,410.0,2.0,1017.0,1744252943.2626936,0.0,2025-04-09 22:42:23.262,BACKWARD,46
221.0,11016.124310031451,451.6840519528451,-55355.23508253516,-51571.10709799613,-31804.34188894533,-29117.19281878386,654.7720020737651,-19109.40040462022,0.0,0.0,0.0,193.0,1.0,154.0,0.0,2.0,3.0,250.0,410.0,2.0,1018.0,1744252943.2627025,0.0,2025-04-09 22:42:23.262,BACKWARD,46
222.0,10959.6861552818,407.0476182755969,-55382.99594914865,-51615.74353167338,-31841.155212063222,-29157.180089614405,600.0102281582627,-19153.142768519258,0.0,0.0,0.0,193.0,1.0,154.0,0.0,2.0,3.0,251.0,410.0,2.0,1019.0,1744252943.2627113,0.0,2025-04-09 22:42:23.262,BACKWARD,46
223.0,11058.95025240782,422.8950050944096,-55366.9697483742,-51552.33163265367,-31871.777101966993,-29181.47643583732,645.6971938249104,-19168.49841696005,0.0,0.0,0.0,193.0,1.0,154.0,0.0,2.0,3.0,251.0,410.0,2.0,1019.0,1744252943.2627199,0.0,2025-04-09 22:42:23.262,BACKWARD,46
224.0,11079.402098584425,443.65977569338986,-55342.20401551772,-51602.06426406673,-31804.47599941206,-29111.269606503203,539.6605181289337,-19124.15255596072,0.0,0.0,0.0,193.0,1.0,154.0,0.0,1.0,3.0,251.0,410.0,1.0,1019.0,1744252943.2627285,0.0,2025-04-09 22:42:23.262,BACKWARD,46
225.0,11033.156339306395,455.26033106569423,-55337.46544569319,-51553.471571620896,-31792.96485101758,-29110.71081289182,654.8614090515863,-19114.340140144843,0.0,0.0,0.0,193.0,1.0,155.0,0.0,2.0,3.0,251.0,411.0,2.0,1019.0,1744252943.2627375,0.0,2025-04-09 22:42:23.262,BACKWARD,46
226.0,10973.611292077458,423.4761504502476,-55370.233103064675,-51612.614287449636,-31821.77624962047,-29134.515420736723,593.908201921964,-19133.383826420766,0.0,0.0,0.0,193.0,1.0,154.0,0.0,1.0,3.0,251.0,410.0,1.0,1019.0,1744252943.262746,0.0,2025-04-09 22:42:23.262,BACKWARD,46
227.0,11051.462418015291,429.57817668654644,-55351.837617377954,-51535.12078942309,-31850.766462179003,-29167.2830781082,671.7816796042538,-19147.26425972751,0.0,0.0,0.0,193.0,1.0,154.0,0.0,2.0,3.0,252.0,410.0,2.0,1020.0,1744252943.262755,0.0,2025-04-09 22:42:23.262,BACKWARD,46
228.0,11088.029871944174,443.7268309267558,-55352.57522494498,-51606.19933679096,-31814.511932672496,-29109.32500473559,552.5574746796459,-19109.489811598043,0.0,0.0,0.0,193.0,1.0,154.0,0.0,2.0,3.0,251.0,410.0,2.0,1019.0,1744252943.2627635,0.0,2025-04-09 22:42:23.262,BACKWARD,46
229.0,11051.507121504203,465.43037479285897,-55326.13311125435,-51536.84187374615,-31782.86186252378,-29085.07336200158,665.8808190680527,-19083.67354675216,0.0,0.0,0.0,193.0,1.0,155.0,0.0,2.0,3.0,252.0,411.0,2.0,1020.0,1744252943.2627723,0.0,2025-04-09 22:42:23.262,BACKWARD,46
230.0,10982.999024748688,440.95521461429774,-55373.585864732966,-51609.88737462609,-31821.77624962047,-29121.752574652743,602.2454026037935,-19128.846422296338,0.0,0.0,0.0,193.0,1.0,154.0,0.0,2.0,3.0,249.0,410.0,2.0,1017.0,1744252943.2627814,0.0,2025-04-09 22:42:23.262,BACKWARD,46
231.0,11032.821063139567,434.71907791126705,-55351.837617377954,-51530.42692308747,-31857.226116326587,-29156.598944258567,656.2025137189047,-19153.433341197175,0.0,0.0,0.0,193.0,1.0,154.0,0.0,2.0,3.0,249.0,410.0,2.0,1017.0,1744252943.26279,0.0,2025-04-09 22:42:23.262,BACKWARD,46
232.0,11099.295151149649,450.2982437966161,-55356.464428480205,-51590.664874394526,-31833.0638805704,-29117.103411806038,557.5419136931794,-19127.84059379585,0.0,0.0,0.0,193.0,1.0,154.0,0.0,7.0,3.0,252.0,410.0,7.0,1020.0,1744252943.5620773,0.0,2025-04-09 22:42:23.562,BACKWARD,46
233.0,11062.459476287304,466.2126858487947,-55320.56752688498,-51532.662097533,-31785.834644536335,-29086.436818413356,643.8643507795753,-19098.537456814942,0.0,0.0,0.0,193.0,1.0,154.0,0.0,18.0,3.0,250.0,410.0,18.0,1018.0,1744252943.5621147,0.0,2025-04-09 22:42:23.562,BACKWARD,46
234.0,11000.545144146103,455.170924087873,-55361.18064656027,-51591.3801302171,-31809.326327958865,-29112.364841981514,615.7011527658883,-19119.950428003125,0.0,0.0,0.0,193.0,1.0,154.0,0.0,29.0,3.0,249.0,410.0,29.0,1017.0,1744252943.5621345,0.0,2025-04-09 22:42:23.562,BACKWARD,46
235.0,11013.106824529985,427.0300778186414,-55352.91050111181,-51545.89433025054,-31847.368997021797,-29152.7320924678,639.5057606107904,-19148.44890218364,0.0,0.0,0.0,193.0,1.0,154.0,0.0,37.0,3.0,249.0,410.0,37.0,1017.0,1744252943.5621638,0.0,2025-04-09 22:42:23.562,BACKWARD,46
236.0,11091.807316757122,435.09905756700726,-55371.59655947645,-51597.83978436468,-31854.83447966987,-29150.49691802227,563.7109951628441,-19155.512053431517,0.0,0.0,0.0,193.0,1.0,154.0,0.0,39.0,3.0,250.0,410.0,39.0,1018.0,1744252943.5621736,0.0,2025-04-09 22:42:23.562,BACKWARD,46
237.0,11050.970679637276,442.96687161527535,-55338.02423930458,-51566.68145259398,-31795.043563251922,-29095.19870223984,602.1112921370617,-19095.899950969215,0.0,0.0,0.0,193.0,1.0,154.0,0.0,39.0,3.0,250.0,410.0,39.0,1018.0,1744252943.5621824,0.0,2025-04-09 22:42:23.562,BACKWARD,46
238.0,10986.08356548352,435.2108162892838,-55379.933760158274,-51606.244040279875,-31819.742240875035,-29126.267627032714,616.4387603329135,-19127.907649029214,0.0,0.0,0.0,193.0,1.0,154.0,0.0,39.0,3.0,249.0,410.0,39.0,1017.0,1744252943.5621915,0.0,2025-04-09 22:42:23.562,BACKWARD,46
239.0,10973.723050799734,401.79495832859976,-55378.7714694466,-51588.474403437904,-31850.140613334253,-29164.466758306833,613.7789027427319,-19158.730704633082,0.0,0.0,0.0,193.0,1.0,154.0,0.0,39.0,3.0,250.0,410.0,39.0,1018.0,1744252943.5622008,0.0,2025-04-09 22:42:23.562,BACKWARD,46
240.0,11075.825819471576,421.71036263827835,-55377.5197717571,-51588.18383075998,-31859.483642516574,-29171.86518572154,596.6351147455114,-19165.011544825025,0.0,0.0,0.0,193.0,1.0,154.0,0.0,38.0,3.0,250.0,410.0,38.0,1018.0,1744252943.5622096,0.0,2025-04-09 22:42:23.562,BACKWARD,46
241.0,11052.356487793504,432.1709790433621,-55342.71810564019,-51589.12260402711,-31796.786999319436,-29110.80021986964,567.6449021869781,-19120.0621867254,0.0,0.0,0.0,193.0,1.0,154.0,0.0,39.0,3.0,250.0,410.0,39.0,1018.0,1744252943.5622184,0.0,2025-04-09 22:42:23.562,BACKWARD,46
242.0,11001.215696479761,437.4012872459039,-55368.71318444171,-51594.55407792975,-31811.539150659937,-29133.95662712534,624.4630365923687,-19145.610230637816,0.0,0.0,0.0,193.0,1.0,154.0,0.0,39.0,3.0,248.0,410.0,39.0,1016.0,1744252943.5622275,0.0,2025-04-09 22:42:23.562,BACKWARD,46
243.0,10972.31489089905,410.7356561107226,-55374.01054787762,-51599.113833798634,-31840.88699112976,-29156.107205880548,590.5777919981232,-19169.392486738263,0.0,0.0,0.0,193.0,1.0,154.0,0.0,39.0,3.0,250.0,410.0,39.0,1018.0,1744252943.5622363,0.0,2025-04-09 22:42:23.562,BACKWARD,46
244.0,11068.7626682237,424.3255167395493,-55374.43523102227,-51563.23928394786,-31867.865546687313,-29172.62514503302,631.3026703956926,-19157.07667554339,0.0,0.0,0.0,193.0,1.0,154.0,0.0,39.0,3.0,250.0,410.0,39.0,1018.0,1744252943.5622451,0.0,2025-04-09 22:42:23.562,BACKWARD,46
245.0,11061.163075108896,435.8143133895771,-55350.787085388554,-51598.73385414289,-31804.744220345525,-29098.886740074962,563.1745532959168,-19089.19442763262,0.0,0.0,0.0,193.0,1.0,154.0,0.0,39.0,3.0,252.0,410.0,39.0,1020.0,1744252943.5622544,0.0,2025-04-09 22:42:23.562,BACKWARD,46
246.0,11016.012551309175,449.7618019296887,-55359.01252734811,-51570.48124915138,-31802.598452877817,-29107.53686517917,663.7797550892539,-19089.552055543907,0.0,0.0,0.0,193.0,1.0,155.0,0.0,40.0,3.0,251.0,411.0,40.0,1019.0,1744252943.56227,0.0,2025-04-09 22:42:23.562,BACKWARD,46
247.0,10961.630757049414,412.83672008952146,-55384.94055091627,-51617.97870611891,-31838.003616095022,-29143.81374643013,597.1492048679835,-19136.155442733223,0.0,0.0,0.0,193.0,1.0,155.0,0.0,40.0,3.0,249.0,411.0,40.0,1017.0,1744252943.562297,0.0,2025-04-09 22:42:23.562,BACKWARD,46
248.0,11053.675240716368,422.9397085833202,-55368.064983852506,-51553.58333034317,-31870.234831599577,-29181.744656770785,648.3346996706366,-19170.331260005387,0.0,0.0,0.0,193.0,1.0,155.0,0.0,40.0,3.0,252.0,411.0,40.0,1020.0,1744252943.5623064,0.0,2025-04-09 22:42:23.562,BACKWARD,46
249.0,11068.852075201521,431.6792406653453,-55355.279786024075,-51615.899993884566,-31812.72379311607,-29116.410507727924,546.9248350769085,-19121.35858790381,0.0,0.0,0.0,193.0,1.0,154.0,0.0,40.0,3.0,250.0,410.0,40.0,1018.0,1744252943.562315,0.0,2025-04-09 22:42:23.562,BACKWARD,46
250.0,11026.473167714259,448.3089385400938,-55341.01937306159,-51556.958443755924,-31790.819083549868,-29106.642795400956,670.3511679591142,-19100.59381730483,0.0,0.0,0.0,193.0,1.0,154.0,0.0,41.0,3.0,249.0,410.0,41.0,1017.0,1744252943.5623238,0.0,2025-04-09 22:42:23.562,BACKWARD,46
251.0,10958.590919803491,413.44021718981475,-55382.30304507054,-51626.18179633401,-31829.509953202007,-29142.85262141855,588.7002454638774,-19147.64423938325,0.0,0.0,0.0,193.0,1.0,154.0,0.0,41.0,3.0,251.0,410.0,41.0,1019.0,1744252943.5623326,0.0,2025-04-09 22:42:23.562,BACKWARD,46
252.0,11031.547013705615,415.09424627950744,-55365.74040242915,-51551.370507642096,-31868.692561232157,-29184.091589938595,638.7234495548546,-19187.564454980427,0.0,0.0,0.0,193.0,1.0,155.0,0.0,41.0,3.0,251.0,411.0,41.0,1019.0,1744252943.5623412,0.0,2025-04-09 22:42:23.562,BACKWARD,46
253.0,11078.597435784035,432.1486272989068,-55364.37694601738,-51620.83972940919,-31827.47594445657,-29129.754499167742,529.1551982349393,-19144.090312014858,0.0,0.0,0.0,193.0,1.0,154.0,0.0,41.0,3.0,249.0,410.0,41.0,1017.0,1744252943.56235,0.0,2025-04-09 22:42:23.562,BACKWARD,46
254.0,11038.721923675766,448.4654007512809,-55332.838634590946,-51550.9681762419,-31781.29724041191,-29102.552426165632,671.289941226237,-19096.548151558418,0.0,0.0,0.0,193.0,1.0,153.0,0.0,41.0,3.0,250.0,409.0,41.0,1018.0,1744252943.5623589,0.0,2025-04-09 22:42:23.562,BACKWARD,46
255.0,10974.840638022499,431.29926100960506,-55372.51298099911,-51614.82711015071,-31806.934691302147,-29126.982882855285,624.194815658905,-19123.54905886043,0.0,0.0,0.0,193.0,1.0,154.0,0.0,42.0,3.0,250.0,410.0,42.0,1018.0,1744252943.5623677,0.0,2025-04-09 22:42:23.562,BACKWARD,46
0.0,11012.145699518407,417.0388480471192,-55357.42555349178,-51545.268481405794,-31845.379691765273,-29161.62808676101,677.9060575850079,-19142.816262580905,0.0,0.0,0.0,193.0,1.0,154.0,0.0,42.0,3.0,252.0,410.0,42.0,1020.0,1744252943.562376,0.0,2025-04-09 22:42:23.562,BACKWARD,46
1.0,11077.010461927708,429.1311417974403,-55374.703451955735,-51614.156557817056,-31840.037624840454,-29141.176240584406,569.2095242988496,-19137.809471822915,0.0,0.0,0.0,193.0,1.0,154.0,0.0,42.0,3.0,249.0,410.0,42.0,1017.0,1744252943.5623846,0.0,2025-04-09 22:42:23.562,BACKWARD,46
2.0,11050.411886025893,452.8686944089764,-55329.396465944825,-51549.694126807946,-31780.894909011713,-29088.493178903245,645.808952547187,-19083.271215351968,0.0,0.0,0.0,193.0,1.0,154.0,0.0,42.0,3.0,250.0,410.0,42.0,1018.0,1744252943.5623932,0.0,2025-04-09 22:42:23.562,BACKWARD,46
3.0,10988.877533540432,443.525665226658,-55365.405126262325,-51598.912668098536,-31802.37493543326,-29111.649586158943,637.2258826763491,-19107.276988896967,0.0,0.0,0.0,193.0,1.0,154.0,0.0,42.0,3.0,250.0,410.0,42.0,1018.0,1744252943.5624018,0.0,2025-04-09 22:42:23.562,BACKWARD,46
4.0,10990.665673096857,408.72399910974497,-55365.963919873706,-51563.61926360361,-31849.82768891188,-29164.19853737337,654.3249671846589,-19154.21565225311,0.0,0.0,0.0,193.0,1.0,154.0,0.0,42.0,3.0,251.0,410.0,42.0,1019.0,1744252943.5624104,0.0,2025-04-09 22:42:23.562,BACKWARD,46
5.0,11091.67320629039,435.72490641175585,-55367.30502454103,-51587.46857493742,-31849.82768891188,-29149.111109866037,595.8081002006651,-19148.068922527902,0.0,0.0,0.0,193.0,1.0,153.0,0.0,42.0,3.0,249.0,409.0,42.0,1017.0,1744252943.562419,0.0,2025-04-09 22:42:23.562,BACKWARD,46
6.0,11062.839455943044,447.6607379508898,-55327.42951243276,-51557.56194085621,-31785.901699769704,-29089.85663531502,624.775961014743,-19092.413078834186,0.0,0.0,0.0,193.0,1.0,153.0,0.0,42.0,3.0,249.0,409.0,42.0,1017.0,1744252943.5624325,0.0,2025-04-09 22:42:23.562,BACKWARD,46
7.0,11013.442100696815,452.7569356866999,-55355.16802730179,-51580.04779577826,-31796.49642664152,-29104.720545377797,658.6835573534438,-19105.86882899628,0.0,0.0,0.0,193.0,1.0,153.0,0.0,43.0,3.0,250.0,409.0,43.0,1018.0,1744252943.5624413,0.0,2025-04-09 22:42:23.562,BACKWARD,46
8.0,10993.772565576144,422.1350457829292,-55362.879379138874,-51572.001167774346,-31840.171735307187,-29151.2792290782,632.1073331960837,-19158.328373232885,0.0,0.0,0.0,193.0,1.0,153.0,0.0,43.0,3.0,249.0,409.0,43.0,1017.0,1744252943.562457,0.0,2025-04-09 22:42:23.562,BACKWARD,46
9.0,11096.948217981842,444.0174036046748,-55367.48383849667,-51566.39087991606,-31865.183337352675,-29170.14410139848,610.8508242190867,-19180.680117688193,0.0,0.0,0.0,193.0,1.0,153.0,0.0,43.0,3.0,249.0,409.0,43.0,1017.0,1744252943.5624661,0.0,2025-04-09 22:42:23.562,BACKWARD,46
10.0,11068.80737171261,445.2020460608061,-55339.65591664981,-51576.96325504342,-31803.04548776692,-29100.786638353664,578.9772366258188,-19102.940750472637,0.0,0.0,0.0,193.0,1.0,153.0,0.0,43.0,3.0,249.0,409.0,43.0,1017.0,1744252943.5624747,0.0,2025-04-09 22:42:23.562,BACKWARD,46
11.0,11015.565516420069,450.2982437966161,-55358.85606513692,-51572.55996138573,-31806.35354594631,-29108.94502507985,657.5436183862232,-19095.76584050248,0.0,0.0,0.0,193.0,1.0,154.0,0.0,43.0,3.0,250.0,410.0,43.0,1018.0,1744252943.5624833,0.0,2025-04-09 22:42:23.562,BACKWARD,46
12.0,10974.572417089035,414.17782475683987,-55368.31085304152,-51588.07207203771,-31834.561447448905,-29140.662150461932,616.7069812663772,-19129.204050207623,0.0,0.0,0.0,193.0,1.0,153.0,0.0,43.0,3.0,249.0,409.0,43.0,1017.0,1744252943.562492,0.0,2025-04-09 22:42:23.562,BACKWARD,46
13.0,11074.90939794891,432.528606954647,-55357.917291869795,-51540.8651877481,-31858.29900006044,-29164.57851702911,652.2015514614047,-19149.052399283933,0.0,0.0,0.0,193.0,1.0,153.0,0.0,43.0,3.0,250.0,409.0,43.0,1018.0,1744252943.5625007,0.0,2025-04-09 22:42:23.562,BACKWARD,46
14.0,11072.696575247834,440.95521461429774,-55337.33133522646,-51579.93603705598,-31795.95998477459,-29094.28228071717,566.8625911310424,-19094.06710792388,0.0,0.0,0.0,193.0,1.0,153.0,0.0,43.0,3.0,250.0,409.0,43.0,1018.0,1744252943.5625093,0.0,2025-04-09 22:42:23.562,BACKWARD,46
15.0,11022.248688012205,446.5655024725798,-55350.72003015519,-51549.58236808567,-31798.23986270903,-29107.581568668076,660.9187317989746,-19100.705576027107,0.0,0.0,0.0,193.0,1.0,153.0,0.0,43.0,3.0,250.0,409.0,43.0,1018.0,1744252943.562518,0.0,2025-04-09 22:42:23.562,BACKWARD,46
16.0,10967.464562352248,414.2001765012952,-55379.24085608016,-51595.962237830434,-31831.275741013975,-29139.611618472532,591.5612687541567,-19140.558736390918,0.0,0.0,0.0,193.0,1.0,154.0,0.0,43.0,3.0,251.0,410.0,43.0,1019.0,1744252943.562527,0.0,2025-04-09 22:42:23.562,BACKWARD,46
17.0,11054.52460700567,422.5373771831247,-55368.8696466529,-51526.537719552245,-31867.530270520485,-29174.614450289544,642.970281001363,-19158.373076721797,0.0,0.0,0.0,193.0,1.0,154.0,0.0,43.0,3.0,251.0,410.0,43.0,1019.0,1744252943.5625355,0.0,2025-04-09 22:42:23.562,BACKWARD,46
18.0,11081.05612767412,437.0213075901637,-55361.44886749374,-51586.75331911485,-31816.14361001773,-29114.264740260216,528.7081633458332,-19112.44024186614,0.0,0.0,0.0,193.0,1.0,155.0,0.0,43.0,3.0,252.0,411.0,43.0,1020.0,1744252943.5625443,0.0,2025-04-09 22:42:23.562,BACKWARD,46
19.0,11041.828816155055,457.78607818914395,-55341.064076550494,-51521.57563228317,-31781.09607471181,-29109.928501835886,666.0372812792399,-19100.30324462691,0.0,0.0,0.0,193.0,1.0,155.0,0.0,43.0,3.0,251.0,411.0,43.0,1019.0,1744252943.5625532,0.0,2025-04-09 22:42:23.562,BACKWARD,46
20.0,10985.927103272332,440.1282000694514,-55363.19230356125,-51567.419060161,-31795.06591499638,-29109.973205324797,631.5708913291563,-19079.49377053902,0.0,0.0,0.0,193.0,1.0,155.0,0.0,43.0,3.0,251.0,411.0,43.0,1019.0,1744252943.562569,0.0,2025-04-09 22:42:23.562,BACKWARD,46
21.0,11048.646098213923,435.05435407809665,-55348.59661443193,-51488.69621618941,-31833.801488137426,-29146.16067959794,700.8612991406083,-19101.845514994326,0.0,0.0,0.0,193.0,1.0,155.0,0.0,43.0,3.0,251.0,411.0,43.0,1019.0,1744252943.5625825,0.0,2025-04-09 22:42:23.562,BACKWARD,46
22.0,11091.226171401284,440.0611448360855,-55364.4663529952,-51567.84374330565,-31813.39434544973,-29115.628196671987,572.6293412005116,-19101.55494231641,0.0,0.0,0.0,193.0,1.0,155.0,0.0,43.0,3.0,252.0,411.0,43.0,1020.0,1744252943.562591,0.0,2025-04-09 22:42:23.562,BACKWARD,46
23.0,11045.829778412555,452.8239909200658,-55340.14765502783,-51505.54943150871,-31781.453702623097,-29091.130684748972,672.5639906601895,-19073.525854769454,0.0,0.0,0.0,193.0,1.0,155.0,0.0,43.0,3.0,252.0,411.0,43.0,1020.0,1744252943.5625997,0.0,2025-04-09 22:42:23.562,BACKWARD,46
24.0,10978.640434579902,431.7462958987112,-55382.83948693747,-51569.65423460653,-31810.39921169272,-29115.829362372086,631.4367808624245,-19093.173038145665,0.0,0.0,0.0,193.0,1.0,155.0,0.0,43.0,3.0,252.0,411.0,43.0,1020.0,1744252943.5626085,0.0,2025-04-09 22:42:23.562,BACKWARD,46
25.0,11017.353655976494,420.1904440153175,-55364.68987043975,-51501.74963495132,-31843.815069653403,-29152.754444212253,677.9954645628292,-19120.73273905906,0.0,0.0,0.0,193.0,1.0,155.0,0.0,43.0,3.0,252.0,411.0,43.0,1020.0,1744252943.562617,0.0,2025-04-09 22:42:23.562,BACKWARD,46
26.0,11086.375842854482,437.0883628235296,-55379.28555956907,-51560.26650193531,-31838.741223662048,-29134.224848058802,581.0783006046177,-19115.033044222957,0.0,0.0,0.0,193.0,1.0,154.0,0.0,43.0,3.0,249.0,410.0,43.0,1017.0,1744252943.5626256,0.0,2025-04-09 22:42:23.562,BACKWARD,46
27.0,11055.977470395264,459.5965694900238,-55331.56458515699,-51498.7545011943,-31773.876461252745,-29075.730332819265,654.9731677738629,-19061.05358136339,0.0,0.0,0.0,193.0,1.0,154.0,0.0,43.0,3.0,250.0,410.0,43.0,1018.0,1744252943.562634,0.0,2025-04-09 22:42:23.562,BACKWARD,46
28.0,10997.371196433449,453.60630197600153,-55369.49549549765,-51544.26265290531,-31794.976508018557,-29092.248271971737,655.1072782405947,-19072.005936146492,0.0,0.0,0.0,193.0,1.0,154.0,0.0,44.0,3.0,250.0,410.0,44.0,1018.0,1744252943.5626495,0.0,2025-04-09 22:42:23.562,BACKWARD,46
29.0,11003.18264999183,429.62288017545706,-55362.34293727195,-51505.57178325317,-31830.471078213584,-29128.592208456066,663.1539062445053,-19101.242017894034,0.0,0.0,0.0,193.0,1.0,154.0,0.0,44.0,3.0,250.0,410.0,44.0,1018.0,1744252943.562658,0.0,2025-04-09 22:42:23.562,BACKWARD,46
30.0,11091.360281868016,443.5033134822027,-55377.7209374572,-51535.277251634274,-31847.860735399812,-29138.784603927685,599.2726205912377,-19125.091329227846,0.0,0.0,0.0,193.0,1.0,154.0,0.0,43.0,3.0,250.0,410.0,43.0,1018.0,1744252943.5626664,0.0,2025-04-09 22:42:23.562,BACKWARD,46
31.0,11052.959984893798,444.5314937271469,-55350.20594003272,-51524.235489873354,-31789.410923649186,-29085.878024801976,610.8508242190867,-19069.63665123423,0.0,0.0,0.0,193.0,1.0,155.0,0.0,43.0,3.0,252.0,411.0,43.0,1020.0,1744252943.5626752,0.0,2025-04-09 22:42:23.562,BACKWARD,46
32.0,11005.171955248352,454.5450752431244,-55373.60821647743,-51540.08287669216,-31792.987202762033,-29097.90326331893,669.32298771417,-19072.76589545797,0.0,0.0,0.0,193.0,1.0,155.0,0.0,44.0,3.0,251.0,411.0,44.0,1019.0,1744252943.5626836,0.0,2025-04-09 22:42:23.562,BACKWARD,46
33.0,10979.333338658016,418.4693596922588,-55381.45367878124,-51538.29473713574,-31833.086232314854,-29139.56691498362,643.484371123835,-19116.083576212357,0.0,0.0,0.0,193.0,1.0,155.0,0.0,44.0,3.0,251.0,411.0,44.0,1019.0,1744252943.5626924,0.0,2025-04-09 22:42:23.562,BACKWARD,46
34.0,11087.873409732987,439.12237156896254,-55380.11257411392,-51525.39778058503,-31853.940409891657,-29156.598944258567,633.3366791411256,-19133.875564798782,0.0,0.0,0.0,193.0,1.0,154.0,0.0,44.0,3.0,249.0,410.0,44.0,1017.0,1744252943.5627012,0.0,2025-04-09 22:42:23.562,BACKWARD,46
35.0,11077.14457239444,454.99211013223055,-55342.91927134029,-51534.83021674517,-31782.68304856814,-29087.286184702658,588.7002454638774,-19079.940805428127,0.0,0.0,0.0,193.0,1.0,154.0,0.0,44.0,3.0,249.0,410.0,44.0,1017.0,1744252943.56271,0.0,2025-04-09 22:42:23.562,BACKWARD,46
36.0,11024.41680722437,463.21755209178355,-55367.215617563204,-51527.05180967472,-31791.467284139075,-29109.257949502226,665.098508012117,-19097.375166103266,0.0,0.0,0.0,193.0,1.0,153.0,0.0,44.0,3.0,250.0,409.0,44.0,1018.0,1744252943.5627294,0.0,2025-04-09 22:42:23.562,BACKWARD,46
37.0,10980.65209158088,426.2254150182504,-55388.44977479575,-51556.73492631137,-31828.34766249033,-29141.62327547351,607.229841617327,-19133.629695609772,0.0,0.0,0.0,193.0,1.0,154.0,0.0,44.0,3.0,250.0,410.0,44.0,1018.0,1744252943.562738,0.0,2025-04-09 22:42:23.562,BACKWARD,46
38.0,11079.33504335106,440.1952553028173,-55377.31860605701,-51505.16945185298,-31857.67315121569,-29162.835080961595,644.6466618355109,-19143.732684103572,0.0,0.0,0.0,193.0,1.0,155.0,0.0,44.0,3.0,252.0,411.0,44.0,1020.0,1744252943.5627465,0.0,2025-04-09 22:42:23.562,BACKWARD,46
39.0,11076.183447382862,446.0067088611971,-55364.086373339465,-51558.076030978686,-31799.849188309814,-29099.08790577506,553.6750619024112,-19091.563712544885,0.0,0.0,0.0,193.0,1.0,155.0,0.0,44.0,3.0,251.0,411.0,44.0,1019.0,1744252943.562755,0.0,2025-04-09 22:42:23.562,BACKWARD,46
40.0,11029.937688104832,461.3400055575378,-55364.6675186953,-51518.58049852616,-31787.8015980484,-29105.61461515601,673.8827435830526,-19086.646328764717,0.0,0.0,0.0,193.0,1.0,155.0,0.0,44.0,3.0,251.0,411.0,44.0,1019.0,1744252943.562764,0.0,2025-04-09 22:42:23.562,BACKWARD,46
41.0,10969.565626331047,428.7288103972448,-55392.29427484206,-51569.743641584355,-31816.165961762188,-29128.882781133987,618.7633417562654,-19112.484945355052,0.0,0.0,0.0,193.0,1.0,155.0,0.0,44.0,3.0,251.0,411.0,44.0,1019.0,1744252943.5627725,0.0,2025-04-09 22:42:23.562,BACKWARD,46
42.0,11054.837531428044,433.02034533266374,-55376.49159151216,-51501.81669018468,-31849.715930189603,-29165.53964204069,681.3929297200358,-19136.31190494441,0.0,0.0,0.0,193.0,1.0,155.0,0.0,44.0,3.0,252.0,411.0,44.0,1020.0,1744252943.5627813,0.0,2025-04-09 22:42:23.562,BACKWARD,46
43.0,11079.044470673141,440.35171751400446,-55376.312777556515,-51575.756260842834,-31811.159171004198,-29111.493123947756,560.0006055832631,-19092.390727089733,0.0,0.0,0.0,193.0,1.0,154.0,0.0,44.0,3.0,250.0,410.0,44.0,1018.0,1744252943.56279,0.0,2025-04-09 22:42:23.562,BACKWARD,46
44.0,11034.631554440446,456.73554619974453,-55358.00669884762,-51511.942030422935,-31787.041638736922,-29101.054859287127,673.4133569494912,-19076.453933293098,0.0,0.0,0.0,193.0,1.0,154.0,0.0,44.0,3.0,250.0,410.0,44.0,1018.0,1744252943.5627987,0.0,2025-04-09 22:42:23.562,BACKWARD,46
45.0,10965.274091395628,429.30995575308276,-55401.749062746654,-51580.60658938964,-31820.703365886617,-29135.990635870774,603.0724171486398,-19121.49269837054,0.0,0.0,0.0,193.0,1.0,154.0,0.0,44.0,3.0,249.0,410.0,44.0,1017.0,1744252943.562807,0.0,2025-04-09 22:42:23.562,BACKWARD,46
46.0,11030.161205549384,433.71324941077825,-55374.59169323346,-51495.26762905927,-31847.525459232984,-29161.941011183386,675.2014965059158,-19139.463500912607,0.0,0.0,0.0,193.0,1.0,154.0,0.0,44.0,3.0,249.0,410.0,44.0,1017.0,1744252943.5628223,0.0,2025-04-09 22:42:23.562,BACKWARD,46
47.0,11082.553694552624,444.82206640506587,-55383.06300438202,-51564.62509210409,-31828.48177295706,-29120.09854556305,546.5672071656236,-19121.157422203712,0.0,0.0,0.0,193.0,1.0,155.0,0.0,44.0,3.0,252.0,411.0,44.0,1020.0,1744252943.5628312,0.0,2025-04-09 22:42:23.562,BACKWARD,46
48.0,11041.560595221592,454.99211013223055,-55355.52565521308,-51503.895402419024,-31790.550862616405,-29092.181216738372,642.6350048345333,-19085.43933456413,0.0,0.0,0.0,193.0,1.0,155.0,0.0,44.0,3.0,252.0,411.0,44.0,1020.0,1744252943.5628395,0.0,2025-04-09 22:42:23.562,BACKWARD,46
49.0,10982.619045092946,440.8658076364765,-55390.997873663655,-51563.663967092514,-31802.665508111182,-29110.844923358552,635.549501842201,-19091.608416033796,0.0,0.0,0.0,193.0,1.0,155.0,0.0,44.0,3.0,251.0,411.0,44.0,1019.0,1744252943.5628483,0.0,2025-04-09 22:42:23.562,BACKWARD,46
50.0,11012.771548363156,424.6384411619236,-55376.53629500107,-51501.39200704003,-31837.310712016908,-29146.026569131205,682.0411303092397,-19116.59766633483,0.0,0.0,0.0,193.0,1.0,155.0,0.0,44.0,3.0,252.0,411.0,44.0,1020.0,1744252943.5628572,0.0,2025-04-09 22:42:23.562,BACKWARD,46
51.0,11095.42829935888,447.12429608396246,-55380.06787062501,-51545.33553663916,-31827.47594445657,-29121.171429296905,591.2706960762378,-19112.037910465948,0.0,0.0,0.0,193.0,1.0,155.0,0.0,44.0,3.0,252.0,411.0,44.0,1020.0,1744252943.5628705,0.0,2025-04-09 22:42:23.562,BACKWARD,46
52.0,11052.580005238058,456.04264212163,-55346.47319870868,-51501.19084133993,-31780.716095056072,-29082.122931733484,638.2764146657485,-19079.33730832783,0.0,0.0,0.0,193.0,1.0,155.0,0.0,44.0,3.0,252.0,411.0,44.0,1020.0,1744252943.562879,0.0,2025-04-09 22:42:23.562,BACKWARD,46
53.0,10982.239065437207,442.58689195953514,-55398.39630107836,-51557.40547864503,-31814.556636161404,-29119.875028118495,633.0684582076619,-19114.228381422567,0.0,0.0,0.0,193.0,1.0,154.0,0.0,44.0,3.0,250.0,410.0,44.0,1018.0,1744252943.8690748,0.0,2025-04-09 22:42:23.869,BACKWARD,46
54.0,10978.729841557722,412.52379566714717,-55397.03284466659,-51528.95170795342,-31853.694540702647,-29156.956572169853,638.4105251324803,-19137.54125088945,0.0,0.0,0.0,193.0,1.0,154.0,0.0,44.0,3.0,250.0,410.0,44.0,1018.0,1744252943.8691103,0.0,2025-04-09 22:42:23.869,BACKWARD,46
55.0,11081.257293374216,437.9600808572866,-55395.758795232636,-51539.3676208696,-31854.476851758584,-29146.94299065387,602.0889403926063,-19139.329390445877,0.0,0.0,0.0,193.0,1.0,154.0,0.0,44.0,3.0,248.0,410.0,44.0,1016.0,1744252943.8691304,0.0,2025-04-09 22:42:23.869,BACKWARD,46
56.0,11064.42642979937,460.0212526346747,-55347.54608244254,-51506.71172222039,-31777.34098164332,-29066.253193170214,614.9411934544079,-19062.72996219754,0.0,0.0,0.0,193.0,1.0,154.0,0.0,44.0,3.0,251.0,410.0,44.0,1019.0,1744252943.8691535,0.0,2025-04-09 22:42:23.869,BACKWARD,46
57.0,11003.160298247374,456.333214799549,-55389.83558295198,-51531.097475421135,-31804.05131626741,-29098.797333097144,651.8886270390304,-19088.367413087777,0.0,0.0,0.0,193.0,1.0,154.0,0.0,44.0,3.0,250.0,410.0,44.0,1018.0,1744252943.869171,0.0,2025-04-09 22:42:23.869,BACKWARD,46
58.0,10980.02624273613,426.73950514072243,-55394.59650452096,-51531.991545199344,-31835.567275949394,-29134.85069690355,623.2560423917821,-19131.461576397607,0.0,0.0,0.0,193.0,1.0,154.0,0.0,44.0,3.0,249.0,410.0,44.0,1017.0,1744252943.8691802,0.0,2025-04-09 22:42:23.869,BACKWARD,46
59.0,11081.05612767412,443.5033134822027,-55393.233048109185,-51513.908983935,-31859.327180305387,-29152.24035408978,629.872158750553,-19146.75016960504,0.0,0.0,0.0,193.0,1.0,155.0,0.0,44.0,3.0,252.0,411.0,44.0,1020.0,1744252943.8691895,0.0,2025-04-09 22:42:23.869,BACKWARD,46
60.0,11065.074630388573,451.1252583414624,-55361.60532970492,-51534.383181856065,-31790.684973083138,-29084.08988524555,579.9383616373971,-19091.653119522707,0.0,0.0,0.0,193.0,1.0,155.0,0.0,44.0,3.0,252.0,411.0,44.0,1020.0,1744252943.8691983,0.0,2025-04-09 22:42:23.869,BACKWARD,46
61.0,11011.944533818309,458.07665086706294,-55382.01247239262,-51524.25784161781,-31797.636365608738,-29104.63113839998,661.8798568105527,-19101.3090731274,0.0,0.0,0.0,193.0,1.0,155.0,0.0,44.0,3.0,251.0,411.0,44.0,1019.0,1744252943.8692076,0.0,2025-04-09 22:42:23.869,BACKWARD,46
62.0,10972.516056599148,428.1700167858621,-55393.18834462027,-51547.97304248489,-31825.129011288765,-29124.412432242923,607.4086555729695,-19121.470346626087,0.0,0.0,0.0,193.0,1.0,155.0,0.0,44.0,3.0,251.0,411.0,44.0,1019.0,1744252943.8692164,0.0,2025-04-09 22:42:23.869,BACKWARD,46
63.0,11062.504179776213,431.6792406653453,-55388.762699218125,-51501.07908261765,-31861.987037895567,-29155.682522735897,647.8206095481646,-19138.860003812315,0.0,0.0,0.0,193.0,1.0,154.0,0.0,44.0,3.0,252.0,410.0,44.0,1020.0,1744252943.8692253,0.0,2025-04-09 22:42:23.869,BACKWARD,46
64.0,11070.126124635473,441.29049078112735,-55373.63056822188,-51557.87486527859,-31803.559577889395,-29092.740010349753,548.5788641666012,-19093.195389890123,0.0,0.0,0.0,193.0,1.0,154.0,0.0,44.0,3.0,251.0,410.0,44.0,1019.0,1744252943.869234,0.0,2025-04-09 22:42:23.869,BACKWARD,46
65.0,11031.770531150167,465.67624398186734,-55362.72291692769,-51508.76808271028,-31784.404132891195,-29093.32115570559,669.0547667807064,-19092.793058489926,0.0,0.0,0.0,193.0,1.0,154.0,0.0,44.0,3.0,250.0,410.0,44.0,1018.0,1744252943.86925,0.0,2025-04-09 22:42:23.869,BACKWARD,46
66.0,10971.890207754399,434.78613314463297,-55391.02022540811,-51565.67562409349,-31813.975490805566,-29123.630121186987,601.6866089924108,-19128.22057345159,0.0,0.0,0.0,193.0,1.0,153.0,0.0,44.0,3.0,249.0,409.0,44.0,1017.0,1744252943.869339,0.0,2025-04-09 22:42:23.869,BACKWARD,46
67.0,11049.696630203323,438.11654306847373,-55377.698585712744,-51495.73701569284,-31852.934581391168,-29158.945877426373,664.4056039340024,-19148.35949520582,0.0,0.0,0.0,193.0,1.0,154.0,0.0,44.0,3.0,249.0,410.0,44.0,1017.0,1744252943.8693483,0.0,2025-04-09 22:42:23.869,BACKWARD,46
68.0,11084.095964920041,454.61213047649034,-55375.01637637811,-51568.38018517258,-31807.471133169074,-29103.446495943845,546.1648757654281,-19119.346930902833,0.0,0.0,0.0,193.0,1.0,154.0,0.0,44.0,3.0,249.0,410.0,44.0,1017.0,1744252943.8693576,0.0,2025-04-09 22:42:23.869,BACKWARD,46
69.0,11039.772455665166,468.2913980831383,-55355.07862032398,-51505.10239661961,-31782.370124145764,-29087.42029516939,665.5231911567678,-19092.97187244557,0.0,0.0,0.0,193.0,1.0,154.0,0.0,44.0,3.0,252.0,410.0,44.0,1020.0,1744252943.8693664,0.0,2025-04-09 22:42:23.869,BACKWARD,46
70.0,10974.661824066858,442.63159544844575,-55399.26801911212,-51575.912723054025,-31819.518723430483,-29114.510609449222,589.2143355863495,-19126.07480598388,0.0,0.0,0.0,193.0,1.0,154.0,0.0,44.0,3.0,252.0,410.0,44.0,1020.0,1744252943.8693757,0.0,2025-04-09 22:42:23.869,BACKWARD,46
71.0,11034.765664907178,436.50721746769165,-55379.64318748036,-51500.2073645839,-31853.672188958193,-29151.502746522758,655.2413887073266,-19147.30896321642,0.0,0.0,0.0,193.0,1.0,154.0,0.0,44.0,3.0,249.0,410.0,44.0,1017.0,1744252943.8693945,0.0,2025-04-09 22:42:23.869,BACKWARD,46
72.0,11087.314616121605,447.72779318425575,-55390.59554226346,-51571.844705563155,-31829.15232529072,-29117.304577506136,557.296044504171,-19122.74439606004,0.0,0.0,0.0,193.0,1.0,154.0,0.0,44.0,3.0,252.0,410.0,44.0,1020.0,1744252943.8694036,0.0,2025-04-09 22:42:23.869,BACKWARD,46
73.0,11043.95223187831,461.89879916892045,-55358.7666581591,-51508.83513794364,-31786.39343814772,-29085.52039689069,652.1791997169495,-19089.485000310542,0.0,0.0,0.0,193.0,1.0,154.0,0.0,44.0,3.0,250.0,410.0,44.0,1018.0,1744252943.8694124,0.0,2025-04-09 22:42:23.869,BACKWARD,46
74.0,10986.910580028365,455.4838485102473,-55393.523620787106,-51564.088650237165,-31806.442952924128,-29107.648623901445,620.260908634771,-19116.64236982374,0.0,0.0,0.0,193.0,1.0,155.0,0.0,44.0,3.0,251.0,411.0,44.0,1019.0,1744252943.8694212,0.0,2025-04-09 22:42:23.869,BACKWARD,46
75.0,11008.994103550209,434.8755401224542,-55379.28555956907,-51505.84000418663,-31841.892819630248,-29146.786528442688,660.1364207430388,-19140.78225383547,0.0,0.0,0.0,193.0,1.0,155.0,0.0,44.0,3.0,252.0,411.0,44.0,1020.0,1744252943.8694303,0.0,2025-04-09 22:42:23.869,BACKWARD,46
76.0,11090.19799115634,447.34781352851553,-55386.99691140615,-51550.1188099526,-31838.473002728584,-29126.401737499447,581.5029837492685,-19127.661779840208,0.0,0.0,0.0,193.0,1.0,154.0,0.0,44.0,3.0,250.0,410.0,44.0,1018.0,1744252943.8694394,0.0,2025-04-09 22:42:23.869,BACKWARD,46
77.0,11056.178636095363,459.97654914576407,-55349.267166765596,-51509.63980074404,-31784.180615446643,-29075.886795030452,618.8974522229972,-19081.416020562177,0.0,0.0,0.0,193.0,1.0,154.0,0.0,44.0,3.0,249.0,410.0,44.0,1017.0,1744252943.8694484,0.0,2025-04-09 22:42:23.869,BACKWARD,46
78.0,10996.633588866423,456.6684909663786,-55391.690777741765,-51551.79519078675,-31812.902607071712,-29106.46398144531,611.7225422528437,-19120.486869870052,0.0,0.0,0.0,193.0,1.0,154.0,0.0,44.0,3.0,249.0,410.0,44.0,1017.0,1744252943.869457,0.0,2025-04-09 22:42:23.869,BACKWARD,46
79.0,10986.21767595025,420.34690622650464,-55391.78018471959,-51528.012934686296,-31846.34081677685,-29146.428900531402,625.6253273040447,-19148.717123117105,0.0,0.0,0.0,193.0,1.0,154.0,0.0,44.0,3.0,249.0,410.0,44.0,1017.0,1744252943.8694658,0.0,2025-04-09 22:42:23.869,BACKWARD,46
80.0,11092.05318594613,443.9950518602195,-55388.8744579404,-51530.35986785411,-31845.469098743095,-29135.633007959488,615.9917254438074,-19129.40521590772,0.0,0.0,0.0,193.0,1.0,154.0,0.0,44.0,3.0,252.0,410.0,44.0,1020.0,1744252943.869481,0.0,2025-04-09 22:42:23.869,BACKWARD,46
81.0,11070.729621735767,461.63057823545677,-55348.216634776196,-51512.992562412335,-31777.0504089654,-29067.147262948427,613.5106818092682,-19069.524892511952,0.0,0.0,0.0,193.0,1.0,155.0,0.0,44.0,3.0,252.0,411.0,44.0,1020.0,1744252943.8694975,0.0,2025-04-09 22:42:23.869,BACKWARD,46
82.0,11011.139871017918,465.5868370040461,-55379.08439386897,-51523.743751495334,-31794.48476964054,-29089.364896937,666.2831504682482,-19087.428639820653,0.0,0.0,0.0,193.0,1.0,154.0,0.0,44.0,3.0,252.0,410.0,44.0,1020.0,1744252943.8695064,0.0,2025-04-09 22:42:23.869,BACKWARD,46
83.0,10970.88437925391,421.97858357174204,-55398.41865282282,-51542.25099590433,-31839.523534717984,-29136.43767075988,625.3124028816704,-19144.894974815248,0.0,0.0,0.0,193.0,1.0,155.0,0.0,44.0,3.0,252.0,411.0,44.0,1020.0,1744252943.869515,0.0,2025-04-09 22:42:23.869,BACKWARD,46
84.0,11077.166924138895,442.721002426267,-55388.20390560674,-51509.77391121077,-31855.43797677016,-29145.601885986554,647.2171124478713,-19149.767655106505,0.0,0.0,0.0,193.0,1.0,155.0,0.0,44.0,3.0,252.0,411.0,44.0,1020.0,1744252943.8695235,0.0,2025-04-09 22:42:23.869,BACKWARD,46
85.0,11062.794752454132,445.44791524981446,-55369.67430945329,-51541.75925752631,-31800.184464476642,-29078.837225298554,574.4174807569362,-19093.508314312498,0.0,0.0,0.0,193.0,1.0,155.0,0.0,44.0,3.0,252.0,411.0,44.0,1020.0,1744252943.8695323,0.0,2025-04-09 22:42:23.869,BACKWARD,46
86.0,11020.32643798905,464.4916015257361,-55376.648053723344,-51513.64076300154,-31797.502255142008,-29083.28522244516,658.8623713090863,-19087.92037819867,0.0,0.0,0.0,193.0,1.0,155.0,0.0,44.0,3.0,251.0,411.0,44.0,1019.0,1744252943.869541,0.0,2025-04-09 22:42:23.869,BACKWARD,46
87.0,10966.145809429385,425.0184208176638,-55400.6761790128,-51556.98079550038,-31834.807316637914,-29122.53488570868,596.679818234422,-19132.579163620372,0.0,0.0,0.0,193.0,1.0,155.0,0.0,44.0,3.0,251.0,411.0,44.0,1019.0,1744252943.8695495,0.0,2025-04-09 22:42:23.869,BACKWARD,46
88.0,11064.627595499469,437.2671767791721,-55386.43811779477,-51501.97315239587,-31860.712988461615,-29156.554240769656,656.1354584855388,-19163.0222395685,0.0,0.0,0.0,193.0,1.0,155.0,0.0,44.0,3.0,252.0,411.0,44.0,1020.0,1744252943.8695583,0.0,2025-04-09 22:42:23.869,BACKWARD,46
89.0,11080.162057895906,450.4100025188926,-55370.076640853484,-51556.69022282246,-31800.54209238793,-29086.95090853583,560.5370474501905,-19106.092346440833,0.0,0.0,0.0,193.0,1.0,155.0,0.0,44.0,3.0,251.0,411.0,44.0,1019.0,1744252943.869567,0.0,2025-04-09 22:42:23.869,BACKWARD,46
90.0,11032.776359650656,467.03970039364106,-55364.93573962877,-51504.34243730813,-31788.38274340424,-29082.949946278328,672.1840110044493,-19083.29356709642,0.0,0.0,0.0,193.0,1.0,155.0,0.0,44.0,3.0,253.0,411.0,44.0,1021.0,1744252943.869583,0.0,2025-04-09 22:42:23.869,BACKWARD,46
91.0,10973.45482986627,439.16707505787315,-55395.57998127699,-51559.30537692373,-31814.847208839325,-29107.84978960154,609.4650160628577,-19110.897971498725,0.0,0.0,0.0,193.0,1.0,155.0,0.0,44.0,3.0,252.0,411.0,44.0,1020.0,1744252943.8695917,0.0,2025-04-09 22:42:23.869,BACKWARD,46
92.0,11058.547921007625,450.92409264136467,-55370.25545480913,-51479.55435270719,-31839.076499828876,-29144.819574930618,683.0693105541839,-19144.98438179307,0.0,0.0,0.0,193.0,1.0,155.0,0.0,44.0,3.0,253.0,411.0,44.0,1021.0,1744252943.8696003,0.0,2025-04-09 22:42:23.869,BACKWARD,46
93.0,11089.57214231159,458.50133401171377,-55375.21754207821,-51557.11490596711,-31808.186388991642,-29100.183141253372,565.7673556527324,-19114.74247154504,0.0,0.0,0.0,193.0,1.0,155.0,0.0,44.0,3.0,250.0,411.0,44.0,1018.0,1744252943.869609,0.0,2025-04-09 22:42:23.869,BACKWARD,46
94.0,11039.012496353685,467.2408660937388,-55356.24091103565,-51499.425053527964,-31782.772455545957,-29082.65937360041,683.2704762542816,-19077.12448562676,0.0,0.0,0.0,193.0,1.0,155.0,0.0,44.0,3.0,250.0,411.0,44.0,1018.0,1744252943.869618,0.0,2025-04-09 22:42:23.869,BACKWARD,46
95.0,10973.946568244288,446.76666817267756,-55393.25539985364,-51562.81460080321,-31807.135857002242,-29104.407620955422,628.9557372278855,-19094.49179106853,0.0,0.0,0.0,193.0,1.0,154.0,0.0,44.0,3.0,250.0,410.0,44.0,1018.0,1744252943.8696268,0.0,2025-04-09 22:42:23.869,BACKWARD,46
96.0,11023.053350812597,434.4732087222587,-55375.418707778306,-51494.306504047694,-31843.010406853013,-29149.155813354948,681.0353018087509,-19131.573335119883,0.0,0.0,0.0,193.0,1.0,154.0,0.0,44.0,3.0,252.0,410.0,44.0,1020.0,1744252943.86964,0.0,2025-04-09 22:42:23.869,BACKWARD,46
97.0,11089.773308011689,451.97462463076414,-55378.81617293551,-51559.01480424581,-31820.09986878632,-29111.38136522548,570.7964981551764,-19119.2128204361,0.0,0.0,0.0,193.0,1.0,155.0,0.0,44.0,3.0,252.0,411.0,44.0,1020.0,1744252943.869649,0.0,2025-04-09 22:42:23.869,BACKWARD,46
98.0,11050.836569170544,469.9677789172863,-55339.34299222744,-51496.6534372155,-31769.562574572872,-29071.70701881731,661.8575050660975,-19079.33730832783,0.0,0.0,0.0,193.0,1.0,154.0,0.0,44.0,3.0,250.0,410.0,44.0,1018.0,1744252943.8696575,0.0,2025-04-09 22:42:23.869,BACKWARD,46
99.0,10984.965978260754,455.9085316548982,-55382.92889391529,-51555.10324896613,-31796.563481874884,-29103.04416454365,640.0869059666284,-19112.127317443767,0.0,0.0,0.0,193.0,1.0,154.0,0.0,44.0,3.0,250.0,410.0,44.0,1018.0,1744252943.8696663,0.0,2025-04-09 22:42:23.869,BACKWARD,46
100.0,11006.378949448937,435.2108162892838,-55370.233103064675,-51504.185975096945,-31829.0629183129,-29137.33174053809,680.1188802860833,-19129.69578858564,0.0,0.0,0.0,193.0,1.0,154.0,0.0,44.0,3.0,252.0,410.0,44.0,1020.0,1744252943.8696747,0.0,2025-04-09 22:42:23.869,BACKWARD,46
101.0,11093.751918524733,454.9027031544093,-55376.53629500107,-51542.94389998244,-31826.82774386737,-29121.797278141654,613.9577166983744,-19127.08063448437,0.0,0.0,0.0,193.0,1.0,154.0,0.0,44.0,3.0,252.0,410.0,44.0,1020.0,1744252943.8696835,0.0,2025-04-09 22:42:23.869,BACKWARD,46
102.0,11057.005650640209,466.63736899344553,-55342.98632657366,-51510.757387966805,-31775.172862431154,-29077.339658420045,638.5446355992121,-19100.72792777156,0.0,0.0,0.0,193.0,1.0,155.0,0.0,44.0,3.0,252.0,411.0,44.0,1020.0,1744252943.869692,0.0,2025-04-09 22:42:23.869,BACKWARD,46
103.0,11005.730748859734,473.6781684968673,-55370.81424842051,-51534.98667895635,-31787.846301537313,-29090.728353348775,662.0363190217399,-19101.934921972148,0.0,0.0,0.0,193.0,1.0,155.0,0.0,44.0,3.0,252.0,411.0,44.0,1020.0,1744252943.8697484,0.0,2025-04-09 22:42:23.869,BACKWARD,46
104.0,10994.55487663208,443.1456855709178,-55367.90852164132,-51512.43376880095,-31819.608130408305,-29123.96539735382,670.6417406370331,-19114.1613261892,0.0,0.0,0.0,193.0,1.0,154.0,0.0,44.0,3.0,249.0,410.0,44.0,1017.0,1744252943.8697572,0.0,2025-04-09 22:42:23.869,BACKWARD,46
105.0,11092.164944668406,457.2496363222166,-55376.804515934535,-51518.24522235933,-31843.09981383083,-29134.738938181275,635.549501842201,-19132.489756642553,0.0,0.0,0.0,193.0,1.0,154.0,0.0,44.0,3.0,250.0,410.0,44.0,1018.0,1744252943.869773,0.0,2025-04-09 22:42:23.869,BACKWARD,46
106.0,11068.315633334594,464.5139532701914,-55348.03782082055,-51520.68156250496,-31781.744275301015,-29076.75851306421,615.6564492769777,-19090.960215444593,0.0,0.0,0.0,193.0,1.0,154.0,0.0,44.0,3.0,249.0,410.0,44.0,1017.0,1744252943.8697815,0.0,2025-04-09 22:42:23.869,BACKWARD,46
107.0,11021.46637695627,479.35551158851524,-55365.98627161817,-51517.57467002567,-31787.8015980484,-29089.65546961492,680.8788395975638,-19095.564674802386,0.0,0.0,0.0,193.0,1.0,154.0,0.0,44.0,3.0,250.0,410.0,44.0,1018.0,1744252943.8697903,0.0,2025-04-09 22:42:23.869,BACKWARD,46
108.0,10980.98736774771,439.2564820356944,-55378.14562060185,-51532.080952177166,-31821.128049031267,-29123.674824675898,645.4960281248127,-19122.945561760138,0.0,0.0,0.0,193.0,1.0,154.0,0.0,44.0,3.0,250.0,410.0,44.0,1018.0,1744252943.869799,0.0,2025-04-09 22:42:23.869,BACKWARD,46
109.0,11081.726680007778,449.53828448513565,-55377.81034443502,-51501.5037657623,-31850.87822090128,-29144.372540041513,667.1548685020052,-19134.903745043724,0.0,0.0,0.0,193.0,1.0,154.0,0.0,44.0,3.0,250.0,410.0,44.0,1018.0,1744252943.8698075,0.0,2025-04-09 22:42:23.869,BACKWARD,46
110.0,11078.686842761856,465.1174503704847,-55352.03878307805,-51532.30446962172,-31786.751066059005,-29076.378533408468,587.4932512632909,-19092.10015441181,0.0,0.0,0.0,193.0,1.0,154.0,0.0,44.0,3.0,250.0,410.0,44.0,1018.0,1744252943.869816,0.0,2025-04-09 22:42:23.869,BACKWARD,46
111.0,11026.741388647722,472.7393952297444,-55366.165085573804,-51508.34339956563,-31791.48963588353,-29093.99170803925,684.9915605773402,-19099.431526593155,0.0,0.0,0.0,193.0,1.0,154.0,0.0,44.0,3.0,249.0,410.0,44.0,1017.0,1744252943.8698328,0.0,2025-04-09 22:42:23.869,BACKWARD,46
112.0,10973.499533355181,435.8143133895771,-55388.06979514001,-51550.25292041933,-31823.497333943527,-29112.18602802587,631.9732227293518,-19110.696805798627,0.0,0.0,0.0,193.0,1.0,154.0,0.0,44.0,3.0,250.0,410.0,44.0,1018.0,1744252943.8698413,0.0,2025-04-09 22:42:23.869,BACKWARD,46
113.0,11066.035755400153,441.29049078112735,-55374.25641706663,-51491.08785284613,-31854.789776180958,-29148.261743576735,682.644627409533,-19138.480024156575,0.0,0.0,0.0,193.0,1.0,154.0,0.0,44.0,3.0,249.0,410.0,44.0,1017.0,1744252943.86985,0.0,2025-04-09 22:42:23.869,BACKWARD,46
114.0,11078.038642172653,447.5713309730686,-55368.53437048607,-51557.360775156114,-31804.408944178696,-29093.90230106143,567.197867297872,-19105.086517940344,0.0,0.0,0.0,193.0,1.0,153.0,0.0,44.0,3.0,249.0,409.0,44.0,1017.0,1744252943.8698587,0.0,2025-04-09 22:42:23.869,BACKWARD,46
115.0,11035.413865496383,467.06205213809636,-55355.79387614654,-51498.46392851638,-31784.493539869018,-29085.69921084633,684.4104152215023,-19089.149724143714,0.0,0.0,0.0,193.0,1.0,154.0,0.0,44.0,3.0,250.0,410.0,44.0,1018.0,1744252943.8698745,0.0,2025-04-09 22:42:23.869,BACKWARD,46
116.0,10979.489800869203,444.1962175603173,-55384.31470207152,-51555.88556002207,-31810.466266926083,-29110.4202402139,618.5398243117123,-19124.063148982903,0.0,0.0,0.0,193.0,1.0,153.0,0.0,44.0,3.0,250.0,409.0,44.0,1018.0,1744252943.8698833,0.0,2025-04-09 22:42:23.869,BACKWARD,46
117.0,11049.42840926986,442.4974849817139,-55367.86381815241,-51482.795355653216,-31850.475889501085,-29154.96726691333,676.2743802397705,-19162.195225023654,0.0,0.0,0.0,193.0,1.0,154.0,0.0,44.0,3.0,251.0,410.0,44.0,1019.0,1744252943.8698916,0.0,2025-04-09 22:42:23.869,BACKWARD,46
118.0,11088.543962066648,449.6276914629569,-55376.938626401265,-51561.54055136926,-31821.329214731362,-29115.114106549518,558.5924456825788,-19134.79198632145,0.0,0.0,0.0,193.0,1.0,154.0,0.0,44.0,3.0,252.0,410.0,44.0,1020.0,1744252943.8699005,0.0,2025-04-09 22:42:23.869,BACKWARD,46
119.0,11043.438141755836,462.59170324703496,-55355.57035870199,-51500.09560586162,-31792.473112639564,-29093.924652805887,670.5746854036672,-19098.224532392567,0.0,0.0,0.0,193.0,1.0,154.0,0.0,44.0,3.0,249.0,410.0,44.0,1017.0,1744252943.8699093,0.0,2025-04-09 22:42:23.869,BACKWARD,46
120.0,10980.69679506979,446.94548212832,-55393.098937642455,-51562.36756591411,-31818.892874585734,-29111.515475692213,617.8245684891425,-19113.289608155443,0.0,0.0,0.0,193.0,1.0,154.0,0.0,44.0,3.0,250.0,410.0,44.0,1018.0,1744252943.8699176,0.0,2025-04-09 22:42:23.869,BACKWARD,46
121.0,11040.286545787638,454.72388919876687,-55354.87745462388,-51474.1005270601,-31831.96864509209,-29133.509592236234,698.6261246950776,-19126.991227506547,0.0,0.0,0.0,193.0,1.0,154.0,0.0,44.0,3.0,251.0,410.0,44.0,1019.0,1744252943.8699262,0.0,2025-04-09 22:42:23.869,BACKWARD,46
122.0,11098.848116260544,458.9483689008199,-55376.26807406761,-51545.67081280599,-31833.9132468597,-29121.797278141654,581.6370942160004,-19152.203995252134,0.0,0.0,0.0,193.0,1.0,155.0,0.0,44.0,3.0,251.0,411.0,44.0,1019.0,1744252943.869935,0.0,2025-04-09 22:42:23.869,BACKWARD,46
123.0,11055.66454597289,468.80548820561035,-55345.5120736971,-51496.966361637875,-31786.415789892173,-29085.408638168414,658.3706329310695,-19101.465535338586,0.0,0.0,0.0,193.0,1.0,155.0,0.0,44.0,3.0,252.0,411.0,44.0,1020.0,1744252943.8699436,0.0,2025-04-09 22:42:23.869,BACKWARD,46
124.0,10993.549048131592,459.5295142566579,-55380.76077470312,-51545.38024012807,-31805.168903490176,-29098.886740074962,653.8555805510975,-19095.274102124466,0.0,0.0,0.0,193.0,1.0,154.0,0.0,44.0,3.0,250.0,410.0,44.0,1018.0,1744252943.8699524,0.0,2025-04-09 22:42:23.869,BACKWARD,46
125.0,10999.449908667793,428.32647899704926,-55375.97750138969,-51504.07421637466,-31847.8160319109,-29138.53873473868,671.0887755261392,-19120.196297192135,0.0,0.0,0.0,193.0,1.0,154.0,0.0,45.0,3.0,249.0,410.0,45.0,1017.0,1744252943.8699608,0.0,2025-04-09 22:42:23.869,BACKWARD,46
126.0,11088.454555088825,442.8551128929988,-55384.426460793795,-51540.529911581274,-31850.87822090128,-29131.497935235257,610.1802718854275,-19124.197259449633,0.0,0.0,0.0,193.0,1.0,154.0,0.0,44.0,3.0,249.0,410.0,44.0,1017.0,1744252943.8699749,0.0,2025-04-09 22:42:23.869,BACKWARD,46
127.0,11059.531397763658,458.2778165671607,-55341.33229748396,-51508.790434454735,-31785.56642360287,-29074.27746942967,638.5669873436675,-19078.130314127244,0.0,0.0,0.0,193.0,1.0,154.0,0.0,44.0,3.0,250.0,410.0,44.0,1018.0,1744252943.8699834,0.0,2025-04-09 22:42:23.869,BACKWARD,46
128.0,11011.050464040098,467.35262481601535,-55370.68013795378,-51530.5610335542,-31801.033830765944,-29090.326021948582,664.7855835897427,-19101.59964580532,0.0,0.0,0.0,193.0,1.0,154.0,0.0,44.0,3.0,250.0,410.0,44.0,1018.0,1744252943.869992,0.0,2025-04-09 22:42:23.869,BACKWARD,46
129.0,10996.588885377514,439.43529599133683,-55369.115515841906,-51512.076140889665,-31832.549790447927,-29118.8244961291,653.8108770621869,-19131.394521164242,0.0,0.0,0.0,193.0,1.0,154.0,0.0,44.0,3.0,250.0,410.0,44.0,1018.0,1744252943.8700004,0.0,2025-04-09 22:42:23.870,BACKWARD,46
130.0,11090.91324697891,447.79484841762167,-55376.13396360087,-51514.42307405747,-31852.845174413345,-29135.521249237212,645.4289728914467,-19146.146672504747,0.0,0.0,0.0,193.0,1.0,154.0,0.0,44.0,3.0,249.0,410.0,44.0,1017.0,1744252944.177085,0.0,2025-04-09 22:42:24.177,BACKWARD,46
131.0,11071.221360113783,459.685976467845,-55337.24192824864,-51518.69225724843,-31778.86090026628,-29061.671085556878,619.1656731564609,-19076.185712359635,0.0,0.0,0.0,193.0,1.0,153.0,0.0,44.0,3.0,249.0,409.0,44.0,1017.0,1744252944.1771212,0.0,2025-04-09 22:42:24.177,BACKWARD,46
132.0,11021.064045556075,471.2641800956941,-55356.799704647034,-51513.79722521272,-31786.684010825637,-29074.545690363135,692.3005810142256,-19073.57055825836,0.0,0.0,0.0,193.0,1.0,154.0,0.0,44.0,3.0,250.0,410.0,44.0,1018.0,1744252944.1771412,0.0,2025-04-09 22:42:24.177,BACKWARD,46
133.0,10977.03110897912,431.9027581098984,-55372.22240832119,-51538.40649585802,-31822.089174042845,-29111.828400114588,646.2336356918378,-19117.78230879096,0.0,0.0,0.0,193.0,1.0,154.0,0.0,45.0,3.0,248.0,410.0,45.0,1016.0,1744252944.177162,0.0,2025-04-09 22:42:24.177,BACKWARD,46
134.0,11067.421563556381,435.1661128003732,-55375.84339092296,-51511.517347278284,-31859.573049494393,-29158.92352568192,661.5892841326338,-19171.426495483698,0.0,0.0,0.0,193.0,1.0,154.0,0.0,44.0,3.0,250.0,410.0,44.0,1018.0,1744252944.1771796,0.0,2025-04-09 22:42:24.177,BACKWARD,46
135.0,11063.9123396769,446.74431642822225,-55353.9163296123,-51554.1197722101,-31796.63053710825,-29086.66033585791,576.6526552024669,-19115.74830004553,0.0,0.0,0.0,193.0,1.0,154.0,0.0,44.0,3.0,250.0,410.0,44.0,1018.0,1744252944.1771889,0.0,2025-04-09 22:42:24.177,BACKWARD,46
136.0,11024.193289779818,467.64319749393434,-55348.03782082055,-51507.40462629851,-31779.7996735334,-29072.243460684236,700.7048369294212,-19067.58029074434,0.0,0.0,0.0,193.0,1.0,153.0,0.0,44.0,3.0,249.0,409.0,44.0,1017.0,1744252944.177198,0.0,2025-04-09 22:42:24.177,BACKWARD,46
137.0,10969.811495520056,430.8075226315883,-55378.50324851314,-51559.05950773472,-31819.138743774743,-29106.4192779564,634.9013012529971,-19099.655044037707,0.0,0.0,0.0,193.0,1.0,154.0,0.0,44.0,3.0,252.0,410.0,44.0,1020.0,1744252944.1772068,0.0,2025-04-09 22:42:24.177,BACKWARD,46
138.0,11062.526531520669,438.0494878351078,-55362.186475060764,-51495.938181392936,-31851.414662768206,-29147.72530170981,689.8418891241419,-19138.12239624529,0.0,0.0,0.0,193.0,1.0,155.0,0.0,44.0,3.0,252.0,411.0,44.0,1020.0,1744252944.1772158,0.0,2025-04-09 22:42:24.177,BACKWARD,46
139.0,11075.423488071381,440.3964210029151,-55359.16898955929,-51567.866095050114,-31805.43712442364,-29096.98684179626,572.8528586450647,-19110.249770909522,0.0,0.0,0.0,193.0,1.0,155.0,0.0,44.0,3.0,251.0,411.0,44.0,1019.0,1744252944.1772244,0.0,2025-04-09 22:42:24.177,BACKWARD,46
140.0,11031.211737538784,457.07082236657413,-55342.80751261801,-51507.67284723197,-31782.772455545957,-29087.08501900256,690.579496691167,-19093.083631167847,0.0,0.0,0.0,193.0,1.0,155.0,0.0,44.0,3.0,252.0,411.0,44.0,1020.0,1744252944.1772335,0.0,2025-04-09 22:42:24.177,BACKWARD,46
141.0,10970.593806575991,431.3439644985157,-55373.69762345524,-51569.98951077337,-31807.448781424617,-29113.66124315992,623.9489464698967,-19126.745358317537,0.0,0.0,0.0,193.0,1.0,155.0,0.0,44.0,3.0,252.0,411.0,44.0,1020.0,1744252944.1772628,0.0,2025-04-09 22:42:24.177,BACKWARD,46
142.0,11031.055275327597,421.33038298253814,-55361.135943071364,-51504.43184428595,-31846.40787201022,-29159.795243715675,688.7243019013765,-19156.36141972082,0.0,0.0,0.0,193.0,1.0,154.0,0.0,45.0,3.0,249.0,410.0,45.0,1017.0,1744252944.177272,0.0,2025-04-09 22:42:24.177,BACKWARD,46
143.0,11073.903569448421,430.1146185534738,-55372.110649598915,-51582.70765336844,-31821.86565659829,-29117.86337111752,563.3310155071039,-19129.53932637445,0.0,0.0,0.0,193.0,1.0,155.0,0.0,44.0,3.0,250.0,411.0,44.0,1018.0,1744252944.1772807,0.0,2025-04-09 22:42:24.177,BACKWARD,46
144.0,11043.929880133854,457.2943398111272,-55331.72104736818,-51504.47654777486,-31773.563536830374,-29078.07726598707,674.642702894533,-19082.62301476276,0.0,0.0,0.0,193.0,1.0,155.0,0.0,44.0,3.0,253.0,411.0,44.0,1021.0,1744252944.1772895,0.0,2025-04-09 22:42:24.177,BACKWARD,46
145.0,10987.067042239552,449.20300831830605,-55361.068887837995,-51558.634824590066,-31788.04746723741,-29095.444571428845,641.0927344671172,-19102.73958477254,0.0,0.0,0.0,193.0,1.0,155.0,0.0,44.0,3.0,252.0,411.0,44.0,1020.0,1744252944.1772988,0.0,2025-04-09 22:42:24.177,BACKWARD,46
146.0,11012.995065807709,421.71036263827835,-55358.29727152554,-51508.94689666592,-31839.992921351546,-29151.189822100383,666.6631301239885,-19155.109722031324,0.0,0.0,0.0,193.0,1.0,155.0,0.0,44.0,3.0,252.0,411.0,44.0,1020.0,1744252944.1773076,0.0,2025-04-09 22:42:24.177,BACKWARD,46
147.0,11081.838438730054,434.2720430221609,-55372.758850188126,-51573.521086397304,-31838.517706217495,-29137.555257982644,560.9617305948414,-19153.50039643054,0.0,0.0,0.0,193.0,1.0,154.0,0.0,44.0,3.0,249.0,410.0,44.0,1017.0,1744252944.1773164,0.0,2025-04-09 22:42:24.177,BACKWARD,46
148.0,11050.858920915,456.75789794419984,-55328.211823488695,-51515.4065508135,-31774.0999786973,-29084.782789323664,648.4241066484578,-19093.217741634577,0.0,0.0,0.0,193.0,1.0,155.0,0.0,44.0,3.0,252.0,411.0,44.0,1020.0,1744252944.1773252,0.0,2025-04-09 22:42:24.177,BACKWARD,46
149.0,10998.198210978295,458.9260171563646,-55361.73944017166,-51556.2208361889,-31789.612089349284,-29106.598091912045,649.7875630602316,-19116.12827970127,0.0,0.0,0.0,193.0,1.0,154.0,0.0,44.0,3.0,251.0,410.0,44.0,1019.0,1744252944.1773338,0.0,2025-04-09 22:42:24.177,BACKWARD,46
150.0,10995.806574321578,423.8784818504431,-55363.929911128274,-51524.12373115108,-31835.96960734959,-29159.638781504487,652.1344962280389,-19172.521730962006,0.0,0.0,0.0,193.0,1.0,155.0,0.0,44.0,3.0,252.0,411.0,44.0,1020.0,1744252944.1773427,0.0,2025-04-09 22:42:24.177,BACKWARD,46
151.0,11078.396270083937,429.8016941310995,-55381.565437503516,-51552.39868788704,-31854.052168613933,-29158.47649079281,599.5631932691566,-19165.235062269578,0.0,0.0,0.0,193.0,1.0,155.0,0.0,44.0,3.0,251.0,411.0,44.0,1019.0,1744252944.1773515,0.0,2025-04-09 22:42:24.177,BACKWARD,46
152.0,11054.703420961312,449.0241943626636,-55340.013544561094,-51521.19565262743,-31790.796731805414,-29091.108333004515,608.4815393068242,-19104.77359351797,0.0,0.0,0.0,193.0,1.0,155.0,0.0,44.0,3.0,251.0,411.0,44.0,1019.0,1744252944.17736,0.0,2025-04-09 22:42:24.177,BACKWARD,46
