Sample Index,EXG Channel 0,EXG Channel 1,EXG Channel 2,EXG Channel 3,EXG Channel 4,EXG Channel 5,EXG Channel 6,EXG Channel 7,Accel Channel 0,Accel Channel 1,Accel Channel 2,Not Used,Digital Channel 0 (D11),Digital Channel 1 (D12),Digital Channel 2 (D13),Digital Channel 3 (D17),Not Used,Digital Channel 4 (D18),Analog Channel 0,Analog Channel 1,Analog Channel 2,Timestamp,Marker Channel,Timestamp (Formatted),Stimulus_Direction,Stimulus_Number
71.0,17946.752065032968,24581.979165313147,-31522.776964041826,-19892.829047778734,-34847.46484130202,-26462.207908893575,-14173.33056608803,-32180.36528591696,0.0,0.0,0.0,193.0,0.0,194.0,0.0,1.0,0.0,180.0,194.0,1.0,180.0,1744420616.0647314,0.0,2025-04-11 21:16:56.064,BACKWARD,40
72.0,17961.101884973275,24570.11038900738,-31519.33479539571,-19904.876638040143,-34843.15095462215,-26451.076740154833,-14078.268596919608,-32207.343841474518,0.0,0.0,0.0,193.0,0.0,193.0,0.0,1.0,0.0,179.0,193.0,1.0,179.0,1744420616.0647793,0.0,2025-04-11 21:16:56.064,BACKWARD,40
73.0,17934.793881749378,24563.449569159697,-31511.735202280906,-19893.14197220111,-34833.94203590656,-26439.56559176035,-14409.767318936269,-32199.74424835971,0.0,0.0,0.0,193.0,0.0,193.0,0.0,1.0,0.0,179.0,193.0,1.0,179.0,1744420616.0648332,0.0,2025-04-11 21:16:56.064,BACKWARD,40
74.0,17923.618009521724,24571.183272741233,-31500.80519924226,-19884.08951569671,-34825.984814880474,-26435.318760313843,-14630.222574498961,-32207.790876363622,0.0,0.0,0.0,193.0,0.0,194.0,0.0,1.0,0.0,179.0,194.0,1.0,179.0,1744420616.0648785,0.0,2025-04-11 21:16:56.064,BACKWARD,40
75.0,17947.64613481118,24573.709019864684,-31506.393135356087,-19885.87765525313,-34835.41725104061,-26452.41784482215,-14265.82208464409,-32165.41196887636,0.0,0.0,0.0,193.0,0.0,193.0,0.0,1.0,0.0,179.0,193.0,1.0,179.0,1744420616.065004,0.0,2025-04-11 21:16:56.065,BACKWARD,40
76.0,17956.83270178231,24563.181348226233,-31512.42810635902,-19904.161382217575,-34839.79819295385,-26463.169033905153,-14041.164701123798,-32207.343841474518,0.0,0.0,0.0,193.0,0.0,193.0,0.0,1.0,0.0,179.0,193.0,1.0,179.0,1744420616.0650568,0.0,2025-04-11 21:16:56.065,BACKWARD,40
77.0,17936.06793118333,24565.43887441622,-31503.420353343532,-19892.8961030121,-34827.594140481255,-26446.85226045278,-14344.209652448852,-32200.593614649013,0.0,0.0,0.0,193.0,0.0,194.0,0.0,1.0,0.0,180.0,194.0,1.0,180.0,1744420616.0651104,0.0,2025-04-11 21:16:56.065,BACKWARD,40
78.0,17931.17289914762,24579.229900745144,-31491.41746657103,-19883.687184296512,-34813.84781764124,-26434.62585623573,-14608.250809699395,-32187.94252728731,0.0,0.0,0.0,193.0,0.0,193.0,0.0,1.0,0.0,179.0,193.0,1.0,179.0,1744420616.0651627,0.0,2025-04-11 21:16:56.065,BACKWARD,40
79.0,17955.625707581727,24578.872272833858,-31493.630289272107,-19885.31886164175,-34813.35607926322,-26445.75702497447,-14326.484719095793,-32145.295398866583,0.0,0.0,0.0,193.0,0.0,193.0,0.0,1.0,0.0,179.0,193.0,1.0,179.0,1744420616.0652153,0.0,2025-04-11 21:16:56.065,BACKWARD,40
80.0,17959.470207628037,24563.181348226233,-31513.90332149307,-19913.102079999695,-34833.249131828445,-26472.42265610965,-13981.306729472486,-32168.56356484456,0.0,0.0,0.0,193.0,0.0,193.0,0.0,1.0,0.0,179.0,193.0,1.0,179.0,1744420616.065345,0.0,2025-04-11 21:16:56.065,BACKWARD,40
81.0,17944.382780120704,24561.66142960327,-31508.941234223992,-19903.088498483718,-34828.86818991521,-26458.452815825083,-14270.225378301786,-32204.974556562254,0.0,0.0,0.0,193.0,0.0,193.0,0.0,1.0,0.0,179.0,193.0,1.0,179.0,1744420616.0654006,0.0,2025-04-11 21:16:56.065,BACKWARD,40
82.0,17930.435291580594,24575.87713907685,-31499.911129464046,-19889.006899476874,-34819.3686985217,-26441.241972594496,-14594.437431626015,-32187.8978237984,0.0,0.0,0.0,193.0,0.0,193.0,0.0,1.0,0.0,179.0,193.0,1.0,179.0,1744420616.06546,0.0,2025-04-11 21:16:56.065,BACKWARD,40
83.0,17941.342942874784,24578.604051900395,-31498.81589398574,-19882.815466262757,-34820.44158225555,-26445.33234182982,-14426.017037155276,-32152.51501232565,0.0,0.0,0.0,193.0,0.0,193.0,0.0,1.0,0.0,179.0,193.0,1.0,179.0,1744420616.0655093,0.0,2025-04-11 21:16:56.065,BACKWARD,40
84.0,17959.380800650215,24568.456359917684,-31516.451420360976,-19902.97673976144,-34848.24715235796,-26468.868728741258,-14001.557409948995,-32160.06990195154,0.0,0.0,0.0,193.0,0.0,193.0,0.0,1.0,0.0,179.0,193.0,1.0,179.0,1744420616.06556,0.0,2025-04-11 21:16:56.065,BACKWARD,40
85.0,17944.11455918724,24552.117234720856,-31515.155019182566,-19907.402385163594,-34842.39099531066,-26465.38185660623,-14213.228429940753,-32209.288443242127,0.0,0.0,0.0,193.0,0.0,194.0,0.0,1.0,0.0,179.0,194.0,1.0,179.0,1744420616.0656068,0.0,2025-04-11 21:16:56.065,BACKWARD,40
86.0,17923.282733354896,24564.81302557147,-31504.1356091661,-19892.247902422896,-34830.812791682816,-26446.71814998605,-14550.44919853797,-32191.27293721115,0.0,0.0,0.0,193.0,0.0,193.0,0.0,1.0,0.0,179.0,193.0,1.0,179.0,1744420616.065742,0.0,2025-04-11 21:16:56.065,BACKWARD,40
87.0,17931.664637525635,24568.2998977065,-31497.206568384954,-19884.08951569671,-34828.17528583709,-26447.90279244218,-14508.494974195359,-32175.805530048077,0.0,0.0,0.0,193.0,0.0,194.0,0.0,1.0,0.0,180.0,194.0,1.0,180.0,1744420616.065814,0.0,2025-04-11 21:16:56.065,BACKWARD,40
88.0,17965.08049548632,24572.256156475087,-31504.20266439947,-19892.538475100813,-34839.30645457583,-26463.39255134971,-14029.899421918324,-32151.755053014167,0.0,0.0,0.0,193.0,0.0,194.0,0.0,1.0,0.0,179.0,194.0,1.0,179.0,1744420616.0658696,0.0,2025-04-11 21:16:56.065,BACKWARD,40
89.0,17952.92114650263,24559.18038596873,-31506.706059778462,-19899.355757159683,-34840.51344877642,-26458.67633326964,-14151.001173377177,-32204.639280395426,0.0,0.0,0.0,193.0,0.0,193.0,0.0,1.0,0.0,179.0,193.0,1.0,179.0,1744420616.0659254,0.0,2025-04-11 21:16:56.065,BACKWARD,40
90.0,17920.756986231445,24560.521490636052,-31505.85669348916,-19890.7950390333,-34828.93524514857,-26444.885306940712,-14480.734107581868,-32186.199091219794,0.0,0.0,0.0,193.0,0.0,194.0,0.0,1.0,0.0,179.0,194.0,1.0,179.0,1744420616.0660489,0.0,2025-04-11 21:16:56.066,BACKWARD,40
91.0,17927.12723340121,24574.044296031512,-31495.418428828532,-19877.45104759348,-34818.787553165865,-26436.346940558786,-14561.312146343249,-32180.968783017255,0.0,0.0,0.0,193.0,0.0,194.0,0.0,1.0,0.0,179.0,194.0,1.0,179.0,1744420616.066104,0.0,2025-04-11 21:16:56.066,BACKWARD,40
92.0,17951.535338346403,24586.695383393217,-31510.28233889131,-19887.151704687083,-34838.94882666455,-26459.816272236858,-14084.54943711155,-32150.503355324672,0.0,0.0,0.0,193.0,0.0,193.0,0.0,1.0,0.0,179.0,193.0,1.0,179.0,1744420616.0661557,0.0,2025-04-11 21:16:56.066,BACKWARD,40
93.0,17941.87938474171,24558.3980749128,-31519.692423306995,-19905.27896944034,-34843.82150695581,-26463.101978671788,-14102.542591398073,-32217.692699157324,0.0,0.0,0.0,193.0,0.0,194.0,0.0,1.0,0.0,180.0,194.0,1.0,180.0,1744420616.0662286,0.0,2025-04-11 21:16:56.066,BACKWARD,40
94.0,17920.198192620064,24556.38641791182,-31519.58066458472,-19898.148762959096,-34840.20052435405,-26451.47907155503,-14460.61753757209,-32206.94151007432,0.0,0.0,0.0,193.0,0.0,194.0,0.0,1.0,0.0,179.0,194.0,1.0,179.0,1744420616.0662842,0.0,2025-04-11 21:16:56.066,BACKWARD,40
95.0,17923.059215910343,24574.714848365173,-31500.492274819884,-19879.194483660995,-34822.67675670108,-26433.08358586831,-14622.153594750596,-32197.397315191905,0.0,0.0,0.0,193.0,0.0,194.0,0.0,1.0,0.0,180.0,194.0,1.0,180.0,1744420616.0663836,0.0,2025-04-11 21:16:56.066,BACKWARD,40
96.0,17948.115521444743,24571.406790185785,-31505.029678944313,-19875.998184203887,-34830.07518411579,-26442.62778075073,-14169.977804419734,-32139.618055774936,0.0,0.0,0.0,193.0,0.0,194.0,0.0,1.0,0.0,180.0,194.0,1.0,180.0,1744420616.0664392,0.0,2025-04-11 21:16:56.066,BACKWARD,40
97.0,17950.596565079282,24559.82858655794,-31514.730336037916,-19895.35479490218,-34836.84776268575,-26449.065083153855,-14045.188015125754,-32193.37400118995,0.0,0.0,0.0,193.0,0.0,193.0,0.0,1.0,0.0,179.0,193.0,1.0,179.0,1744420616.0665143,0.0,2025-04-11 21:16:56.066,BACKWARD,40
98.0,17924.065044410832,24564.835377315925,-31509.410620857554,-19884.916530241553,-34832.15389635014,-26435.385815547208,-14389.94132160441,-32193.530463401137,0.0,0.0,0.0,193.0,0.0,194.0,0.0,1.0,0.0,180.0,194.0,1.0,180.0,1744420616.0665689,0.0,2025-04-11 21:16:56.066,BACKWARD,40
99.0,17914.632608250693,24571.026810530046,-31503.57681555472,-19879.93209122802,-34828.152934092635,-26429.775527688926,-14625.394597696615,-32190.110646499474,0.0,0.0,0.0,193.0,0.0,194.0,0.0,1.0,0.0,179.0,194.0,1.0,179.0,1744420616.0666249,0.0,2025-04-11 21:16:56.066,BACKWARD,40
100.0,17939.957134718556,24575.921842565756,-31508.829475501716,-19882.971928473944,-34835.68547197407,-26445.488804041008,-14267.431410244872,-32144.356625599463,0.0,0.0,0.0,193.0,0.0,193.0,0.0,1.0,0.0,179.0,193.0,1.0,179.0,1744420616.066676,0.0,2025-04-11 21:16:56.066,BACKWARD,40
101.0,17943.868689998235,24560.901470291792,-31521.52526635233,-19910.84455380971,-34842.99449241096,-26465.895946728702,-14018.835308412947,-32189.50714939918,0.0,0.0,0.0,193.0,0.0,194.0,0.0,0.0,0.0,180.0,194.0,0.0,180.0,1744420616.0667753,0.0,2025-04-11 21:16:56.066,BACKWARD,40
102.0,17919.728805986502,24560.63324935833,-31522.151115197077,-19911.112774743175,-34839.66408248712,-26461.76087400447,-14327.222326662819,-32216.865684612476,0.0,0.0,0.0,193.0,0.0,194.0,0.0,0.0,0.0,179.0,194.0,0.0,179.0,1744420616.0668304,0.0,2025-04-11 21:16:56.066,BACKWARD,40
103.0,17911.39160530467,24579.274604234055,-31509.90235923557,-19897.902893770086,-34825.783649180376,-26444.527679029427,-14614.71046384698,-32209.400201964403,0.0,0.0,0.0,193.0,0.0,193.0,0.0,1.0,0.0,179.0,193.0,1.0,179.0,1744420616.066882,0.0,2025-04-11 21:16:56.066,BACKWARD,40
104.0,17936.7831870059,24581.57683391295,-31506.19196965599,-19889.45393436598,-34825.64953871364,-26448.528641286928,-14359.252376467273,-32166.551907843583,0.0,0.0,0.0,193.0,0.0,194.0,0.0,1.0,0.0,179.0,194.0,1.0,179.0,1744420616.066934,0.0,2025-04-11 21:16:56.066,BACKWARD,40
105.0,17957.07857097132,24577.508816422083,-31521.078231463223,-19910.241056709416,-34845.497887789956,-26466.00770545098,-14000.708043659693,-32185.394428419404,0.0,0.0,0.0,193.0,0.0,193.0,0.0,0.0,0.0,179.0,193.0,0.0,179.0,1744420616.0670075,0.0,2025-04-11 21:16:56.067,BACKWARD,40
106.0,17941.87938474171,24571.76441809707,-31516.71964129444,-19901.188600205016,-34842.10042263275,-26449.109786642766,-14266.693802677848,-32212.48474269924,0.0,0.0,0.0,193.0,0.0,193.0,0.0,1.0,0.0,179.0,193.0,1.0,179.0,1744420616.0670512,0.0,2025-04-11 21:16:56.067,BACKWARD,40
107.0,17924.109747899744,24576.61474664387,-31510.975242969424,-19891.17501868904,-34832.690338217064,-26441.085510383313,-14595.845591526699,-32208.103800785997,0.0,0.0,0.0,193.0,0.0,194.0,0.0,0.0,0.0,179.0,194.0,0.0,179.0,1744420616.5420263,0.0,2025-04-11 21:16:56.542,BACKWARD,40
108.0,17934.16803290463,24576.592394899417,-31510.90818773606,-19887.35287038718,-34833.85262892874,-26450.517946543452,-14453.554386324215,-32185.50618714168,0.0,0.0,0.0,193.0,0.0,193.0,0.0,0.0,0.0,179.0,193.0,0.0,179.0,1744420616.5421135,0.0,2025-04-11 21:16:56.542,BACKWARD,40
109.0,17945.07568419882,24568.165787239766,-31528.744879811395,-19909.346986931203,-34857.456071073546,-26478.345868390308,-14019.237639813142,-32190.69179185531,0.0,0.0,0.0,193.0,0.0,193.0,0.0,0.0,0.0,180.0,193.0,0.0,180.0,1744420616.5421648,0.0,2025-04-11 21:16:56.542,BACKWARD,40
110.0,17932.22343113702,24560.67795284724,-31525.034490231814,-19907.737661330422,-34850.37056808121,-26465.784188006426,-14216.804709053602,-32234.14358307643,0.0,0.0,0.0,193.0,0.0,193.0,0.0,0.0,0.0,179.0,193.0,0.0,179.0,1744420616.5422935,0.0,2025-04-11 21:16:56.542,BACKWARD,40
111.0,17918.79003271938,24573.239633231122,-31512.875141248125,-19892.829047778734,-34832.64563472815,-26447.835737208814,-14561.714477743446,-32209.04257405312,0.0,0.0,0.0,193.0,0.0,193.0,0.0,0.0,0.0,179.0,193.0,0.0,179.0,1744420616.5423436,0.0,2025-04-11 21:16:56.542,BACKWARD,40
112.0,17928.915372957632,24578.179368755744,-31506.303728378265,-19886.190579675505,-34830.36575679371,-26450.964981432557,-14543.140178101085,-32200.772428604658,0.0,0.0,0.0,193.0,0.0,194.0,0.0,0.0,0.0,179.0,194.0,0.0,179.0,1744420616.5423913,0.0,2025-04-11 21:16:56.542,BACKWARD,40
113.0,17949.21075692305,24574.58073789844,-31521.65937681906,-19901.233303693927,-34847.04015815737,-26465.963001962067,-14055.514521064106,-32156.9406577278,0.0,0.0,0.0,193.0,0.0,193.0,0.0,0.0,0.0,179.0,193.0,0.0,179.0,1744420616.5424395,0.0,2025-04-11 21:16:56.542,BACKWARD,40
114.0,17934.436253838096,24556.587583611916,-31521.681728563515,-19906.08363224073,-34839.820544698305,-26456.642324524204,-14136.629001692416,-32201.867664082965,0.0,0.0,0.0,193.0,0.0,193.0,0.0,0.0,0.0,179.0,193.0,0.0,179.0,1744420616.542487,0.0,2025-04-11 21:16:56.542,BACKWARD,40
115.0,17910.005797148442,24564.96948778266,-31517.881932006116,-19892.426716378537,-34840.93813192107,-26443.097167384287,-14500.046014791253,-32203.074658283553,0.0,0.0,0.0,193.0,0.0,193.0,0.0,0.0,0.0,179.0,193.0,0.0,179.0,1744420616.5425344,0.0,2025-04-11 21:16:56.542,BACKWARD,40
116.0,17917.270114096416,24579.833397845436,-31504.9849754554,-19879.663870294557,-34832.623282983695,-26438.13508011521,-14617.862059815177,-32214.27288225566,0.0,0.0,0.0,193.0,0.0,193.0,0.0,0.0,0.0,179.0,193.0,0.0,179.0,1744420616.542599,0.0,2025-04-11 21:16:56.542,BACKWARD,40
117.0,17943.779283020413,24583.119104280366,-31512.651623803573,-19885.631786064125,-34838.5241435199,-26457.2458216245,-14126.771882387626,-32162.997980475186,0.0,0.0,0.0,193.0,0.0,194.0,0.0,0.0,0.0,179.0,194.0,0.0,179.0,1744420616.5426464,0.0,2025-04-11 21:16:56.542,BACKWARD,40
118.0,17938.83954749579,24554.307705677475,-31519.20068492898,-19903.535533372826,-34844.156783122635,-26459.57040304785,-14087.209294701732,-32206.405068207394,0.0,0.0,0.0,193.0,0.0,193.0,0.0,0.0,0.0,179.0,193.0,0.0,179.0,1744420616.5426934,0.0,2025-04-11 21:16:56.542,BACKWARD,40
119.0,17914.36438731723,24555.42529290024,-31516.89845525008,-19894.30426291278,-34840.49109703196,-26448.103958142277,-14435.114197148587,-32203.141713516918,0.0,0.0,0.0,193.0,0.0,193.0,0.0,0.0,0.0,178.0,193.0,0.0,178.0,1744420616.5427577,0.0,2025-04-11 21:16:56.542,BACKWARD,40
120.0,17913.559724516836,24565.930612794236,-31504.359126610652,-19881.65317555108,-34829.38228003768,-26438.783280704414,-14614.956333035987,-32189.305983699083,0.0,0.0,0.0,193.0,0.0,194.0,0.0,0.0,0.0,179.0,194.0,0.0,179.0,1744420616.5428054,0.0,2025-04-11 21:16:56.542,BACKWARD,40
121.0,17932.60341079276,24568.970450040157,-31514.216245915446,-19890.03507972182,-34839.50762027593,-26463.75017926099,-14186.115763916465,-32155.912477482856,0.0,0.0,0.0,193.0,0.0,193.0,0.0,0.0,0.0,179.0,193.0,0.0,179.0,1744420616.542853,0.0,2025-04-11 21:16:56.542,BACKWARD,40
122.0,17938.772492262422,24559.2474412021,-31515.534998838306,-19903.334367672727,-34838.41238479762,-26461.71617051556,-14044.1151313919,-32191.56350988907,0.0,0.0,0.0,193.0,0.0,194.0,0.0,0.0,0.0,180.0,194.0,0.0,180.0,1744420616.5429,0.0,2025-04-11 21:16:56.542,BACKWARD,40
123.0,17916.420747807115,24552.38545565432,-31514.372708126633,-19895.37714664664,-34840.40169005415,-26450.98733317701,-14370.025917294732,-32191.719972100258,0.0,0.0,0.0,193.0,0.0,194.0,0.0,0.0,0.0,180.0,194.0,0.0,180.0,1744420616.5429478,0.0,2025-04-11 21:16:56.542,BACKWARD,40
124.0,17904.507268012436,24563.11429299287,-31508.985937712903,-19887.151704687083,-34839.686434231575,-26444.214754607056,-14628.255620986894,-32198.961937303775,0.0,0.0,0.0,193.0,0.0,193.0,0.0,0.0,0.0,179.0,193.0,0.0,179.0,1744420616.5429952,0.0,2025-04-11 21:16:56.542,BACKWARD,40
125.0,17931.999913692467,24572.59143264192,-31508.248330145878,-19881.78728601781,-34840.245227842956,-26451.881402955223,-14294.87935243599,-32154.437262348805,0.0,0.0,0.0,193.0,0.0,194.0,0.0,0.0,0.0,180.0,194.0,0.0,180.0,1744420616.543056,0.0,2025-04-11 21:16:56.543,BACKWARD,40
126.0,17947.489672599993,24563.024886015046,-31517.010213972357,-19900.249826937896,-34847.19662036856,-26463.079626927334,-14023.640933470839,-32186.891995297912,0.0,0.0,0.0,193.0,0.0,193.0,0.0,0.0,0.0,179.0,193.0,0.0,179.0,1744420616.5431037,0.0,2025-04-11 21:16:56.543,BACKWARD,40
127.0,17928.624800279715,24556.453473145186,-31512.875141248125,-19892.806696034277,-34837.9206464196,-26450.24972560999,-14323.31077138314,-32203.342879217016,0.0,0.0,0.0,193.0,0.0,193.0,0.0,0.0,0.0,179.0,193.0,0.0,179.0,1744420616.543151,0.0,2025-04-11 21:16:56.543,BACKWARD,40
128.0,17912.531544271893,24568.05402851749,-31503.777981254814,-19882.03315520682,-34822.72146019,-26433.37415854623,-14592.068146713753,-32177.12428297094,0.0,0.0,0.0,193.0,0.0,194.0,0.0,0.0,0.0,179.0,194.0,0.0,179.0,1744420616.5431979,0.0,2025-04-11 21:16:56.543,BACKWARD,40
129.0,17929.585925291292,24569.752761096093,-31508.09186793469,-19884.536550585814,-34832.53387600587,-26443.47714704003,-14351.943356030388,-32147.17294540083,0.0,0.0,0.0,193.0,0.0,193.0,0.0,0.0,0.0,179.0,193.0,0.0,179.0,1744420616.5432544,0.0,2025-04-11 21:16:56.543,BACKWARD,40
130.0,17948.987239478498,24567.159958739277,-31513.56804532624,-19894.41602163506,-34841.13929762117,-26451.076740154833,-13988.548694676007,-32159.42170136234,0.0,0.0,0.0,193.0,0.0,194.0,0.0,0.0,0.0,180.0,194.0,0.0,180.0,1744420616.5433097,0.0,2025-04-11 21:16:56.543,BACKWARD,40
131.0,17930.83762298079,24550.060874230967,-31518.217208172944,-19893.097268712198,-34846.123736634705,-26444.102995884776,-14230.640438871436,-32180.499396383693,0.0,0.0,0.0,193.0,0.0,194.0,0.0,0.0,0.0,179.0,194.0,0.0,179.0,1744420616.5433836,0.0,2025-04-11 21:16:56.543,BACKWARD,40
132.0,17922.411015321137,24566.221185472154,-31506.326080122722,-19879.574463316734,-34833.807925439825,-26434.022359135433,-14586.301396644283,-32193.888091312423,0.0,0.0,0.0,193.0,0.0,193.0,0.0,0.0,0.0,179.0,193.0,0.0,179.0,1744420616.5434268,0.0,2025-04-11 21:16:56.543,BACKWARD,40
133.0,17929.630628780204,24578.894624578315,-31498.65943177455,-19870.052620178776,-34830.544570749356,-26438.33624581531,-14471.01109874381,-32168.9435445003,0.0,0.0,0.0,193.0,0.0,193.0,0.0,0.0,0.0,179.0,193.0,0.0,179.0,1744420616.543469,0.0,2025-04-11 21:16:56.543,BACKWARD,40
134.0,17948.629611567212,24575.87713907685,-31510.28233889131,-19885.721193041943,-34845.18496336758,-26457.826966980338,-14007.301808274009,-32153.02910244812,0.0,0.0,0.0,193.0,0.0,194.0,0.0,0.0,0.0,179.0,194.0,0.0,179.0,1744420616.5435293,0.0,2025-04-11 21:16:56.543,BACKWARD,40
135.0,17939.733617274003,24563.315458692963,-31498.838245730192,-19881.921396484544,-34829.404631782134,-26449.735635487516,-14189.870856984957,-32208.036745552632,0.0,0.0,0.0,193.0,0.0,193.0,0.0,0.0,0.0,179.0,193.0,0.0,179.0,1744420616.5435717,0.0,2025-04-11 21:16:56.543,BACKWARD,40
136.0,17917.58303851879,24572.032639030534,-31490.679859004005,-19868.39859108908,-34824.33078579078,-26437.576286503827,-14529.21504130543,-32189.261280210172,0.0,0.0,0.0,193.0,0.0,194.0,0.0,0.0,0.0,180.0,194.0,0.0,180.0,1744420616.5436144,0.0,2025-04-11 21:16:56.543,BACKWARD,40
137.0,17922.54512578787,24586.002479315102,-31481.582699010694,-19855.32282058273,-34819.771029921896,-26425.28282705341,-14519.804956889744,-32158.684093795313,0.0,0.0,0.0,193.0,0.0,193.0,0.0,0.0,0.0,179.0,193.0,0.0,179.0,1744420616.5436573,0.0,2025-04-11 21:16:56.543,BACKWARD,40
138.0,17948.182576678108,24582.739124624626,-31500.156998653056,-19873.092457424696,-34840.0217103984,-26455.167109390153,-14035.822634198981,-32144.46838432174,0.0,0.0,0.0,193.0,0.0,193.0,0.0,0.0,0.0,179.0,193.0,0.0,179.0,1744420616.5436995,0.0,2025-04-11 21:16:56.543,BACKWARD,40
139.0,17940.426521352118,24562.10846449238,-31502.794504498783,-19883.061335451763,-34839.28410283138,-26449.825042465334,-14127.420082976829,-32205.533350173635,0.0,0.0,0.0,193.0,0.0,194.0,0.0,0.0,0.0,180.0,194.0,0.0,180.0,1744420616.5437615,0.0,2025-04-11 21:16:56.543,BACKWARD,40
140.0,17928.960076446543,24580.52630192355,-31493.987917183393,-19867.996259688887,-34831.55039924984,-26434.447042280084,-14483.125744238585,-32186.98140227573,0.0,0.0,0.0,193.0,0.0,193.0,0.0,0.0,0.0,179.0,193.0,0.0,179.0,1744420616.5438044,0.0,2025-04-11 21:16:56.543,BACKWARD,40
141.0,17934.324495115816,24591.00927007309,-31485.51660603483,-19862.74359974189,-34827.437678270064,-26437.91156267066,-14597.343158405205,-32198.112571014473,0.0,0.0,0.0,193.0,0.0,193.0,0.0,0.0,0.0,179.0,193.0,0.0,179.0,1744420616.5438476,0.0,2025-04-11 21:16:56.543,BACKWARD,40
142.0,17955.871576770733,24580.056915289988,-31498.502969563364,-19875.528797570325,-34841.13929762117,-26459.05631292538,-14134.729103413714,-32156.98536121671,0.0,0.0,0.0,193.0,0.0,194.0,0.0,0.0,0.0,179.0,194.0,0.0,179.0,1744420616.5438905,0.0,2025-04-11 21:16:56.543,BACKWARD,40
143.0,17953.882271514212,24560.05210400249,-31503.018021943335,-19891.71146055597,-34835.5737132518,-26456.217641379553,-14088.304530180041,-32200.012469293175,0.0,0.0,0.0,193.0,0.0,193.0,0.0,0.0,0.0,179.0,193.0,0.0,179.0,1744420616.5439327,0.0,2025-04-11 21:16:56.543,BACKWARD,40
144.0,17924.623838022213,24563.650734859795,-31508.069516190237,-19888.22458842094,-34836.467783030006,-26450.786167476916,-14422.105481875597,-32195.251547724194,0.0,0.0,0.0,193.0,0.0,194.0,0.0,0.0,0.0,179.0,194.0,0.0,179.0,1744420616.5439749,0.0,2025-04-11 21:16:56.543,BACKWARD,40
145.0,17920.980503675997,24575.20658674319,-31497.877120718615,-19878.725097027433,-34826.00716662493,-26443.879478440223,-14619.381978438138,-32199.967765804264,0.0,0.0,0.0,193.0,0.0,193.0,0.0,0.0,0.0,179.0,193.0,0.0,179.0,1744420616.5440176,0.0,2025-04-11 21:16:56.544,BACKWARD,40
146.0,17956.005687237466,24586.76243862658,-31499.732315508405,-19876.8922539821,-34834.590236495766,-26452.596658777795,-14200.085604201033,-32141.56265754255,0.0,0.0,0.0,193.0,0.0,193.0,0.0,0.0,0.0,179.0,193.0,0.0,179.0,1744420616.5440748,0.0,2025-04-11 21:16:56.544,BACKWARD,40
147.0,17969.148512977186,24579.252252489598,-31509.812952257747,-19896.27121642485,-34847.08486164628,-26461.42559783764,-14033.408645797808,-32193.239890723216,0.0,0.0,0.0,193.0,0.0,193.0,0.0,0.0,0.0,179.0,193.0,0.0,179.0,1744420616.5441175,0.0,2025-04-11 21:16:56.544,BACKWARD,40
148.0,17944.583945820803,24574.62544138735,-31511.534036580808,-19890.303300655283,-34847.42013781311,-26451.546126788395,-14373.065754540654,-32206.159199018384,0.0,0.0,0.0,193.0,0.0,193.0,0.0,0.0,0.0,179.0,193.0,0.0,179.0,1744420616.5441594,0.0,2025-04-11 21:16:56.544,BACKWARD,40
149.0,17937.632553295203,24587.902377593804,-31494.47965556141,-19872.13133241312,-34828.19763758154,-26432.27892306792,-14630.602554154702,-32188.27780345414,0.0,0.0,0.0,193.0,0.0,193.0,0.0,0.0,0.0,179.0,193.0,0.0,179.0,1744420616.544371,0.0,2025-04-11 21:16:56.544,BACKWARD,40
150.0,17959.9395942616,24598.29593876552,-31494.2337863724,-19864.822311976233,-34831.66215797212,-26441.599600505782,-14302.635407761982,-32147.619980289935,0.0,0.0,0.0,193.0,0.0,193.0,0.0,0.0,0.0,179.0,193.0,0.0,179.0,1744420616.5444143,0.0,2025-04-11 21:16:56.544,BACKWARD,40
151.0,17963.493521629993,24590.115200294877,-31507.91305397905,-19886.838780264712,-34846.03432965688,-26462.498481571496,-13999.38929073683,-32183.31571618506,0.0,0.0,0.0,193.0,0.0,194.0,0.0,0.0,0.0,180.0,194.0,0.0,180.0,1744420616.5444572,0.0,2025-04-11 21:16:56.544,BACKWARD,40
152.0,17945.567422576838,24582.940290324725,-31499.195873641478,-19873.718306269446,-34834.009091139924,-26446.159356374665,-14279.54605573965,-32199.856007081988,0.0,0.0,0.0,193.0,0.0,193.0,0.0,0.0,0.0,179.0,193.0,0.0,179.0,1744420616.5444992,0.0,2025-04-11 21:16:56.544,BACKWARD,40
153.0,17934.346846860273,24594.272624763566,-31489.36110608114,-19860.106093896164,-34826.27538755839,-26423.829963663815,-14583.93211173202,-32178.286573682617,0.0,0.0,0.0,193.0,0.0,194.0,0.0,0.0,0.0,179.0,194.0,0.0,179.0,1744420616.5445414,0.0,2025-04-11 21:16:56.544,BACKWARD,40
154.0,17950.70832380156,24600.1064300664,-31485.002515912358,-19852.84177694819,-34824.88957940216,-26427.406242776662,-14393.428193739439,-32145.65302677787,0.0,0.0,0.0,193.0,0.0,194.0,0.0,0.0,0.0,179.0,194.0,0.0,179.0,1744420616.5446053,0.0,2025-04-11 21:16:56.544,BACKWARD,40
155.0,17968.32149843234,24590.87515960636,-31499.62055678613,-19874.478265580925,-34838.16651560862,-26445.600562763284,-13977.015194537067,-32132.443145804784,0.0,0.0,0.0,193.0,0.0,193.0,0.0,0.0,0.0,179.0,193.0,0.0,179.0,1744420616.5446484,0.0,2025-04-11 21:16:56.544,BACKWARD,40
156.0,17955.558652348358,24584.214339758677,-31494.412600328043,-19873.98652720291,-34830.522219004895,-26434.46939402454,-14215.15067996391,-32180.052361494585,0.0,0.0,0.0,193.0,0.0,194.0,0.0,0.0,0.0,180.0,194.0,0.0,180.0,1744420616.544691,0.0,2025-04-11 21:16:56.544,BACKWARD,40
157.0,17938.034884695397,24595.881950364346,-31483.147321122568,-19859.480245051414,-34821.715631689505,-26414.822210648326,-14563.055582410763,-32174.79970154759,0.0,0.0,0.0,193.0,0.0,193.0,0.0,0.0,0.0,179.0,193.0,0.0,179.0,1744420616.5447347,0.0,2025-04-11 21:16:56.544,BACKWARD,40
158.0,17946.193271421584,24595.412563730784,-31486.32126883522,-19858.519120039837,-34825.02368986889,-26418.107917083256,-14476.263758690806,-32140.825049975523,0.0,0.0,0.0,193.0,0.0,193.0,0.0,0.0,0.0,179.0,193.0,0.0,179.0,1744420616.5447772,0.0,2025-04-11 21:16:56.544,BACKWARD,40
159.0,17968.83558855481,24586.2036450152,-31501.788675998294,-19882.279024395826,-34837.719480719505,-26449.355655831776,-14018.276514801564,-32145.205991888764,0.0,0.0,0.0,193.0,0.0,193.0,0.0,0.0,0.0,179.0,193.0,0.0,179.0,1744420616.5448372,0.0,2025-04-11 21:16:56.544,BACKWARD,40
160.0,17949.769550534435,24563.53897613752,-31506.147266167078,-19895.645367580102,-34839.619378998206,-26454.027170422934,-14179.767868491159,-32214.161123533384,0.0,0.0,0.0,193.0,0.0,193.0,0.0,0.0,0.0,179.0,193.0,0.0,179.0,1744420616.544902,0.0,2025-04-11 21:16:56.544,BACKWARD,40
161.0,17920.01937866442,24566.80233082799,-31502.57098705423,-19891.42088787805,-34829.00230038194,-26445.37704531873,-14532.388989018082,-32199.18545474833,0.0,0.0,0.0,193.0,0.0,194.0,0.0,0.0,0.0,179.0,194.0,0.0,179.0,1744420616.5449665,0.0,2025-04-11 21:16:56.544,BACKWARD,40
162.0,17927.171936890118,24577.53116816654,-31488.489388047386,-19877.87573073813,-34807.83519838276,-26431.049577122878,-14540.50267225536,-32162.573297330535,0.0,0.0,0.0,193.0,0.0,193.0,0.0,0.0,0.0,179.0,193.0,0.0,179.0,1744420616.5450094,0.0,2025-04-11 21:16:56.545,BACKWARD,40
163.0,17950.954192990564,24576.90531932179,-31503.666222532538,-19890.303300655283,-34825.94011139156,-26452.66371401116,-14046.149140137333,-32130.45384054826,0.0,0.0,0.0,193.0,0.0,194.0,0.0,0.0,0.0,179.0,194.0,0.0,179.0,1744420616.5450528,0.0,2025-04-11 21:16:56.545,BACKWARD,40
164.0,17937.386684106194,24551.983124254122,-31513.545693581786,-19905.748356073902,-34834.098498117746,-26458.743388503004,-14116.288914238086,-32204.773390862156,0.0,0.0,0.0,193.0,0.0,193.0,0.0,0.0,0.0,179.0,193.0,0.0,179.0,1744420616.545114,0.0,2025-04-11 21:16:56.545,BACKWARD,40
165.0,17912.106861127242,24557.10167373439,-31512.539865081297,-19895.868885024654,-34829.87401841569,-26446.651094752684,-14479.169485469996,-32192.837559323023,0.0,0.0,0.0,193.0,0.0,193.0,0.0,0.0,0.0,179.0,193.0,0.0,179.0,1744420616.545157,0.0,2025-04-11 21:16:56.545,BACKWARD,40
166.0,17919.661750753137,24573.77607509805,-31498.324155607723,-19883.195445918496,-34806.69525941554,-26441.107862127767,-14598.013710738864,-32195.519768657658,0.0,0.0,0.0,193.0,0.0,193.0,0.0,0.0,0.0,180.0,193.0,0.0,180.0,1744420616.5452008,0.0,2025-04-11 21:16:56.545,BACKWARD,40
167.0,17945.634477810203,24575.38540069883,-31513.031603459312,-19890.66092856657,-34822.65440495663,-26466.65590604018,-14143.89331864039,-32161.65687580787,0.0,0.0,0.0,193.0,0.0,193.0,0.0,0.0,0.0,180.0,193.0,0.0,180.0,1744420616.5452445,0.0,2025-04-11 21:16:56.545,BACKWARD,40
168.0,17937.31962887283,24549.122100963843,-31523.156943697566,-19911.448050910003,-34832.84680042825,-26472.489711343016,-14076.79338178556,-32209.780181620146,0.0,0.0,0.0,193.0,0.0,193.0,0.0,0.0,0.0,179.0,193.0,0.0,179.0,1744420616.5452871,0.0,2025-04-11 21:16:56.545,BACKWARD,40
169.0,17918.477108297004,24546.23872592911,-31514.752687782373,-19899.109887970673,-34828.75643119293,-26456.79878673539,-14411.778975937246,-32195.765637846667,0.0,0.0,0.0,193.0,0.0,194.0,0.0,0.0,0.0,179.0,194.0,0.0,179.0,1744420616.5453482,0.0,2025-04-11 21:16:56.545,BACKWARD,40
170.0,17918.521811785915,24557.548708623497,-31507.197798156478,-19894.30426291278,-34825.426021269086,-26457.62580128024,-14626.914516319575,-32211.255396754193,0.0,0.0,0.0,193.0,0.0,193.0,0.0,0.0,0.0,179.0,193.0,0.0,179.0,1744420616.5453916,0.0,2025-04-11 21:16:56.545,BACKWARD,40
171.0,17940.091245185286,24564.276583704544,-31521.972301241436,-19901.836800794223,-34845.67670174559,-26481.966850992067,-14242.330401221563,-32182.913384784864,0.0,0.0,0.0,193.0,0.0,194.0,0.0,0.0,0.0,179.0,194.0,0.0,179.0,1744420616.545434,0.0,2025-04-11 21:16:56.545,BACKWARD,40
172.0,17947.690838300092,24558.77805456854,-31523.201647186477,-19910.062242753775,-34848.917704691616,-26474.568423577362,-14048.160797138311,-32203.700507128302,0.0,0.0,0.0,193.0,0.0,194.0,0.0,0.0,0.0,179.0,194.0,0.0,179.0,1744420616.545477,0.0,2025-04-11 21:16:56.545,BACKWARD,40
173.0,17932.02226543692,24558.75570282408,-31516.384365127607,-19897.187637947518,-34842.99449241096,-26457.782263491426,-14371.03174579522,-32204.32635597305,0.0,0.0,0.0,193.0,0.0,193.0,0.0,0.0,0.0,179.0,193.0,0.0,179.0,1744420616.5455203,0.0,2025-04-11 21:16:56.545,BACKWARD,40
174.0,17925.78612873389,24573.284336720033,-31504.716754521938,-19885.385916875115,-34832.2209515835,-26449.98150467652,-14647.165196796084,-32216.03867006763,0.0,0.0,0.0,193.0,0.0,193.0,0.0,0.0,0.0,179.0,193.0,0.0,179.0,1744420616.545566,0.0,2025-04-11 21:16:56.545,BACKWARD,40
175.0,17949.74719878998,24584.974299070156,-31502.302766120767,-19876.31110862626,-34833.98673939547,-26453.75894948947,-14335.559527344649,-32164.7414165427,0.0,0.0,0.0,193.0,0.0,193.0,0.0,0.0,0.0,179.0,193.0,0.0,179.0,1744420616.5456223,0.0,2025-04-11 21:16:56.545,BACKWARD,40
176.0,17965.348716419783,24577.508816422083,-31510.170580169033,-19889.677451810534,-34848.24715235796,-26459.212775136566,-14023.953857893213,-32171.782216046122,0.0,0.0,0.0,193.0,0.0,193.0,0.0,0.0,0.0,179.0,193.0,0.0,179.0,1744420616.545726,0.0,2025-04-11 21:16:56.545,BACKWARD,40
177.0,17944.673352798625,24578.447589689207,-31503.867388232637,-19877.87573073813,-34837.36185280822,-26442.091338883798,-14310.97260844381,-32191.8987860559,0.0,0.0,0.0,193.0,0.0,193.0,0.0,0.0,0.0,179.0,193.0,0.0,179.0,1744420616.545786,0.0,2025-04-11 21:16:56.545,BACKWARD,40
178.0,17926.859012467743,24585.354278725896,-31498.525321307818,-19869.7396957564,-34821.782686922874,-26434.60350449127,-14598.974835750441,-32179.94060277231,0.0,0.0,0.0,193.0,0.0,193.0,0.0,0.0,0.0,179.0,193.0,0.0,179.0,1744420616.5458388,0.0,2025-04-11 21:16:56.545,BACKWARD,40
179.0,17947.288506899895,24586.449514204207,-31493.362068338643,-19861.35779158566,-34818.89931188814,-26431.18368758961,-14406.90629564599,-32137.472288307228,0.0,0.0,0.0,193.0,0.0,193.0,0.0,0.0,0.0,179.0,193.0,0.0,179.0,1744420616.545966,0.0,2025-04-11 21:16:56.545,BACKWARD,40
180.0,17955.670411070634,24572.859653575382,-31516.67493780553,-19889.36452738816,-34845.72140523451,-26461.47030132655,-13992.01321506658,-32150.816279747043,0.0,0.0,0.0,193.0,0.0,194.0,0.0,0.0,0.0,179.0,194.0,0.0,179.0,1744420616.546016,0.0,2025-04-11 21:16:56.546,BACKWARD,40
181.0,17939.443044596082,24555.738217322614,-31514.730336037916,-19892.046736722798,-34838.971178409,-26452.28373435542,-14220.068063744076,-32204.08048678404,0.0,0.0,0.0,193.0,0.0,194.0,0.0,0.0,0.0,180.0,194.0,0.0,180.0,1744420616.5460677,0.0,2025-04-11 21:16:56.546,BACKWARD,40
182.0,17925.003817677953,24569.28337446253,-31501.788675998294,-19874.478265580925,-34822.050907856334,-26424.165239830643,-14555.031306151308,-32171.93867825731,0.0,0.0,0.0,193.0,0.0,193.0,0.0,0.0,0.0,179.0,193.0,0.0,179.0,1744420616.5461192,0.0,2025-04-11 21:16:56.546,BACKWARD,40
183.0,17933.765701504435,24579.408714700785,-31498.681783519005,-19867.303355610773,-34825.53777999136,-26425.50634449796,-14483.975110527886,-32146.971779700732,0.0,0.0,0.0,193.0,0.0,194.0,0.0,0.0,0.0,179.0,194.0,0.0,179.0,1744420616.5461736,0.0,2025-04-11 21:16:56.546,BACKWARD,40
184.0,17956.251556426472,24578.179368755744,-31510.77407726933,-19882.480190095925,-34843.12860287769,-26449.57917327633,-14021.942200892236,-32138.50046855217,0.0,0.0,0.0,193.0,0.0,193.0,0.0,0.0,0.0,179.0,193.0,0.0,179.0,1744420616.546287,0.0,2025-04-11 21:16:56.546,BACKWARD,40
185.0,17945.50036734347,24559.67212434675,-31509.298862135278,-19886.30233839778,-34840.178172609594,-26445.91348718566,-14160.120685114944,-32189.70831509928,0.0,0.0,0.0,193.0,0.0,193.0,0.0,0.0,0.0,179.0,193.0,0.0,179.0,1744420616.5463336,0.0,2025-04-11 21:16:56.546,BACKWARD,40
186.0,17919.371178075216,24569.171615740255,-31504.94027196649,-19878.479227838427,-34830.946902149546,-26436.123423114233,-14497.34145371216,-32173.570355602547,0.0,0.0,0.0,193.0,0.0,194.0,0.0,0.0,0.0,179.0,194.0,0.0,179.0,1744420616.546376,0.0,2025-04-11 21:16:56.546,BACKWARD,40
187.0,17932.871631726222,24582.515607180074,-31491.305707848755,-19869.06914342274,-34812.99845135194,-26435.207001591567,-14550.560957260246,-32171.581050346023,0.0,0.0,0.0,193.0,0.0,193.0,0.0,0.0,0.0,179.0,193.0,0.0,179.0,1744420616.5464244,0.0,2025-04-11 21:16:56.546,BACKWARD,40
188.0,17964.588757108304,24580.749819368106,-31503.2862428768,-19881.22849240643,-34827.28121605888,-26465.158339161677,-14074.088820706465,-32151.240962891694,0.0,0.0,0.0,193.0,0.0,194.0,0.0,0.0,0.0,180.0,194.0,0.0,180.0,1744420616.546471,0.0,2025-04-11 21:16:56.546,BACKWARD,40
189.0,17949.903661001168,24561.504967392084,-31508.829475501716,-19897.008823991877,-34834.14320160666,-26466.387685106718,-14105.090690265977,-32206.94151007432,0.0,0.0,0.0,193.0,0.0,193.0,0.0,0.0,0.0,179.0,193.0,0.0,179.0,1744420616.5465343,0.0,2025-04-11 21:16:56.546,BACKWARD,40
190.0,17924.40032057766,24563.628383115338,-31505.409658600052,-19886.212931419963,-34829.203466082035,-26454.004818678477,-14451.319211878683,-32183.27101269615,0.0,0.0,0.0,193.0,0.0,193.0,0.0,0.0,0.0,179.0,193.0,0.0,179.0,1744420616.5465837,0.0,2025-04-11 21:16:56.546,BACKWARD,40
191.0,17927.06017816784,24578.11231352238,-31492.42329507152,-19871.97487020193,-34818.04994559884,-26443.879478440223,-14599.421870639548,-32187.42843716484,0.0,0.0,0.0,193.0,0.0,194.0,0.0,0.0,0.0,179.0,194.0,0.0,179.0,1744420616.5466805,0.0,2025-04-11 21:16:56.546,BACKWARD,40
192.0,17955.26807967044,24586.047182804014,-31495.306670106256,-19868.26448062235,-34823.79434392385,-26452.03786516641,-14156.410295535363,-32137.673454007323,0.0,0.0,0.0,193.0,0.0,193.0,0.0,0.0,0.0,179.0,193.0,0.0,179.0,1744420616.546728,0.0,2025-04-11 21:16:56.546,BACKWARD,40
193.0,17955.066913970342,24568.456359917684,-31499.061763174745,-19880.960271472966,-34824.867227657705,-26450.361484332265,-14054.620451285893,-32182.46634989576,0.0,0.0,0.0,193.0,0.0,193.0,0.0,0.0,0.0,179.0,193.0,0.0,179.0,1744420616.5467777,0.0,2025-04-11 21:16:56.546,BACKWARD,40
194.0,17936.246745138975,24567.71875235066,-31497.541844551786,-19870.27613762333,-34816.91000663162,-26432.256571323465,-14371.836408595611,-32164.853175264976,0.0,0.0,0.0,193.0,0.0,194.0,0.0,0.0,0.0,180.0,194.0,0.0,180.0,1744420616.5468657,0.0,2025-04-11 21:16:56.546,BACKWARD,40
195.0,17931.709341014546,24582.62736590235,-31489.98695492589,-19861.760122985856,-34811.50088447343,-26422.42180376313,-14594.213914181462,-32167.244811921697,0.0,0.0,0.0,193.0,0.0,193.0,0.0,0.0,0.0,179.0,193.0,0.0,179.0,1744420616.546914,0.0,2025-04-11 21:16:56.546,BACKWARD,40
196.0,17951.423579624126,24589.511703194585,-31497.94417595198,-19862.140102641595,-34823.86139915721,-26439.364426060252,-14231.445101671829,-32135.97472142872,0.0,0.0,0.0,193.0,0.0,193.0,0.0,0.0,0.0,179.0,193.0,0.0,179.0,1744420616.5469663,0.0,2025-04-11 21:16:56.546,BACKWARD,40
197.0,17949.344867389784,24561.05793250298,-31515.4902953494,-19892.13614370062,-34833.383242295175,-26459.078664669833,-14020.846965413924,-32193.016373278664,0.0,0.0,0.0,193.0,0.0,194.0,0.0,0.0,0.0,179.0,194.0,0.0,179.0,1744420616.547022,0.0,2025-04-11 21:16:56.547,BACKWARD,40
198.0,17928.200117135064,24555.827624300437,-31509.05299294627,-19884.357736630172,-34817.9158351321,-26439.543240015893,-14330.64214356448,-32192.65874536738,0.0,0.0,0.0,193.0,0.0,193.0,0.0,0.0,0.0,179.0,193.0,0.0,179.0,1744420616.5470736,0.0,2025-04-11 21:16:56.547,BACKWARD,40
199.0,17913.87264893921,24571.09386576341,-31501.22988238691,-19872.846588235687,-34810.182131550566,-26420.052518850865,-14602.864039285665,-32164.18262293132,0.0,0.0,0.0,193.0,0.0,193.0,0.0,0.0,0.0,178.0,193.0,0.0,178.0,1744420616.547171,0.0,2025-04-11 21:16:56.547,BACKWARD,40
200.0,17938.146643417676,24577.173540255255,-31504.672051033027,-19869.247957378382,-34819.74867817744,-26433.150641101678,-14329.83748076409,-32125.9834916572,0.0,0.0,0.0,193.0,0.0,194.0,0.0,0.0,0.0,179.0,194.0,0.0,179.0,1744420616.5472276,0.0,2025-04-11 21:16:56.547,BACKWARD,40
201.0,17949.769550534435,24564.745970338103,-31522.374632641633,-19895.35479490218,-34837.36185280822,-26452.440196566607,-13993.108450544889,-32162.014503719154,0.0,0.0,0.0,193.0,0.0,193.0,0.0,0.0,0.0,179.0,193.0,0.0,179.0,1744420616.5472813,0.0,2025-04-11 21:16:56.547,BACKWARD,40
202.0,17931.731692759,24555.604106855884,-31514.395059871087,-19888.068126209753,-34823.34730903475,-26434.42469053563,-14264.905663121423,-32185.305021441585,0.0,0.0,0.0,193.0,0.0,193.0,0.0,0.0,0.0,179.0,193.0,0.0,179.0,1744420616.5473347,0.0,2025-04-11 21:16:56.547,BACKWARD,40
203.0,17913.425614050106,24566.511758150074,-31503.353298110163,-19874.36650685865,-34811.70205017353,-26421.66184445165,-14559.993393420387,-32152.40325360337,0.0,0.0,0.0,193.0,0.0,193.0,0.0,0.0,0.0,179.0,193.0,0.0,179.0,1744420616.547392,0.0,2025-04-11 21:16:56.547,BACKWARD,40
204.0,17924.623838022213,24572.278508219544,-31502.034545187304,-19870.589062045703,-34816.261806042414,-26429.306141055364,-14414.215316082875,-32131.616131259936,0.0,0.0,0.0,193.0,0.0,193.0,0.0,0.0,0.0,179.0,193.0,0.0,179.0,1744420616.5474496,0.0,2025-04-11 21:16:56.547,BACKWARD,40
205.0,17945.276849898917,24567.092903505913,-31515.825571516227,-19887.8446087652,-34833.60675973973,-26448.014551164455,-13993.53313368954,-32134.96889292823,0.0,0.0,0.0,193.0,0.0,193.0,0.0,0.0,0.0,179.0,193.0,0.0,179.0,1744420616.5475545,0.0,2025-04-11 21:16:56.547,BACKWARD,40
206.0,17932.491652070483,24547.177499196234,-31517.47960060592,-19889.141009943607,-34835.50665801843,-26442.98540866201,-14204.019511225166,-32186.444960408804,0.0,0.0,0.0,193.0,0.0,193.0,0.0,0.0,0.0,180.0,193.0,0.0,180.0,1744420616.5476124,0.0,2025-04-11 21:16:56.547,BACKWARD,40
207.0,17909.06702388132,24557.48165339013,-31508.04716444578,-19874.701783025477,-34819.99454736645,-26431.31779805634,-14543.631916479102,-32171.581050346023,0.0,0.0,0.0,193.0,0.0,193.0,0.0,0.0,0.0,179.0,193.0,0.0,179.0,1744420616.5476704,0.0,2025-04-11 21:16:56.547,BACKWARD,40
208.0,17913.44796579456,24565.371819182852,-31502.99567019888,-19868.152721900075,-34819.23458805497,-26437.218658592545,-14492.49112516536,-32155.197221660284,0.0,0.0,0.0,193.0,0.0,194.0,0.0,0.0,0.0,179.0,194.0,0.0,179.0,1744420616.5477188,0.0,2025-04-11 21:16:56.547,BACKWARD,40
209.0,17938.59367830678,24566.936441294725,-31515.557350582763,-19879.26153889436,-34837.11598361922,-26459.369237347753,-14023.506823004107,-32142.724948254225,0.0,0.0,0.0,193.0,0.0,193.0,0.0,0.0,0.0,179.0,193.0,0.0,179.0,1744420616.5477865,0.0,2025-04-11 21:16:56.547,BACKWARD,40
210.0,17927.909544457143,24544.62940032833,-31520.072402962734,-19888.336347143217,-34837.00422489694,-26458.0951879138,-14154.152769345375,-32201.152408260397,0.0,0.0,0.0,193.0,0.0,193.0,0.0,0.0,0.0,179.0,193.0,0.0,179.0,1744420616.547832,0.0,2025-04-11 21:16:56.547,BACKWARD,40
211.0,17909.11172737023,24555.00060975559,-31515.91497849405,-19875.66290803706,-34831.1704195941,-26441.57724876133,-14497.676729878991,-32172.56452710206,0.0,0.0,0.0,193.0,0.0,194.0,0.0,0.0,0.0,179.0,194.0,0.0,179.0,1744420616.5479,0.0,2025-04-11 21:16:56.547,BACKWARD,40
212.0,17917.337169329785,24570.892700063312,-31504.38147835511,-19866.20812013246,-34822.43088751208,-26438.582115004316,-14569.06820166924,-32171.961030001767,0.0,0.0,0.0,193.0,0.0,193.0,0.0,0.0,0.0,179.0,193.0,0.0,179.0,1744420616.5479596,0.0,2025-04-11 21:16:56.547,BACKWARD,40
213.0,17941.231184152508,24572.122046008357,-31519.915940751547,-19880.915567984055,-34841.2734080879,-26459.302182114385,-14091.0761464925,-32132.197276615774,0.0,0.0,0.0,193.0,0.0,193.0,0.0,0.0,0.0,179.0,193.0,0.0,179.0,1744420616.548008,0.0,2025-04-11 21:16:56.548,BACKWARD,40
214.0,17928.580096790804,24546.886926518313,-31533.863429291658,-19904.943693273508,-34852.069300659816,-26468.46639734106,-14100.419175674819,-32189.46244591027,0.0,0.0,0.0,193.0,0.0,194.0,0.0,0.0,0.0,180.0,194.0,0.0,180.0,1744420616.5480752,0.0,2025-04-11 21:16:56.548,BACKWARD,40
215.0,17903.277922067395,24551.67019983175,-31526.733222810417,-19893.901931512588,-34836.44543128555,-26452.03786516641,-14454.828435758167,-32179.873547538944,0.0,0.0,0.0,193.0,0.0,193.0,0.0,0.0,0.0,179.0,193.0,0.0,179.0,1744420616.548118,0.0,2025-04-11 21:16:56.548,BACKWARD,40
216.0,17896.170067330608,24560.990877269614,-31521.346452396687,-19887.777553531832,-34830.92455040509,-26444.930010429624,-14604.741585819911,-32175.112625969963,0.0,0.0,0.0,193.0,0.0,193.0,0.0,0.0,0.0,179.0,193.0,0.0,179.0,1744420616.548162,0.0,2025-04-11 21:16:56.548,BACKWARD,40
217.0,17930.904678214156,24564.924784293748,-31521.48056286342,-19885.721193041943,-34825.984814880474,-26452.775472733436,-14168.614348007959,-32129.492715536682,0.0,0.0,0.0,193.0,0.0,194.0,0.0,0.0,0.0,179.0,194.0,0.0,179.0,1744420616.548204,0.0,2025-04-11 21:16:56.548,BACKWARD,40
218.0,17930.74821600297,24552.56426960996,-31534.019891502845,-19906.061280496273,-34835.12667836269,-26464.264269383464,-14032.134596363854,-32180.40998940587,0.0,0.0,0.0,193.0,0.0,193.0,0.0,0.0,0.0,179.0,193.0,0.0,179.0,1744420616.548247,0.0,2025-04-11 21:16:56.548,BACKWARD,40
219.0,17899.16520108762,24559.71682783566,-31539.630179361127,-19898.349928659194,-34836.91481791912,-26450.98733317701,-14363.342745702595,-32177.861890537966,0.0,0.0,0.0,193.0,0.0,194.0,0.0,0.0,0.0,180.0,194.0,0.0,180.0,1744420616.5482903,0.0,2025-04-11 21:16:56.548,BACKWARD,40
220.0,17896.661805708623,24564.589508126915,-31525.77209779884,-19881.496713339893,-34824.28608230187,-26426.109841598256,-14597.969007249952,-32155.197221660284,0.0,0.0,0.0,193.0,0.0,193.0,0.0,0.0,0.0,179.0,193.0,0.0,179.0,1744420616.5483477,0.0,2025-04-11 21:16:56.548,BACKWARD,40
221.0,17920.131137386696,24560.63324935833,-31531.628254846128,-19884.06716395225,-34834.433774284575,-26443.343036573297,-14251.360505981507,-32121.26727357713,0.0,0.0,0.0,193.0,0.0,193.0,0.0,0.0,0.0,179.0,193.0,0.0,179.0,1744420616.5483897,0.0,2025-04-11 21:16:56.548,BACKWARD,40
222.0,17934.659771282648,24548.160975952265,-31538.691406094007,-19904.831934551232,-34838.5241435199,-26453.42367332264,-14007.614732696384,-32164.048512464586,0.0,0.0,0.0,193.0,0.0,194.0,0.0,0.0,0.0,179.0,194.0,0.0,179.0,1744420616.548432,0.0,2025-04-11 21:16:56.548,BACKWARD,40
223.0,17918.432404808093,24551.71490332066,-31531.203571701477,-19894.32661465724,-34833.539704506366,-26436.41399579215,-14316.337027113084,-32175.582012603525,0.0,0.0,0.0,193.0,0.0,193.0,0.0,0.0,0.0,179.0,193.0,0.0,179.0,1744420616.5484798,0.0,2025-04-11 21:16:56.548,BACKWARD,40
224.0,17896.81826791981,24561.214394714167,-31522.799315786284,-19885.810600019766,-34829.896370160146,-26428.1885538326,-14613.101138246197,-32180.097064983496,0.0,0.0,0.0,193.0,0.0,193.0,0.0,0.0,0.0,179.0,193.0,0.0,179.0,1744420616.5485392,0.0,2025-04-11 21:16:56.548,BACKWARD,40
225.0,17921.248724609464,24565.86355756087,-31523.179295442023,-19881.452009850982,-34833.9196841621,-26431.407205034164,-14367.03078353772,-32135.21476211724,0.0,0.0,0.0,193.0,0.0,193.0,0.0,0.0,0.0,179.0,193.0,0.0,179.0,1744420616.5485814,0.0,2025-04-11 21:16:56.548,BACKWARD,40
226.0,17938.37016086223,24557.883984790325,-31535.606865359172,-19900.406289149083,-34843.19565811106,-26442.091338883798,-13993.354319733897,-32133.06899464953,0.0,0.0,0.0,193.0,0.0,193.0,0.0,0.0,0.0,179.0,193.0,0.0,179.0,1744420616.5486236,0.0,2025-04-11 21:16:56.548,BACKWARD,40
227.0,17920.667579253626,24551.13375796482,-31531.00240600138,-19897.344100158705,-34832.10919286122,-26435.341112058297,-14250.53349143666,-32162.50624209717,0.0,0.0,0.0,193.0,0.0,193.0,0.0,0.0,0.0,179.0,193.0,0.0,179.0,1744420616.5486653,0.0,2025-04-11 21:16:56.548,BACKWARD,40
228.0,17906.273055824407,24564.790673827014,-31522.978129741925,-19891.912626256064,-34824.8225241688,-26430.379024789218,-14581.31695763075,-32164.875527009433,0.0,0.0,0.0,193.0,0.0,193.0,0.0,0.0,0.0,179.0,193.0,0.0,179.0,1744420617.0200298,0.0,2025-04-11 21:16:57.020,BACKWARD,40
229.0,17921.78516647639,24569.10456050689,-31516.004385471868,-19882.703707540477,-34821.782686922874,-26433.530620757418,-14446.737104265345,-32145.116584910942,0.0,0.0,0.0,193.0,0.0,193.0,0.0,0.0,0.0,179.0,193.0,0.0,179.0,1744420617.020168,0.0,2025-04-11 21:16:57.020,BACKWARD,40
230.0,17938.34780911777,24563.2484034596,-31529.66130133406,-19898.5957978482,-34837.60772199723,-26456.865841968756,-13995.634197668338,-32137.762860985145,0.0,0.0,0.0,193.0,0.0,194.0,0.0,0.0,0.0,179.0,194.0,0.0,179.0,1744420617.0202277,0.0,2025-04-11 21:16:57.020,BACKWARD,40
231.0,17925.473204311515,24547.780996296526,-31529.795411800795,-19899.55692285978,-34840.71461447652,-26449.467414554052,-14188.90973197338,-32177.303096926582,0.0,0.0,0.0,193.0,0.0,193.0,0.0,0.0,0.0,179.0,193.0,0.0,179.0,1744420617.0202808,0.0,2025-04-11 21:16:57.020,BACKWARD,40
232.0,17906.518925013414,24556.922859778748,-31523.514571608852,-19883.329556385226,-34835.66312022962,-26436.41399579215,-14548.348134559172,-32173.346838157995,0.0,0.0,0.0,193.0,0.0,193.0,0.0,0.0,0.0,179.0,193.0,0.0,179.0,1744420617.0203292,0.0,2025-04-11 21:16:57.020,BACKWARD,40
233.0,17914.8784774397,24561.68378134773,-31519.066574462246,-19878.099248182687,-34828.39880328164,-26440.14673711619,-14524.699988925457,-32162.193317674795,0.0,0.0,0.0,193.0,0.0,193.0,0.0,0.0,0.0,179.0,193.0,0.0,179.0,1744420617.0203767,0.0,2025-04-11 21:16:57.020,BACKWARD,40
234.0,17944.896870243178,24568.61282212887,-31526.017966987845,-19886.41409712006,-34835.99839639645,-26450.60735352127,-14039.734189478659,-32128.956273669755,0.0,0.0,0.0,193.0,0.0,193.0,0.0,0.0,0.0,179.0,193.0,0.0,179.0,1744420617.0204237,0.0,2025-04-11 21:16:57.020,BACKWARD,40
235.0,17945.053332454365,24561.326153436443,-31522.151115197077,-19886.279986653328,-34827.19180908106,-26437.352769059275,-14125.430777720307,-32170.619925334446,0.0,0.0,0.0,193.0,0.0,193.0,0.0,0.0,0.0,180.0,193.0,0.0,180.0,1744420617.0204887,0.0,2025-04-11 21:16:57.020,BACKWARD,40
236.0,17919.50528854195,24564.500101149097,-31518.843057017693,-19878.166303416052,-34821.80503866733,-26425.37223403123,-14479.281244192272,-32159.734625784713,0.0,0.0,0.0,193.0,0.0,193.0,0.0,0.0,0.0,179.0,193.0,0.0,179.0,1744420617.0205371,0.0,2025-04-11 21:16:57.020,BACKWARD,40
237.0,17918.275942596905,24572.412618686274,-31509.678841791017,-19871.840759735198,-34812.32789901828,-26420.521905484427,-14570.677527270023,-32158.8405560065,0.0,0.0,0.0,193.0,0.0,194.0,0.0,0.0,0.0,179.0,194.0,0.0,179.0,1744420617.020584,0.0,2025-04-11 21:16:57.020,BACKWARD,40
238.0,17940.046541696374,24572.81495008647,-31517.52430409483,-19879.17213191654,-34821.24624505595,-26437.956266159566,-14082.157800454832,-32104.414058257826,0.0,0.0,0.0,193.0,0.0,194.0,0.0,0.0,0.0,179.0,194.0,0.0,179.0,1744420617.0206316,0.0,2025-04-11 21:16:57.020,BACKWARD,40
239.0,17932.9833904485,24559.76153132457,-31520.698251807484,-19892.87375126764,-34823.1684950791,-26436.324588814332,-14051.938241951257,-32154.191393159796,0.0,0.0,0.0,193.0,0.0,193.0,0.0,0.0,0.0,179.0,193.0,0.0,179.0,1744420617.0206957,0.0,2025-04-11 21:16:57.020,BACKWARD,40
240.0,17911.43630879358,24557.258135945576,-31519.111277951157,-19883.59777731869,-34821.38035552268,-26422.690024696592,-14401.85480139909,-32146.569448300535,0.0,0.0,0.0,193.0,0.0,194.0,0.0,0.0,0.0,180.0,194.0,0.0,180.0,1744420617.020743,0.0,2025-04-11 21:16:57.020,BACKWARD,40
241.0,17906.094241868763,24559.090978990913,-31511.57874006972,-19875.97583245943,-34816.08299208677,-26416.342129271285,-14587.798963522788,-32153.632599548415,0.0,0.0,0.0,193.0,0.0,193.0,0.0,0.0,0.0,179.0,193.0,0.0,179.0,1744420617.0207891,0.0,2025-04-11 21:16:57.020,BACKWARD,40
242.0,17932.60341079276,24558.263964446065,-31518.396022128585,-19877.428695849027,-34823.883750901674,-26424.433460764107,-14178.896150457402,-32109.219683315718,0.0,0.0,0.0,193.0,0.0,194.0,0.0,0.0,0.0,179.0,194.0,0.0,179.0,1744420617.0208368,0.0,2025-04-11 21:16:57.020,BACKWARD,40
243.0,17930.21177413604,24537.678007802726,-31531.315330423753,-19901.233303693927,-34829.65050097114,-26432.256571323465,-14022.29982880352,-32147.530573312113,0.0,0.0,0.0,193.0,0.0,193.0,0.0,0.0,0.0,179.0,193.0,0.0,179.0,1744420617.0208838,0.0,2025-04-11 21:16:57.020,BACKWARD,40
244.0,17907.010663391433,24540.226106670634,-31529.90717052307,-19893.87957976813,-34823.41436426811,-26419.739594428494,-14352.971536275332,-32157.074768194532,0.0,0.0,0.0,193.0,0.0,193.0,0.0,0.0,0.0,179.0,193.0,0.0,179.0,1744420617.0210536,0.0,2025-04-11 21:16:57.021,BACKWARD,40
245.0,17903.546143000858,24558.33101967943,-31514.86444650465,-19876.713440026455,-34805.443561726046,-26400.69590815257,-14593.073975214242,-32145.69773026678,0.0,0.0,0.0,193.0,0.0,194.0,0.0,0.0,0.0,179.0,194.0,0.0,179.0,1744420617.0210977,0.0,2025-04-11 21:16:57.021,BACKWARD,40
246.0,17918.678273997102,24561.952002281192,-31519.17833318452,-19871.08080042372,-34816.70884093152,-26410.687137924095,-14248.678296646869,-32095.473360475706,0.0,0.0,0.0,193.0,0.0,193.0,0.0,0.0,0.0,179.0,193.0,0.0,179.0,1744420617.02114,0.0,2025-04-11 21:16:57.021,BACKWARD,40
247.0,17925.942590945077,24546.57400209594,-31537.886743293613,-19894.863056524166,-34837.093631874755,-26432.99417889049,-13983.05016554,-32140.802698231066,0.0,0.0,0.0,193.0,0.0,193.0,0.0,0.0,0.0,179.0,193.0,0.0,179.0,1744420617.0211823,0.0,2025-04-11 21:16:57.021,BACKWARD,40
248.0,17906.764794202423,24542.170708438243,-31530.66712983455,-19882.770762773845,-34824.71076544652,-26412.877608880714,-14296.756898970236,-32154.37020711544,0.0,0.0,0.0,193.0,0.0,193.0,0.0,0.0,0.0,179.0,193.0,0.0,179.0,1744420617.0212245,0.0,2025-04-11 21:16:57.021,BACKWARD,40
249.0,17888.7716399159,24551.446682387195,-31519.312443651255,-19868.8903294671,-34805.8682448707,-26397.18668427309,-14587.374280378137,-32132.465497549238,0.0,0.0,0.0,193.0,0.0,193.0,0.0,0.0,0.0,179.0,193.0,0.0,179.0,1744420617.0212665,0.0,2025-04-11 21:16:57.021,BACKWARD,40
250.0,17910.20696284854,24561.19204296971,-31511.668147047538,-19856.216890360938,-34799.900329101125,-26397.968995329025,-14336.051265722665,-32092.9252616078,0.0,0.0,0.0,193.0,0.0,194.0,0.0,0.0,0.0,179.0,194.0,0.0,179.0,1744420617.0213249,0.0,2025-04-11 21:16:57.021,BACKWARD,40
251.0,17926.724902001013,24555.402941155786,-31529.750708311883,-19879.12742842763,-34824.733117190975,-26424.925199142122,-13958.351487916887,-32116.12637235241,0.0,0.0,0.0,193.0,0.0,193.0,0.0,0.0,0.0,179.0,193.0,0.0,179.0,1744420617.0213673,0.0,2025-04-11 21:16:57.021,BACKWARD,40
252.0,17912.48684078298,24550.61966784235,-31522.307577408264,-19873.40538184707,-34818.45227699903,-26412.85525713626,-14229.992238282233,-32156.515974583148,0.0,0.0,0.0,193.0,0.0,194.0,0.0,0.0,0.0,180.0,194.0,0.0,180.0,1744420617.0214088,0.0,2025-04-11 21:16:57.021,BACKWARD,40
253.0,17893.443154507062,24554.575926610938,-31519.021870973334,-19865.78343698781,-34818.005242109924,-26408.809591389847,-14549.577480504213,-32140.55682904206,0.0,0.0,0.0,193.0,0.0,193.0,0.0,0.0,0.0,179.0,193.0,0.0,179.0,1744420617.021489,0.0,2025-04-11 21:16:57.021,BACKWARD,40
254.0,17914.36438731723,24563.874252304347,-31507.22014990093,-19853.132349626107,-34809.2657100279,-26408.07198382282,-14445.284240875751,-32121.22257008822,0.0,0.0,0.0,193.0,0.0,193.0,0.0,0.0,0.0,179.0,193.0,0.0,179.0,1744420617.021532,0.0,2025-04-11 21:16:57.021,BACKWARD,40
255.0,17934.570364304825,24559.605069113382,-31520.675900063026,-19871.840759735198,-34826.185980580565,-26432.234219579008,-13980.256197483088,-32105.196369313762,0.0,0.0,0.0,193.0,0.0,193.0,0.0,0.0,0.0,179.0,193.0,0.0,179.0,1744420617.0215745,0.0,2025-04-11 21:16:57.021,BACKWARD,40
0.0,17931.530527058905,24552.094882976402,-31514.529170337817,-19872.444256835493,-34820.08395434427,-26420.700719440072,-14163.808722950069,-32155.197221660284,0.0,0.0,0.0,193.0,0.0,193.0,0.0,0.0,0.0,180.0,193.0,0.0,180.0,1744420617.0216165,0.0,2025-04-11 21:16:57.021,BACKWARD,40
1.0,17908.240009336474,24561.01322901407,-31511.13170518061,-19865.828140476722,-34814.63012869717,-26412.385870502698,-14510.73014864089,-32140.17684938632,0.0,0.0,0.0,193.0,0.0,194.0,0.0,0.0,0.0,180.0,194.0,0.0,180.0,1744420617.021658,0.0,2025-04-11 21:16:57.021,BACKWARD,40
2.0,17911.346901815763,24569.775112840547,-31499.933481208504,-19856.373352572125,-34806.02470708188,-26411.55885595785,-14515.178145787497,-32130.923227181822,0.0,0.0,0.0,193.0,0.0,193.0,0.0,0.0,0.0,179.0,193.0,0.0,179.0,1744420617.0217,0.0,2025-04-11 21:16:57.021,BACKWARD,40
3.0,17943.108730686752,24571.92088030826,-31508.404792357065,-19866.319878854738,-34817.669965943096,-26430.736652700503,-14034.101549875923,-32107.8785786484,0.0,0.0,0.0,193.0,0.0,194.0,0.0,0.0,0.0,179.0,194.0,0.0,179.0,1744420617.0217571,0.0,2025-04-11 21:16:57.021,BACKWARD,40
4.0,17928.669503768626,24548.96563875266,-31511.55638832526,-19876.489922581903,-34814.65248044163,-26427.674463710126,-14106.163573999833,-32161.567468830046,0.0,0.0,0.0,193.0,0.0,193.0,0.0,0.0,0.0,179.0,193.0,0.0,179.0,1744420617.0217993,0.0,2025-04-11 21:16:57.021,BACKWARD,40
5.0,17901.333320299786,24547.42336838524,-31509.05299294627,-19868.59975678918,-34807.72343966048,-26415.157486815155,-14448.793464755234,-32140.869753464434,0.0,0.0,0.0,193.0,0.0,193.0,0.0,0.0,0.0,179.0,193.0,0.0,179.0,1744420617.0218413,0.0,2025-04-11 21:16:57.021,BACKWARD,40
6.0,17908.754099458947,24559.38155166883,-31494.814931728237,-19855.591041516192,-34792.52425343088,-26406.507361710952,-14543.184881589996,-32125.089421878987,0.0,0.0,0.0,193.0,0.0,193.0,0.0,0.0,0.0,179.0,193.0,0.0,179.0,1744420617.0218828,0.0,2025-04-11 21:16:57.021,BACKWARD,40
7.0,17932.804576492857,24563.851900559894,-31508.158923168055,-19863.525910797824,-34808.4163437386,-26426.04278636489,-14073.21710267271,-32093.282889519083,0.0,0.0,0.0,193.0,0.0,193.0,0.0,0.0,0.0,179.0,193.0,0.0,179.0,1744420617.0219243,0.0,2025-04-11 21:16:57.021,BACKWARD,40
8.0,17937.721960273026,24556.364066167363,-31509.298862135278,-19872.31014636876,-34806.494093715446,-26417.839696149793,-14049.077218660977,-32145.988302944697,0.0,0.0,0.0,193.0,0.0,194.0,0.0,0.0,0.0,179.0,194.0,0.0,179.0,1744420617.0219655,0.0,2025-04-11 21:16:57.021,BACKWARD,40
9.0,17914.230276850496,24553.078359732433,-31509.05299294627,-19864.867015465145,-34805.17534079258,-26405.479181466006,-14404.559362478181,-32140.221552875228,0.0,0.0,0.0,193.0,0.0,193.0,0.0,0.0,0.0,179.0,193.0,0.0,179.0,1744420617.0220196,0.0,2025-04-11 21:16:57.022,BACKWARD,40
10.0,17907.457698280537,24561.952002281192,-31497.85476897416,-19858.31795433974,-34793.44067495354,-26401.120591297222,-14582.367489620148,-32134.45480280576,0.0,0.0,0.0,193.0,0.0,193.0,0.0,0.0,0.0,179.0,193.0,0.0,179.0,1744420617.022062,0.0,2025-04-11 21:16:57.022,BACKWARD,40
11.0,17932.759873003946,24564.991839527112,-31511.42227785853,-19869.605585289668,-34811.38912575116,-26427.89798115468,-14161.148865359888,-32109.331442037994,0.0,0.0,0.0,193.0,0.0,193.0,0.0,0.0,0.0,179.0,193.0,0.0,179.0,1744420617.0221038,0.0,2025-04-11 21:16:57.022,BACKWARD,40
12.0,17941.097073685774,24556.34171442291,-31513.970376726436,-19879.686222039014,-34816.59708220924,-26417.191495560586,-13993.287264500532,-32130.6326545039,0.0,0.0,0.0,193.0,0.0,193.0,0.0,0.0,0.0,179.0,193.0,0.0,179.0,1744420617.0221593,0.0,2025-04-11 21:16:57.022,BACKWARD,40
13.0,17922.8804019547,24558.085150490424,-31505.23084464441,-19863.995297431386,-34806.628204182176,-26392.246948748467,-14324.428358605905,-32108.325613537505,0.0,0.0,0.0,193.0,0.0,194.0,0.0,0.0,0.0,179.0,194.0,0.0,179.0,1744420617.0222015,0.0,2025-04-11 21:16:57.022,BACKWARD,40
14.0,17916.55485827385,24569.573947140452,-31491.23865261539,-19853.69114323749,-34792.434846453056,-26386.480198678997,-14585.563789077258,-32109.331442037994,0.0,0.0,0.0,193.0,0.0,193.0,0.0,0.0,0.0,179.0,193.0,0.0,179.0,1744420617.0222435,0.0,2025-04-11 21:16:57.022,BACKWARD,40
15.0,17938.459567840047,24570.445665174208,-31494.457303816955,-19858.07208515073,-34800.97321283498,-26410.30715826835,-14251.002878070221,-32082.643459158357,0.0,0.0,0.0,193.0,0.0,193.0,0.0,0.0,0.0,179.0,193.0,0.0,179.0,1744420617.02229,0.0,2025-04-11 21:16:57.022,BACKWARD,40
16.0,17950.283640656908,24561.572022625453,-31502.14630390958,-19878.680393538525,-34810.83033213977,-26423.89701889718,-13960.318441428954,-32115.612282229937,0.0,0.0,0.0,193.0,0.0,193.0,0.0,0.0,0.0,179.0,193.0,0.0,179.0,1744420617.0223317,0.0,2025-04-11 21:16:57.022,BACKWARD,40
17.0,17937.185518406095,24559.068627246455,-31496.468960817932,-19868.82327423373,-34803.14133204715,-26407.379079744707,-14253.170997282386,-32120.663776476835,0.0,0.0,0.0,193.0,0.0,193.0,0.0,0.0,0.0,179.0,193.0,0.0,179.0,1744420617.0223737,0.0,2025-04-11 21:16:57.022,BACKWARD,40
18.0,17910.63164599319,24569.73040935164,-31490.2328241149,-19860.709590996456,-34796.70402964402,-26399.555969185352,-14558.69699224198,-32117.02044213062,0.0,0.0,0.0,193.0,0.0,194.0,0.0,0.0,0.0,179.0,194.0,0.0,179.0,1744420617.0224276,0.0,2025-04-11 21:16:57.022,BACKWARD,40
19.0,17920.01937866442,24571.116217507868,-31492.22212937142,-19857.78151247281,-34803.65542216962,-26411.31298676884,-14350.870472296534,-32095.406305242337,0.0,0.0,0.0,193.0,0.0,193.0,0.0,0.0,0.0,179.0,193.0,0.0,179.0,1744420617.0224698,0.0,2025-04-11 21:16:57.022,BACKWARD,40
20.0,17944.338076631793,24569.126912251344,-31498.458266074453,-19868.39859108908,-34813.825465896785,-26421.572437473827,-13982.848999839904,-32111.521912994616,0.0,0.0,0.0,193.0,0.0,193.0,0.0,0.0,0.0,179.0,193.0,0.0,179.0,1744420617.0225115,0.0,2025-04-11 21:16:57.022,BACKWARD,40
21.0,17928.244820623975,24557.615763856862,-31494.636117772596,-19862.92241369753,-34805.39885823713,-26407.60259718926,-14216.312970675584,-32138.03108191861,0.0,0.0,0.0,193.0,0.0,194.0,0.0,0.0,0.0,180.0,194.0,0.0,180.0,1744420617.0225534,0.0,2025-04-11 21:16:57.022,BACKWARD,40
22.0,17902.808535433833,24567.048200017,-31490.054010159256,-19852.64061124809,-34793.060695297805,-26399.690079652082,-14537.440483264982,-32131.6831864933,0.0,0.0,0.0,193.0,0.0,193.0,0.0,0.0,0.0,179.0,193.0,0.0,179.0,1744420617.0225952,0.0,2025-04-11 21:16:57.022,BACKWARD,40
23.0,17906.027186635398,24569.171615740255,-31490.456341559453,-19850.271326335827,-34796.50286394392,-26408.295501267374,-14431.76143548029,-32110.40432577185,0.0,0.0,0.0,193.0,0.0,194.0,0.0,0.0,0.0,179.0,194.0,0.0,179.0,1744420617.022637,0.0,2025-04-11 21:16:57.022,BACKWARD,40
24.0,17934.27979162691,24571.563252396973,-31496.983050940402,-19863.525910797824,-34811.03149783987,-26419.896056639678,-13993.1531540338,-32096.233319787185,0.0,0.0,0.0,193.0,0.0,193.0,0.0,0.0,0.0,179.0,193.0,0.0,179.0,1744420617.0226903,0.0,2025-04-11 21:16:57.022,BACKWARD,40
25.0,17921.472242054017,24553.793615555005,-31493.183254383,-19867.281003866316,-34807.23170128247,-26414.486934481494,-14164.32281307254,-32146.92707621182,0.0,0.0,0.0,193.0,0.0,193.0,0.0,0.0,0.0,179.0,193.0,0.0,179.0,1744420617.0227325,0.0,2025-04-11 21:16:57.022,BACKWARD,40
26.0,17898.517000498414,24562.823720314947,-31485.71777173493,-19856.75333222787,-34795.20646276551,-26403.020489575923,-14495.910942067021,-32121.624901488412,0.0,0.0,0.0,193.0,0.0,193.0,0.0,0.0,0.0,179.0,193.0,0.0,179.0,1744420617.022774,0.0,2025-04-11 21:16:57.022,BACKWARD,40
27.0,17907.68121572509,24566.355295938887,-31476.866480930625,-19849.7348844689,-34789.774988862875,-26403.713393654038,-14516.005160332343,-32114.6288054739,0.0,0.0,0.0,193.0,0.0,193.0,0.0,0.0,0.0,179.0,193.0,0.0,179.0,1744420617.0228293,0.0,2025-04-11 21:16:57.022,BACKWARD,40
28.0,17926.970771190023,24565.1483017383,-31491.462170059942,-19865.962250943452,-34806.15881754861,-26428.8367544218,-14042.706971491216,-32093.998145341655,0.0,0.0,0.0,193.0,0.0,194.0,0.0,0.0,0.0,179.0,194.0,0.0,179.0,1744420617.0228715,0.0,2025-04-11 21:16:57.022,BACKWARD,40
29.0,17918.07477689681,24553.927726021735,-31495.261966617345,-19880.17796041703,-34807.522273960385,-26430.200210833576,-14106.990588544679,-32163.422663619836,0.0,0.0,0.0,193.0,0.0,193.0,0.0,0.0,0.0,179.0,193.0,0.0,179.0,1744420617.0229132,0.0,2025-04-11 21:16:57.022,BACKWARD,40
30.0,17898.047613864856,24562.399037170297,-31487.349449080164,-19864.97877418742,-34796.50286394392,-26406.105030310755,-14451.542729323237,-32131.83964870449,0.0,0.0,0.0,193.0,0.0,193.0,0.0,0.0,0.0,179.0,193.0,0.0,179.0,1744420617.022955,0.0,2025-04-11 21:16:57.022,BACKWARD,40
31.0,17897.153544086643,24566.109426749877,-31481.672105988517,-19860.776646229824,-34789.842044096236,-26406.03797507739,-14573.69501277149,-32128.01750040263,0.0,0.0,0.0,193.0,0.0,194.0,0.0,0.0,0.0,179.0,194.0,0.0,179.0,1744420617.022997,0.0,2025-04-11 21:16:57.022,BACKWARD,40
32.0,17923.997989177464,24565.10359824939,-31492.80327472726,-19869.49382656739,-34803.65542216962,-26432.32362655683,-14129.364684744442,-32101.68714543428,0.0,0.0,0.0,193.0,0.0,193.0,0.0,0.0,0.0,179.0,193.0,0.0,179.0,1744420617.0230384,0.0,2025-04-11 21:16:57.023,BACKWARD,40
33.0,17918.745329230467,24542.37187413834,-31504.023850443824,-19888.78338203232,-34811.12090481769,-26436.70456847007,-14057.660288531815,-32148.31288436805,0.0,0.0,0.0,193.0,0.0,194.0,0.0,0.0,0.0,179.0,194.0,0.0,179.0,1744420617.0230925,0.0,2025-04-11 21:16:57.023,BACKWARD,40
34.0,17895.790087674868,24543.869441016846,-31503.15213241007,-19881.36260287316,-34807.946957105036,-26426.9368561431,-14395.149278062498,-32138.902799952368,0.0,0.0,0.0,193.0,0.0,193.0,0.0,0.0,0.0,179.0,193.0,0.0,179.0,1744420617.0231345,0.0,2025-04-11 21:16:57.023,BACKWARD,40
35.0,17895.767735930414,24559.538013880017,-31490.41163807054,-19871.30431786827,-34799.341535489744,-26422.824135163326,-14607.088518987719,-32148.156422156862,0.0,0.0,0.0,193.0,0.0,194.0,0.0,0.0,0.0,179.0,194.0,0.0,179.0,1744420617.0231764,0.0,2025-04-11 21:16:57.023,BACKWARD,40
36.0,17917.22541060751,24563.226051715144,-31496.80423698476,-19872.198387646484,-34813.110210074214,-26442.918353428646,-14211.61910433997,-32113.131238595397,0.0,0.0,0.0,193.0,0.0,193.0,0.0,0.0,0.0,179.0,193.0,0.0,179.0,1744420617.023218,0.0,2025-04-11 21:16:57.023,BACKWARD,40
37.0,17918.119480385718,24547.870403274348,-31508.71771677944,-19893.477248367937,-34827.28121605888,-26453.71424600056,-14020.265820058086,-32158.281762395116,0.0,0.0,0.0,193.0,0.0,193.0,0.0,0.0,0.0,179.0,193.0,0.0,179.0,1744420617.02326,0.0,2025-04-11 21:16:57.023,BACKWARD,40
38.0,17899.34401504326,24551.75960680957,-31497.094809662678,-19876.40051560408,-34814.33955601926,-26429.976693389024,-14355.631393865515,-32151.129204169418,0.0,0.0,0.0,193.0,0.0,194.0,0.0,2.0,0.0,180.0,194.0,2.0,180.0,1744420617.0233016,0.0,2025-04-11 21:16:57.023,BACKWARD,40
39.0,17891.25268355044,24565.841205816414,-31482.52147227782,-19862.900061953078,-34795.49703544343,-26411.1341728132,-14603.333425919227,-32131.25850334865,0.0,0.0,0.0,193.0,0.0,193.0,0.0,3.0,0.0,179.0,193.0,3.0,179.0,1744420617.023357,0.0,2025-04-11 21:16:57.023,BACKWARD,40
40.0,17917.761852474436,24576.23476698813,-31478.05112338676,-19855.725151982922,-34794.871186598684,-26420.454850251062,-14287.100945365542,-32094.579290697493,0.0,0.0,0.0,193.0,0.0,193.0,0.0,4.0,0.0,179.0,193.0,4.0,179.0,1744420617.0233998,0.0,2025-04-11 21:16:57.023,BACKWARD,40
41.0,17927.21664037903,24557.9957435126,-31492.04331541578,-19879.462704594458,-34811.21031179551,-26441.17491736113,-13977.506932915085,-32138.70163425227,0.0,0.0,0.0,193.0,0.0,193.0,0.0,5.0,0.0,180.0,193.0,5.0,180.0,1744420617.0234423,0.0,2025-04-11 21:16:57.023,BACKWARD,40
42.0,17908.30706456984,24545.545821850996,-31486.835358957695,-19870.052620178776,-34804.214215781,-26418.666710694637,-14260.72588690828,-32139.729814497212,0.0,0.0,0.0,193.0,0.0,193.0,0.0,6.0,0.0,179.0,193.0,6.0,179.0,1744420617.0234983,0.0,2025-04-11 21:16:57.023,BACKWARD,40
43.0,17895.20894231903,24559.605069113382,-31474.094864618168,-19852.752369970367,-34793.53008193136,-26397.432553462095,-14571.303376114773,-32107.386840270385,0.0,0.0,0.0,193.0,0.0,193.0,0.0,7.0,0.0,179.0,193.0,7.0,179.0,1744420617.023541,0.0,2025-04-11 21:16:57.023,BACKWARD,40
44.0,17907.97178840301,24560.499138891595,-31478.162882109034,-19853.19940485947,-34795.988773821446,-26414.017547847936,-14392.154144305487,-32096.747409909658,0.0,0.0,0.0,193.0,0.0,193.0,0.0,8.0,0.0,179.0,193.0,8.0,179.0,1744420617.0235837,0.0,2025-04-11 21:16:57.023,BACKWARD,40
45.0,17920.421710064616,24545.657580573272,-31498.81589398574,-19877.786323760312,-34812.93139611857,-26438.13508011521,-13983.296034729008,-32107.990337370677,0.0,0.0,0.0,193.0,0.0,193.0,0.0,9.0,0.0,179.0,193.0,9.0,179.0,1744420617.0236263,0.0,2025-04-11 21:16:57.023,BACKWARD,40
46.0,17898.8746284097,24530.65956004376,-31506.728411522916,-19883.910701741064,-34817.535855476366,-26429.172030588634,-14208.24399092722,-32145.518916311135,0.0,0.0,0.0,193.0,0.0,194.0,0.0,9.0,0.0,180.0,194.0,9.0,180.0,1744420617.023669,0.0,2025-04-11 21:16:57.023,BACKWARD,40
47.0,17881.35086075674,24549.993818997602,-31494.054972416758,-19866.766913743846,-34798.1121895447,-26407.08850706679,-14561.893291699087,-32132.577256271514,0.0,0.0,0.0,193.0,0.0,193.0,0.0,10.0,0.0,179.0,193.0,10.0,179.0,1744420617.023724,0.0,2025-04-11 21:16:57.023,BACKWARD,40
48.0,17891.58795971727,24557.90633653478,-31490.99278342638,-19860.530777040814,-34789.55147141832,-26415.760983915447,-14475.168523212496,-32119.21091308724,0.0,0.0,0.0,193.0,0.0,194.0,0.0,11.0,0.0,180.0,194.0,11.0,180.0,1744420617.023767,0.0,2025-04-11 21:16:57.023,BACKWARD,40
49.0,17911.793936704868,24557.48165339013,-31510.28233889131,-19878.83685574971,-34807.812846638306,-26442.918353428646,-13995.410680223786,-32112.907721150845,0.0,0.0,0.0,193.0,0.0,194.0,0.0,11.0,0.0,179.0,194.0,11.0,179.0,1744420617.0238097,0.0,2025-04-11 21:16:57.023,BACKWARD,40
50.0,17909.98344540399,24552.47486263214,-31508.941234223992,-19876.08759118171,-34809.131599561166,-26431.921295156637,-14148.900109398379,-32158.23705890621,0.0,0.0,0.0,193.0,0.0,193.0,0.0,12.0,0.0,179.0,193.0,12.0,179.0,1744420617.0238526,0.0,2025-04-11 21:16:57.023,BACKWARD,40
51.0,17889.553950971836,24563.449569159697,-31501.76632425384,-19858.49676829538,-34806.69525941554,-26414.66574843714,-14494.189857743962,-32135.058299906053,0.0,0.0,0.0,193.0,0.0,194.0,0.0,12.0,0.0,180.0,194.0,12.0,180.0,1744420617.0238953,0.0,2025-04-11 21:16:57.023,BACKWARD,40
52.0,17895.566570230316,24576.927671066245,-31487.617670013628,-19843.431692532504,-34801.68846865755,-26406.529713455406,-14537.574593731713,-32129.157439369854,0.0,0.0,0.0,193.0,0.0,194.0,0.0,12.0,0.0,180.0,194.0,12.0,180.0,1744420617.023938,0.0,2025-04-11 21:16:57.023,BACKWARD,40
53.0,17923.9309339441,24584.124932780855,-31498.100638163167,-19854.093474637684,-34818.161704321115,-26428.009739876958,-14061.728306022682,-32097.909700621334,0.0,0.0,0.0,193.0,0.0,193.0,0.0,13.0,0.0,179.0,193.0,13.0,179.0,1744420617.0239809,0.0,2025-04-11 21:16:57.023,BACKWARD,40
54.0,17917.8289077078,24563.29310694851,-31504.3367748662,-19873.40538184707,-34825.358966035725,-26434.670559724636,-14106.431794933296,-32158.393521117396,0.0,0.0,0.0,193.0,0.0,194.0,0.0,13.0,0.0,180.0,194.0,13.0,180.0,1744420617.0241349,0.0,2025-04-11 21:16:57.024,BACKWARD,40
55.0,17891.96793937301,24552.63132484333,-31501.29693762028,-19866.632803277113,-34823.70493694603,-26421.46067875155,-14455.074304947175,-32140.55682904206,0.0,0.0,0.0,193.0,0.0,193.0,0.0,13.0,0.0,179.0,193.0,13.0,179.0,1744420617.0241785,0.0,2025-04-11 21:16:57.024,BACKWARD,40
56.0,17898.852276665246,24561.952002281192,-31487.260042102345,-19855.769855471834,-34812.774933907385,-26409.681309423606,-14597.432565383026,-32129.090384136485,0.0,0.0,0.0,193.0,0.0,194.0,0.0,13.0,0.0,180.0,194.0,13.0,180.0,1744420617.0242212,0.0,2025-04-11 21:16:57.024,BACKWARD,40
57.0,17927.797785734867,24573.239633231122,-31488.489388047386,-19855.92631768302,-34815.47949498647,-26423.070004352332,-14145.614402963449,-32084.766874881614,0.0,0.0,0.0,193.0,0.0,194.0,0.0,14.0,0.0,179.0,194.0,14.0,179.0,1744420617.024284,0.0,2025-04-11 21:16:57.024,BACKWARD,40
58.0,17928.244820623975,24561.750836581094,-31495.485484061897,-19876.109942926163,-34820.19571306655,-26432.480088768018,-14042.192881368743,-32145.541268055593,0.0,0.0,0.0,193.0,0.0,193.0,0.0,14.0,0.0,179.0,193.0,14.0,179.0,1744420617.0243273,0.0,2025-04-11 21:16:57.024,BACKWARD,40
59.0,17909.558762259338,24567.986973284125,-31492.356239838155,-19868.39859108908,-34814.384259508166,-26418.57730371682,-14380.642995911003,-32134.92418943932,0.0,0.0,0.0,193.0,0.0,194.0,0.0,14.0,0.0,180.0,194.0,14.0,180.0,1744420617.02437,0.0,2025-04-11 21:16:57.024,BACKWARD,40
60.0,17901.802706933344,24583.834360102937,-31481.046257143767,-19860.687239252,-34801.80022737983,-26409.681309423606,-14598.818373539254,-32130.185619614796,0.0,0.0,0.0,193.0,0.0,193.0,0.0,14.0,0.0,179.0,193.0,14.0,179.0,1744420617.024413,0.0,2025-04-11 21:16:57.024,BACKWARD,40
61.0,17921.53929728738,24580.1016187789,-31487.550614780263,-19863.391800331094,-34812.88669262966,-26423.002949118967,-14219.889249788434,-32083.716342892214,0.0,0.0,0.0,193.0,0.0,194.0,0.0,14.0,0.0,180.0,194.0,14.0,180.0,1744420617.024456,0.0,2025-04-11 21:16:57.024,BACKWARD,40
62.0,17926.367274089727,24562.689609848218,-31497.51949280733,-19883.150742429585,-34815.94888162004,-26431.65307422317,-14000.417470981774,-32119.50148576516,0.0,0.0,0.0,193.0,0.0,194.0,0.0,14.0,0.0,180.0,194.0,14.0,180.0,1744420617.0245132,0.0,2025-04-11 21:16:57.024,BACKWARD,40
63.0,17908.21765759202,24560.163862724767,-31494.971393939424,-19878.54628307179,-34808.05871582731,-26418.75611767246,-14310.458518321338,-32126.452878290762,0.0,0.0,0.0,193.0,0.0,193.0,0.0,15.0,0.0,179.0,193.0,15.0,179.0,1744420617.0245569,0.0,2025-04-11 21:16:57.024,BACKWARD,40
64.0,17898.137020842674,24569.23867097362,-31485.449550801462,-19868.577405044725,-34797.32987848877,-26407.557893700352,-14589.251826912383,-32120.26144507664,0.0,0.0,0.0,193.0,0.0,193.0,0.0,15.0,0.0,179.0,193.0,15.0,179.0,1744420617.0246,0.0,2025-04-11 21:16:57.024,BACKWARD,40
65.0,17915.34786407326,24571.742066352614,-31490.299879348266,-19869.06914342274,-34801.62141342419,-26423.204114819066,-14316.158213157441,-32099.340212266474,0.0,0.0,0.0,193.0,0.0,193.0,0.0,15.0,0.0,179.0,193.0,15.0,179.0,1744420617.0246432,0.0,2025-04-11 21:16:57.024,BACKWARD,40
66.0,17926.389625834185,24560.454435402684,-31504.85086498867,-19889.520989599347,-34813.89252113015,-26437.777452203925,-13985.464153941173,-32127.92809342481,0.0,0.0,0.0,193.0,0.0,193.0,0.0,15.0,0.0,179.0,193.0,15.0,179.0,1744420617.0246863,0.0,2025-04-11 21:16:57.024,BACKWARD,40
67.0,17911.793936704868,24556.54288012301,-31500.156998653056,-19880.513236583858,-34807.1646460491,-26420.119574084234,-14270.605357957525,-32148.335236112507,0.0,0.0,0.0,193.0,0.0,194.0,0.0,15.0,0.0,180.0,194.0,15.0,180.0,1744420617.0247297,0.0,2025-04-11 21:16:57.024,BACKWARD,40
68.0,17890.62683470569,24564.120121493357,-31493.205606127456,-19872.533663813312,-34797.57574767777,-26411.089469324288,-14577.293643628795,-32127.861038191444,0.0,0.0,0.0,193.0,0.0,193.0,0.0,15.0,0.0,179.0,193.0,15.0,179.0,1744420617.0247736,0.0,2025-04-11 21:16:57.024,BACKWARD,40
69.0,17899.321663298808,24560.700304591694,-31492.691516004983,-19871.237262634906,-34797.86632035569,-26425.349882286773,-14399.865496142567,-32109.666718204826,0.0,0.0,0.0,193.0,0.0,194.0,0.0,15.0,0.0,180.0,194.0,15.0,180.0,1744420617.0249245,0.0,2025-04-11 21:16:57.024,BACKWARD,40
70.0,17922.50042229896,24556.0958452339,-31507.33190862321,-19888.716326798956,-34817.468800243,-26446.919315686147,-13983.698366129205,-32123.25657883365,0.0,0.0,0.0,193.0,0.0,194.0,0.0,15.0,0.0,179.0,194.0,15.0,179.0,1744420617.024968,0.0,2025-04-11 21:16:57.024,BACKWARD,40
71.0,17909.73757621498,24549.837356786415,-31507.398963856576,-19888.73867854341,-34813.75841066342,-26440.727882472027,-14200.644397812415,-32160.9416199853,0.0,0.0,0.0,193.0,0.0,194.0,0.0,15.0,0.0,180.0,194.0,15.0,180.0,1744420617.0250108,0.0,2025-04-11 21:16:57.025,BACKWARD,40
72.0,17884.413049747116,24571.697362863706,-31491.41746657103,-19868.21977713344,-34795.51938718789,-26415.157486815155,-14537.932221643,-32135.505334795158,0.0,0.0,0.0,193.0,0.0,194.0,0.0,15.0,0.0,180.0,194.0,15.0,180.0,1744420617.0250745,0.0,2025-04-11 21:16:57.025,BACKWARD,40
73.0,17893.443154507062,24577.66527863327,-31479.772207709815,-19851.79124495879,-34788.299773728824,-26405.725050655015,-14483.349261683139,-32109.26438680463,0.0,0.0,0.0,193.0,0.0,193.0,0.0,16.0,0.0,179.0,193.0,16.0,179.0,1744420617.025118,0.0,2025-04-11 21:16:57.025,BACKWARD,40
74.0,17924.288561855385,24574.044296031512,-31489.450513058964,-19860.687239252,-34806.09176231525,-26421.125402584723,-14003.166735549778,-32078.754255623135,0.0,0.0,0.0,193.0,0.0,194.0,0.0,16.0,0.0,180.0,194.0,16.0,180.0,1744420617.0251613,0.0,2025-04-11 21:16:57.025,BACKWARD,40
75.0,17921.718111243023,24564.455397660186,-31486.053047901758,-19864.73290499841,-34802.001393079925,-26414.531637970405,-14124.849632364469,-32129.760936470146,0.0,0.0,0.0,193.0,0.0,193.0,0.0,16.0,0.0,179.0,193.0,16.0,179.0,1744420617.025204,0.0,2025-04-11 21:16:57.025,BACKWARD,40
76.0,17898.338186542773,24576.033601288036,-31484.153149623056,-19857.021553161332,-34803.32014600279,-26408.831943134304,-14468.306537664717,-32119.568540998527,0.0,0.0,0.0,193.0,0.0,194.0,0.0,16.0,0.0,180.0,194.0,16.0,180.0,1744420617.025247,0.0,2025-04-11 21:16:57.025,BACKWARD,40
77.0,17895.432459763582,24576.48063617714,-31484.153149623056,-19854.40639906006,-34811.00914609541,-26419.1360973282,-14550.44919853797,-32130.431488803806,0.0,0.0,0.0,193.0,0.0,194.0,0.0,16.0,0.0,179.0,194.0,16.0,179.0,1744420617.0253026,0.0,2025-04-11 21:16:57.025,BACKWARD,40
78.0,17924.109747899744,24576.65945013278,-31491.529225293307,-19861.35779158566,-34818.631090954674,-26444.505327284973,-14076.994547485656,-32108.660889704337,0.0,0.0,0.0,193.0,0.0,193.0,0.0,16.0,0.0,179.0,193.0,16.0,179.0,1744420617.025346,0.0,2025-04-11 21:16:57.025,BACKWARD,40
79.0,17923.618009521724,24556.96756326766,-31489.226995614412,-19866.699858510477,-34809.55628270582,-26435.207001591567,-14071.674832305293,-32147.530573312113,0.0,0.0,0.0,193.0,0.0,193.0,0.0,16.0,0.0,179.0,193.0,16.0,179.0,1744420617.0253887,0.0,2025-04-11 21:16:57.025,BACKWARD,40
80.0,17897.153544086643,24563.829548815436,-31483.32613507821,-19851.478320536415,-34803.27544251388,-26412.631739691704,-14405.18521132293,-32115.746392696667,0.0,0.0,0.0,193.0,0.0,194.0,0.0,16.0,0.0,180.0,194.0,16.0,180.0,1744420617.0254316,0.0,2025-04-11 21:16:57.025,BACKWARD,40
81.0,17894.896017896655,24579.364011211874,-31470.47388201641,-19837.97786688541,-34789.618526651684,-26401.008832574946,-14552.55026251677,-32105.464590247226,0.0,0.0,0.0,193.0,0.0,194.0,0.0,16.0,0.0,179.0,194.0,16.0,179.0,1744420617.0254743,0.0,2025-04-11 21:16:57.025,BACKWARD,40
82.0,17919.147660630664,24578.604051900395,-31482.923803678015,-19846.091550122685,-34805.48826521495,-26421.974768874024,-14114.768995615124,-32065.29850546104,0.0,0.0,0.0,193.0,0.0,193.0,0.0,16.0,0.0,179.0,193.0,16.0,179.0,1744420617.0255177,0.0,2025-04-11 21:16:57.025,BACKWARD,40
83.0,17917.963018174534,24557.883984790325,-31499.24057713039,-19876.154646415074,-34825.22485556899,-26438.51505977095,-14024.177375337766,-32142.881410465412,0.0,0.0,0.0,193.0,0.0,194.0,0.0,16.0,0.0,180.0,194.0,16.0,180.0,1744420617.0255606,0.0,2025-04-11 21:16:57.025,BACKWARD,40
84.0,17901.087451110776,24558.77805456854,-31493.071495660723,-19864.464684064948,-34812.93139611857,-26415.89509438218,-14378.139600532008,-32133.091346393987,0.0,0.0,0.0,193.0,0.0,193.0,0.0,16.0,0.0,180.0,193.0,16.0,180.0,1744420617.025701,0.0,2025-04-11 21:16:57.025,BACKWARD,40
85.0,17894.225465562995,24572.47967391964,-31480.621573999117,-19852.528852525815,-34790.959631319005,-26397.99134707348,-14572.040983681796,-32094.44518023076,0.0,0.0,0.0,193.0,0.0,193.0,0.0,16.0,0.0,179.0,193.0,16.0,179.0,1744420617.025745,0.0,2025-04-11 21:16:57.025,BACKWARD,40
86.0,17915.616085006724,24573.19492974221,-31489.89754794807,-19858.92145144003,-34800.63793666815,-26421.192457818088,-14213.898982274412,-32076.25086024414,0.0,0.0,0.0,193.0,0.0,193.0,0.0,16.0,0.0,179.0,193.0,16.0,179.0,1744420617.0257878,0.0,2025-04-11 21:16:57.025,BACKWARD,40
87.0,17926.099053156264,24559.292144691008,-31503.75562951036,-19884.916530241553,-34813.2666722854,-26436.65986498116,-13985.553560918996,-32127.92809342481,0.0,0.0,0.0,193.0,0.0,193.0,0.0,16.0,0.0,179.0,193.0,16.0,179.0,1744420617.0258472,0.0,2025-04-11 21:16:57.025,BACKWARD,40
88.0,17899.634587721182,24551.469034131653,-31502.90626322106,-19881.36260287316,-34811.50088447343,-26422.46650725204,-14295.885180936479,-32137.718157496234,0.0,0.0,0.0,193.0,0.0,194.0,0.0,16.0,0.0,180.0,194.0,16.0,180.0,1744420617.0258906,0.0,2025-04-11 21:16:57.025,BACKWARD,40
89.0,17882.602558446237,24562.756665081582,-31490.523396792818,-19867.772742244335,-34796.14523603264,-26404.093373309777,-14581.585178564213,-32125.514105023638,0.0,0.0,0.0,193.0,0.0,193.0,0.0,16.0,0.0,179.0,193.0,16.0,179.0,1744420617.0259335,0.0,2025-04-11 21:16:57.025,BACKWARD,40
90.0,17911.548067515858,24572.703191364195,-31486.14245487958,-19856.149835127573,-34793.93241333156,-26407.066155322333,-14328.205803418852,-32090.488921462173,0.0,0.0,0.0,193.0,0.0,193.0,0.0,16.0,0.0,179.0,193.0,16.0,179.0,1744420617.0259762,0.0,2025-04-11 21:16:57.025,BACKWARD,40
91.0,17923.439195566083,24564.00836277108,-31503.040373687792,-19877.763972015855,-34811.32207051779,-26425.12636484222,-13971.784886334526,-32097.417962243315,0.0,0.0,0.0,193.0,0.0,194.0,0.0,16.0,0.0,180.0,194.0,16.0,180.0,1744420617.0260189,0.0,2025-04-11 21:16:57.026,BACKWARD,40
92.0,17909.178782603598,24559.158034224278,-31494.09967590567,-19869.02443993383,-34803.14133204715,-26408.116687311733,-14237.34596220803,-32123.167171855832,0.0,0.0,0.0,193.0,0.0,193.0,0.0,16.0,0.0,179.0,193.0,16.0,179.0,1744420617.4996593,0.0,2025-04-11 21:16:57.499,BACKWARD,40
93.0,17889.375137016195,24576.81591234397,-31489.3834578256,-19859.726114240424,-34797.396933722135,-26396.627890661704,-14551.656192738557,-32108.370317026416,0.0,0.0,0.0,193.0,0.0,194.0,0.0,17.0,0.0,180.0,194.0,17.0,180.0,1744420617.4998035,0.0,2025-04-11 21:16:57.499,BACKWARD,40
94.0,17902.8755906672,24585.331926981442,-31482.633231000094,-19852.618259503637,-34786.15400626112,-26401.545274441873,-14407.040406112721,-32087.985526083176,0.0,0.0,0.0,193.0,0.0,193.0,0.0,16.0,0.0,179.0,193.0,16.0,179.0,1744420617.4998517,0.0,2025-04-11 21:16:57.499,BACKWARD,40
95.0,17925.20498337805,24568.322249450954,-31500.112295164145,-19871.952518457478,-34803.92364310308,-26426.579228231818,-13969.639118866817,-32088.767837139112,0.0,0.0,0.0,193.0,0.0,194.0,0.0,16.0,0.0,180.0,194.0,16.0,180.0,1744420617.4998963,0.0,2025-04-11 21:16:57.499,BACKWARD,40
96.0,17904.596674990258,24550.060874230967,-31504.604995799662,-19875.439390592503,-34810.76327690641,-26420.924236884624,-14178.359708590473,-32137.382881329406,0.0,0.0,0.0,193.0,0.0,194.0,0.0,16.0,0.0,180.0,194.0,16.0,180.0,1744420617.4999423,0.0,2025-04-11 21:16:57.499,BACKWARD,40
97.0,17879.741535155958,24559.448606902195,-31500.939309708992,-19864.375277087125,-34809.28806177236,-26406.999100088968,-14520.028474334298,-32120.39555554337,0.0,0.0,0.0,193.0,0.0,193.0,0.0,17.0,0.0,179.0,193.0,17.0,179.0,1744420617.4999895,0.0,2025-04-11 21:16:57.499,BACKWARD,40
98.0,17899.098145854252,24568.23284247313,-31492.42329507152,-19854.45110254897,-34803.23073902497,-26408.45196347856,-14507.332683483683,-32120.104982865454,0.0,0.0,0.0,193.0,0.0,193.0,0.0,17.0,0.0,179.0,193.0,17.0,179.0,1744420617.5002785,0.0,2025-04-11 21:16:57.500,BACKWARD,40
99.0,17925.629666522702,24567.964621539668,-31506.81781850074,-19868.152721900075,-34821.2685968004,-26430.177859089123,-14025.272610816075,-32086.39855222685,0.0,0.0,0.0,193.0,0.0,194.0,0.0,17.0,0.0,179.0,194.0,17.0,179.0,1744420617.5003235,0.0,2025-04-11 21:16:57.500,BACKWARD,40
100.0,17908.240009336474,24554.374760910843,-31506.706059778462,-19873.98652720291,-34820.866265400204,-26418.17497231662,-14129.051760322067,-32125.290587579086,0.0,0.0,0.0,193.0,0.0,193.0,0.0,17.0,0.0,179.0,193.0,17.0,179.0,1744420617.5003672,0.0,2025-04-11 21:16:57.500,BACKWARD,40
101.0,17877.171084543595,24557.056970245478,-31505.47671383342,-19868.8903294671,-34816.50767523142,-26410.061289079345,-14476.19670345744,-32111.99129962818,0.0,0.0,0.0,193.0,0.0,194.0,0.0,17.0,0.0,180.0,194.0,17.0,180.0,1744420617.5004108,0.0,2025-04-11 21:16:57.500,BACKWARD,40
102.0,17882.69196542406,24564.231880215633,-31492.80327472726,-19859.055561906764,-34803.25309076942,-26410.441268735085,-14562.69795449948,-32118.87563692041,0.0,0.0,0.0,193.0,0.0,193.0,0.0,17.0,0.0,179.0,193.0,17.0,179.0,1744420617.500476,0.0,2025-04-11 21:16:57.500,BACKWARD,40
103.0,17911.413957049128,24569.015153529068,-31497.3853823406,-19864.621146276135,-34803.45425646952,-26428.814402677348,-14077.240416674664,-32078.083703289474,0.0,0.0,0.0,193.0,0.0,194.0,0.0,17.0,0.0,180.0,194.0,17.0,180.0,1744420617.5005195,0.0,2025-04-11 21:16:57.500,BACKWARD,40
104.0,17909.804631448347,24549.122100963843,-31504.1356091661,-19883.195445918496,-34811.14325656214,-26431.51896375644,-14060.789532755558,-32135.63944526189,0.0,0.0,0.0,193.0,0.0,194.0,0.0,17.0,0.0,180.0,194.0,17.0,180.0,1744420617.500563,0.0,2025-04-11 21:16:57.500,BACKWARD,40
105.0,17890.179799816586,24553.748912066094,-31502.14630390958,-19874.634727792112,-34812.39495425164,-26419.18080081711,-14404.581714222637,-32131.30320683756,0.0,0.0,0.0,193.0,0.0,193.0,0.0,17.0,0.0,179.0,193.0,17.0,179.0,1744420617.500606,0.0,2025-04-11 21:16:57.500,BACKWARD,40
106.0,17895.767735930414,24570.512720407572,-31489.51756829233,-19860.240204362894,-34804.30362275882,-26410.865951879736,-14582.188675664507,-32140.065090664044,0.0,0.0,0.0,193.0,0.0,194.0,0.0,17.0,0.0,180.0,194.0,17.0,180.0,1744420617.5006492,0.0,2025-04-11 21:16:57.500,BACKWARD,40
107.0,17924.82500372231,24572.39026694182,-31499.173521897024,-19861.335439841205,-34821.24624505595,-26427.7862224324,-14176.638624267414,-32107.185674570286,0.0,0.0,0.0,193.0,0.0,193.0,0.0,17.0,0.0,179.0,193.0,17.0,179.0,1744420617.5007195,0.0,2025-04-11 21:16:57.500,BACKWARD,40
108.0,17921.36048333174,24550.99964749809,-31510.729373780418,-19885.45297210848,-34828.06352711481,-26435.89990566968,-14047.981983182668,-32149.274009379627,0.0,0.0,0.0,193.0,0.0,194.0,0.0,17.0,0.0,180.0,194.0,17.0,180.0,1744420617.5007632,0.0,2025-04-11 21:16:57.500,BACKWARD,40
109.0,17891.87853239519,24548.652714330285,-31506.706059778462,-19878.568634816245,-34822.1179630897,-26424.455812508564,-14372.03757429571,-32144.781308744114,0.0,0.0,0.0,193.0,0.0,194.0,0.0,17.0,0.0,180.0,194.0,17.0,180.0,1744420617.5008066,0.0,2025-04-11 21:16:57.500,BACKWARD,40
110.0,17883.653090435637,24567.159958739277,-31489.115236892136,-19861.626012519126,-34801.733172146465,-26408.004928589457,-14613.235248712928,-32135.237113861695,0.0,0.0,0.0,193.0,0.0,193.0,0.0,17.0,0.0,179.0,193.0,17.0,179.0,1744420617.5008495,0.0,2025-04-11 21:16:57.500,BACKWARD,40
111.0,17915.414919306626,24576.23476698813,-31488.399981069564,-19854.27228859333,-34802.5154832024,-26416.90092288267,-14262.335212509062,-32089.125465050398,0.0,0.0,0.0,193.0,0.0,194.0,0.0,17.0,0.0,180.0,194.0,17.0,180.0,1744420617.500893,0.0,2025-04-11 21:16:57.500,BACKWARD,40
112.0,17927.238992123486,24569.73040935164,-31495.776056739815,-19869.784399245313,-34808.55045420533,-26422.377100274218,-13985.464153941173,-32107.297433292562,0.0,0.0,0.0,193.0,0.0,193.0,0.0,17.0,0.0,179.0,193.0,17.0,179.0,1744420617.5009375,0.0,2025-04-11 21:16:57.500,BACKWARD,40
113.0,17903.277922067395,24571.92088030826,-31485.762475223837,-19855.45693104946,-34796.01112556591,-26397.141980784178,-14270.9182823799,-32104.235244302185,0.0,0.0,0.0,193.0,0.0,194.0,0.0,17.0,0.0,180.0,194.0,17.0,180.0,1744420617.5011892,0.0,2025-04-11 21:16:57.501,BACKWARD,40
114.0,17888.525770726894,24579.609880400883,-31483.79552171177,-19847.007971645355,-34796.88284359966,-26389.207111502543,-14565.804846978766,-32101.50833147864,0.0,0.0,0.0,193.0,0.0,193.0,0.0,17.0,0.0,179.0,193.0,17.0,179.0,1744420617.5012352,0.0,2025-04-11 21:16:57.501,BACKWARD,40
115.0,17907.12242211371,24582.090924035423,-31485.248385101368,-19842.31410530974,-34801.59906167973,-26397.298442995365,-14336.207727933852,-32068.62891538488,0.0,0.0,0.0,193.0,0.0,193.0,0.0,17.0,0.0,179.0,193.0,17.0,179.0,1744420617.5012784,0.0,2025-04-11 21:16:57.501,BACKWARD,40
116.0,17923.997989177464,24569.90922330728,-31496.893643962583,-19861.514253796846,-34816.30650953132,-26416.74446067148,-13973.684784613228,-32088.36550573892,0.0,0.0,0.0,193.0,0.0,194.0,0.0,17.0,0.0,180.0,194.0,17.0,180.0,1744420617.5013213,0.0,2025-04-11 21:16:57.501,BACKWARD,40
117.0,17910.96692216002,24559.76153132457,-31490.501045048364,-19857.334477583707,-34805.778837892874,-26403.400469231663,-14237.703590119314,-32122.20604684425,0.0,0.0,0.0,193.0,0.0,193.0,0.0,17.0,0.0,179.0,193.0,17.0,179.0,1744420617.5013816,0.0,2025-04-11 21:16:57.501,BACKWARD,40
118.0,17885.06125033632,24565.058894760477,-31487.394152569075,-19852.528852525815,-34798.38041047817,-26392.93985282658,-14538.893346654577,-32097.7755901546,0.0,0.0,0.0,193.0,0.0,193.0,0.0,17.0,0.0,179.0,193.0,17.0,179.0,1744420617.501425,0.0,2025-04-11 21:16:57.501,BACKWARD,40
119.0,17898.002910375944,24566.981144783636,-31481.3815333106,-19848.818462946234,-34792.39014296414,-26397.65607090665,-14422.373702809062,-32081.257651002128,0.0,0.0,0.0,193.0,0.0,193.0,0.0,17.0,0.0,179.0,193.0,17.0,179.0,1744420617.5014677,0.0,2025-04-11 21:16:57.501,BACKWARD,40
120.0,17921.271076353918,24566.042371516513,-31487.438856057986,-19859.8378729627,-34795.564090676795,-26413.74932691447,-13973.081287512934,-32071.936973564265,0.0,0.0,0.0,193.0,0.0,193.0,0.0,17.0,0.0,180.0,193.0,17.0,180.0,1744420617.501511,0.0,2025-04-11 21:16:57.501,BACKWARD,40
121.0,17905.334282557284,24553.726560321636,-31493.27266136082,-19868.376239344627,-34797.28517499986,-26410.016585590434,-14147.380190775419,-32119.076802620508,0.0,0.0,0.0,193.0,0.0,194.0,0.0,17.0,0.0,180.0,194.0,17.0,180.0,1744420617.501554,0.0,2025-04-11 21:16:57.501,BACKWARD,40
122.0,17886.670575937103,24568.0987320064,-31487.483559546898,-19857.334477583707,-34787.048076039326,-26394.41506796063,-14496.648549634047,-32105.509293736137,0.0,0.0,0.0,193.0,0.0,193.0,0.0,17.0,0.0,179.0,193.0,17.0,179.0,1744420617.5016112,0.0,2025-04-11 21:16:57.501,BACKWARD,40
123.0,17896.907674897633,24573.37374369785,-31478.27464083131,-19845.35394255566,-34779.26966896888,-26394.638585405184,-14488.713680352412,-32098.133218065886,0.0,0.0,0.0,193.0,0.0,193.0,0.0,17.0,0.0,179.0,193.0,17.0,179.0,1744420617.5016549,0.0,2025-04-11 21:16:57.501,BACKWARD,40
124.0,17925.316742100327,24570.780941341036,-31494.99374568388,-19857.78151247281,-34797.68750640005,-26420.477201995516,-14008.665264685782,-32077.68137188928,0.0,0.0,0.0,193.0,0.0,194.0,0.0,17.0,0.0,180.0,194.0,17.0,180.0,1744420617.5016975,0.0,2025-04-11 21:16:57.501,BACKWARD,40
125.0,17916.17487861811,24554.53122312203,-31500.380516097608,-19866.431637577014,-34803.29779425833,-26416.543294971383,-14100.352120441452,-32130.342081825984,0.0,0.0,0.0,193.0,0.0,193.0,0.0,17.0,0.0,179.0,193.0,17.0,179.0,1744420617.5017407,0.0,2025-04-11 21:16:57.501,BACKWARD,40
126.0,17890.69388993906,24559.515662135564,-31495.776056739815,-19852.126521125618,-34800.660288412604,-26398.259568006943,-14451.274508389773,-32110.829008916502,0.0,0.0,0.0,193.0,0.0,193.0,0.0,17.0,0.0,179.0,193.0,17.0,179.0,1744420617.5017889,0.0,2025-04-11 21:16:57.501,BACKWARD,40
127.0,17894.136058585176,24572.01028728608,-31486.164806624034,-19842.69408496548,-34794.938241832046,-26392.425762704108,-14545.30829731325,-32101.821255901014,0.0,0.0,0.0,193.0,0.0,194.0,0.0,17.0,0.0,180.0,194.0,17.0,180.0,1744420617.5018325,0.0,2025-04-11 21:16:57.501,BACKWARD,40
128.0,17917.963018174534,24574.916014065268,-31497.452437573964,-19852.01476240334,-34812.75258216293,-26415.828039148815,-14090.226780203198,-32074.999162554643,0.0,0.0,0.0,193.0,0.0,193.0,0.0,17.0,0.0,179.0,193.0,17.0,179.0,1744420617.5020032,0.0,2025-04-11 21:16:57.502,BACKWARD,40
129.0,17912.598599505258,24557.727522579138,-31504.42618184402,-19869.471474822938,-34818.22875955448,-26420.253684550964,-14066.645689802848,-32141.07091916453,0.0,0.0,0.0,193.0,0.0,193.0,0.0,17.0,0.0,179.0,193.0,17.0,179.0,1744420617.502047,0.0,2025-04-11 21:16:57.502,BACKWARD,40
130.0,17886.82703814829,24557.615763856862,-31500.693440519983,-19860.910756696554,-34811.21031179551,-26406.149733799666,-14416.651656228501,-32126.07289863502,0.0,0.0,0.0,193.0,0.0,194.0,0.0,17.0,0.0,180.0,194.0,17.0,180.0,1744420617.5021088,0.0,2025-04-11 21:16:57.502,BACKWARD,40
131.0,17885.59769220325,24560.61089761387,-31493.09384740518,-19856.93214618351,-34804.84006462575,-26406.59676868877,-14606.239152698417,-32124.7317939677,0.0,0.0,0.0,193.0,0.0,193.0,0.0,17.0,0.0,179.0,193.0,17.0,179.0,1744420617.502269,0.0,2025-04-11 21:16:57.502,BACKWARD,40
132.0,17915.437271051083,24570.780941341036,-31496.826588729215,-19859.21202411795,-34810.76327690641,-26423.248818307977,-14206.522906604161,-32090.377162739893,0.0,0.0,0.0,193.0,0.0,193.0,0.0,17.0,0.0,179.0,193.0,17.0,179.0,1744420617.5023158,0.0,2025-04-11 21:16:57.502,BACKWARD,40
133.0,17912.88917218318,24553.078359732433,-31512.249292403376,-19884.849475008188,-34822.3191287898,-26434.268228324443,-14017.49420374563,-32116.68516596379,0.0,0.0,0.0,193.0,0.0,194.0,0.0,17.0,0.0,180.0,194.0,17.0,180.0,1744420617.5023627,0.0,2025-04-11 21:16:57.502,BACKWARD,40
134.0,17892.146753328652,24547.71394106316,-31507.957757467957,-19875.327631870226,-34818.005242109924,-26420.074870595323,-14340.454559380361,-32114.047660118064,0.0,0.0,0.0,193.0,0.0,193.0,0.0,17.0,0.0,179.0,193.0,17.0,179.0,1744420617.502417,0.0,2025-04-11 21:16:57.502,BACKWARD,40
135.0,17884.033070091376,24558.465130146164,-31497.720658507427,-19866.923375955033,-34811.70205017353,-26416.14096357119,-14596.27027467135,-32120.954349154756,0.0,0.0,0.0,193.0,0.0,193.0,0.0,17.0,0.0,179.0,193.0,17.0,179.0,1744420617.5024693,0.0,2025-04-11 21:16:57.502,BACKWARD,40
136.0,17908.865858181223,24571.742066352614,-31489.31640259223,-19855.70280023847,-34803.43190472507,-26420.85718165126,-14274.472209748294,-32086.24209001566,0.0,0.0,0.0,193.0,0.0,194.0,0.0,17.0,0.0,180.0,194.0,17.0,180.0,1744420617.5025468,0.0,2025-04-11 21:16:57.502,BACKWARD,40
137.0,17917.761852474436,24565.595336627404,-31504.470885332932,-19879.97679471693,-34815.904178131124,-26435.22935333602,-13975.808200336482,-32116.238131074686,0.0,0.0,0.0,193.0,0.0,193.0,0.0,17.0,0.0,179.0,193.0,17.0,179.0,1744420617.5025969,0.0,2025-04-11 21:16:57.502,BACKWARD,40
138.0,17894.58309347428,24557.749874323592,-31504.225016143922,-19875.305280125773,-34815.68066068657,-26419.337263028297,-14268.705459678826,-32124.9329596678,0.0,0.0,0.0,193.0,0.0,193.0,0.0,17.0,0.0,179.0,193.0,17.0,179.0,1744420617.5026426,0.0,2025-04-11 21:16:57.502,BACKWARD,40
139.0,17880.076811322786,24558.040447001513,-31495.440780572986,-19862.967117186443,-34806.85172162673,-26404.94273959908,-14575.907835472564,-32105.196369313762,0.0,0.0,0.0,193.0,0.0,194.0,0.0,17.0,0.0,179.0,194.0,17.0,179.0,1744420617.5026903,0.0,2025-04-11 21:16:57.502,BACKWARD,40
140.0,17900.59571273276,24567.092903505913,-31489.80814097025,-19853.087646137195,-34802.627241924674,-26407.669652422628,-14373.55749291867,-32083.045790558554,0.0,0.0,0.0,193.0,0.0,193.0,0.0,17.0,0.0,179.0,193.0,17.0,179.0,1744420617.5027611,0.0,2025-04-11 21:16:57.502,BACKWARD,40
141.0,17917.06894839632,24559.560365624475,-31507.890702234592,-19874.567672558747,-34821.156838078125,-26427.36153928775,-13979.317424215964,-32092.277061018594,0.0,0.0,0.0,193.0,0.0,193.0,0.0,17.0,0.0,180.0,193.0,17.0,180.0,1744420617.50281,0.0,2025-04-11 21:16:57.502,BACKWARD,40
142.0,17900.416898777115,24548.496252119097,-31507.24250164539,-19869.538530056303,-34816.977061864985,-26412.765850158437,-14227.220621969775,-32127.8833899359,0.0,0.0,0.0,193.0,0.0,193.0,0.0,17.0,0.0,179.0,193.0,17.0,179.0,1744420617.5029464,0.0,2025-04-11 21:16:57.502,BACKWARD,40
143.0,17882.155523557132,24565.52828139404,-31495.865463717637,-19851.03128564731,-34796.45816045501,-26389.229463247,-14556.707686985457,-32104.414058257826,0.0,0.0,0.0,193.0,0.0,193.0,0.0,17.0,0.0,179.0,193.0,17.0,179.0,1744420617.5034037,0.0,2025-04-11 21:16:57.503,BACKWARD,40
144.0,17891.856180650735,24567.80815932848,-31496.044277673278,-19847.365599556637,-34794.75942787641,-26392.805742359847,-14432.767263980779,-32081.436464957773,0.0,0.0,0.0,193.0,0.0,194.0,0.0,17.0,0.0,180.0,194.0,17.0,180.0,1744420617.5034745,0.0,2025-04-11 21:16:57.503,BACKWARD,40
145.0,17908.284712825385,24557.77222606805,-31510.170580169033,-19864.93407069851,-34808.729268160976,-26413.0340710919,-13975.897607314302,-32075.647363143846,0.0,0.0,0.0,193.0,0.0,193.0,0.0,17.0,0.0,179.0,193.0,17.0,179.0,1744420617.5035293,0.0,2025-04-11 21:16:57.503,BACKWARD,40
146.0,17894.694852196557,24539.510850848063,-31512.56221682575,-19874.97000395894,-34808.46104722751,-26412.095297824777,-14146.262603552654,-32128.531590525105,0.0,0.0,0.0,193.0,0.0,193.0,0.0,17.0,0.0,179.0,193.0,17.0,179.0,1744420617.503752,0.0,2025-04-11 21:16:57.503,BACKWARD,40
147.0,17872.074886807786,24550.57496435344,-31508.382440612608,-19864.799960231776,-34803.7671808919,-26395.666765650127,-14500.20247700244,-32106.313956536527,0.0,0.0,0.0,193.0,0.0,194.0,0.0,17.0,0.0,180.0,194.0,17.0,180.0,1744420617.5038173,0.0,2025-04-11 21:16:57.503,BACKWARD,40
148.0,17885.53063696988,24563.136644737322,-31494.725524750418,-19848.50553852386,-34790.825520852275,-26385.8767015787,-14517.279209766295,-32079.044828301056,0.0,0.0,0.0,193.0,0.0,193.0,0.0,17.0,0.0,179.0,193.0,17.0,179.0,1744420617.503876,0.0,2025-04-11 21:16:57.503,BACKWARD,40
149.0,17911.03397739339,24562.197871470198,-31513.836266259703,-19865.872843965633,-34810.807980395315,-26415.64922519317,-14024.624410226872,-32056.04488325654,0.0,0.0,0.0,193.0,0.0,193.0,0.0,17.0,0.0,179.0,193.0,17.0,179.0,1744420617.5039384,0.0,2025-04-11 21:16:57.503,BACKWARD,40
150.0,17897.44411676456,24544.092958461402,-31520.362975640655,-19881.675527295534,-34818.787553165865,-26416.74446067148,-14095.390033172374,-32122.943654411276,0.0,0.0,0.0,193.0,0.0,194.0,0.0,17.0,0.0,180.0,194.0,17.0,180.0,1744420617.5040069,0.0,2025-04-11 21:16:57.504,BACKWARD,40
151.0,17873.728915897478,24550.731426564627,-31514.260949404354,-19870.67846902352,-34816.77589616489,-26404.674518665615,-14461.645717817035,-32120.59672124347,0.0,0.0,0.0,193.0,0.0,193.0,0.0,17.0,0.0,179.0,193.0,17.0,179.0,1744420617.5042517,0.0,2025-04-11 21:16:57.504,BACKWARD,40
152.0,17869.86206410671,24554.777092311037,-31509.880007491116,-19865.7387334989,-34818.564035721305,-26406.23914077749,-14582.233379153417,-32123.234227089197,0.0,0.0,0.0,193.0,0.0,194.0,0.0,17.0,0.0,180.0,194.0,17.0,180.0,1744420617.5043473,0.0,2025-04-11 21:16:57.504,BACKWARD,40
153.0,17895.566570230316,24556.319362678452,-31516.116144194144,-19869.002088189376,-34823.83904741276,-26423.874667152726,-14117.942943327778,-32086.91264234932,0.0,0.0,0.0,193.0,0.0,193.0,0.0,17.0,0.0,179.0,193.0,17.0,179.0,1744420617.504432,0.0,2025-04-11 21:16:57.504,BACKWARD,40
154.0,17890.582131216783,24534.57111532344,-31519.401850629074,-19883.798943018788,-34818.02759385438,-26424.031129363913,-14050.932413450768,-32129.20214285876,0.0,0.0,0.0,193.0,0.0,194.0,0.0,17.0,0.0,180.0,194.0,17.0,180.0,1744420617.504536,0.0,2025-04-11 21:16:57.504,BACKWARD,40
155.0,17874.10889555322,24538.549725836485,-31517.256083161366,-19874.567672558747,-34819.1675328216,-26416.14096357119,-14383.928702345933,-32122.384860799895,0.0,0.0,0.0,193.0,0.0,194.0,0.0,17.0,0.0,180.0,194.0,17.0,180.0,1744420617.5046513,0.0,2025-04-11 21:16:57.504,BACKWARD,40
156.0,17883.228407290986,24562.309630192474,-31496.71483000694,-19852.506500781357,-34803.72247740298,-26403.199303531565,-14599.421870639548,-32128.285721336095,0.0,0.0,0.0,193.0,0.0,193.0,0.0,17.0,0.0,179.0,193.0,17.0,179.0,1744420617.5047405,0.0,2025-04-11 21:16:57.504,BACKWARD,40
157.0,17910.430480293093,24574.468979176163,-31494.27848986131,-19843.141119854587,-34803.87893961417,-26405.389774488187,-14187.14394416141,-32052.937990777256,0.0,0.0,0.0,193.0,0.0,193.0,0.0,17.0,0.0,179.0,193.0,17.0,179.0,1744420617.504834,0.0,2025-04-11 21:16:57.504,BACKWARD,40
158.0,17916.64426525167,24568.948098295703,-31502.816856243237,-19863.74942824238,-34815.12186707519,-26413.86108563675,-13994.516610445573,-32094.802808142045,0.0,0.0,0.0,193.0,0.0,194.0,0.0,17.0,0.0,180.0,194.0,17.0,180.0,1744420617.5054717,0.0,2025-04-11 21:16:57.505,BACKWARD,40
159.0,17892.526732984392,24564.0977697489,-31506.393135356087,-19863.07887590872,-34818.295814787845,-26408.295501267374,-14319.443919592371,-32108.660889704337,0.0,0.0,0.0,193.0,0.0,193.0,0.0,17.0,0.0,179.0,193.0,17.0,179.0,1744420617.5056367,0.0,2025-04-11 21:16:57.505,BACKWARD,40
160.0,17872.83484611927,24570.222147729655,-31499.397039341577,-19859.21202411795,-34806.35998324871,-26404.719222154527,-14589.475344356937,-32118.607415986946,0.0,0.0,0.0,193.0,0.0,193.0,0.0,17.0,0.0,179.0,193.0,17.0,179.0,1744420617.5056846,0.0,2025-04-11 21:16:57.505,BACKWARD,40
161.0,17889.241026549462,24566.33294419443,-31505.499065577875,-19857.334477583707,-34816.17239906459,-26414.17401005912,-14295.885180936479,-32078.195462011754,0.0,0.0,0.0,193.0,0.0,194.0,0.0,17.0,0.0,180.0,194.0,17.0,180.0,1744420617.5059028,0.0,2025-04-11 21:16:57.505,BACKWARD,40
162.0,17905.893076168668,24551.491385876107,-31516.786696527804,-19878.07689643823,-34824.06256485731,-26428.523829999427,-13994.76247963458,-32102.178883812296,0.0,0.0,0.0,193.0,0.0,193.0,0.0,17.0,0.0,179.0,193.0,17.0,179.0,1744420617.505948,0.0,2025-04-11 21:16:57.505,BACKWARD,40
163.0,17890.69388993906,24548.920935263748,-31510.75172552487,-19870.969041701443,-34808.90808211661,-26412.072946080323,-14262.558729953615,-32115.344061296473,0.0,0.0,0.0,193.0,0.0,193.0,0.0,17.0,0.0,179.0,193.0,17.0,179.0,1744420617.5059917,0.0,2025-04-11 21:16:57.505,BACKWARD,40
164.0,17878.556892699828,24569.641002373817,-31495.776056739815,-19852.081817636707,-34795.05000055433,-26386.65901263464,-14570.163437147552,-32099.049639588553,0.0,0.0,0.0,193.0,0.0,194.0,0.0,17.0,0.0,180.0,194.0,17.0,180.0,1744420617.506036,0.0,2025-04-11 21:16:57.506,BACKWARD,40
165.0,17898.91933189861,24574.133703009335,-31490.456341559453,-19842.73878845439,-34792.144273775135,-26388.961242313533,-14372.417553951449,-32063.152737993332,0.0,0.0,0.0,193.0,0.0,193.0,0.0,17.0,0.0,179.0,193.0,17.0,179.0,1744420617.5060792,0.0,2025-04-11 21:16:57.506,BACKWARD,40
166.0,17919.102957141753,24564.455397660186,-31509.030641201814,-19866.61045153266,-34812.43965774056,-26413.637568192193,-13956.630403593828,-32071.713456119713,0.0,0.0,0.0,193.0,0.0,193.0,0.0,17.0,0.0,179.0,193.0,17.0,179.0,1744420617.506142,0.0,2025-04-11 21:16:57.506,BACKWARD,40
167.0,17899.232256320985,24546.886926518313,-31514.305652893265,-19870.969041701443,-34817.42409675409,-26406.932044855603,-14205.919409503867,-32119.50148576516,0.0,0.0,0.0,193.0,0.0,194.0,0.0,17.0,0.0,180.0,194.0,17.0,180.0,1744420617.5061853,0.0,2025-04-11 21:16:57.506,BACKWARD,40
168.0,17875.315889753805,24555.693513833707,-31511.0870016917,-19865.202291631973,-34808.75161990543,-26400.07005930782,-14531.338457028683,-32101.821255901014,0.0,0.0,0.0,193.0,0.0,193.0,0.0,17.0,0.0,179.0,193.0,17.0,179.0,1744420617.5062284,0.0,2025-04-11 21:16:57.506,BACKWARD,40
169.0,17888.101087582243,24572.859653575382,-31499.017059685837,-19850.60660250266,-34795.51938718789,-26397.141980784178,-14444.613688542091,-32083.604584169938,0.0,0.0,0.0,193.0,0.0,193.0,0.0,17.0,0.0,179.0,193.0,17.0,179.0,1744420617.5062714,0.0,2025-04-11 21:16:57.506,BACKWARD,40
170.0,17909.335244814785,24571.630307630337,-31515.557350582763,-19864.643498020592,-34814.384259508166,-26415.917446126634,-13983.497200429107,-32068.53950840706,0.0,0.0,0.0,193.0,0.0,194.0,0.0,17.0,0.0,180.0,194.0,17.0,180.0,1744420617.5063148,0.0,2025-04-11 21:16:57.506,BACKWARD,40
171.0,17899.96986388801,24552.877194032335,-31518.016042472846,-19872.17603590203,-34817.0664688428,-26410.485972223996,-14151.001173377177,-32127.77163121362,0.0,0.0,0.0,193.0,0.0,194.0,0.0,17.0,0.0,180.0,194.0,17.0,180.0,1744420617.5063577,0.0,2025-04-11 21:16:57.506,BACKWARD,40
172.0,17875.96409034301,24552.743083565605,-31516.451420360976,-19865.828140476722,-34816.50767523142,-26396.762001128438,-14505.544543927259,-32111.946596139267,0.0,0.0,0.0,193.0,0.0,193.0,0.0,17.0,0.0,179.0,193.0,17.0,179.0,1744420617.5065053,0.0,2025-04-11 21:16:57.506,BACKWARD,40
173.0,17885.865913136713,24561.795540070005,-31509.05299294627,-19856.462759549948,-34810.36094550621,-26394.638585405184,-14546.44823628047,-32099.317860522016,0.0,0.0,0.0,193.0,0.0,194.0,0.0,17.0,0.0,180.0,194.0,17.0,180.0,1744420617.5065496,0.0,2025-04-11 21:16:57.506,BACKWARD,40
174.0,17906.943608158064,24561.124987736344,-31521.56996984124,-19867.683335266513,-34822.922625890096,-26417.057385093856,-14068.299718892542,-32064.806767083024,0.0,0.0,0.0,193.0,0.0,194.0,0.0,17.0,0.0,180.0,194.0,17.0,180.0,1744420617.5065937,0.0,2025-04-11 21:16:57.506,BACKWARD,40
175.0,17892.571436473303,24539.46614735915,-31526.599112343683,-19883.977756974433,-34818.787553165865,-26415.068079837332,-14095.993530272668,-32120.999052643667,0.0,0.0,0.0,193.0,0.0,193.0,0.0,17.0,0.0,179.0,193.0,17.0,179.0,1744420617.5066776,0.0,2025-04-11 21:16:57.506,BACKWARD,40
176.0,17869.30327049533,24542.930667749726,-31522.598150086185,-19872.868939980144,-34808.572805949785,-26396.449076706063,-14434.510700048293,-32102.245939045664,0.0,0.0,0.0,193.0,0.0,194.0,0.0,17.0,0.0,180.0,194.0,17.0,180.0,1744420617.5068529,0.0,2025-04-11 21:16:57.506,BACKWARD,40
177.0,17871.650203663135,24553.19011845471,-31514.551522082274,-19864.196463131484,-34804.25891926991,-26391.21876850352,-14555.8359689517,-32096.568595954013,0.0,0.0,0.0,193.0,0.0,194.0,0.0,17.0,0.0,180.0,194.0,17.0,180.0,1744420617.5068965,0.0,2025-04-11 21:16:57.506,BACKWARD,40
178.0,17900.863933666224,24555.11236847787,-31520.318272151744,-19863.391800331094,-34815.88182638667,-26407.535541955895,-14108.354044956452,-32058.503575146628,0.0,0.0,0.0,193.0,0.0,193.0,0.0,17.0,0.0,179.0,193.0,17.0,179.0,1744420617.50694,0.0,2025-04-11 21:16:57.506,BACKWARD,40
179.0,17903.657901723134,24545.635228828818,-31521.033527974312,-19870.41024809006,-34817.51350373191,-26402.30523375335,-14039.711837734205,-32107.543302481572,0.0,0.0,0.0,193.0,0.0,194.0,0.0,17.0,0.0,180.0,194.0,17.0,180.0,1744420617.506983,0.0,2025-04-11 21:16:57.506,BACKWARD,40
180.0,17885.284767780875,24553.90537427728,-31516.607882572163,-19862.11775089714,-34811.18796005106,-26395.197379016565,-14382.520542445249,-32105.509293736137,0.0,0.0,0.0,193.0,0.0,194.0,0.0,17.0,0.0,180.0,194.0,17.0,180.0,1744420617.507026,0.0,2025-04-11 21:16:57.507,BACKWARD,40
181.0,17879.11568631121,24562.846072059405,-31506.437838845,-19853.758198470856,-34803.83423612526,-26392.112838281733,-14592.023443224842,-32113.108886850943,0.0,0.0,0.0,193.0,0.0,193.0,0.0,17.0,0.0,179.0,193.0,17.0,179.0,1744420617.5070846,0.0,2025-04-11 21:16:57.507,BACKWARD,40
182.0,17903.300273811852,24563.96365928217,-31504.1356091661,-19847.857337934656,-34809.98096585047,-26402.12641979771,-14220.380988166451,-32069.791206096557,0.0,0.0,0.0,193.0,0.0,193.0,0.0,17.0,0.0,179.0,193.0,17.0,179.0,1744420617.507128,0.0,2025-04-11 21:16:57.507,BACKWARD,40
183.0,17907.390643047172,24547.378664896332,-31519.312443651255,-19875.59585280369,-34825.64953871364,-26425.528696242418,-14009.089947830433,-32122.742488711177,0.0,0.0,0.0,193.0,0.0,194.0,0.0,17.0,0.0,180.0,194.0,17.0,180.0,1744420617.507171,0.0,2025-04-11 21:16:57.507,BACKWARD,40
184.0,17887.899921882145,24546.149318951288,-31510.729373780418,-19864.487035809405,-34813.15491356312,-26404.160428543142,-14334.531347099704,-32119.993224143178,0.0,0.0,0.0,193.0,0.0,193.0,0.0,17.0,0.0,179.0,193.0,17.0,179.0,1744420617.5072317,0.0,2025-04-11 21:16:57.507,BACKWARD,40
185.0,17875.45000022054,24554.307705677475,-31502.07924867621,-19854.160529871053,-34800.43677096805,-26394.32566098281,-14606.060338742775,-32104.235244302185,0.0,0.0,0.0,193.0,0.0,193.0,0.0,17.0,0.0,179.0,193.0,17.0,179.0,1744420617.507275,0.0,2025-04-11 21:16:57.507,BACKWARD,40
186.0,17893.085526595776,24554.263002188567,-31501.90043472057,-19848.796111201777,-34795.38527672116,-26406.03797507739,-14297.628617003993,-32062.169261237297,0.0,0.0,0.0,193.0,0.0,194.0,0.0,17.0,0.0,180.0,194.0,17.0,180.0,1744420617.5073185,0.0,2025-04-11 21:16:57.507,BACKWARD,40
187.0,17899.947512143553,24545.255249173075,-31518.664243062052,-19871.192559145995,-34810.33859376176,-26423.04765260788,-13952.182406447222,-32086.420903971306,0.0,0.0,0.0,193.0,0.0,193.0,0.0,17.0,0.0,179.0,193.0,17.0,179.0,1744420617.5073922,0.0,2025-04-11 21:16:57.507,BACKWARD,40
188.0,17870.30909899582,24530.391339110298,-31526.040318732303,-19874.97000395894,-34813.199617052036,-26414.88926588169,-14235.982505796255,-32113.801790929057,0.0,0.0,0.0,193.0,0.0,194.0,0.0,17.0,0.0,180.0,194.0,17.0,180.0,1744420617.5074363,0.0,2025-04-11 21:16:57.507,BACKWARD,40
189.0,17857.188625000552,24539.533202592516,-31521.458211118963,-19866.878672466122,-34807.61168093821,-26403.221655276022,-14563.703782999968,-32107.543302481572,0.0,0.0,0.0,193.0,0.0,193.0,0.0,17.0,0.0,179.0,193.0,17.0,179.0,1744420617.5075068,0.0,2025-04-11 21:16:57.507,BACKWARD,40
190.0,17873.930081597577,24549.39032189731,-31520.653548318573,-19862.050695663776,-34814.04898334134,-26410.17304780162,-14405.274618300751,-32092.657040674338,0.0,0.0,0.0,193.0,0.0,193.0,0.0,17.0,0.0,179.0,193.0,17.0,179.0,1744420617.5076869,0.0,2025-04-11 21:16:57.507,BACKWARD,40
191.0,17903.344977300763,24559.873290046846,-31523.827496031226,-19868.242128877893,-34824.934282891074,-26414.196361803577,-13998.025834325057,-32089.192520283763,0.0,0.0,0.0,193.0,0.0,194.0,0.0,17.0,0.0,180.0,194.0,17.0,180.0,1744420617.5077336,0.0,2025-04-11 21:16:57.507,BACKWARD,40
192.0,17890.984462616976,24550.105577719878,-31522.642853575097,-19867.39276258859,-34821.73798343396,-26398.907768596146,-14196.799897766103,-32100.30133727805,0.0,0.0,0.0,193.0,0.0,193.0,0.0,17.0,0.0,179.0,193.0,17.0,179.0,1744420617.5077777,0.0,2025-04-11 21:16:57.507,BACKWARD,40
193.0,17867.045744305342,24553.9947812551,-31517.189027928,-19858.228547361916,-34815.32303277529,-26385.161445756134,-14531.561974473236,-32086.599717926947,0.0,0.0,0.0,193.0,0.0,193.0,0.0,17.0,0.0,179.0,193.0,17.0,179.0,1744420617.50783,0.0,2025-04-11 21:16:57.507,BACKWARD,40
194.0,17882.311985768316,24560.342676680408,-31507.600129556675,-19850.047808891275,-34816.619433953696,-26387.620137646216,-14487.529037896282,-32079.894194590357,0.0,0.0,0.0,193.0,0.0,193.0,0.0,17.0,0.0,180.0,193.0,17.0,180.0,1744420617.507874,0.0,2025-04-11 21:16:57.507,BACKWARD,40
195.0,17911.123384371207,24562.33198193693,-31516.451420360976,-19861.670716008033,-34830.253998071435,-26408.60842568975,-14025.898459660824,-32072.9204503203,0.0,0.0,0.0,193.0,0.0,193.0,0.0,17.0,0.0,179.0,193.0,17.0,179.0,1744420617.5079172,0.0,2025-04-11 21:16:57.507,BACKWARD,40
196.0,17907.725919214,24551.290220176008,-31517.367841883643,-19868.51034981136,-34824.08491660177,-26404.920387854625,-14144.005077362666,-32130.27502659262,0.0,0.0,0.0,193.0,0.0,194.0,0.0,17.0,0.0,179.0,194.0,17.0,179.0,1744420617.507978,0.0,2025-04-11 21:16:57.507,BACKWARD,40
197.0,17881.8202473903,24555.11236847787,-31510.349394124678,-19854.965192671443,-34811.992622851445,-26387.17310275711,-14483.326909938683,-32106.515122236626,0.0,0.0,0.0,193.0,0.0,193.0,0.0,17.0,0.0,179.0,193.0,17.0,179.0,1744420617.5080233,0.0,2025-04-11 21:16:57.508,BACKWARD,40
198.0,17874.533578697872,24561.773188325547,-31495.485484061897,-19836.033265117796,-34800.77204713489,-26370.0740182488,-14534.937087885988,-32075.669714888303,0.0,0.0,0.0,193.0,0.0,193.0,0.0,17.0,0.0,179.0,193.0,17.0,179.0,1744420617.508067,0.0,2025-04-11 21:16:57.508,BACKWARD,40
199.0,17900.081622610287,24564.611859871373,-31511.310519136256,-19847.20913734545,-34818.54168397685,-26390.279995236397,-14060.20838739972,-32039.236371426152,0.0,0.0,0.0,193.0,0.0,194.0,0.0,17.0,0.0,180.0,194.0,17.0,180.0,1744420617.50811,0.0,2025-04-11 21:16:57.508,BACKWARD,40
200.0,17905.557800001836,24553.838319043916,-31513.344527881687,-19859.16732062904,-34812.43965774056,-26389.36357371373,-14080.861399276424,-32099.608433199937,0.0,0.0,0.0,193.0,0.0,193.0,0.0,17.0,0.0,179.0,193.0,17.0,179.0,1744420617.508153,0.0,2025-04-11 21:16:57.508,BACKWARD,40
201.0,17868.900939095132,24545.9928567401,-31516.652586061075,-19857.647402006078,-34810.3162420173,-26383.149788755156,-14422.083130131143,-32087.136159793874,0.0,0.0,0.0,193.0,0.0,193.0,0.0,17.0,0.0,179.0,193.0,17.0,179.0,1744420617.508196,0.0,2025-04-11 21:16:57.508,BACKWARD,40
202.0,17862.10600878072,24550.016170742056,-31512.919844737036,-19857.826215961722,-34798.06748605579,-26384.446189933562,-14571.50454181487,-32088.7231336502,0.0,0.0,0.0,193.0,0.0,194.0,0.0,17.0,0.0,180.0,194.0,17.0,180.0,1744420617.5082555,0.0,2025-04-11 21:16:57.508,BACKWARD,40
203.0,17892.370270773205,24551.089054475913,-31523.24635067539,-19865.626974776624,-34811.05384958433,-26407.624948933717,-14139.691190682792,-32066.863127572913,0.0,0.0,0.0,193.0,0.0,193.0,0.0,17.0,0.0,179.0,193.0,17.0,179.0,1744420617.5083013,0.0,2025-04-11 21:16:57.508,BACKWARD,40
204.0,17890.20215156104,24541.90248750478,-31536.366824670655,-19885.207102919474,-34825.94011139156,-26413.346995514275,-14045.456236059217,-32121.535494510594,0.0,0.0,0.0,193.0,0.0,194.0,0.0,17.0,0.0,180.0,194.0,17.0,180.0,1744420617.508345,0.0,2025-04-11 21:16:57.508,BACKWARD,40
205.0,17863.49181693695,24544.227068928132,-31535.606865359172,-19876.489922581903,-34819.03342235487,-26395.89028309468,-14375.211522008363,-32094.333421508483,0.0,0.0,0.0,193.0,0.0,193.0,0.0,17.0,0.0,179.0,193.0,17.0,179.0,1744420617.508506,0.0,2025-04-11 21:16:57.508,BACKWARD,40
206.0,17857.72506686748,24543.75768229457,-31524.05101347578,-19867.817445733242,-34808.8186751388,-26385.27320447841,-14583.149800676085,-32081.16824402431,0.0,0.0,0.0,193.0,0.0,193.0,0.0,17.0,0.0,179.0,193.0,17.0,179.0,1744420617.5085497,0.0,2025-04-11 21:16:57.508,BACKWARD,40
207.0,17891.364442272716,24553.972429510646,-31518.977167484423,-19861.7377712414,-34816.23945429796,-26396.829056361803,-14232.853261572513,-32058.950610035732,0.0,0.0,0.0,193.0,0.0,193.0,0.0,17.0,0.0,179.0,193.0,17.0,179.0,1744420617.5085928,0.0,2025-04-11 21:16:57.508,BACKWARD,40
208.0,17906.429518035595,24544.942324750704,-31522.642853575097,-19876.26640513735,-34822.60970146772,-26405.36742274373,-13996.237694768632,-32096.032154087086,0.0,0.0,0.0,193.0,0.0,194.0,0.0,17.0,0.0,180.0,194.0,17.0,180.0,1744420617.5086358,0.0,2025-04-11 21:16:57.508,BACKWARD,40
209.0,17879.96505260051,24538.885002003313,-31516.630234316617,-19865.246995120884,-34816.15004732014,-26393.968033071524,-14302.791869973169,-32101.597738456458,0.0,0.0,0.0,193.0,0.0,193.0,0.0,17.0,0.0,180.0,193.0,17.0,180.0,1744420617.508679,0.0,2025-04-11 21:16:57.508,BACKWARD,40
210.0,17871.806665874323,24555.84997604489,-31502.839207987694,-19851.12069262513,-34802.58253843577,-26385.966108556524,-14584.915588488055,-32096.523892465106,0.0,0.0,0.0,193.0,0.0,193.0,0.0,17.0,0.0,179.0,193.0,17.0,179.0,1744420617.508738,0.0,2025-04-11 21:16:57.508,BACKWARD,40
211.0,17888.43636374907,24559.38155166883,-31506.706059778462,-19851.053637391764,-34813.55724496332,-26404.763925643438,-14322.260239393741,-32072.87574683139,0.0,0.0,0.0,193.0,0.0,194.0,0.0,17.0,0.0,180.0,194.0,17.0,180.0,1744420617.5087812,0.0,2025-04-11 21:16:57.508,BACKWARD,40
212.0,17901.333320299786,24554.91120277777,-31516.585530827706,-19868.59975678918,-34826.7224224475,-26417.258550793955,-13972.254272968088,-32088.141988294363,0.0,0.0,0.0,193.0,0.0,193.0,0.0,17.0,0.0,179.0,193.0,17.0,179.0,1744420617.980497,0.0,2025-04-11 21:16:57.980,BACKWARD,40
213.0,17883.25075903544,24543.422406127742,-31518.351318639678,-19868.756219000366,-34822.38618402317,-26406.66382392214,-14242.308049477107,-32110.717250194222,0.0,0.0,0.0,193.0,0.0,193.0,0.0,17.0,0.0,179.0,193.0,17.0,179.0,1744420617.9806876,0.0,2025-04-11 21:16:57.980,BACKWARD,40
214.0,17876.321718254294,24564.43304591573,-31499.307632363754,-19847.387951301094,-34797.70985814451,-26381.965146299022,-14575.259634883361,-32098.35673551044,0.0,0.0,0.0,193.0,0.0,194.0,0.0,17.0,0.0,179.0,194.0,17.0,179.0,1744420617.9807532,0.0,2025-04-11 21:16:57.980,BACKWARD,40
215.0,17893.443154507062,24568.836339573427,-31497.497141062875,-19843.386989043593,-34796.79343662184,-26382.18866374358,-14397.116231574564,-32048.311179675005,0.0,0.0,0.0,193.0,0.0,193.0,0.0,17.0,0.0,179.0,193.0,17.0,179.0,1744420617.980828,0.0,2025-04-11 21:16:57.980,BACKWARD,40
216.0,17913.202096605553,24565.304763949487,-31510.841132502694,-19863.235338119906,-34812.81963739629,-26402.79697213137,-13970.756706089582,-32055.284923945062,0.0,0.0,0.0,193.0,0.0,194.0,0.0,17.0,0.0,180.0,194.0,17.0,180.0,1744420617.980914,0.0,2025-04-11 21:16:57.980,BACKWARD,40
217.0,17898.11466909822,24550.731426564627,-31509.164751668544,-19862.207157874964,-34808.148122805134,-26390.324698725308,-14183.880589470935,-32097.261500032128,0.0,0.0,0.0,193.0,0.0,194.0,0.0,17.0,0.0,180.0,194.0,17.0,180.0,1744420617.9811797,0.0,2025-04-11 21:16:57.981,BACKWARD,40
218.0,17868.096276294742,24555.09001673341,-31510.75172552487,-19858.094436895186,-34806.53879720435,-26380.35582069824,-14508.316160239716,-32082.330534735986,0.0,0.0,0.0,193.0,0.0,193.0,0.0,17.0,0.0,179.0,193.0,17.0,179.0,1744420617.9812293,0.0,2025-04-11 21:16:57.981,BACKWARD,40
219.0,17886.625872448192,24563.315458692963,-31496.983050940402,-19843.655209977056,-34798.80509362282,-26371.92921303859,-14491.932331553977,-32072.11578751991,0.0,0.0,0.0,193.0,0.0,193.0,0.0,17.0,0.0,180.0,193.0,17.0,180.0,1744420617.981272,0.0,2025-04-11 21:16:57.981,BACKWARD,40
220.0,17906.898904669157,24553.324228921443,-31511.71285053645,-19860.284907851805,-34811.791457151354,-26396.60553891725,-14010.788680409036,-32048.28882793055,0.0,0.0,0.0,193.0,0.0,194.0,0.0,17.0,0.0,179.0,194.0,17.0,179.0,1744420617.9815047,0.0,2025-04-11 21:16:57.981,BACKWARD,40
221.0,17886.312948025818,24534.32524613443,-31517.90428375057,-19873.98652720291,-34810.383297250664,-26398.21486451803,-14101.939094297779,-32102.335346023483,0.0,0.0,0.0,193.0,0.0,193.0,0.0,17.0,0.0,179.0,193.0,17.0,179.0,1744420617.9815488,0.0,2025-04-11 21:16:57.981,BACKWARD,40
222.0,17864.698811137536,24550.060874230967,-31512.18223717001,-19860.441370062992,-34805.51061695941,-26382.881567821692,-14458.941156737943,-32091.561805196026,0.0,0.0,0.0,193.0,0.0,194.0,0.0,17.0,0.0,180.0,194.0,17.0,180.0,1744420617.9815917,0.0,2025-04-11 21:16:57.981,BACKWARD,40
223.0,17873.885378108665,24556.9452115232,-31505.677879533516,-19853.422922304027,-34802.761352391404,-26380.98166954299,-14545.196538590973,-32094.512235464128,0.0,0.0,0.0,193.0,0.0,193.0,0.0,17.0,0.0,179.0,193.0,17.0,179.0,1744420617.981634,0.0,2025-04-11 21:16:57.981,BACKWARD,40
224.0,17902.003872633442,24559.33684817992,-31518.977167484423,-19863.347096842183,-34818.40757351012,-26404.31689075433,-14077.151009696843,-32063.175089737786,0.0,0.0,0.0,193.0,0.0,193.0,0.0,17.0,0.0,179.0,193.0,17.0,179.0,1744420617.9816773,0.0,2025-04-11 21:16:57.981,BACKWARD,40
225.0,17900.260436565928,24544.67410381724,-31518.060745961757,-19873.830064991722,-34807.96930884949,-26398.773658129416,-14059.984869955168,-32102.245939045664,0.0,0.0,0.0,193.0,0.0,194.0,0.0,17.0,0.0,180.0,194.0,17.0,180.0,1744420617.9817736,0.0,2025-04-11 21:16:57.981,BACKWARD,40
226.0,17883.228407290986,24550.843185286903,-31512.60692031466,-19864.464684064948,-34802.09080005775,-26384.51324516693,-14402.905333388488,-32087.91847084981,0.0,0.0,0.0,193.0,0.0,193.0,0.0,17.0,0.0,179.0,193.0,17.0,179.0,1744420617.9818168,0.0,2025-04-11 21:16:57.981,BACKWARD,40
227.0,17882.423744490596,24561.90729879228,-31507.778943512316,-19863.592966031192,-34797.396933722135,-26389.274166735908,-14575.706669772468,-32097.529720965595,0.0,0.0,0.0,193.0,0.0,194.0,0.0,17.0,0.0,180.0,194.0,17.0,180.0,1744420617.9818592,0.0,2025-04-11 21:16:57.981,BACKWARD,40
228.0,17908.240009336474,24568.23284247313,-31513.724507537427,-19862.900061953078,-34809.17630305008,-26406.820286133327,-14143.111007584455,-32055.799014067536,0.0,0.0,0.0,193.0,0.0,193.0,0.0,17.0,0.0,179.0,193.0,17.0,179.0,1744420617.9819016,0.0,2025-04-11 21:16:57.981,BACKWARD,40
229.0,17909.089375625776,24550.217336442154,-31522.374632641633,-19881.474361595436,-34816.686489187065,-26409.70366116806,-14020.288171802542,-32104.145837324362,0.0,0.0,0.0,193.0,0.0,193.0,0.0,17.0,0.0,179.0,193.0,17.0,179.0,1744420617.9819438,0.0,2025-04-11 21:16:57.981,BACKWARD,40
230.0,17892.638491706668,24553.123063221345,-31517.166676183544,-19868.242128877893,-34807.70108791603,-26390.056477791844,-14352.211576963851,-32086.06327606002,0.0,0.0,0.0,193.0,0.0,194.0,0.0,17.0,0.0,179.0,194.0,17.0,179.0,1744420617.9819927,0.0,2025-04-11 21:16:57.981,BACKWARD,40
231.0,17882.602558446237,24563.315458692963,-31508.829475501716,-19858.228547361916,-34800.59323317924,-26382.12160851021,-14589.989434479408,-32083.649287658845,0.0,0.0,0.0,193.0,0.0,193.0,0.0,17.0,0.0,179.0,193.0,17.0,179.0,1744420617.982052,0.0,2025-04-11 21:16:57.982,BACKWARD,40
232.0,17905.02135813491,24563.315458692963,-31513.47863834842,-19858.60852701766,-34809.37746875018,-26399.153637785155,-14256.769628139691,-32053.7650053221,0.0,0.0,0.0,193.0,0.0,194.0,0.0,17.0,0.0,180.0,194.0,17.0,180.0,1744420617.9820952,0.0,2025-04-11 21:16:57.982,BACKWARD,40
233.0,17901.512134255427,24542.505984605075,-31527.292016421798,-19886.12352444214,-34823.1684950791,-26419.22550430602,-14007.704139674204,-32101.150703567353,0.0,0.0,0.0,193.0,0.0,193.0,0.0,17.0,0.0,179.0,193.0,17.0,179.0,1744420617.9821372,0.0,2025-04-11 21:16:57.982,BACKWARD,40
234.0,17880.68030842308,24538.99676072559,-31525.48152512092,-19883.977756974433,-34818.47462874349,-26408.764887900936,-14315.01827419022,-32118.942692153778,0.0,0.0,0.0,193.0,0.0,194.0,0.0,17.0,0.0,180.0,194.0,17.0,180.0,1744420617.982185,0.0,2025-04-11 21:16:57.982,BACKWARD,40
235.0,17866.509302438415,24550.53026086453,-31514.90914999356,-19873.204216146973,-34808.05871582731,-26395.152675527654,-14608.384920166127,-32111.29839555006,0.0,0.0,0.0,193.0,0.0,193.0,0.0,17.0,0.0,179.0,193.0,17.0,179.0,1744420617.9823024,0.0,2025-04-11 21:16:57.982,BACKWARD,40
236.0,17882.133171812675,24554.41946439975,-31511.176408669522,-19867.146893399586,-34809.2657100279,-26395.51030343894,-14368.282481227217,-32071.154662508332,0.0,0.0,0.0,193.0,0.0,194.0,0.0,17.0,0.0,180.0,194.0,17.0,180.0,1744420617.982345,0.0,2025-04-11 21:16:57.982,BACKWARD,40
237.0,17894.896017896655,24546.216374184656,-31522.575798341728,-19888.828085521232,-34823.48141950148,-26410.50832396845,-13997.936427347235,-32076.25086024414,0.0,0.0,0.0,193.0,0.0,194.0,0.0,17.0,0.0,180.0,194.0,17.0,180.0,1744420617.9823873,0.0,2025-04-11 21:16:57.982,BACKWARD,40
238.0,17877.34989849924,24535.12990893482,-31514.2385976599,-19882.189617418007,-34815.278329286375,-26395.197379016565,-14239.424674442373,-32085.81740687101,0.0,0.0,0.0,193.0,0.0,194.0,0.0,17.0,0.0,180.0,194.0,17.0,180.0,1744420617.9824336,0.0,2025-04-11 21:16:57.982,BACKWARD,40
