Sample Index,EXG Channel 0,EXG Channel 1,EXG Channel 2,EXG Channel 3,EXG Channel 4,EXG Channel 5,EXG Channel 6,EXG Channel 7,Accel Channel 0,Accel Channel 1,Accel Channel 2,Not Used,Digital Channel 0 (D11),Digital Channel 1 (D12),Digital Channel 2 (D13),Digital Channel 3 (D17),Not Used,Digital Channel 4 (D18),Analog Channel 0,Analog Channel 1,Analog Channel 2,Timestamp,Marker Channel,Timestamp (Formatted),Stimulus_Direction,Stimulus_Number
18.0,11210.562135048169,517.0852562290736,-55605.23934426777,-51814.00350499195,-31985.18985333322,-29269.475253757868,299.468672212204,-19267.85192106389,0.0,0.0,0.0,193.0,1.0,155.0,0.0,10.0,3.0,252.0,411.0,10.0,1020.0,1744252934.3492093,0.0,2025-04-09 22:42:14.349,BACKWARD,45
19.0,11177.6380154655,520.8403492975651,-55573.07518399658,-51812.751807302455,-31920.54860836847,-29207.53856987221,287.7787098620784,-19203.858876688348,0.0,0.0,0.0,193.0,1.0,154.0,0.0,9.0,3.0,252.0,410.0,9.0,1020.0,1744252934.349218,0.0,2025-04-09 22:42:14.349,BACKWARD,45
20.0,11127.01131427423,522.6955440873556,-55604.09940530055,-51820.82078705082,-31939.212314988654,-29229.77855560524,343.5016087891589,-19217.404033828265,0.0,0.0,0.0,193.0,1.0,155.0,0.0,8.0,3.0,251.0,411.0,8.0,1019.0,1744252934.3492267,0.0,2025-04-09 22:42:14.349,BACKWARD,45
21.0,11086.934636465865,483.20001163482806,-55621.33260027559,-51832.77897033441,-31978.037295107522,-29270.302268302712,296.51824194410347,-19258.978278515136,0.0,0.0,0.0,193.0,1.0,155.0,0.0,8.0,3.0,252.0,411.0,8.0,1020.0,1744252934.3492358,0.0,2025-04-09 22:42:14.349,BACKWARD,45
22.0,11198.067509897652,509.8209392810988,-55611.05079782615,-51787.53903955687,-31995.158731360287,-29284.87560568757,318.9817451216871,-19270.511778654072,0.0,0.0,0.0,193.0,1.0,155.0,0.0,7.0,3.0,252.0,411.0,7.0,1020.0,1744252934.3492496,0.0,2025-04-09 22:42:14.349,BACKWARD,45
23.0,11183.293006812693,512.5925555935569,-55591.76124236122,-51819.14440621667,-31934.853724819866,-29216.45691590988,244.9974709746207,-19222.455528075163,0.0,0.0,0.0,193.0,1.0,155.0,0.0,7.0,3.0,252.0,411.0,7.0,1020.0,1744252934.3492584,0.0,2025-04-09 22:42:14.349,BACKWARD,45
24.0,11138.72362836881,526.5176923892132,-55603.85353611154,-51790.26595238042,-31934.004358530565,-29226.179924747936,341.62406225491316,-19225.76358625455,0.0,0.0,0.0,193.0,1.0,155.0,0.0,6.0,3.0,252.0,411.0,6.0,1020.0,1744252934.349267,0.0,2025-04-09 22:42:14.349,BACKWARD,45
25.0,11093.975435969287,503.5400990891575,-55616.63873393998,-51817.40097014916,-31953.13745178431,-29242.139070289028,289.32098022949464,-19236.872403248835,0.0,0.0,0.0,193.0,1.0,155.0,0.0,6.0,3.0,251.0,411.0,6.0,1019.0,1744252934.3492758,0.0,2025-04-09 22:42:14.349,BACKWARD,45
26.0,11182.913027156954,506.490529357258,-55611.274315270704,-51756.760687441914,-31990.800141191503,-29280.204091096413,340.7076407322456,-19258.307726181476,0.0,0.0,0.0,193.0,1.0,155.0,0.0,6.0,3.0,251.0,411.0,6.0,1019.0,1744252934.3492844,0.0,2025-04-09 22:42:14.349,BACKWARD,45
27.0,11193.68656798441,517.5322911181797,-55599.20437326484,-51815.81399629283,-31933.37850968582,-29213.64059610851,232.70401152420183,-19211.65963550325,0.0,0.0,0.0,193.0,1.0,154.0,0.0,5.0,3.0,251.0,410.0,5.0,1019.0,1744252934.349293,0.0,2025-04-09 22:42:14.349,BACKWARD,45
28.0,11150.324183741115,533.782009337188,-55590.53189641618,-51760.873408421685,-31917.68758507819,-29205.12458147104,357.02441418461973,-19188.212655569634,0.0,0.0,0.0,193.0,1.0,155.0,0.0,5.0,3.0,250.0,411.0,5.0,1018.0,1744252934.3493016,0.0,2025-04-09 22:42:14.349,BACKWARD,45
29.0,11096.210610414817,507.29519215764907,-55618.67274268541,-51814.53994685888,-31940.665178378247,-29224.101212513593,291.9361343307655,-19214.319493093433,0.0,0.0,0.0,193.0,1.0,154.0,0.0,5.0,3.0,250.0,410.0,5.0,1018.0,1744252934.34931,0.0,2025-04-09 22:42:14.349,BACKWARD,45
30.0,11169.099649083573,505.28353515667146,-55604.68055065639,-51739.32632676677,-31980.56304223097,-29264.915497888986,353.0905071604857,-19243.890851007804,0.0,0.0,0.0,193.0,1.0,155.0,0.0,5.0,3.0,252.0,411.0,5.0,1020.0,1744252934.3493187,0.0,2025-04-09 22:42:14.349,BACKWARD,45
31.0,11199.162745375961,510.64795382594514,-55612.70482691584,-51816.01516199293,-31948.957675571168,-29219.474401411346,225.21617713167396,-19218.65573151776,0.0,0.0,0.0,193.0,1.0,155.0,0.0,5.0,3.0,252.0,411.0,5.0,1020.0,1744252934.3493276,0.0,2025-04-09 22:42:14.349,BACKWARD,45
32.0,11152.425247719913,523.3437446765596,-55588.833163837575,-51752.04446936184,-31919.051041489965,-29203.91758727045,338.83009419799976,-19188.860856158837,0.0,0.0,0.0,193.0,1.0,155.0,0.0,4.0,3.0,252.0,411.0,4.0,1020.0,1744252934.3493361,0.0,2025-04-09 22:42:14.349,BACKWARD,45
33.0,11094.578933069579,510.1562154479284,-55627.993420123275,-51816.171624204115,-31947.32599822593,-29226.02346253675,281.81079409251146,-19217.26992336153,0.0,0.0,0.0,193.0,1.0,155.0,0.0,4.0,3.0,252.0,411.0,4.0,1020.0,1744252934.349354,0.0,2025-04-09 22:42:14.349,BACKWARD,45
34.0,11137.606041146046,498.98034322027485,-55610.91668735942,-51746.88121639266,-31978.66314395227,-29269.31879154668,341.64641399936846,-19262.28633669452,0.0,0.0,0.0,193.0,1.0,155.0,0.0,4.0,3.0,251.0,411.0,4.0,1019.0,1744252934.3493629,0.0,2025-04-09 22:42:14.349,BACKWARD,45
35.0,11196.480536041325,506.17760493488373,-55623.12073983202,-51810.941316001576,-31964.08980656741,-29231.767860861764,235.05094469200907,-19240.627496317327,0.0,0.0,0.0,193.0,1.0,155.0,0.0,4.0,3.0,252.0,411.0,4.0,1020.0,1744252934.3493712,0.0,2025-04-09 22:42:14.349,BACKWARD,45
36.0,11159.086067567596,520.7285905752886,-55585.122774257994,-51753.18440832906,-31910.69148906368,-29186.05854345066,324.32381204650545,-19178.444943242663,0.0,0.0,0.0,193.0,1.0,155.0,0.0,4.0,3.0,251.0,411.0,4.0,1019.0,1744252934.34938,0.0,2025-04-09 22:42:14.349,BACKWARD,45
37.0,11095.920037736898,509.39625613644796,-55630.34035329108,-51815.903403270655,-31932.17151548523,-29221.821334579152,316.00896310913123,-19210.676158747217,0.0,0.0,0.0,193.0,1.0,155.0,0.0,4.0,3.0,251.0,411.0,4.0,1019.0,1744252934.3493936,0.0,2025-04-09 22:42:14.349,BACKWARD,45
38.0,11108.213497187317,486.4410145808476,-55622.76311192073,-51773.72566148349,-31967.151995557786,-29266.949506634417,338.3830593088936,-19248.562365598962,0.0,0.0,0.0,193.0,1.0,155.0,0.0,4.0,3.0,252.0,411.0,4.0,1020.0,1744252934.3494024,0.0,2025-04-09 22:42:14.349,BACKWARD,45
39.0,11199.095690142596,510.31267765911554,-55629.312173046135,-51806.113339199226,-31968.157824058275,-29258.947582119417,271.9983782766316,-19254.70909532417,0.0,0.0,0.0,193.0,1.0,155.0,0.0,4.0,3.0,252.0,411.0,4.0,1020.0,1744252934.3494112,0.0,2025-04-09 22:42:14.349,BACKWARD,45
40.0,11162.014146091242,516.7052765733333,-55591.6718353834,-51777.86073420772,-31908.813942529436,-29206.689203582908,295.244192510151,-19213.268961104033,0.0,0.0,0.0,193.0,1.0,155.0,0.0,4.0,3.0,252.0,411.0,4.0,1020.0,1744252934.3494198,0.0,2025-04-09 22:42:14.349,BACKWARD,45
41.0,11108.90640126543,517.3534771625373,-55627.05464685615,-51810.11430145673,-31925.913027037746,-29223.095384013104,326.5813382364915,-19217.873420461827,0.0,0.0,0.0,193.0,1.0,155.0,0.0,4.0,3.0,251.0,411.0,4.0,1019.0,1744252934.3494287,0.0,2025-04-09 22:42:14.349,BACKWARD,45
42.0,11096.165906925906,488.6314855374677,-55621.86904214252,-51785.996769189456,-31956.065530307955,-29249.157518047992,322.5580242345362,-19241.052179461978,0.0,0.0,0.0,193.0,1.0,155.0,0.0,3.0,3.0,252.0,411.0,3.0,1020.0,1744252934.3494377,0.0,2025-04-09 22:42:14.349,BACKWARD,45
43.0,11188.568018504146,505.0600177121184,-55632.28495505869,-51790.06478668032,-31983.066437609967,-29265.69780894492,295.17713727678506,-19259.29120293751,0.0,0.0,0.0,193.0,1.0,155.0,0.0,3.0,3.0,251.0,411.0,3.0,1019.0,1744252934.3494463,0.0,2025-04-09 22:42:14.349,BACKWARD,45
44.0,11163.645823436478,509.2621456697161,-55598.48911744227,-51796.2785716389,-31916.681756577702,-29199.223720934835,266.5222008850814,-19198.31564406343,0.0,0.0,0.0,193.0,1.0,154.0,0.0,3.0,3.0,250.0,410.0,3.0,1018.0,1744252934.3494556,0.0,2025-04-09 22:42:14.349,BACKWARD,45
45.0,11125.334933440083,523.5002068877467,-55617.353989762545,-51793.01521694842,-31925.80126831547,-29218.06624151066,339.724163976212,-19214.99004542709,0.0,0.0,0.0,193.0,1.0,155.0,0.0,3.0,3.0,251.0,411.0,3.0,1019.0,1744252934.349464,0.0,2025-04-09 22:42:14.349,BACKWARD,45
46.0,11083.403060841925,485.99397969174146,-55635.41419928244,-51814.1823189476,-31964.246268778596,-29253.82903263915,292.2714104975951,-19253.256231934578,0.0,0.0,0.0,193.0,1.0,154.0,0.0,3.0,3.0,250.0,410.0,3.0,1018.0,1744252934.3494728,0.0,2025-04-09 22:42:14.349,BACKWARD,45
47.0,11182.130716101017,504.5012241007357,-55627.881661401,-51773.83742020577,-31990.375458046852,-29274.16912009348,327.0060213811423,-19258.464188392663,0.0,0.0,0.0,193.0,1.0,155.0,0.0,3.0,3.0,251.0,411.0,3.0,1019.0,1744252934.3494813,0.0,2025-04-09 22:42:14.349,BACKWARD,45
48.0,11171.31247178465,511.944355004353,-55606.58044893509,-51816.39514164867,-31930.85276256237,-29209.05848849517,234.29098538052864,-19217.314626850442,0.0,0.0,0.0,193.0,1.0,155.0,0.0,3.0,3.0,250.0,411.0,3.0,1018.0,1744252934.3494902,0.0,2025-04-09 22:42:14.349,BACKWARD,45
49.0,11130.118206753517,525.3554016775372,-55610.53670770368,-51781.16879238711,-31928.46112590565,-29210.779572818232,337.3101755750389,-19210.22912385811,0.0,0.0,0.0,193.0,1.0,155.0,0.0,3.0,3.0,252.0,411.0,3.0,1020.0,1744252934.8179893,0.0,2025-04-09 22:42:14.817,BACKWARD,45
50.0,11073.52358979268,486.7092355143113,-55636.82235918312,-51825.000563263966,-31957.496041953094,-29237.802831864698,287.3316749729723,-19236.55947882646,0.0,0.0,0.0,193.0,1.0,155.0,0.0,3.0,3.0,252.0,411.0,3.0,1020.0,1744252934.8180363,0.0,2025-04-09 22:42:14.818,BACKWARD,45
51.0,11158.750791400766,490.41962509389225,-55627.278164300704,-51763.15328635613,-31991.649507480804,-29276.806625939207,349.6036350254578,-19263.783903573025,0.0,0.0,0.0,193.0,1.0,155.0,0.0,3.0,3.0,252.0,411.0,3.0,1020.0,1744252934.8180575,0.0,2025-04-09 22:42:14.818,BACKWARD,45
52.0,11174.955806130863,503.7189130448,-55619.83503339709,-51830.6332028667,-31941.335730711908,-29219.31793920016,234.33568886943925,-19228.691664778195,0.0,0.0,0.0,193.0,1.0,155.0,0.0,3.0,3.0,252.0,411.0,3.0,1020.0,1744252934.818079,0.0,2025-04-09 22:42:14.818,BACKWARD,45
53.0,11134.432093433392,524.9977737662523,-55607.787443135676,-51772.60807426072,-31928.75169858357,-29209.72904082883,347.9719576802203,-19198.248588830065,0.0,0.0,0.0,193.0,1.0,155.0,0.0,3.0,3.0,252.0,411.0,3.0,1020.0,1744252934.8181283,0.0,2025-04-09 22:42:14.818,BACKWARD,45
54.0,11081.950197452332,506.89286075745355,-55638.16346385044,-51832.600156378765,-31952.28808549501,-29233.533648673732,287.1528610173298,-19230.61391480135,0.0,0.0,0.0,193.0,1.0,155.0,0.0,3.0,3.0,252.0,411.0,3.0,1020.0,1744252934.8181489,0.0,2025-04-09 22:42:14.818,BACKWARD,45
55.0,11146.792608117177,503.361285133515,-55614.94000136138,-51751.35156528373,-31982.70880969868,-29271.5092625033,356.5997310399689,-19256.56429011396,0.0,0.0,0.0,193.0,1.0,155.0,0.0,3.0,3.0,253.0,411.0,3.0,1021.0,1744252934.8181636,0.0,2025-04-09 22:42:14.818,BACKWARD,45
56.0,11185.394070791492,510.71500905931106,-55616.99636185126,-51820.88784228419,-31949.60587616037,-29221.821334579152,234.5145028250817,-19223.05902517546,0.0,0.0,0.0,193.0,1.0,155.0,0.0,3.0,3.0,252.0,411.0,3.0,1020.0,1744252934.8181732,0.0,2025-04-09 22:42:14.818,BACKWARD,45
57.0,11146.479683694803,528.3952389234589,-55586.64269288095,-51755.777210685876,-31912.16670419773,-29198.55316860118,346.36263207943824,-19189.3302427924,0.0,0.0,0.0,193.0,1.0,155.0,0.0,3.0,3.0,252.0,411.0,3.0,1020.0,1744252934.8181827,0.0,2025-04-09 22:42:14.818,BACKWARD,45
58.0,11083.693633519844,508.9045177584312,-55622.78546366519,-51818.36209516074,-31931.210390473654,-29219.87673281154,305.72716065969,-19217.51579255054,0.0,0.0,0.0,193.0,1.0,155.0,0.0,3.0,3.0,252.0,411.0,3.0,1020.0,1744252934.8181915,0.0,2025-04-09 22:42:14.818,BACKWARD,45
59.0,11114.382578656981,480.83072672256554,-55617.66691418492,-51760.873408421685,-31980.205414319687,-29266.41306476749,344.1274576339075,-19252.920955767746,0.0,0.0,0.0,193.0,1.0,155.0,0.0,3.0,3.0,252.0,411.0,3.0,1020.0,1744252934.8182003,0.0,2025-04-09 22:42:14.818,BACKWARD,45
60.0,11190.847896438587,499.427378109381,-55626.585260222586,-51818.51855737193,-31969.677742681237,-29237.69107314242,240.01303196108725,-19241.94624924019,0.0,0.0,0.0,193.0,1.0,155.0,0.0,3.0,3.0,252.0,411.0,3.0,1020.0,1744252934.8182096,0.0,2025-04-09 22:42:14.818,BACKWARD,45
61.0,11155.241567521283,525.8024365666433,-55576.22677996478,-51757.7665159424,-31905.751753539058,-29181.96817421534,323.00505912364235,-19186.42451601321,0.0,0.0,0.0,193.0,1.0,155.0,0.0,3.0,3.0,252.0,411.0,3.0,1020.0,1744252934.8182185,0.0,2025-04-09 22:42:14.818,BACKWARD,45
62.0,11092.38846211296,518.0240294961965,-55618.829204896596,-51811.835385779785,-31930.51748639554,-29212.88063679703,318.15473057684073,-19215.034748916,0.0,0.0,0.0,193.0,1.0,155.0,0.0,3.0,3.0,251.0,411.0,3.0,1019.0,1744252934.8182275,0.0,2025-04-09 22:42:14.818,BACKWARD,45
63.0,11100.524497094691,488.9667617042973,-55613.62124843851,-51775.96083592902,-31969.387170003316,-29259.908707130995,333.7785999511004,-19254.776150557536,0.0,0.0,0.0,193.0,1.0,155.0,0.0,3.0,3.0,251.0,411.0,3.0,1019.0,1744252934.8182368,0.0,2025-04-09 22:42:14.818,BACKWARD,45
64.0,11190.959655160863,504.94825898984186,-55623.031332854196,-51806.44861536606,-31978.61844046336,-29261.808605409697,271.663102109802,-19266.175540229742,0.0,0.0,0.0,193.0,1.0,155.0,0.0,3.0,3.0,252.0,411.0,3.0,1020.0,1744252934.8182456,0.0,2025-04-09 22:42:14.818,BACKWARD,45
65.0,11157.342631500082,515.9453172618529,-55581.43473642287,-51780.185315631075,-31915.02772748801,-29201.25772968027,284.5600586605142,-19218.70043500667,0.0,0.0,0.0,193.0,1.0,155.0,0.0,3.0,3.0,250.0,411.0,3.0,1018.0,1744252934.8182545,0.0,2025-04-09 22:42:14.818,BACKWARD,45
66.0,11100.524497094691,509.9326980033753,-55617.44339674037,-51809.48845261198,-31938.117079510343,-29230.963198061374,313.2149950522179,-19247.444778376197,0.0,0.0,0.0,193.0,1.0,155.0,0.0,3.0,3.0,252.0,411.0,3.0,1020.0,1744252934.8182633,0.0,2025-04-09 22:42:14.818,BACKWARD,45
67.0,11084.699462020333,482.86473546799846,-55613.91182111643,-51790.645932036154,-31962.56988794445,-29249.828070381653,314.35493401943853,-19243.33205739642,0.0,0.0,0.0,193.0,1.0,155.0,0.0,3.0,3.0,251.0,411.0,3.0,1019.0,1744252934.8182724,0.0,2025-04-09 22:42:14.818,BACKWARD,45
68.0,11188.16568710395,505.52940434567984,-55611.49783271526,-51774.06093765032,-31977.545556729503,-29253.2031837944,322.1109893454301,-19233.989028214102,0.0,0.0,0.0,193.0,1.0,155.0,0.0,3.0,3.0,252.0,411.0,3.0,1020.0,1744252934.8182876,0.0,2025-04-09 22:42:14.818,BACKWARD,45
69.0,11167.646785693978,512.3243346600932,-55581.09946025604,-51790.645932036154,-31913.485457120594,-29195.133351699515,271.2607707096065,-19200.975501653615,0.0,0.0,0.0,193.0,1.0,155.0,0.0,3.0,3.0,251.0,411.0,3.0,1019.0,1744252934.8182967,0.0,2025-04-09 22:42:14.818,BACKWARD,45
70.0,11119.836404304076,517.0182009957076,-55601.95363783284,-51787.04730117885,-31923.253169447562,-29212.768878074752,351.0341466705974,-19204.88705693329,0.0,0.0,0.0,193.0,1.0,155.0,0.0,3.0,3.0,252.0,411.0,3.0,1020.0,1744252934.8183055,0.0,2025-04-09 22:42:14.818,BACKWARD,45
71.0,11080.586741040557,483.51293605720235,-55618.538632218675,-51816.39514164867,-31958.323056497942,-29251.660913426986,292.114948286408,-19252.160996456267,0.0,0.0,0.0,193.0,1.0,155.0,0.0,3.0,3.0,252.0,411.0,3.0,1020.0,1744252934.818314,0.0,2025-04-09 22:42:14.818,BACKWARD,45
72.0,11186.623416736535,504.52357584519103,-55605.66402741242,-51764.583798001266,-31987.13445510083,-29279.35472480711,317.7971026655558,-19288.169656773767,0.0,0.0,0.0,193.0,1.0,155.0,0.0,3.0,3.0,253.0,411.0,3.0,1021.0,1744252934.818323,0.0,2025-04-09 22:42:14.818,BACKWARD,45
73.0,11170.820733406632,498.64506705344525,-55599.58435292058,-51822.25129869596,-31938.69822486618,-29226.805773592685,226.84785447691138,-19247.53418535402,0.0,0.0,0.0,193.0,1.0,155.0,0.0,3.0,3.0,252.0,411.0,3.0,1020.0,1744252934.8183317,0.0,2025-04-09 22:42:14.818,BACKWARD,45
74.0,11120.909288037932,508.70335205833345,-55607.787443135676,-51791.0259116919,-31938.31824521044,-29237.73577663133,337.6454517418685,-19240.359275383864,0.0,0.0,0.0,193.0,1.0,155.0,0.0,2.0,3.0,250.0,411.0,2.0,1018.0,1744252934.8183403,0.0,2025-04-09 22:42:14.818,BACKWARD,45
75.0,11077.725717750278,490.2408111382498,-55621.5784694646,-51827.45925515405,-31955.216164018653,-29245.31301800168,284.0012650491315,-19238.682894549715,0.0,0.0,0.0,193.0,1.0,154.0,0.0,2.0,3.0,250.0,410.0,2.0,1018.0,1744252934.818349,0.0,2025-04-09 22:42:14.818,BACKWARD,45
76.0,11162.885864124997,495.24760189623856,-55606.2228210238,-51757.72181245349,-31990.42016153576,-29282.551024264223,345.9155971903321,-19272.76930484406,0.0,0.0,0.0,193.0,1.0,155.0,0.0,3.0,3.0,250.0,411.0,3.0,1018.0,1744252934.8183577,0.0,2025-04-09 22:42:14.818,BACKWARD,45
77.0,11176.185152075906,493.59357280654586,-55608.9273821029,-51836.35524944726,-31953.71859714015,-29232.036081795228,209.5029007795931,-19249.411731888264,0.0,0.0,0.0,193.0,1.0,154.0,0.0,3.0,3.0,250.0,410.0,3.0,1018.0,1744252934.8183663,0.0,2025-04-09 22:42:14.818,BACKWARD,45
78.0,11135.7284946118,505.57410783459045,-55592.90118132844,-51778.374824330196,-31935.41251843125,-29221.35194794559,321.1498643338519,-19226.881173477315,0.0,0.0,0.0,193.0,1.0,155.0,0.0,2.0,3.0,252.0,411.0,2.0,1020.0,1744252934.8183753,0.0,2025-04-09 22:42:14.818,BACKWARD,45
79.0,11073.635348514958,485.99397969174146,-55627.4793300008,-51843.82073209533,-31958.43481522022,-29250.431567481945,264.97993051766525,-19265.348525684898,0.0,0.0,0.0,193.0,1.0,155.0,0.0,2.0,3.0,252.0,411.0,2.0,1020.0,1744252934.8183842,0.0,2025-04-09 22:42:14.818,BACKWARD,45
80.0,11136.53315741219,487.26802912569394,-55608.63680942498,-51765.1202398682,-31989.146112101807,-29292.13992263555,337.7125069752344,-19297.691499911725,0.0,0.0,0.0,193.0,1.0,155.0,0.0,2.0,3.0,251.0,411.0,2.0,1019.0,1744252934.8183932,0.0,2025-04-09 22:42:14.818,BACKWARD,45
81.0,11182.264826567749,496.8345757525654,-55622.36078052054,-51839.08216227081,-31969.23070779213,-29247.68230291394,210.59813625790315,-19260.18527271572,0.0,0.0,0.0,193.0,1.0,155.0,0.0,2.0,3.0,250.0,411.0,2.0,1018.0,1744252934.8184018,0.0,2025-04-09 22:42:14.818,BACKWARD,45
82.0,11144.222157504817,513.8219015385988,-55592.23062899478,-51776.81020221832,-31929.332843939406,-29225.93405555893,310.0410473395643,-19237.341789882397,0.0,0.0,0.0,193.0,1.0,155.0,0.0,2.0,3.0,252.0,411.0,2.0,1020.0,1744252934.8184109,0.0,2025-04-09 22:42:14.818,BACKWARD,45
83.0,11084.028909686675,499.136805431462,-55632.44141726988,-51838.21044423705,-31952.80217561748,-29247.950523847405,279.01682603559806,-19255.51375812456,0.0,0.0,0.0,193.0,1.0,154.0,0.0,2.0,3.0,249.0,410.0,2.0,1017.0,1744252934.8184245,0.0,2025-04-09 22:42:14.818,BACKWARD,45
84.0,11120.395197915459,486.91040121440903,-55615.81171939513,-51770.328196326285,-31986.1509783448,-29278.572413751175,329.17414059330713,-19270.020040276057,0.0,0.0,0.0,193.0,1.0,154.0,0.0,2.0,3.0,249.0,410.0,2.0,1017.0,1744252934.8184333,0.0,2025-04-09 22:42:14.818,BACKWARD,45
85.0,11201.97906517733,514.5148056167133,-55618.06924558512,-51816.50690037095,-31971.75645491558,-29251.727968660354,247.12088669787488,-19257.77128431455,0.0,0.0,0.0,193.0,1.0,154.0,0.0,2.0,3.0,250.0,410.0,2.0,1018.0,1744252934.8184419,0.0,2025-04-09 22:42:14.818,BACKWARD,45
86.0,11157.856721622555,520.4827213862802,-55578.841934066055,-51769.92586492609,-31917.776992056013,-29203.716421570352,309.37049500590507,-19205.08822263339,0.0,0.0,0.0,193.0,1.0,154.0,0.0,2.0,3.0,250.0,410.0,2.0,1018.0,1744252934.8184505,0.0,2025-04-09 22:42:14.818,BACKWARD,45
87.0,11088.789831255655,503.361285133515,-55629.96037363534,-51831.32610694481,-31952.42219596174,-29243.815451123173,296.96527683320966,-19241.1415864398,0.0,0.0,0.0,193.0,1.0,154.0,0.0,2.0,3.0,249.0,410.0,2.0,1017.0,1744252934.8184593,0.0,2025-04-09 22:42:14.818,BACKWARD,45
88.0,11088.789831255655,477.9026481989203,-55623.098388087565,-51798.424339106605,-31987.715600456668,-29282.103989375115,305.9730298486984,-19271.852883321393,0.0,0.0,0.0,193.0,1.0,154.0,0.0,2.0,3.0,250.0,410.0,2.0,1018.0,1744252934.8184676,0.0,2025-04-09 22:42:14.818,BACKWARD,45
89.0,11192.7924982062,506.62463982398987,-55619.76797816372,-51810.24841192346,-31987.17915858974,-29272.246870070325,269.8302590644669,-19270.71294435417,0.0,0.0,0.0,193.0,1.0,154.0,0.0,2.0,3.0,249.0,410.0,2.0,1017.0,1744252934.8184764,0.0,2025-04-09 22:42:14.818,BACKWARD,45
90.0,11158.30375651166,510.9161747594088,-55585.30158821364,-51794.646894293655,-31927.254131705064,-29209.5949303621,271.68545385425733,-19221.650865274773,0.0,0.0,0.0,193.0,1.0,155.0,0.0,2.0,3.0,252.0,411.0,2.0,1020.0,1744252934.8184853,0.0,2025-04-09 22:42:14.818,BACKWARD,45
91.0,11098.33402613807,501.3719798769927,-55630.27329805771,-51826.07344699782,-31956.825489619434,-29250.74449190432,308.7669979056118,-19262.420447161254,0.0,0.0,0.0,193.0,1.0,155.0,0.0,2.0,3.0,252.0,411.0,2.0,1020.0,1744252934.818494,0.0,2025-04-09 22:42:14.818,BACKWARD,45
92.0,11074.864694459999,475.1533836309175,-55634.87775741551,-51821.73720857349,-31986.70977195618,-29276.69486721693,285.63294239436897,-19275.183293245234,0.0,0.0,0.0,193.0,1.0,155.0,0.0,2.0,3.0,252.0,411.0,2.0,1020.0,1744252934.818503,0.0,2025-04-09 22:42:14.818,BACKWARD,45
93.0,11188.702128970877,509.2844974141714,-55619.2762397857,-51785.61678953371,-31993.549405759506,-29274.6608584715,309.66106768382406,-19265.19206347371,0.0,0.0,0.0,193.0,1.0,155.0,0.0,2.0,3.0,251.0,411.0,2.0,1019.0,1744252934.8185115,0.0,2025-04-09 22:42:14.818,BACKWARD,45
94.0,11170.016070606242,512.8607765270206,-55588.29672197065,-51804.34755138726,-31929.89163755079,-29203.604662848076,253.84876177892232,-19213.00074017057,0.0,0.0,0.0,193.0,1.0,155.0,0.0,2.0,3.0,252.0,411.0,2.0,1020.0,1744252934.8185203,0.0,2025-04-09 22:42:14.818,BACKWARD,45
95.0,11120.149328726451,518.4710643853026,-55610.33554200358,-51796.256219894436,-31943.079166779422,-29222.60364563509,333.1080476174412,-19222.969618197636,0.0,0.0,0.0,193.0,1.0,155.0,0.0,2.0,3.0,251.0,411.0,2.0,1019.0,1744252934.8185291,0.0,2025-04-09 22:42:14.818,BACKWARD,45
96.0,11073.076554903575,482.79768023463254,-55630.87679515801,-51830.521444144426,-31975.399789261795,-29259.014637352782,279.7991370915338,-19266.57787162994,0.0,0.0,0.0,193.0,1.0,155.0,0.0,2.0,3.0,251.0,411.0,2.0,1019.0,1744252934.818538,0.0,2025-04-09 22:42:14.818,BACKWARD,45
97.0,11178.934416643908,506.3340671460709,-55612.41425423793,-51767.22130384699,-31999.919652929268,-29276.85132942812,319.51818698861445,-19282.715831126672,0.0,0.0,0.0,193.0,1.0,155.0,0.0,2.0,3.0,252.0,411.0,2.0,1020.0,1744252934.8185468,0.0,2025-04-09 22:42:14.818,BACKWARD,45
98.0,11187.293969070193,519.5662998636127,-55590.71071037182,-51815.411664892636,-31938.09472776589,-29208.566750117156,221.215214874174,-19236.85005150438,0.0,0.0,0.0,193.0,1.0,155.0,0.0,2.0,3.0,252.0,411.0,2.0,1020.0,1744252934.8185604,0.0,2025-04-09 22:42:14.818,BACKWARD,45
99.0,11145.965593572331,534.29609945966,-55587.71557661481,-51771.49048703796,-31925.018957259534,-29207.717383827854,345.40150706786005,-19216.934647194703,0.0,0.0,0.0,193.0,1.0,155.0,0.0,2.0,3.0,251.0,411.0,2.0,1019.0,1744252934.818569,0.0,2025-04-09 22:42:14.818,BACKWARD,45
100.0,11081.749031752233,496.9239827303866,-55624.01480961023,-51832.957784290054,-31959.775919887536,-29244.620113923564,280.4920411696483,-19258.106560481378,0.0,0.0,0.0,193.0,1.0,155.0,0.0,2.0,3.0,252.0,411.0,2.0,1020.0,1744252934.8185778,0.0,2025-04-09 22:42:14.818,BACKWARD,45
101.0,11156.046230321674,497.7957007641436,-55617.13047231799,-51770.19408585955,-32006.04403091002,-29292.31873659119,330.6717074718127,-19292.885874853837,0.0,0.0,0.0,193.0,1.0,155.0,0.0,2.0,3.0,252.0,411.0,2.0,1020.0,1744252934.8185866,0.0,2025-04-09 22:42:14.818,BACKWARD,45
102.0,11190.534972016212,511.6984858153446,-55604.79230937867,-51834.857682568756,-31950.522297683037,-29230.292645727714,221.03640091853154,-19245.65663881977,0.0,0.0,0.0,193.0,1.0,155.0,0.0,2.0,3.0,252.0,411.0,2.0,1020.0,1744252934.8185956,0.0,2025-04-09 22:42:14.818,BACKWARD,45
103.0,11153.341669242582,531.0327447691852,-55576.98673927626,-51765.29905382384,-31917.598178100372,-29207.672680338943,351.9952716821756,-19206.898713934268,0.0,0.0,0.0,193.0,1.0,155.0,0.0,2.0,3.0,251.0,411.0,2.0,1019.0,1744252934.818604,0.0,2025-04-09 22:42:14.818,BACKWARD,45
104.0,11088.253389388728,515.9006137729423,-55617.66691418492,-51833.44952266807,-31949.047082548987,-29239.389805721024,290.32680872998344,-19244.18142368572,0.0,0.0,0.0,193.0,1.0,155.0,0.0,2.0,3.0,252.0,411.0,2.0,1020.0,1744252934.8186128,0.0,2025-04-09 22:42:14.818,BACKWARD,45
105.0,11140.824692347609,504.5012241007357,-55603.63001866699,-51761.25338807743,-31989.05670512399,-29277.477178272868,348.2178268692287,-19266.95785128568,0.0,0.0,0.0,193.0,1.0,155.0,0.0,2.0,3.0,252.0,411.0,2.0,1020.0,1744252934.8186216,0.0,2025-04-09 22:42:14.818,BACKWARD,45
106.0,11195.899390685487,513.620735838501,-55614.73883566128,-51832.823673823324,-31970.28123978153,-29244.038968567726,225.3726393428611,-19258.173615714742,0.0,0.0,0.0,193.0,1.0,155.0,0.0,2.0,3.0,251.0,411.0,2.0,1019.0,1744252934.8186305,0.0,2025-04-09 22:42:14.818,BACKWARD,45
107.0,11163.467009480835,531.7927040806657,-55575.0197857642,-51764.82966719028,-31919.453372890162,-29204.610491348565,321.39573352286027,-19215.034748916,0.0,0.0,0.0,193.0,1.0,155.0,0.0,2.0,3.0,251.0,411.0,2.0,1019.0,1744252934.8186393,0.0,2025-04-09 22:42:14.818,BACKWARD,45
108.0,11095.696520292346,511.6314305819787,-55617.778672907196,-51827.77217957642,-31947.616570903847,-29224.861171825072,290.1032912854304,-19234.14549042529,0.0,0.0,0.0,193.0,1.0,155.0,0.0,2.0,3.0,252.0,411.0,2.0,1020.0,1744252934.818648,0.0,2025-04-09 22:42:14.818,BACKWARD,45
109.0,11119.590535115069,492.654799539423,-55601.350140732546,-51768.093021880755,-31981.792388176014,-29262.970896121373,324.9496608912541,-19266.82374081895,0.0,0.0,0.0,193.0,1.0,155.0,0.0,2.0,3.0,251.0,411.0,2.0,1019.0,1744252934.8186567,0.0,2025-04-09 22:42:14.818,BACKWARD,45
110.0,11188.07628012613,503.11541594450665,-55620.88556538649,-51825.335839430794,-31988.18498709023,-29261.003942609306,242.67288955126878,-19278.312537468977,0.0,0.0,0.0,193.0,1.0,155.0,0.0,2.0,3.0,251.0,411.0,2.0,1019.0,1744252934.8186653,0.0,2025-04-09 22:42:14.818,BACKWARD,45
111.0,11149.988907574285,516.392352150959,-55578.30549219913,-51785.01329243342,-31930.182210228708,-29212.321843185648,288.404558706827,-19234.23489740311,0.0,0.0,0.0,193.0,1.0,155.0,0.0,2.0,3.0,251.0,411.0,2.0,1019.0,1744252934.818674,0.0,2025-04-09 22:42:14.818,BACKWARD,45
112.0,11099.183392427372,515.4759306282915,-55611.408425737434,-51824.59823186377,-31947.393053459295,-29235.701767885897,300.049817568042,-19254.53028136853,0.0,0.0,0.0,193.0,1.0,155.0,0.0,2.0,3.0,252.0,411.0,2.0,1020.0,1744252934.818683,0.0,2025-04-09 22:42:14.818,BACKWARD,45
113.0,11095.294188892149,483.7364535017555,-55606.49104195727,-51797.46321409503,-31979.221937563652,-29275.487873016344,307.6047071939358,-19290.404831219297,0.0,0.0,0.0,193.0,1.0,155.0,0.0,2.0,3.0,252.0,411.0,2.0,1020.0,1744252934.8186967,0.0,2025-04-09 22:42:14.818,BACKWARD,45
114.0,11191.183172605417,499.9191164873978,-55614.96235310583,-51811.94714450207,-31995.985745905135,-29279.913518418496,275.90993355631036,-19286.895607339815,0.0,0.0,0.0,193.0,1.0,155.0,0.0,2.0,3.0,252.0,411.0,2.0,1020.0,1744252934.8187058,0.0,2025-04-09 22:42:14.818,BACKWARD,45
115.0,11171.267768295738,519.9462795193529,-55570.32591942858,-51796.36797861671,-31923.811963058946,-29204.945767515394,267.66213985230206,-19217.67225476173,0.0,0.0,0.0,193.0,1.0,155.0,0.0,2.0,3.0,252.0,411.0,2.0,1020.0,1744252934.8187146,0.0,2025-04-09 22:42:14.818,BACKWARD,45
116.0,11118.227078703294,527.0094307672299,-55603.182983777886,-51812.17066194662,-31946.610742403358,-29232.907799828983,315.338410775472,-19240.694551550692,0.0,0.0,0.0,193.0,1.0,155.0,0.0,2.0,3.0,250.0,411.0,2.0,1018.0,1744252934.8187234,0.0,2025-04-09 22:42:14.818,BACKWARD,45
117.0,11087.582837055068,491.2689913831939,-55613.308324016136,-51820.865490539734,-31982.015905620567,-29268.46942525738,277.96629404619864,-19276.300880468,0.0,0.0,0.0,193.0,1.0,155.0,0.0,2.0,3.0,251.0,411.0,2.0,1019.0,1744252934.8187323,0.0,2025-04-09 22:42:14.818,BACKWARD,45
118.0,11198.760413975766,510.69265731485575,-55606.8263181241,-51791.294132625364,-32000.09846688491,-29289.815341212197,296.8535181109331,-19303.547656959017,0.0,0.0,0.0,193.0,1.0,155.0,0.0,2.0,3.0,252.0,411.0,2.0,1020.0,1744252934.818741,0.0,2025-04-09 22:42:14.818,BACKWARD,45
119.0,11183.695338212889,521.0862184865736,-55581.79236433416,-51820.70902832854,-31939.167611499743,-29217.820372321654,228.72540101115717,-19242.974429485133,0.0,0.0,0.0,193.0,1.0,155.0,0.0,2.0,3.0,251.0,411.0,2.0,1019.0,1744252934.81875,0.0,2025-04-09 22:42:14.818,BACKWARD,45
120.0,11135.39321844497,532.9773465367969,-55594.19758250685,-51801.553583330344,-31939.65934987776,-29232.863096340072,325.9554893917429,-19244.740217297105,0.0,0.0,0.0,193.0,1.0,155.0,0.0,2.0,3.0,252.0,411.0,2.0,1020.0,1744252934.8187587,0.0,2025-04-09 22:42:14.818,BACKWARD,45
121.0,11085.593531798546,499.38267462047037,-55611.45312922635,-51837.49518841448,-31964.916821112256,-29262.680323443452,278.5250876575813,-19274.736258356126,0.0,0.0,0.0,193.0,1.0,155.0,0.0,2.0,3.0,251.0,411.0,2.0,1019.0,1744252934.8187675,0.0,2025-04-09 22:42:14.818,BACKWARD,45
122.0,11178.755602688267,510.4467881258474,-55600.657236654435,-51780.945274942555,-31998.24327209512,-29294.218634869892,322.28980330107254,-19297.691499911725,0.0,0.0,0.0,193.0,1.0,155.0,0.0,2.0,3.0,251.0,411.0,2.0,1019.0,1744252934.8187764,0.0,2025-04-09 22:42:14.818,BACKWARD,45
123.0,11192.032538894719,525.8694918000093,-55577.858457310016,-51831.16964473363,-31933.490268408095,-29217.73096534383,224.6573835202913,-19238.48172884962,0.0,0.0,0.0,193.0,1.0,154.0,0.0,2.0,3.0,250.0,410.0,2.0,1018.0,1744252934.8187852,0.0,2025-04-09 22:42:14.818,BACKWARD,45
124.0,11148.178416273406,536.263052971727,-55575.355061931026,-51782.73341449898,-31922.493210136083,-29217.842724066108,347.5025710466589,-19228.468147333642,0.0,0.0,0.0,193.0,1.0,155.0,0.0,2.0,3.0,252.0,411.0,2.0,1020.0,1744252934.8187945,0.0,2025-04-09 22:42:14.818,BACKWARD,45
125.0,11084.900627720432,500.79083452115475,-55613.7777106497,-51845.899444329676,-31958.904201853777,-29247.972875591862,276.24520972313996,-19264.208586717676,0.0,0.0,0.0,193.0,1.0,155.0,0.0,2.0,3.0,251.0,411.0,2.0,1019.0,1744252934.8188033,0.0,2025-04-09 22:42:14.818,BACKWARD,45
126.0,11158.750791400766,501.5507938326352,-55602.80300412214,-51771.62459750469,-32003.495932042115,-29287.244890599835,330.91757666082106,-19292.192970775723,0.0,0.0,0.0,193.0,1.0,155.0,0.0,2.0,3.0,252.0,411.0,2.0,1020.0,1744252934.818812,0.0,2025-04-09 22:42:14.818,BACKWARD,45
127.0,11181.862495167554,505.84232876805413,-55614.425911238905,-51854.05783105586,-31974.48336773913,-29244.01661682327,200.13751985281945,-19267.87427280835,0.0,0.0,0.0,193.0,1.0,155.0,0.0,2.0,3.0,251.0,411.0,2.0,1019.0,1744252934.8188207,0.0,2025-04-09 22:42:14.818,BACKWARD,45
128.0,11140.355305714049,525.3554016775372,-55589.21314349332,-51786.22028663401,-31941.782765601012,-29221.754279345787,322.5580242345362,-19234.123138680832,0.0,0.0,0.0,193.0,1.0,154.0,0.0,2.0,3.0,249.0,410.0,2.0,1017.0,1744252934.818834,0.0,2025-04-09 22:42:14.818,BACKWARD,45
129.0,11082.799563741633,506.91521250190885,-55623.925402632405,-51847.30760423036,-31960.737044899113,-29240.350930732602,279.7991370915338,-19255.647868591295,0.0,0.0,0.0,193.0,1.0,154.0,0.0,2.0,3.0,250.0,410.0,2.0,1018.0,1744252934.818843,0.0,2025-04-09 22:42:14.818,BACKWARD,45
130.0,11140.847044092065,503.8306717670765,-55603.25003901125,-51769.903513181634,-31994.935213915734,-29278.572413751175,340.2382540986841,-19278.200778746697,0.0,0.0,0.0,193.0,1.0,154.0,0.0,2.0,3.0,249.0,410.0,2.0,1017.0,1744252934.8188517,0.0,2025-04-09 22:42:14.818,BACKWARD,45
131.0,11194.804155207177,511.1396922039619,-55618.67274268541,-51845.74298211849,-31984.96633588867,-29257.517070474278,214.95672642668802,-19284.81689510547,0.0,0.0,0.0,193.0,1.0,154.0,0.0,2.0,3.0,251.0,410.0,2.0,1019.0,1744252934.8188603,0.0,2025-04-09 22:42:14.818,BACKWARD,45
132.0,11153.29696575367,523.1202272320065,-55581.09946025604,-51785.30386511134,-31936.977140543124,-29209.46081989537,305.3695327484051,-19219.639208273795,0.0,0.0,0.0,193.0,1.0,154.0,0.0,2.0,3.0,249.0,410.0,2.0,1017.0,1744252934.818869,0.0,2025-04-09 22:42:14.818,BACKWARD,45
133.0,11084.788868998156,504.23300316727205,-55625.22180381082,-51848.58165366431,-31957.42898671973,-29239.88154409904,299.0216373230979,-19240.51573759505,0.0,0.0,0.0,193.0,1.0,154.0,0.0,2.0,3.0,249.0,410.0,2.0,1017.0,1744252934.8188777,0.0,2025-04-09 22:42:14.818,BACKWARD,45
134.0,11104.324293652093,487.73741575925544,-55609.106196058536,-51793.3728448597,-31987.268565567563,-29279.13120736256,335.34322206297185,-19283.498142182605,0.0,0.0,0.0,193.0,1.0,154.0,0.0,2.0,3.0,250.0,410.0,2.0,1018.0,1744252934.8188865,0.0,2025-04-09 22:42:14.818,BACKWARD,45
135.0,11184.768221946744,502.9813054777748,-55621.31024853114,-51835.617641880235,-31992.14124585882,-29271.46455901439,256.77684030256756,-19295.836305121935,0.0,0.0,0.0,193.0,1.0,154.0,0.0,2.0,3.0,251.0,410.0,2.0,1019.0,1744252934.8188953,0.0,2025-04-09 22:42:14.818,BACKWARD,45
136.0,11141.696410381366,507.18343343537254,-55588.29672197065,-51803.92286824261,-31938.60881788836,-29217.462744410368,286.7952331060449,-19240.627496317327,0.0,0.0,0.0,193.0,1.0,154.0,0.0,2.0,3.0,250.0,410.0,2.0,1018.0,1744252934.818904,0.0,2025-04-09 22:42:14.818,BACKWARD,45
137.0,11086.979339954774,506.89286075745355,-55627.59108872308,-51839.93152856011,-31961.787576888513,-29238.02634930925,300.340390245961,-19252.071589478444,0.0,0.0,0.0,193.0,1.0,154.0,0.0,2.0,3.0,250.0,410.0,2.0,1018.0,1744252934.8189127,0.0,2025-04-09 22:42:14.818,BACKWARD,45
138.0,11080.229113129273,480.0707674110851,-55620.46088224184,-51808.68378981159,-31991.247176080607,-29260.199279808916,298.90987860082134,-19262.509854139073,0.0,0.0,0.0,193.0,1.0,155.0,0.0,2.0,3.0,252.0,411.0,2.0,1020.0,1744252934.8189216,0.0,2025-04-09 22:42:14.818,BACKWARD,45
139.0,11188.657425481966,502.3107531441156,-55614.29180077217,-51802.693522297566,-31997.572719761458,-29259.03698909724,282.9507330597321,-19266.33200244093,0.0,0.0,0.0,193.0,1.0,154.0,0.0,2.0,3.0,250.0,410.0,2.0,1018.0,1744252934.8189301,0.0,2025-04-09 22:42:14.818,BACKWARD,45
140.0,11161.187131546394,512.3019829156378,-55576.9196840429,-51803.34172288677,-31928.706995094657,-29196.832084278118,264.4211369062825,-19218.253400117566,0.0,0.0,0.0,193.0,1.0,154.0,0.0,2.0,3.0,251.0,410.0,2.0,1019.0,1744252934.818939,0.0,2025-04-09 22:42:14.818,BACKWARD,45
141.0,11110.292209421661,520.8627010420205,-55602.24421051076,-51810.024894478905,-31939.99462604459,-29223.58712239112,329.50941676013673,-19241.543917839994,0.0,0.0,0.0,193.0,1.0,155.0,0.0,2.0,3.0,251.0,411.0,2.0,1019.0,1744252934.8189478,0.0,2025-04-09 22:42:14.818,BACKWARD,45
142.0,11075.691709004845,484.33995060204876,-55614.89529787246,-51825.22408070852,-31973.142263071808,-29254.74545416182,297.0770355554862,-19262.934537283723,0.0,0.0,0.0,193.0,1.0,154.0,0.0,2.0,3.0,251.0,410.0,2.0,1019.0,1744252934.8189566,0.0,2025-04-09 22:42:14.818,BACKWARD,45
143.0,11174.285253797205,490.41962509389225,-55613.75535890524,-51795.853888494246,-32002.803027964,-29281.768713208286,315.8525008979441,-19280.99474680361,0.0,0.0,0.0,193.0,1.0,155.0,0.0,2.0,3.0,251.0,411.0,2.0,1019.0,1744252934.8189695,0.0,2025-04-09 22:42:14.818,BACKWARD,45
144.0,11155.085105310096,489.10087217102915,-55596.164536018914,-51842.34551696128,-31943.548553412984,-29226.02346253675,232.36873535737223,-19251.512795867064,0.0,0.0,0.0,193.0,1.0,155.0,0.0,2.0,3.0,251.0,411.0,2.0,1019.0,1744252934.8189783,0.0,2025-04-09 22:42:14.818,BACKWARD,45
145.0,11110.091043721563,506.19995667933904,-55602.266562255216,-51814.00350499195,-31938.430003932717,-29235.522953930256,338.0254313976087,-19244.20377543018,0.0,0.0,0.0,193.0,1.0,155.0,0.0,2.0,3.0,252.0,411.0,2.0,1020.0,1744252934.8189871,0.0,2025-04-09 22:42:14.818,BACKWARD,45
146.0,11062.392421053937,477.8355929655544,-55624.9312311329,-51853.364926977745,-31969.789501403513,-29258.142919319027,275.46289866720423,-19266.689630352215,0.0,0.0,0.0,193.0,1.0,155.0,0.0,2.0,3.0,251.0,411.0,2.0,1019.0,1744252934.8189957,0.0,2025-04-09 22:42:14.818,BACKWARD,45
147.0,11154.883939609997,487.73741575925544,-55612.593068193564,-51790.15419365814,-32001.52897853005,-29294.12922789207,331.7222394612121,-19298.764383645583,0.0,0.0,0.0,193.0,1.0,155.0,0.0,2.0,3.0,252.0,411.0,2.0,1020.0,1744252934.8190043,0.0,2025-04-09 22:42:14.819,BACKWARD,45
148.0,11166.97623336032,498.4662530978028,-55603.317094244616,-51852.00147056598,-31948.55534417097,-29224.704709613885,220.34349684041703,-19241.633324817816,0.0,0.0,0.0,193.0,1.0,155.0,0.0,2.0,3.0,251.0,411.0,2.0,1019.0,1744252934.8190129,0.0,2025-04-09 22:42:14.819,BACKWARD,45
149.0,11130.520538153713,515.4535788838361,-55589.43666093787,-51796.41268210563,-31932.685605607705,-29218.245055466305,335.8573121854439,-19229.786900256506,0.0,0.0,0.0,193.0,1.0,154.0,0.0,2.0,3.0,250.0,410.0,2.0,1018.0,1744252934.8190215,0.0,2025-04-09 22:42:14.819,BACKWARD,45
150.0,11073.970624681786,487.5138983147023,-55617.46574848482,-51852.26969149944,-31958.390111731307,-29241.200297021904,274.3453114444389,-19262.219281461155,0.0,0.0,0.0,193.0,1.0,154.0,0.0,2.0,3.0,252.0,410.0,2.0,1020.0,1744252934.81903,0.0,2025-04-09 22:42:14.819,BACKWARD,45
151.0,11140.10943652504,486.7092355143113,-55601.5736581771,-51776.56433302932,-31997.05862963899,-29278.907689918007,337.0196028971199,-19282.894645082313,0.0,0.0,0.0,193.0,1.0,154.0,0.0,2.0,3.0,251.0,410.0,2.0,1019.0,1744252934.8190389,0.0,2025-04-09 22:42:14.819,BACKWARD,45
152.0,11178.6885474549,502.44486361084745,-55601.10427154354,-51848.045211797384,-31959.015960576056,-29228.012767793272,218.46595030617124,-19243.980257985622,0.0,0.0,0.0,193.0,1.0,154.0,0.0,2.0,3.0,250.0,410.0,2.0,1018.0,1744252934.8190477,0.0,2025-04-09 22:42:14.819,BACKWARD,45
153.0,11131.749884098756,508.34572414704854,-55581.32297770059,-51792.03174019239,-31930.60689337336,-29217.328633943634,329.1294371043965,-19225.04833043198,0.0,0.0,0.0,193.0,1.0,154.0,0.0,2.0,3.0,249.0,410.0,2.0,1017.0,1744252934.8190565,0.0,2025-04-09 22:42:14.819,BACKWARD,45
154.0,11070.461400802304,490.77725300517716,-55621.891393886974,-51860.003395080974,-31957.9430768422,-29239.27804699875,280.00030279163155,-19249.054103976978,0.0,0.0,0.0,193.0,1.0,153.0,0.0,2.0,3.0,249.0,409.0,2.0,1017.0,1744252934.819065,0.0,2025-04-09 22:42:14.819,BACKWARD,45
155.0,11118.048264747653,483.0659011680962,-55598.89144884246,-51781.59347553176,-31991.358934802884,-29270.79400668073,331.4093150388378,-19274.311575211475,0.0,0.0,0.0,193.0,1.0,153.0,0.0,2.0,3.0,249.0,409.0,2.0,1017.0,1744252934.8190737,0.0,2025-04-09 22:42:14.819,BACKWARD,45
156.0,11181.88484691201,494.50999432921344,-55612.28014377119,-51848.58165366431,-31977.858481151878,-29250.275105270757,230.46883707867113,-19269.841226320415,0.0,0.0,0.0,193.0,1.0,154.0,0.0,2.0,3.0,252.0,410.0,2.0,1020.0,1744252934.8190825,0.0,2025-04-09 22:42:14.819,BACKWARD,45
157.0,11135.572032400612,505.0600177121184,-55576.98673927626,-51795.45155709405,-31929.310492194953,-29207.896197783495,316.2548322981396,-19214.498307049074,0.0,0.0,0.0,193.0,1.0,154.0,0.0,2.0,3.0,250.0,410.0,2.0,1018.0,1744252934.8190908,0.0,2025-04-09 22:42:14.819,BACKWARD,45
158.0,11076.7645927387,500.47791009878046,-55618.896260129965,-51851.93441533261,-31955.104405296377,-29230.650273639,295.3335994879722,-19235.665409048248,0.0,0.0,0.0,193.0,1.0,154.0,0.0,2.0,3.0,250.0,410.0,2.0,1018.0,1744252934.8191044,0.0,2025-04-09 22:42:14.819,BACKWARD,45
159.0,11091.807316757122,477.2320958652611,-55605.7757861347,-51801.86650775272,-31986.910937656277,-29269.587012480144,317.86415789892175,-19271.919938554758,0.0,0.0,0.0,193.0,1.0,154.0,0.0,2.0,3.0,251.0,410.0,2.0,1019.0,1744252934.8191133,0.0,2025-04-09 22:42:14.819,BACKWARD,45
160.0,11185.237608580304,493.6382762954565,-55610.44730072586,-51832.57780463431,-31987.156806845287,-29262.389750765535,259.2802356815619,-19272.456380421685,0.0,0.0,0.0,193.0,1.0,155.0,0.0,2.0,3.0,252.0,411.0,2.0,1020.0,1744252934.819122,0.0,2025-04-09 22:42:14.819,BACKWARD,45
161.0,11162.63999493599,514.5595091056239,-55560.08882046805,-51794.46808033802,-31915.07243097692,-29194.82042727714,291.6008581639359,-19205.579961011408,0.0,0.0,0.0,193.0,1.0,154.0,0.0,2.0,3.0,251.0,410.0,2.0,1019.0,1744252934.819131,0.0,2025-04-09 22:42:14.819,BACKWARD,45
162.0,11101.887953506464,514.492453872258,-55600.500774443244,-51828.621545865724,-31937.871210321333,-29226.06816602566,321.39573352286027,-19232.603220057874,0.0,0.0,0.0,193.0,1.0,154.0,0.0,2.0,3.0,251.0,410.0,2.0,1019.0,1744252934.8191397,0.0,2025-04-09 22:42:14.819,BACKWARD,45
163.0,11073.724755492778,471.5771045180684,-55613.53184146069,-51823.41358940764,-31985.256908566585,-29271.665724714487,293.9477913317432,-19278.91603456927,0.0,0.0,0.0,193.0,1.0,154.0,0.0,2.0,3.0,252.0,410.0,2.0,1020.0,1744252934.8191483,0.0,2025-04-09 22:42:14.819,BACKWARD,45
164.0,11173.838218908098,483.8929157129426,-55616.951658362355,-51818.07152248282,-32006.781638477045,-29285.009716154305,271.9983782766316,-19299.233770279145,0.0,0.0,0.0,193.0,1.0,154.0,0.0,2.0,3.0,249.0,410.0,2.0,1017.0,1744252934.8191571,0.0,2025-04-09 22:42:14.819,BACKWARD,45
165.0,11150.145369785472,491.87248848348725,-55578.14902998794,-51822.22894695151,-31929.690471850692,-29208.00795650577,254.31814841248377,-19217.85106871737,0.0,0.0,0.0,193.0,1.0,153.0,0.0,2.0,3.0,252.0,409.0,2.0,1020.0,1744252934.8191657,0.0,2025-04-09 22:42:14.819,BACKWARD,45
166.0,11102.782023284677,504.56827933410165,-55603.29474250016,-51822.45246439606,-31940.866344078346,-29229.130355016037,327.5201115036144,-19234.257249147566,0.0,0.0,0.0,193.0,1.0,154.0,0.0,2.0,3.0,249.0,410.0,2.0,1017.0,1744252934.8191745,0.0,2025-04-09 22:42:14.819,BACKWARD,45
167.0,11080.072650918086,487.4691948257917,-55607.228649524295,-51832.756618589956,-31966.548498457494,-29250.61038143759,288.96335231820973,-19264.230938462133,0.0,0.0,0.0,193.0,1.0,154.0,0.0,2.0,3.0,249.0,410.0,2.0,1017.0,1744252934.819183,0.0,2025-04-09 22:42:14.819,BACKWARD,45
168.0,11185.505829513768,507.5857648355681,-55594.86813484051,-51783.64983602164,-31993.258833081585,-29266.390713023033,327.76598069262275,-19277.843150835415,0.0,0.0,0.0,193.0,1.0,154.0,0.0,2.0,3.0,253.0,410.0,2.0,1021.0,1744252934.8191924,0.0,2025-04-09 22:42:14.819,BACKWARD,45
169.0,11178.956768388363,514.9618405058194,-55574.4162886639,-51827.83923480979,-31936.999492287578,-29202.151799458483,231.0723341789644,-19241.454510862175,0.0,0.0,0.0,193.0,1.0,154.0,0.0,2.0,3.0,250.0,410.0,2.0,1018.0,1744252935.0664032,0.0,2025-04-09 22:42:15.066,BACKWARD,45
170.0,11131.034628276186,529.2222534683053,-55579.19956197734,-51793.886934982176,-31934.18317248621,-29214.10998274207,338.76303896463384,-19242.840319018404,0.0,0.0,0.0,193.0,1.0,154.0,0.0,2.0,3.0,250.0,410.0,2.0,1018.0,1744252935.0664456,0.0,2025-04-09 22:42:15.066,BACKWARD,45
171.0,11078.843304973043,496.61105830801233,-55600.88075409899,-51831.37081043373,-31961.161728043764,-29228.97389280485,285.23061099417345,-19248.96469699916,0.0,0.0,0.0,193.0,1.0,155.0,0.0,2.0,3.0,252.0,411.0,2.0,1020.0,1744252935.0664644,0.0,2025-04-09 22:42:15.066,BACKWARD,45
172.0,11170.574864217624,504.3447618895486,-55587.916742314905,-51762.549789255834,-31999.584376762436,-29267.754169434807,333.68919297327915,-19274.400982189298,0.0,0.0,0.0,193.0,1.0,155.0,0.0,2.0,3.0,253.0,411.0,2.0,1021.0,1744252935.0664744,0.0,2025-04-09 22:42:15.066,BACKWARD,45
173.0,11185.282312069216,511.0949887150513,-55581.79236433416,-51831.16964473363,-31950.455242449672,-29208.20912220587,206.41836004476073,-19236.782996271017,0.0,0.0,0.0,193.0,1.0,155.0,0.0,2.0,3.0,252.0,411.0,2.0,1020.0,1744252935.066484,0.0,2025-04-09 22:42:15.066,BACKWARD,45
174.0,11142.232852248295,526.5176923892132,-55565.02855599267,-51772.33985332726,-31923.253169447562,-29196.563863344654,338.6959837312679,-19212.03961515899,0.0,0.0,0.0,193.0,1.0,155.0,0.0,2.0,3.0,252.0,411.0,2.0,1020.0,1744252935.06653,0.0,2025-04-09 22:42:15.066,BACKWARD,45
175.0,11078.28451136166,501.5507938326352,-55602.400672721946,-51842.92666231712,-31950.455242449672,-29223.83299158013,280.02265453608686,-19246.126025453334,0.0,0.0,0.0,193.0,1.0,155.0,0.0,2.0,3.0,251.0,411.0,2.0,1019.0,1744252935.066544,0.0,2025-04-09 22:42:15.066,BACKWARD,45
176.0,11146.34557322807,496.99103796375255,-55583.69226261286,-51767.51187652491,-31986.016867878065,-29263.68615194394,347.9272541913097,-19277.507874668583,0.0,0.0,0.0,193.0,1.0,155.0,0.0,2.0,3.0,251.0,411.0,2.0,1019.0,1744252935.066553,0.0,2025-04-09 22:42:15.066,BACKWARD,45
177.0,11187.338672559104,500.6120205655123,-55591.73889061677,-51845.340650718295,-31955.640847163304,-29226.69401487041,230.75940975659012,-19258.084208736924,0.0,0.0,0.0,193.0,1.0,155.0,0.0,2.0,3.0,252.0,411.0,2.0,1020.0,1744252935.0665631,0.0,2025-04-09 22:42:15.066,BACKWARD,45
178.0,11148.11136104004,519.1416167189618,-55557.49601811123,-51774.798545217345,-31911.965538497632,-29194.418095876947,347.5472745355695,-19202.56247550994,0.0,0.0,0.0,193.0,1.0,155.0,0.0,2.0,3.0,252.0,411.0,2.0,1020.0,1744252935.0665724,0.0,2025-04-09 22:42:15.066,BACKWARD,45
179.0,11077.099868905529,495.3146571296045,-55606.96042859083,-51847.06173504135,-31947.95184707068,-29227.632788137533,296.42883496628224,-19237.095920693388,0.0,0.0,0.0,193.0,1.0,155.0,0.0,2.0,3.0,252.0,411.0,2.0,1020.0,1744252935.0665822,0.0,2025-04-09 22:42:15.066,BACKWARD,45
180.0,11111.141575710963,477.6344272654566,-55596.14218427446,-51786.957894201034,-31988.922594657255,-29274.03500962675,330.6493557273574,-19281.754706115094,0.0,0.0,0.0,193.0,1.0,155.0,0.0,2.0,3.0,251.0,411.0,2.0,1019.0,1744252935.0665915,0.0,2025-04-09 22:42:15.066,BACKWARD,45
181.0,11184.768221946744,502.15429093292846,-55599.76316687622,-51836.310545958346,-31967.75549265808,-29240.26152375478,251.45712512220445,-19254.70909532417,0.0,0.0,0.0,193.0,1.0,155.0,0.0,2.0,3.0,251.0,411.0,2.0,1019.0,1744252935.0666008,0.0,2025-04-09 22:42:15.066,BACKWARD,45
182.0,11144.87035809402,512.3690381490038,-55562.346346658036,-51787.00259768994,-31915.87709377731,-29196.452104622378,317.7971026655558,-19210.452641302665,0.0,0.0,0.0,193.0,1.0,154.0,0.0,2.0,3.0,251.0,410.0,2.0,1019.0,1744252935.0666099,0.0,2025-04-09 22:42:15.066,BACKWARD,45
183.0,11090.95795046782,507.51870960220214,-55602.57948667759,-51837.18226399211,-31940.37460570033,-29220.815506078663,303.04495132505315,-19239.46520560565,0.0,0.0,0.0,193.0,1.0,154.0,0.0,2.0,3.0,250.0,410.0,2.0,1018.0,1744252935.0666192,0.0,2025-04-09 22:42:15.066,BACKWARD,45
184.0,11100.457441861325,483.49058431274705,-55593.169402261905,-51797.06088269483,-31972.47171073815,-29253.65021868351,325.5755097360027,-19264.275641951044,0.0,0.0,0.0,193.0,1.0,155.0,0.0,2.0,3.0,251.0,411.0,2.0,1019.0,1744252935.066628,0.0,2025-04-09 22:42:15.066,BACKWARD,45
185.0,11200.25798085427,507.0046194797301,-55590.68835862737,-51815.99281024848,-31966.7943676465,-29242.586105178132,285.9905703056539,-19259.157092470778,0.0,0.0,0.0,193.0,1.0,155.0,0.0,2.0,3.0,251.0,411.0,2.0,1019.0,1744252935.0666368,0.0,2025-04-09 22:42:15.066,BACKWARD,45
186.0,11162.416477491437,514.8500817835429,-55552.08689595305,-51796.09975768325,-31907.495189606572,-29186.39381961749,299.8039483790336,-19203.32243482142,0.0,0.0,0.0,193.0,1.0,154.0,0.0,2.0,3.0,251.0,410.0,2.0,1019.0,1744252935.0666456,0.0,2025-04-09 22:42:15.066,BACKWARD,45
187.0,11108.05703497613,515.0959509725512,-55584.787498091166,-51820.48551088399,-31928.729346839114,-29210.131372229025,330.403486538349,-19225.741234510093,0.0,0.0,0.0,193.0,1.0,154.0,0.0,2.0,3.0,250.0,410.0,2.0,1018.0,1744252935.0666544,0.0,2025-04-09 22:42:15.066,BACKWARD,45
188.0,11081.19023814085,482.9541424458197,-55590.84482083855,-51815.121092214715,-31964.536841456516,-29249.91747735947,309.146977561352,-19266.734333841126,0.0,0.0,0.0,193.0,1.0,154.0,0.0,2.0,3.0,249.0,410.0,2.0,1017.0,1744252935.0666633,0.0,2025-04-09 22:42:15.066,BACKWARD,45
189.0,11184.947035902385,505.8199770235988,-55585.61451263601,-51796.457385594535,-31978.081998596434,-29262.32269553217,307.18002404928495,-19284.839246849926,0.0,0.0,0.0,193.0,1.0,154.0,0.0,2.0,3.0,249.0,410.0,2.0,1017.0,1744252935.0666895,0.0,2025-04-09 22:42:15.066,BACKWARD,45
190.0,11160.315413512637,506.51288110171333,-55558.65830882291,-51810.382522390195,-31920.280387435007,-29190.48418885281,261.6718723382798,-19204.596484255373,0.0,0.0,0.0,193.0,1.0,154.0,0.0,2.0,3.0,250.0,410.0,2.0,1018.0,1744252935.0666983,0.0,2025-04-09 22:42:15.066,BACKWARD,45
191.0,11110.15809895493,508.1892619358614,-55584.69809111334,-51806.71683629952,-31934.518448653038,-29211.226607707336,346.9437774352762,-19205.222333100122,0.0,0.0,0.0,193.0,1.0,154.0,0.0,2.0,3.0,250.0,410.0,2.0,1018.0,1744252935.0667074,0.0,2025-04-09 22:42:15.066,BACKWARD,45
192.0,11070.95313918032,476.71800574278905,-55595.136355773975,-51828.487435398994,-31960.044140821,-29243.301361000704,300.63096292388,-19248.67412432124,0.0,0.0,0.0,193.0,1.0,154.0,0.0,2.0,3.0,249.0,410.0,2.0,1017.0,1744252935.066716,0.0,2025-04-09 22:42:15.066,BACKWARD,45
193.0,11169.814904906143,497.2145554083056,-55587.38030044798,-51779.49241155296,-31990.643678980316,-29271.79983518122,337.3995825528601,-19276.032659534536,0.0,0.0,0.0,193.0,1.0,154.0,0.0,2.0,3.0,249.0,410.0,2.0,1017.0,1744252935.0667253,0.0,2025-04-09 22:42:15.066,BACKWARD,45
194.0,11161.92473911342,501.7072560438223,-55574.59510261955,-51834.76827559093,-31932.46208816315,-29208.857322795073,242.0693924509755,-19237.9899904716,0.0,0.0,0.0,193.0,1.0,154.0,0.0,2.0,3.0,250.0,410.0,2.0,1018.0,1744252935.066734,0.0,2025-04-09 22:42:15.066,BACKWARD,45
195.0,11125.625506118002,520.9968115087523,-55572.22581770728,-51793.55165881535,-31924.974253770622,-29212.523008885746,349.87185595892146,-19237.520603838042,0.0,0.0,0.0,193.0,1.0,154.0,0.0,2.0,3.0,250.0,410.0,2.0,1018.0,1744252935.066743,0.0,2025-04-09 22:42:15.066,BACKWARD,45
196.0,11072.830685714565,486.7315872587666,-55596.07512904109,-51842.6360896392,-31946.767204614545,-29228.392747449012,301.3015152575392,-19244.56140334146,0.0,0.0,0.0,193.0,1.0,154.0,0.0,2.0,3.0,248.0,410.0,2.0,1016.0,1744252935.0667517,0.0,2025-04-09 22:42:15.066,BACKWARD,45
197.0,11150.592404674579,484.42935757987,-55585.50275391374,-51774.507972539424,-31983.37936203234,-29262.2556402988,369.563742824047,-19262.375743672343,0.0,0.0,0.0,193.0,1.0,154.0,0.0,2.0,3.0,249.0,410.0,2.0,1017.0,1744252935.0667603,0.0,2025-04-09 22:42:15.066,BACKWARD,45
198.0,11170.77602991772,494.62175305149,-55586.79915509214,-51849.319261231336,-31944.755547613568,-29211.07014549615,237.46493309318222,-19236.112443937356,0.0,0.0,0.0,193.0,1.0,154.0,0.0,2.0,3.0,248.0,410.0,2.0,1016.0,1744252935.066769,0.0,2025-04-09 22:42:15.066,BACKWARD,45
199.0,11122.473910149803,509.73153230327756,-55574.55039913063,-51791.2717808809,-31928.997567772578,-29208.857322795073,344.1051058894522,-19230.256286890064,0.0,0.0,0.0,193.0,1.0,154.0,0.0,2.0,3.0,249.0,410.0,2.0,1017.0,1744252935.0667777,0.0,2025-04-09 22:42:15.066,BACKWARD,45
200.0,11057.631499484956,482.2612383677052,-55612.23544028228,-51857.5894066798,-31954.56796342945,-29237.914590586974,285.96821856119857,-19261.10169423839,0.0,0.0,0.0,193.0,1.0,154.0,0.0,2.0,3.0,250.0,410.0,2.0,1018.0,1744252935.0667865,0.0,2025-04-09 22:42:15.066,BACKWARD,45
201.0,11112.303866422639,474.88516269745384,-55592.610608650524,-51779.53711504187,-31987.022696378554,-29274.504396260312,358.9913676966867,-19279.921863069758,0.0,0.0,0.0,193.0,1.0,154.0,0.0,2.0,3.0,250.0,410.0,2.0,1018.0,1744252935.0667953,0.0,2025-04-09 22:42:15.066,BACKWARD,45
202.0,11158.862550123044,475.9580464313086,-55607.31805650212,-51859.086973558304,-31966.324981012942,-29243.97191333436,241.77881977305648,-19265.90731929628,0.0,0.0,0.0,193.0,1.0,155.0,0.0,2.0,3.0,250.0,411.0,2.0,1018.0,1744252935.066804,0.0,2025-04-09 22:42:15.066,BACKWARD,45
203.0,11122.160985727429,491.2242878942833,-55572.67285259639,-51796.97147571701,-31924.28134969251,-29218.379165933035,337.51134127513666,-19241.119234695343,0.0,0.0,0.0,193.0,1.0,155.0,0.0,2.0,3.0,252.0,411.0,2.0,1020.0,1744252935.0668132,0.0,2025-04-09 22:42:15.066,BACKWARD,45
204.0,11067.37686006747,485.4798895692694,-55604.27821925619,-51850.101572287276,-31942.31920746794,-29228.996244549304,307.3588380049274,-19237.073568948934,0.0,0.0,0.0,193.0,1.0,154.0,0.0,2.0,3.0,251.0,410.0,2.0,1019.0,1744252935.066827,0.0,2025-04-09 22:42:15.066,BACKWARD,45
205.0,11092.254351646228,467.2185143492835,-55591.4706696833,-51790.57887680279,-31981.23359456463,-29270.190509580436,347.3014053465611,-19266.220243718653,0.0,0.0,0.0,193.0,1.0,155.0,0.0,2.0,3.0,251.0,411.0,2.0,1019.0,1744252935.0668356,0.0,2025-04-09 22:42:15.066,BACKWARD,45
206.0,11168.518503727735,485.3904825914482,-55599.78551862067,-51840.222101238025,-31974.259850294573,-29253.2031837944,263.50471538361495,-19264.029772762035,0.0,0.0,0.0,193.0,1.0,155.0,0.0,2.0,3.0,252.0,411.0,2.0,1020.0,1744252935.0668447,0.0,2025-04-09 22:42:15.066,BACKWARD,45
207.0,11140.578823158601,504.0318374671743,-55555.059677965604,-51788.65662677964,-31914.17836119871,-29201.45889538037,316.2771840425949,-19210.13971688029,0.0,0.0,0.0,193.0,1.0,155.0,0.0,2.0,3.0,252.0,411.0,2.0,1020.0,1744252935.0668533,0.0,2025-04-09 22:42:15.066,BACKWARD,45
208.0,11086.420546343392,500.2096891653168,-55589.92839931588,-51826.29696444237,-31930.27161720653,-29221.30724445668,326.46957951421496,-19225.316551365442,0.0,0.0,0.0,193.0,1.0,155.0,0.0,2.0,3.0,251.0,411.0,2.0,1019.0,1744252935.066862,0.0,2025-04-09 22:42:15.066,BACKWARD,45
209.0,11080.720851507289,471.3088835846047,-55588.67670162639,-51792.568182059316,-31964.961524601167,-29263.730855432852,333.35391680644955,-19260.67701109374,0.0,0.0,0.0,193.0,1.0,155.0,0.0,2.0,3.0,251.0,411.0,2.0,1019.0,1744252935.0668707,0.0,2025-04-09 22:42:15.066,BACKWARD,45
210.0,11178.30856779916,492.87831698397605,-55595.00224530724,-51803.47583335351,-31975.243327050608,-29265.831919411652,287.17521276178513,-19268.85774956438,0.0,0.0,0.0,193.0,1.0,155.0,0.0,2.0,3.0,252.0,411.0,2.0,1020.0,1744252935.0668795,0.0,2025-04-09 22:42:15.066,BACKWARD,45
211.0,11146.658497650445,504.3224101450933,-55556.64665182193,-51781.9734551875,-31914.04425073198,-29197.54734010069,282.5707534039919,-19197.041594629478,0.0,0.0,0.0,193.0,1.0,155.0,0.0,2.0,3.0,252.0,411.0,2.0,1020.0,1744252935.0668883,0.0,2025-04-09 22:42:15.066,BACKWARD,45
212.0,11092.589627813057,512.4137416379144,-55587.44735568135,-51794.088100682275,-31927.209428216152,-29214.646424609,336.1031813744523,-19199.544990008475,0.0,0.0,0.0,193.0,1.0,155.0,0.0,2.0,3.0,252.0,411.0,2.0,1020.0,1744252935.066897,0.0,2025-04-09 22:42:15.066,BACKWARD,45
213.0,11069.075592646073,477.1650406318952,-55591.89535282795,-51787.29317036786,-31954.679722151726,-29243.36841623407,319.0711520995083,-19230.166879912245,0.0,0.0,0.0,193.0,1.0,155.0,0.0,2.0,3.0,251.0,411.0,2.0,1019.0,1744252935.0669055,0.0,2025-04-09 22:42:15.066,BACKWARD,45
214.0,11169.703146183867,487.4021395924258,-55596.5221639302,-51767.042489891355,-31981.23359456463,-29262.389750765535,326.08959985847474,-19249.18821444371,0.0,0.0,0.0,193.0,1.0,155.0,0.0,1.0,3.0,251.0,411.0,1.0,1019.0,1744252935.0669143,0.0,2025-04-09 22:42:15.066,BACKWARD,45
215.0,11151.821750619622,494.3535321180263,-55567.35313741602,-51787.40492909014,-31915.631224588305,-29192.115866198048,271.01490152059813,-19190.470181759618,0.0,0.0,0.0,193.0,1.0,155.0,0.0,2.0,3.0,250.0,411.0,2.0,1018.0,1744252935.0669231,0.0,2025-04-09 22:42:15.066,BACKWARD,45
216.0,11106.894744264453,510.491491614758,-55580.98770153376,-51765.209646846015,-31918.60400660086,-29203.023517492238,364.5122485771476,-19182.75882992254,0.0,0.0,0.0,193.0,1.0,154.0,0.0,2.0,3.0,250.0,410.0,2.0,1018.0,1744252935.066932,0.0,2025-04-09 22:42:15.066,BACKWARD,45
217.0,11060.626633241967,478.01440692119684,-55599.27142849821,-51790.91415296962,-31946.27546623653,-29231.7008056284,314.3325822749832,-19212.687815748195,0.0,0.0,0.0,193.0,1.0,155.0,0.0,2.0,3.0,251.0,411.0,2.0,1019.0,1744252935.0669405,0.0,2025-04-09 22:42:15.066,BACKWARD,45
218.0,11155.599195432567,492.4312820948699,-55594.4210999514,-51736.46530347649,-31978.730199185637,-29266.189547322938,357.9631874517426,-19247.91416500976,0.0,0.0,0.0,193.0,1.0,154.0,0.0,2.0,3.0,251.0,410.0,2.0,1019.0,1744252935.0669491,0.0,2025-04-09 22:42:15.066,BACKWARD,45
219.0,11160.449523979369,499.9861717207637,-55579.24426546625,-51787.650798279145,-31921.84500954688,-29197.97202324534,249.26665416558436,-19205.647016244773,0.0,0.0,0.0,193.0,1.0,154.0,0.0,2.0,3.0,249.0,410.0,2.0,1017.0,1744252935.0670195,0.0,2025-04-09 22:42:15.067,BACKWARD,45
220.0,11124.44086366187,518.9628027633194,-55571.82348630709,-51733.64898367512,-31909.21627392963,-29193.76989528774,365.9204084778319,-19184.926949134704,0.0,0.0,0.0,193.0,1.0,154.0,0.0,2.0,3.0,250.0,410.0,2.0,1018.0,1744252935.0670283,0.0,2025-04-09 22:42:15.067,BACKWARD,45
221.0,11059.263176830194,479.7131394998002,-55610.06732107012,-51795.33979837177,-31945.157879013765,-29220.97196828985,293.3666459759052,-19219.058062917957,0.0,0.0,0.0,193.0,1.0,154.0,0.0,2.0,3.0,249.0,410.0,2.0,1017.0,1744252935.067037,0.0,2025-04-09 22:42:15.067,BACKWARD,45
222.0,11141.830520848098,484.27289536868284,-55593.102347028536,-51718.98623931244,-31977.70201894069,-29248.777538392253,363.305254376561,-19223.595467042385,0.0,0.0,0.0,193.0,1.0,154.0,0.0,2.0,3.0,249.0,410.0,2.0,1017.0,1744252935.067046,0.0,2025-04-09 22:42:15.067,BACKWARD,45
223.0,11168.786724661199,496.879279241476,-55593.28116098418,-51793.037568692875,-31935.16664924224,-29195.155703443972,247.61262507589163,-19187.139771835777,0.0,0.0,0.0,193.0,1.0,154.0,0.0,2.0,3.0,249.0,410.0,2.0,1017.0,1744252935.0670545,0.0,2025-04-09 22:42:15.067,BACKWARD,45
224.0,11119.121148481507,504.1659479339061,-55574.639806108455,-51735.83945463174,-31908.590425084883,-29187.578462073623,370.2342951577062,-19169.884225116282,0.0,0.0,0.0,193.0,1.0,154.0,0.0,2.0,3.0,249.0,410.0,2.0,1017.0,1744252935.0670636,0.0,2025-04-09 22:42:15.067,BACKWARD,45
225.0,11056.46920877328,480.4060435779147,-55609.70969315883,-51800.927734485595,-31932.12681199632,-29207.78443906122,314.48904448617037,-19191.56541723793,0.0,0.0,0.0,193.0,1.0,154.0,0.0,2.0,3.0,250.0,410.0,2.0,1018.0,1744252935.0670724,0.0,2025-04-09 22:42:15.067,BACKWARD,45
226.0,11113.600267601047,474.3487208305265,-55587.60381789253,-51721.48963469144,-31964.51448971206,-29245.760052890786,372.3800626254157,-19225.3389031099,0.0,0.0,0.0,193.0,1.0,154.0,0.0,2.0,3.0,249.0,410.0,2.0,1017.0,1744252935.0670812,0.0,2025-04-09 22:42:15.067,BACKWARD,45
227.0,11171.267768295738,492.87831698397605,-55597.23741975277,-51790.91415296962,-31944.755547613568,-29216.993357776806,257.6038548474139,-19218.1863448842,0.0,0.0,0.0,193.0,1.0,154.0,0.0,2.0,3.0,249.0,410.0,2.0,1017.0,1744252935.0670898,0.0,2025-04-09 22:42:15.067,BACKWARD,45
228.0,11129.648820119957,510.8491195260429,-55563.06160248061,-51731.14558829613,-31901.68373604819,-29181.074104437128,350.0283181701086,-19171.89588211726,0.0,0.0,0.0,193.0,1.0,154.0,0.0,2.0,3.0,250.0,410.0,2.0,1018.0,1744252935.0670986,0.0,2025-04-09 22:42:15.067,BACKWARD,45
229.0,11063.308842576605,493.81709025109893,-55613.55419320514,-51800.30188564085,-31940.08403302241,-29215.11581124256,304.2966490145503,-19211.95020818117,0.0,0.0,0.0,193.0,1.0,154.0,0.0,2.0,3.0,250.0,410.0,2.0,1018.0,1744252935.273389,0.0,2025-04-09 22:42:15.273,BACKWARD,45
230.0,11096.344720881549,482.9988459347303,-55588.7214051153,-51733.38076274166,-31965.274449023542,-29238.294570242713,347.2790536021058,-19218.432214073207,0.0,0.0,0.0,193.0,1.0,154.0,0.0,2.0,3.0,250.0,410.0,2.0,1018.0,1744252935.2734387,0.0,2025-04-09 22:42:15.273,BACKWARD,45
231.0,11185.327015558127,507.4740061132915,-55591.18009700538,-51771.24461784895,-31954.478556451628,-29220.569636889653,276.8934103123439,-19213.067795403935,0.0,0.0,0.0,193.0,1.0,155.0,0.0,2.0,3.0,252.0,411.0,2.0,1020.0,1744252935.273456,0.0,2025-04-09 22:42:15.273,BACKWARD,45
232.0,11150.905329096953,515.5653376061127,-55550.05288720762,-51731.52556795187,-31892.296003376963,-29170.367618843036,332.4598470282373,-19165.83855936987,0.0,0.0,0.0,193.0,1.0,155.0,0.0,2.0,3.0,252.0,411.0,2.0,1020.0,1744252935.2734673,0.0,2025-04-09 22:42:15.273,BACKWARD,45
233.0,11097.596418571045,513.7324945607776,-55587.98379754827,-51770.529362026384,-31913.619567587328,-29194.77572378823,348.1954751247734,-19191.18543758219,0.0,0.0,0.0,193.0,1.0,155.0,0.0,2.0,3.0,252.0,411.0,2.0,1020.0,1744252935.2734778,0.0,2025-04-09 22:42:15.273,BACKWARD,45
234.0,11088.14163066645,484.63052327996775,-55585.1674777469,-51743.886082635654,-31947.057777292466,-29231.432584694932,354.1186874054298,-19220.80149898547,0.0,0.0,0.0,193.0,1.0,155.0,0.0,2.0,3.0,252.0,411.0,2.0,1020.0,1744252935.2735128,0.0,2025-04-09 22:42:15.273,BACKWARD,45
235.0,11179.40380327747,499.6955990428447,-55600.34431223206,-51761.14162935515,-31972.158786315777,-29245.31301800168,311.5162624736145,-19242.14741494029,0.0,0.0,0.0,193.0,1.0,155.0,0.0,2.0,3.0,250.0,411.0,2.0,1018.0,1744252935.273523,0.0,2025-04-09 22:42:15.273,BACKWARD,45
236.0,11150.793570374677,511.0949887150513,-55561.54168385764,-51754.25729206292,-31903.248358160065,-29175.374409601023,295.42300646579343,-19182.60236771135,0.0,0.0,0.0,193.0,1.0,155.0,0.0,2.0,3.0,250.0,411.0,2.0,1018.0,1744252935.273532,0.0,2025-04-09 22:42:15.273,BACKWARD,45
237.0,11098.691654049357,519.7004103303445,-55588.22966673728,-51764.20381834553,-31915.385355399296,-29195.155703443972,354.36455659443817,-19185.575149723907,0.0,0.0,0.0,193.0,1.0,155.0,0.0,2.0,3.0,250.0,411.0,2.0,1018.0,1744252935.2735412,0.0,2025-04-09 22:42:15.273,BACKWARD,45
238.0,11069.76849672419,490.3078663716157,-55595.896315085454,-51771.98222541597,-31946.923666825733,-29225.665834625466,323.60855622393564,-19211.123193636322,0.0,0.0,0.0,193.0,1.0,155.0,0.0,2.0,3.0,251.0,411.0,2.0,1019.0,1744252935.2735505,0.0,2025-04-09 22:42:15.273,BACKWARD,45
239.0,11180.029652122219,510.491491614758,-55589.30255047114,-51736.062972076295,-31970.795329904002,-29238.62984640954,343.59101576698015,-19226.612952543852,0.0,0.0,0.0,193.0,1.0,155.0,0.0,2.0,3.0,252.0,411.0,2.0,1020.0,1744252935.2735596,0.0,2025-04-09 22:42:15.273,BACKWARD,45
240.0,11158.817846634132,508.8374625250653,-55570.68354733987,-51773.591551016754,-31912.189055942188,-29176.670810779433,267.1927532187406,-19185.530446234996,0.0,0.0,0.0,193.0,1.0,155.0,0.0,2.0,3.0,251.0,411.0,2.0,1019.0,1744252935.273569,0.0,2025-04-09 22:42:15.273,BACKWARD,45
241.0,11114.427282145893,522.0473434981518,-55582.50762015672,-51752.04446936184,-31912.41257338674,-29194.48515111031,362.85821948745485,-19199.433231286195,0.0,0.0,0.0,193.0,1.0,155.0,0.0,2.0,3.0,252.0,411.0,2.0,1020.0,1744252935.2735782,0.0,2025-04-09 22:42:15.273,BACKWARD,45
242.0,11063.778229210166,484.719930257789,-55600.791347121165,-51787.6731500236,-31939.614646388847,-29212.59006411911,316.4559979982374,-19204.75294646656,0.0,0.0,0.0,193.0,1.0,154.0,0.0,2.0,3.0,250.0,410.0,2.0,1018.0,1744252935.2735872,0.0,2025-04-09 22:42:15.273,BACKWARD,45
243.0,11154.168683787428,492.94537221734197,-55590.24132373826,-51728.28456500585,-31974.41631250576,-29245.961218590885,361.15948690885153,-19231.575039812928,0.0,0.0,0.0,193.0,1.0,155.0,0.0,2.0,3.0,249.0,411.0,2.0,1017.0,1744252935.273596,0.0,2025-04-09 22:42:15.273,BACKWARD,45
244.0,11160.516579212735,506.89286075745355,-55576.7185183428,-51786.890838967665,-31922.001471758067,-29181.163511414947,244.17045642977436,-19196.0804696179,0.0,0.0,0.0,193.0,1.0,154.0,0.0,2.0,3.0,250.0,410.0,2.0,1018.0,1744252935.2736158,0.0,2025-04-09 22:42:15.273,BACKWARD,45
245.0,11111.566258855613,514.6712678279005,-55575.623282864486,-51739.706306422515,-31916.70410832216,-29183.510444582756,359.304292119061,-19180.65776594374,0.0,0.0,0.0,193.0,1.0,154.0,0.0,1.0,3.0,250.0,410.0,1.0,1018.0,1744252935.273625,0.0,2025-04-09 22:42:15.273,BACKWARD,45
246.0,11051.350659293015,482.19418313433926,-55613.35302750505,-51806.02393222141,-31946.87896333682,-29217.395689177003,289.41038720731586,-19216.956998939157,0.0,0.0,0.0,193.0,1.0,153.0,0.0,1.0,3.0,250.0,409.0,1.0,1018.0,1744252935.2736337,0.0,2025-04-09 22:42:15.273,BACKWARD,45
247.0,11134.990887044774,489.234982637761,-55584.76514634671,-51723.74716088142,-31966.05676007948,-29248.777538392253,370.6142748134464,-19236.447720104185,0.0,0.0,0.0,193.0,1.0,154.0,0.0,1.0,3.0,250.0,410.0,1.0,1018.0,1744252935.2736423,0.0,2025-04-09 22:42:15.273,BACKWARD,45
248.0,11167.624433949522,491.2466396387386,-55588.989626048766,-51799.541926329366,-31931.12098349583,-29200.96715700235,240.05773544999786,-19209.67033024673,0.0,0.0,0.0,193.0,1.0,153.0,0.0,2.0,3.0,250.0,409.0,2.0,1018.0,1744252935.273651,0.0,2025-04-09 22:42:15.273,BACKWARD,45
249.0,11114.58374435708,499.2485641537385,-55569.92358802839,-51739.79571340033,-31897.191035412674,-29188.04784870718,366.68036778931236,-19186.826847413406,0.0,0.0,0.0,193.0,1.0,153.0,0.0,2.0,3.0,249.0,409.0,2.0,1017.0,1744252935.2736647,0.0,2025-04-09 22:42:15.273,BACKWARD,45
250.0,11058.994955896731,492.4536338393252,-55600.94780933235,-51799.117243184715,-31914.60304434336,-29201.43654363591,326.3131173030278,-19197.242760329576,0.0,0.0,0.0,193.0,1.0,153.0,0.0,2.0,3.0,250.0,409.0,2.0,1018.0,1744252935.2736735,0.0,2025-04-09 22:42:15.273,BACKWARD,45
251.0,11112.348569911548,483.7364535017555,-55578.841934066055,-51722.987201569944,-31953.338617484405,-29244.17307903446,371.15071668037376,-19232.826737502426,0.0,0.0,0.0,193.0,1.0,153.0,0.0,2.0,3.0,250.0,409.0,2.0,1018.0,1744252935.2736824,0.0,2025-04-09 22:42:15.273,BACKWARD,45
252.0,11167.847951394077,486.8656977254984,-55594.1752307624,-51795.853888494246,-31947.236591248107,-29221.754279345787,252.99939548962064,-19218.99100768459,0.0,0.0,0.0,193.0,1.0,154.0,0.0,2.0,3.0,250.0,410.0,2.0,1018.0,1744252935.2736912,0.0,2025-04-09 22:42:15.273,BACKWARD,45
253.0,11128.710046852833,502.6013258220346,-55555.23849192125,-51738.4099052441,-31892.40776209924,-29181.699953281877,348.9330826917986,-19169.481893716085,0.0,0.0,0.0,193.0,1.0,154.0,0.0,2.0,3.0,248.0,410.0,2.0,1016.0,1744252935.2736998,0.0,2025-04-09 22:42:15.273,BACKWARD,45
254.0,11069.388517068448,492.6771512838783,-55594.59991390705,-51795.65272279415,-31916.145314710775,-29211.383069918524,330.62700398290207,-19211.972559925624,0.0,0.0,0.0,193.0,1.0,154.0,0.0,2.0,3.0,252.0,410.0,2.0,1020.0,1744252935.2737083,0.0,2025-04-09 22:42:15.273,BACKWARD,45
255.0,11078.798601484134,466.23503759325,-55591.24715223875,-51752.20093157303,-31964.872117623345,-29258.79111990823,338.9865564091869,-19265.86261580737,0.0,0.0,0.0,193.0,1.0,154.0,0.0,2.0,3.0,249.0,410.0,2.0,1017.0,1744252935.2737172,0.0,2025-04-09 22:42:15.273,BACKWARD,45
0.0,11176.20750382036,503.42834036688095,-55584.228704479785,-51771.31167308232,-31949.248248249085,-29224.660006124977,283.6659888823019,-19231.955019468667,0.0,0.0,0.0,193.0,1.0,154.0,0.0,2.0,3.0,250.0,410.0,2.0,1018.0,1744252935.273726,0.0,2025-04-09 22:42:15.273,BACKWARD,45
1.0,11140.53411966969,516.7276283177887,-55542.45329409281,-51731.033829573855,-31885.478721318093,-29158.789415215186,325.75432369164514,-19158.976573822092,0.0,0.0,0.0,193.0,1.0,154.0,0.0,2.0,3.0,249.0,410.0,2.0,1017.0,1744252935.2737343,0.0,2025-04-09 22:42:15.273,BACKWARD,45
2.0,11083.693633519844,511.6314305819787,-55587.089727770064,-51771.91517018261,-31919.341614167886,-29192.182921431417,333.35391680644955,-19200.61787374233,0.0,0.0,0.0,193.0,1.0,154.0,0.0,2.0,3.0,251.0,410.0,2.0,1019.0,1744252935.2737432,0.0,2025-04-09 22:42:15.273,BACKWARD,45
3.0,11068.069764145584,471.33123532906,-55595.873963341,-51765.72373696849,-31961.51935595505,-29238.69690164291,323.04976261255297,-19242.460339362664,0.0,0.0,0.0,193.0,1.0,155.0,0.0,2.0,3.0,252.0,411.0,2.0,1020.0,1744252935.273752,0.0,2025-04-09 22:42:15.273,BACKWARD,45
4.0,11167.937358371897,482.9988459347303,-55599.22672500929,-51765.72373696849,-31971.823510148944,-29241.49086969982,320.97105037820944,-19227.12704266632,0.0,0.0,0.0,193.0,1.0,155.0,0.0,2.0,3.0,252.0,411.0,2.0,1020.0,1744252935.2737608,0.0,2025-04-09 22:42:15.273,BACKWARD,45
5.0,11141.696410381366,494.21942165129445,-55561.161704201906,-51765.58962650176,-31904.701221549658,-29173.273345622227,291.37734071938286,-19174.645146685263,0.0,0.0,0.0,193.0,1.0,155.0,0.0,1.0,3.0,252.0,411.0,1.0,1020.0,1744252935.2737694,0.0,2025-04-09 22:42:15.273,BACKWARD,45
6.0,11090.577970812079,502.8918984999536,-55586.15095450294,-51769.34471957025,-31918.089916478388,-29197.16736044495,356.80089674006666,-19194.113516105834,0.0,0.0,0.0,193.0,1.0,154.0,0.0,2.0,3.0,250.0,410.0,2.0,1018.0,1744252935.273778,0.0,2025-04-09 22:42:15.273,BACKWARD,45
7.0,11051.551824993114,466.7714794601774,-55601.32778898809,-51788.231943634986,-31952.489251195104,-29237.4005004645,314.13141657488546,-19238.079397449423,0.0,0.0,0.0,193.0,1.0,154.0,0.0,2.0,3.0,250.0,410.0,2.0,1018.0,1744252935.273787,0.0,2025-04-09 22:42:15.273,BACKWARD,45
8.0,11152.313488997637,488.1844506483616,-55594.68932088486,-51751.798600172835,-31981.926498642744,-29261.45097749841,335.34322206297185,-19260.878176793834,0.0,0.0,0.0,193.0,1.0,154.0,0.0,2.0,3.0,251.0,410.0,2.0,1019.0,1744252935.2738,0.0,2025-04-09 22:42:15.273,BACKWARD,45
9.0,11143.976288315807,496.7451687747442,-55570.63884385095,-51791.18237390309,-31920.74977406857,-29189.63482256351,257.11211646939717,-19201.735460965094,0.0,0.0,0.0,193.0,1.0,155.0,0.0,2.0,3.0,251.0,411.0,2.0,1019.0,1744252935.2738092,0.0,2025-04-09 22:42:15.273,BACKWARD,45
10.0,11111.566258855613,518.4040091519367,-55566.682585082366,-51750.99393737244,-31907.27167216202,-29187.287889395702,376.76100453865587,-19181.28361478849,0.0,0.0,0.0,193.0,1.0,155.0,0.0,2.0,3.0,251.0,411.0,2.0,1019.0,1744252935.2738185,0.0,2025-04-09 22:42:15.273,BACKWARD,45
11.0,11055.37397329497,474.30401734161586,-55597.30447498614,-51803.811109520335,-31941.447489434184,-29225.151744502993,318.49000674367034,-19226.47884207712,0.0,0.0,0.0,193.0,1.0,155.0,0.0,11.0,3.0,251.0,411.0,11.0,1019.0,1744252935.2738273,0.0,2025-04-09 22:42:15.273,BACKWARD,45
12.0,11148.603099418056,487.80447099262136,-55584.42987017988,-51737.49348372144,-31975.66801019526,-29257.025332096262,364.13226892140733,-19251.17751970023,0.0,0.0,0.0,193.0,1.0,155.0,0.0,22.0,3.0,251.0,411.0,22.0,1019.0,1744252935.273836,0.0,2025-04-09 22:42:15.273,BACKWARD,45
13.0,11150.435942463391,487.4468430813364,-55588.09555627055,-51812.729455558,-31938.89939056628,-29207.40445940548,235.65444179230235,-19218.678083262217,0.0,0.0,0.0,193.0,1.0,155.0,0.0,31.0,3.0,252.0,411.0,31.0,1020.0,1744252935.2738447,0.0,2025-04-09 22:42:15.273,BACKWARD,45
14.0,11109.778119299188,504.23300316727205,-55573.09753574104,-51755.62074847469,-31915.69827982167,-29198.687279067908,360.93596946429847,-19197.041594629478,0.0,0.0,0.0,193.0,1.0,155.0,0.0,38.0,3.0,251.0,411.0,38.0,1019.0,1744252935.2738535,0.0,2025-04-09 22:42:15.273,BACKWARD,45
15.0,11055.150455850418,481.7694999896884,-55603.026521566695,-51810.87426076821,-31937.759451599057,-29219.653215366987,304.90014611484366,-19226.970580455134,0.0,0.0,0.0,193.0,1.0,155.0,0.0,39.0,3.0,252.0,411.0,39.0,1020.0,1744252935.2738624,0.0,2025-04-09 22:42:15.273,BACKWARD,45
16.0,11125.893727051465,486.97745644777495,-55583.33463470157,-51730.743256895934,-31972.359952015875,-29257.852346641106,373.20707717026204,-19257.234842447622,0.0,0.0,0.0,193.0,1.0,155.0,0.0,38.0,3.0,252.0,411.0,38.0,1020.0,1744252935.2738712,0.0,2025-04-09 22:42:15.273,BACKWARD,45
17.0,11159.622509434523,493.21359315080565,-55593.9740650623,-51809.71197005653,-31950.7905186165,-29215.16051473147,237.66609879327999,-19231.083301434912,0.0,0.0,0.0,193.0,1.0,155.0,0.0,38.0,3.0,252.0,411.0,38.0,1020.0,1744252935.273886,0.0,2025-04-09 22:42:15.273,BACKWARD,45
18.0,11121.222212460305,506.0658462126072,-55565.967329259794,-51743.52845472437,-31909.104515207353,-29193.032287720718,361.49476307568113,-19194.04646087247,0.0,0.0,0.0,193.0,1.0,155.0,0.0,38.0,3.0,252.0,411.0,38.0,1020.0,1744252935.2738945,0.0,2025-04-09 22:42:15.273,BACKWARD,45
19.0,11062.90651117641,490.71019777181124,-55605.84284136807,-51809.756673545446,-31931.053928262467,-29223.475363668844,326.693096958768,-19219.66156001825,0.0,0.0,0.0,193.0,1.0,155.0,0.0,38.0,3.0,252.0,411.0,38.0,1020.0,1744252935.2739034,0.0,2025-04-09 22:42:15.273,BACKWARD,45
20.0,11099.786889527666,476.8521162095209,-55592.85647783953,-51743.215530302,-31971.532937471027,-29262.590916465633,374.21290567075084,-19234.346656125388,0.0,0.0,0.0,193.0,1.0,155.0,0.0,38.0,3.0,252.0,411.0,38.0,1020.0,1744252935.273912,0.0,2025-04-09 22:42:15.273,BACKWARD,45
21.0,11163.757582158754,484.2058401353169,-55607.11689080202,-51809.80137703435,-31964.268620523053,-29246.02827382425,260.08489848195296,-19236.782996271017,0.0,0.0,0.0,193.0,1.0,155.0,0.0,39.0,3.0,252.0,411.0,39.0,1020.0,1744252935.2739208,0.0,2025-04-09 22:42:15.273,BACKWARD,45
22.0,11121.915116538421,492.6771512838783,-55573.164590974404,-51759.15232409863,-31920.906236279756,-29204.610491348565,327.2965940590613,-19195.968710895624,0.0,0.0,0.0,193.0,1.0,155.0,0.0,39.0,3.0,251.0,411.0,39.0,1019.0,1744252935.2739296,0.0,2025-04-09 22:42:15.273,BACKWARD,45
23.0,11064.180560610363,487.200973892328,-55610.1790797924,-51808.59438283377,-31937.491230665593,-29220.815506078663,325.2849370580837,-19217.85106871737,0.0,0.0,0.0,193.0,1.0,155.0,0.0,39.0,3.0,252.0,411.0,39.0,1020.0,1744252935.2739425,0.0,2025-04-09 22:42:15.273,BACKWARD,45
24.0,11078.820953228587,471.5547527736131,-55592.9235330729,-51758.6158822317,-31963.41925423375,-29254.611343695087,348.6201582694243,-19256.877214536336,0.0,0.0,0.0,193.0,1.0,155.0,0.0,39.0,3.0,251.0,411.0,39.0,1019.0,1744252935.2739513,0.0,2025-04-09 22:42:15.273,BACKWARD,45
25.0,11163.221140291827,486.4186628363923,-55604.702902400844,-51791.919981470106,-31971.912917126767,-29251.705616915897,291.4890994416594,-19256.497234880597,0.0,0.0,0.0,193.0,1.0,155.0,0.0,40.0,3.0,252.0,411.0,40.0,1020.0,1744252935.7430584,0.0,2025-04-09 22:42:15.743,BACKWARD,45
26.0,11131.928698054398,493.7053315288224,-55564.24624493674,-51765.835495690764,-31908.12103845132,-29188.785456274207,313.03618109657543,-19187.542103235974,0.0,0.0,0.0,193.0,1.0,155.0,0.0,40.0,3.0,253.0,411.0,40.0,1021.0,1744252935.7430964,0.0,2025-04-09 22:42:15.743,BACKWARD,45
27.0,11080.497334062737,495.8958024854425,-55597.19271626386,-51791.6741122811,-31928.259960205552,-29209.72904082883,339.9253296763098,-19200.640225486783,0.0,0.0,0.0,193.0,1.0,155.0,0.0,40.0,3.0,251.0,411.0,40.0,1019.0,1744252935.743117,0.0,2025-04-09 22:42:15.743,BACKWARD,45
28.0,11067.421563556381,473.365244074493,-55594.10817552903,-51775.53615278437,-31958.300704753485,-29239.5015644433,327.6765737148015,-19225.29419962099,0.0,0.0,0.0,193.0,1.0,155.0,0.0,40.0,3.0,252.0,411.0,40.0,1020.0,1744252935.7431371,0.0,2025-04-09 22:42:15.743,BACKWARD,45
29.0,11166.30568102666,486.99980819223026,-55598.53382093118,-51768.74122246996,-31975.869175895357,-29255.103082073103,329.0400301265753,-19242.549746340483,0.0,0.0,0.0,193.0,1.0,154.0,0.0,41.0,3.0,251.0,410.0,41.0,1019.0,1744252935.7431576,0.0,2025-04-09 22:42:15.743,BACKWARD,45
30.0,11145.8314831056,492.4759855837805,-55568.15780021642,-51781.079385409284,-31908.366907640328,-29189.29954639668,293.567811676003,-19189.911388148237,0.0,0.0,0.0,193.0,1.0,155.0,0.0,41.0,3.0,251.0,411.0,41.0,1019.0,1744252935.7431777,0.0,2025-04-09 22:42:15.743,BACKWARD,45
31.0,11094.891857491953,505.8199770235988,-55591.11304177202,-51773.65860625012,-31920.280387435007,-29204.945767515394,361.15948690885153,-19201.51194352054,0.0,0.0,0.0,193.0,1.0,155.0,0.0,41.0,3.0,252.0,411.0,41.0,1020.0,1744252935.7431953,0.0,2025-04-09 22:42:15.743,BACKWARD,45
32.0,11047.193234824328,470.41481380639243,-55610.939039103876,-51800.83832750778,-31954.880887851825,-29240.485041199332,314.69021018626813,-19241.655676562274,0.0,0.0,0.0,193.0,1.0,155.0,0.0,41.0,3.0,252.0,411.0,41.0,1020.0,1744252935.7432127,0.0,2025-04-09 22:42:15.743,BACKWARD,45
33.0,11150.748866885766,485.97162794728615,-55603.42885296689,-51757.83357117577,-31981.144187586808,-29267.84357641263,359.2595886301504,-19257.726580825638,0.0,0.0,0.0,193.0,1.0,155.0,0.0,41.0,3.0,251.0,411.0,41.0,1019.0,1744252935.743225,0.0,2025-04-09 22:42:15.743,BACKWARD,45
34.0,11150.704163396855,494.88997398495366,-55577.54553288765,-51798.93842922908,-31916.07825947741,-29191.869997009042,269.986721275654,-19204.663539488738,0.0,0.0,0.0,193.0,1.0,154.0,0.0,42.0,3.0,251.0,410.0,42.0,1019.0,1744252935.7432344,0.0,2025-04-09 22:42:15.743,BACKWARD,45
35.0,11104.145479696452,502.556622333124,-55580.920646300394,-51762.63919623366,-31913.686622820693,-29196.899139511486,376.8057080275665,-19197.75685045205,0.0,0.0,0.0,193.0,1.0,155.0,0.0,42.0,3.0,251.0,411.0,42.0,1019.0,1744252935.7432437,0.0,2025-04-09 22:42:15.743,BACKWARD,45
36.0,11049.42840926986,466.8608864379986,-55610.67081817041,-51815.70223757056,-31949.874097093834,-29223.765936346765,304.02842808108664,-19222.544935052985,0.0,0.0,0.0,193.0,1.0,154.0,0.0,42.0,3.0,249.0,410.0,42.0,1017.0,1744252935.7432525,0.0,2025-04-09 22:42:15.743,BACKWARD,45
37.0,11145.049172049663,482.84238372354315,-55587.0673760256,-51740.62272794518,-31976.204452062186,-29256.533593718243,373.58705682600225,-19244.717865552648,0.0,0.0,0.0,193.0,1.0,155.0,0.0,42.0,3.0,251.0,411.0,42.0,1019.0,1744252935.7432616,0.0,2025-04-09 22:42:15.743,BACKWARD,45
38.0,11154.906291354453,485.7704622471884,-55587.782631848175,-51816.529252115404,-31932.283274207508,-29205.77278206024,256.55332285801444,-19217.605199528363,0.0,0.0,0.0,193.0,1.0,154.0,0.0,42.0,3.0,251.0,410.0,42.0,1019.0,1744252935.7432885,0.0,2025-04-09 22:42:15.743,BACKWARD,45
39.0,11112.48268037828,499.1591571759173,-55574.013957263705,-51759.845228176746,-31916.435887388696,-29198.77668604573,373.4082428703598,-19197.51098126304,0.0,0.0,0.0,193.0,1.0,154.0,0.0,42.0,3.0,251.0,410.0,42.0,1019.0,1744252935.7432976,0.0,2025-04-09 22:42:15.743,BACKWARD,45
40.0,11058.6596797299,484.8987442134314,-55602.06539655512,-51819.43497889459,-31936.932437054213,-29218.468572910857,314.69021018626813,-19223.930743209214,0.0,0.0,0.0,193.0,1.0,155.0,0.0,42.0,3.0,252.0,411.0,42.0,1020.0,1744252935.7433064,0.0,2025-04-09 22:42:15.743,BACKWARD,45
41.0,11126.273706707205,488.05034018162974,-55578.03727126566,-51737.895815121636,-31965.90029786829,-29257.204146051903,381.9913127411977,-19261.928708783234,0.0,0.0,0.0,193.0,1.0,154.0,0.0,42.0,3.0,250.0,410.0,42.0,1018.0,1744252935.7433152,0.0,2025-04-09 22:42:15.743,BACKWARD,45
42.0,11169.278463039216,492.83361349506544,-55589.28019872668,-51816.171624204115,-31941.961579556657,-29219.16147698897,256.8438955359335,-19242.348580640388,0.0,0.0,0.0,193.0,1.0,154.0,0.0,42.0,3.0,250.0,410.0,42.0,1018.0,1744252935.743324,0.0,2025-04-09 22:42:15.743,BACKWARD,45
43.0,11130.6770003649,509.5974218365457,-55556.55724484411,-51747.93174838206,-31902.9801372266,-29183.689258538398,363.6181787989353,-19187.765620680526,0.0,0.0,0.0,193.0,1.0,154.0,0.0,43.0,3.0,249.0,410.0,43.0,1017.0,1744252935.7433329,0.0,2025-04-09 22:42:15.743,BACKWARD,45
44.0,11060.514874519691,485.2116686358057,-55606.044007068165,-51820.64197309518,-31934.74196609759,-29224.816468336165,320.0322771110865,-19231.262115390553,0.0,0.0,0.0,193.0,1.0,154.0,0.0,43.0,3.0,249.0,410.0,43.0,1017.0,1744252935.7433414,0.0,2025-04-09 22:42:15.743,BACKWARD,45
45.0,11101.373863383993,476.9415231873421,-55585.59216089155,-51750.83747516126,-31967.33080951343,-29259.752244919808,365.4733735887258,-19259.782941315527,0.0,0.0,0.0,193.0,1.0,154.0,0.0,43.0,3.0,250.0,410.0,43.0,1018.0,1744252935.74335,0.0,2025-04-09 22:42:15.743,BACKWARD,45
46.0,11171.625396207022,491.82778499457663,-55598.08678604207,-51807.45444386655,-31965.721483912646,-29238.003997564796,265.8740002958775,-19247.176557442734,0.0,0.0,0.0,193.0,1.0,155.0,0.0,43.0,3.0,251.0,411.0,43.0,1019.0,1744252935.7433586,0.0,2025-04-09 22:42:15.743,BACKWARD,45
47.0,11130.028799775697,499.4497298538363,-55560.178227445875,-51760.80635318832,-31912.524332109017,-29194.26163366576,335.1867598517847,-19191.78893468248,0.0,0.0,0.0,193.0,1.0,154.0,0.0,43.0,3.0,249.0,410.0,43.0,1017.0,1744252935.7433674,0.0,2025-04-09 22:42:15.743,BACKWARD,45
48.0,11084.587703298057,504.88120375647594,-55589.123736515496,-51800.14542342966,-31925.041309003987,-29213.662947852965,338.83009419799976,-19211.123193636322,0.0,0.0,0.0,193.0,1.0,154.0,0.0,43.0,3.0,250.0,410.0,43.0,1018.0,1744252935.7433763,0.0,2025-04-09 22:42:15.743,BACKWARD,45
49.0,11091.561447568112,481.0765959115739,-55582.10528875653,-51760.739297954955,-31960.13354779882,-29256.93592511844,350.7435739926784,-19255.133778468822,0.0,0.0,0.0,193.0,1.0,154.0,0.0,43.0,3.0,250.0,410.0,43.0,1018.0,1744252935.7433848,0.0,2025-04-09 22:42:15.743,BACKWARD,45
50.0,11180.297873055682,496.29813388563804,-55595.04694879615,-51789.64010353567,-31971.018847348554,-29264.401407766512,304.07313156999726,-19277.038488035025,0.0,0.0,0.0,193.0,1.0,154.0,0.0,43.0,3.0,249.0,410.0,43.0,1017.0,1744252935.7433937,0.0,2025-04-09 22:42:15.743,BACKWARD,45
51.0,11149.58657617409,502.40016012193684,-55555.52906459917,-51767.22130384699,-31909.775067541013,-29186.997316717785,325.50845450263677,-19188.95026313666,0.0,0.0,0.0,193.0,1.0,154.0,0.0,43.0,3.0,249.0,410.0,43.0,1017.0,1744252935.7434022,0.0,2025-04-09 22:42:15.743,BACKWARD,45
52.0,11105.598343086045,519.0522097411406,-55580.317149200106,-51781.61582727621,-31919.453372890162,-29203.4929041258,371.48599284720336,-19198.628568485805,0.0,0.0,0.0,193.0,1.0,154.0,0.0,43.0,3.0,249.0,410.0,43.0,1017.0,1744252935.743411,0.0,2025-04-09 22:42:15.743,BACKWARD,45
53.0,11073.210665370307,482.6412180234454,-55595.561038918626,-51785.23680987797,-31963.75453040058,-29245.961218590885,333.9127104178322,-19250.931650511226,0.0,0.0,0.0,193.0,1.0,153.0,0.0,43.0,3.0,249.0,409.0,43.0,1017.0,1744252935.7434196,0.0,2025-04-09 22:42:15.743,BACKWARD,45
54.0,11170.239588050794,496.9016309859313,-55601.17132677691,-51771.75870797142,-31989.570795246458,-29256.086558829138,325.5755097360027,-19264.610918117873,0.0,0.0,0.0,193.0,1.0,153.0,0.0,43.0,3.0,250.0,409.0,43.0,1018.0,1744252935.743433,0.0,2025-04-09 22:42:15.743,BACKWARD,45
55.0,11151.598233175067,506.4011223794368,-55569.99064326175,-51788.567219801815,-31921.39797465777,-29182.079932937617,275.57465738948076,-19202.003681898557,0.0,0.0,0.0,193.0,1.0,154.0,0.0,43.0,3.0,251.0,410.0,43.0,1019.0,1744252935.7434416,0.0,2025-04-09 22:42:15.743,BACKWARD,45
56.0,11100.926828494887,510.2679741702049,-55590.442489438356,-51778.643045263656,-31930.182210228708,-29203.269386681248,360.86891423093255,-19215.526487294017,0.0,0.0,0.0,193.0,1.0,155.0,0.0,43.0,3.0,251.0,411.0,43.0,1019.0,1744252935.74345,0.0,2025-04-09 22:42:15.743,BACKWARD,45
57.0,11056.133932606452,471.040662651141,-55608.03331232468,-51808.773196789414,-31962.301667010986,-29238.652198154,307.0459135825531,-19255.580813357927,0.0,0.0,0.0,193.0,1.0,155.0,0.0,43.0,3.0,250.0,411.0,43.0,1018.0,1744252935.7434587,0.0,2025-04-09 22:42:15.743,BACKWARD,45
58.0,11158.862550123044,488.05034018162974,-55591.828297594584,-51751.6644897061,-31987.447379523204,-29258.12056757457,355.28097811710575,-19258.95592677068,0.0,0.0,0.0,193.0,1.0,155.0,0.0,43.0,3.0,252.0,411.0,43.0,1020.0,1744252935.7434676,0.0,2025-04-09 22:42:15.743,BACKWARD,45
59.0,11160.516579212735,501.2378694102609,-55568.76129731671,-51796.09975768325,-31924.661329348248,-29187.042020206693,262.16361071629655,-19204.37296681082,0.0,0.0,0.0,193.0,1.0,155.0,0.0,43.0,3.0,250.0,411.0,43.0,1018.0,1744252935.7434764,0.0,2025-04-09 22:42:15.743,BACKWARD,45
60.0,11118.942334525864,515.3418201615597,-55566.63788159346,-51751.59743447274,-31917.017032744534,-29191.065334208648,377.6103708279575,-19189.911388148237,0.0,0.0,0.0,193.0,1.0,155.0,0.0,43.0,3.0,251.0,411.0,43.0,1019.0,1744252935.7434852,0.0,2025-04-09 22:42:15.743,BACKWARD,45
61.0,11058.391458796437,477.34385458753763,-55601.841879110565,-51813.60117359176,-31955.79730937449,-29230.762032361275,300.9438873462543,-19239.28639165001,0.0,0.0,0.0,193.0,1.0,155.0,0.0,43.0,3.0,251.0,411.0,43.0,1019.0,1744252935.7434938,0.0,2025-04-09 22:42:15.743,BACKWARD,45
62.0,11150.592404674579,497.03574145266316,-55578.216085221306,-51735.39241974264,-31984.161673088274,-29261.27216354277,366.4121468558487,-19262.420447161254,0.0,0.0,0.0,193.0,1.0,155.0,0.0,43.0,3.0,251.0,411.0,43.0,1019.0,1744252935.7435026,0.0,2025-04-09 22:42:15.743,BACKWARD,45
63.0,11170.038422350695,503.5400990891575,-55576.62911136498,-51809.622563078716,-31943.548553412984,-29210.06431699566,242.49407559562633,-19230.792728756995,0.0,0.0,0.0,193.0,1.0,155.0,0.0,44.0,3.0,251.0,411.0,44.0,1019.0,1744252935.7435114,0.0,2025-04-09 22:42:15.743,BACKWARD,45
64.0,11130.6770003649,520.974459764297,-55552.73509654225,-51744.53428322486,-31914.17836119871,-29193.479322609823,361.83003924251074,-19207.32339707892,0.0,0.0,0.0,193.0,1.0,155.0,0.0,44.0,3.0,252.0,411.0,44.0,1020.0,1744252935.74352,0.0,2025-04-09 22:42:15.743,BACKWARD,45
65.0,11065.588720511047,497.63923855295644,-55591.73889061677,-51811.52246135742,-31941.291027222996,-29216.546322887698,308.96816360570955,-19218.70043500667,0.0,0.0,0.0,193.0,1.0,154.0,0.0,43.0,3.0,251.0,410.0,43.0,1019.0,1744252935.7435288,0.0,2025-04-09 22:42:15.743,BACKWARD,45
66.0,11123.926773539397,494.19706990683915,-55574.72921308628,-51734.252480775416,-31977.657315451783,-29256.108910573592,366.2556846446615,-19248.89764176579,0.0,0.0,0.0,193.0,1.0,155.0,0.0,44.0,3.0,251.0,411.0,44.0,1019.0,1744252935.7435374,0.0,2025-04-09 22:42:15.743,BACKWARD,45
67.0,11178.643843965989,501.9978287217413,-55583.51344865721,-51805.01810372092,-31953.070396550942,-29217.105116499082,249.4007646323162,-19235.218374159143,0.0,0.0,0.0,193.0,1.0,154.0,0.0,44.0,3.0,251.0,410.0,44.0,1019.0,1744252935.7435462,0.0,2025-04-09 22:42:15.743,BACKWARD,45
68.0,11141.294078981171,515.2077096948278,-55551.48339885276,-51745.160132069606,-31910.17739894121,-29186.930261484416,347.3014053465611,-19203.836524943894,0.0,0.0,0.0,193.0,1.0,154.0,0.0,44.0,3.0,249.0,410.0,44.0,1017.0,1744252935.743555,0.0,2025-04-09 22:42:15.743,BACKWARD,45
69.0,11079.357395095516,502.48956709975806,-55592.118870272505,-51807.11916769972,-31932.529143396518,-29211.003090262784,320.501663744648,-19224.22131588713,0.0,0.0,0.0,193.0,1.0,153.0,0.0,44.0,3.0,249.0,409.0,44.0,1017.0,1744252935.743568,0.0,2025-04-09 22:42:15.743,BACKWARD,45
70.0,11102.223229673295,482.84238372354315,-55580.09363175555,-51750.591605972244,-31970.236536292618,-29251.437395982433,357.40439384035994,-19246.349542897886,0.0,0.0,0.0,193.0,1.0,153.0,0.0,44.0,3.0,251.0,409.0,44.0,1019.0,1744252935.7435765,0.0,2025-04-09 22:42:15.743,BACKWARD,45
71.0,11174.933454386408,496.5216513301911,-55592.90118132844,-51805.688656054575,-31966.41438799076,-29237.534610931234,278.1227562573858,-19234.033731703013,0.0,0.0,0.0,193.0,1.0,153.0,0.0,44.0,3.0,249.0,409.0,44.0,1017.0,1744252935.743585,0.0,2025-04-09 22:42:15.743,BACKWARD,45
72.0,11126.519575896213,497.169851919395,-55559.552378601125,-51769.09885038124,-31917.79934380047,-29195.513331355254,321.99923062315355,-19198.248588830065,0.0,0.0,0.0,193.0,1.0,154.0,0.0,44.0,3.0,249.0,410.0,44.0,1017.0,1744252935.743594,0.0,2025-04-09 22:42:15.743,BACKWARD,45
73.0,11075.490543304748,500.9025932434313,-55588.542591159654,-51803.051150208856,-31936.66421612075,-29212.7465263303,319.1158555884189,-19227.059987432956,0.0,0.0,0.0,193.0,1.0,153.0,0.0,44.0,3.0,249.0,409.0,44.0,1017.0,1744252935.7436028,0.0,2025-04-09 22:42:15.743,BACKWARD,45
74.0,11080.564389296102,482.52945930116886,-55577.88080905448,-51763.68972822306,-31965.274449023542,-29240.5520964327,330.3140795605278,-19248.0929789654,0.0,0.0,0.0,193.0,1.0,154.0,0.0,44.0,3.0,250.0,410.0,44.0,1018.0,1744252935.743611,0.0,2025-04-09 22:42:15.743,BACKWARD,45
75.0,11181.035480622708,501.975476977286,-55583.22287597929,-51777.90543769663,-31972.13643457132,-29242.451994711402,301.1450530463521,-19256.363124413863,0.0,0.0,0.0,193.0,1.0,154.0,0.0,44.0,3.0,251.0,410.0,44.0,1019.0,1744252935.7436202,0.0,2025-04-09 22:42:15.743,BACKWARD,45
76.0,11144.15510227145,501.684904299367,-55555.73023029927,-51776.877257451684,-31915.161837954744,-29188.003145218274,290.9303058302767,-19204.261208088545,0.0,0.0,0.0,193.0,1.0,154.0,0.0,44.0,3.0,252.0,410.0,44.0,1020.0,1744252935.743629,0.0,2025-04-09 22:42:15.743,BACKWARD,45
77.0,11099.608075572023,508.74805554724406,-55579.467782910804,-51786.55556280084,-31925.13071598181,-29204.610491348565,345.8708937014215,-19209.826792457916,0.0,0.0,0.0,193.0,1.0,155.0,0.0,44.0,3.0,252.0,411.0,44.0,1020.0,1744252935.7436378,0.0,2025-04-09 22:42:15.743,BACKWARD,45
78.0,11070.126124635473,477.79088947664377,-55587.31324521462,-51788.38840584617,-31953.539783184504,-29238.741605131818,327.274242314606,-19236.85005150438,0.0,0.0,0.0,193.0,1.0,155.0,0.0,44.0,3.0,252.0,411.0,44.0,1020.0,1744252935.7436464,0.0,2025-04-09 22:42:15.743,BACKWARD,45
79.0,11177.459201509859,497.63923855295644,-55581.926474800886,-51760.02404213238,-31973.99162936111,-29258.679361185954,341.26643434362825,-19259.067685492955,0.0,0.0,0.0,193.0,1.0,155.0,0.0,44.0,3.0,252.0,411.0,44.0,1020.0,1744252935.7436552,0.0,2025-04-09 22:42:15.743,BACKWARD,45
80.0,11151.821750619622,493.3700553619928,-55563.95567225882,-51794.6245425492,-31922.02382350252,-29203.35879365907,266.92453228527694,-19220.95796119666,0.0,0.0,0.0,193.0,1.0,155.0,0.0,44.0,3.0,251.0,411.0,44.0,1019.0,1744252935.7436643,0.0,2025-04-09 22:42:15.743,BACKWARD,45
81.0,11105.218363430306,505.4399973678586,-55576.42794566488,-51774.55267602834,-31928.21525671664,-29208.790267561708,357.42674558481525,-19208.46333604614,0.0,0.0,0.0,193.0,1.0,154.0,0.0,44.0,3.0,251.0,410.0,44.0,1019.0,1744252935.7436728,0.0,2025-04-09 22:42:15.743,BACKWARD,45
82.0,11067.935653678853,480.51780230019125,-55585.03336728017,-51796.79266176136,-31951.03638780551,-29223.430660179933,306.9118031158213,-19225.808289743458,0.0,0.0,0.0,193.0,1.0,154.0,0.0,44.0,3.0,251.0,410.0,44.0,1019.0,1744252935.7436814,0.0,2025-04-09 22:42:15.743,BACKWARD,45
83.0,11162.97527110282,493.4371105953587,-55576.20442822033,-51740.3098035228,-31984.13932134382,-29258.902878630506,359.9524927082649,-19253.792673801505,0.0,0.0,0.0,193.0,1.0,154.0,0.0,44.0,3.0,251.0,410.0,44.0,1019.0,1744252935.7436905,0.0,2025-04-09 22:42:15.743,BACKWARD,45
84.0,11167.423268249426,501.81901476609886,-55564.447410636836,-51800.43599610758,-31932.685605607705,-29194.88748251051,249.87015126587767,-19208.351577323865,0.0,0.0,0.0,193.0,1.0,155.0,0.0,44.0,3.0,253.0,411.0,44.0,1021.0,1744252935.7437031,0.0,2025-04-09 22:42:15.743,BACKWARD,45
85.0,11132.308677710138,525.489512144269,-55549.71761104079,-51744.2660622914,-31914.357175154353,-29190.10420919707,368.78143176811125,-19189.03967011448,0.0,0.0,0.0,193.0,1.0,155.0,0.0,44.0,3.0,251.0,411.0,44.0,1019.0,1744252935.743712,0.0,2025-04-09 22:42:15.743,BACKWARD,45
86.0,11062.504179776213,481.21070637830576,-55590.73306211628,-51811.12012995722,-31953.360969228863,-29230.516163172266,298.7534163896342,-19238.638191060807,0.0,0.0,0.0,193.0,1.0,155.0,0.0,44.0,3.0,251.0,411.0,44.0,1019.0,1744252935.7437203,0.0,2025-04-09 22:42:15.743,BACKWARD,45
87.0,11140.86939583652,486.8433459810431,-55573.90219854143,-51737.51583546589,-31986.508606256084,-29265.004904866804,362.56764680953586,-19252.317458667454,0.0,0.0,0.0,193.0,1.0,155.0,0.0,44.0,3.0,251.0,411.0,44.0,1019.0,1744252935.743729,0.0,2025-04-09 22:42:15.743,BACKWARD,45
88.0,11176.721593942833,504.3671136340039,-55563.6650995809,-51800.61481006323,-31936.66421612075,-29198.35200290108,245.95859598619893,-19205.714071478138,0.0,0.0,0.0,193.0,1.0,155.0,0.0,44.0,3.0,251.0,411.0,44.0,1019.0,1744252935.743738,0.0,2025-04-09 22:42:15.743,BACKWARD,45
89.0,11136.95784055684,520.9297562753864,-55541.1121894255,-51737.06880057679,-31907.36107913984,-29181.834063748607,359.8630857304437,-19183.60819621184,0.0,0.0,0.0,193.0,1.0,155.0,0.0,44.0,3.0,249.0,411.0,44.0,1017.0,1744252935.7437468,0.0,2025-04-09 22:42:15.743,BACKWARD,45
90.0,11070.684918246856,491.201936149828,-55587.24618998125,-51811.142481701674,-31938.407652188263,-29212.143029230003,305.83891938196655,-19218.90160070677,0.0,0.0,0.0,193.0,1.0,155.0,0.0,44.0,3.0,252.0,411.0,44.0,1020.0,1744252935.7437656,0.0,2025-04-09 22:42:15.743,BACKWARD,45
91.0,11118.763520570223,480.3166366000935,-55571.488210140255,-51739.39338200014,-31976.606783462383,-29253.2031837944,357.8514287294661,-19249.791711544003,0.0,0.0,0.0,193.0,1.0,155.0,0.0,44.0,3.0,251.0,411.0,44.0,1019.0,1744252935.7437744,0.0,2025-04-09 22:42:15.743,BACKWARD,45
92.0,11181.437812022903,498.5780118200793,-55578.39489917695,-51807.58855433328,-31954.09857679589,-29226.69401487041,245.8691890083777,-19246.1930806867,0.0,0.0,0.0,193.0,1.0,155.0,0.0,44.0,3.0,251.0,411.0,44.0,1019.0,1744252935.7437832,0.0,2025-04-09 22:42:15.743,BACKWARD,45
93.0,11138.187186501884,511.4526166263362,-55548.354154629014,-51754.659623463114,-31911.451448375163,-29196.452104622378,333.06334412853056,-19205.17762961121,0.0,0.0,0.0,193.0,1.0,155.0,0.0,44.0,3.0,251.0,411.0,44.0,1019.0,1744252935.743792,0.0,2025-04-09 22:42:15.743,BACKWARD,45
94.0,11074.797639226634,501.6178490660011,-55594.44345169586,-51816.64101083768,-31938.295893465984,-29222.760107846276,306.9118031158213,-19219.61685652934,0.0,0.0,0.0,193.0,1.0,154.0,0.0,44.0,3.0,251.0,410.0,44.0,1019.0,1744252935.7438006,0.0,2025-04-09 22:42:15.743,BACKWARD,45
95.0,11094.131898180474,477.2767993541717,-55587.4697074258,-51765.67903347958,-31978.931364885735,-29263.26146879929,338.3160040755277,-19250.037580733013,0.0,0.0,0.0,193.0,1.0,155.0,0.0,44.0,3.0,252.0,411.0,44.0,1020.0,1744252935.7438092,0.0,2025-04-09 22:42:15.743,BACKWARD,45
96.0,11177.392146276492,496.99103796375255,-55594.73402437378,-51804.66047580964,-31974.885699139322,-29241.423814466456,266.63395960735795,-19234.70428403667,0.0,0.0,0.0,193.0,1.0,155.0,0.0,44.0,3.0,252.0,411.0,44.0,1020.0,1744252935.743818,0.0,2025-04-09 22:42:15.743,BACKWARD,45
97.0,11142.657535392946,514.7159713168111,-55552.33276514206,-51762.974472400485,-31913.507808865048,-29182.571671315633,306.6435821823576,-19183.764658423028,0.0,0.0,0.0,193.0,1.0,155.0,0.0,44.0,3.0,251.0,411.0,44.0,1019.0,1744252935.7438264,0.0,2025-04-09 22:42:15.743,BACKWARD,45
98.0,11101.217401172806,526.8529685560428,-55578.774878832686,-51790.377711102694,-31925.108364237352,-29200.140142457505,326.6483934698574,-19214.766527982538,0.0,0.0,0.0,193.0,1.0,155.0,0.0,44.0,3.0,252.0,411.0,44.0,1020.0,1744252935.7438352,0.0,2025-04-09 22:42:15.743,BACKWARD,45
99.0,11090.063880689608,493.0571309396185,-55581.43473642287,-51771.57989401578,-31967.196699046697,-29241.423814466456,314.5784514639916,-19259.80529305998,0.0,0.0,0.0,193.0,1.0,155.0,0.0,44.0,3.0,252.0,411.0,44.0,1020.0,1744252935.7438483,0.0,2025-04-09 22:42:15.743,BACKWARD,45
100.0,11189.238570837804,515.3418201615597,-55586.28506496967,-51776.0725946513,-31984.005210877087,-29241.423814466456,283.2636574821064,-19254.61968834635,0.0,0.0,0.0,193.0,1.0,155.0,0.0,44.0,3.0,251.0,411.0,44.0,1019.0,1744252935.7438571,0.0,2025-04-09 22:42:15.743,BACKWARD,45
101.0,11155.845064621577,515.3865236504703,-55556.64665182193,-51777.86073420772,-31922.962596769645,-29179.665944536442,267.59508461893614,-19195.141696350776,0.0,0.0,0.0,193.0,1.0,155.0,0.0,44.0,3.0,250.0,411.0,44.0,1018.0,1744252935.743866,0.0,2025-04-09 22:42:15.743,BACKWARD,45
102.0,11101.19504942835,517.3534771625373,-55586.64269288095,-51790.802394247345,-31938.720576610634,-29208.00795650577,321.70865794523456,-19220.689740263195,0.0,0.0,0.0,193.0,1.0,155.0,0.0,44.0,3.0,251.0,411.0,44.0,1019.0,1744252935.7438743,0.0,2025-04-09 22:42:15.743,BACKWARD,45
103.0,11059.576101252569,475.4439563088365,-55597.97502731979,-51803.49818509796,-31972.404655504783,-29241.826145866653,286.95169531723207,-19254.150301712787,0.0,0.0,0.0,193.0,1.0,155.0,0.0,44.0,3.0,252.0,411.0,44.0,1020.0,1744252935.7438831,0.0,2025-04-09 22:42:15.743,BACKWARD,45
104.0,11153.051096564663,486.28455236966045,-55596.43275695238,-51774.73148998398,-31999.159693617785,-29267.374189779068,311.5162624736145,-19276.01030779008,0.0,0.0,0.0,193.0,1.0,155.0,0.0,44.0,3.0,252.0,411.0,44.0,1020.0,1744252935.7438917,0.0,2025-04-09 22:42:15.743,BACKWARD,45
105.0,11148.15606452895,500.6567240544229,-55564.223893192284,-51800.41364436313,-31925.7342130821,-29187.82433126263,245.46685760818215,-19206.98812091209,0.0,0.0,0.0,193.0,1.0,155.0,0.0,44.0,3.0,251.0,411.0,44.0,1019.0,1744252935.7439003,0.0,2025-04-09 22:42:15.743,BACKWARD,45
106.0,11103.921962251898,509.9326980033753,-55575.846800309046,-51774.999710917444,-31930.673948606727,-29200.900101768984,336.7066784747456,-19214.073623904424,0.0,0.0,0.0,193.0,1.0,155.0,0.0,44.0,3.0,251.0,411.0,44.0,1019.0,1744252935.7439127,0.0,2025-04-09 22:42:15.743,BACKWARD,45
107.0,11041.560595221592,463.1504968584176,-55607.496870457755,-51827.19103422058,-31971.13060607083,-29246.363549991078,267.7962503190339,-19268.120141997355,0.0,0.0,0.0,193.0,1.0,155.0,0.0,44.0,3.0,251.0,411.0,44.0,1019.0,1744252935.7439215,0.0,2025-04-09 22:42:15.743,BACKWARD,45
108.0,11139.975326058307,479.10964239950687,-55585.368643447,-51756.134838597165,-31992.655335981293,-29265.22842231136,334.29269007357243,-19267.136665241323,0.0,0.0,0.0,193.0,1.0,155.0,0.0,44.0,3.0,250.0,411.0,44.0,1018.0,1744252935.74393,0.0,2025-04-09 22:42:15.743,BACKWARD,45
109.0,11154.213387276339,487.6703605258895,-55571.17528571788,-51815.344609659274,-31933.959655041657,-29195.73684879981,240.59417731692523,-19204.730594722103,0.0,0.0,0.0,193.0,1.0,155.0,0.0,44.0,3.0,252.0,411.0,44.0,1020.0,1744252935.7439387,0.0,2025-04-09 22:42:15.743,BACKWARD,45
110.0,11110.783947799677,507.3845991354703,-55565.02855599267,-51764.22617008998,-31924.25899794805,-29194.038116221207,350.7659257371337,-19196.393394040275,0.0,0.0,0.0,193.0,1.0,155.0,0.0,44.0,3.0,253.0,411.0,44.0,1021.0,1744252935.7439473,0.0,2025-04-09 22:42:15.743,BACKWARD,45
111.0,11052.200025582317,481.0318924226633,-55600.165498276416,-51826.29696444237,-31953.495079695593,-29222.760107846276,285.34236971645,-19232.133833424312,0.0,0.0,0.0,193.0,1.0,155.0,0.0,44.0,3.0,252.0,411.0,44.0,1020.0,1744252935.743956,0.0,2025-04-09 22:42:15.743,BACKWARD,45
112.0,11129.112378253029,483.7811569906661,-55582.686434112366,-51750.21162631651,-31985.547481244503,-29259.260506541792,353.8728182164214,-19256.921918025248,0.0,0.0,0.0,193.0,1.0,155.0,0.0,44.0,3.0,251.0,411.0,44.0,1019.0,1744252935.743965,0.0,2025-04-09 22:42:15.743,BACKWARD,45
113.0,11161.54475945768,491.87248848348725,-55589.03432953767,-51827.01222026494,-31954.590315173904,-29214.244093208803,221.12580789635277,-19239.755778283572,0.0,0.0,0.0,193.0,1.0,155.0,0.0,44.0,3.0,251.0,411.0,44.0,1019.0,1744252935.7439735,0.0,2025-04-09 22:42:15.743,BACKWARD,45
114.0,11118.383540914481,504.1659479339061,-55564.53681761466,-51764.449687534536,-31922.783782814004,-29194.77572378823,343.3898500668824,-19197.55568475195,0.0,0.0,0.0,193.0,1.0,155.0,0.0,44.0,3.0,250.0,411.0,44.0,1018.0,1744252935.7439864,0.0,2025-04-09 22:42:15.743,BACKWARD,45
115.0,11055.597490739525,486.4633663253029,-55600.54547793216,-51828.19686272107,-31945.64961739178,-29215.87577055404,299.0663408120085,-19215.392376827287,0.0,0.0,0.0,193.0,1.0,154.0,0.0,44.0,3.0,250.0,410.0,44.0,1018.0,1744252935.7439952,0.0,2025-04-09 22:42:15.743,BACKWARD,45
116.0,11102.178526184383,480.6966162558337,-55576.00326252023,-51750.77041992789,-31978.1490538298,-29247.74935814731,352.68817576029016,-19234.346656125388,0.0,0.0,0.0,193.0,1.0,154.0,0.0,44.0,3.0,250.0,410.0,44.0,1018.0,1744252935.744004,0.0,2025-04-09 22:42:15.744,BACKWARD,45
117.0,11166.909178126953,488.78794774865486,-55586.48623066977,-51815.38931314818,-31964.112158311866,-29220.5472851452,247.5232180980704,-19225.69653102118,0.0,0.0,0.0,193.0,1.0,155.0,0.0,44.0,3.0,250.0,411.0,44.0,1018.0,1744252935.7440124,0.0,2025-04-09 22:42:15.744,BACKWARD,45
118.0,11118.741168825767,493.0347791951632,-55563.79921004763,-51772.831591705275,-31931.52331489603,-29195.87095926654,308.275259527595,-19201.310777820443,0.0,0.0,0.0,193.0,1.0,154.0,0.0,44.0,3.0,251.0,410.0,44.0,1019.0,1744252935.7440207,0.0,2025-04-09 22:42:15.744,BACKWARD,45
119.0,11064.649947243923,492.9677239617973,-55595.6727976409,-51821.35722891775,-31942.922704568235,-29213.64059610851,297.97110533369846,-19217.247571617077,0.0,0.0,0.0,193.0,1.0,155.0,0.0,44.0,3.0,251.0,411.0,44.0,1019.0,1744252935.7440295,0.0,2025-04-09 22:42:15.744,BACKWARD,45
120.0,11081.637273029957,472.4711742962807,-55582.17234398989,-51769.34471957025,-31972.695228182703,-29250.297457015215,337.6901552307791,-19248.562365598962,0.0,0.0,0.0,193.0,1.0,155.0,0.0,44.0,3.0,252.0,411.0,44.0,1020.0,1744252935.7440383,0.0,2025-04-09 22:42:15.744,BACKWARD,45
121.0,11172.363003774048,497.61688680850114,-55581.837067823064,-51794.222211149005,-31965.542669957005,-29232.416061450967,284.06832028249744,-19242.52739459603,0.0,0.0,0.0,193.0,1.0,154.0,0.0,44.0,3.0,249.0,410.0,44.0,1017.0,1744252935.7440472,0.0,2025-04-09 22:42:15.744,BACKWARD,45
122.0,11139.237718491284,515.4982823727468,-55538.161759157396,-51758.19119908705,-31901.393163370274,-29173.139235155493,315.2490037976508,-19183.295271789466,0.0,0.0,0.0,193.0,1.0,154.0,0.0,44.0,3.0,249.0,410.0,44.0,1017.0,1744252935.744056,0.0,2025-04-09 22:42:15.744,BACKWARD,45
123.0,11080.005595684719,506.7140468018111,-55580.7194806003,-51794.33396987128,-31929.399899172775,-29201.034212235718,330.3364313049831,-19206.451679045163,0.0,0.0,0.0,193.0,1.0,153.0,0.0,44.0,3.0,249.0,409.0,44.0,1017.0,1744252935.7440646,0.0,2025-04-09 22:42:15.744,BACKWARD,45
124.0,11065.096982133029,472.98526441875276,-55582.35115794554,-51779.64887376415,-31965.721483912646,-29238.339273731624,316.1877770647737,-19234.99485671459,0.0,0.0,0.0,193.0,1.0,154.0,0.0,44.0,3.0,250.0,410.0,44.0,1018.0,1744252935.7440732,0.0,2025-04-09 22:42:15.744,BACKWARD,45
125.0,11168.876131639021,491.201936149828,-55586.35212020304,-51781.54877204285,-31984.80987367748,-29257.18179430745,296.13826228836325,-19257.838339547914,0.0,0.0,0.0,193.0,1.0,154.0,0.0,44.0,3.0,249.0,410.0,44.0,1017.0,1744252935.744082,0.0,2025-04-09 22:42:15.744,BACKWARD,45
126.0,11143.328087726604,497.8404042530542,-55549.60585231851,-51781.88404820968,-31912.904311764756,-29181.34232537059,272.1995439767294,-19192.347728293866,0.0,0.0,0.0,193.0,1.0,154.0,0.0,44.0,3.0,250.0,410.0,44.0,1018.0,1744252935.7440903,0.0,2025-04-09 22:42:15.744,BACKWARD,45
127.0,11089.393328355949,502.6236775664899,-55577.634939865464,-51785.16975464461,-31930.964521284644,-29206.30922392717,332.1245708614076,-19214.922990193725,0.0,0.0,0.0,193.0,1.0,154.0,0.0,44.0,3.0,249.0,410.0,44.0,1017.0,1744252935.744099,0.0,2025-04-09 22:42:15.744,BACKWARD,45
128.0,11046.790903424133,466.2126858487947,-55592.78942260616,-51806.113339199226,-31963.039274578012,-29241.200297021904,296.94292508875435,-19245.768397542048,0.0,0.0,0.0,193.0,1.0,153.0,0.0,44.0,3.0,250.0,409.0,44.0,1018.0,1744252935.744108,0.0,2025-04-09 22:42:15.744,BACKWARD,45
129.0,11148.379581973504,483.8035087351214,-55585.122774257994,-51767.802449202834,-31986.776827189547,-29266.860099656595,329.4870650156814,-19266.399057674298,0.0,0.0,0.0,193.0,1.0,154.0,0.0,44.0,3.0,250.0,410.0,44.0,1018.0,1744252935.7441213,0.0,2025-04-09 22:42:15.744,BACKWARD,45
130.0,11142.903404581954,488.0056366927191,-55560.111172212506,-51807.58855433328,-31923.87901829231,-29199.246072679292,242.0470407065202,-19224.04250193149,0.0,0.0,0.0,193.0,1.0,154.0,0.0,44.0,3.0,251.0,410.0,44.0,1019.0,1744252935.74413,0.0,2025-04-09 22:42:15.744,BACKWARD,45
131.0,11108.124090209496,508.30102065813793,-55558.30068091163,-51765.29905382384,-31917.531122867003,-29186.907909739963,348.08371640249686,-19189.95609163715,0.0,0.0,0.0,193.0,1.0,154.0,0.0,44.0,3.0,251.0,410.0,44.0,1019.0,1744252935.7441385,0.0,2025-04-09 22:42:15.744,BACKWARD,45
132.0,11061.52070302018,485.27872386917164,-55578.17138173239,-51801.33006588579,-31946.32016972544,-29205.057526237673,286.0352737945645,-19204.32826332191,0.0,0.0,0.0,193.0,1.0,154.0,0.0,44.0,3.0,249.0,410.0,44.0,1017.0,1744252935.7441468,0.0,2025-04-09 22:42:15.744,BACKWARD,45
133.0,11144.646840649468,488.8550029820208,-55570.70589908432,-51741.181521556566,-31985.726295200147,-29251.191526793427,339.6794604873014,-19250.350505155388,0.0,0.0,0.0,193.0,1.0,154.0,0.0,44.0,3.0,249.0,410.0,44.0,1017.0,1744252935.7441554,0.0,2025-04-09 22:42:15.744,BACKWARD,45
134.0,11149.251300007261,484.00467443521916,-55571.89054154045,-51817.15510096015,-31939.65934987776,-29200.229549435324,221.30462185199522,-19220.17565014072,0.0,0.0,0.0,193.0,1.0,154.0,0.0,44.0,3.0,249.0,410.0,44.0,1017.0,1744252935.744164,0.0,2025-04-09 22:42:15.744,BACKWARD,45
135.0,11107.7217588093,498.62271530898994,-55560.26763442369,-51758.59353048725,-31923.186114214197,-29194.999241232785,341.3781930659048,-19200.863742931335,0.0,0.0,0.0,193.0,1.0,154.0,0.0,44.0,3.0,250.0,410.0,44.0,1018.0,1744252935.7441728,0.0,2025-04-09 22:42:15.744,BACKWARD,45
136.0,11052.892929660431,485.1893168913504,-55587.089727770064,-51810.807205534846,-31942.073338278933,-29210.600758862587,292.2267070086845,-19207.79278371248,0.0,0.0,0.0,193.0,1.0,154.0,0.0,44.0,3.0,249.0,410.0,44.0,1017.0,1744252935.7441812,0.0,2025-04-09 22:42:15.744,BACKWARD,45
137.0,11121.065750249118,486.2174971362945,-55570.68354733987,-51731.48086446296,-31979.55721373048,-29250.431567481945,354.8115914835443,-19234.99485671459,0.0,0.0,0.0,193.0,1.0,154.0,0.0,44.0,3.0,250.0,410.0,44.0,1018.0,1744252935.74419,0.0,2025-04-09 22:42:15.744,BACKWARD,45
138.0,11162.394125746981,498.35449437552626,-55573.298701441134,-51800.927734485595,-31943.28033247952,-29202.420020391946,235.4532760922046,-19204.194152855176,0.0,0.0,0.0,193.0,1.0,154.0,0.0,44.0,3.0,251.0,410.0,44.0,1019.0,1744252935.7441986,0.0,2025-04-09 22:42:15.744,BACKWARD,45
139.0,11118.942334525864,509.03862822516305,-55548.287099395646,-51735.81710288729,-31912.680794320204,-29183.666906793944,339.76886746512264,-19177.439114742174,0.0,0.0,0.0,193.0,1.0,154.0,0.0,44.0,3.0,249.0,410.0,44.0,1017.0,1744252935.7442071,0.0,2025-04-09 22:42:15.744,BACKWARD,45
140.0,11059.553749508113,487.4691948257917,-55588.09555627055,-51798.75961527343,-31936.41834693174,-29206.510389627267,290.1032912854304,-19207.524562779017,0.0,0.0,0.0,193.0,1.0,153.0,0.0,44.0,3.0,249.0,409.0,44.0,1017.0,1744252935.7442157,0.0,2025-04-09 22:42:15.744,BACKWARD,45
141.0,11099.786889527666,480.0931191555404,-55565.92262577089,-51721.109655035696,-31965.386207745818,-29241.759090633284,345.5356175345919,-19231.66444679075,0.0,0.0,0.0,193.0,1.0,155.0,0.0,44.0,3.0,251.0,411.0,44.0,1019.0,1744252935.7442243,0.0,2025-04-09 22:42:15.744,BACKWARD,45
142.0,11173.704108441367,501.0367037101631,-55574.86332355301,-51774.239751605965,-31950.164669771755,-29212.031270507727,249.24430242112905,-19207.457507545652,0.0,0.0,0.0,193.0,1.0,154.0,0.0,44.0,3.0,251.0,410.0,44.0,1019.0,1744252935.744233,0.0,2025-04-09 22:42:15.744,BACKWARD,45
143.0,11138.768331857722,513.9336602608753,-55533.60200328851,-51715.47701543296,-31892.564224310427,-29165.807862974154,327.8777394148993,-19158.283669743978,0.0,0.0,0.0,193.0,1.0,154.0,0.0,45.0,3.0,248.0,410.0,45.0,1016.0,1744252935.7442417,0.0,2025-04-09 22:42:15.744,BACKWARD,45
144.0,11079.469153817792,504.3447618895486,-55578.46195441031,-51768.24948409194,-31917.017032744534,-29193.367563887547,317.19360556526254,-19187.94443463617,0.0,0.0,0.0,193.0,1.0,155.0,0.0,44.0,3.0,251.0,411.0,44.0,1019.0,1744252935.7442544,0.0,2025-04-09 22:42:15.744,BACKWARD,45
145.0,11086.331139365571,482.12712790097333,-55573.298701441134,-51721.64609690262,-31954.299742495987,-29227.655139881987,332.5045505171479,-19217.493440806084,0.0,0.0,0.0,193.0,1.0,155.0,0.0,44.0,3.0,251.0,411.0,44.0,1019.0,1744252935.8639884,0.0,2025-04-09 22:42:15.863,BACKWARD,45
146.0,11167.758544416254,491.82778499457663,-55589.883695826975,-51751.70919319501,-31966.101463568386,-29227.36456720407,273.58535213295846,-19224.444833331687,0.0,0.0,0.0,193.0,1.0,154.0,0.0,44.0,3.0,251.0,410.0,44.0,1019.0,1744252935.8640313,0.0,2025-04-09 22:42:15.864,BACKWARD,45
147.0,11134.812073089131,502.3107531441156,-55549.02470696267,-51722.31664923628,-31900.11911393632,-29160.644610004976,292.2267070086845,-19162.1728732792,0.0,0.0,0.0,193.0,1.0,155.0,0.0,44.0,3.0,251.0,411.0,44.0,1019.0,1744252935.8640504,0.0,2025-04-09 22:42:15.864,BACKWARD,45
148.0,11088.231037644273,512.1902241933614,-55576.740870087255,-51740.533320967355,-31908.79159078498,-29177.900156724474,332.16927435031823,-19173.527559462495,0.0,0.0,0.0,193.0,1.0,155.0,0.0,44.0,3.0,249.0,411.0,44.0,1017.0,1744252935.8640676,0.0,2025-04-09 22:42:15.864,BACKWARD,45
149.0,11061.118371619985,474.21461036379463,-55585.23453298027,-51732.933727852556,-31947.057777292466,-29217.328633943634,313.68438168577933,-19205.93758892269,0.0,0.0,0.0,193.0,1.0,154.0,0.0,44.0,3.0,249.0,410.0,44.0,1017.0,1744252935.8640835,0.0,2025-04-09 22:42:15.864,BACKWARD,45
150.0,11166.797419404676,492.4759855837805,-55580.56301838911,-51716.59460265572,-31960.960562343666,-29222.558942146177,310.3763235063939,-19210.810269213947,0.0,0.0,0.0,193.0,1.0,154.0,0.0,44.0,3.0,249.0,410.0,44.0,1017.0,1744252935.8640993,0.0,2025-04-09 22:42:15.864,BACKWARD,45
151.0,11147.463160450836,497.70629378632236,-55550.321108141085,-51730.09505630673,-31895.246433645065,-29158.09651113707,272.6242271213802,-19151.108759773822,0.0,0.0,0.0,193.0,1.0,154.0,0.0,45.0,3.0,251.0,410.0,45.0,1019.0,1744252935.8641143,0.0,2025-04-09 22:42:15.864,BACKWARD,45
152.0,11112.125052466996,526.5400441336685,-55558.59125358955,-51711.76662585338,-31893.54770106646,-29163.103301895062,354.67748101681246,-19152.9192510747,0.0,0.0,0.0,193.0,1.0,154.0,0.0,44.0,3.0,249.0,410.0,44.0,1017.0,1744252935.86413,0.0,2025-04-09 22:42:15.864,BACKWARD,45
153.0,11066.14751412243,492.87831698397605,-55579.601893377534,-51739.43808548905,-31931.568018384936,-29200.318956413146,305.3024775150392,-19193.107687605345,0.0,0.0,0.0,193.0,1.0,154.0,0.0,44.0,3.0,249.0,410.0,44.0,1017.0,1744252935.8641455,0.0,2025-04-09 22:42:15.864,BACKWARD,45
154.0,11153.811055876144,495.15819491841734,-55586.530934158676,-51706.13398625064,-31976.249155551097,-29240.93207608844,321.2169195672178,-19227.99876070008,0.0,0.0,0.0,193.0,1.0,154.0,0.0,44.0,3.0,249.0,410.0,44.0,1017.0,1744252935.8641613,0.0,2025-04-09 22:42:15.864,BACKWARD,45
155.0,11144.646840649468,493.19124140635034,-55571.62232060699,-51758.12414385368,-31916.190018199686,-29177.76604625774,232.07816267945324,-19182.535312477983,0.0,0.0,0.0,193.0,1.0,154.0,0.0,45.0,3.0,249.0,410.0,45.0,1017.0,1744252935.8641765,0.0,2025-04-09 22:42:15.864,BACKWARD,45
156.0,11110.001636743742,518.8957475299535,-55560.737021057255,-51709.486747918934,-31894.240605144576,-29174.10036016707,362.81351599854423,-19176.41093449723,0.0,0.0,0.0,193.0,1.0,154.0,0.0,44.0,3.0,251.0,410.0,44.0,1019.0,1744252935.864192,0.0,2025-04-09 22:42:15.864,BACKWARD,45
157.0,11046.030944112652,483.44588082383643,-55590.71071037182,-51763.77913520088,-31927.32118693843,-29203.67171808144,304.90014611484366,-19206.451679045163,0.0,0.0,0.0,193.0,1.0,154.0,0.0,44.0,3.0,250.0,410.0,44.0,1018.0,1744252935.8642073,0.0,2025-04-09 22:42:15.864,BACKWARD,45
158.0,11139.572994658112,495.0240844516855,-55573.298701441134,-51691.247724443405,-31960.29001001001,-29232.25959923978,369.16141142385146,-19211.458469803154,0.0,0.0,0.0,193.0,1.0,154.0,0.0,44.0,3.0,249.0,410.0,44.0,1017.0,1744252935.8642223,0.0,2025-04-09 22:42:15.864,BACKWARD,45
159.0,11161.433000735404,501.3049246436268,-55572.49403864075,-51762.974472400485,-31916.055907732956,-29178.905985224963,241.57765407295872,-19183.027050856002,0.0,0.0,0.0,193.0,1.0,153.0,0.0,45.0,3.0,249.0,409.0,45.0,1017.0,1744252935.864264,0.0,2025-04-09 22:42:15.864,BACKWARD,45
160.0,11131.146386998462,523.1649307209171,-55546.968346472786,-51694.37696866715,-31886.037514929478,-29161.739845483287,364.8028212550666,-19155.713219131616,0.0,0.0,0.0,193.0,1.0,153.0,0.0,45.0,3.0,249.0,409.0,45.0,1017.0,1744252935.8642795,0.0,2025-04-09 22:42:15.864,BACKWARD,45
161.0,11067.555674023113,498.5333083311687,-55585.703919613836,-51763.68972822306,-31917.106439722353,-29193.21110167636,304.07313156999726,-19199.36617605283,0.0,0.0,0.0,193.0,1.0,153.0,0.0,44.0,3.0,249.0,409.0,44.0,1017.0,1744252935.8642948,0.0,2025-04-09 22:42:15.864,BACKWARD,45
162.0,11126.877203807499,497.34866587503745,-55569.5659601171,-51688.47610813095,-31956.110233796866,-29232.103137028593,361.22654214221745,-19222.075548419423,0.0,0.0,0.0,193.0,1.0,154.0,0.0,44.0,3.0,251.0,410.0,44.0,1019.0,1744252935.86431,0.0,2025-04-09 22:42:15.864,BACKWARD,45
163.0,11166.998585104775,502.75778803322174,-55580.80888757812,-51767.33306256927,-31931.925646296222,-29198.01672673425,240.57182557246992,-19196.32633880691,0.0,0.0,0.0,193.0,1.0,154.0,0.0,44.0,3.0,249.0,410.0,44.0,1017.0,1744252935.864325,0.0,2025-04-09 22:42:15.864,BACKWARD,45
164.0,11119.456424648337,506.55758459062395,-55554.299718654125,-51710.67139037507,-31894.844102244868,-29174.05565667816,346.6308530129019,-19165.3244692474,0.0,0.0,0.0,193.0,1.0,154.0,0.0,45.0,3.0,249.0,410.0,45.0,1017.0,1744252935.8643403,0.0,2025-04-09 22:42:15.864,BACKWARD,45
165.0,11061.788923953643,494.1300146734732,-55595.873963341,-51773.43508880557,-31922.85083804737,-29197.457933122867,303.179061791785,-19195.007585884046,0.0,0.0,0.0,193.0,1.0,154.0,0.0,44.0,3.0,250.0,410.0,44.0,1018.0,1744252935.864355,0.0,2025-04-09 22:42:15.864,BACKWARD,45
166.0,11089.19216265585,476.2709708536829,-55585.279236469185,-51714.71705612148,-31960.29001001001,-29241.602628422097,346.2061698682511,-19225.495365321083,0.0,0.0,0.0,193.0,1.0,155.0,0.0,44.0,3.0,251.0,411.0,44.0,1019.0,1744252935.8643703,0.0,2025-04-09 22:42:15.864,BACKWARD,45
167.0,11153.475779709313,485.59164829154594,-55602.78065237769,-51776.184353373574,-31957.85366986438,-29230.627921894542,252.59706408942512,-19228.62460954483,0.0,0.0,0.0,193.0,1.0,155.0,0.0,44.0,3.0,251.0,411.0,44.0,1019.0,1744252935.864386,0.0,2025-04-09 22:42:15.864,BACKWARD,45
168.0,11115.00842750173,498.4439013533475,-55567.308433927115,-51731.793788885334,-31908.165741940233,-29193.30050865418,303.179061791785,-19202.60717899885,0.0,0.0,0.0,193.0,1.0,154.0,0.0,44.0,3.0,252.0,410.0,44.0,1020.0,1744252935.864401,0.0,2025-04-09 22:42:15.864,BACKWARD,45
169.0,11058.123237862974,490.5984390495347,-55604.568791934114,-51777.50310629643,-31927.589407871892,-29216.658081609978,302.8437856249554,-19221.449699574674,0.0,0.0,0.0,193.0,1.0,155.0,0.0,44.0,3.0,252.0,411.0,44.0,1020.0,1744252935.8644161,0.0,2025-04-09 22:42:15.864,BACKWARD,45
170.0,11068.963833923797,472.784098718655,-55584.5192771577,-51728.21750977248,-31950.36583547185,-29230.20323874989,327.09542835896355,-19211.123193636322,0.0,0.0,0.0,193.0,1.0,155.0,0.0,44.0,3.0,252.0,411.0,44.0,1020.0,1744252935.8644314,0.0,2025-04-09 22:42:15.864,BACKWARD,45
171.0,11174.374660775025,505.0600177121184,-55578.52900964368,-51732.41963773008,-31946.70014938118,-29208.67850883943,298.90987860082134,-19184.144638078767,0.0,0.0,0.0,193.0,1.0,154.0,0.0,44.0,3.0,249.0,410.0,44.0,1017.0,1744252935.8644466,0.0,2025-04-09 22:42:15.864,BACKWARD,45
172.0,11133.292154466171,506.490529357258,-55547.68360229536,-51723.72480913697,-31891.8266167434,-29157.24714484777,284.8282795939779,-19153.142768519258,0.0,0.0,0.0,193.0,1.0,154.0,0.0,44.0,3.0,250.0,410.0,44.0,1018.0,1744252935.864459,0.0,2025-04-09 22:42:15.864,BACKWARD,45
173.0,11077.47984856127,505.7529217902329,-55581.211218978315,-51748.95992862701,-31912.680794320204,-29186.416171361947,322.60272772344683,-19184.301100289955,0.0,0.0,0.0,193.0,1.0,154.0,0.0,44.0,3.0,249.0,410.0,44.0,1017.0,1744252936.0569956,0.0,2025-04-09 22:42:16.056,BACKWARD,45
174.0,11047.617917968979,459.95419740130876,-55593.90700982893,-51756.403059530625,-31948.398881959783,-29232.483116684332,305.83891938196655,-19224.89186822079,0.0,0.0,0.0,193.0,1.0,154.0,0.0,44.0,3.0,250.0,410.0,44.0,1018.0,1744252936.0570464,0.0,2025-04-09 22:42:16.057,BACKWARD,45
175.0,11149.743038385277,478.461441810303,-55592.38709120597,-51737.448780232524,-31967.37551300234,-29245.4024249795,320.25579455563957,-19232.357350868864,0.0,0.0,0.0,193.0,1.0,154.0,0.0,44.0,3.0,250.0,410.0,44.0,1018.0,1744252936.0570583,0.0,2025-04-09 22:42:16.057,BACKWARD,45
176.0,11137.404875445947,499.1815089203726,-55556.736058799754,-51748.781114671365,-31899.336802880385,-29166.97015368583,266.23162820716243,-19172.83465538438,0.0,0.0,0.0,193.0,1.0,154.0,0.0,45.0,3.0,251.0,410.0,45.0,1019.0,1744252936.0570683,0.0,2025-04-09 22:42:16.057,BACKWARD,45
177.0,11092.455517346325,511.6984858153446,-55570.303567684125,-51730.698553407026,-31901.951956981655,-29179.44242709189,357.40439384035994,-19175.31569901892,0.0,0.0,0.0,193.0,1.0,153.0,0.0,44.0,3.0,249.0,409.0,44.0,1017.0,1744252936.0570781,0.0,2025-04-09 22:42:16.057,BACKWARD,45
178.0,11050.389534281438,482.12712790097333,-55585.256884724724,-51755.218417074495,-31932.50679165206,-29207.516218127756,307.2694310271062,-19207.85983894585,0.0,0.0,0.0,193.0,1.0,154.0,0.0,44.0,3.0,250.0,410.0,44.0,1018.0,1744252936.0570874,0.0,2025-04-09 22:42:16.057,BACKWARD,45
179.0,11152.045268064174,502.1989944218391,-55576.02561426468,-51699.96490478097,-31967.934306613723,-29234.87475334105,345.33445183449413,-19224.04250193149,0.0,0.0,0.0,193.0,1.0,154.0,0.0,44.0,3.0,250.0,410.0,44.0,1018.0,1744252936.0570967,0.0,2025-04-09 22:42:16.057,BACKWARD,45
180.0,11152.313488997637,502.6683810554005,-55563.28511992516,-51758.77234444289,-31909.70801230765,-29174.033304933706,248.23847392064025,-19176.835617641882,0.0,0.0,0.0,193.0,1.0,154.0,0.0,44.0,3.0,252.0,410.0,44.0,1020.0,1744252936.057106,0.0,2025-04-09 22:42:16.057,BACKWARD,45
181.0,11105.553639597136,507.76457879121057,-55562.65927108041,-51718.09216953423,-31899.31445113593,-29177.788398002198,359.75132700816715,-19164.20688202463,0.0,0.0,0.0,193.0,1.0,154.0,0.0,45.0,3.0,249.0,410.0,45.0,1017.0,1744252936.057115,0.0,2025-04-09 22:42:16.057,BACKWARD,45
182.0,11041.493539988225,470.9736074177751,-55598.556172675635,-51780.58764703127,-31935.61368413135,-29216.054584509682,289.8797738408773,-19211.50317329206,0.0,0.0,0.0,193.0,1.0,154.0,0.0,44.0,3.0,250.0,410.0,44.0,1018.0,1744252936.0571241,0.0,2025-04-09 22:42:16.057,BACKWARD,45
183.0,11128.10654975254,484.96579944679735,-55574.84097180855,-51701.28365770384,-31965.319152512453,-29243.033140067237,359.9748444527202,-19234.57017356994,0.0,0.0,0.0,193.0,1.0,154.0,0.0,44.0,3.0,251.0,410.0,44.0,1019.0,1744252936.0571332,0.0,2025-04-09 22:42:16.057,BACKWARD,45
184.0,11147.552567428656,485.59164829154594,-55576.584407876064,-51779.17948713058,-31926.494172393584,-29194.529854599223,235.00624120309845,-19205.579961011408,0.0,0.0,0.0,193.0,1.0,154.0,0.0,45.0,3.0,251.0,410.0,45.0,1019.0,1744252936.057142,0.0,2025-04-09 22:42:16.057,BACKWARD,45
185.0,11109.554601854636,503.2718781556938,-55554.76910528769,-51716.61695440018,-31897.079276690398,-29174.860319478554,358.1643531518404,-19164.430399469187,0.0,0.0,0.0,193.0,1.0,155.0,0.0,44.0,3.0,252.0,411.0,44.0,1020.0,1744252936.0571508,0.0,2025-04-09 22:42:16.057,BACKWARD,45
186.0,11051.75299069321,483.6023430350236,-55593.41527145091,-51780.20766737553,-31926.31535843794,-29198.419058134445,299.98276233467607,-19189.866684659326,0.0,0.0,0.0,193.0,1.0,155.0,0.0,44.0,3.0,252.0,411.0,44.0,1020.0,1744252936.05716,0.0,2025-04-09 22:42:16.057,BACKWARD,45
