Sample Index,EXG Channel 0,EXG Channel 1,EXG Channel 2,EXG Channel 3,EXG Channel 4,EXG Channel 5,EXG Channel 6,EXG Channel 7,Accel Channel 0,Accel Channel 1,Accel Channel 2,Not Used,Digital Channel 0 (D11),Digital Channel 1 (D12),Digital Channel 2 (D13),Digital Channel 3 (D17),Not Used,Digital Channel 4 (D18),Analog Channel 0,Analog Channel 1,Analog Channel 2,Timestamp,Marker Channel,Timestamp (Formatted),Stimulus_Direction,Stimulus_Number
101.0,5689.882420287421,-12973.891255127342,-24758.98262965472,-24175.512692393386,15508.377910659065,4044.2352347654387,34228.16505767883,51355.09983958004,0.0,0.0,0.0,193.0,0.0,192.0,0.0,1.0,0.0,178.0,192.0,1.0,178.0,1744418669.3916519,0.0,2025-04-11 20:44:29.391,BACKWARD,18
102.0,5690.0388824986085,-12954.71345838469,-24789.76098176968,-24173.79160807033,15390.04777551267,3880.5757618636803,34208.20494988024,51227.35962001797,0.0,0.0,0.0,193.0,0.0,192.0,0.0,1.0,0.0,178.0,192.0,1.0,178.0,1744418669.391696,0.0,2025-04-11 20:44:29.391,BACKWARD,18
103.0,5698.309027947072,-12939.447216921713,-24800.780391786146,-24134.005502939883,15288.906131852405,4116.140796678162,33948.56708628739,51286.479984102254,0.0,0.0,0.0,193.0,0.0,193.0,0.0,1.0,0.0,179.0,193.0,1.0,179.0,1744418669.391738,0.0,2025-04-11 20:44:29.391,BACKWARD,18
104.0,5722.873595103454,-12925.723245826155,-24757.105083120478,-24115.610017253166,15360.61052806503,4216.030742648929,33793.69184895657,51346.96380459831,0.0,0.0,0.0,193.0,0.0,192.0,0.0,1.0,0.0,178.0,192.0,1.0,178.0,1744418669.3917756,0.0,2025-04-11 20:44:29.391,BACKWARD,18
105.0,5694.688045345312,-12976.551112717523,-24752.23240282922,-24160.313506163777,15534.84237609415,4104.920220961598,34177.89598439884,51355.122191324495,0.0,0.0,0.0,193.0,0.0,192.0,0.0,1.0,0.0,178.0,192.0,1.0,178.0,1744418669.8671825,0.0,2025-04-11 20:44:29.867,BACKWARD,18
106.0,5677.74542304819,-12990.364490790904,-24808.603502345504,-24183.69343086403,15424.022427084736,3926.866224630621,34266.31948546404,51226.86788163995,0.0,0.0,0.0,193.0,0.0,192.0,0.0,1.0,0.0,179.0,192.0,1.0,179.0,1744418669.8673203,0.0,2025-04-11 20:44:29.867,BACKWARD,18
107.0,5686.3955481523935,-12949.192577504227,-24820.695796095824,-24140.48750883192,15304.641759948941,4111.961020465019,34025.14416279127,51267.27983561514,0.0,0.0,0.0,193.0,0.0,193.0,0.0,1.0,0.0,179.0,193.0,1.0,179.0,1744418669.8673787,0.0,2025-04-11 20:44:29.867,BACKWARD,18
108.0,5710.848356586499,-12922.191670202217,-24782.2507956327,-24113.59836025219,15335.017780663704,4248.194902920116,33808.64516599717,51348.23785403226,0.0,0.0,0.0,193.0,0.0,193.0,0.0,1.0,0.0,179.0,193.0,1.0,179.0,1744418669.867439,0.0,2025-04-11 20:44:29.867,BACKWARD,18
109.0,5686.663769085857,-12977.33342377346,-24766.00107741369,-24151.68573280403,15506.54506761373,4153.378802940703,34127.872780307865,51371.774240943705,0.0,0.0,0.0,193.0,0.0,193.0,0.0,1.0,0.0,178.0,193.0,1.0,178.0,1744418669.8675056,0.0,2025-04-11 20:44:29.867,BACKWARD,18
110.0,5680.897019016388,-12981.133220330861,-24793.806647516092,-24174.059829003792,15412.064243801147,3933.8846723895876,34296.762561412164,51253.01942265266,0.0,0.0,0.0,193.0,0.0,193.0,0.0,1.0,0.0,178.0,193.0,1.0,178.0,1744418669.8675797,0.0,2025-04-11 20:44:29.867,BACKWARD,18
111.0,5691.804670310577,-12942.285888467537,-24811.44217389133,-24138.989941953416,15271.605881643998,4072.7560606904103,34096.200358414695,51257.62388201045,0.0,0.0,0.0,193.0,0.0,192.0,0.0,1.0,0.0,179.0,192.0,1.0,179.0,1744418669.867657,0.0,2025-04-11 20:44:29.867,BACKWARD,18
112.0,5696.766757579656,-12930.618277861868,-24799.126362696454,-24129.736319748918,15267.604919386498,4248.776048275954,33851.67227407364,51363.59350247306,0.0,0.0,0.0,193.0,0.0,193.0,0.0,1.0,0.0,179.0,193.0,1.0,179.0,1744418669.8677127,0.0,2025-04-11 20:44:29.867,BACKWARD,18
113.0,5681.008777738664,-12965.263481767593,-24771.387847827416,-24165.432055644043,15475.29732886521,4177.675149163621,34067.813642956455,51396.00353193325,0.0,0.0,0.0,193.0,0.0,193.0,0.0,1.0,0.0,178.0,193.0,1.0,178.0,1744418669.8679311,0.0,2025-04-11 20:44:29.867,BACKWARD,18
114.0,5680.785260294111,-12981.021461608585,-24797.271167906663,-24195.092820536236,15477.219578888367,3936.5668817242245,34318.376698300446,51287.172888180365,0.0,0.0,0.0,193.0,0.0,193.0,0.0,1.0,0.0,179.0,193.0,1.0,179.0,1744418669.867977,0.0,2025-04-11 20:44:29.867,BACKWARD,18
115.0,5685.74734756319,-12965.263481767593,-24817.56655187208,-24153.67503806055,15326.390007303955,4001.074016222241,34143.83192584896,51239.76483819066,0.0,0.0,0.0,193.0,0.0,193.0,0.0,1.0,0.0,179.0,193.0,1.0,179.0,1744418669.8680253,0.0,2025-04-11 20:44:29.868,BACKWARD,18
116.0,5703.964019294264,-12934.440426163725,-24811.129249468955,-24128.082290659226,15249.835282544529,4201.747977941987,33858.66837008815,51337.55372018263,0.0,0.0,0.0,193.0,0.0,193.0,0.0,1.0,0.0,178.0,193.0,1.0,178.0,1744418669.8680823,0.0,2025-04-11 20:44:29.868,BACKWARD,18
117.0,5709.216679241262,-12931.46764415117,-24760.100216877487,-24133.133784906124,15426.056435830169,4177.094003807784,33966.53788882946,51360.48660999377,0.0,0.0,0.0,193.0,0.0,193.0,0.0,1.0,0.0,179.0,193.0,1.0,179.0,1744418669.8684883,0.0,2025-04-11 20:44:29.868,BACKWARD,18
118.0,5672.582170079014,-12982.47432499818,-24791.929100981844,-24192.812942601795,15524.582925389162,3980.197486900984,34321.170666357364,51297.67820807436,0.0,0.0,0.0,193.0,0.0,192.0,0.0,1.0,0.0,178.0,192.0,1.0,178.0,1744418669.868534,0.0,2025-04-11 20:44:29.868,BACKWARD,18
119.0,5680.4723358717365,-12974.539455716545,-24809.05053723461,-24160.715837563974,15423.485985217809,3985.1148706811514,34207.914377202316,51230.6453264529,0.0,0.0,0.0,193.0,0.0,193.0,0.0,1.0,0.0,178.0,193.0,1.0,178.0,1744418669.8685677,0.0,2025-04-11 20:44:29.868,BACKWARD,18
120.0,5687.803708053078,-12945.66100188029,-24811.24100819123,-24134.072558173248,15312.59898097503,4221.261050851471,33925.544789498425,51328.009525300215,0.0,0.0,0.0,193.0,0.0,193.0,0.0,1.0,0.0,179.0,193.0,1.0,179.0,1744418669.8686044,0.0,2025-04-11 20:44:29.868,BACKWARD,18
121.0,5695.470356401248,-12935.379199430849,-24765.777559969138,-24135.883049474127,15416.355778736566,4191.265009792449,33911.083210835845,51350.56243545561,0.0,0.0,0.0,193.0,0.0,193.0,0.0,1.0,0.0,178.0,193.0,1.0,178.0,1744418669.8686512,0.0,2025-04-11 20:44:29.868,BACKWARD,18
122.0,5681.142888205396,-12974.248883038626,-24768.951507681788,-24169.455369646,15524.560573644707,4026.555004901291,34293.633317188425,51301.18743195384,0.0,0.0,0.0,193.0,0.0,193.0,0.0,1.0,0.0,178.0,193.0,1.0,178.0,1744418669.8686843,0.0,2025-04-11 20:44:29.868,BACKWARD,18
123.0,5681.053481227575,-12972.19252254874,-24810.01166224619,-24159.64295383012,15388.639615611984,3961.198504113973,34240.994958996176,51202.01274180564,0.0,0.0,0.0,193.0,0.0,192.0,0.0,1.0,0.0,178.0,192.0,1.0,178.0,1744418669.8687172,0.0,2025-04-11 20:44:29.868,BACKWARD,18
124.0,5694.352769178483,-12941.74944660061,-24821.90279029641,-24125.10950864667,15230.121043934947,4189.745091169488,33970.02476096449,51285.51885909067,0.0,0.0,0.0,193.0,0.0,193.0,0.0,1.0,0.0,179.0,193.0,1.0,179.0,1744418669.8687499,0.0,2025-04-11 20:44:29.868,BACKWARD,18
125.0,5704.70162686129,-12934.84275756392,-24776.640507774417,-24116.25821784237,15328.446367793844,4245.803266263398,33883.188233755616,51339.341859739056,0.0,0.0,0.0,193.0,0.0,192.0,0.0,1.0,0.0,178.0,192.0,1.0,178.0,1744418669.868782,0.0,2025-04-11 20:44:29.868,BACKWARD,18
126.0,5666.234274653706,-12981.75906917561,-24782.519016566162,-24172.271689447367,15521.006646276313,4088.089357386751,34286.16783454035,51335.609118415014,0.0,0.0,0.0,193.0,0.0,193.0,0.0,1.0,0.0,179.0,193.0,1.0,179.0,1744418669.8688133,0.0,2025-04-11 20:44:29.868,BACKWARD,18
127.0,5680.31587366055,-12971.164342303795,-24801.428592375352,-24163.822730043263,15416.24402001429,3933.0576578447412,34286.413703729355,51198.28000048161,0.0,0.0,0.0,193.0,0.0,192.0,0.0,1.0,0.0,178.0,192.0,1.0,178.0,1744418669.8688445,0.0,2025-04-11 20:44:29.868,BACKWARD,18
128.0,5695.515059890158,-12947.963231559186,-24811.978615758257,-24126.428261569534,15303.837097148551,4165.336986224293,34029.79332563798,51257.93680643282,0.0,0.0,0.0,193.0,0.0,193.0,0.0,1.0,0.0,179.0,193.0,1.0,179.0,1744418669.8689091,0.0,2025-04-11 20:44:29.868,BACKWARD,18
129.0,5710.669542630857,-12930.685333095233,-24778.27218511965,-24116.459383542468,15342.3715045895,4246.742039530521,33867.743178337005,51331.228176501776,0.0,0.0,0.0,193.0,0.0,193.0,0.0,1.0,0.0,179.0,193.0,1.0,179.0,1744418669.8689413,0.0,2025-04-11 20:44:29.868,BACKWARD,18
130.0,5693.41399591136,-12957.328612485959,-24758.155615109878,-24147.617715313165,15499.794840788227,4117.124273434195,34225.080516944,51340.01241207271,0.0,0.0,0.0,193.0,0.0,192.0,0.0,1.0,0.0,178.0,192.0,1.0,178.0,1744418669.8689728,0.0,2025-04-11 20:44:29.868,BACKWARD,18
131.0,5695.962094779265,-12955.294603740527,-24791.124438181454,-24154.233831671936,15388.61726386753,3917.5008437038477,34316.4991517662,51203.86793659544,0.0,0.0,0.0,193.0,0.0,193.0,0.0,1.0,0.0,179.0,193.0,1.0,179.0,1744418669.869004,0.0,2025-04-11 20:44:29.869,BACKWARD,18
132.0,5694.576286623035,-12941.056542522496,-24818.550028628117,-24131.703273260984,15252.383381412434,4086.5247352748797,34093.048762446495,51244.391649292906,0.0,0.0,0.0,193.0,0.0,192.0,0.0,1.0,0.0,178.0,192.0,1.0,178.0,1744418669.8690524,0.0,2025-04-11 20:44:29.869,BACKWARD,18
133.0,5719.006743312686,-12920.470585879159,-24774.092408906512,-24112.324310818232,15287.45326846281,4193.075501093328,33844.83264027031,51323.15919675341,0.0,0.0,0.0,193.0,0.0,193.0,0.0,1.0,0.0,179.0,193.0,1.0,179.0,1744418669.8690844,0.0,2025-04-11 20:44:29.869,BACKWARD,18
134.0,5706.623876884446,-12950.623089149367,-24744.453995758773,-24141.91802047706,15481.82403824616,4111.782206509377,34133.43836467723,51338.96188008331,0.0,0.0,0.0,193.0,0.0,192.0,0.0,1.0,0.0,178.0,192.0,1.0,178.0,1744418669.8691156,0.0,2025-04-11 20:44:29.869,BACKWARD,18
135.0,5698.711359347268,-12959.921414842775,-24776.327583352042,-24167.242546944923,15427.017560841747,3918.9537070934425,34331.854800206995,51222.95632636027,0.0,0.0,0.0,193.0,0.0,193.0,0.0,1.0,0.0,178.0,193.0,1.0,178.0,1744418669.8691473,0.0,2025-04-11 20:44:29.869,BACKWARD,18
136.0,5691.692911588301,-12947.829121092454,-24800.556874341593,-24133.31259886177,15301.467812236288,4070.9232176450755,34152.75027188662,51230.198291563785,0.0,0.0,0.0,193.0,0.0,193.0,0.0,1.0,0.0,179.0,193.0,1.0,179.0,1744418669.8691783,0.0,2025-04-11 20:44:29.869,BACKWARD,18
137.0,5701.0135890261645,-12916.491975366114,-24785.84942649,-24105.037642125804,15293.59999818802,4259.661347825689,33893.0006495715,51320.90167056342,0.0,0.0,0.0,193.0,0.0,192.0,0.0,1.0,0.0,178.0,192.0,1.0,178.0,1744418669.8692098,0.0,2025-04-11 20:44:29.869,BACKWARD,18
138.0,5686.082623730019,-12941.816501833977,-24755.27224007514,-24131.30094186079,15481.06407893468,4198.864602907253,34096.53563458152,51348.64018543246,0.0,0.0,0.0,193.0,0.0,193.0,0.0,1.0,0.0,179.0,193.0,1.0,179.0,1744418669.8692412,0.0,2025-04-11 20:44:29.869,BACKWARD,18
139.0,5671.26341715615,-12981.356737775415,-24790.520941081162,-24177.12201799417,15471.63164277454,3982.231495646417,34385.99072527775,51255.14283837591,0.0,0.0,0.0,193.0,0.0,192.0,0.0,0.0,0.0,178.0,192.0,0.0,178.0,1744418669.8692727,0.0,2025-04-11 20:44:29.869,BACKWARD,18
140.0,5699.448966914292,-12941.213004733683,-24814.996101259723,-24144.01908445586,15320.153870600925,4003.2197836899504,34218.84438024097,51202.437424950294,0.0,0.0,0.0,193.0,0.0,193.0,0.0,1.0,0.0,178.0,193.0,1.0,178.0,1744418669.8693047,0.0,2025-04-11 20:44:29.869,BACKWARD,18
141.0,5715.385760710927,-12920.671751579255,-24798.120534195965,-24098.935615889506,15223.259058387168,4219.271745594949,33924.11427785329,51288.715158547784,0.0,0.0,0.0,193.0,0.0,193.0,0.0,0.0,0.0,179.0,193.0,0.0,179.0,1744418669.869336,0.0,2025-04-11 20:44:29.869,BACKWARD,18
142.0,5693.391644166904,-12964.078839311462,-24738.933114878313,-24101.081383357214,15419.887354360504,4242.674022039655,34033.59312219538,51333.2174817583,0.0,0.0,0.0,193.0,0.0,193.0,0.0,0.0,0.0,178.0,193.0,0.0,178.0,1744418669.8693664,0.0,2025-04-11 20:44:29.869,BACKWARD,18
143.0,5676.404318380871,-12992.733775703166,-24760.346086066496,-24157.78775904033,15519.39732067553,4033.1487695156065,34392.964469547805,51271.34785310601,0.0,0.0,0.0,193.0,0.0,193.0,0.0,0.0,0.0,179.0,193.0,0.0,179.0,1744418669.8694096,0.0,2025-04-11 20:44:29.869,BACKWARD,18
144.0,5685.7920510521,-12955.652231651811,-24797.159409184387,-24145.06961644526,15370.825275281106,3998.101234209685,34276.24366000219,51179.25866595014,0.0,0.0,0.0,193.0,0.0,192.0,0.0,1.0,0.0,178.0,192.0,1.0,178.0,1744418669.8694408,0.0,2025-04-11 20:44:29.869,BACKWARD,18
145.0,5708.836699585521,-12912.17808868624,-24782.362554354975,-24104.590607236696,15288.101469052013,4235.476760325046,33981.49120587006,51273.09128917352,0.0,0.0,0.0,193.0,0.0,193.0,0.0,0.0,0.0,179.0,193.0,0.0,179.0,1744418669.869472,0.0,2025-04-11 20:44:29.869,BACKWARD,18
146.0,5709.954286808287,-12922.594001602412,-24744.029312614122,-24110.71498521745,15406.655121642963,4242.472856339557,33975.746807545045,51316.364266439,0.0,0.0,0.0,193.0,0.0,192.0,0.0,1.0,0.0,178.0,192.0,1.0,178.0,1744418669.8695035,0.0,2025-04-11 20:44:29.869,BACKWARD,18
147.0,5684.406242895871,-12974.606510949912,-24760.971934911246,-24161.989886997926,15482.516942324275,4045.777505132855,34382.52620488718,51295.53244060665,0.0,0.0,0.0,193.0,0.0,193.0,0.0,0.0,0.0,179.0,193.0,0.0,179.0,1744418669.869548,0.0,2025-04-11 20:44:29.869,BACKWARD,18
148.0,5701.661789615368,-12951.204234505205,-24784.24010088922,-24144.957857722984,15340.493958055255,3939.070277103219,34326.08805013753,51183.281979952095,0.0,0.0,0.0,193.0,0.0,192.0,0.0,0.0,0.0,178.0,192.0,0.0,178.0,1744418669.8695793,0.0,2025-04-11 20:44:29.869,BACKWARD,18
149.0,5712.748254865201,-12923.711588825177,-24798.835790018536,-24113.240732340902,15247.01896274316,4169.874390348719,34052.79327068249,51261.021347167654,0.0,0.0,0.0,193.0,0.0,192.0,0.0,0.0,0.0,178.0,192.0,0.0,178.0,1744418669.8696105,0.0,2025-04-11 20:44:29.869,BACKWARD,18
150.0,5711.049522286597,-12926.438501648725,-24764.74937972419,-24116.794659709296,15341.388027833465,4218.467082794557,33945.124917641275,51306.328333178564,0.0,0.0,0.0,193.0,0.0,193.0,0.0,0.0,0.0,179.0,193.0,0.0,179.0,1744418669.8696413,0.0,2025-04-11 20:44:29.869,BACKWARD,18
151.0,5682.238123683706,-12971.030231837063,-24765.978725669233,-24166.25907018889,15535.445873194441,4065.8493716537205,34338.33680609904,51301.41094939839,0.0,0.0,0.0,193.0,0.0,192.0,0.0,0.0,0.0,178.0,192.0,0.0,178.0,1744418669.869672,0.0,2025-04-11 20:44:29.869,BACKWARD,18
152.0,5701.46062391527,-12954.17701651776,-24777.199301385797,-24151.417511870564,15437.522880735742,3903.195727252451,34354.094785940026,51167.41224138883,0.0,0.0,0.0,193.0,0.0,193.0,0.0,0.0,0.0,179.0,193.0,0.0,179.0,1744418669.869703,0.0,2025-04-11 20:44:29.869,BACKWARD,18
153.0,5713.329400221039,-12915.486146865625,-24783.927176466845,-24105.48467701491,15310.564972229598,4138.716058578022,34120.69787033771,51240.32363180204,0.0,0.0,0.0,193.0,0.0,192.0,0.0,0.0,0.0,178.0,192.0,0.0,178.0,1744418669.8697338,0.0,2025-04-11 20:44:29.869,BACKWARD,18
154.0,5725.399342226904,-12905.383158371826,-24757.93209766532,-24099.80733392326,15322.523155513187,4236.303774869893,33945.84017346385,51313.4138361709,0.0,0.0,0.0,193.0,0.0,193.0,0.0,0.0,0.0,179.0,193.0,0.0,179.0,1744418669.8697646,0.0,2025-04-11 20:44:29.869,BACKWARD,18
155.0,5698.711359347268,-12958.245034008627,-24754.601687741484,-24154.21147992748,15488.551913327208,4104.42848258358,34300.4953027362,51319.58291764056,0.0,0.0,0.0,193.0,0.0,193.0,0.0,0.0,0.0,179.0,193.0,0.0,179.0,1744418669.869795,0.0,2025-04-11 20:44:29.869,BACKWARD,18
156.0,5706.690932117812,-12951.22658624966,-24788.777505013648,-24174.193939470522,15409.180868766412,3880.352244419127,34415.15975179193,51191.37331144492,0.0,0.0,0.0,193.0,0.0,192.0,0.0,0.0,0.0,178.0,192.0,0.0,178.0,1744418669.869826,0.0,2025-04-11 20:44:29.869,BACKWARD,18
157.0,5710.982467053231,-12919.375350400847,-24817.030110005155,-24140.554564065285,15276.433858446344,4060.2614355398937,34190.32355431599,51212.339247744,0.0,0.0,0.0,193.0,0.0,193.0,0.0,0.0,0.0,179.0,193.0,0.0,179.0,1744418669.8698568,0.0,2025-04-11 20:44:29.869,BACKWARD,18
158.0,5724.4382172153255,-12901.337492625415,-24788.57633931355,-24117.01817715385,15270.39888744341,4228.301850354892,33954.15502240122,51287.82108876957,0.0,0.0,0.0,193.0,0.0,193.0,0.0,0.0,0.0,178.0,193.0,0.0,178.0,1744418669.8699,0.0,2025-04-11 20:44:29.869,BACKWARD,18
159.0,5717.598583412002,-12937.413208176282,-24747.627943471427,-24138.609962297676,15483.433363846943,4152.864712818231,34227.96389197873,51304.89782153342,0.0,0.0,0.0,193.0,0.0,193.0,0.0,0.0,0.0,179.0,193.0,0.0,179.0,1744418669.869931,0.0,2025-04-11 20:44:29.869,BACKWARD,18
160.0,5698.420786669349,-12969.577368447468,-24794.924234738857,-24178.865454061684,15439.646296458995,3940.456085259448,34442.76415619423,51195.97777080271,0.0,0.0,0.0,193.0,0.0,192.0,0.0,0.0,0.0,178.0,192.0,0.0,178.0,1744418669.8699615,0.0,2025-04-11 20:44:29.869,BACKWARD,18
161.0,5706.132138506429,-12945.437484435735,-24816.001929760212,-24140.643971043108,15300.618445946986,4057.4004122496144,34245.62177009842,51189.160488743844,0.0,0.0,0.0,193.0,0.0,193.0,0.0,0.0,0.0,179.0,193.0,0.0,179.0,1744418669.8699923,0.0,2025-04-11 20:44:29.869,BACKWARD,18
162.0,5730.875519618455,-12906.210172916672,-24785.96118521228,-24103.651833969576,15262.575776884054,4241.534083072434,33975.67975231168,51279.86386774348,0.0,0.0,0.0,193.0,0.0,192.0,0.0,0.0,0.0,178.0,192.0,0.0,178.0,1744418669.870036,0.0,2025-04-11 20:44:29.870,BACKWARD,18
163.0,5724.147644537407,-12923.800995803,-24746.756225437668,-24125.73535749142,15437.835805158116,4178.792736386387,34158.04763532253,51305.59072561154,0.0,0.0,0.0,193.0,0.0,193.0,0.0,0.0,0.0,179.0,193.0,0.0,179.0,1744418669.870067,0.0,2025-04-11 20:44:29.870,BACKWARD,18
164.0,5696.051501757086,-12959.742600887133,-24780.507359565185,-24176.83144531625,15443.915479649959,3950.737887708889,34459.41620581343,51215.870823367935,0.0,0.0,0.0,193.0,0.0,192.0,0.0,0.0,0.0,178.0,192.0,0.0,178.0,1744418669.8700976,0.0,2025-04-11 20:44:29.870,BACKWARD,18
165.0,5699.113690747463,-12938.910775054786,-24795.81830451707,-24143.527346077844,15301.847791892027,3979.303417122772,34308.11724759546,51157.1751424283,0.0,0.0,0.0,193.0,0.0,192.0,0.0,0.0,0.0,178.0,192.0,0.0,178.0,1744418669.8701284,0.0,2025-04-11 20:44:29.870,BACKWARD,18
166.0,5722.337153236527,-12896.97890245663,-24770.382019326928,-24103.5400752473,15266.68849786383,4200.585687230312,34011.822523095914,51244.90573941538,0.0,0.0,0.0,193.0,0.0,193.0,0.0,0.0,0.0,179.0,193.0,0.0,179.0,1744418669.8701591,0.0,2025-04-11 20:44:29.870,BACKWARD,18
167.0,5728.461531217281,-12906.32193163895,-24724.292722260085,-24107.80925843826,15414.187659524401,4194.282495293915,34080.28591636252,51276.04171944162,0.0,0.0,0.0,193.0,0.0,192.0,0.0,0.0,0.0,178.0,192.0,0.0,178.0,1744418669.87019,0.0,2025-04-11 20:44:29.870,BACKWARD,18
168.0,5695.917391290354,-12958.177978775262,-24757.66387673186,-24174.46216040399,15484.528599325253,3995.843708019699,34463.0371884152,51232.299355542586,0.0,0.0,0.0,193.0,0.0,193.0,0.0,0.0,0.0,179.0,193.0,0.0,179.0,1744418669.8702211,0.0,2025-04-11 20:44:29.870,BACKWARD,18
169.0,5708.479071674236,-12932.920507540764,-24776.573452541048,-24155.06084621678,15394.629883126008,3946.155780095551,34361.18028893236,51141.10423816493,0.0,0.0,0.0,193.0,0.0,192.0,0.0,0.0,0.0,178.0,192.0,0.0,178.0,1744418669.870252,0.0,2025-04-11 20:44:29.870,BACKWARD,18
170.0,5738.810388900089,-12877.01879465804,-24770.359667582474,-24105.685842715007,15304.150021570924,4185.1182800672395,34062.35981730936,51214.954401845265,0.0,0.0,0.0,193.0,0.0,192.0,0.0,0.0,0.0,178.0,192.0,0.0,178.0,1744418669.8702836,0.0,2025-04-11 20:44:29.870,BACKWARD,18
171.0,5747.751086682211,-12874.314233578949,-24728.427794984316,-24106.82578168223,15404.866982086538,4212.588574002812,34031.71557566113,51257.266254099166,0.0,0.0,0.0,193.0,0.0,193.0,0.0,0.0,0.0,178.0,193.0,0.0,178.0,1744418669.8703153,0.0,2025-04-11 20:44:29.870,BACKWARD,18
172.0,5706.869746073455,-12940.073065766463,-24758.62500174344,-24171.154102224602,15506.478012380365,4028.32079271326,34447.39096729648,51238.446085267795,0.0,0.0,0.0,193.0,0.0,193.0,0.0,0.0,0.0,178.0,193.0,0.0,178.0,1744418669.8703463,0.0,2025-04-11 20:44:29.870,BACKWARD,18
173.0,5704.813385583567,-12938.419036676769,-24791.81734225957,-24157.96657299597,15372.32284215961,3895.0596922707196,34410.95762383433,51115.73500820816,0.0,0.0,0.0,193.0,0.0,193.0,0.0,0.0,0.0,178.0,193.0,0.0,178.0,1744418669.8703885,0.0,2025-04-11 20:44:29.870,BACKWARD,18
174.0,5712.837661843021,-12910.50170785209,-24797.114705695476,-24122.293188845302,15260.362954182978,4128.233090428483,34147.162335772795,51190.076910266514,0.0,0.0,0.0,193.0,0.0,192.0,0.0,0.0,0.0,178.0,192.0,0.0,178.0,1744418669.8704195,0.0,2025-04-11 20:44:29.870,BACKWARD,18
175.0,5716.212775255773,-12922.7504638136,-24764.548214024093,-24123.790755723807,15326.769986959695,4206.6653617221555,34030.66504367173,51250.67248948485,0.0,0.0,0.0,193.0,0.0,193.0,0.0,0.0,0.0,179.0,193.0,0.0,179.0,1744418669.8704505,0.0,2025-04-11 20:44:29.870,BACKWARD,18
176.0,5695.962094779265,-12965.755220145611,-24763.52003377915,-24164.180357954545,15487.814305760183,4071.3479007897263,34413.84099886906,51238.96017539027,0.0,0.0,0.0,193.0,0.0,192.0,0.0,0.0,0.0,178.0,192.0,0.0,178.0,1744418669.870482,0.0,2025-04-11 20:44:29.870,BACKWARD,18
177.0,5710.691894375312,-12942.04001927853,-24783.077810177543,-24160.849948030707,15411.706615889861,3898.1889364944623,34449.53673476419,51100.98285686766,0.0,0.0,0.0,193.0,0.0,193.0,0.0,0.0,0.0,179.0,193.0,0.0,179.0,1744418669.8705263,0.0,2025-04-11 20:44:29.870,BACKWARD,18
178.0,5712.994124054208,-12920.738806812622,-24806.18951394433,-24143.39323561111,15296.729242411762,4082.166145106095,34212.11650515992,51160.03616571858,0.0,0.0,0.0,193.0,0.0,192.0,0.0,0.0,0.0,178.0,192.0,0.0,178.0,1744418669.8705573,0.0,2025-04-11 20:44:29.870,BACKWARD,18
179.0,5723.700609648301,-12908.288885151016,-24781.982574699232,-24132.999674439394,15305.55818147161,4212.365056558258,34021.90315984526,51228.41015200736,0.0,0.0,0.0,193.0,0.0,193.0,0.0,0.0,0.0,179.0,193.0,0.0,179.0,1744418669.8705883,0.0,2025-04-11 20:44:29.870,BACKWARD,18
180.0,5707.808519340578,-12939.916603555275,-24761.66483898936,-24166.281421933345,15471.743401496817,4124.701514804544,34352.46310859479,51237.21673932276,0.0,0.0,0.0,193.0,0.0,193.0,0.0,0.0,0.0,179.0,193.0,0.0,179.0,1744418669.8706193,0.0,2025-04-11 20:44:29.870,BACKWARD,18
181.0,5694.17395522284,-12942.308240211993,-24798.120534195965,-24187.11324776569,15399.636673883997,3917.3443814926604,34490.6415928175,51112.44930177323,0.0,0.0,0.0,193.0,0.0,192.0,0.0,0.0,0.0,178.0,192.0,0.0,178.0,1744418669.87065,0.0,2025-04-11 20:44:29.870,BACKWARD,18
182.0,5697.191440724307,-12912.960399742175,-24815.510191382193,-24145.181375167536,15293.443535976832,4096.7171307465,34271.01335179965,51136.29861310704,0.0,0.0,0.0,193.0,0.0,193.0,0.0,0.0,0.0,179.0,193.0,0.0,179.0,1744418669.8706892,0.0,2025-04-11 20:44:29.870,BACKWARD,18
183.0,5716.5704031670575,-12885.691271506701,-24786.676441034848,-24120.97443592244,15307.614541961497,4247.79257151992,34012.805999851946,51215.021457078634,0.0,0.0,0.0,193.0,0.0,192.0,0.0,0.0,0.0,178.0,192.0,0.0,178.0,1744418669.8707204,0.0,2025-04-11 20:44:29.870,BACKWARD,18
184.0,5693.436347655815,-12931.869975551364,-24766.224594858242,-24157.92186950706,15479.231235889345,4154.429334930102,34280.93752633781,51237.50731200067,0.0,0.0,0.0,193.0,0.0,193.0,0.0,0.0,0.0,179.0,193.0,0.0,179.0,1744418669.870751,0.0,2025-04-11 20:44:29.870,BACKWARD,18
185.0,5690.798841810089,-12946.689182125234,-24793.158446926886,-24190.89069257864,15440.607421470575,3920.1830530384846,34514.15562798448,51131.44828456024,0.0,0.0,0.0,193.0,0.0,192.0,0.0,0.0,0.0,178.0,192.0,0.0,178.0,1744418669.870782,0.0,2025-04-11 20:44:29.870,BACKWARD,18
186.0,5702.399397182393,-12923.84569929191,-24811.285711680142,-24154.233831671936,15318.768062444695,3994.904934752576,34326.37862281545,51114.148034351834,0.0,0.0,0.0,193.0,0.0,193.0,0.0,0.0,0.0,179.0,193.0,0.0,179.0,1744418669.870813,0.0,2025-04-11 20:44:29.870,BACKWARD,18
187.0,5715.519871177658,-12900.376367613837,-24796.8017812731,-24134.988979695914,15265.459151918789,4176.155230540661,34048.76995668053,51210.39464597638,0.0,0.0,0.0,193.0,0.0,192.0,0.0,0.0,0.0,178.0,192.0,0.0,178.0,1744418669.8708436,0.0,2025-04-11 20:44:29.870,BACKWARD,18
188.0,5712.256516487184,-12920.783510301533,-24747.9408678938,-24142.25329664389,15454.689020477417,4158.452648932058,34212.13885690437,51250.49367552921,0.0,0.0,0.0,193.0,0.0,193.0,0.0,0.0,0.0,179.0,193.0,0.0,179.0,1744418669.8708744,0.0,2025-04-11 20:44:29.870,BACKWARD,18
189.0,5682.394585894894,-12962.201292777216,-24789.58216781404,-24205.955768341515,15458.53352052373,3954.8282569442104,34536.08268929514,51182.70083459626,0.0,0.0,0.0,193.0,0.0,192.0,0.0,0.0,0.0,178.0,192.0,0.0,178.0,1744418669.8709211,0.0,2025-04-11 20:44:29.870,BACKWARD,18
190.0,5691.178821465829,-12932.764045329577,-24814.10203148151,-24177.010259271894,15310.27439955168,3967.7922687282885,34386.50481540022,51119.82537744348,0.0,0.0,0.0,193.0,0.0,193.0,0.0,0.0,0.0,179.0,193.0,0.0,179.0,1744418669.8709524,0.0,2025-04-11 20:44:29.870,BACKWARD,18
191.0,5717.956211323287,-12890.988634942609,-24800.422763874863,-24134.20666863998,15245.230823186736,4199.4457482630905,34090.23244264513,51210.99814307668,0.0,0.0,0.0,193.0,0.0,193.0,0.0,0.0,0.0,179.0,193.0,0.0,179.0,1744418669.8709831,0.0,2025-04-11 20:44:29.870,BACKWARD,18
192.0,5718.4479497013035,-12915.821423032454,-24764.592917513004,-24147.26008740188,15388.125525489513,4191.577934214823,34142.64728339282,51254.807562209084,0.0,0.0,0.0,193.0,0.0,192.0,0.0,0.0,0.0,178.0,192.0,0.0,178.0,1744418669.8710272,0.0,2025-04-11 20:44:29.871,BACKWARD,18
193.0,5693.0340162556195,-12960.726077643167,-24779.233310131232,-24199.853742105217,15499.772489043771,3997.1401091981065,34525.845590334604,51216.25080302368,0.0,0.0,0.0,193.0,0.0,193.0,0.0,0.0,0.0,179.0,193.0,0.0,179.0,1744418669.8710582,0.0,2025-04-11 20:44:29.871,BACKWARD,18
194.0,5688.250742942184,-12937.681429109745,-24811.129249468955,-24184.051058775316,15390.248941212767,3944.144123094574,34434.426955512405,51118.19370009824,0.0,0.0,0.0,193.0,0.0,192.0,0.0,0.0,0.0,178.0,192.0,0.0,178.0,1744418669.8710887,0.0,2025-04-11 20:44:29.871,BACKWARD,18
195.0,5692.564629622058,-12911.395777630303,-24825.2108484758,-24152.1998229265,15261.234672216735,4180.245599775983,34150.939780585744,51198.525869670615,0.0,0.0,0.0,193.0,0.0,193.0,0.0,0.0,0.0,178.0,193.0,0.0,178.0,1744418669.8711197,0.0,2025-04-11 20:44:29.871,BACKWARD,18
196.0,5704.992199539209,-12918.369521900358,-24780.507359565185,-24148.10945369118,15308.12863208397,4195.73535868351,34102.59295732891,51242.4470475253,0.0,0.0,0.0,193.0,0.0,192.0,0.0,0.0,0.0,178.0,192.0,0.0,178.0,1744418669.8711507,0.0,2025-04-11 20:44:29.871,BACKWARD,18
197.0,5693.011664511164,-12949.639612393334,-24765.33052508003,-24181.704125607506,15473.129209653045,4030.3771532031483,34495.178996941926,51217.74836990218,0.0,0.0,0.0,193.0,0.0,193.0,0.0,0.0,0.0,179.0,193.0,0.0,179.0,1744418669.8711817,0.0,2025-04-11 20:44:29.871,BACKWARD,18
198.0,5685.479126629726,-12941.123597755863,-24800.132191196943,-24182.68760236354,15393.869923814527,3912.4717012014034,34486.12654043753,51104.290915047044,0.0,0.0,0.0,193.0,0.0,192.0,0.0,0.0,0.0,178.0,192.0,0.0,178.0,1744418669.8712125,0.0,2025-04-11 20:44:29.871,BACKWARD,18
199.0,5698.711359347268,-12907.104242694884,-24805.787182544136,-24145.337837378724,15289.554332441608,4147.232073215494,34220.11842967492,51180.93504678429,0.0,0.0,0.0,193.0,0.0,193.0,0.0,0.0,0.0,179.0,193.0,0.0,179.0,1744418669.8712437,0.0,2025-04-11 20:44:29.871,BACKWARD,18
200.0,5713.619972898958,-12902.32096938145,-24774.405333328883,-24139.973418709447,15344.763141246218,4217.148329871694,34085.13624490932,51249.44314353981,0.0,0.0,0.0,193.0,0.0,193.0,0.0,0.0,0.0,179.0,193.0,0.0,179.0,1744418669.8712742,0.0,2025-04-11 20:44:29.871,BACKWARD,18
201.0,5688.407205153371,-12945.012801291085,-24779.233310131232,-24184.721611108973,15469.798799729206,4081.830868939265,34475.86708973254,51256.61805350996,0.0,0.0,0.0,193.0,0.0,193.0,0.0,0.0,0.0,179.0,193.0,0.0,179.0,1744418669.8713048,0.0,2025-04-11 20:44:29.871,BACKWARD,18
202.0,5695.626818612435,-12943.6046413904,-24801.920330753368,-24192.477666434967,15340.538661544164,3897.9877707943647,34531.79115435972,51125.770941468596,0.0,0.0,0.0,193.0,0.0,192.0,0.0,0.0,0.0,178.0,192.0,0.0,178.0,1744418669.871336,0.0,2025-04-11 20:44:29.871,BACKWARD,18
203.0,5700.566554137058,-12928.852490049898,-24816.560723371593,-24165.990849255428,15202.337825577,4075.2371043249495,34280.11051179296,51165.51234311013,0.0,0.0,0.0,193.0,0.0,193.0,0.0,0.0,0.0,179.0,193.0,0.0,179.0,1744418669.8713665,0.0,2025-04-11 20:44:29.871,BACKWARD,18
204.0,5711.898888575899,-12914.681484065233,-24786.788199757124,-24146.120148434657,15262.821646073062,4217.014219404962,34077.51430005006,51240.837721924516,0.0,0.0,0.0,193.0,0.0,192.0,0.0,0.0,0.0,178.0,192.0,0.0,178.0,1744418669.8714092,0.0,2025-04-11 20:44:29.871,BACKWARD,18
205.0,5688.921295275843,-12950.757199616099,-24776.61815602996,-24186.375640198665,15498.006701231803,4112.341000120759,34409.728277889284,51259.210855866775,0.0,0.0,0.0,193.0,0.0,193.0,0.0,0.0,0.0,179.0,193.0,0.0,179.0,1744418669.871441,0.0,2025-04-11 20:44:29.871,BACKWARD,18
206.0,5682.372234150438,-12955.093438040429,-24806.18951394433,-24205.64284391914,15447.20118608489,3892.0869102581637,34553.24882903681,51127.20145311373,0.0,0.0,0.0,193.0,0.0,192.0,0.0,0.0,0.0,178.0,192.0,0.0,178.0,1744418669.871472,0.0,2025-04-11 20:44:29.871,BACKWARD,18
207.0,5685.277960929628,-12935.6027168754,-24825.903752553913,-24150.814014770272,15312.666036208397,4090.480994043469,34343.36594860148,51140.83601723147,0.0,0.0,0.0,193.0,0.0,193.0,0.0,0.0,0.0,179.0,193.0,0.0,179.0,1744418669.8715024,0.0,2025-04-11 20:44:29.871,BACKWARD,18
208.0,5711.205984497784,-12909.428824118237,-24796.690022550825,-24120.214476610956,15272.857579333495,4263.908179272196,34089.51718682256,51231.65115495338,0.0,0.0,0.0,193.0,0.0,192.0,0.0,0.0,0.0,178.0,192.0,0.0,178.0,1744418669.8715465,0.0,2025-04-11 20:44:29.871,BACKWARD,18
209.0,5700.387740181415,-12938.910775054786,-24778.96508919777,-24159.553546852298,15411.259581000755,4162.610073400745,34329.57492227256,51250.73954471821,0.0,0.0,0.0,193.0,0.0,193.0,0.0,0.0,0.0,178.0,193.0,0.0,178.0,1744418669.8715775,0.0,2025-04-11 20:44:29.871,BACKWARD,18
210.0,5684.5180016181475,-12957.462722952692,-24812.112726224987,-24209.017957331893,15419.462671215853,3940.97017538192,34582.0155241508,51144.83697948897,0.0,0.0,0.0,193.0,0.0,193.0,0.0,0.0,0.0,179.0,193.0,0.0,179.0,1744418669.8716085,0.0,2025-04-11 20:44:29.871,BACKWARD,18
211.0,5672.6045218234685,-12955.384010718348,-24843.20400276232,-24192.67883213506,15307.681597194864,4030.13128401414,34413.50572270223,51119.177176854275,0.0,0.0,0.0,193.0,0.0,192.0,0.0,0.0,0.0,178.0,192.0,0.0,178.0,1744418669.8716397,0.0,2025-04-11 20:44:29.871,BACKWARD,18
212.0,5694.978618023231,-12918.905963767287,-24820.29346469563,-24161.051113730802,15237.877099260939,4216.12014962675,34133.594826888424,51222.08460832651,0.0,0.0,0.0,193.0,0.0,193.0,0.0,0.0,0.0,179.0,193.0,0.0,179.0,1744418669.8716717,0.0,2025-04-11 20:44:29.871,BACKWARD,18
213.0,5699.203097725284,-12929.500690639103,-24763.497682034696,-24163.219232942967,15410.05258680017,4170.187314771094,34265.91715406384,51254.96402442027,0.0,0.0,0.0,193.0,0.0,192.0,0.0,0.0,0.0,178.0,192.0,0.0,178.0,1744418669.871703,0.0,2025-04-11 20:44:29.871,BACKWARD,18
214.0,5677.767774792645,-12960.770781132076,-24786.497627079207,-24206.671024164087,15466.624852016552,3946.2228353289174,34601.6180040381,51181.27032295112,0.0,0.0,0.0,193.0,0.0,193.0,0.0,0.0,0.0,179.0,193.0,0.0,179.0,1744418669.8717344,0.0,2025-04-11 20:44:29.871,BACKWARD,18
215.0,5676.426670125326,-12949.416094948781,-24827.28956071014,-24185.570977398274,15296.706890667307,3945.1499515950627,34485.29952589268,51118.84190068745,0.0,0.0,0.0,193.0,0.0,192.0,0.0,0.0,0.0,178.0,192.0,0.0,178.0,1744418669.8717666,0.0,2025-04-11 20:44:29.871,BACKWARD,18
216.0,5692.452870899781,-12919.710626567678,-24824.227371719764,-24156.200785184003,15212.999607682183,4177.831611374809,34201.544130032555,51212.451006466275,0.0,0.0,0.0,193.0,0.0,192.0,0.0,0.0,0.0,178.0,192.0,0.0,178.0,1744418669.8717988,0.0,2025-04-11 20:44:29.871,BACKWARD,18
217.0,5684.026263240131,-12941.011839033585,-24786.76584801267,-24166.370828911167,15377.419039895422,4194.036626104907,34226.53338033359,51242.06706786955,0.0,0.0,0.0,193.0,0.0,193.0,0.0,0.0,0.0,179.0,193.0,0.0,179.0,1744418669.8718305,0.0,2025-04-11 20:44:29.871,BACKWARD,18
218.0,5659.037012939098,-12975.724098172677,-24801.249778419708,-24214.181210301067,15479.052421933702,4032.9923073044192,34607.49651282984,51191.66388412284,0.0,0.0,0.0,193.0,0.0,192.0,0.0,0.0,0.0,178.0,192.0,0.0,178.0,1744418669.8719044,0.0,2025-04-11 20:44:29.871,BACKWARD,18
219.0,5680.338225405005,-12946.778589103054,-24815.420784404374,-24185.839198331738,15350.351077360045,3959.8573994466547,34525.711479867874,51087.996493339124,0.0,0.0,0.0,193.0,0.0,193.0,0.0,0.0,0.0,179.0,193.0,0.0,179.0,1744418669.8719552,0.0,2025-04-11 20:44:29.871,BACKWARD,18
220.0,5695.000969767687,-12919.487109123125,-24823.91444729739,-24155.68669506153,15251.176387211846,4182.525477710424,34255.34477893648,51180.39860491736,0.0,0.0,0.0,193.0,0.0,192.0,0.0,0.0,0.0,178.0,192.0,0.0,178.0,1744418669.8719873,0.0,2025-04-11 20:44:29.871,BACKWARD,18
221.0,5701.170051237351,-12918.190707944717,-24785.71531602327,-24156.513709606377,15310.855544907517,4193.991922615996,34179.43825476626,51221.324649015034,0.0,0.0,0.0,193.0,0.0,193.0,0.0,0.0,0.0,179.0,193.0,0.0,179.0,1744418669.8720183,0.0,2025-04-11 20:44:29.872,BACKWARD,18
222.0,5673.45388811277,-12957.328612485959,-24778.71922000876,-24198.579692671265,15456.432456544931,4038.1332085291397,34576.405236292514,51202.169204016835,0.0,0.0,0.0,193.0,0.0,193.0,0.0,0.0,0.0,179.0,193.0,0.0,179.0,1744418669.8720503,0.0,2025-04-11 20:44:29.872,BACKWARD,18
223.0,5676.851353269977,-12953.774685117565,-24815.063156493088,-24191.516541423385,15307.435728005854,3915.220965769406,34581.099102628126,51090.70105441822,0.0,0.0,0.0,193.0,0.0,192.0,0.0,0.0,0.0,178.0,192.0,0.0,178.0,1744418669.8720956,0.0,2025-04-11 20:44:29.872,BACKWARD,18
224.0,5669.743498533189,-12939.737789599632,-24832.609275890503,-24152.892727004615,15210.451508814278,4157.11154426474,34320.20954134578,51154.135305182375,0.0,0.0,0.0,193.0,0.0,193.0,0.0,0.0,0.0,179.0,193.0,0.0,179.0,1744418669.8721263,0.0,2025-04-11 20:44:29.872,BACKWARD,18
225.0,5662.792106007589,-12947.717362370178,-24803.596711587517,-24158.34655265171,15290.068422564082,4237.063734181373,34166.42953949327,51216.340210001494,0.0,0.0,0.0,193.0,0.0,192.0,0.0,0.0,0.0,178.0,192.0,0.0,178.0,1744418670.3477652,0.0,2025-04-11 20:44:30.347,BACKWARD,18
226.0,5648.554044789558,-12980.932054630764,-24788.82220850256,-24192.142390268134,15467.876549706049,4124.500349104446,34543.905799854496,51239.72013470175,0.0,0.0,0.0,193.0,0.0,192.0,0.0,0.0,0.0,179.0,192.0,0.0,179.0,1744418670.3479574,0.0,2025-04-11 20:44:30.347,BACKWARD,18
227.0,5639.479236540704,-12992.107926858418,-24815.465487893285,-24201.50777119491,15393.400537180965,3951.520198764825,34618.627681568585,51111.577583739476,0.0,0.0,0.0,193.0,0.0,193.0,0.0,0.0,0.0,179.0,193.0,0.0,179.0,1744418670.347992,0.0,2025-04-11 20:44:30.347,BACKWARD,18
228.0,5637.087599883986,-12971.052583581519,-24845.72974988577,-24176.49616914942,15246.97425925425,4132.010535241429,34382.74972233173,51147.586244056976,0.0,0.0,0.0,193.0,0.0,192.0,0.0,0.0,0.0,178.0,192.0,0.0,178.0,1744418670.348024,0.0,2025-04-11 20:44:30.348,BACKWARD,18
229.0,5654.901940214866,-12953.484112439646,-24816.806592560602,-24152.892727004615,15245.364933653467,4251.190036677127,34160.64043767934,51226.93493687331,0.0,0.0,0.0,193.0,0.0,193.0,0.0,0.0,0.0,179.0,193.0,0.0,179.0,1744418670.348056,0.0,2025-04-11 20:44:30.348,BACKWARD,18
230.0,5624.347105544461,-12999.52870601758,-24781.55789155458,-24180.295965706824,15450.665706475462,4151.2553872174485,34480.270383390234,51247.4985417722,0.0,0.0,0.0,193.0,0.0,193.0,0.0,0.0,0.0,178.0,193.0,0.0,178.0,1744418670.3480875,0.0,2025-04-11 20:44:30.348,BACKWARD,18
231.0,5595.088672052464,-13038.711314047732,-24818.81824956158,-24219.925608626083,15378.246054440267,3921.1441780500627,34668.539126937285,51135.35983983992,0.0,0.0,0.0,193.0,0.0,193.0,0.0,0.0,0.0,179.0,193.0,0.0,179.0,1744418670.348119,0.0,2025-04-11 20:44:30.348,BACKWARD,18
232.0,5589.947770827744,-13027.20016565325,-24835.42559569187,-24178.373715683665,15219.593372296498,4027.4043711905924,34458.96917092433,51132.945851438744,0.0,0.0,0.0,193.0,0.0,193.0,0.0,0.0,0.0,178.0,193.0,0.0,178.0,1744418670.3481505,0.0,2025-04-11 20:44:30.348,BACKWARD,18
233.0,5586.997340559643,-13019.511165560623,-24807.57532210056,-24158.458311373986,15250.505834878188,4189.789794658398,34201.58883352147,51219.648268180885,0.0,0.0,0.0,193.0,0.0,192.0,0.0,0.0,0.0,178.0,192.0,0.0,178.0,1744418670.348182,0.0,2025-04-11 20:44:30.348,BACKWARD,18
234.0,5545.62426157287,-13073.512980164645,-24773.71242925077,-24180.228910473455,15478.963014955882,4150.718945350522,34416.23263552578,51241.6423847249,0.0,0.0,0.0,193.0,0.0,193.0,0.0,0.0,0.0,179.0,193.0,0.0,179.0,1744418670.3483336,0.0,2025-04-11 20:44:30.348,BACKWARD,18
235.0,5521.752598494601,-13112.06973935005,-24803.552008098606,-24206.402803230623,15466.826017716648,3962.6960709924783,34678.66446717554,51141.32775560948,0.0,0.0,0.0,193.0,0.0,192.0,0.0,0.0,0.0,178.0,192.0,0.0,178.0,1744418670.3483665,0.0,2025-04-11 20:44:30.348,BACKWARD,18
236.0,5536.728267279657,-13081.291387235093,-24814.72788032626,-24159.084160218736,15314.476527509276,4047.7891621338326,34501.83981678961,51095.43962424274,0.0,0.0,0.0,193.0,0.0,192.0,0.0,0.0,0.0,178.0,192.0,0.0,178.0,1744418670.3483975,0.0,2025-04-11 20:44:30.348,BACKWARD,18
237.0,5526.71468576368,-13075.323471465526,-24814.81728730408,-24139.906363476082,15217.87228797344,4260.533065859445,34231.71898504722,51198.28000048161,0.0,0.0,0.0,193.0,0.0,193.0,0.0,0.0,0.0,179.0,193.0,0.0,179.0,1744418670.3484356,0.0,2025-04-11 20:44:30.348,BACKWARD,18
238.0,5509.436787299727,-13103.6431316904,-24781.2002636433,-24161.721666064463,15382.358775420043,4205.681884966121,34342.51658231218,51233.483997998715,0.0,0.0,0.0,193.0,0.0,192.0,0.0,0.0,0.0,178.0,192.0,0.0,178.0,1744418670.3484886,0.0,2025-04-11 20:44:30.348,BACKWARD,18
239.0,5484.380481765328,-13139.78590247463,-24798.18758942933,-24214.56118995681,15429.811528898661,3974.9448269539866,34696.076476106224,51175.63768334838,0.0,0.0,0.0,193.0,0.0,192.0,0.0,0.0,0.0,178.0,192.0,0.0,178.0,1744418670.34852,0.0,2025-04-11 20:44:30.348,BACKWARD,18
240.0,5480.737147419113,-13127.335980813024,-24817.365386171983,-24184.207520986503,15314.096547853536,3954.269463332828,34583.7142567294,51101.74281617914,0.0,0.0,0.0,193.0,0.0,193.0,0.0,0.0,0.0,179.0,193.0,0.0,179.0,1744418670.3485515,0.0,2025-04-11 20:44:30.348,BACKWARD,18
241.0,5500.13846160632,-13087.68398614931,-24803.261435420685,-24137.224154141448,15230.344561379501,4207.045341377895,34299.578881213536,51189.47341316622,0.0,0.0,0.0,193.0,0.0,192.0,0.0,0.0,0.0,178.0,192.0,0.0,178.0,1744418670.3485875,0.0,2025-04-11 20:44:30.348,BACKWARD,18
242.0,5506.4863570316265,-13097.094070564995,-24758.0438563876,-24136.911229719073,15326.032379392671,4217.640068249711,34290.01233458666,51214.64147742289,0.0,0.0,0.0,193.0,0.0,193.0,0.0,0.0,0.0,179.0,193.0,0.0,179.0,1744418670.3486185,0.0,2025-04-11 20:44:30.348,BACKWARD,18
243.0,5474.188086293708,-13150.090056668527,-24779.233310131232,-24188.78962859984,15453.660840232473,4037.485007939936,34692.20962431546,51187.68527360979,0.0,0.0,0.0,193.0,0.0,193.0,0.0,0.0,0.0,179.0,193.0,0.0,179.0,1744418670.3486495,0.0,2025-04-11 20:44:30.348,BACKWARD,18
244.0,5468.220170524141,-13142.64692576491,-24819.935836784345,-24178.574881383764,15320.109167112014,3952.6601377320458,34638.99012076737,51086.320112504975,0.0,0.0,0.0,193.0,0.0,192.0,0.0,0.0,0.0,178.0,192.0,0.0,178.0,1744418670.3486805,0.0,2025-04-11 20:44:30.348,BACKWARD,18
245.0,5460.709984387157,-13135.941402428318,-24842.511098684205,-24160.514671863875,15207.3893198239,4183.821878888832,34373.60785884951,51174.09541298097,0.0,0.0,0.0,193.0,0.0,192.0,0.0,0.0,0.0,178.0,192.0,0.0,178.0,1744418670.3487115,0.0,2025-04-11 20:44:30.348,BACKWARD,18
246.0,5478.501972973582,-13128.475919780245,-24794.365441127473,-24152.62450607115,15303.032434348159,4231.833425978831,34274.92490707933,51221.950497859776,0.0,0.0,0.0,193.0,0.0,193.0,0.0,0.0,0.0,179.0,193.0,0.0,179.0,1744418670.3487425,0.0,2025-04-11 20:44:30.348,BACKWARD,18
247.0,5449.042373781487,-13170.966585989785,-24795.125400438956,-24205.352271241223,15416.556944436663,4073.0466333683294,34675.80344388526,51213.054503566564,0.0,0.0,0.0,193.0,0.0,192.0,0.0,0.0,0.0,178.0,192.0,0.0,178.0,1744418670.3487737,0.0,2025-04-11 20:44:30.348,BACKWARD,18
248.0,5447.7906760919905,-13168.351431888514,-24820.8075548181,-24208.347404998232,15328.401664304933,3900.2452969843507,34690.60029871468,51087.57181019447,0.0,0.0,0.0,193.0,0.0,192.0,0.0,0.0,0.0,178.0,192.0,0.0,178.0,1744418670.3488047,0.0,2025-04-11 20:44:30.348,BACKWARD,18
249.0,5458.698327386181,-13136.142568128416,-24828.8094793331,-24164.247413187913,15248.695343577308,4150.048393016862,34425.44155424137,51145.395773100354,0.0,0.0,0.0,193.0,0.0,193.0,0.0,0.0,0.0,179.0,193.0,0.0,179.0,1744418670.3489568,0.0,2025-04-11 20:44:30.348,BACKWARD,18
250.0,5472.578760692926,-13129.258230836182,-24785.827074745546,-24146.567183323765,15295.254027277713,4251.190036677127,34242.33606366349,51207.131291285914,0.0,0.0,0.0,193.0,0.0,192.0,0.0,0.0,0.0,178.0,192.0,0.0,178.0,1744418670.3489892,0.0,2025-04-11 20:44:30.348,BACKWARD,18
251.0,5443.655603367759,-13186.098716986027,-24771.030219916134,-24178.194901728024,15480.907616723493,4142.717020835522,34603.07086742769,51210.8863843544,0.0,0.0,0.0,193.0,0.0,192.0,0.0,0.0,0.0,178.0,192.0,0.0,178.0,1744418670.3490207,0.0,2025-04-11 20:44:30.349,BACKWARD,18
252.0,5441.129856244309,-13186.724565830777,-24802.210903431285,-24188.141428010636,15411.639560656497,3959.835047702199,34716.17069437155,51090.030502084555,0.0,0.0,0.0,193.0,0.0,192.0,0.0,0.0,0.0,179.0,192.0,0.0,179.0,1744418670.3490536,0.0,2025-04-11 20:44:30.349,BACKWARD,18
253.0,5467.527266446026,-13137.50602454019,-24814.616121603984,-24139.30286637579,15284.771059128174,4151.702422106555,34487.22177591584,51133.21407237221,0.0,0.0,0.0,193.0,0.0,193.0,0.0,0.0,0.0,178.0,193.0,0.0,178.0,1744418670.3491185,0.0,2025-04-11 20:44:30.349,BACKWARD,18
254.0,5491.309522546473,-13099.955093855275,-24783.368382855464,-24120.639159755607,15256.87608204795,4284.717653360088,34255.791813825585,51212.40630297736,0.0,0.0,0.0,193.0,0.0,193.0,0.0,0.0,0.0,179.0,193.0,0.0,179.0,1744418670.3491557,0.0,2025-04-11 20:44:30.349,BACKWARD,18
255.0,5461.2911297429955,-13146.64788802241,-24774.293574606607,-24166.63904984463,15441.680305204429,4184.984169600507,34559.5073174843,51238.0437538676,0.0,0.0,0.0,193.0,0.0,193.0,0.0,0.0,0.0,179.0,193.0,0.0,179.0,1744418670.3491907,0.0,2025-04-11 20:44:30.349,BACKWARD,18
0.0,5451.501065671571,-13177.672109326377,-24805.76483079968,-24197.59621591523,15403.414118696943,3955.5658645112358,34759.93541001504,51115.64560123034,0.0,0.0,0.0,193.0,0.0,192.0,0.0,0.0,0.0,178.0,192.0,0.0,178.0,1744418670.349228,0.0,2025-04-11 20:44:30.349,BACKWARD,18
1.0,5462.341661732396,-13151.274699124659,-24817.320682683076,-24157.96657299597,15281.015966059682,4058.2497785389164,34559.19439306192,51102.25690630161,0.0,0.0,0.0,193.0,0.0,192.0,0.0,0.0,0.0,178.0,192.0,0.0,178.0,1744418670.3492625,0.0,2025-04-11 20:44:30.349,BACKWARD,18
2.0,5479.820725896446,-13123.379722044436,-24792.979632971244,-24122.53905803431,15246.63898308742,4248.597234320311,34290.66053517587,51186.47827940921,0.0,0.0,0.0,193.0,0.0,193.0,0.0,0.0,0.0,179.0,193.0,0.0,179.0,1744418670.3493004,0.0,2025-04-11 20:44:30.349,BACKWARD,18
3.0,5459.726507631124,-13165.155132431404,-24764.414103557363,-24155.083197961238,15405.04579604218,4200.07159710784,34487.35588638257,51210.93108784331,0.0,0.0,0.0,193.0,0.0,193.0,0.0,0.0,0.0,178.0,193.0,0.0,178.0,1744418670.3493364,0.0,2025-04-11 20:44:30.349,BACKWARD,18
4.0,5447.298937713974,-13184.757612318708,-24792.577301571047,-24199.630224660665,15407.705653632362,3967.7922687282885,34771.5583171318,51128.341392080954,0.0,0.0,0.0,193.0,0.0,192.0,0.0,0.0,0.0,179.0,192.0,0.0,179.0,1744418670.3493717,0.0,2025-04-11 20:44:30.349,BACKWARD,18
5.0,5463.9286355887225,-13137.975411173751,-24812.135077969444,-24162.72749456495,15264.54273039612,4031.092409025718,34622.15925719253,51090.58929569594,0.0,0.0,0.0,193.0,0.0,192.0,0.0,0.0,0.0,179.0,192.0,0.0,179.0,1744418670.3494077,0.0,2025-04-11 20:44:30.349,BACKWARD,18
6.0,5481.586513708415,-13112.807346917076,-24804.043746476622,-24138.051168686292,15224.421349098844,4230.894652711708,34343.41065209039,51188.46758466573,0.0,0.0,0.0,193.0,0.0,193.0,0.0,0.0,0.0,179.0,193.0,0.0,179.0,1744418670.349441,0.0,2025-04-11 20:44:30.349,BACKWARD,18
7.0,5482.748804420091,-13134.913222183373,-24769.555004782083,-24149.808186269784,15396.552133149164,4198.68578895161,34434.494010745766,51226.063218839554,0.0,0.0,0.0,193.0,0.0,192.0,0.0,0.0,0.0,179.0,192.0,0.0,179.0,1744418670.349477,0.0,2025-04-11 20:44:30.349,BACKWARD,18
8.0,5461.626405909826,-13174.453458124812,-24796.220635917263,-24204.4134979741,15438.48400574732,4018.6201356196566,34793.88770984265,51164.55121809855,0.0,0.0,0.0,193.0,0.0,192.0,0.0,0.0,0.0,178.0,192.0,0.0,178.0,1744418670.349661,0.0,2025-04-11 20:44:30.349,BACKWARD,18
9.0,5474.232789782619,-13145.999687433206,-24812.760926814193,-24169.991811512926,15309.805012918117,4010.1711762155505,34678.57506019772,51078.4075949678,0.0,0.0,0.0,193.0,0.0,193.0,0.0,0.0,0.0,179.0,193.0,0.0,179.0,1744418670.349697,0.0,2025-04-11 20:44:30.349,BACKWARD,18
10.0,5493.678807458736,-13110.169841071349,-24812.917389025377,-24136.3971395966,15201.130831376415,4245.1103621852835,34386.43776016686,51171.949645513254,0.0,0.0,0.0,193.0,0.0,192.0,0.0,0.0,0.0,178.0,192.0,0.0,178.0,1744418670.3497777,0.0,2025-04-11 20:44:30.349,BACKWARD,18
11.0,5511.694313489713,-13104.716015424254,-24762.42479830084,-24130.898610460594,15314.70004495383,4250.228911665548,34360.532088343156,51206.907773841354,0.0,0.0,0.0,193.0,0.0,193.0,0.0,0.0,0.0,178.0,193.0,0.0,178.0,1744418670.3498127,0.0,2025-04-11 20:44:30.349,BACKWARD,18
12.0,5482.413528253261,-13146.558481044589,-24783.077810177543,-24185.526273909363,15433.499566733786,4079.908618916109,34770.84306130923,51186.41122417584,0.0,0.0,0.0,193.0,0.0,193.0,0.0,0.0,0.0,179.0,193.0,0.0,179.0,1744418670.3498905,0.0,2025-04-11 20:44:30.349,BACKWARD,18
13.0,5493.790566181013,-13126.598373245999,-24804.893112765923,-24178.48547440594,15322.32198981309,3968.5075245508583,34729.96172070047,51077.5582286785,0.0,0.0,0.0,193.0,0.0,192.0,0.0,0.0,0.0,178.0,192.0,0.0,178.0,1744418670.3499267,0.0,2025-04-11 20:44:30.349,BACKWARD,18
14.0,5508.162737865775,-13096.870553120441,-24815.15256347091,-24146.07544494575,15228.310552634068,4186.459384734558,34452.97890341031,51149.530845824585,0.0,0.0,0.0,193.0,0.0,193.0,0.0,0.0,0.0,179.0,193.0,0.0,179.0,1744418670.349969,0.0,2025-04-11 20:44:30.349,BACKWARD,18
15.0,5529.799226498512,-13076.619872643932,-24776.90872870788,-24135.994808196403,15291.476582464766,4226.804283476386,34334.49230605272,51195.396625446876,0.0,0.0,0.0,193.0,0.0,192.0,0.0,0.0,0.0,178.0,192.0,0.0,178.0,1744418670.350019,0.0,2025-04-11 20:44:30.350,BACKWARD,18
16.0,5506.464005287172,-13116.495384752201,-24777.28870836362,-24187.40382044361,15446.061247117668,4070.856162411709,34729.090002666715,51192.84852657897,0.0,0.0,0.0,193.0,0.0,192.0,0.0,0.0,0.0,178.0,192.0,0.0,178.0,1744418670.3500724,0.0,2025-04-11 20:44:30.350,BACKWARD,18
17.0,5516.991676925621,-13105.07364333554,-24795.728897539248,-24170.818826057774,15346.797149991651,3940.8584166596434,34766.1044914847,51076.01595831108,0.0,0.0,0.0,193.0,0.0,193.0,0.0,0.0,0.0,179.0,193.0,0.0,179.0,1744418670.3501112,0.0,2025-04-11 20:44:30.350,BACKWARD,18
18.0,5534.828369000956,-13064.616985871433,-24811.978615758257,-24135.033683184825,15232.333866636023,4178.569218941834,34521.93403505493,51143.83115098848,0.0,0.0,0.0,193.0,0.0,193.0,0.0,0.0,0.0,179.0,193.0,0.0,179.0,1744418670.350149,0.0,2025-04-11 20:44:30.350,BACKWARD,18
19.0,5545.423095872771,-13051.608270598445,-24785.804723001092,-24133.133784906124,15268.92367230936,4256.979138491051,34337.33097759855,51216.071989068034,0.0,0.0,0.0,193.0,0.0,192.0,0.0,0.0,0.0,178.0,192.0,0.0,178.0,1744418670.3501818,0.0,2025-04-11 20:44:30.350,BACKWARD,18
20.0,5523.339572350928,-13102.547896212089,-24770.67259200485,-24168.896576034615,15446.888261662516,4157.223302987016,34686.46522599045,51221.726980415224,0.0,0.0,0.0,193.0,0.0,193.0,0.0,0.0,0.0,179.0,193.0,0.0,179.0,1744418670.350224,0.0,2025-04-11 20:44:30.350,BACKWARD,18
21.0,5526.602927041403,-13109.298123037592,-24801.741516797723,-24184.11811400868,15384.750412076763,3984.7348910254113,34808.34928850523,51094.16557480879,0.0,0.0,0.0,193.0,0.0,192.0,0.0,0.0,0.0,178.0,192.0,0.0,178.0,1744418670.350268,0.0,2025-04-11 20:44:30.350,BACKWARD,18
22.0,5537.622337057869,-13070.607253385455,-24819.91348503989,-24145.20372691199,15261.726410594752,4158.564407654334,34580.182681105456,51109.945906394234,0.0,0.0,0.0,193.0,0.0,192.0,0.0,0.0,0.0,178.0,192.0,0.0,178.0,1744418670.3503134,0.0,2025-04-11 20:44:30.350,BACKWARD,18
23.0,5573.318072952995,-13025.613191796923,-24775.277051362642,-24105.48467701491,15265.012117029682,4289.299760973426,34326.132753626436,51179.9292182838,0.0,0.0,0.0,193.0,0.0,193.0,0.0,0.0,0.0,179.0,193.0,0.0,179.0,1744418670.350355,0.0,2025-04-11 20:44:30.350,BACKWARD,18
24.0,5558.00712800111,-13057.509131134646,-24755.406350541874,-24138.811127997775,15443.58020348313,4199.691617452099,34598.51111155881,51200.984561560705,0.0,0.0,0.0,193.0,0.0,193.0,0.0,0.0,0.0,179.0,193.0,0.0,179.0,1744418670.3514016,0.0,2025-04-11 20:44:30.351,BACKWARD,18
25.0,5548.462933118693,-13079.145619767383,-24795.483028350238,-24183.112285508192,15390.13718249049,3973.2684461198387,34811.18796005106,51090.67870267376,0.0,0.0,0.0,193.0,0.0,192.0,0.0,0.0,0.0,178.0,192.0,0.0,178.0,1744418670.3515828,0.0,2025-04-11 20:44:30.351,BACKWARD,18
26.0,5556.531912867059,-13054.513997377635,-24822.77450833017,-24146.63423855713,15242.794483041107,4077.159354348106,34623.05332697074,51083.86142061489,0.0,0.0,0.0,193.0,0.0,193.0,0.0,0.0,0.0,178.0,193.0,0.0,178.0,1744418670.351627,0.0,2025-04-11 20:44:30.351,BACKWARD,18
27.0,5589.0760527939865,-13016.694845759255,-24795.43832486133,-24106.24463632639,15192.39129929439,4257.135600702239,34342.96361720128,51172.597846102464,0.0,0.0,0.0,193.0,0.0,193.0,0.0,0.0,0.0,178.0,193.0,0.0,178.0,1744418670.3516624,0.0,2025-04-11 20:44:30.351,BACKWARD,18
28.0,5596.988570331165,-13024.6744185298,-24743.917553891846,-24124.371901079645,15404.554057664163,4204.586649487812,34510.71345933837,51188.80286083256,0.0,0.0,0.0,193.0,0.0,193.0,0.0,0.0,0.0,179.0,193.0,0.0,179.0,1744418670.3518226,0.0,2025-04-11 20:44:30.351,BACKWARD,18
29.0,5581.521163168092,-13047.763770552132,-24770.024391415645,-24165.566166110777,15404.844630342082,3986.880658493121,34817.714669432,51104.82735691397,0.0,0.0,0.0,193.0,0.0,192.0,0.0,0.0,0.0,178.0,192.0,0.0,178.0,1744418670.3519447,0.0,2025-04-11 20:44:30.351,BACKWARD,18
30.0,5573.362776441905,-13034.330372134493,-24808.58115060105,-24155.10554970569,15274.958643312293,4003.9573912569754,34678.37389449762,51056.16760923477,0.0,0.0,0.0,193.0,0.0,192.0,0.0,0.0,0.0,178.0,192.0,0.0,178.0,1744418670.3519776,0.0,2025-04-11 20:44:30.351,BACKWARD,18
31.0,5588.450203949238,-13006.837726454465,-24804.513133110184,-24127.16586913656,15217.58171529552,4220.568146773356,34397.90420507243,51161.46667736372,0.0,0.0,0.0,193.0,0.0,193.0,0.0,0.0,0.0,179.0,193.0,0.0,179.0,1744418670.3520095,0.0,2025-04-11 20:44:30.352,BACKWARD,18
32.0,5580.671796878791,-13033.458654100736,-24772.90776645038,-24140.040473942816,15368.94772874686,4231.676963767643,34469.98858094079,51203.42090170633,0.0,0.0,0.0,193.0,0.0,193.0,0.0,0.0,0.0,178.0,193.0,0.0,178.0,1744418670.352042,0.0,2025-04-11 20:44:30.352,BACKWARD,18
33.0,5585.633884147869,-13045.461540873235,-24773.690077506315,-24171.93641328054,15439.065151103157,4043.519978942869,34820.0168991109,51129.30251709253,0.0,0.0,0.0,193.0,0.0,192.0,0.0,0.0,0.0,178.0,192.0,0.0,178.0,1744418670.3520744,0.0,2025-04-11 20:44:30.352,BACKWARD,18
34.0,5594.708692396724,-13025.38967435237,-24804.20020868781,-24150.97047698146,15302.786565159151,4012.0263710053414,34733.40388934659,51045.30466142949,0.0,0.0,0.0,193.0,0.0,193.0,0.0,0.0,0.0,179.0,193.0,0.0,179.0,1744418670.3521063,0.0,2025-04-11 20:44:30.352,BACKWARD,18
35.0,5606.666875680313,-12995.483040271169,-24819.689967595335,-24127.21057262547,15180.47781949971,4251.03357446594,34459.6844267469,51148.189741157265,0.0,0.0,0.0,193.0,0.0,193.0,0.0,0.0,0.0,179.0,193.0,0.0,179.0,1744418670.3521376,0.0,2025-04-11 20:44:30.352,BACKWARD,18
36.0,5607.516241969614,-12990.252732068628,-24787.27993813514,-24143.750863522397,15296.036338333648,4265.562208361889,34430.69421418836,51203.68912263979,0.0,0.0,0.0,193.0,0.0,192.0,0.0,0.0,0.0,178.0,192.0,0.0,178.0,1744418670.3521683,0.0,2025-04-11 20:44:30.352,BACKWARD,18
37.0,5586.930285326277,-13029.122415676406,-24791.593824815016,-24200.30077699432,15467.161293883479,4069.3809472776593,34819.01107061042,51178.56576187203,0.0,0.0,0.0,193.0,0.0,192.0,0.0,0.0,0.0,178.0,192.0,0.0,178.0,1744418670.3521996,0.0,2025-04-11 20:44:30.352,BACKWARD,18
38.0,5595.222782519196,-13034.688000045777,-24818.684139094847,-24186.286233220846,15329.69806548334,3957.4434110454813,34780.00727653591,51067.87992332935,0.0,0.0,0.0,193.0,0.0,193.0,0.0,0.0,0.0,179.0,193.0,0.0,179.0,1744418670.3522313,0.0,2025-04-11 20:44:30.352,BACKWARD,18
39.0,5622.648372965858,-12987.52581924508,-24814.414955903885,-24126.227095869435,15208.216334368746,4189.141594069194,34494.53079635272,51138.913767208316,0.0,0.0,0.0,193.0,0.0,193.0,0.0,0.0,0.0,179.0,193.0,0.0,179.0,1744418670.352285,0.0,2025-04-11 20:44:30.352,BACKWARD,18
40.0,5640.999155163665,-12977.445182495736,-24771.47725480524,-24105.32821480372,15287.319157996079,4265.405746150702,34372.825547793575,51213.36742798894,0.0,0.0,0.0,193.0,0.0,192.0,0.0,0.0,0.0,178.0,192.0,0.0,178.0,1744418670.3523164,0.0,2025-04-11 20:44:30.352,BACKWARD,18
41.0,5610.801948404544,-13024.048569685052,-24777.176949641344,-24161.63225908664,15462.95916592588,4123.472168859502,34768.943163030526,51221.950497859776,0.0,0.0,0.0,193.0,0.0,193.0,0.0,0.0,0.0,179.0,193.0,0.0,179.0,1744418670.3523474,0.0,2025-04-11 20:44:30.352,BACKWARD,18
42.0,5606.890393124866,-13022.372188850903,-24810.704566324304,-24174.484512148443,15350.686353526873,3928.7214194204116,34812.216140296005,51090.186964295746,0.0,0.0,0.0,193.0,0.0,193.0,0.0,0.0,0.0,179.0,193.0,0.0,179.0,1744418670.3523788,0.0,2025-04-11 20:44:30.352,BACKWARD,18
43.0,5611.651314693847,-13005.183697364771,-24827.401319432418,-24141.2474681434,15218.475785073733,4115.604354811234,34562.4577477524,51142.78061899908,0.0,0.0,0.0,193.0,0.0,192.0,0.0,0.0,0.0,178.0,192.0,0.0,178.0,1744418670.3524244,0.0,2025-04-11 20:44:30.352,BACKWARD,18
44.0,5646.050649410564,-12974.539455716545,-24787.99519395771,-24118.135764376613,15249.678820333342,4232.593385290312,34357.40284411942,51211.4898814547,0.0,0.0,0.0,193.0,0.0,192.0,0.0,0.0,0.0,178.0,192.0,0.0,178.0,1744418670.352456,0.0,2025-04-11 20:44:30.352,BACKWARD,18
45.0,5621.307268298539,-13019.600572538446,-24776.52874905214,-24166.303773677802,15418.233325270812,4151.858884317742,34704.25721457687,51224.18567230531,0.0,0.0,0.0,193.0,0.0,193.0,0.0,0.0,0.0,179.0,193.0,0.0,179.0,1744418670.352487,0.0,2025-04-11 20:44:30.352,BACKWARD,18
46.0,5626.694038712268,-13006.748319476643,-24795.81830451707,-24181.659422118595,15359.314126886622,3942.646556216068,34835.618416740705,51101.92163013478,0.0,0.0,0.0,193.0,0.0,192.0,0.0,0.0,0.0,178.0,192.0,0.0,178.0,1744418670.352518,0.0,2025-04-11 20:44:30.352,BACKWARD,18
47.0,5643.949585431765,-12966.157551545806,-24808.58115060105,-24134.452537828987,15246.393113898412,4115.939630978064,34626.450792127944,51132.945851438744,0.0,0.0,0.0,193.0,0.0,192.0,0.0,0.0,0.0,178.0,192.0,0.0,178.0,1744418670.352549,0.0,2025-04-11 20:44:30.352,BACKWARD,18
48.0,5657.5170943161365,-12948.879653081853,-24786.09529567901,-24119.789793466305,15225.87421248844,4247.703164542099,34377.51941412919,51214.28384951161,0.0,0.0,0.0,193.0,0.0,193.0,0.0,0.0,0.0,178.0,193.0,0.0,178.0,1744418670.352584,0.0,2025-04-11 20:44:30.352,BACKWARD,18
49.0,5626.537576501081,-12998.85815368392,-24774.76296124017,-24160.64878233061,15381.308243430645,4178.815088130843,34650.25539997285,51247.83381793903,0.0,0.0,0.0,193.0,0.0,193.0,0.0,0.0,0.0,178.0,193.0,0.0,178.0,1744418670.352615,0.0,2025-04-11 20:44:30.352,BACKWARD,18
50.0,5622.916593899321,-13010.592819522957,-24805.563665099584,-24182.285270963344,15356.430751851887,3989.138184683107,34889.37436215572,51148.07798243499,0.0,0.0,0.0,193.0,0.0,193.0,0.0,0.0,0.0,178.0,193.0,0.0,178.0,1744418670.3526464,0.0,2025-04-11 20:44:30.352,BACKWARD,18
51.0,5635.411219049838,-12994.14193560385,-24820.271112951174,-24138.2970378753,15253.322154679556,4094.1466801341394,34708.593453001195,51132.16354038281,0.0,0.0,0.0,193.0,0.0,193.0,0.0,0.0,0.0,179.0,193.0,0.0,179.0,1744418670.352677,0.0,2025-04-11 20:44:30.352,BACKWARD,18
52.0,5659.931082717309,-12963.542397444535,-24796.533560339638,-24106.646967726585,15193.777107450618,4262.969406005073,34421.060612328125,51218.865957124945,0.0,0.0,0.0,193.0,0.0,192.0,0.0,0.0,0.0,179.0,192.0,0.0,179.0,1744418670.3527508,0.0,2025-04-11 20:44:30.352,BACKWARD,18
53.0,5645.245986610173,-12995.550095504535,-24756.881565675925,-24127.188220881013,15366.332574645588,4219.294097339403,34588.22930910937,51247.02915513863,0.0,0.0,0.0,193.0,0.0,192.0,0.0,0.0,0.0,178.0,192.0,0.0,178.0,1744418670.352795,0.0,2025-04-11 20:44:30.352,BACKWARD,18
54.0,5624.570622989014,-13023.623886540401,-24785.67061253436,-24178.708991850497,15436.070017346146,3996.558963842269,34896.75043782598,51156.61634881692,0.0,0.0,0.0,193.0,0.0,193.0,0.0,0.0,0.0,179.0,193.0,0.0,179.0,1744418670.3528616,0.0,2025-04-11 20:44:30.352,BACKWARD,18
55.0,5638.182835362296,-12989.112793101407,-24806.9047697669,-24148.802357769295,15309.3132745401,4026.644411879112,34758.19197394753,51098.85944114441,0.0,0.0,0.0,193.0,0.0,192.0,0.0,0.0,0.0,178.0,192.0,0.0,178.0,1744418670.352898,0.0,2025-04-11 20:44:30.352,BACKWARD,18
56.0,5658.433515838804,-12958.736772386645,-24804.222560432263,-24116.68290098702,15200.795555209585,4241.154103416694,34475.84473798809,51196.87184058093,0.0,0.0,0.0,193.0,0.0,193.0,0.0,0.0,0.0,179.0,193.0,0.0,179.0,1744418670.3529332,0.0,2025-04-11 20:44:30.352,BACKWARD,18
57.0,5663.440306596793,-12964.592929433935,-24755.22753658623,-24117.956950420972,15371.160551447934,4223.764446230465,34522.291662966214,51228.43250375182,0.0,0.0,0.0,193.0,0.0,193.0,0.0,0.0,0.0,179.0,193.0,0.0,179.0,1744418670.352968,0.0,2025-04-11 20:44:30.352,BACKWARD,18
58.0,5626.783445690089,-13017.298342859549,-24780.57441479855,-24178.843102317227,15461.953337425393,4031.807664848288,34913.84952233428,51185.07011950852,0.0,0.0,0.0,193.0,0.0,193.0,0.0,0.0,0.0,178.0,193.0,0.0,178.0,1744418670.3530188,0.0,2025-04-11 20:44:30.353,BACKWARD,18
59.0,5630.49383526967,-13011.308075345527,-24807.396508144917,-24155.463177616977,15321.919658412893,3975.7271380099223,34832.958559150524,51092.265676530085,0.0,0.0,0.0,193.0,0.0,192.0,0.0,0.0,0.0,178.0,192.0,0.0,178.0,1744418670.3530543,0.0,2025-04-11 20:44:30.353,BACKWARD,18
60.0,5648.464637811737,-12975.433525494758,-24807.687080822838,-24115.922941675537,15213.468994315745,4204.877222165731,34545.403366733,51175.79414555957,0.0,0.0,0.0,193.0,0.0,193.0,0.0,0.0,0.0,179.0,193.0,0.0,179.0,1744418670.35309,0.0,2025-04-11 20:44:30.353,BACKWARD,18
61.0,5659.931082717309,-12968.28096726906,-24766.20224311379,-24116.88406668712,15321.874954923984,4217.014219404962,34496.96713649835,51224.409189749866,0.0,0.0,0.0,193.0,0.0,192.0,0.0,0.0,0.0,178.0,192.0,0.0,178.0,1744418670.3531249,0.0,2025-04-11 20:44:30.353,BACKWARD,18
62.0,5635.344163816472,-13015.286685858571,-24779.680345020337,-24175.333878437745,15445.457750017376,4029.907766569587,34889.66493483364,51199.77756736011,0.0,0.0,0.0,193.0,0.0,193.0,0.0,0.0,0.0,179.0,193.0,0.0,179.0,1744418670.35316,0.0,2025-04-11 20:44:30.353,BACKWARD,18
63.0,5636.126474872408,-13001.450956040735,-24817.34303442753,-24169.83534930174,15305.625236704975,3928.4084949980374,34874.46574860403,51083.749661892616,0.0,0.0,0.0,193.0,0.0,193.0,0.0,0.0,0.0,178.0,193.0,0.0,178.0,1744418670.3531945,0.0,2025-04-11 20:44:30.353,BACKWARD,18
64.0,5648.2411203671845,-12954.668754895778,-24831.35757820101,-24129.266933115356,15167.960842604738,4173.0930415502835,34614.09027744416,51156.90692149483,0.0,0.0,0.0,193.0,0.0,193.0,0.0,0.0,0.0,178.0,193.0,0.0,178.0,1744418670.3532295,0.0,2025-04-11 20:44:30.353,BACKWARD,18
65.0,5671.151658433874,-12940.900080311309,-24780.61911828746,-24113.10662187417,15247.711866821273,4247.74786803101,34472.84960423107,51218.75419840267,0.0,0.0,0.0,193.0,0.0,193.0,0.0,1.0,0.0,178.0,193.0,1.0,178.0,1744418670.3532643,0.0,2025-04-11 20:44:30.353,BACKWARD,18
66.0,5648.30817560055,-13003.104985130429,-24771.298440849598,-24162.168700953567,15414.366473480044,4106.350732606737,34854.37153033871,51219.20123329177,0.0,0.0,0.0,193.0,0.0,192.0,0.0,2.0,0.0,178.0,192.0,2.0,178.0,1744418670.3533003,0.0,2025-04-11 20:44:30.353,BACKWARD,18
67.0,5652.286786113595,-13004.155517119827,-24799.372231885463,-24172.49520689192,15331.46385329531,3916.0256285697974,34922.320833482845,51089.404653239806,0.0,0.0,0.0,193.0,0.0,193.0,0.0,3.0,0.0,179.0,193.0,3.0,179.0,1744418670.353336,0.0,2025-04-11 20:44:30.353,BACKWARD,18
68.0,5648.934024445299,-12985.67062445529,-24830.217639233786,-24150.992828725914,15207.657540757364,4091.129194632673,34687.135778324104,51139.13728465287,0.0,0.0,0.0,193.0,0.0,193.0,0.0,5.0,0.0,179.0,193.0,5.0,179.0,1744418670.3533716,0.0,2025-04-11 20:44:30.353,BACKWARD,18
69.0,5667.687138043301,-12963.47534221117,-24788.308118380086,-24125.511840046864,15243.01800048566,4217.5953647608,34466.524060550226,51201.94568657228,0.0,0.0,0.0,193.0,0.0,192.0,0.0,6.0,0.0,178.0,192.0,6.0,178.0,1744418670.3534217,0.0,2025-04-11 20:44:30.353,BACKWARD,18
70.0,5647.25764361115,-13000.601589751433,-24761.351914566985,-24149.696427547507,15440.987401126315,4175.0823468068065,34794.40179996512,51211.735750643704,0.0,0.0,0.0,193.0,0.0,193.0,0.0,7.0,0.0,179.0,193.0,7.0,179.0,1744418670.3534577,0.0,2025-04-11 20:44:30.353,BACKWARD,18
71.0,5640.596823763469,-13014.727892247189,-24795.9524149838,-24176.92085229407,15363.85153101105,3967.2781786058163,34964.72209271456,51099.01590335559,0.0,0.0,0.0,193.0,0.0,192.0,0.0,8.0,0.0,178.0,192.0,8.0,178.0,1744418670.3534932,0.0,2025-04-11 20:44:30.353,BACKWARD,18
72.0,5650.252777368161,-12978.719231929688,-24813.610293103495,-24138.4982035754,15233.674971303342,4100.315761603804,34759.53307861484,51115.73500820816,0.0,0.0,0.0,193.0,0.0,193.0,0.0,8.0,0.0,179.0,193.0,8.0,179.0,1744418670.3535287,0.0,2025-04-11 20:44:30.353,BACKWARD,18
73.0,5681.74638530569,-12947.382086203348,-24782.18374039933,-24106.736374704407,15239.799349284096,4247.390240119725,34489.859281761564,51191.17214574482,0.0,0.0,0.0,193.0,0.0,192.0,0.0,9.0,0.0,178.0,192.0,9.0,178.0,1744418670.353578,0.0,2025-04-11 20:44:30.353,BACKWARD,18
74.0,5662.456829840759,-12989.023386123585,-24759.653181988382,-24138.58761055322,15431.174985310434,4180.245599775983,34729.89466546711,51215.870823367935,0.0,0.0,0.0,193.0,0.0,193.0,0.0,10.0,0.0,179.0,193.0,10.0,179.0,1744418670.353614,0.0,2025-04-11 20:44:30.353,BACKWARD,18
75.0,5652.778524491611,-13005.38486306487,-24793.225502160254,-24179.267785461878,15402.76591810774,3972.486135063903,34982.82700572336,51107.62132497088,0.0,0.0,0.0,193.0,0.0,193.0,0.0,10.0,0.0,179.0,193.0,10.0,179.0,1744418670.3536496,0.0,2025-04-11 20:44:30.353,BACKWARD,18
76.0,5657.561797805047,-12988.844572167942,-24816.51601988268,-24152.62450607115,15266.979070541749,4055.254644781905,34811.70205017353,51074.4066327103,0.0,0.0,0.0,193.0,0.0,193.0,0.0,11.0,0.0,179.0,193.0,11.0,179.0,1744418670.3536923,0.0,2025-04-11 20:44:30.353,BACKWARD,18
77.0,5677.879533514922,-12950.578385660458,-24796.064173706076,-24112.994863151893,15205.176497122824,4251.927644244152,34522.559883899674,51162.49485760866,0.0,0.0,0.0,193.0,0.0,193.0,0.0,11.0,0.0,179.0,193.0,11.0,179.0,1744418670.3537536,0.0,2025-04-11 20:44:30.353,BACKWARD,18
78.0,5682.081661472519,-12951.204234505205,-24747.382074282417,-24118.515744032353,15377.75431606225,4215.382542059725,34660.179574511,51186.47827940921,0.0,0.0,0.0,193.0,0.0,193.0,0.0,12.0,0.0,178.0,193.0,12.0,178.0,1744418670.3537872,0.0,2025-04-11 20:44:30.353,BACKWARD,18
79.0,5646.296518599573,-12991.727947202677,-24778.495702564207,-24173.322221436767,15402.85532508556,4009.3665134151597,35011.57134909288,51116.29380181954,0.0,0.0,0.0,193.0,0.0,193.0,0.0,12.0,0.0,179.0,193.0,12.0,179.0,1744418670.3538191,0.0,2025-04-11 20:44:30.353,BACKWARD,18
80.0,5658.657033283357,-12971.030231837063,-24798.992252229724,-24139.571087309254,15235.641924815409,4005.7455308134,34875.15865268215,51044.85762654038,0.0,0.0,0.0,193.0,0.0,193.0,0.0,13.0,0.0,179.0,193.0,13.0,179.0,1744418670.353851,0.0,2025-04-11 20:44:30.353,BACKWARD,18
81.0,5688.898943531388,-12933.971039530164,-24794.499551594206,-24105.216456081445,15148.4254179508,4215.78487345992,34587.78227422026,51138.757304997125,0.0,0.0,0.0,193.0,0.0,192.0,0.0,13.0,0.0,179.0,192.0,13.0,179.0,1744418670.3538826,0.0,2025-04-11 20:44:30.353,BACKWARD,18
82.0,5695.760929079167,-12939.693086110723,-24757.70858022077,-24118.269874843347,15282.893512593928,4208.922887912141,34613.64324255505,51167.144020455366,0.0,0.0,0.0,193.0,0.0,193.0,0.0,13.0,0.0,179.0,193.0,13.0,179.0,1744418670.3539145,0.0,2025-04-11 20:44:30.353,BACKWARD,18
83.0,5658.254701883162,-12992.465554769702,-24779.166254897864,-24182.82171283027,15443.781369183227,4026.3091357122826,35002.720058288585,51127.33556358046,0.0,0.0,0.0,193.0,0.0,193.0,0.0,13.0,0.0,179.0,193.0,13.0,179.0,1744418670.3539457,0.0,2025-04-11 20:44:30.353,BACKWARD,18
84.0,5646.028297666108,-12998.969912406197,-24797.226464417752,-24153.853852016193,15352.429789594387,3983.2149724024503,34932.51322895446,51026.260975153564,0.0,0.0,0.0,193.0,0.0,193.0,0.0,14.0,0.0,178.0,193.0,14.0,178.0,1744418670.3539965,0.0,2025-04-11 20:44:30.353,BACKWARD,18
85.0,5636.662916739335,-12988.464592512202,-24801.026260975155,-24121.063842900257,15262.866349561973,4238.0695626818615,34664.96284782444,51114.148034351834,0.0,0.0,0.0,193.0,0.0,193.0,0.0,14.0,0.0,179.0,193.0,14.0,179.0,1744418670.3540292,0.0,2025-04-11 20:44:30.354,BACKWARD,18
86.0,5649.3587075899495,-12979.255673796615,-24758.222670343242,-24121.15324987808,15339.75635048823,4242.986946462029,34586.28470734176,51151.52015108111,0.0,0.0,0.0,193.0,0.0,193.0,0.0,14.0,0.0,179.0,193.0,14.0,179.0,1744418670.354061,0.0,2025-04-11 20:44:30.354,BACKWARD,18
87.0,5634.651259738357,-13004.267275842105,-24758.71440872126,-24159.665305574574,15474.358555598088,4084.2448573404386,34987.610279036795,51134.95750843972,0.0,0.0,0.0,193.0,0.0,193.0,0.0,14.0,0.0,179.0,193.0,14.0,179.0,1744418670.3540924,0.0,2025-04-11 20:44:30.354,BACKWARD,18
88.0,5642.3179080865275,-13001.272142085094,-24792.95728122679,-24153.473872360453,15351.692182027362,3966.607626272157,34995.45574134061,51021.85768149587,0.0,0.0,0.0,193.0,0.0,192.0,0.0,14.0,0.0,178.0,192.0,14.0,178.0,1744418670.354138,0.0,2025-04-11 20:44:30.354,BACKWARD,18
89.0,5647.570568033525,-12976.819333650987,-24813.565589614584,-24124.282494101823,15217.738177506708,4177.362224741248,34743.149249929105,51096.40074925432,0.0,0.0,0.0,193.0,0.0,193.0,0.0,15.0,0.0,179.0,193.0,15.0,179.0,1744418670.3541696,0.0,2025-04-11 20:44:30.354,BACKWARD,18
90.0,5672.515114845648,-12950.198406004716,-24774.673554262346,-24112.704290473976,15222.834375242517,4213.460292036569,34569.85617516711,51141.55127305404,0.0,0.0,0.0,193.0,0.0,193.0,0.0,15.0,0.0,179.0,193.0,15.0,179.0,1744418670.8285377,0.0,2025-04-11 20:44:30.828,BACKWARD,18
91.0,5645.760076732645,-13009.162307877818,-24771.007868171677,-24155.574936339253,15380.078897485602,4090.726863232477,34939.017586590955,51131.24711886014,0.0,0.0,0.0,193.0,0.0,193.0,0.0,15.0,0.0,178.0,193.0,15.0,178.0,1744418670.8286843,0.0,2025-04-11 20:44:30.828,BACKWARD,18
92.0,5642.586129019992,-13013.163270135317,-24801.830923775546,-24164.78385505484,15323.998370647238,3954.582387755202,35033.811334825914,51004.57978303192,0.0,0.0,0.0,193.0,0.0,193.0,0.0,15.0,0.0,179.0,193.0,15.0,179.0,1744418670.828722,0.0,2025-04-11 20:44:30.828,BACKWARD,18
93.0,5647.056477911053,-12982.496676742636,-24816.76188907169,-24139.07934893124,15248.851805788496,4148.707288349544,34808.55045420533,51054.08889700042,0.0,0.0,0.0,193.0,0.0,193.0,0.0,15.0,0.0,178.0,193.0,15.0,178.0,1744418670.828758,0.0,2025-04-11 20:44:30.828,BACKWARD,18
94.0,5662.769754263134,-12968.57153994698,-24790.409182358886,-24124.506011546375,15252.450436645799,4249.893635498719,34589.27984109877,51125.055685646024,0.0,0.0,0.0,193.0,0.0,193.0,0.0,15.0,0.0,179.0,193.0,15.0,179.0,1744418670.8287933,0.0,2025-04-11 20:44:30.828,BACKWARD,18
95.0,5647.4811610557035,-13007.731796232676,-24765.308173335576,-24147.193032168514,15418.836822371106,4168.019195558929,34892.16833021263,51130.66597350431,0.0,0.0,0.0,193.0,0.0,192.0,0.0,15.0,0.0,179.0,192.0,15.0,179.0,1744418670.8288283,0.0,2025-04-11 20:44:30.828,BACKWARD,18
96.0,5631.969050403721,-13021.187546394773,-24799.081659207543,-24167.801340556307,15336.492995797755,3963.2548646038613,35079.2300795591,51012.00056219108,0.0,0.0,0.0,193.0,0.0,193.0,0.0,15.0,0.0,179.0,193.0,15.0,179.0,1744418670.8288636,0.0,2025-04-11 20:44:30.828,BACKWARD,18
97.0,5648.039954667086,-12984.262464554604,-24809.05053723461,-24118.694557987998,15197.375738307923,4106.663657029111,34877.572641083316,51006.72555049963,0.0,0.0,0.0,193.0,0.0,192.0,0.0,15.0,0.0,178.0,192.0,15.0,178.0,1744418670.828899,0.0,2025-04-11 20:44:30.828,BACKWARD,18
98.0,5673.856219512966,-12957.954461330708,-24774.0477054176,-24089.614938451643,15233.339695136512,4301.414406468201,34605.060172684214,51087.504754961104,0.0,0.0,0.0,193.0,0.0,193.0,0.0,15.0,0.0,179.0,193.0,15.0,179.0,1744418670.8289337,0.0,2025-04-11 20:44:30.828,BACKWARD,18
99.0,5643.726067987212,-13000.065147884507,-24752.23240282922,-24127.858773214673,15456.074828633647,4231.766370745465,34823.59317822375,51108.917726149295,0.0,0.0,0.0,193.0,0.0,193.0,0.0,15.0,0.0,179.0,193.0,15.0,179.0,1744418670.8289688,0.0,2025-04-11 20:44:30.828,BACKWARD,18
100.0,5625.576451489503,-13019.488813816168,-24789.068077691565,-24175.177416226557,15418.322732248633,3993.2732574073384,35093.93752741069,51009.18424238971,0.0,0.0,0.0,193.0,0.0,193.0,0.0,16.0,0.0,178.0,193.0,16.0,178.0,1744418670.8290489,0.0,2025-04-11 20:44:30.829,BACKWARD,18
101.0,5636.64056499488,-12993.650197225834,-24809.229351190254,-24143.370883866657,15270.018907787671,4036.1439032726175,34926.25474050698,50965.9783203576,0.0,0.0,0.0,193.0,0.0,193.0,0.0,16.0,0.0,179.0,193.0,16.0,179.0,1744418670.8290849,0.0,2025-04-11 20:44:30.829,BACKWARD,18
102.0,5648.442286067282,-12974.986490605652,-24797.04765046211,-24114.82770619723,15186.736307947196,4244.88684474073,34645.71799584842,51065.13065876134,0.0,0.0,0.0,193.0,0.0,193.0,0.0,16.0,0.0,178.0,193.0,16.0,178.0,1744418670.8291197,0.0,2025-04-11 20:44:30.829,BACKWARD,18
103.0,5647.525864544615,-12986.85526691142,-24748.27614406063,-24123.723700490442,15355.290812884667,4202.932620398119,34756.35913090219,51091.19279279623,0.0,0.0,0.0,193.0,0.0,193.0,0.0,16.0,0.0,179.0,193.0,16.0,179.0,1744418670.8292744,0.0,2025-04-11 20:44:30.829,BACKWARD,18
104.0,5636.953489417254,-13004.110813630918,-24761.262507589163,-24165.432055644043,15440.629773215029,3977.8729054776322,35097.55851001245,51010.99473369059,0.0,0.0,0.0,193.0,0.0,192.0,0.0,16.0,0.0,178.0,192.0,16.0,178.0,1744418670.8293104,0.0,2025-04-11 20:44:30.829,BACKWARD,18
105.0,5646.654146510858,-12978.115734829395,-24790.565644570073,-24146.522479834854,15310.229696062768,3986.3218648817383,34985.59862203582,50931.89191006326,0.0,0.0,0.0,193.0,0.0,193.0,0.0,16.0,0.0,179.0,193.0,16.0,179.0,1744418670.8293455,0.0,2025-04-11 20:44:30.829,BACKWARD,18
106.0,5667.865951998943,-12945.32572571346,-24785.648260789905,-24107.049299126782,15194.447659784277,4217.416550805157,34684.990010856396,51011.82174823544,0.0,0.0,0.0,193.0,0.0,193.0,0.0,16.0,0.0,179.0,193.0,16.0,179.0,1744418670.8293805,0.0,2025-04-11 20:44:30.829,BACKWARD,18
107.0,5671.576341578525,-12956.188673518738,-24741.861193401957,-24111.698461973487,15316.890515910449,4216.075446137839,34691.829644659716,51050.78083882104,0.0,0.0,0.0,193.0,0.0,193.0,0.0,16.0,0.0,179.0,193.0,16.0,179.0,1744418670.8294153,0.0,2025-04-11 20:44:30.829,BACKWARD,18
108.0,5645.02246916562,-13008.916438688808,-24764.682324490826,-24158.100683462704,15408.599723410574,4021.391751932115,35073.664495189725,51000.04237890749,0.0,0.0,0.0,193.0,0.0,193.0,0.0,16.0,0.0,179.0,193.0,16.0,179.0,1744418670.82945,0.0,2025-04-11 20:44:30.829,BACKWARD,18
109.0,5633.667782982324,-13011.665703256811,-24805.541313355126,-24157.072503217758,15289.241408019234,3944.099419605663,35029.38568942376,50900.9123922482,0.0,0.0,0.0,193.0,0.0,193.0,0.0,16.0,0.0,179.0,193.0,16.0,179.0,1744418670.8294852,0.0,2025-04-11 20:44:30.829,BACKWARD,18
110.0,5650.029259923609,-12969.890292869843,-24808.000005245212,-24122.136726634115,15173.660537440843,4162.341852467282,34745.54088658582,50977.333006540895,0.0,0.0,0.0,193.0,0.0,193.0,0.0,16.0,0.0,179.0,193.0,16.0,179.0,1744418670.82952,0.0,2025-04-11 20:44:30.829,BACKWARD,18
111.0,5670.436402611304,-12954.869920595876,-24770.247908860198,-24112.257255584867,15222.67791303133,4185.319445767337,34648.623722627606,51020.0918936839,0.0,0.0,0.0,193.0,0.0,193.0,0.0,16.0,0.0,178.0,193.0,16.0,178.0,1744418670.8295548,0.0,2025-04-11 20:44:30.829,BACKWARD,18
112.0,5650.923329701821,-12995.550095504535,-24763.497682034696,-24161.721666064463,15405.537534420197,4016.183795474028,35046.73064312108,50999.48358529611,0.0,0.0,0.0,193.0,0.0,193.0,0.0,16.0,0.0,178.0,193.0,16.0,178.0,1744418670.8295898,0.0,2025-04-11 20:44:30.829,BACKWARD,18
113.0,5653.694946014279,-12981.937883131253,-24789.559816069584,-24161.274631175358,15361.437542609876,3854.915959228988,35064.03089332949,50878.31477860389,0.0,0.0,0.0,193.0,0.0,193.0,0.0,16.0,0.0,179.0,193.0,16.0,179.0,1744418670.829625,0.0,2025-04-11 20:44:30.829,BACKWARD,18
114.0,5652.398544835872,-12948.030286792551,-24812.313891925085,-24122.472002800943,15211.971427437238,4100.136947648161,34825.38131778018,50953.1260672958,0.0,0.0,0.0,193.0,0.0,193.0,0.0,16.0,0.0,178.0,193.0,16.0,178.0,1744418670.82966,0.0,2025-04-11 20:44:30.829,BACKWARD,18
115.0,5677.857181770466,-12937.279097709548,-24765.889318691414,-24095.761668176852,15288.727317896763,4244.1715889181605,34650.94830405096,51007.70902725566,0.0,0.0,0.0,193.0,0.0,193.0,0.0,16.0,0.0,179.0,193.0,16.0,179.0,1744418670.8297095,0.0,2025-04-11 20:44:30.829,BACKWARD,18
116.0,5650.923329701821,-13002.657950241322,-24759.85434768848,-24145.851927501193,15457.974726912347,4129.86476777372,35014.54413110544,51007.686675511206,0.0,0.0,0.0,193.0,0.0,192.0,0.0,16.0,0.0,178.0,192.0,16.0,178.0,1744418670.8297446,0.0,2025-04-11 20:44:30.829,BACKWARD,18
117.0,5646.408277321849,-13009.922267189297,-24796.846484762013,-24166.84021554473,15348.339420359067,3923.5134629623253,35129.186228416715,50886.383758352255,0.0,0.0,0.0,193.0,0.0,193.0,0.0,16.0,0.0,179.0,193.0,16.0,179.0,1744418670.8297787,0.0,2025-04-11 20:44:30.829,BACKWARD,18
118.0,5658.88055072791,-12972.99718534913,-24805.921293010866,-24130.317465104756,15231.283334646623,4096.694779002044,34899.119722738236,50915.79865405544,0.0,0.0,0.0,193.0,0.0,193.0,0.0,16.0,0.0,179.0,193.0,16.0,179.0,1744418670.8298137,0.0,2025-04-11 20:44:30.829,BACKWARD,18
119.0,5683.847449284488,-12936.139158742328,-24769.107969892975,-24097.438049010998,15196.571075507532,4248.038440708929,34659.08433903269,50986.54192525648,0.0,0.0,0.0,193.0,0.0,192.0,0.0,16.0,0.0,178.0,192.0,16.0,178.0,1744418670.8298614,0.0,2025-04-11 20:44:30.829,BACKWARD,18
120.0,5660.936911217798,-12969.443257980736,-24741.794138168592,-24126.58472378072,15375.742659061272,4167.460401947546,34949.88053439624,51008.513690056054,0.0,0.0,0.0,193.0,0.0,193.0,0.0,16.0,0.0,179.0,193.0,16.0,179.0,1744418670.8298965,0.0,2025-04-11 20:44:30.829,BACKWARD,18
121.0,5641.4908935416815,-12987.95050238973,-24781.870815976956,-24170.863529546685,15368.835970024584,3959.0527366462634,35161.73036834364,50906.388569639756,0.0,0.0,0.0,193.0,0.0,192.0,0.0,16.0,0.0,178.0,192.0,16.0,178.0,1744418670.8299308,0.0,2025-04-11 20:44:30.829,BACKWARD,18
122.0,5647.905844200354,-12966.738696901644,-24811.308063424596,-24142.76738676636,15222.163822908858,4084.9154096740976,34980.99416267803,50913.295258676444,0.0,0.0,0.0,193.0,0.0,193.0,0.0,17.0,0.0,179.0,193.0,17.0,179.0,1744418670.829965,0.0,2025-04-11 20:44:30.829,BACKWARD,18
123.0,5681.1205364609405,-12930.260649950582,-24792.91257773788,-24115.00652015287,15152.493435441665,4229.93352770013,34699.92097615254,50993.67213173773,0.0,0.0,0.0,193.0,0.0,193.0,0.0,16.0,0.0,179.0,193.0,16.0,179.0,1744418670.8299997,0.0,2025-04-11 20:44:30.829,BACKWARD,18
124.0,5672.045728212086,-12951.338344971937,-24764.861138446468,-24134.899572718095,15374.513313116231,4155.032832030396,34894.00117325797,51023.77993151903,0.0,0.0,0.0,193.0,0.0,192.0,0.0,17.0,0.0,178.0,192.0,17.0,178.0,1744418670.830034,0.0,2025-04-11 20:44:30.830,BACKWARD,18
125.0,5661.7862775071,-12979.412136007802,-24783.323679366553,-24168.02485800086,15424.827089885128,3964.4395070599926,35179.030618552046,50928.87442456179,0.0,0.0,0.0,193.0,0.0,193.0,0.0,17.0,0.0,179.0,193.0,17.0,179.0,1744418670.8300688,0.0,2025-04-11 20:44:30.830,BACKWARD,18
126.0,5661.495704829181,-12972.304281271015,-24806.61419708898,-24132.44088082801,15258.150131481903,4042.223577764461,35025.429430655175,50876.43723206964,0.0,0.0,0.0,193.0,0.0,193.0,0.0,17.0,0.0,178.0,193.0,17.0,178.0,1744418670.830103,0.0,2025-04-11 20:44:30.830,BACKWARD,18
127.0,5671.621045067435,-12949.058467037496,-24801.58505458654,-24118.694557987998,15186.95982539175,4223.831501463831,34741.69638653951,50963.363166256335,0.0,0.0,0.0,193.0,0.0,193.0,0.0,17.0,0.0,179.0,193.0,17.0,179.0,1744418670.830181,0.0,2025-04-11 20:44:30.830,BACKWARD,18
128.0,5672.7386322902,-12957.663888652789,-24756.70275172028,-24130.183354638026,15353.256804139235,4176.6693206631335,34833.740870206464,50993.1356898708,0.0,0.0,0.0,193.0,0.0,193.0,0.0,17.0,0.0,179.0,193.0,17.0,179.0,1744418670.8302147,0.0,2025-04-11 20:44:30.830,BACKWARD,18
129.0,5644.284861598595,-12998.701691472734,-24790.275071892152,-24187.850855332716,15409.739662377795,3978.3422921111933,35196.1073513159,50929.723790851094,0.0,0.0,0.0,193.0,0.0,192.0,0.0,17.0,0.0,178.0,192.0,17.0,178.0,1744418670.83025,0.0,2025-04-11 20:44:30.830,BACKWARD,18
130.0,5645.245986610173,-12984.083650598963,-24818.326511183564,-24171.154102224602,15243.979125497239,3974.006053686864,35090.76357969804,50847.58112997784,0.0,0.0,0.0,193.0,0.0,193.0,0.0,17.0,0.0,179.0,193.0,17.0,179.0,1744418670.8303063,0.0,2025-04-11 20:44:30.830,BACKWARD,18
131.0,5669.050594455075,-12942.643516378823,-24808.75996455669,-24115.18533410851,15143.195109748258,4228.055981165884,34801.442599468544,50935.93757580967,0.0,0.0,0.0,193.0,0.0,192.0,0.0,17.0,0.0,178.0,192.0,17.0,178.0,1744418670.830341,0.0,2025-04-11 20:44:30.830,BACKWARD,18
132.0,5676.672539314335,-12945.124560013362,-24755.674571475338,-24108.166886349547,15335.777739975185,4249.536007587434,34774.73226484445,50968.30290178095,0.0,0.0,0.0,193.0,0.0,193.0,0.0,17.0,0.0,179.0,193.0,17.0,179.0,1744418670.8303752,0.0,2025-04-11 20:44:30.830,BACKWARD,18
133.0,5646.788256977589,-12990.05156636853,-24772.796007728102,-24169.969459768472,15462.936814181427,4049.577301690257,35166.42423467925,50934.350601953345,0.0,0.0,0.0,193.0,0.0,192.0,0.0,17.0,0.0,178.0,192.0,17.0,178.0,1744418670.83041,0.0,2025-04-11 20:44:30.830,BACKWARD,18
134.0,5647.4811610557035,-12966.716345157189,-24806.144810455422,-24163.710971320987,15322.433748535366,3945.842855673177,35118.85972247836,50818.52386218594,0.0,0.0,0.0,193.0,0.0,192.0,0.0,17.0,0.0,178.0,192.0,17.0,178.0,1744418670.830458,0.0,2025-04-11 20:44:30.830,BACKWARD,18
135.0,5662.680347285313,-12917.140175955317,-24809.184647701342,-24123.20961036797,15219.146337407392,4212.543870513901,34854.08095766079,50899.12425269178,0.0,0.0,0.0,193.0,0.0,193.0,0.0,17.0,0.0,179.0,193.0,17.0,179.0,1744418670.8304925,0.0,2025-04-11 20:44:30.830,BACKWARD,18
136.0,5679.913542260354,-12930.350056928404,-24772.416028072363,-24118.24752309889,15285.26279750619,4270.591350864333,34747.954874986994,50944.00655555804,0.0,0.0,0.0,193.0,0.0,192.0,0.0,17.0,0.0,178.0,192.0,17.0,178.0,1744418670.8305273,0.0,2025-04-11 20:44:30.830,BACKWARD,18
137.0,5658.791143750089,-12997.628807738878,-24778.786275242124,-24158.525366607355,15409.71731063334,4121.2593461584265,35145.92768501374,50935.49054092057,0.0,0.0,0.0,193.0,0.0,192.0,0.0,17.0,0.0,179.0,192.0,17.0,179.0,1744418670.830562,0.0,2025-04-11 20:44:30.830,BACKWARD,18
138.0,5653.2926146140835,-12995.99713039364,-24810.95043551331,-24155.172604939056,15311.79431817464,3974.2742746203276,35191.614650680385,50820.02142906445,0.0,0.0,0.0,193.0,0.0,193.0,0.0,17.0,0.0,179.0,193.0,17.0,179.0,1744418670.8305967,0.0,2025-04-11 20:44:30.830,BACKWARD,18
139.0,5651.862102968944,-12969.80088589202,-24832.117537512488,-24139.749901264895,15167.178531548803,4172.154268283161,34947.53360122843,50874.33616809084,0.0,0.0,0.0,193.0,0.0,192.0,0.0,17.0,0.0,179.0,192.0,17.0,179.0,1744418670.8306315,0.0,2025-04-11 20:44:30.830,BACKWARD,18
140.0,5681.053481227575,-12935.200385475206,-24771.76782748316,-24113.48660152991,15219.951000207782,4242.964594717574,34738.76830801586,50921.65481110273,0.0,0.0,0.0,193.0,0.0,193.0,0.0,17.0,0.0,179.0,193.0,17.0,179.0,1744418670.8306656,0.0,2025-04-11 20:44:30.830,BACKWARD,18
141.0,5653.829056481011,-12980.216798808195,-24753.819376685547,-24147.01421821287,15422.457804972864,4115.559651322324,35083.4322075167,50928.69561060615,0.0,0.0,0.0,193.0,0.0,192.0,0.0,17.0,0.0,178.0,192.0,17.0,178.0,1744418670.8307,0.0,2025-04-11 20:44:30.830,BACKWARD,18
142.0,5658.478219327715,-12977.288720284549,-24783.502493322194,-24162.861605031685,15341.477434811288,3903.553355163736,35204.5116072311,50799.16725148765,0.0,0.0,0.0,193.0,0.0,193.0,0.0,17.0,0.0,179.0,193.0,17.0,179.0,1744418670.8307345,0.0,2025-04-11 20:44:30.830,BACKWARD,18
143.0,5660.244007139684,-12954.065257795484,-24815.554894871104,-24138.118223919657,15204.081261644515,4066.542275731835,34998.98731696455,50830.12441755825,0.0,0.0,0.0,193.0,0.0,192.0,0.0,17.0,0.0,178.0,192.0,17.0,178.0,1744418670.8307686,0.0,2025-04-11 20:44:30.830,BACKWARD,18
144.0,5690.262399943162,-12916.60373408839,-24784.977708456245,-24110.335005561712,15224.77897701013,4205.346608799292,34758.34843615871,50899.459528858606,0.0,0.0,0.0,193.0,0.0,192.0,0.0,17.0,0.0,178.0,192.0,17.0,178.0,1744418670.830803,0.0,2025-04-11 20:44:30.830,BACKWARD,18
145.0,5663.060326941053,-12958.312089241994,-24756.65804823137,-24136.82182274125,15427.017560841747,4165.49344843548,35035.778288337984,50912.669409831695,0.0,0.0,0.0,193.0,0.0,193.0,0.0,17.0,0.0,179.0,193.0,17.0,179.0,1744418670.8308504,0.0,2025-04-11 20:44:30.830,BACKWARD,18
146.0,5633.846596937967,-12994.007825137118,-24801.0039092307,-24182.933471552547,15358.42005710841,3967.5687512837353,35256.54646832305,50800.128376499226,0.0,0.0,0.0,193.0,0.0,192.0,0.0,17.0,0.0,178.0,192.0,17.0,178.0,1744418670.8308856,0.0,2025-04-11 20:44:30.830,BACKWARD,18
147.0,5640.529768530103,-12962.491865455135,-24825.18849673134,-24148.020046713358,15214.743043749697,4075.035938624852,35068.925925365205,50784.258637935956,0.0,0.0,0.0,193.0,0.0,193.0,0.0,17.0,0.0,178.0,193.0,17.0,178.0,1744418670.8309205,0.0,2025-04-11 20:44:30.830,BACKWARD,18
148.0,5660.26635888414,-12935.155681986294,-24804.088449965533,-24118.851020199185,15180.164895077336,4248.060792453384,34783.11416901519,50858.46642952757,0.0,0.0,0.0,193.0,0.0,192.0,0.0,17.0,0.0,179.0,192.0,17.0,179.0,1744418670.8309548,0.0,2025-04-11 20:44:30.830,BACKWARD,18
149.0,5667.195399665285,-12962.916548599786,-24749.37137953894,-24125.4447848135,15409.71731063334,4187.77813765742,34952.74155768652,50876.951322192115,0.0,0.0,0.0,193.0,0.0,192.0,0.0,17.0,0.0,178.0,192.0,17.0,178.0,1744418670.8310018,0.0,2025-04-11 20:44:30.831,BACKWARD,18
150.0,5635.254756838651,-13006.949485176741,-24793.940757982822,-24196.478628692465,15434.72891267883,3957.108134878652,35274.0255324871,50799.45782416556,0.0,0.0,0.0,193.0,0.0,193.0,0.0,17.0,0.0,179.0,193.0,17.0,179.0,1744418670.8310504,0.0,2025-04-11 20:44:30.831,BACKWARD,18
151.0,5642.452018553259,-12973.600682449423,-24817.477144894263,-24170.841177802227,15281.060669548593,3988.4005771160814,35126.8392952489,50747.5794252848,0.0,0.0,0.0,193.0,0.0,192.0,0.0,17.0,0.0,178.0,192.0,17.0,178.0,1744418670.8310816,0.0,2025-04-11 20:44:30.831,BACKWARD,18
152.0,5662.0992019294745,-12940.095417510918,-24809.76579305718,-24128.931656948527,15179.986081121693,4224.814978219864,34844.89439068966,50847.447019511106,0.0,0.0,0.0,193.0,0.0,192.0,0.0,17.0,0.0,178.0,192.0,17.0,178.0,1744418670.831112,0.0,2025-04-11 20:44:30.831,BACKWARD,18
153.0,5672.448059612282,-12942.129426256352,-24760.27903083313,-24132.82086048375,15328.625181749485,4203.312600053859,34912.35195545578,50877.219543125575,0.0,0.0,0.0,193.0,0.0,193.0,0.0,17.0,0.0,179.0,193.0,17.0,179.0,1744418670.8311467,0.0,2025-04-11 20:44:30.831,BACKWARD,18
154.0,5642.921405186821,-12993.404328036826,-24785.11181892298,-24183.22404423047,15421.899011361482,4003.867984279154,35282.0274570021,50821.67545815414,0.0,0.0,0.0,193.0,0.0,192.0,0.0,17.0,0.0,178.0,192.0,17.0,178.0,1744418670.8311765,0.0,2025-04-11 20:44:30.831,BACKWARD,18
155.0,5633.600727748958,-12991.862057669408,-24834.598581147027,-24166.236718444434,15256.943137281316,3975.9953589433862,35191.41348498029,50737.74465772446,0.0,0.0,0.0,193.0,0.0,193.0,0.0,17.0,0.0,179.0,193.0,17.0,179.0,1744418670.831206,0.0,2025-04-11 20:44:30.831,BACKWARD,18
156.0,5647.3023471000615,-12957.350964230414,-24837.459604437307,-24130.183354638026,15144.46915918221,4231.162873645171,34912.19549324459,50829.67738266914,0.0,0.0,0.0,193.0,0.0,193.0,0.0,17.0,0.0,179.0,193.0,17.0,179.0,1744418670.8312356,0.0,2025-04-11 20:44:30.831,BACKWARD,18
157.0,5662.3897746073935,-12942.531757656547,-24766.55987102507,-24113.59836025219,15328.13344337147,4251.949995988607,34863.26752463192,50859.338147561335,0.0,0.0,0.0,193.0,0.0,193.0,0.0,17.0,0.0,179.0,193.0,17.0,179.0,1744418670.8312654,0.0,2025-04-11 20:44:30.831,BACKWARD,18
158.0,5636.461751039237,-12994.231342581672,-24771.633717016426,-24172.11522723618,15462.690944992417,4076.6899677145448,35262.357921881434,50827.1963390346,0.0,0.0,0.0,193.0,0.0,193.0,0.0,17.0,0.0,179.0,193.0,17.0,179.0,1744418670.8312948,0.0,2025-04-11 20:44:30.831,BACKWARD,18
159.0,5640.373306318916,-12986.296473300037,-24807.62002558947,-24161.20757594199,15328.446367793844,3959.455068046459,35225.81281969701,50704.28409627487,0.0,0.0,0.0,193.0,0.0,192.0,0.0,17.0,0.0,179.0,192.0,17.0,179.0,1744418670.8313243,0.0,2025-04-11 20:44:30.831,BACKWARD,18
160.0,5643.59195752048,-12955.6075281629,-24828.38479618845,-24129.06576741526,15196.369909807434,4181.609056187756,34956.31783679937,50779.43066113361,0.0,0.0,0.0,193.0,0.0,193.0,0.0,17.0,0.0,179.0,193.0,17.0,179.0,1744418670.8313668,0.0,2025-04-11 20:44:30.831,BACKWARD,18
161.0,5653.829056481011,-12942.978792545653,-24795.661842305883,-24126.316502847258,15267.157884497392,4227.541891043412,34824.64371021315,50830.97378384755,0.0,0.0,0.0,193.0,0.0,193.0,0.0,17.0,0.0,178.0,193.0,17.0,178.0,1744418670.8313966,0.0,2025-04-11 20:44:30.831,BACKWARD,18
162.0,5635.165349860829,-12987.414060522802,-24787.39169685742,-24168.2036719565,15424.24594452929,4085.80947945231,35216.916825403794,50833.23131003753,0.0,0.0,0.0,193.0,0.0,193.0,0.0,17.0,0.0,178.0,193.0,17.0,178.0,1744418670.8314261,0.0,2025-04-11 20:44:30.831,BACKWARD,18
163.0,5624.458864266738,-13007.57533402149,-24830.508211911707,-24189.862512333693,15299.277341279667,3899.239468483862,35278.719398822715,50706.47456723149,0.0,0.0,0.0,193.0,0.0,192.0,0.0,17.0,0.0,178.0,192.0,17.0,178.0,1744418670.8314557,0.0,2025-04-11 20:44:30.831,BACKWARD,18
164.0,5635.522977772114,-12974.718269672188,-24832.34105495704,-24150.92577349255,15208.551610535576,4092.939685933553,35029.67626210168,50748.49584680746,0.0,0.0,0.0,193.0,0.0,193.0,0.0,17.0,0.0,178.0,193.0,17.0,178.0,1744418670.8314972,0.0,2025-04-11 20:44:30.831,BACKWARD,18
165.0,5658.209998394251,-12946.510368169591,-24788.263414891175,-24118.828668454727,15270.220073487768,4231.274632367448,34824.33078579078,50811.55011791589,0.0,0.0,0.0,193.0,0.0,192.0,0.0,17.0,0.0,178.0,192.0,17.0,178.0,1744418670.831527,0.0,2025-04-11 20:44:30.831,BACKWARD,18
166.0,5632.818416693022,-12990.453897768724,-24779.032144431134,-24161.408741642088,15433.432511500421,4140.5712533678125,35167.36300794638,50825.38584773372,0.0,0.0,0.0,193.0,0.0,192.0,0.0,17.0,0.0,179.0,192.0,17.0,179.0,1744418670.8315566,0.0,2025-04-11 20:44:30.831,BACKWARD,18
167.0,5627.342239301472,-13003.641426997356,-24819.086470495044,-24186.800323343316,15323.149004357936,3922.552337950747,35306.01087880265,50697.73503514946,0.0,0.0,0.0,193.0,0.0,193.0,0.0,17.0,0.0,179.0,193.0,17.0,179.0,1744418670.831586,0.0,2025-04-11 20:44:30.831,BACKWARD,18
168.0,5633.846596937967,-12977.646348195834,-24827.58013338806,-24154.904384005593,15233.697323047796,4076.2429328254384,35095.65861173375,50717.762198181415,0.0,0.0,0.0,193.0,0.0,192.0,0.0,17.0,0.0,178.0,192.0,17.0,178.0,1744418670.8316157,0.0,2025-04-11 20:44:30.831,BACKWARD,18
169.0,5651.727992502212,-12951.539510672035,-24803.86493252098,-24122.80727896777,15229.830471257028,4254.185170434138,34854.170364638616,50808.75614985897,0.0,0.0,0.0,193.0,0.0,192.0,0.0,17.0,0.0,178.0,192.0,17.0,178.0,1744418670.831645,0.0,2025-04-11 20:44:30.831,BACKWARD,18
170.0,5634.673611482813,-12984.28481629906,-24783.256624133188,-24155.3514188947,15394.51812440373,4166.320462980326,35103.79464671548,50824.312963999866,0.0,0.0,0.0,193.0,0.0,193.0,0.0,17.0,0.0,179.0,193.0,17.0,179.0,1744418670.8316748,0.0,2025-04-11 20:44:30.831,BACKWARD,18
171.0,5625.867024167422,-12995.326578059981,-24801.09331620852,-24185.906253565106,15365.349097889555,3935.7622189238336,35336.3421960285,50709.156776566124,0.0,0.0,0.0,193.0,0.0,192.0,0.0,17.0,0.0,178.0,192.0,17.0,178.0,1744418670.8317044,0.0,2025-04-11 20:44:30.831,BACKWARD,18
172.0,5634.226576593706,-12971.767839404089,-24824.987331031243,-24150.881070003637,15222.968485709249,4034.13224627164,35161.059816009976,50686.46975594399,0.0,0.0,0.0,193.0,0.0,193.0,0.0,17.0,0.0,179.0,193.0,17.0,179.0,1744418670.831734,0.0,2025-04-11 20:44:30.831,BACKWARD,18
173.0,5652.130323902407,-12949.818426348977,-24819.91348503989,-24128.462270314965,15165.56920594802,4229.464141066568,34894.11293198025,50781.039986734395,0.0,0.0,0.0,193.0,0.0,193.0,0.0,17.0,0.0,178.0,193.0,17.0,178.0,1744418670.8317635,0.0,2025-04-11 20:44:30.831,BACKWARD,18
174.0,5646.631794766402,-12975.90291212832,-24778.38394384193,-24146.857756001682,15359.761161775728,4195.534192983412,35057.88416360428,50806.140995757705,0.0,0.0,0.0,193.0,0.0,192.0,0.0,17.0,0.0,178.0,192.0,17.0,178.0,1744418670.8317928,0.0,2025-04-11 20:44:30.831,BACKWARD,18
175.0,5639.92627142981,-12983.837781409953,-24791.772638770657,-24176.809093571796,15408.19739201038,3993.452071362981,35364.55009753109,50715.68348594708,0.0,0.0,0.0,193.0,0.0,193.0,0.0,17.0,0.0,179.0,193.0,17.0,179.0,1744418670.8318348,0.0,2025-04-11 20:44:30.831,BACKWARD,18
176.0,5629.957393402743,-12965.62110967888,-24826.01551127619,-24156.513709606377,15271.225901988257,4016.4073129185813,35236.83222971347,50656.83134279625,0.0,0.0,0.0,193.0,0.0,192.0,0.0,17.0,0.0,178.0,192.0,17.0,178.0,1744418670.8318648,0.0,2025-04-11 20:44:30.831,BACKWARD,18
177.0,5650.789219235089,-12950.734847871643,-24822.193362974333,-24122.472002800943,15175.515732230633,4224.457350308579,34940.58220870283,50741.76797172642,0.0,0.0,0.0,193.0,0.0,193.0,0.0,17.0,0.0,179.0,193.0,17.0,179.0,1744418670.8318944,0.0,2025-04-11 20:44:30.831,BACKWARD,18
178.0,5657.718260016234,-12962.715382899689,-24782.42960958834,-24128.931656948527,15313.135422841959,4202.619695975744,34972.54520327392,50761.66102429164,0.0,0.0,0.0,193.0,0.0,193.0,0.0,17.0,0.0,179.0,193.0,17.0,179.0,1744418670.8319242,0.0,2025-04-11 20:44:30.831,BACKWARD,18
179.0,5634.830073694,-13001.540363018557,-24807.508266867193,-24190.376602456166,15394.160496492446,3986.4112718595593,35344.52293449914,50698.91967760559,0.0,0.0,0.0,193.0,0.0,192.0,0.0,17.0,0.0,178.0,192.0,17.0,178.0,1744418670.8319666,0.0,2025-04-11 20:44:30.831,BACKWARD,18
180.0,5650.833922723999,-12968.236263780149,-24828.183630488355,-24168.74011382343,15256.49610239221,3905.743826120356,35249.97505545319,50592.413615276055,0.0,0.0,0.0,193.0,0.0,193.0,0.0,17.0,0.0,179.0,193.0,17.0,179.0,1744418670.8319964,0.0,2025-04-11 20:44:30.831,BACKWARD,18
181.0,5656.421858837826,-12943.805807090499,-24831.804613090113,-24129.87043021565,15172.4311914958,4165.426393202114,34978.33430508785,50696.595096182245,0.0,0.0,0.0,193.0,0.0,192.0,0.0,17.0,0.0,178.0,192.0,17.0,178.0,1744418670.832026,0.0,2025-04-11 20:44:30.832,BACKWARD,18
182.0,5666.480143842715,-12946.845644336421,-24780.596766543003,-24115.945293419994,15284.636948661442,4220.322277584348,34930.993310331505,50748.20527412955,0.0,0.0,0.0,193.0,0.0,193.0,0.0,17.0,0.0,179.0,193.0,17.0,179.0,1744418670.8320556,0.0,2025-04-11 20:44:30.832,BACKWARD,18
183.0,5636.394695805871,-12993.560790248011,-24795.550083583606,-24170.617660357675,15389.779554579205,4052.1477523026174,35337.839762907,50722.54547149485,0.0,0.0,0.0,193.0,0.0,192.0,0.0,17.0,0.0,179.0,192.0,17.0,179.0,1744418670.8320851,0.0,2025-04-11 20:44:30.832,BACKWARD,18
184.0,5642.183797619796,-12975.031194094563,-24821.8580868075,-24163.398046898612,15275.986823557238,3939.360849781138,35324.294605767085,50604.57296425974,0.0,0.0,0.0,193.0,0.0,193.0,0.0,17.0,0.0,179.0,193.0,17.0,179.0,1744418670.8321147,0.0,2025-04-11 20:44:30.832,BACKWARD,18
185.0,5647.369402333427,-12944.632821635345,-24833.81627009109,-24133.089081417213,15204.282427344613,4188.895724880186,35057.48183220409,50674.623331382674,0.0,0.0,0.0,193.0,0.0,193.0,0.0,17.0,0.0,179.0,193.0,17.0,179.0,1744418670.8321445,0.0,2025-04-11 20:44:30.832,BACKWARD,18
186.0,5659.931082717309,-12931.758216829088,-24792.778467271146,-24119.141592877102,15260.854692560995,4259.951920503607,34918.409278203166,50738.43756180257,0.0,0.0,0.0,193.0,0.0,192.0,0.0,17.0,0.0,179.0,192.0,17.0,179.0,1744418670.832174,0.0,2025-04-11 20:44:30.832,BACKWARD,18
187.0,5626.40346603435,-12989.738641946155,-24794.007813216187,-24170.997640013415,15425.698807918885,4117.817177512309,35292.421018173816,50722.47841626149,0.0,0.0,0.0,193.0,0.0,193.0,0.0,17.0,0.0,179.0,193.0,17.0,179.0,1744418670.8322036,0.0,2025-04-11 20:44:30.832,BACKWARD,18
188.0,5633.936003915787,-12981.37908951987,-24825.926104298367,-24174.484512148443,15338.571708032097,3953.1071726211517,35354.08948112601,50592.86065016516,0.0,0.0,0.0,193.0,0.0,193.0,0.0,17.0,0.0,179.0,193.0,17.0,179.0,1744418670.8322327,0.0,2025-04-11 20:44:30.832,BACKWARD,18
189.0,5647.704678500257,-12940.073065766463,-24836.72199687028,-24131.792680238806,15222.63320954242,4153.401154685158,35108.17558862872,50633.54082507382,0.0,0.0,0.0,193.0,0.0,193.0,0.0,17.0,0.0,179.0,193.0,17.0,179.0,1744418670.8322651,0.0,2025-04-11 20:44:30.832,BACKWARD,18
190.0,5660.378117606416,-12923.644533591812,-24817.499496638717,-24134.184316895524,15228.06468344506,4266.031594995451,34903.05362976237,50710.67669518908,0.0,0.0,0.0,193.0,0.0,193.0,0.0,17.0,0.0,179.0,193.0,17.0,179.0,1744418670.8323076,0.0,2025-04-11 20:44:30.832,BACKWARD,18
191.0,5654.343146603483,-12954.601699662411,-24791.750287026203,-24160.58172709724,15408.800889110673,4150.473076161513,35212.46882825719,50715.392913269156,0.0,0.0,0.0,193.0,0.0,193.0,0.0,17.0,0.0,179.0,193.0,17.0,179.0,1744418670.8323376,0.0,2025-04-11 20:44:30.832,BACKWARD,18
192.0,5637.177006861807,-12986.47528725568,-24820.695796095824,-24183.156988997103,15341.857414467027,3944.6582132170456,35375.16717614736,50589.127908841125,0.0,0.0,0.0,193.0,0.0,193.0,0.0,17.0,0.0,179.0,193.0,17.0,179.0,1744418670.8323667,0.0,2025-04-11 20:44:30.832,BACKWARD,18
193.0,5630.315021314028,-12981.580255219968,-24849.26132550971,-24161.453445131,15177.259168298146,4091.442119055047,35172.28039172654,50601.33196131372,0.0,0.0,0.0,193.0,0.0,193.0,0.0,17.0,0.0,179.0,193.0,17.0,179.0,1744418670.8323965,0.0,2025-04-11 20:44:30.832,BACKWARD,18
194.0,5653.471428569726,-12954.266423495583,-24832.363406701497,-24138.00646519738,15143.99977254865,4222.758617729976,34916.84465609129,50683.54167742034,0.0,0.0,0.0,193.0,0.0,192.0,0.0,17.0,0.0,178.0,192.0,17.0,178.0,1744418670.8324385,0.0,2025-04-11 20:44:30.832,BACKWARD,18
195.0,5647.25764361115,-12977.355775517915,-24790.073906192054,-24150.59049732572,15333.65432425193,4139.520721378412,35146.799403047495,50693.21998276949,0.0,0.0,0.0,193.0,0.0,193.0,0.0,17.0,0.0,179.0,193.0,17.0,179.0,1744418670.8324685,0.0,2025-04-11 20:44:30.832,BACKWARD,18
196.0,5638.0934283844745,-12989.649234968334,-24811.598636102517,-24178.35136393921,15334.146062629947,3939.517311992325,35406.75019106271,50591.92187689804,0.0,0.0,0.0,193.0,0.0,193.0,0.0,17.0,0.0,179.0,193.0,17.0,179.0,1744418670.8324978,0.0,2025-04-11 20:44:30.832,BACKWARD,18
197.0,5631.365553303427,-12975.94761561723,-24839.9629998163,-24155.64199157262,15247.086017976526,4038.8261126072543,35233.814744212,50557.589597414684,0.0,0.0,0.0,193.0,0.0,192.0,0.0,17.0,0.0,178.0,192.0,17.0,178.0,1744418670.8325276,0.0,2025-04-11 20:44:30.832,BACKWARD,18
198.0,5658.053536183064,-12937.32380119846,-24807.888246522936,-24115.118278875147,15214.452471071778,4263.639958338733,34952.29452279741,50652.36099390519,0.0,0.0,0.0,193.0,0.0,193.0,0.0,17.0,0.0,179.0,193.0,17.0,179.0,1744418670.8325572,0.0,2025-04-11 20:44:30.832,BACKWARD,18
199.0,5653.180855891807,-12957.08274329695,-24770.67259200485,-24129.736319748918,15369.595929336063,4239.097742926806,35085.823844173414,50681.41826169709,0.0,0.0,0.0,193.0,0.0,192.0,0.0,17.0,0.0,178.0,192.0,17.0,178.0,1744418670.8325868,0.0,2025-04-11 20:44:30.832,BACKWARD,18
200.0,5632.013753892631,-12996.801793194032,-24803.417897631873,-24181.83823607424,15406.252790242766,4025.996211289908,35415.91440628939,50599.18619384601,0.0,0.0,0.0,193.0,0.0,193.0,0.0,17.0,0.0,179.0,193.0,17.0,179.0,1744418670.8326163,0.0,2025-04-11 20:44:30.832,BACKWARD,18
201.0,5635.187701605285,-12981.937883131253,-24827.513078154694,-24160.849948030707,15279.428992203355,4025.5044729118913,35294.0303437746,50530.49928313486,0.0,0.0,0.0,193.0,0.0,192.0,0.0,17.0,0.0,178.0,192.0,17.0,178.0,1744418670.8326457,0.0,2025-04-11 20:44:30.832,BACKWARD,18
202.0,5650.386887834894,-12939.558975643991,-24823.78033683066,-24125.91417144706,15184.232912568203,4232.593385290312,35000.57429082088,50619.3474673447,0.0,0.0,0.0,193.0,0.0,192.0,0.0,17.0,0.0,178.0,192.0,17.0,178.0,1744418670.8326895,0.0,2025-04-11 20:44:30.832,BACKWARD,18
203.0,5647.414105822338,-12948.879653081853,-24787.682269535337,-24130.4962790604,15301.736033169751,4228.234795121526,35024.043622498946,50656.45136314051,0.0,0.0,0.0,193.0,0.0,193.0,0.0,17.0,0.0,179.0,193.0,17.0,179.0,1744418670.8327196,0.0,2025-04-11 20:44:30.832,BACKWARD,18
204.0,5619.720294442212,-12986.922322144786,-24812.24683669172,-24188.476704177465,15369.171246191412,4041.79889461981,35409.499455630714,50606.338752071715,0.0,0.0,0.0,193.0,0.0,192.0,0.0,17.0,0.0,178.0,192.0,17.0,178.0,1744418670.8327491,0.0,2025-04-11 20:44:30.832,BACKWARD,18
205.0,5633.846596937967,-12958.535606686546,-24841.929953328367,-24160.358209652688,15237.608878327475,3971.54736179678,35331.53657097061,50493.75301525033,0.0,0.0,0.0,193.0,0.0,193.0,0.0,17.0,0.0,179.0,193.0,17.0,179.0,1744418670.8327916,0.0,2025-04-11 20:44:30.832,BACKWARD,18
206.0,5645.625966265913,-12930.305353439493,-24837.05727303711,-24124.036624912816,15157.343763988467,4203.2008413315825,35050.28457048948,50573.615798189145,0.0,0.0,0.0,193.0,0.0,192.0,0.0,17.0,0.0,179.0,192.0,17.0,179.0,1744418670.8328211,0.0,2025-04-11 20:44:30.832,BACKWARD,18
207.0,5660.378117606416,-12936.385027931337,-24778.42864733084,-24113.59836025219,15267.78373334214,4213.817919947854,34961.481089768546,50603.07539738124,0.0,0.0,0.0,193.0,0.0,193.0,0.0,17.0,0.0,179.0,193.0,17.0,179.0,1744418670.832851,0.0,2025-04-11 20:44:30.832,BACKWARD,18
208.0,5632.483140526193,-12984.575388976979,-24778.96508919777,-24157.385427640133,15413.785328124206,4075.080642113762,35371.61324877897,50593.41944377655,0.0,0.0,0.0,193.0,0.0,192.0,0.0,17.0,0.0,178.0,192.0,17.0,178.0,1744418670.8328805,0.0,2025-04-11 20:44:30.832,BACKWARD,18
209.0,5636.9758411617095,-12974.561807461001,-24806.9047697669,-24150.434035114533,15296.393966244934,3963.2772163483164,35376.463577325776,50473.10000337363,0.0,0.0,0.0,193.0,0.0,193.0,0.0,17.0,0.0,179.0,193.0,17.0,179.0,1744418670.8329244,0.0,2025-04-11 20:44:30.832,BACKWARD,18
210.0,5638.87573944041,-12953.774685117565,-24823.66857810838,-24116.61584575365,15160.71887740122,4185.989998100996,35118.94912945618,50529.649916845556,0.0,0.0,0.0,193.0,0.0,192.0,0.0,17.0,0.0,178.0,192.0,17.0,178.0,1744418671.3082187,0.0,2025-04-11 20:44:31.308,BACKWARD,18
211.0,5657.181818149307,-12941.123597755863,-24785.51415032317,-24106.44580202649,15215.860630972462,4251.726478544054,34952.942723386615,50574.509867967354,0.0,0.0,0.0,193.0,0.0,192.0,0.0,17.0,0.0,178.0,192.0,17.0,178.0,1744418671.3083827,0.0,2025-04-11 20:44:31.308,BACKWARD,18
212.0,5639.054553396053,-12979.501542985625,-24774.830016473534,-24145.00256121189,15383.610473109542,4140.459494645535,35332.475344237726,50576.543876712785,0.0,0.0,0.0,193.0,0.0,193.0,0.0,17.0,0.0,179.0,193.0,17.0,179.0,1744418671.3084326,0.0,2025-04-11 20:44:31.308,BACKWARD,18
213.0,5643.59195752048,-12979.076859840974,-24805.071926721565,-24149.808186269784,15280.010137559193,3970.876809463121,35426.79970583913,50444.86975012657,0.0,0.0,0.0,193.0,0.0,192.0,0.0,17.0,0.0,178.0,192.0,17.0,178.0,1744418671.3085003,0.0,2025-04-11 20:44:31.308,BACKWARD,18
214.0,5634.070114382519,-12968.258615524604,-24842.645209150938,-24127.29997960329,15175.091049085982,4162.073631533817,35205.62919445386,50479.82787845467,0.0,0.0,0.0,193.0,0.0,193.0,0.0,17.0,0.0,179.0,193.0,17.0,179.0,1744418671.3085535,0.0,2025-04-11 20:44:31.308,BACKWARD,18
215.0,5662.054498440564,-12929.076007494452,-24805.42955463285,-24108.25629332737,15201.15318312087,4267.909141529696,34971.51702302897,50538.00946927184,0.0,0.0,0.0,193.0,0.0,193.0,0.0,17.0,0.0,179.0,193.0,17.0,179.0,1744418671.3086245,0.0,2025-04-11 20:44:31.308,BACKWARD,18
216.0,5636.193530105774,-12968.728002158166,-24781.915519465867,-24152.1998229265,15406.677473387417,4165.091117035284,35284.664962847826,50544.84910307516,0.0,0.0,0.0,193.0,0.0,193.0,0.0,17.0,0.0,178.0,193.0,17.0,178.0,1744418671.3086731,0.0,2025-04-11 20:44:31.308,BACKWARD,18
217.0,5631.566719003525,-12995.90772341582,-24815.890171037936,-24184.45339017551,15361.549301332154,3949.2403208303836,35467.23401155877,50425.893119084016,0.0,0.0,0.0,193.0,0.0,193.0,0.0,17.0,0.0,179.0,193.0,17.0,179.0,1744418671.3087275,0.0,2025-04-11 20:44:31.308,BACKWARD,18
218.0,5646.922367444321,-12957.127446785862,-24822.081604252053,-24129.356340093178,15236.848919015994,4095.577191779279,35259.429843357786,50419.187595747426,0.0,0.0,0.0,193.0,0.0,193.0,0.0,17.0,0.0,179.0,193.0,17.0,179.0,1744418671.3087811,0.0,2025-04-11 20:44:31.308,BACKWARD,18
219.0,5658.478219327715,-12927.779606316044,-24806.81536278908,-24106.803429937772,15183.741174190185,4266.635092095744,35003.85999725581,50502.716064776905,0.0,0.0,0.0,193.0,0.0,193.0,0.0,17.0,0.0,179.0,193.0,17.0,179.0,1744418671.3088179,0.0,2025-04-11 20:44:31.308,BACKWARD,18
220.0,5631.969050403721,-12969.7114789142,-24787.9504904688,-24140.643971043108,15360.968155976316,4187.6887306796,35225.74576446364,50520.91038476353,0.0,0.0,0.0,193.0,0.0,193.0,0.0,17.0,0.0,179.0,193.0,17.0,179.0,1744418671.3091092,0.0,2025-04-11 20:44:31.309,BACKWARD,18
221.0,5631.678477725802,-12983.793077921044,-24802.076792964555,-24159.486491618933,15372.501656115253,3975.2353996319057,35485.96477341232,50405.620086863055,0.0,0.0,0.0,193.0,0.0,193.0,0.0,17.0,0.0,178.0,193.0,17.0,178.0,1744418671.3091702,0.0,2025-04-11 20:44:31.309,BACKWARD,18
222.0,5651.59388203548,-12943.671696623767,-24810.726918068758,-24113.39719455209,15255.937308780827,4073.672482213078,35317.47732370822,50362.570627042136,0.0,0.0,0.0,193.0,0.0,193.0,0.0,17.0,0.0,179.0,193.0,17.0,179.0,1744418671.3092113,0.0,2025-04-11 20:44:31.309,BACKWARD,18
223.0,5658.12059141643,-12919.688274823222,-24807.105935467,-24096.208703065957,15197.688662730297,4301.6155721683,35041.992073296555,50451.93290137445,0.0,0.0,0.0,193.0,0.0,192.0,0.0,17.0,0.0,179.0,192.0,17.0,179.0,1744418671.309245,0.0,2025-04-11 20:44:31.309,BACKWARD,18
224.0,5659.484047828204,-12941.03419077804,-24773.600670528493,-24123.835459212718,15343.109112156524,4260.331900159347,35146.017091991554,50461.65591021251,0.0,0.0,0.0,193.0,0.0,193.0,0.0,17.0,0.0,179.0,193.0,17.0,179.0,1744418671.3093045,0.0,2025-04-11 20:44:31.309,BACKWARD,18
225.0,5642.563777275536,-12984.262464554604,-24807.06123197809,-24171.198805713513,15394.786345337196,4051.1195720576734,35493.050276404654,50379.15562142797,0.0,0.0,0.0,193.0,0.0,193.0,0.0,17.0,0.0,179.0,193.0,17.0,179.0,1744418671.3093357,0.0,2025-04-11 20:44:31.309,BACKWARD,18
226.0,5646.900015699865,-12961.687202654744,-24826.887229309945,-24133.603171539686,15271.136495010436,4046.5821679332457,35380.82216749456,50305.52897519219,0.0,0.0,0.0,193.0,0.0,192.0,0.0,17.0,0.0,178.0,192.0,17.0,178.0,1744418671.309366,0.0,2025-04-11 20:44:31.309,BACKWARD,18
227.0,5660.758097262156,-12911.84281251941,-24815.66665359338,-24095.739316432395,15182.154200333858,4281.253132969515,35097.80437920146,50392.343150656605,0.0,0.0,0.0,193.0,0.0,193.0,0.0,17.0,0.0,179.0,193.0,17.0,179.0,1744418671.3093956,0.0,2025-04-11 20:44:31.309,BACKWARD,18
228.0,5652.1750273913185,-12942.911737312286,-24794.030164960644,-24125.06480515776,15279.250178247712,4263.237626938538,35099.34664956888,50412.817348577664,0.0,0.0,0.0,193.0,0.0,192.0,0.0,17.0,0.0,178.0,192.0,17.0,178.0,1744418671.309425,0.0,2025-04-11 20:44:31.309,BACKWARD,18
229.0,5636.752323717156,-12990.632711724367,-24799.975728985755,-24176.63027961615,15384.66100509894,4053.578263947757,35487.55174726865,50359.888417707494,0.0,0.0,0.0,193.0,0.0,193.0,0.0,17.0,0.0,179.0,193.0,17.0,179.0,1744418671.309455,0.0,2025-04-11 20:44:31.309,BACKWARD,18
230.0,5647.436457566793,-12971.276101026071,-24828.67536886637,-24166.303773677802,15261.88287280594,3913.544584935258,35426.218560483285,50242.720573272774,0.0,0.0,0.0,193.0,0.0,192.0,0.0,17.0,0.0,179.0,192.0,17.0,179.0,1744418671.3094847,0.0,2025-04-11 20:44:31.309,BACKWARD,18
231.0,5666.368385120438,-12928.159585971784,-24832.832793335056,-24120.929732433528,15147.866624339418,4135.765628309921,35143.60310359039,50312.81564388462,0.0,0.0,0.0,193.0,0.0,193.0,0.0,17.0,0.0,179.0,193.0,17.0,179.0,1744418671.3095143,0.0,2025-04-11 20:44:31.309,BACKWARD,18
232.0,5668.804725266066,-12923.353960913893,-24786.162350912375,-24099.114429845147,15251.645773845408,4259.303719914404,35045.23307624258,50344.71158322234,0.0,0.0,0.0,193.0,0.0,193.0,0.0,17.0,0.0,179.0,193.0,17.0,179.0,1744418671.3095443,0.0,2025-04-11 20:44:31.309,BACKWARD,18
233.0,5633.868948682421,-12976.327595272971,-24783.211920644277,-24138.229982641937,15437.72404643584,4159.302015221359,35443.630569413974,50326.47255974681,0.0,0.0,0.0,193.0,0.0,192.0,0.0,17.0,0.0,178.0,192.0,17.0,178.0,1744418671.309574,0.0,2025-04-11 20:44:31.309,BACKWARD,18
234.0,5641.267376097128,-12961.307222999005,-24810.905732024403,-24132.463232572467,15318.209268833312,4026.3761909456484,35475.41475002942,50200.20755531878,0.0,0.0,0.0,193.0,0.0,193.0,0.0,17.0,0.0,179.0,193.0,17.0,179.0,1744418671.3096037,0.0,2025-04-11 20:44:31.309,BACKWARD,18
235.0,5653.203207636262,-12928.114882482872,-24830.418804933885,-24096.789848421795,15173.638185696387,4227.474835810046,35220.44840102773,50249.94018673184,0.0,0.0,0.0,193.0,0.0,193.0,0.0,17.0,0.0,178.0,193.0,17.0,178.0,1744418671.3096504,0.0,2025-04-11 20:44:31.309,BACKWARD,18
236.0,5664.021451952631,-12920.068254478963,-24799.9533772413,-24090.82193265223,15216.486479817211,4306.912935604208,35048.25056174405,50303.137338535475,0.0,0.0,0.0,193.0,0.0,192.0,0.0,17.0,0.0,178.0,192.0,17.0,178.0,1744418671.3096807,0.0,2025-04-11 20:44:31.309,BACKWARD,18
237.0,5640.038030152086,-12964.056487567006,-24790.364478869975,-24143.39323561111,15382.559941120142,4175.618788673733,35424.3633656935,50309.507585705236,0.0,0.0,0.0,193.0,0.0,193.0,0.0,17.0,0.0,179.0,193.0,17.0,179.0,1744418671.30971,0.0,2025-04-11 20:44:31.309,BACKWARD,18
238.0,5648.397582578371,-12957.909757841797,-24816.024281504666,-24144.06378794477,15309.98382687376,4001.5881063447127,35527.516666354735,50168.46807819224,0.0,0.0,0.0,193.0,0.0,192.0,0.0,17.0,0.0,178.0,192.0,17.0,178.0,1744418671.3097396,0.0,2025-04-11 20:44:31.309,BACKWARD,18
239.0,5643.0778673980085,-12946.219795491672,-24840.119462027487,-24117.68872948751,15212.127889648425,4197.009408117462,35299.39476244387,50188.98697960222,0.0,0.0,0.0,193.0,0.0,193.0,0.0,17.0,0.0,179.0,193.0,17.0,179.0,1744418671.3097816,0.0,2025-04-11 20:44:31.309,BACKWARD,18
240.0,5656.064230926541,-12924.538603370023,-24803.44024937633,-24094.934653632004,15222.92378222034,4322.223880556093,35069.350608509856,50255.595178079035,0.0,0.0,0.0,193.0,0.0,193.0,0.0,17.0,0.0,179.0,193.0,17.0,179.0,1744418671.309811,0.0,2025-04-11 20:44:31.309,BACKWARD,18
241.0,5644.240158109684,-12946.666830380778,-24771.387847827416,-24117.174639365036,15397.222685482824,4219.8752426952415,35355.967027660256,50255.50577110121,0.0,0.0,0.0,193.0,0.0,192.0,0.0,17.0,0.0,179.0,192.0,17.0,179.0,1744418671.309841,0.0,2025-04-11 20:44:31.309,BACKWARD,18
242.0,5643.904881942854,-12956.523949685568,-24807.307101167098,-24148.06475020227,15335.688332997363,3996.916591753554,35554.852849823576,50123.675182303814,0.0,0.0,0.0,193.0,0.0,193.0,0.0,17.0,0.0,179.0,193.0,17.0,179.0,1744418671.3098705,0.0,2025-04-11 20:44:31.309,BACKWARD,18
243.0,5647.4811610557035,-12945.504539669102,-24838.174860259875,-24123.768403979353,15205.690587245297,4111.2234128979935,35364.88537369792,50106.03965592857,0.0,0.0,0.0,193.0,0.0,193.0,0.0,17.0,0.0,179.0,193.0,17.0,179.0,1744418671.3099003,0.0,2025-04-11 20:44:31.309,BACKWARD,18
244.0,5667.55302757657,-12918.481280622636,-24809.251702934707,-24091.5371884748,15174.979290363704,4283.555362648412,35084.61684997283,50172.42433696084,0.0,0.0,0.0,193.0,0.0,192.0,0.0,17.0,0.0,178.0,192.0,17.0,178.0,1744418671.30993,0.0,2025-04-11 20:44:31.309,BACKWARD,18
245.0,5658.321757116528,-12948.723190870667,-24772.594842028004,-24114.090098630204,15353.301507628144,4228.234795121526,35277.35594241094,50184.8966103669,0.0,0.0,0.0,193.0,0.0,193.0,0.0,17.0,0.0,179.0,193.0,17.0,179.0,1744418671.3099597,0.0,2025-04-11 20:44:31.309,BACKWARD,18
246.0,5640.127437129908,-12973.891255127342,-24807.463563378285,-24155.798453783806,15353.61443205052,4011.869908794154,35563.77119586125,50080.84923992744,0.0,0.0,0.0,193.0,0.0,192.0,0.0,17.0,0.0,179.0,192.0,17.0,179.0,1744418671.3099897,0.0,2025-04-11 20:44:31.309,BACKWARD,18
247.0,5642.362611575439,-12955.205196762705,-24827.535429899148,-24124.72952899093,15220.509793819165,4060.999043106919,35401.92221426037,50019.80662582,0.0,0.0,0.0,193.0,0.0,192.0,0.0,17.0,0.0,178.0,192.0,17.0,178.0,1744418671.3100193,0.0,2025-04-11 20:44:31.310,BACKWARD,18
248.0,5662.300367629572,-12917.654266077789,-24808.223522689765,-24093.660604198052,15163.959880347238,4266.568036862378,35100.151312369264,50089.90169643184,0.0,0.0,0.0,193.0,0.0,193.0,0.0,17.0,0.0,179.0,193.0,17.0,179.0,1744418671.3100488,0.0,2025-04-11 20:44:31.310,BACKWARD,18
249.0,5657.293576871583,-12925.097396981408,-24778.540406053115,-24105.283511314814,15313.828326920073,4228.458312566079,35190.51941520207,50108.721865263215,0.0,0.0,0.0,193.0,0.0,192.0,0.0,17.0,0.0,178.0,192.0,17.0,178.0,1744418671.3100786,0.0,2025-04-11 20:44:31.310,BACKWARD,18
250.0,5643.793123220578,-12955.339307229437,-24793.67253704936,-24143.929677478038,15373.216911937823,4025.996211289908,35554.49522191229,50039.923195829775,0.0,0.0,0.0,193.0,0.0,192.0,0.0,17.0,0.0,179.0,192.0,17.0,179.0,1744418671.3101208,0.0,2025-04-11 20:44:31.310,BACKWARD,18
251.0,5644.284861598595,-12949.013763548586,-24818.61708386148,-24120.549752777788,15251.69047733432,4029.6618973805785,35455.18642129737,49953.041965132,0.0,0.0,0.0,193.0,0.0,193.0,0.0,17.0,0.0,179.0,193.0,17.0,179.0,1744418671.3101504,0.0,2025-04-11 20:44:31.310,BACKWARD,18
252.0,5661.428649595815,-12922.884574280331,-24813.766755314682,-24083.982298848903,15131.303981698034,4272.915932287685,35162.42327242175,50022.377076432356,0.0,0.0,0.0,193.0,0.0,192.0,0.0,17.0,0.0,178.0,192.0,17.0,178.0,1744418671.310207,0.0,2025-04-11 20:44:31.310,BACKWARD,18
253.0,5666.904826987366,-12933.524004641058,-24767.789216970115,-24080.629537180608,15274.355146212,4295.602952909822,35142.77608904554,50038.47033244018,0.0,0.0,0.0,193.0,0.0,193.0,0.0,17.0,0.0,179.0,193.0,17.0,179.0,1744418671.3102376,0.0,2025-04-11 20:44:31.310,BACKWARD,18
254.0,5639.92627142981,-12977.623996451379,-24781.982574699232,-24136.687712274517,15398.966121550337,4132.926956764097,35539.29603568269,49995.242058663614,0.0,0.0,0.0,193.0,0.0,193.0,0.0,17.0,0.0,179.0,193.0,17.0,179.0,1744418671.3102825,0.0,2025-04-11 20:44:31.310,BACKWARD,18
255.0,5641.043858652575,-12958.736772386645,-24812.403298902907,-24128.998712181892,15264.54273039612,4033.327583471249,35514.68676503739,49885.60675211034,0.0,0.0,0.0,193.0,0.0,192.0,0.0,17.0,0.0,178.0,192.0,17.0,178.0,1744418671.3103127,0.0,2025-04-11 20:44:31.310,BACKWARD,18
0.0,5646.229463366207,-12932.719341840666,-24823.042729263634,-24096.34281353269,15156.740266888175,4254.185170434138,35261.26268640312,49959.523971024035,0.0,0.0,0.0,193.0,0.0,193.0,0.0,17.0,0.0,179.0,193.0,17.0,179.0,1744418671.3103423,0.0,2025-04-11 20:44:31.310,BACKWARD,18
1.0,5669.564684577547,-12922.12461496885,-24777.71339150827,-24080.67424066952,15243.68855281932,4283.175382992671,35146.26296118057,49982.92624746874,0.0,0.0,0.0,193.0,0.0,192.0,0.0,17.0,0.0,178.0,192.0,17.0,178.0,1744418671.310372,0.0,2025-04-11 20:44:31.310,BACKWARD,18
2.0,5654.4102018368485,-12956.881577596854,-24771.387847827416,-24116.168810864547,15401.044833784681,4144.192235969572,35532.54580885718,49949.44333427469,0.0,0.0,0.0,193.0,0.0,192.0,0.0,18.0,0.0,178.0,192.0,18.0,178.0,1744418671.310402,0.0,2025-04-11 20:44:31.310,BACKWARD,18
3.0,5650.1857221347955,-12959.742600887133,-24806.793011044625,-24123.81310746826,15308.016873361692,4004.65029533509,35564.441748194906,49805.4086930047,0.0,0.0,0.0,193.0,0.0,193.0,0.0,17.0,0.0,179.0,193.0,17.0,179.0,1744418671.3104312,0.0,2025-04-11 20:44:31.310,BACKWARD,18
4.0,5639.993326663176,-12946.040981536029,-24841.415863205893,-24108.345700305188,15173.369964762924,4215.181376359627,35323.91462611135,49850.96154820461,0.0,0.0,0.0,193.0,0.0,192.0,0.0,17.0,0.0,178.0,192.0,17.0,178.0,1744418671.3104608,0.0,2025-04-11 20:44:31.310,BACKWARD,18
5.0,5662.993271707687,-12917.140175955317,-24807.798839545114,-24092.43125825301,15178.108534587449,4304.5660024364,35130.66144355076,49897.76610109402,0.0,0.0,0.0,193.0,0.0,193.0,0.0,17.0,0.0,179.0,193.0,17.0,179.0,1744418671.3104904,0.0,2025-04-11 20:44:31.310,BACKWARD,18
6.0,5641.736762730689,-12948.969060059675,-24793.76194402718,-24130.317465104756,15385.80094406616,4187.509916723957,35474.40892152893,49874.587342093866,0.0,0.0,0.0,193.0,0.0,192.0,0.0,17.0,0.0,178.0,192.0,17.0,178.0,1744418671.31052,0.0,2025-04-11 20:44:31.310,BACKWARD,18
7.0,5628.079846868497,-12968.19156029124,-24826.14962174292,-24150.076407203247,15341.522138300197,3971.4132513300483,35608.31822256067,49732.36319212475,0.0,0.0,0.0,193.0,0.0,193.0,0.0,17.0,0.0,179.0,193.0,17.0,179.0,1744418671.3105495,0.0,2025-04-11 20:44:31.310,BACKWARD,18
8.0,5634.517149271625,-12957.641536908333,-24837.92899107087,-24108.949197405484,15197.800421452574,4135.922090521109,35398.99413573672,49752.43505864561,0.0,0.0,0.0,193.0,0.0,193.0,0.0,17.0,0.0,179.0,193.0,17.0,179.0,1744418671.3105788,0.0,2025-04-11 20:44:31.310,BACKWARD,18
9.0,5659.21582689474,-12926.058521992985,-24799.416935374375,-24071.28650799829,15172.565301962532,4283.242438226037,35154.62251360685,49815.13170184275,0.0,0.0,0.0,193.0,0.0,192.0,0.0,17.0,0.0,178.0,192.0,17.0,178.0,1744418671.3106213,0.0,2025-04-11 20:44:31.310,BACKWARD,18
10.0,5639.300422585061,-12960.748429387622,-24769.510301293172,-24103.92005490304,15387.790249322683,4209.749902456988,35423.692813359834,49810.81781516288,0.0,0.0,0.0,193.0,0.0,193.0,0.0,17.0,0.0,179.0,193.0,17.0,179.0,1744418671.310651,0.0,2025-04-11 20:44:31.310,BACKWARD,18
11.0,5632.527844015103,-12972.952481860219,-24805.317795910574,-24141.06865418776,15366.958423490338,4001.3198854112493,35646.24913290133,49680.61890371072,0.0,0.0,0.0,193.0,0.0,192.0,0.0,17.0,0.0,178.0,192.0,17.0,178.0,1744418671.3106809,0.0,2025-04-11 20:44:31.310,BACKWARD,18
12.0,5632.147864359363,-12955.22754850716,-24832.877496823967,-24109.977377650426,15238.949982994794,4114.375008866192,35475.5265087517,49658.356566233226,0.0,0.0,0.0,193.0,0.0,193.0,0.0,17.0,0.0,179.0,193.0,17.0,179.0,1744418671.3107104,0.0,2025-04-11 20:44:31.310,BACKWARD,18
13.0,5651.504475057659,-12923.488071380625,-24811.19630470232,-24084.5857959492,15182.444773011777,4297.4134442107015,35197.828435638956,49725.948241466074,0.0,0.0,0.0,193.0,0.0,193.0,0.0,17.0,0.0,179.0,193.0,17.0,179.0,1744418671.3107529,0.0,2025-04-11 20:44:31.310,BACKWARD,18
14.0,5650.856274468455,-12937.681429109745,-24767.275126847642,-24100.835514168208,15352.563900061119,4235.543815558412,35369.48983305572,49729.92685197912,0.0,0.0,0.0,193.0,0.0,192.0,0.0,18.0,0.0,178.0,192.0,18.0,178.0,1744418671.310783,0.0,2025-04-11 20:44:31.310,BACKWARD,18
15.0,5629.68917246928,-12963.274176511071,-24806.703604066803,-24148.556488580285,15368.254824668746,3986.0759956927295,35674.5687931262,49620.55976635931,0.0,0.0,0.0,193.0,0.0,193.0,0.0,17.0,0.0,179.0,193.0,17.0,179.0,1744418671.3108127,0.0,2025-04-11 20:44:31.310,BACKWARD,18
16.0,5638.562815018036,-12931.847623806909,-24829.032996777656,-24111.25142708438,15244.359105152978,4029.0136967913745,35521.07936395161,49532.35978273866,0.0,0.0,0.0,193.0,0.0,192.0,0.0,17.0,0.0,178.0,192.0,17.0,178.0,1744418671.3108423,0.0,2025-04-11 20:44:31.310,BACKWARD,18
17.0,5652.778524491611,-12910.07702470744,-24818.95236002831,-24083.602319193164,15171.760639162141,4268.423231652168,35219.86725567189,49591.07781542275,0.0,0.0,0.0,193.0,0.0,193.0,0.0,17.0,0.0,179.0,193.0,17.0,179.0,1744418671.310872,0.0,2025-04-11 20:44:31.310,BACKWARD,18
18.0,5656.064230926541,-12931.758216829088,-24768.48212104823,-24088.407944251056,15340.024571421693,4260.376603648258,35277.64651508886,49592.083643923244,0.0,0.0,0.0,193.0,0.0,192.0,0.0,17.0,0.0,178.0,192.0,17.0,178.0,1744418671.3109019,0.0,2025-04-11 20:44:31.310,BACKWARD,18
