Sample Index,EXG Channel 0,EXG Channel 1,EXG Channel 2,EXG Channel 3,EXG Channel 4,EXG Channel 5,EXG Channel 6,EXG Channel 7,Accel Channel 0,Accel Channel 1,Accel Channel 2,Not Used,Digital Channel 0 (D11),Digital Channel 1 (D12),Digital Channel 2 (D13),Digital Channel 3 (D17),Not Used,Digital Channel 4 (D18),Analog Channel 0,Analog Channel 1,Analog Channel 2,Timestamp,Marker Channel,Timestamp (Formatted),Stimulus_Direction,Stimulus_Number
15.0,12231.634525255506,1103.080940613859,-58846.55521470967,-55503.963590140775,-33755.15744151562,-30986.13393141436,-7421.270897539962,-20759.54029077772,0.0,0.0,0.0,193.0,1.0,155.0,0.0,10.0,3.0,252.0,411.0,10.0,1020.0,1744252829.9975195,0.0,2025-04-09 22:40:29.997,BACKWARD,32
16.0,12205.237115053787,1123.912766446205,-58788.41832738141,-55463.08224953202,-33671.53956550832,-30913.580168912435,-7487.879096016776,-20689.80284807716,0.0,0.0,0.0,193.0,1.0,155.0,0.0,9.0,3.0,250.0,411.0,9.0,1018.0,1744252829.9975288,0.0,2025-04-09 22:40:29.997,BACKWARD,32
17.0,12149.804788804626,1125.2762228579788,-58819.151976007466,-55489.16673531136,-33684.66003950358,-30934.814326144973,-7354.8862165077,-20709.76295587575,0.0,0.0,0.0,193.0,1.0,155.0,0.0,8.0,3.0,251.0,411.0,8.0,1019.0,1744252829.9975688,0.0,2025-04-09 22:40:29.997,BACKWARD,32
18.0,12116.143061654933,1078.1140420572808,-58836.69809540488,-55490.70900567878,-33732.40336566012,-30982.378838345867,-7370.018347503942,-20754.086465130626,0.0,0.0,0.0,193.0,1.0,155.0,0.0,8.0,3.0,252.0,411.0,8.0,1020.0,1744252829.997578,0.0,2025-04-09 22:40:29.997,BACKWARD,32
19.0,12219.095196616077,1094.006132365004,-58846.35404900957,-55491.62542720145,-33755.89504908265,-31003.52358860059,-7336.200158143063,-20770.2020728829,0.0,0.0,0.0,193.0,1.0,154.0,0.0,7.0,3.0,249.0,410.0,7.0,1017.0,1744252829.9975867,0.0,2025-04-09 22:40:29.997,BACKWARD,32
20.0,12203.426623752908,1110.2111470951018,-58798.364853664025,-55485.568104454054,-33671.27134457485,-30918.385793970323,-7532.403770971749,-20692.149781244967,0.0,0.0,0.0,193.0,1.0,155.0,0.0,7.0,3.0,252.0,411.0,7.0,1020.0,1744252829.9975958,0.0,2025-04-09 22:40:29.997,BACKWARD,32
21.0,12155.280966196176,1117.0954843873365,-58816.5815253951,-55482.148287552394,-33678.423902800554,-30938.36825351337,-7338.278870377407,-20705.516124429243,0.0,0.0,0.0,193.0,1.0,155.0,0.0,7.0,3.0,252.0,411.0,7.0,1020.0,1744252829.9976046,0.0,2025-04-09 22:40:29.997,BACKWARD,32
22.0,12099.021625402169,1071.0061873204932,-58843.470673974836,-55515.69825597981,-33725.116696967685,-30982.624707534877,-7421.248545795506,-20753.72883721934,0.0,0.0,0.0,193.0,1.0,155.0,0.0,6.0,3.0,250.0,411.0,6.0,1018.0,1744252829.9976134,0.0,2025-04-09 22:40:29.997,BACKWARD,32
23.0,12205.482984242795,1084.4619374825882,-58841.88370011851,-55477.00738632768,-33761.1700607741,-31013.917149772307,-7300.660884459125,-20783.009622455793,0.0,0.0,0.0,193.0,1.0,155.0,0.0,6.0,3.0,252.0,411.0,6.0,1020.0,1744252829.9976227,0.0,2025-04-09 22:40:29.997,BACKWARD,32
24.0,12208.478117999806,1100.175213834669,-58811.82060382612,-55516.10058738001,-33689.756237239395,-30937.630645946345,-7585.31035009746,-20728.024331095738,0.0,0.0,0.0,193.0,1.0,155.0,0.0,6.0,3.0,250.0,411.0,6.0,1018.0,1744252829.9976315,0.0,2025-04-09 22:40:29.997,BACKWARD,32
25.0,12164.780457589683,1117.9224989321826,-58811.932362548396,-55476.895627605394,-33684.28005984784,-30946.481936750646,-7352.941614740088,-20738.70846494537,0.0,0.0,0.0,193.0,1.0,155.0,0.0,5.0,3.0,252.0,411.0,5.0,1020.0,1744252829.9976404,0.0,2025-04-09 22:40:29.997,BACKWARD,32
26.0,12100.698006236316,1086.4065392501998,-58838.642697172494,-55526.11416889598,-33711.95151948351,-30974.913355697794,-7447.869473441777,-20769.553872293698,0.0,0.0,0.0,193.0,1.0,156.0,0.0,5.0,3.0,250.0,412.0,5.0,1018.0,1744252829.9976497,0.0,2025-04-09 22:40:29.997,BACKWARD,32
27.0,12202.443146996875,1101.4045597797108,-58821.163633008444,-55450.833493570506,-33738.97477852998,-30995.745181530143,-7250.727087345968,-20756.25458434279,0.0,0.0,0.0,193.0,1.0,154.0,0.0,5.0,3.0,250.0,410.0,5.0,1018.0,1744252829.9976583,0.0,2025-04-09 22:40:29.997,BACKWARD,32
28.0,12224.61607749654,1105.6737429706745,-58816.84974632857,-55523.2084421168,-33688.549243038804,-30939.485840736135,-7551.11218108084,-20713.898028599982,0.0,0.0,0.0,193.0,1.0,154.0,0.0,5.0,3.0,249.0,410.0,5.0,1017.0,1744252829.9976668,0.0,2025-04-09 22:40:29.997,BACKWARD,32
29.0,12163.104076755533,1104.5338040034537,-58820.604839397056,-55485.232828287226,-33690.650307017604,-30955.087358365938,-7354.997975229976,-20725.3421217611,0.0,0.0,0.0,193.0,1.0,155.0,0.0,5.0,3.0,251.0,411.0,5.0,1019.0,1744252829.9976757,0.0,2025-04-09 22:40:29.997,BACKWARD,32
30.0,12091.466735776274,1074.5377629444317,-58862.02262187274,-55554.27736690967,-33723.73088881146,-30984.815178491495,-7445.790761207433,-20764.614136769073,0.0,0.0,0.0,193.0,1.0,155.0,0.0,4.0,3.0,252.0,411.0,4.0,1020.0,1744252829.997684,0.0,2025-04-09 22:40:29.997,BACKWARD,32
31.0,12165.048678523146,1082.6961496706188,-58836.899261104976,-55466.7926391116,-33753.838688592754,-31010.27381542609,-7250.615328623692,-20776.1029334191,0.0,0.0,0.0,193.0,1.0,155.0,0.0,4.0,3.0,249.0,411.0,4.0,1017.0,1744252830.2459865,0.0,2025-04-09 22:40:30.245,BACKWARD,32
32.0,12229.511109532252,1109.3841325502553,-58832.294801747186,-55526.74001774073,-33713.53849333984,-30955.780262444052,-7473.171648165185,-20743.402331280988,0.0,0.0,0.0,193.0,1.0,155.0,0.0,4.0,3.0,251.0,411.0,4.0,1019.0,1744252830.2460525,0.0,2025-04-09 22:40:30.246,BACKWARD,32
33.0,12184.472344454807,1118.0342576544592,-58799.705958331346,-55462.992842554195,-33673.66298123157,-30925.06896556246,-7311.948515409054,-20706.410194207456,0.0,0.0,0.0,193.0,1.0,155.0,0.0,4.0,3.0,252.0,411.0,4.0,1020.0,1744252830.2460637,0.0,2025-04-09 22:40:30.246,BACKWARD,32
34.0,12115.897192465925,1101.4045597797108,-58838.10625530556,-55525.06363690658,-33694.785379741836,-30945.4537565057,-7311.166204353119,-20722.30228451518,0.0,0.0,0.0,193.0,1.0,155.0,0.0,4.0,3.0,249.0,411.0,4.0,1017.0,1744252830.2460742,0.0,2025-04-09 22:40:30.246,BACKWARD,32
35.0,12143.83687303506,1077.4881932125322,-58833.70296164787,-55468.82664785703,-33742.55105764283,-30994.627594307378,-7196.859383208679,-20761.283726845235,0.0,0.0,0.0,193.0,1.0,156.0,0.0,4.0,3.0,251.0,412.0,4.0,1019.0,1744252830.2460887,0.0,2025-04-09 22:40:30.246,BACKWARD,32
36.0,12233.266202600742,1099.6164202232862,-58838.53093845021,-55521.88968919393,-33728.44710689153,-30971.13591088485,-7376.522705140437,-20762.73659023483,0.0,0.0,0.0,193.0,1.0,154.0,0.0,4.0,3.0,249.0,410.0,4.0,1017.0,1744252830.2460983,0.0,2025-04-09 22:40:30.246,BACKWARD,32
37.0,12191.110812558034,1110.434664539655,-58799.05775774214,-55473.72167989275,-33678.96034466748,-30929.87459062035,-7361.815257288845,-20729.92422937444,0.0,0.0,0.0,193.0,1.0,155.0,0.0,4.0,3.0,252.0,411.0,4.0,1020.0,1744252830.246107,0.0,2025-04-09 22:40:30.246,BACKWARD,32
38.0,12125.508442581708,1099.2140888230908,-58839.71558090635,-55526.695314251825,-33702.72024902347,-30954.640323476833,-7303.924239149599,-20745.52574700424,0.0,0.0,0.0,193.0,1.0,155.0,0.0,4.0,3.0,249.0,411.0,4.0,1017.0,1744252830.2461164,0.0,2025-04-09 22:40:30.246,BACKWARD,32
39.0,12130.939916484347,1081.8467833813172,-58825.075188288116,-55478.77317413964,-33723.172095200076,-30979.89779471133,-7236.846654039223,-20748.476177272343,0.0,0.0,0.0,193.0,1.0,155.0,0.0,4.0,3.0,248.0,411.0,4.0,1016.0,1744252830.2461255,0.0,2025-04-09 22:40:30.246,BACKWARD,32
40.0,12237.490682302796,1110.2782023284676,-58831.423083713424,-55498.152136582394,-33731.30813018181,-30979.98720168915,-7278.06327081481,-20754.98053490884,0.0,0.0,0.0,193.0,1.0,155.0,0.0,3.0,3.0,251.0,411.0,3.0,1019.0,1744252830.2461343,0.0,2025-04-09 22:40:30.246,BACKWARD,32
41.0,12215.138937847489,1130.2159583826017,-58780.7740307777,-55468.670185645846,-33657.435614757014,-30907.746363609596,-7390.738414614012,-20690.942787044383,0.0,0.0,0.0,193.0,1.0,154.0,0.0,3.0,3.0,249.0,410.0,3.0,1017.0,1744252830.246143,0.0,2025-04-09 22:40:30.246,BACKWARD,32
42.0,12147.524910870185,1121.2976123449341,-58820.1354527635,-55497.056901104086,-33682.93895518052,-30941.430442503744,-7245.519130887882,-20715.328540245122,0.0,0.0,0.0,193.0,1.0,155.0,0.0,3.0,3.0,252.0,411.0,3.0,1020.0,1744252830.2461524,0.0,2025-04-09 22:40:30.246,BACKWARD,32
43.0,12114.265515120687,1079.946885102616,-58833.03240931421,-55499.40383427189,-33721.272196921374,-30983.07174242398,-7280.119631304698,-20754.98053490884,0.0,0.0,0.0,193.0,1.0,155.0,0.0,3.0,3.0,249.0,411.0,3.0,1017.0,1744252830.2461612,0.0,2025-04-09 22:40:30.246,BACKWARD,32
44.0,12222.582068751106,1094.363760276289,-58839.44735997288,-55489.03262484463,-33748.67543562358,-31004.46236186771,-7218.674685797058,-20772.45959907289,0.0,0.0,0.0,193.0,1.0,155.0,0.0,3.0,3.0,251.0,411.0,3.0,1019.0,1744252830.2461708,0.0,2025-04-09 22:40:30.246,BACKWARD,32
45.0,12204.968894120324,1106.9030889157164,-58800.53297287619,-55500.186145327825,-33675.18289985453,-30928.01939583056,-7457.301909601916,-20713.965083833347,0.0,0.0,0.0,193.0,1.0,155.0,0.0,3.0,3.0,252.0,411.0,3.0,1020.0,1744252830.2461796,0.0,2025-04-09 22:40:30.246,BACKWARD,32
46.0,12153.716344084305,1116.4472837981325,-58814.97219979432,-55486.05984283207,-33682.067237146766,-30945.92314313926,-7252.157598991108,-20723.95631360487,0.0,0.0,0.0,193.0,1.0,154.0,0.0,3.0,3.0,249.0,410.0,3.0,1017.0,1744252830.2461884,0.0,2025-04-09 22:40:30.246,BACKWARD,32
47.0,12099.312198080088,1073.6436931662195,-58839.69322916189,-55519.72156998177,-33722.07685972177,-30984.234033135657,-7332.556823796848,-20760.210843111377,0.0,0.0,0.0,193.0,1.0,156.0,0.0,3.0,3.0,252.0,412.0,3.0,1020.0,1744252830.246203,0.0,2025-04-09 22:40:30.246,BACKWARD,32
48.0,12208.008731366246,1089.781652662951,-58835.35699073756,-55470.86065660247,-33757.39261596115,-31015.839399795463,-7202.223801877953,-20787.323509135666,0.0,0.0,0.0,193.0,1.0,155.0,0.0,3.0,3.0,249.0,411.0,3.0,1017.0,1744252830.246212,0.0,2025-04-09 22:40:30.246,BACKWARD,32
49.0,12224.034932140701,1112.334562818356,-58799.281275186695,-55507.2045930868,-33678.848585945205,-30933.875552877853,-7495.05400598693,-20726.01267409476,0.0,0.0,0.0,193.0,1.0,155.0,0.0,3.0,3.0,252.0,411.0,3.0,1020.0,1744252830.2462204,0.0,2025-04-09 22:40:30.246,BACKWARD,32
50.0,12172.93884431587,1123.1528071347245,-58798.76718506422,-55465.89856933339,-33672.03130388633,-30934.434346489234,-7252.157598991108,-20711.349929732078,0.0,0.0,0.0,193.0,1.0,155.0,0.0,3.0,3.0,251.0,411.0,3.0,1019.0,1744252830.2462292,0.0,2025-04-09 22:40:30.246,BACKWARD,32
51.0,12107.1576603839,1089.2899142849344,-58831.06545580214,-55523.43195956135,-33707.74939152591,-30967.93961142774,-7348.180693171107,-20753.572375008152,0.0,0.0,0.0,193.0,1.0,154.0,0.0,3.0,3.0,249.0,410.0,3.0,1017.0,1744252830.246238,0.0,2025-04-09 22:40:30.246,BACKWARD,32
52.0,12192.898952114458,1093.4696904980767,-58820.671894630425,-55452.6886883603,-33755.78329036037,-31008.57508284749,-7187.583409259726,-20782.473180588866,0.0,0.0,0.0,193.0,1.0,154.0,0.0,3.0,3.0,251.0,410.0,3.0,1019.0,1744252830.246247,0.0,2025-04-09 22:40:30.246,BACKWARD,32
53.0,12235.657839257461,1114.525033774976,-58804.39982466696,-55513.44072978982,-33698.58517629924,-30943.88913439383,-7503.905296791232,-20738.842575412105,0.0,0.0,0.0,193.0,1.0,154.0,0.0,3.0,3.0,249.0,410.0,3.0,1017.0,1744252830.246256,0.0,2025-04-09 22:40:30.246,BACKWARD,32
54.0,12182.527742687196,1121.1858536226575,-58786.11609770252,-55456.2426157287,-33672.835966686725,-30934.054366833494,-7290.937875621066,-20715.30618850067,0.0,0.0,0.0,193.0,1.0,155.0,0.0,3.0,3.0,252.0,411.0,3.0,1020.0,1744252830.2462647,0.0,2025-04-09 22:40:30.246,BACKWARD,32
55.0,12107.828212717559,1091.7933096639288,-58829.65729590146,-55524.52719503966,-33705.51421708038,-30960.74234971313,-7357.702536309068,-20747.53740400522,0.0,0.0,0.0,193.0,1.0,155.0,0.0,3.0,3.0,251.0,411.0,3.0,1019.0,1744252830.2462735,0.0,2025-04-09 22:40:30.246,BACKWARD,32
56.0,12169.206102991833,1088.9099346291941,-58822.63884814249,-55456.26496747315,-33752.92226707009,-31006.429315379777,-7217.400636363106,-20788.239930658332,0.0,0.0,0.0,193.0,1.0,155.0,0.0,3.0,3.0,251.0,411.0,3.0,1019.0,1744252830.2462823,0.0,2025-04-09 22:40:30.246,BACKWARD,32
57.0,12234.428493312418,1112.7592459630068,-58827.31036273365,-55525.86829970698,-33724.91553126759,-30968.230184105658,-7461.995775937531,-20763.116569890568,0.0,0.0,0.0,193.0,1.0,155.0,0.0,3.0,3.0,252.0,411.0,3.0,1020.0,1744252830.246291,0.0,2025-04-09 22:40:30.246,BACKWARD,32
58.0,12183.153591531944,1110.45701628411,-58791.05583322714,-55465.92092107784,-33682.49192029142,-30935.082547078437,-7342.6374605461915,-20721.117642059045,0.0,0.0,0.0,193.0,1.0,155.0,0.0,3.0,3.0,250.0,411.0,3.0,1018.0,1744252830.2463,0.0,2025-04-09 22:40:30.246,BACKWARD,32
59.0,12120.702817523816,1098.0070946225042,-58820.20250799686,-55521.33089558255,-33694.38304834164,-30952.159279842293,-7337.78713199939,-20735.91449688846,0.0,0.0,0.0,193.0,1.0,155.0,0.0,3.0,3.0,251.0,411.0,3.0,1019.0,1744252830.2463088,0.0,2025-04-09 22:40:30.246,BACKWARD,32
60.0,12132.97392522978,1068.2345710080351,-58824.583449910104,-55479.53313345112,-33748.02723503438,-31011.436106137768,-7247.173159977575,-20789.156352181002,0.0,0.0,0.0,193.0,1.0,154.0,0.0,3.0,3.0,249.0,410.0,3.0,1017.0,1744252830.2463176,0.0,2025-04-09 22:40:30.246,BACKWARD,32
61.0,12230.360475821553,1095.6825131991523,-58826.63981039999,-55520.92856418235,-33732.82804880477,-30985.821006991984,-7395.968722816554,-20773.845407229117,0.0,0.0,0.0,193.0,1.0,155.0,0.0,3.0,3.0,251.0,411.0,3.0,1019.0,1744252830.2463264,0.0,2025-04-09 22:40:30.246,BACKWARD,32
62.0,12194.351815504053,1111.8204726958838,-58777.51067608722,-55468.78194436812,-33666.08573986122,-30927.371195241358,-7401.333141485828,-20722.972836848836,0.0,0.0,0.0,193.0,1.0,155.0,0.0,3.0,3.0,252.0,411.0,3.0,1020.0,1744252830.2464004,0.0,2025-04-09 22:40:30.246,BACKWARD,32
63.0,12121.775701257671,1097.045969610926,-58824.136415021,-55519.699218237314,-33695.29946986431,-30956.65198047781,-7319.8610329462335,-20752.231270340835,0.0,0.0,0.0,193.0,1.0,154.0,0.0,3.0,3.0,249.0,410.0,3.0,1017.0,1744252830.2464092,0.0,2025-04-09 22:40:30.246,BACKWARD,32
64.0,12114.1090529095,1068.1228122857585,-58829.29966799017,-55498.77798542714,-33743.15455474312,-31001.914262999806,-7318.944611423566,-20795.07956446166,0.0,0.0,0.0,193.0,1.0,155.0,0.0,3.0,3.0,251.0,411.0,3.0,1019.0,1744252830.2464182,0.0,2025-04-09 22:40:30.246,BACKWARD,32
65.0,12231.23219385531,1096.4424725106326,-58829.29966799017,-55504.9023634079,-33747.02140653389,-31006.541074102057,-7343.687992535591,-20812.93860828145,0.0,0.0,0.0,193.0,1.0,155.0,0.0,3.0,3.0,252.0,411.0,3.0,1020.0,1744252830.2464268,0.0,2025-04-09 22:40:30.246,BACKWARD,32
66.0,12201.951408618857,1107.975972649571,-58785.87022851351,-55488.67499693335,-33668.67854221804,-30932.825020888453,-7462.778086993467,-20739.311962045667,0.0,0.0,0.0,193.0,1.0,155.0,0.0,3.0,3.0,249.0,411.0,3.0,1017.0,1744252830.2464354,0.0,2025-04-09 22:40:30.246,BACKWARD,32
67.0,12137.578384587572,1101.136338846247,-58821.02952254171,-55506.46698551977,-33689.3539058392,-30952.203983331205,-7285.416994740605,-20737.501470744788,0.0,0.0,0.0,193.0,1.0,155.0,0.0,3.0,3.0,251.0,411.0,3.0,1019.0,1744252830.2464442,0.0,2025-04-09 22:40:30.246,BACKWARD,32
68.0,12102.642608003927,1064.9712163175602,-58829.99257206829,-55510.49029952173,-33723.48501962245,-30980.166015644794,-7324.6219545152135,-20750.286668573222,0.0,0.0,0.0,193.0,1.0,154.0,0.0,3.0,3.0,249.0,410.0,3.0,1017.0,1744252830.2464533,0.0,2025-04-09 22:40:30.246,BACKWARD,32
69.0,12227.454749042363,1100.8010626794176,-58817.56500215114,-55474.01225257066,-33741.79109833135,-30994.515835585098,-7239.081828484754,-20767.16223563698,0.0,0.0,0.0,193.0,1.0,154.0,0.0,3.0,3.0,249.0,410.0,3.0,1017.0,1744252830.246462,0.0,2025-04-09 22:40:30.246,BACKWARD,32
70.0,12212.233211068298,1106.7913301934398,-58788.373623892505,-55500.87904940594,-33680.301449334795,-30931.88624762133,-7504.195869469151,-20728.20314505138,0.0,0.0,0.0,193.0,1.0,155.0,0.0,2.0,3.0,251.0,411.0,2.0,1019.0,1744252830.2464707,0.0,2025-04-09 22:40:30.246,BACKWARD,32
71.0,12157.091457497056,1109.6747052281744,-58808.04315901318,-55489.636121944925,-33694.47245531946,-30958.194250845227,-7300.169146081108,-20747.269183071756,0.0,0.0,0.0,193.0,1.0,154.0,0.0,2.0,3.0,250.0,410.0,2.0,1018.0,1744252830.2464795,0.0,2025-04-09 22:40:30.246,BACKWARD,32
72.0,12103.44727080432,1078.4493182241104,-58824.56109816565,-55521.53206128265,-33716.91360675259,-30986.35744885891,-7368.677242836624,-20772.45959907289,0.0,0.0,0.0,193.0,1.0,155.0,0.0,2.0,3.0,251.0,411.0,2.0,1019.0,1744252830.246488,0.0,2025-04-09 22:40:30.246,BACKWARD,32
73.0,12213.551963991162,1099.9069929012053,-58809.85365031406,-55456.35437445097,-33747.15551700062,-31009.960891003717,-7205.218935634964,-20786.38473586854,0.0,0.0,0.0,193.0,1.0,155.0,0.0,2.0,3.0,251.0,411.0,2.0,1019.0,1744252830.246497,0.0,2025-04-09 22:40:30.246,BACKWARD,32
74.0,12238.9882491813,1123.5551385349202,-58781.86926625601,-55500.65553196139,-33674.37823705414,-30932.10976506588,-7505.089939247363,-20731.399444508486,0.0,0.0,0.0,193.0,1.0,154.0,0.0,2.0,3.0,251.0,410.0,2.0,1019.0,1744252830.2465055,0.0,2025-04-09 22:40:30.246,BACKWARD,32
75.0,12181.901893842447,1125.9914786805487,-58786.38431863598,-55459.282452974614,-33674.86997543216,-30943.576209971456,-7278.912637104111,-20733.38874976501,0.0,0.0,0.0,193.0,1.0,155.0,0.0,2.0,3.0,252.0,411.0,2.0,1020.0,1744252830.246514,0.0,2025-04-09 22:40:30.246,BACKWARD,32
76.0,12106.889439450437,1087.2782572839567,-58830.61842091304,-55528.55050904161,-33715.57250208527,-30981.775341245575,-7383.675263366135,-20776.54996830821,0.0,0.0,0.0,193.0,1.0,154.0,0.0,2.0,3.0,250.0,410.0,2.0,1018.0,1744252830.246523,0.0,2025-04-09 22:40:30.246,BACKWARD,32
77.0,12190.395556735464,1093.5367457314428,-58819.84488008558,-55458.522493663135,-33756.92322932759,-31026.165905733815,-7218.09354044122,-20812.69273909244,0.0,0.0,0.0,193.0,1.0,155.0,0.0,2.0,3.0,251.0,411.0,2.0,1019.0,1744252830.2465367,0.0,2025-04-09 22:40:30.246,BACKWARD,32
78.0,12235.903708446469,1113.496853530032,-58810.16657473643,-55522.984924672244,-33703.88253973515,-30962.75400671411,-7510.141433494263,-20767.273994359257,0.0,0.0,0.0,193.0,1.0,155.0,0.0,2.0,3.0,252.0,411.0,2.0,1020.0,1744252830.2465456,0.0,2025-04-09 22:40:30.246,BACKWARD,32
79.0,12182.237170009277,1118.883623943761,-58791.43581288288,-55463.88691233241,-33680.68142899054,-30950.527602497055,-7324.979582426498,-20746.95625864938,0.0,0.0,0.0,193.0,1.0,154.0,0.0,2.0,3.0,250.0,410.0,2.0,1018.0,1744252830.2465544,0.0,2025-04-09 22:40:30.246,BACKWARD,32
80.0,12112.164451141889,1096.0848445993477,-58829.903165090465,-55532.03738117664,-33705.827141502756,-30975.874480709375,-7381.753013342979,-20769.553872293698,0.0,0.0,0.0,193.0,1.0,155.0,0.0,2.0,3.0,250.0,411.0,2.0,1018.0,1744252830.2465632,0.0,2025-04-09 22:40:30.246,BACKWARD,32
81.0,12160.846550565548,1089.625190451764,-58818.77199635172,-55461.09294427549,-33750.44122343555,-31013.492466627657,-7240.646450596625,-20786.2059219129,0.0,0.0,0.0,193.0,1.0,155.0,0.0,2.0,3.0,251.0,411.0,2.0,1019.0,1744252830.246572,0.0,2025-04-09 22:40:30.246,BACKWARD,32
82.0,12246.319621362642,1124.5162635464983,-58808.17726947991,-55509.1044913655,-33710.87863574966,-30964.475091037166,-7463.448639327126,-20758.333296577133,0.0,0.0,0.0,193.0,1.0,155.0,0.0,2.0,3.0,251.0,411.0,2.0,1019.0,1744252830.2465804,0.0,2025-04-09 22:40:30.246,BACKWARD,32
83.0,12212.903763401959,1137.9273102196826,-58765.4183823369,-55447.346621435485,-33658.24027755741,-30925.69481440721,-7371.9853010160095,-20720.20122053638,0.0,0.0,0.0,193.0,1.0,155.0,0.0,2.0,3.0,252.0,411.0,2.0,1020.0,1744252830.2465892,0.0,2025-04-09 22:40:30.246,BACKWARD,32
84.0,12136.281983409166,1110.45701628411,-58818.66023762945,-55519.31923858157,-33693.22075762996,-30967.02318990507,-7356.02615547492,-20765.172930380457,0.0,0.0,0.0,193.0,1.0,154.0,0.0,2.0,3.0,249.0,410.0,2.0,1017.0,1744252830.246598,0.0,2025-04-09 22:40:30.246,BACKWARD,32
85.0,12142.473416623285,1080.2151060360798,-58824.806967354656,-55481.63419742992,-33745.68030186657,-31023.930731288285,-7300.102090847742,-20817.45366066142,0.0,0.0,0.0,193.0,1.0,155.0,0.0,2.0,3.0,252.0,411.0,2.0,1020.0,1744252830.2466068,0.0,2025-04-09 22:40:30.246,BACKWARD,32
86.0,12244.822054484137,1110.8369959398503,-58828.584412167605,-55515.74295946872,-33739.041833763345,-31008.57508284749,-7416.7781969044445,-20816.20196297192,0.0,0.0,0.0,193.0,1.0,155.0,0.0,2.0,3.0,252.0,411.0,2.0,1020.0,1744252830.2466156,0.0,2025-04-09 22:40:30.246,BACKWARD,32
87.0,12206.578219721107,1125.1868158801576,-58782.45041161185,-55475.88979910491,-33670.91371666357,-30944.559686727487,-7447.690659486135,-20749.459654028375,0.0,0.0,0.0,193.0,1.0,154.0,0.0,2.0,3.0,249.0,410.0,2.0,1017.0,1744252830.2466245,0.0,2025-04-09 22:40:30.246,BACKWARD,32
88.0,12138.763027043704,1114.368571563789,-58824.40463595446,-55521.867337449476,-33693.55603379679,-30977.863785965896,-7338.614146544236,-20776.77348575276,0.0,0.0,0.0,193.0,1.0,155.0,0.0,2.0,3.0,252.0,411.0,2.0,1020.0,1744252830.2466333,0.0,2025-04-09 22:40:30.246,BACKWARD,32
89.0,12122.78152975816,1077.8458211238171,-58827.64563890048,-55507.13753785343,-33727.53068536886,-31012.866617782907,-7330.232242373496,-20792.15148593801,0.0,0.0,0.0,193.0,1.0,155.0,0.0,2.0,3.0,250.0,411.0,2.0,1018.0,1744252830.246642,0.0,2025-04-09 22:40:30.246,BACKWARD,32
90.0,12232.841519456091,1101.270449312979,-58830.01492381274,-55506.623447730955,-33736.42667966207,-31013.872446283396,-7310.048617130354,-20791.324471393167,0.0,0.0,0.0,193.0,1.0,154.0,0.0,2.0,3.0,251.0,410.0,2.0,1019.0,1744252830.2466507,0.0,2025-04-09 22:40:30.246,BACKWARD,32
91.0,12211.026216867713,1117.0507808984257,-58787.68071981439,-55499.761462183174,-33664.0964346047,-30939.619951202865,-7480.391261624249,-20729.320732274144,0.0,0.0,0.0,193.0,1.0,155.0,0.0,2.0,3.0,249.0,411.0,2.0,1017.0,1744252830.2466595,0.0,2025-04-09 22:40:30.246,BACKWARD,32
92.0,12151.83879755006,1118.3695338212888,-58814.50281316076,-55508.36688379847,-33681.53079527984,-30960.51883226858,-7304.214811827518,-20741.882412658026,0.0,0.0,0.0,193.0,1.0,155.0,0.0,2.0,3.0,251.0,411.0,2.0,1019.0,1744252830.7179928,0.0,2025-04-09 22:40:30.717,BACKWARD,32
93.0,12101.592076014529,1073.755451888496,-58835.44639771538,-55526.337686340536,-33724.692013823034,-30996.147512930336,-7366.978510258021,-20775.34297410762,0.0,0.0,0.0,193.0,1.0,155.0,0.0,2.0,3.0,252.0,411.0,2.0,1020.0,1744252830.7180407,0.0,2025-04-09 22:40:30.718,BACKWARD,32
94.0,12214.51308900274,1090.5416119744316,-58836.765150638246,-55495.93931388132,-33757.92905782808,-31023.573103377,-7270.955416078022,-20809.116459979592,0.0,0.0,0.0,193.0,1.0,154.0,0.0,2.0,3.0,250.0,410.0,2.0,1018.0,1744252830.7180605,0.0,2025-04-09 22:40:30.718,BACKWARD,32
95.0,12222.604420495561,1119.3753623217776,-58790.42998438239,-55510.467947777266,-33670.176109096545,-30927.92998885274,-7529.565099425924,-20728.694883429394,0.0,0.0,0.0,193.0,1.0,155.0,0.0,2.0,3.0,252.0,411.0,2.0,1020.0,1744252830.7180805,0.0,2025-04-09 22:40:30.718,BACKWARD,32
96.0,12159.907777298426,1121.2529088560234,-58809.25015321376,-55491.938351623816,-33678.558013267284,-30946.817212917475,-7293.73184367798,-20734.461633498864,0.0,0.0,0.0,193.0,1.0,155.0,0.0,2.0,3.0,252.0,411.0,2.0,1020.0,1744252830.7181015,0.0,2025-04-09 22:40:30.718,BACKWARD,32
97.0,12099.312198080088,1083.076129326359,-58834.2841070037,-55538.54173881313,-33709.42577236006,-30977.93084119926,-7389.263199479962,-20771.118494405568,0.0,0.0,0.0,193.0,1.0,154.0,0.0,2.0,3.0,250.0,410.0,2.0,1018.0,1744252830.7181191,0.0,2025-04-09 22:40:30.718,BACKWARD,32
98.0,12207.204068565854,1098.2753155559678,-58820.113101019044,-55471.55356068058,-33744.205086732516,-31011.167885204304,-7223.614421321681,-20795.727765050862,0.0,0.0,0.0,193.0,1.0,155.0,0.0,2.0,3.0,253.0,411.0,2.0,1021.0,1744252830.7181396,0.0,2025-04-09 22:40:30.718,BACKWARD,32
99.0,12225.711312974849,1109.9652779060934,-58805.94209503438,-55532.17149164337,-33689.48801630593,-30950.84052691943,-7539.645736175268,-20765.172930380457,0.0,0.0,0.0,193.0,1.0,155.0,0.0,2.0,3.0,250.0,411.0,2.0,1018.0,1744252830.7181573,0.0,2025-04-09 22:40:30.718,BACKWARD,32
100.0,12170.211931492322,1114.167405863691,-58800.30945543164,-55483.86937187545,-33683.944783681014,-30950.102919352405,-7315.144814866164,-20741.100101602093,0.0,0.0,0.0,193.0,1.0,154.0,0.0,2.0,3.0,249.0,410.0,2.0,1017.0,1744252830.7181673,0.0,2025-04-09 22:40:30.718,BACKWARD,32
101.0,12100.988578914235,1083.8137368933842,-58834.664086659446,-55546.56601507259,-33709.82810376026,-30979.160187144305,-7393.8229553488445,-20766.134055392034,0.0,0.0,0.0,193.0,1.0,155.0,0.0,2.0,3.0,252.0,411.0,2.0,1020.0,1744252830.7181761,0.0,2025-04-09 22:40:30.718,BACKWARD,32
102.0,12173.74350711626,1085.2218967940685,-58823.622324898526,-55475.15219153788,-33753.48106068147,-31023.595455121453,-7230.588165591737,-20805.718994822382,0.0,0.0,0.0,193.0,1.0,155.0,0.0,2.0,3.0,250.0,411.0,2.0,1018.0,1744252830.7181847,0.0,2025-04-09 22:40:30.718,BACKWARD,32
103.0,12228.214708353844,1105.3161150593896,-58814.18988873839,-55538.83231149105,-33706.028307202854,-30962.5081375251,-7508.375645682293,-20765.105875147092,0.0,0.0,0.0,193.0,1.0,155.0,0.0,2.0,3.0,251.0,411.0,2.0,1019.0,1744252830.718194,0.0,2025-04-09 22:40:30.718,BACKWARD,32
104.0,12173.385879204974,1115.2179378530907,-58792.37458615001,-55481.47773521874,-33679.20621385649,-30947.823041417963,-7347.890120493188,-20744.96695339286,0.0,0.0,0.0,193.0,1.0,154.0,0.0,2.0,3.0,250.0,410.0,2.0,1018.0,1744252830.718203,0.0,2025-04-09 22:40:30.718,BACKWARD,32
105.0,12114.421977331875,1103.8632516697946,-58827.46682494484,-55544.88963423844,-33700.66388853358,-30972.141739385337,-7392.839478592811,-20782.137904422034,0.0,0.0,0.0,193.0,1.0,154.0,0.0,2.0,3.0,251.0,410.0,2.0,1019.0,1744252830.718212,0.0,2025-04-09 22:40:30.718,BACKWARD,32
106.0,12159.863073809514,1092.9556003756047,-58816.31330446164,-55475.26395026016,-33745.14385999964,-31013.984205005672,-7264.071078785787,-20816.06785250519,0.0,0.0,0.0,193.0,1.0,154.0,0.0,2.0,3.0,248.0,410.0,2.0,1016.0,1744252830.7182212,0.0,2025-04-09 22:40:30.718,BACKWARD,32
107.0,12230.941621177391,1106.724274960074,-58830.55136567967,-55539.30169812462,-33737.566618629295,-30983.921108713283,-7465.9073312172095,-20791.72680279336,0.0,0.0,0.0,193.0,1.0,155.0,0.0,2.0,3.0,252.0,411.0,2.0,1020.0,1744252830.7182608,0.0,2025-04-09 22:40:30.718,BACKWARD,32
108.0,12182.751260131748,1113.1168738742917,-58792.75456580574,-55484.71873816475,-33688.37042908316,-30938.390605257824,-7413.8948218697105,-20733.701674187385,0.0,0.0,0.0,193.0,1.0,155.0,0.0,2.0,3.0,250.0,411.0,2.0,1018.0,1744252830.7182696,0.0,2025-04-09 22:40:30.718,BACKWARD,32
109.0,12122.625067546973,1108.691228472141,-58827.15390052246,-55534.47372132227,-33704.12840892415,-30961.79288170253,-7374.667510350646,-20762.021334412257,0.0,0.0,0.0,193.0,1.0,155.0,0.0,2.0,3.0,252.0,411.0,2.0,1020.0,1744252830.7182784,0.0,2025-04-09 22:40:30.718,BACKWARD,32
110.0,12136.281983409166,1087.4794229840545,-58817.29678121767,-55488.451479488795,-33735.19733371703,-31005.69170781275,-7305.488861261471,-20799.281692419256,0.0,0.0,0.0,193.0,1.0,155.0,0.0,2.0,3.0,252.0,411.0,2.0,1020.0,1744252830.7182875,0.0,2025-04-09 22:40:30.718,BACKWARD,32
111.0,12244.598537039583,1113.2956878299342,-58816.961505050844,-55513.03839838963,-33728.35769991371,-30990.26900413859,-7369.168981214641,-20786.49649459082,0.0,0.0,0.0,193.0,1.0,155.0,0.0,2.0,3.0,251.0,411.0,2.0,1019.0,1744252830.7182963,0.0,2025-04-09 22:40:30.718,BACKWARD,32
112.0,12202.353740019053,1115.9331936756605,-58775.90135048644,-55485.79162189861,-33667.47154801745,-30930.768660398564,-7449.791723464933,-20739.043741112204,0.0,0.0,0.0,193.0,1.0,155.0,0.0,2.0,3.0,251.0,411.0,2.0,1019.0,1744252830.718305,0.0,2025-04-09 22:40:30.718,BACKWARD,32
113.0,12142.115788712,1120.0235629109816,-58804.35512117805,-55509.5515262546,-33682.71543773597,-30945.92314313926,-7325.985410926987,-20744.85519467058,0.0,0.0,0.0,193.0,1.0,154.0,0.0,2.0,3.0,249.0,410.0,2.0,1017.0,1744252830.7183137,0.0,2025-04-09 22:40:30.718,BACKWARD,32
114.0,12127.184823415855,1095.2131265655908,-58802.879906044,-55490.77606091215,-33718.38882188664,-30974.533376042054,-7336.803655243356,-20770.559700794187,0.0,0.0,0.0,193.0,1.0,155.0,0.0,2.0,3.0,250.0,411.0,2.0,1018.0,1744252830.7183225,0.0,2025-04-09 22:40:30.718,BACKWARD,32
115.0,12243.972688194835,1118.7718652214844,-58806.970275279324,-55485.7469184097,-33739.734737841456,-30995.521664085587,-7301.689064704069,-20799.79578254173,0.0,0.0,0.0,193.0,1.0,154.0,0.0,2.0,3.0,250.0,410.0,2.0,1018.0,1744252830.7183313,0.0,2025-04-09 22:40:30.718,BACKWARD,32
116.0,12222.291496073187,1127.7349147480625,-58767.65355678243,-55491.2007440568,-33665.772815438846,-30919.369270726358,-7501.290142689961,-20730.080691585623,0.0,0.0,0.0,193.0,1.0,154.0,0.0,2.0,3.0,250.0,410.0,2.0,1018.0,1744252830.7183404,0.0,2025-04-09 22:40:30.718,BACKWARD,32
117.0,12160.64538486545,1130.6406415272525,-58793.80509779514,-55493.10064233549,-33683.09541739171,-30941.899829137306,-7307.992256640466,-20739.49077600131,0.0,0.0,0.0,193.0,1.0,155.0,0.0,2.0,3.0,251.0,411.0,2.0,1019.0,1744252830.718349,0.0,2025-04-09 22:40:30.718,BACKWARD,32
118.0,12104.810727216092,1084.014902593482,-58819.554307407656,-55523.27549735016,-33730.32465342577,-30984.435198835756,-7386.201010489584,-20781.556759066196,0.0,0.0,0.0,193.0,1.0,155.0,0.0,2.0,3.0,249.0,411.0,2.0,1017.0,1744252830.7183576,0.0,2025-04-09 22:40:30.718,BACKWARD,32
119.0,12217.150594848466,1101.628077224264,-58817.07326377312,-55483.26587477516,-33765.93098234308,-31011.391402648856,-7276.431593469571,-20809.384680913055,0.0,0.0,0.0,193.0,1.0,155.0,0.0,2.0,3.0,251.0,411.0,2.0,1019.0,1744252830.7183664,0.0,2025-04-09 22:40:30.718,BACKWARD,32
120.0,12217.552926248662,1113.1839291076576,-58782.49511510076,-55516.055883891095,-33685.01766741487,-30934.009663344583,-7547.44649499017,-20747.62681098304,0.0,0.0,0.0,193.0,1.0,155.0,0.0,2.0,3.0,250.0,411.0,2.0,1018.0,1744252830.718375,0.0,2025-04-09 22:40:30.718,BACKWARD,32
121.0,12167.440315179863,1127.6678595146966,-58782.852743012045,-55480.6954241628,-33674.221774842954,-30937.585942457434,-7299.096262347253,-20739.066092856658,0.0,0.0,0.0,193.0,1.0,155.0,0.0,2.0,3.0,250.0,411.0,2.0,1018.0,1744252830.718384,0.0,2025-04-09 22:40:30.718,BACKWARD,32
122.0,12100.094509136023,1086.5853532058422,-58815.35217945006,-55534.85370097801,-33708.79992351531,-30973.594602774934,-7384.614036633258,-20776.371154352564,0.0,0.0,0.0,193.0,1.0,155.0,0.0,2.0,3.0,251.0,411.0,2.0,1019.0,1744252830.718398,0.0,2025-04-09 22:40:30.718,BACKWARD,32
123.0,12201.929056874402,1100.6446004682305,-58803.39399616647,-55467.329080978525,-33747.714310612006,-31007.39044039136,-7223.837938766234,-20792.64322431603,0.0,0.0,0.0,193.0,1.0,155.0,0.0,2.0,3.0,252.0,411.0,2.0,1020.0,1744252830.7184067,0.0,2025-04-09 22:40:30.718,BACKWARD,32
124.0,12240.463464315351,1126.527920547476,-58779.76820227721,-55521.353247327,-33682.693085991516,-30932.69091042172,-7526.435855202181,-20736.517993988753,0.0,0.0,0.0,193.0,1.0,154.0,0.0,2.0,3.0,250.0,410.0,2.0,1018.0,1744252830.7184153,0.0,2025-04-09 22:40:30.718,BACKWARD,32
125.0,12186.305187500142,1132.7417055060514,-58768.61468179402,-55470.27951124663,-33668.700893962494,-30934.97078835616,-7314.8765939326995,-20727.510240973264,0.0,0.0,0.0,193.0,1.0,155.0,0.0,2.0,3.0,252.0,411.0,2.0,1020.0,1744252830.718424,0.0,2025-04-09 22:40:30.718,BACKWARD,32
126.0,12119.562878556595,1105.204356337113,-58805.74092933428,-55536.84300623453,-33697.8028652433,-30960.98821890214,-7398.114490284263,-20756.545157020708,0.0,0.0,0.0,193.0,1.0,154.0,0.0,2.0,3.0,249.0,410.0,2.0,1017.0,1744252830.718433,0.0,2025-04-09 22:40:30.718,BACKWARD,32
127.0,12182.55009443165,1094.2520015540126,-58798.364853664025,-55467.08321178952,-33747.80371758982,-31008.016289236104,-7241.965203519489,-20790.340994637132,0.0,0.0,0.0,193.0,1.0,154.0,0.0,2.0,3.0,250.0,410.0,2.0,1018.0,1744252830.7184415,0.0,2025-04-09 22:40:30.718,BACKWARD,32
128.0,12236.931888691413,1113.2956878299342,-58800.53297287619,-55540.19576790283,-33714.72313579597,-30967.26905909408,-7514.67883761869,-20772.370192095066,0.0,0.0,0.0,193.0,1.0,155.0,0.0,2.0,3.0,252.0,411.0,2.0,1020.0,1744252830.7184503,0.0,2025-04-09 22:40:30.718,BACKWARD,32
129.0,12194.061242826134,1130.5735862938866,-58758.98107993378,-55468.111392034465,-33661.45892875897,-30929.673424920253,-7362.754030555968,-20717.96604609085,0.0,0.0,0.0,193.0,1.0,154.0,0.0,2.0,3.0,249.0,410.0,2.0,1017.0,1744252830.718459,0.0,2025-04-09 22:40:30.718,BACKWARD,32
130.0,12120.769872757182,1107.6406964827415,-58801.15882172094,-55533.71376201079,-33684.28005984784,-30954.617971732376,-7367.336138169306,-20744.2964010592,0.0,0.0,0.0,193.0,1.0,155.0,0.0,2.0,3.0,251.0,411.0,2.0,1019.0,1744252830.7184677,0.0,2025-04-09 22:40:30.718,BACKWARD,32
131.0,12149.760085315715,1085.3560072608004,-58801.56115312113,-55483.31057826407,-33736.89606629563,-31008.105696213926,-7267.803820109823,-20794.990157483837,0.0,0.0,0.0,193.0,1.0,155.0,0.0,2.0,3.0,252.0,411.0,2.0,1020.0,1744252830.7184763,0.0,2025-04-09 22:40:30.718,BACKWARD,32
132.0,12241.022257926734,1113.4521500411213,-58803.57281012211,-55534.741942255736,-33719.5064091094,-30987.720905270686,-7442.594461750325,-20799.16993369698,0.0,0.0,0.0,193.0,1.0,154.0,0.0,2.0,3.0,249.0,410.0,2.0,1017.0,1744252830.7184925,0.0,2025-04-09 22:40:30.718,BACKWARD,32
133.0,12190.976702091302,1116.2237663535793,-58767.56414980462,-55485.97043585425,-33669.684370718525,-30935.954265112196,-7418.543984716414,-20733.031121853724,0.0,0.0,0.0,193.0,1.0,155.0,0.0,2.0,3.0,252.0,411.0,2.0,1020.0,1744252830.718501,0.0,2025-04-09 22:40:30.718,BACKWARD,32
134.0,12127.989486216245,1104.7796731924623,-58806.36677817903,-55532.28325036565,-33693.89130996363,-30955.51204151059,-7356.629652575213,-20745.257526070778,0.0,0.0,0.0,193.0,1.0,154.0,0.0,2.0,3.0,249.0,410.0,2.0,1017.0,1744252830.71851,0.0,2025-04-09 22:40:30.718,BACKWARD,32
135.0,12127.028361204668,1075.9012193562055,-58810.032464269694,-55500.36495928347,-33741.567580886796,-31004.127085700882,-7329.159358639641,-20800.39927964202,0.0,0.0,0.0,193.0,1.0,155.0,0.0,2.0,3.0,249.0,411.0,2.0,1017.0,1744252830.7185185,0.0,2025-04-09 22:40:30.718,BACKWARD,32
136.0,12237.893013702991,1102.79036793594,-58812.22293522632,-55512.010218144685,-33742.4169471761,-30988.32440237098,-7376.433298162616,-20786.608253313098,0.0,0.0,0.0,193.0,1.0,154.0,0.0,2.0,3.0,249.0,410.0,2.0,1017.0,1744252830.7185273,0.0,2025-04-09 22:40:30.718,BACKWARD,32
137.0,12205.393577264975,1110.9711064065823,-58769.419344594404,-55489.278494033635,-33671.58426899723,-30921.87266610535,-7485.24159017105,-20733.746377676296,0.0,0.0,0.0,193.0,1.0,154.0,0.0,2.0,3.0,250.0,410.0,2.0,1018.0,1744252830.718541,0.0,2025-04-09 22:40:30.718,BACKWARD,32
138.0,12139.187710188355,1107.663048227197,-58805.629170612,-55513.261915834184,-33692.01376342938,-30950.393492030325,-7332.400361585661,-20759.2497180998,0.0,0.0,0.0,193.0,1.0,155.0,0.0,2.0,3.0,252.0,411.0,2.0,1020.0,1744252830.7185495,0.0,2025-04-09 22:40:30.718,BACKWARD,32
139.0,12112.276209864165,1076.236495523035,-58811.48532765929,-55504.34356979652,-33724.73671731195,-30975.852128964918,-7350.415867616638,-20770.313831605177,0.0,0.0,0.0,193.0,1.0,155.0,0.0,2.0,3.0,250.0,411.0,2.0,1018.0,1744252830.7185583,0.0,2025-04-09 22:40:30.718,BACKWARD,32
140.0,12222.671475728926,1094.0955393428253,-58817.386188195494,-55488.00444459968,-33751.24588623594,-30991.408943105813,-7284.5899801957585,-20781.91438697748,0.0,0.0,0.0,193.0,1.0,154.0,0.0,2.0,3.0,248.0,410.0,2.0,1016.0,1744252830.7185671,0.0,2025-04-09 22:40:30.718,BACKWARD,32
141.0,12211.830879668103,1111.5075482735097,-58773.37560336299,-55489.36790101146,-33669.37144629615,-30904.34889845239,-7510.208488727629,-20715.797926878684,0.0,0.0,0.0,193.0,1.0,155.0,0.0,2.0,3.0,251.0,411.0,2.0,1019.0,1744252830.718576,0.0,2025-04-09 22:40:30.718,BACKWARD,32
142.0,12161.204178476833,1123.8904147017497,-58784.953806990845,-55468.91605483485,-33670.444330030004,-30911.635567144822,-7293.910657633622,-20717.51901120174,0.0,0.0,0.0,193.0,1.0,154.0,0.0,2.0,3.0,250.0,410.0,2.0,1018.0,1744252830.7185843,0.0,2025-04-09 22:40:30.718,BACKWARD,32
143.0,12109.459890062797,1084.7972136494177,-58808.44549041337,-55499.02385461615,-33707.011783958886,-30946.68310245074,-7368.833705047811,-20751.225441840346,0.0,0.0,0.0,193.0,1.0,154.0,0.0,2.0,3.0,251.0,410.0,2.0,1019.0,1744252830.718593,0.0,2025-04-09 22:40:30.718,BACKWARD,32
144.0,12220.033969883201,1097.3141905443897,-58808.19962122436,-55455.661470372856,-33747.9154763121,-30985.37397210288,-7234.969107504977,-20785.289500390234,0.0,0.0,0.0,193.0,1.0,154.0,0.0,2.0,3.0,250.0,410.0,2.0,1018.0,1744252830.7186017,0.0,2025-04-09 22:40:30.718,BACKWARD,32
145.0,12231.209842110855,1113.1168738742917,-58777.264806898216,-55497.61569471547,-33673.1488911091,-30906.941700809206,-7533.901337850254,-20724.023368838236,0.0,0.0,0.0,193.0,1.0,154.0,0.0,2.0,3.0,250.0,410.0,2.0,1018.0,1744252830.7186103,0.0,2025-04-09 22:40:30.718,BACKWARD,32
146.0,12185.098193299556,1132.7417055060514,-58768.659385282925,-55448.41950516934,-33658.57555372424,-30906.62877638683,-7294.692968689557,-20711.37228147653,0.0,0.0,0.0,193.0,1.0,155.0,0.0,2.0,3.0,252.0,411.0,2.0,1020.0,1744252830.718619,0.0,2025-04-09 22:40:30.718,BACKWARD,32
147.0,12106.174183627867,1086.6077049502976,-58814.525164905215,-55517.50874728069,-33704.083705435245,-30948.73946294063,-7394.113528026764,-20753.125340119048,0.0,0.0,0.0,193.0,1.0,155.0,0.0,2.0,3.0,251.0,411.0,2.0,1019.0,1744252830.7186277,0.0,2025-04-09 22:40:30.718,BACKWARD,32
148.0,12203.694844686372,1100.97987663506,-58793.827449539596,-55439.50115913167,-33731.17401971507,-30978.668448766286,-7215.679552040047,-20769.844444971615,0.0,0.0,0.0,193.0,1.0,154.0,0.0,2.0,3.0,250.0,410.0,2.0,1018.0,1744252830.7186365,0.0,2025-04-09 22:40:30.718,BACKWARD,32
149.0,12240.70933350436,1117.721333232085,-58780.550513333146,-55501.63900871742,-33673.48416727593,-30914.4965904351,-7506.475747403592,-20725.252714783277,0.0,0.0,0.0,193.0,1.0,155.0,0.0,2.0,3.0,252.0,411.0,2.0,1020.0,1744252830.718645,0.0,2025-04-09 22:40:30.718,BACKWARD,32
150.0,12186.528704944696,1122.1469786342357,-58766.11128641502,-55446.67606910182,-33655.71453043396,-30907.522846165044,-7306.382931039683,-20707.48307794131,0.0,0.0,0.0,193.0,1.0,155.0,0.0,2.0,3.0,252.0,411.0,2.0,1020.0,1744252830.7186537,0.0,2025-04-09 22:40:30.718,BACKWARD,32
151.0,12121.485128579752,1102.5668504913867,-58800.93530427639,-55511.518479766666,-33681.486091790925,-30930.522791209554,-7378.22143771904,-20736.987380622315,0.0,0.0,0.0,193.0,1.0,155.0,0.0,2.0,3.0,250.0,411.0,2.0,1018.0,1744252830.7186625,0.0,2025-04-09 22:40:30.718,BACKWARD,32
152.0,12180.158457774933,1092.7991381644176,-58793.78274605069,-55445.55848187906,-33729.47528713647,-30980.90362321182,-7235.706715072002,-20779.500398576307,0.0,0.0,0.0,193.0,1.0,155.0,0.0,2.0,3.0,252.0,411.0,2.0,1020.0,1744252830.718676,0.0,2025-04-09 22:40:30.718,BACKWARD,32
153.0,12255.103856933578,1118.1460163767358,-58787.9265890034,-55508.098662865006,-33691.16439714008,-30933.942608111218,-7478.536066834458,-20750.15255810649,0.0,0.0,0.0,193.0,1.0,154.0,0.0,2.0,3.0,250.0,410.0,2.0,1018.0,1744252830.718685,0.0,2025-04-09 22:40:30.718,BACKWARD,32
154.0,12203.404272008453,1125.9244234471826,-58751.15796937442,-55449.1347609919,-33649.5901524532,-30903.58893914091,-7359.222454932029,-20712.24399951029,0.0,0.0,0.0,193.0,1.0,154.0,0.0,2.0,3.0,251.0,410.0,2.0,1019.0,1744252830.7186935,0.0,2025-04-09 22:40:30.718,BACKWARD,32
155.0,12123.474433836274,1105.2267080815684,-58801.71761533232,-55524.54954678411,-33685.24118485942,-30942.12334658186,-7371.515914382448,-20754.935831419927,0.0,0.0,0.0,193.0,1.0,155.0,0.0,2.0,3.0,252.0,411.0,2.0,1020.0,1744252830.7187023,0.0,2025-04-09 22:40:30.718,BACKWARD,32
156.0,12152.397591161442,1089.2005073071132,-58787.56896109211,-55465.9432728223,-33722.72506031097,-30972.65582950781,-7282.064233072309,-20769.95620369389,0.0,0.0,0.0,193.0,1.0,154.0,0.0,2.0,3.0,249.0,410.0,2.0,1017.0,1744252830.718711,0.0,2025-04-09 22:40:30.718,BACKWARD,32
157.0,12253.986269710813,1119.0624378994034,-58785.646711068955,-55505.438805274825,-33708.08466769275,-30946.012550117084,-7419.616868450269,-20750.420779039952,0.0,0.0,0.0,193.0,1.0,155.0,0.0,2.0,3.0,252.0,411.0,2.0,1020.0,1744252830.7187197,0.0,2025-04-09 22:40:30.718,BACKWARD,32
158.0,12224.906650174458,1138.396696853244,-58731.55548948712,-55450.74408659269,-33638.10135580318,-30885.551081365476,-7415.548850959403,-20694.608473135053,0.0,0.0,0.0,193.0,1.0,154.0,0.0,2.0,3.0,250.0,410.0,2.0,1018.0,1744252830.7187288,0.0,2025-04-09 22:40:30.718,BACKWARD,32
159.0,12159.147817986945,1130.752400249529,-58772.74975451825,-55499.40383427189,-33665.12461484964,-30921.291520749513,-7335.8872337206885,-20738.216726567356,0.0,0.0,0.0,193.0,1.0,154.0,0.0,2.0,3.0,249.0,410.0,2.0,1017.0,1744252830.7187374,0.0,2025-04-09 22:40:30.718,BACKWARD,32
160.0,12159.773666831692,1110.591126750842,-58765.932472459375,-55466.81499085605,-33699.34513561072,-30953.858012420897,-7317.78232071189,-20758.15448262149,0.0,0.0,0.0,193.0,1.0,155.0,0.0,2.0,3.0,252.0,411.0,2.0,1020.0,1744252830.7187462,0.0,2025-04-09 22:40:30.718,BACKWARD,32
161.0,12261.295290147698,1121.945812934138,-58782.80803952313,-55492.94418012431,-33722.16626669958,-30971.00180041812,-7345.520835580926,-20774.404200840498,0.0,0.0,0.0,193.0,1.0,155.0,0.0,2.0,3.0,250.0,411.0,2.0,1018.0,1744252830.7187548,0.0,2025-04-09 22:40:30.718,BACKWARD,32
162.0,12219.56458324964,1121.4093710672107,-58747.80520770612,-55492.45244174629,-33654.68635018901,-30916.463543947168,-7502.027750256986,-20733.791081165207,0.0,0.0,0.0,193.0,1.0,155.0,0.0,2.0,3.0,252.0,411.0,2.0,1020.0,1744252830.7187636,0.0,2025-04-09 22:40:30.718,BACKWARD,32
163.0,12161.986489532768,1123.3539728348223,-58771.2745393842,-55505.572915741555,-33664.923449149544,-30937.429480246246,-7336.423675587616,-20745.324581304143,0.0,0.0,0.0,193.0,1.0,154.0,0.0,2.0,3.0,251.0,410.0,2.0,1019.0,1744252830.7187724,0.0,2025-04-09 22:40:30.718,BACKWARD,32
164.0,12122.379198357965,1080.7738996474625,-58786.74194654727,-55516.07823563555,-33702.876711234654,-30976.254460365115,-7373.818144061344,-20770.738514749828,0.0,0.0,0.0,193.0,1.0,154.0,0.0,2.0,3.0,249.0,410.0,2.0,1017.0,1744252830.7187812,0.0,2025-04-09 22:40:30.718,BACKWARD,32
165.0,12227.141824619988,1093.5367457314428,-58795.7273478183,-55500.387311027924,-33735.77847907287,-31006.921053757796,-7288.546238964348,-20795.81717202868,0.0,0.0,0.0,193.0,1.0,155.0,0.0,2.0,3.0,251.0,411.0,2.0,1019.0,1744252830.71879,0.0,2025-04-09 22:40:30.718,BACKWARD,32
166.0,12220.168080349933,1112.5133767739985,-58752.05203915263,-55514.871241434965,-33650.70773967597,-30918.02816605904,-7537.544672196469,-20722.346988004087,0.0,0.0,0.0,193.0,1.0,155.0,0.0,2.0,3.0,252.0,411.0,2.0,1020.0,1744252830.7187989,0.0,2025-04-09 22:40:30.718,BACKWARD,32
167.0,12167.283852968676,1120.850577455828,-58763.697298013845,-55493.30180803559,-33654.97692286693,-30926.79004988552,-7303.812480427323,-20714.00978732226,0.0,0.0,0.0,193.0,1.0,154.0,0.0,2.0,3.0,249.0,410.0,2.0,1017.0,1744252830.7188125,0.0,2025-04-09 22:40:30.718,BACKWARD,32
168.0,12112.991465686735,1082.78555664844,-58788.15010644795,-55530.808035231596,-33688.61629827217,-30959.982390401652,-7390.894876825199,-20751.806587196184,0.0,0.0,0.0,193.0,1.0,154.0,0.0,2.0,3.0,252.0,410.0,2.0,1020.0,1744252830.7188213,0.0,2025-04-09 22:40:30.718,BACKWARD,32
169.0,12216.99413263728,1097.4706527555768,-58785.33378664658,-55475.733336893725,-33728.02242374688,-30997.37685887538,-7233.449188882017,-20781.936738721935,0.0,0.0,0.0,193.0,1.0,154.0,0.0,2.0,3.0,250.0,410.0,2.0,1018.0,1744252830.71883,0.0,2025-04-09 22:40:30.718,BACKWARD,32
170.0,12235.367266579542,1114.815606452895,-58766.692431770854,-55531.09860790952,-33666.465719516964,-30927.997044086107,-7547.334736267893,-20737.90380214498,0.0,0.0,0.0,193.0,1.0,154.0,0.0,2.0,3.0,249.0,410.0,2.0,1017.0,1744252830.7188387,0.0,2025-04-09 22:40:30.718,BACKWARD,32
171.0,12186.193428777866,1130.104199660325,-58761.12684740149,-55480.18133404033,-33655.17808856703,-30925.69481440721,-7308.662808974124,-20725.43152873892,0.0,0.0,0.0,193.0,1.0,155.0,0.0,2.0,3.0,252.0,411.0,2.0,1020.0,1744252830.7188475,0.0,2025-04-09 22:40:30.718,BACKWARD,32
172.0,12124.100282681024,1105.5843359928533,-58789.49121111527,-55529.690448008834,-33680.32380107925,-30947.3536547844,-7395.231115249529,-20744.788139437216,0.0,0.0,0.0,193.0,1.0,154.0,0.0,2.0,3.0,250.0,410.0,2.0,1018.0,1744252830.718856,0.0,2025-04-09 22:40:30.718,BACKWARD,32
173.0,12207.360530777041,1106.3219435598783,-58777.80124876514,-55453.18042673832,-33723.797944044825,-30981.28360286756,-7229.135302202142,-20763.675363501952,0.0,0.0,0.0,193.0,1.0,154.0,0.0,2.0,3.0,249.0,410.0,2.0,1017.0,1744252830.718865,0.0,2025-04-09 22:40:30.718,BACKWARD,32
174.0,12249.04653418619,1121.2976123449341,-58773.59912080755,-55526.896479951916,-33677.172205111056,-30925.627759173844,-7528.402808714249,-20733.858136398572,0.0,0.0,0.0,193.0,1.0,154.0,0.0,2.0,3.0,250.0,410.0,2.0,1018.0,1744252830.7188735,0.0,2025-04-09 22:40:30.718,BACKWARD,32
175.0,12197.190487049877,1133.6134235398083,-58749.48158854027,-55463.37282220994,-33646.99735009639,-30909.02041304355,-7329.539338295382,-20710.679377398417,0.0,0.0,0.0,193.0,1.0,154.0,0.0,2.0,3.0,249.0,410.0,2.0,1017.0,1744252830.718882,0.0,2025-04-09 22:40:30.718,BACKWARD,32
176.0,12124.726131525771,1100.4434347681326,-58792.218123938816,-55535.501901567215,-33680.70378073499,-30934.233180789135,-7390.447841936093,-20733.94754337639,0.0,0.0,0.0,193.0,1.0,155.0,0.0,2.0,3.0,252.0,411.0,2.0,1020.0,1744252830.718891,0.0,2025-04-09 22:40:30.718,BACKWARD,32
177.0,12179.085574041079,1089.401673007211,-58782.96450173432,-55469.854828101976,-33728.49181038044,-30983.362315101902,-7261.791200851346,-20778.338107864634,0.0,0.0,0.0,193.0,1.0,155.0,0.0,2.0,3.0,250.0,411.0,2.0,1018.0,1744252830.7188995,0.0,2025-04-09 22:40:30.718,BACKWARD,32
178.0,12254.410952855464,1117.0954843873365,-58784.61853082402,-55532.08208466555,-33697.8028652433,-30949.03003561855,-7472.031709197964,-20752.767712207762,0.0,0.0,0.0,193.0,1.0,154.0,0.0,2.0,3.0,250.0,410.0,2.0,1018.0,1744252830.7189083,0.0,2025-04-09 22:40:30.718,BACKWARD,32
179.0,12206.89114414348,1125.432685069166,-58744.34068731555,-55469.67601414633,-33647.243219285396,-30906.11468626436,-7372.275873693929,-20696.664833624942,0.0,0.0,0.0,193.0,1.0,155.0,0.0,2.0,3.0,251.0,411.0,2.0,1019.0,1744252830.718922,0.0,2025-04-09 22:40:30.718,BACKWARD,32
180.0,12140.528814855674,1115.329696575367,-58784.48442035728,-55526.58355552955,-33670.46668177446,-30929.919294109262,-7352.494579850982,-20723.48692697131,0.0,0.0,0.0,193.0,1.0,154.0,0.0,2.0,3.0,250.0,410.0,2.0,1018.0,1744252830.7189348,0.0,2025-04-09 22:40:30.718,BACKWARD,32
181.0,12159.438390664864,1095.1013678433142,-58775.18609466388,-55469.3407379795,-33709.29166189333,-30964.497442781623,-7274.911674846611,-20747.068017371657,0.0,0.0,0.0,193.0,1.0,155.0,0.0,2.0,3.0,251.0,411.0,2.0,1019.0,1744252830.7189467,0.0,2025-04-09 22:40:30.718,BACKWARD,32
182.0,12253.405124354975,1111.9769349070712,-58787.90423725895,-55509.93150591034,-33715.0584119628,-30958.484823523144,-7388.190315746107,-20748.476177272343,0.0,0.0,0.0,193.0,1.0,155.0,0.0,2.0,3.0,251.0,411.0,2.0,1019.0,1744252830.7189617,0.0,2025-04-09 22:40:30.718,BACKWARD,32
183.0,12206.153536576456,1115.7096762311073,-58749.88391994047,-55479.24256077321,-33658.46379500196,-30906.539369409013,-7441.298060571917,-20701.626920894018,0.0,0.0,0.0,193.0,1.0,155.0,0.0,2.0,3.0,250.0,411.0,2.0,1018.0,1744252830.71897,0.0,2025-04-09 22:40:30.718,BACKWARD,32
184.0,12146.675544580883,1117.9001471877275,-58782.45041161185,-55510.959686155285,-33673.9982573984,-30924.35370973989,-7341.005783200954,-20727.01850259525,0.0,0.0,0.0,193.0,1.0,155.0,0.0,2.0,3.0,252.0,411.0,2.0,1020.0,1744252830.718979,0.0,2025-04-09 22:40:30.718,BACKWARD,32
185.0,12139.433579377364,1091.9497718751159,-58785.937283746876,-55489.16673531136,-33714.32080439577,-30962.93282066975,-7346.079629192309,-20770.291479860723,0.0,0.0,0.0,193.0,1.0,154.0,0.0,2.0,3.0,250.0,410.0,2.0,1018.0,1744252830.7189908,0.0,2025-04-09 22:40:30.718,BACKWARD,32
186.0,12252.242833643299,1117.5648710208977,-58790.00530123774,-55490.619598700956,-33729.587045858745,-30972.678181252264,-7343.397419857672,-20790.92213999297,0.0,0.0,0.0,193.0,1.0,155.0,0.0,2.0,3.0,251.0,411.0,2.0,1019.0,1744252830.7189994,0.0,2025-04-09 22:40:30.718,BACKWARD,32
187.0,12228.371170565031,1133.74753400654,-58739.62446923548,-55478.05791831707,-33642.86227737216,-30887.026296499527,-7499.993741511553,-20705.694938384884,0.0,0.0,0.0,193.0,1.0,155.0,0.0,2.0,3.0,252.0,411.0,2.0,1020.0,1744252830.7190082,0.0,2025-04-09 22:40:30.719,BACKWARD,32
188.0,12168.557902402628,1138.9331387201714,-58764.457257325324,-55482.88589511942,-33656.675655445535,-30903.901863563286,-7305.131233350186,-20700.889313326992,0.0,0.0,0.0,193.0,1.0,154.0,0.0,2.0,3.0,250.0,410.0,2.0,1018.0,1744252830.7190173,0.0,2025-04-09 22:40:30.719,BACKWARD,32
189.0,12125.664904792895,1098.5435364894315,-58782.15983893393,-55501.48254650624,-33695.43358033104,-30950.03586411904,-7358.395440387183,-20747.447997027397,0.0,0.0,0.0,193.0,1.0,154.0,0.0,2.0,3.0,249.0,410.0,2.0,1017.0,1744252830.7190259,0.0,2025-04-09 22:40:30.719,BACKWARD,32
190.0,12242.028086427223,1113.429798296666,-58780.50580984424,-55469.36308972396,-33726.81542954629,-30983.027038935074,-7261.321814217784,-20786.83177075765,0.0,0.0,0.0,193.0,1.0,155.0,0.0,2.0,3.0,251.0,411.0,2.0,1019.0,1744252830.7190344,0.0,2025-04-09 22:40:30.719,BACKWARD,32
191.0,12248.733609763814,1139.0001939535373,-58730.05792260861,-55480.203685784785,-33637.29669300278,-30885.528729621023,-7526.324096479905,-20700.889313326992,0.0,0.0,0.0,193.0,1.0,154.0,0.0,2.0,3.0,249.0,410.0,2.0,1017.0,1744252830.7190433,0.0,2025-04-09 22:40:30.719,BACKWARD,32
192.0,12183.421812465407,1138.3072898754228,-58747.335821072564,-55457.85194132948,-33646.17033555154,-30904.01362228556,-7289.127384320186,-20703.77268836173,0.0,0.0,0.0,193.0,1.0,154.0,0.0,2.0,3.0,249.0,410.0,2.0,1017.0,1744252830.719052,0.0,2025-04-09 22:40:30.719,BACKWARD,32
193.0,12127.11776818249,1109.7641122059956,-58768.122943416,-55496.25223830369,-33672.85831843118,-30925.78422138503,-7384.636388377713,-20726.95144736188,0.0,0.0,0.0,193.0,1.0,154.0,0.0,2.0,3.0,251.0,410.0,2.0,1019.0,1744252830.719061,0.0,2025-04-09 22:40:30.719,BACKWARD,32
194.0,12228.192356609388,1118.2801268434675,-58766.223045137296,-55438.808255053555,-33718.14295269763,-30968.27488759457,-7224.910822500089,-20752.901822674492,0.0,0.0,0.0,193.0,1.0,154.0,0.0,2.0,3.0,249.0,410.0,2.0,1017.0,1744252830.7190695,0.0,2025-04-09 22:40:30.719,BACKWARD,32
195.0,12247.66072602996,1131.400600838733,-58754.37662057598,-55501.527249995146,-33660.117824091656,-30906.606424642378,-7537.8128931299325,-20712.512220443754,0.0,0.0,0.0,193.0,1.0,155.0,0.0,2.0,3.0,253.0,411.0,2.0,1021.0,1744252830.7190783,0.0,2025-04-09 22:40:30.719,BACKWARD,32
196.0,12184.0253095657,1132.3617258503111,-58755.9188909434,-55458.54484540759,-33657.41326301256,-30915.368308468856,-7317.6929137340685,-20707.348967474576,0.0,0.0,0.0,193.0,1.0,155.0,0.0,2.0,3.0,252.0,411.0,2.0,1020.0,1744252830.719087,0.0,2025-04-09 22:40:30.719,BACKWARD,32
197.0,12117.104186666511,1102.142167346736,-58792.843972783565,-55522.82846246105,-33686.80580697129,-30945.4537565057,-7403.791833375912,-20742.44120626941,0.0,0.0,0.0,193.0,1.0,154.0,0.0,2.0,3.0,251.0,410.0,2.0,1019.0,1744252830.7191007,0.0,2025-04-09 22:40:30.719,BACKWARD,32
198.0,12201.727891174305,1113.1168738742917,-58774.85081849704,-55441.468112643735,-33722.72506031097,-30986.98329770366,-7235.125569716164,-20776.080581674647,0.0,0.0,0.0,193.0,1.0,155.0,0.0,2.0,3.0,252.0,411.0,2.0,1020.0,1744252830.7191093,0.0,2025-04-09 22:40:30.719,BACKWARD,32
199.0,12261.675269803438,1145.8398277568613,-58757.17058863289,-55494.17352606935,-33669.86318467417,-30918.139924781317,-7512.577773639891,-20721.05058682568,0.0,0.0,0.0,193.0,1.0,154.0,0.0,2.0,3.0,250.0,410.0,2.0,1018.0,1744252830.7191184,0.0,2025-04-09 22:40:30.719,BACKWARD,32
200.0,12199.98445510679,1148.1197056913027,-58738.99862039073,-55435.656659085354,-33648.7407861639,-30902.717221107152,-7352.047544961875,-20694.34025220159,0.0,0.0,0.0,193.0,1.0,155.0,0.0,2.0,3.0,251.0,411.0,2.0,1019.0,1744252830.7191267,0.0,2025-04-09 22:40:30.719,BACKWARD,32
201.0,12128.861204250003,1122.0799234008698,-58781.601045322546,-55501.32608429505,-33671.47251027495,-30930.902770865297,-7385.575161644836,-20725.72210141684,0.0,0.0,0.0,193.0,1.0,155.0,0.0,2.0,3.0,252.0,411.0,2.0,1020.0,1744252830.7191355,0.0,2025-04-09 22:40:30.719,BACKWARD,32
202.0,12180.426678708396,1110.7028854731186,-58762.26678636871,-55422.91616474583,-33700.08274317774,-30967.09024513844,-7251.665860613091,-20745.637505726518,0.0,0.0,0.0,193.0,1.0,154.0,0.0,2.0,3.0,249.0,410.0,2.0,1017.0,1744252830.7191443,0.0,2025-04-09 22:40:30.719,BACKWARD,32
203.0,12263.306947148676,1136.005060196526,-58764.34549860305,-55475.107488048976,-33675.138196365624,-30932.26622727707,-7441.700391972112,-20722.615208937554,0.0,0.0,0.0,193.0,1.0,155.0,0.0,2.0,3.0,251.0,411.0,2.0,1019.0,1744252830.7191532,0.0,2025-04-09 22:40:30.719,BACKWARD,32
204.0,12220.726873961316,1153.5735313383975,-58720.781948659656,-55410.846222739965,-33622.27632072882,-30876.610383583356,-7383.809373832867,-20660.94674598536,0.0,0.0,0.0,193.0,1.0,155.0,0.0,2.0,3.0,252.0,411.0,2.0,1020.0,1744252830.719162,0.0,2025-04-09 22:40:30.719,BACKWARD,32
205.0,12160.935957543368,1147.1138771908138,-58758.176417133385,-55459.61772914144,-33645.70094891798,-30901.48787516211,-7346.683126292602,-20685.89129279748,0.0,0.0,0.0,193.0,1.0,154.0,0.0,2.0,3.0,252.0,410.0,2.0,1020.0,1744252830.7191706,0.0,2025-04-09 22:40:30.719,BACKWARD,32
206.0,12170.03311753668,1116.9390221761491,-58759.38341133397,-55419.16107167734,-33690.650307017604,-30951.064044363982,-7288.523887219893,-20726.14678456149,0.0,0.0,0.0,193.0,1.0,155.0,0.0,2.0,3.0,251.0,411.0,2.0,1019.0,1744252830.719179,0.0,2025-04-09 22:40:30.719,BACKWARD,32
207.0,12269.610139085073,1137.3908683527552,-58769.44169633886,-55449.04535401409,-33692.01376342938,-30950.147622841316,-7364.586873601303,-20735.288648043712,0.0,0.0,0.0,193.0,1.0,154.0,0.0,2.0,3.0,249.0,410.0,2.0,1017.0,1744252830.7191873,0.0,2025-04-09 22:40:30.719,BACKWARD,32
208.0,12232.573298522628,1150.6678045592075,-58723.55356497211,-55416.501214087155,-33622.566893406736,-30886.93688952171,-7441.923909416665,-20679.833970050095,0.0,0.0,0.0,193.0,1.0,155.0,0.0,2.0,3.0,253.0,411.0,2.0,1021.0,1744252830.7191958,0.0,2025-04-09 22:40:30.719,BACKWARD,32
209.0,12168.826123336092,1145.2586824010232,-58759.13754214496,-55443.52447313362,-33638.5930941812,-30904.103029263384,-7302.069044359809,-20679.364583416533,0.0,0.0,0.0,193.0,1.0,155.0,0.0,2.0,3.0,250.0,411.0,2.0,1018.0,1744252830.7192047,0.0,2025-04-09 22:40:30.719,BACKWARD,32
210.0,12137.488977609752,1097.8729841557722,-58777.64478655396,-55441.28929868809,-33689.71153375048,-30949.83469841894,-7324.979582426498,-20722.794022893195,0.0,0.0,0.0,193.0,1.0,155.0,0.0,2.0,3.0,250.0,411.0,2.0,1018.0,1744252830.7192132,0.0,2025-04-09 22:40:30.719,BACKWARD,32
211.0,12256.623775556538,1126.9526036921268,-58775.90135048644,-55428.25823167065,-33704.32957462425,-30960.56353575749,-7299.476242002994,-20743.223517325347,0.0,0.0,0.0,193.0,1.0,155.0,0.0,2.0,3.0,252.0,411.0,2.0,1020.0,1744252830.7192216,0.0,2025-04-09 22:40:30.719,BACKWARD,32
212.0,12241.916327704947,1143.336432377867,-58730.0132191197,-55424.70430430226,-33623.125687018124,-30877.6385638283,-7485.755680293522,-20667.85343502205,0.0,0.0,0.0,193.0,1.0,154.0,0.0,2.0,3.0,249.0,410.0,2.0,1017.0,1744252830.8179853,0.0,2025-04-09 22:40:30.817,BACKWARD,32
213.0,12183.064184554123,1152.5006476045428,-58755.82948396558,-55425.48661535819,-33638.302521503276,-30899.02918327203,-7290.44613724305,-20686.606548620053,0.0,0.0,0.0,193.0,1.0,155.0,0.0,2.0,3.0,252.0,411.0,2.0,1020.0,1744252830.818014,0.0,2025-04-09 22:40:30.818,BACKWARD,32
214.0,12134.113864197001,1117.3413535763448,-58780.125830188495,-55450.632327870415,-33678.02157140036,-30935.64134068982,-7363.089306722797,-20722.212877537357,0.0,0.0,0.0,193.0,1.0,154.0,0.0,2.0,3.0,250.0,410.0,2.0,1018.0,1744252830.818025,0.0,2025-04-09 22:40:30.818,BACKWARD,32
215.0,12247.168987651943,1135.4686183295987,-58778.650615054445,-55409.05808318354,-33711.81740901678,-30965.860899193398,-7242.948680275522,-20753.505319774787,0.0,0.0,0.0,193.0,1.0,154.0,0.0,2.0,3.0,249.0,410.0,2.0,1017.0,1744252830.8180354,0.0,2025-04-09 22:40:30.818,BACKWARD,32
216.0,12237.602441025072,1135.8933014742497,-58762.087972413065,-55458.61190064096,-33650.864201887154,-30900.102067005882,-7526.771131369011,-20696.910702813948,0.0,0.0,0.0,193.0,1.0,155.0,0.0,2.0,3.0,252.0,411.0,2.0,1020.0,1744252830.8180447,0.0,2025-04-09 22:40:30.818,BACKWARD,32
217.0,12192.518972458718,1151.5842260818752,-58757.550568288636,-55414.53426057509,-33636.067347057746,-30891.317831434946,-7286.422823241094,-20671.541472857174,0.0,0.0,0.0,193.0,1.0,155.0,0.0,2.0,3.0,250.0,411.0,2.0,1018.0,1744252830.818054,0.0,2025-04-09 22:40:30.818,BACKWARD,32
218.0,12133.510367096707,1121.141150133747,-58782.0257284672,-55457.06963027354,-33663.22471657094,-30917.894055592307,-7370.778306815423,-20702.163362760944,0.0,0.0,0.0,193.0,1.0,154.0,0.0,2.0,3.0,249.0,410.0,2.0,1017.0,1744252830.8180635,0.0,2025-04-09 22:40:30.818,BACKWARD,32
219.0,12223.744359462782,1123.3539728348223,-58785.6243593245,-55401.25732436864,-33716.98066198595,-30971.828814962962,-7219.2558311528965,-20756.58986050962,0.0,0.0,0.0,193.0,1.0,155.0,0.0,2.0,3.0,251.0,411.0,2.0,1019.0,1744252830.8180726,0.0,2025-04-09 22:40:30.818,BACKWARD,32
220.0,12256.176740667432,1140.7659817655065,-58772.59329230706,-55464.55746466607,-33659.51432699136,-30904.483008919124,-7532.068494804918,-20709.025348308725,0.0,0.0,0.0,193.0,1.0,154.0,0.0,2.0,3.0,249.0,410.0,2.0,1017.0,1744252830.8180819,0.0,2025-04-09 22:40:30.818,BACKWARD,32
221.0,12198.330426017097,1143.8058190114284,-58763.45142882484,-55413.10374892995,-33647.310274518764,-30904.326546707936,-7318.251707345451,-20698.698842370373,0.0,0.0,0.0,193.0,1.0,155.0,0.0,2.0,3.0,251.0,411.0,2.0,1019.0,1744252830.818091,0.0,2025-04-09 22:40:30.818,BACKWARD,32
222.0,12131.20813741781,1121.1635018782022,-58793.69333907287,-55472.02294731414,-33665.66105671657,-30923.370232983856,-7385.575161644836,-20718.077804813125,0.0,0.0,0.0,193.0,1.0,154.0,0.0,2.0,3.0,250.0,410.0,2.0,1018.0,1744252830.8180997,0.0,2025-04-09 22:40:30.818,BACKWARD,32
223.0,12195.55880970464,1114.3462198193336,-58786.071394213606,-55402.9784086917,-33709.82810376026,-30975.002762675616,-7216.864194496178,-20758.176834365946,0.0,0.0,0.0,193.0,1.0,155.0,0.0,2.0,3.0,251.0,411.0,2.0,1019.0,1744252830.8181088,0.0,2025-04-09 22:40:30.818,BACKWARD,32
224.0,12257.048458701189,1134.7086590181184,-58781.33282438909,-55470.03364205762,-33669.125577107145,-30923.839619617418,-7482.112345947307,-20724.895086871995,0.0,0.0,0.0,193.0,1.0,155.0,0.0,2.0,3.0,250.0,411.0,2.0,1018.0,1744252830.8181176,0.0,2025-04-09 22:40:30.818,BACKWARD,32
225.0,12199.269199284221,1136.720316019096,-58759.852797967535,-55415.89771698687,-33644.33749250621,-30902.940738551708,-7344.6938210360795,-20696.865999325037,0.0,0.0,0.0,193.0,1.0,154.0,0.0,2.0,3.0,249.0,410.0,2.0,1017.0,1744252830.8181267,0.0,2025-04-09 22:40:30.818,BACKWARD,32
226.0,12139.433579377364,1129.7018682601295,-58794.22978093979,-55477.14149679441,-33661.54833573679,-30926.96886384116,-7364.564521856848,-20738.44024401191,0.0,0.0,0.0,193.0,1.0,155.0,0.0,2.0,3.0,251.0,411.0,2.0,1019.0,1744252830.8181665,0.0,2025-04-09 22:40:30.818,BACKWARD,32
227.0,12178.996167063257,1115.1955861086353,-58784.886751757476,-55415.473033842216,-33706.028307202854,-30971.80646321851,-7250.078886756764,-20773.06309617318,0.0,0.0,0.0,193.0,1.0,155.0,0.0,2.0,3.0,252.0,411.0,2.0,1020.0,1744252830.8181756,0.0,2025-04-09 22:40:30.818,BACKWARD,32
228.0,12259.95418548038,1127.8243217258837,-58790.09470821556,-55465.00449955517,-33691.41026632908,-30932.73561391063,-7418.99101960552,-20720.536496703207,0.0,0.0,0.0,193.0,1.0,154.0,0.0,2.0,3.0,249.0,410.0,2.0,1017.0,1744252830.8181844,0.0,2025-04-09 22:40:30.818,BACKWARD,32
229.0,12211.160327334444,1130.7747519939844,-58752.58848101956,-55420.54687983357,-33635.84382961319,-30889.842616300895,-7390.090214024808,-20677.129408971003,0.0,0.0,0.0,193.0,1.0,155.0,0.0,2.0,3.0,252.0,411.0,2.0,1020.0,1744252830.8181932,0.0,2025-04-09 22:40:30.818,BACKWARD,32
230.0,12137.466625865296,1115.0167721529929,-58805.49506014527,-55483.93642710882,-33668.16445209557,-30932.087413321427,-7331.059256918342,-20731.73472067532,0.0,0.0,0.0,193.0,1.0,154.0,0.0,2.0,3.0,250.0,410.0,2.0,1018.0,1744252830.818202,0.0,2025-04-09 22:40:30.818,BACKWARD,32
231.0,12137.399570631931,1093.492042242532,-58803.37164442202,-55446.54195863509,-33708.7552200264,-30968.923088183772,-7296.3246460347955,-20761.171968122955,0.0,0.0,0.0,193.0,1.0,155.0,0.0,2.0,3.0,252.0,411.0,2.0,1020.0,1744252830.8182108,0.0,2025-04-09 22:40:30.818,BACKWARD,32
232.0,12250.633508042516,1122.973993179082,-58799.66125484244,-55457.471961673735,-33706.92237698107,-30955.73555895514,-7343.97856521351,-20749.616116239562,0.0,0.0,0.0,193.0,1.0,155.0,0.0,2.0,3.0,251.0,411.0,2.0,1019.0,1744252830.81822,0.0,2025-04-09 22:40:30.818,BACKWARD,32
233.0,12221.620943739528,1133.076981672881,-58751.20267286333,-55431.40982763885,-33632.491067944895,-30886.221633699137,-7448.070639141874,-20686.226568964314,0.0,0.0,0.0,193.0,1.0,154.0,0.0,2.0,3.0,249.0,410.0,2.0,1017.0,1744252830.8182287,0.0,2025-04-09 22:40:30.818,BACKWARD,32
234.0,12159.058411009122,1127.3549350923224,-58784.30560640164,-55455.54971165058,-33648.293751274796,-30913.870741590352,-7295.877611145689,-20709.226514008824,0.0,0.0,0.0,193.0,1.0,155.0,0.0,2.0,3.0,252.0,411.0,2.0,1020.0,1744252830.8182373,0.0,2025-04-09 22:40:30.818,BACKWARD,32
235.0,12123.765006514193,1086.78651890594,-58801.8293740546,-55461.249406486684,-33692.14787389611,-30961.12232936887,-7329.919317951121,-20756.25458434279,0.0,0.0,0.0,193.0,1.0,155.0,0.0,2.0,3.0,249.0,411.0,2.0,1017.0,1744252830.8182466,0.0,2025-04-09 22:40:30.818,BACKWARD,32
236.0,12233.981458423312,1104.3326383033561,-58808.89252530248,-55449.44768541428,-33720.04285097633,-30979.98720168915,-7278.376195237183,-20774.426552584955,0.0,0.0,0.0,193.0,1.0,155.0,0.0,2.0,3.0,252.0,411.0,2.0,1020.0,1744252831.287007,0.0,2025-04-09 22:40:31.287,BACKWARD,32
237.0,12221.41977803943,1119.3306588328671,-58764.52431255869,-55453.02396452713,-33636.9390650915,-30884.657011587267,-7499.05496824443,-20679.27517643871,0.0,0.0,0.0,193.0,1.0,154.0,0.0,2.0,3.0,250.0,410.0,2.0,1018.0,1744252831.287047,0.0,2025-04-09 22:40:31.287,BACKWARD,32
238.0,12154.297489440143,1116.0673041423922,-58794.78857455118,-55452.91220580485,-33656.38508276762,-30910.45092468869,-7287.383948252672,-20694.317900457132,0.0,0.0,0.0,193.0,1.0,154.0,0.0,2.0,3.0,251.0,410.0,2.0,1019.0,1744252831.2870667,0.0,2025-04-09 22:40:31.287,BACKWARD,32
239.0,12104.408395815897,1082.6514461817083,-58817.520298662224,-55485.098717820496,-33694.785379741836,-30946.45958500619,-7383.585856388314,-20738.082616100626,0.0,0.0,0.0,193.0,1.0,155.0,0.0,2.0,3.0,252.0,411.0,2.0,1020.0,1744252831.287087,0.0,2025-04-09 22:40:31.287,BACKWARD,32
240.0,12219.318714060631,1108.8923941722387,-58804.936266533885,-55429.77815029361,-33721.09338296573,-30975.874480709375,-7236.9807645059545,-20759.383828566533,0.0,0.0,0.0,193.0,1.0,154.0,0.0,2.0,3.0,249.0,410.0,2.0,1017.0,1744252831.2871072,0.0,2025-04-09 22:40:31.287,BACKWARD,32
241.0,12223.856118185058,1117.7436849765402,-58780.326995888594,-55476.493296205204,-33652.80880365477,-30902.940738551708,-7525.877061590799,-20699.883484826503,0.0,0.0,0.0,193.0,1.0,154.0,0.0,2.0,3.0,251.0,410.0,2.0,1019.0,1744252831.2871552,0.0,2025-04-09 22:40:31.287,BACKWARD,32
242.0,12174.659928638928,1120.4258943111772,-58782.49511510076,-55440.149359720876,-33651.19947805399,-30915.345956724403,-7296.011721612421,-20706.85722909656,0.0,0.0,0.0,193.0,1.0,155.0,0.0,2.0,3.0,252.0,411.0,2.0,1020.0,1744252831.2871754,0.0,2025-04-09 22:40:31.287,BACKWARD,32
243.0,12113.259686620198,1088.4852514845434,-58814.59222013858,-55498.42035751586,-33686.49288254892,-30951.399320530814,-7399.790871118412,-20757.506282032286,0.0,0.0,0.0,193.0,1.0,154.0,0.0,2.0,3.0,248.0,410.0,2.0,1016.0,1744252831.2871845,0.0,2025-04-09 22:40:31.287,BACKWARD,32
244.0,12210.109795345044,1106.9701441490822,-58793.71569081732,-55420.837452511485,-33717.53945559734,-30989.88902448285,-7229.180005691052,-20787.189398668936,0.0,0.0,0.0,193.0,1.0,154.0,0.0,2.0,3.0,251.0,410.0,2.0,1019.0,1744252831.287194,0.0,2025-04-09 22:40:31.287,BACKWARD,32
245.0,12239.211766625855,1121.2529088560234,-58788.06069947013,-55488.98792135572,-33670.04199862981,-30926.007738829583,-7516.355218452838,-20718.122508302036,0.0,0.0,0.0,193.0,1.0,155.0,0.0,2.0,3.0,252.0,411.0,2.0,1020.0,1744252831.287203,0.0,2025-04-09 22:40:31.287,BACKWARD,32
246.0,12181.499562442252,1129.7912752379507,-58772.61564405151,-55430.44870262727,-33653.255838543875,-30915.010680557574,-7319.525756779404,-20694.96610104634,0.0,0.0,0.0,193.0,1.0,154.0,0.0,2.0,3.0,250.0,410.0,2.0,1018.0,1744252831.2872121,0.0,2025-04-09 22:40:31.287,BACKWARD,32
247.0,12124.2120414033,1113.854481441317,-58797.85076354155,-55485.05401433159,-33668.790300940316,-30934.300236022504,-7385.329292455828,-20731.28768578621,0.0,0.0,0.0,193.0,1.0,155.0,0.0,2.0,3.0,252.0,411.0,2.0,1020.0,1744252831.287221,0.0,2025-04-09 22:40:31.287,BACKWARD,32
248.0,12190.127335802,1112.3122110739007,-58785.8255250246,-55412.63436229639,-33717.96413874199,-30981.998858690127,-7234.924404016067,-20773.30896536219,0.0,0.0,0.0,193.0,1.0,154.0,0.0,2.0,3.0,250.0,410.0,2.0,1018.0,1744252831.28723,0.0,2025-04-09 22:40:31.287,BACKWARD,32
249.0,12258.836598257614,1131.8476357278391,-58787.747775047756,-55479.6448921734,-33687.74458023842,-30939.530544225043,-7481.978235480576,-20739.848403912594,0.0,0.0,0.0,193.0,1.0,155.0,0.0,2.0,3.0,252.0,411.0,2.0,1020.0,1744252831.2872386,0.0,2025-04-09 22:40:31.287,BACKWARD,32
250.0,12215.474214014319,1145.3480893788444,-58747.08995188355,-55411.78499600709,-33639.21894302594,-30898.962128038664,-7361.8376090333,-20690.76397308874,0.0,0.0,0.0,193.0,1.0,155.0,0.0,2.0,3.0,250.0,411.0,2.0,1018.0,1744252831.2872477,0.0,2025-04-09 22:40:31.287,BACKWARD,32
251.0,12150.363582416008,1134.8651212293055,-58781.98102497829,-55471.57591242503,-33655.60277171168,-30923.280826006037,-7361.390574144194,-20716.557886190163,0.0,0.0,0.0,193.0,1.0,154.0,0.0,2.0,3.0,250.0,410.0,2.0,1018.0,1744252831.2872565,0.0,2025-04-09 22:40:31.287,BACKWARD,32
252.0,12176.492771684263,1117.3413535763448,-58776.52719933119,-55419.49634784417,-33698.36165885469,-30972.70053299672,-7258.080811271765,-20751.69482847391,0.0,0.0,0.0,193.0,1.0,155.0,0.0,2.0,3.0,252.0,411.0,2.0,1020.0,1744252831.2872658,0.0,2025-04-09 22:40:31.287,BACKWARD,32
253.0,12261.384697125519,1133.0322781839702,-58796.621417596514,-55475.93450259382,-33705.00012695791,-30968.923088183772,-7407.435167722127,-20763.34008733512,0.0,0.0,0.0,193.0,1.0,154.0,0.0,2.0,3.0,250.0,410.0,2.0,1018.0,1744252831.2872748,0.0,2025-04-09 22:40:31.287,BACKWARD,32
254.0,12213.909591902446,1138.7096212756182,-58758.22112062229,-55436.8860050304,-33647.13146056312,-30913.60252065689,-7428.892842399221,-20705.560827918154,0.0,0.0,0.0,193.0,1.0,155.0,0.0,2.0,3.0,252.0,411.0,2.0,1020.0,1744252831.287284,0.0,2025-04-09 22:40:31.287,BACKWARD,32
255.0,12157.963175530813,1139.6260427982859,-58791.70403381634,-55474.682804904325,-33664.25289681589,-30926.678291163244,-7347.756010026456,-20721.67643567043,0.0,0.0,0.0,193.0,1.0,154.0,0.0,2.0,3.0,250.0,410.0,2.0,1018.0,1744252831.2872927,0.0,2025-04-09 22:40:31.287,BACKWARD,32
0.0,12158.343155186552,1117.9001471877275,-58787.814830281124,-55441.42340915483,-33698.696935021515,-30960.56353575749,-7327.527681294404,-20756.478101787343,0.0,0.0,0.0,193.0,1.0,155.0,0.0,2.0,3.0,252.0,411.0,2.0,1020.0,1744252831.2873073,0.0,2025-04-09 22:40:31.287,BACKWARD,32
1.0,12262.479932603828,1137.2791096304786,-58799.0801094866,-55456.8908163179,-33712.733830539444,-30969.280716095058,-7339.3517541112615,-20763.76477047977,0.0,0.0,0.0,193.0,1.0,154.0,0.0,2.0,3.0,250.0,410.0,2.0,1018.0,1744252831.2873163,0.0,2025-04-09 22:40:31.287,BACKWARD,32
2.0,12233.176795622921,1147.717374291107,-58752.655536252925,-55439.07647598702,-33637.117879047146,-30891.340183179404,-7474.088069687852,-20694.228493479313,0.0,0.0,0.0,193.0,1.0,155.0,0.0,1.0,3.0,251.0,411.0,1.0,1019.0,1744252831.2873251,0.0,2025-04-09 22:40:31.287,BACKWARD,32
3.0,12168.982585547279,1141.525941076987,-58787.70307155885,-55462.34464196499,-33659.51432699136,-30921.559741682977,-7312.797881698357,-20725.923267116937,0.0,0.0,0.0,193.0,1.0,154.0,0.0,2.0,3.0,250.0,410.0,2.0,1018.0,1744252831.2873344,0.0,2025-04-09 22:40:31.287,BACKWARD,32
4.0,12135.343210142042,1104.7126179590962,-58798.4766123863,-55469.81012461307,-33696.28294662034,-30960.831756690954,-7366.889103280199,-20766.804607725695,0.0,0.0,0.0,193.0,1.0,155.0,0.0,2.0,3.0,252.0,411.0,2.0,1020.0,1744252831.2873433,0.0,2025-04-09 22:40:31.287,BACKWARD,32
5.0,12245.604365540072,1121.141150133747,-58798.096632730565,-55446.005516768164,-33723.32855741126,-30988.4138093488,-7281.974826094488,-20792.084430704646,0.0,0.0,0.0,193.0,1.0,154.0,0.0,2.0,3.0,252.0,410.0,2.0,1020.0,1744252831.2873518,0.0,2025-04-09 22:40:31.287,BACKWARD,32
6.0,12220.212783838842,1120.045914655437,-58774.96257721932,-55477.78969738361,-33661.70479794798,-30916.083564291428,-7537.25409951855,-20716.33436874561,0.0,0.0,0.0,193.0,1.0,154.0,0.0,1.0,3.0,251.0,410.0,1.0,1019.0,1744252831.287361,0.0,2025-04-09 22:40:31.287,BACKWARD,32
7.0,12165.74158260126,1123.3763245792777,-58789.379452393,-55459.014232041154,-33671.60662074168,-30924.443116717714,-7324.9125271931325,-20706.410194207456,0.0,0.0,0.0,193.0,1.0,155.0,0.0,2.0,3.0,253.0,411.0,2.0,1021.0,1744252831.2873695,0.0,2025-04-09 22:40:31.287,BACKWARD,32
8.0,12107.180012128356,1085.6465799387192,-58815.88862131699,-55499.80616567209,-33704.91071998009,-30960.340018312934,-7417.001714348998,-20751.225441840346,0.0,0.0,0.0,193.0,1.0,154.0,0.0,9.0,3.0,249.0,410.0,9.0,1017.0,1744252831.2873795,0.0,2025-04-09 22:40:31.287,BACKWARD,32
9.0,12220.235135583298,1107.1266063602695,-58798.29779843066,-55436.707191074755,-33723.0603364778,-30990.09019018295,-7248.380154178161,-20772.705468261895,0.0,0.0,0.0,193.0,1.0,155.0,0.0,20.0,3.0,250.0,411.0,20.0,1018.0,1744252831.287388,0.0,2025-04-09 22:40:31.287,BACKWARD,32
10.0,12236.686019502404,1123.4880833015543,-58773.062678940616,-55485.165773053865,-33653.814632155256,-30917.06704104746,-7541.053896075952,-20719.95535134737,0.0,0.0,0.0,193.0,1.0,154.0,0.0,30.0,3.0,250.0,410.0,30.0,1018.0,1744252831.287397,0.0,2025-04-09 22:40:31.287,BACKWARD,32
11.0,12175.97868156179,1124.4045048242217,-58783.411536623425,-55450.02883077012,-33659.76019618037,-30933.56262845548,-7315.100111377253,-20727.80081365118,0.0,0.0,0.0,193.0,1.0,155.0,0.0,37.0,3.0,252.0,411.0,37.0,1020.0,1744252831.2874057,0.0,2025-04-09 22:40:31.287,BACKWARD,32
12.0,12109.750462740716,1094.6990364431188,-58816.134490505996,-55507.09283436452,-33686.247013359905,-30958.08249212295,-7404.730606643035,-20752.410084296476,0.0,0.0,0.0,193.0,1.0,155.0,0.0,39.0,3.0,252.0,411.0,39.0,1020.0,1744252831.2874148,0.0,2025-04-09 22:40:31.287,BACKWARD,32
13.0,12197.548114961162,1104.0644173698925,-58798.70012983085,-55430.582813094,-33722.814467288794,-30992.861806495406,-7231.281069669852,-20772.481950817342,0.0,0.0,0.0,193.0,1.0,154.0,0.0,39.0,3.0,248.0,410.0,39.0,1016.0,1744252831.2874236,0.0,2025-04-09 22:40:31.287,BACKWARD,32
14.0,12244.240909128299,1119.55417627742,-58786.20550468034,-55492.988883613216,-33671.94189690851,-30931.372157498856,-7521.496119677558,-20727.599647951087,0.0,0.0,0.0,193.0,1.0,155.0,0.0,39.0,3.0,252.0,411.0,39.0,1020.0,1744252831.2874324,0.0,2025-04-09 22:40:31.287,BACKWARD,32
15.0,12189.099155557056,1126.527920547476,-58767.36298410452,-55435.14256896288,-33651.512402476365,-30921.045651560507,-7342.5257018239145,-20709.248865753278,0.0,0.0,0.0,193.0,1.0,156.0,0.0,38.0,3.0,252.0,412.0,38.0,1020.0,1744252831.2874458,0.0,2025-04-09 22:40:31.287,BACKWARD,32
16.0,12123.340323369543,1109.786463950451,-58804.89156304498,-55500.9014011504,-33680.949649924,-30947.711282695687,-7403.165984531162,-20744.832842926127,0.0,0.0,0.0,193.0,1.0,154.0,0.0,38.0,3.0,250.0,410.0,38.0,1018.0,1744252831.2874548,0.0,2025-04-09 22:40:31.287,BACKWARD,32
17.0,12184.472344454807,1109.0488563834258,-58785.512600602226,-55420.077493200006,-33716.06424046329,-30983.786998246553,-7255.6444711261365,-20773.890110718028,0.0,0.0,0.0,193.0,1.0,155.0,0.0,39.0,3.0,250.0,411.0,39.0,1018.0,1744252831.2874637,0.0,2025-04-09 22:40:31.287,BACKWARD,32
18.0,12250.588804553605,1123.2422141125458,-58792.39693789446,-55482.93059860833,-33691.76789424037,-30944.805555916497,-7471.092935930841,-20756.925136676447,0.0,0.0,0.0,193.0,1.0,155.0,0.0,39.0,3.0,250.0,411.0,39.0,1018.0,1744252831.2874725,0.0,2025-04-09 22:40:31.287,BACKWARD,32
19.0,12205.192411564876,1136.3403363633558,-58751.470893796795,-55417.59644956547,-33641.74469014939,-30895.765828581552,-7389.8443448358,-20707.371319219033,0.0,0.0,0.0,193.0,1.0,154.0,0.0,39.0,3.0,252.0,410.0,39.0,1020.0,1744252831.2874813,0.0,2025-04-09 22:40:31.287,BACKWARD,32
20.0,12135.83494852006,1119.9341559331604,-58795.34736816256,-55478.90728460637,-33668.343266051204,-30925.225427773647,-7374.399289417182,-20734.886316643515,0.0,0.0,0.0,193.0,1.0,155.0,0.0,39.0,3.0,250.0,411.0,39.0,1018.0,1744252831.2874904,0.0,2025-04-09 22:40:31.287,BACKWARD,32
21.0,12151.861149294515,1097.2247835665685,-58790.63115008249,-55433.64500208438,-33711.079801449756,-30974.242803364137,-7302.583134482281,-20782.69669803342,0.0,0.0,0.0,193.0,1.0,154.0,0.0,40.0,3.0,250.0,410.0,40.0,1018.0,1744252831.2874987,0.0,2025-04-09 22:40:31.287,BACKWARD,32
22.0,12256.422609856441,1133.74753400654,-58784.90910350193,-55455.88498781741,-33695.50063556441,-30936.758927912586,-7403.143632786708,-20748.364418550067,0.0,0.0,0.0,193.0,1.0,155.0,0.0,40.0,3.0,252.0,411.0,40.0,1020.0,1744252831.2875073,0.0,2025-04-09 22:40:31.287,BACKWARD,32
23.0,12216.144766347978,1144.0963916893472,-58741.30085006963,-55417.75291177665,-33630.79233536629,-30878.24206092859,-7436.6712494696685,-20676.972946759815,0.0,0.0,0.0,193.0,1.0,155.0,0.0,40.0,3.0,250.0,411.0,40.0,1018.0,1744252831.2875164,0.0,2025-04-09 22:40:31.287,BACKWARD,32
24.0,12149.804788804626,1130.5288828049759,-58783.746812790254,-55462.67991813182,-33654.596943211196,-30909.48979967711,-7331.148663896163,-20702.31982497213,0.0,0.0,0.0,193.0,1.0,154.0,0.0,40.0,3.0,249.0,410.0,40.0,1017.0,1744252831.2875252,0.0,2025-04-09 22:40:31.287,BACKWARD,32
25.0,12131.83398626256,1094.8331469098505,-58791.05583322714,-55446.67606910182,-33695.45593207549,-30951.622837975367,-7332.087437163286,-20740.00486612378,0.0,0.0,0.0,193.0,1.0,155.0,0.0,40.0,3.0,252.0,411.0,40.0,1020.0,1744252831.287534,0.0,2025-04-09 22:40:31.287,BACKWARD,32
26.0,12243.70446726137,1120.3588390778111,-58795.369719907016,-55450.36410693695,-33710.364545627184,-30965.056236393004,-7326.119521393719,-20758.132130877035,0.0,0.0,0.0,193.0,1.0,154.0,0.0,41.0,3.0,250.0,410.0,41.0,1018.0,1744252831.2875428,0.0,2025-04-09 22:40:31.287,BACKWARD,32
27.0,12225.174871107922,1138.687269531163,-58745.25710883822,-55438.49533063118,-33631.70875688896,-30892.614232613356,-7497.311532176916,-20703.839743595094,0.0,0.0,0.0,193.0,1.0,154.0,0.0,41.0,3.0,249.0,410.0,41.0,1017.0,1744252831.2875516,0.0,2025-04-09 22:40:31.287,BACKWARD,32
28.0,12159.63955636496,1131.5794147943755,-58780.10347844404,-55453.82862732752,-33656.832117656726,-30924.778392884542,-7315.077759632798,-20729.67836018543,0.0,0.0,0.0,193.0,1.0,154.0,0.0,41.0,3.0,250.0,410.0,41.0,1018.0,1744252831.2875602,0.0,2025-04-09 22:40:31.287,BACKWARD,32
29.0,12111.06921566358,1087.434719495144,-58803.192830466374,-55478.57200843954,-33700.48507457794,-30962.351675313912,-7380.03192901992,-20761.95427917889,0.0,0.0,0.0,193.0,1.0,154.0,0.0,41.0,3.0,250.0,410.0,41.0,1018.0,1744252831.2875688,0.0,2025-04-09 22:40:31.287,BACKWARD,32
30.0,12227.812376953647,1110.5017197730208,-58794.29683617316,-55439.367048664935,-33724.62495858967,-30981.104788911915,-7277.079794058775,-20773.06309617318,0.0,0.0,0.0,193.0,1.0,155.0,0.0,41.0,3.0,252.0,411.0,41.0,1020.0,1744252831.2875824,0.0,2025-04-09 22:40:31.287,BACKWARD,32
31.0,12218.04466462668,1121.6328885117637,-58762.60206253554,-55470.01129031317,-33655.75923392287,-30906.44996243119,-7552.855617148354,-20714.993264078294,0.0,0.0,0.0,193.0,1.0,154.0,0.0,42.0,3.0,250.0,410.0,42.0,1018.0,1744252831.287591,0.0,2025-04-09 22:40:31.287,BACKWARD,32
32.0,12170.16722800341,1135.3568596073223,-58768.793495749655,-55441.803388810564,-33652.42882399903,-30916.865875347365,-7318.385817812183,-20716.848458868084,0.0,0.0,0.0,193.0,1.0,154.0,0.0,42.0,3.0,250.0,410.0,42.0,1018.0,1744252831.2875998,0.0,2025-04-09 22:40:31.287,BACKWARD,32
33.0,12105.414224316386,1087.7252921730628,-58801.091766487574,-55492.78771791312,-33688.57159478326,-30953.187460087236,-7395.566391416359,-20754.377037808543,0.0,0.0,0.0,193.0,1.0,155.0,0.0,42.0,3.0,252.0,411.0,42.0,1020.0,1744252831.2876089,0.0,2025-04-09 22:40:31.287,BACKWARD,32
34.0,12208.254600555254,1105.3161150593896,-58789.15593494844,-55429.241708426685,-33723.68618532255,-30986.13393141436,-7230.923441758567,-20779.701564276405,0.0,0.0,0.0,193.0,1.0,155.0,0.0,42.0,3.0,250.0,411.0,42.0,1018.0,1744252831.2876177,0.0,2025-04-09 22:40:31.287,BACKWARD,32
35.0,12231.679228744415,1121.3423158338446,-58767.742963760254,-55485.05401433159,-33658.24027755741,-30917.55877942548,-7532.359067482837,-20726.43735723941,0.0,0.0,0.0,193.0,1.0,155.0,0.0,42.0,3.0,252.0,411.0,42.0,1020.0,1744252831.2876263,0.0,2025-04-09 22:40:31.287,BACKWARD,32
36.0,12177.140972273466,1128.2713566149898,-58760.23277762327,-55435.72371431872,-33647.8914198746,-30915.5471224245,-7312.574364253804,-20712.735737888306,0.0,0.0,0.0,193.0,1.0,154.0,0.0,42.0,3.0,250.0,410.0,42.0,1018.0,1744252831.2876348,0.0,2025-04-09 22:40:31.287,BACKWARD,32
37.0,12114.086701165046,1105.7631499484958,-58789.02182448171,-55490.01610160066,-33672.61244924217,-30930.567494698465,-7393.599437904291,-20725.029197338725,0.0,0.0,0.0,193.0,1.0,154.0,0.0,42.0,3.0,249.0,410.0,42.0,1017.0,1744252831.2876437,0.0,2025-04-09 22:40:31.287,BACKWARD,32
38.0,12192.116641058523,1101.1139871017917,-58780.08112669959,-55419.026961210606,-33719.86403702069,-30978.266117366093,-7225.693133556025,-20760.68022974494,0.0,0.0,0.0,193.0,1.0,155.0,0.0,42.0,3.0,252.0,411.0,42.0,1020.0,1744252831.2876527,0.0,2025-04-09 22:40:31.287,BACKWARD,32
39.0,12248.219519641343,1125.0303536689703,-58769.79932425015,-55481.656549174375,-33672.701856219996,-30921.20211377169,-7514.075340518397,-20729.25367704078,0.0,0.0,0.0,193.0,1.0,155.0,0.0,42.0,3.0,251.0,411.0,42.0,1019.0,1744252831.2876616,0.0,2025-04-09 22:40:31.287,BACKWARD,32
40.0,12196.586989949583,1130.0147926825039,-58747.44757979484,-55422.178557178806,-33643.42107098354,-30904.25949147457,-7347.331326881806,-20699.592912148586,0.0,0.0,0.0,193.0,1.0,154.0,0.0,43.0,3.0,249.0,410.0,43.0,1017.0,1744252831.2876701,0.0,2025-04-09 22:40:31.287,BACKWARD,32
41.0,12123.49678558073,1104.1985278366242,-58796.286141429686,-55498.64387496041,-33675.00408589889,-30942.995064615618,-7383.854077321777,-20745.793967937705,0.0,0.0,0.0,193.0,1.0,155.0,0.0,42.0,3.0,251.0,411.0,42.0,1019.0,1744252831.287679,0.0,2025-04-09 22:40:31.287,BACKWARD,32
42.0,12176.492771684263,1101.1586905907025,-58777.42126910941,-55424.749007791164,-33708.7552200264,-30974.958059186705,-7260.763020606401,-20766.402276325498,0.0,0.0,0.0,193.0,1.0,154.0,0.0,43.0,3.0,249.0,410.0,43.0,1017.0,1744252831.2876875,0.0,2025-04-09 22:40:31.287,BACKWARD,32
43.0,12255.193263911398,1128.204301381624,-58779.67879529939,-55477.7449938947,-33688.415132572074,-30941.31868378147,-7453.524464788969,-20745.793967937705,0.0,0.0,0.0,193.0,1.0,155.0,0.0,43.0,3.0,251.0,411.0,43.0,1019.0,1744252831.2876964,0.0,2025-04-09 22:40:31.287,BACKWARD,32
44.0,12201.347911518564,1133.1216851617914,-58746.6652687389,-55430.49340611618,-33644.27043727284,-30907.142866509304,-7399.120318784752,-20713.00395882177,0.0,0.0,0.0,193.0,1.0,155.0,0.0,43.0,3.0,251.0,411.0,43.0,1019.0,1744252831.2877052,0.0,2025-04-09 22:40:31.287,BACKWARD,32
45.0,12138.427750876876,1123.0410484124482,-58785.512600602226,-55482.863543374966,-33665.92927765004,-30928.868762119862,-7361.7705537999345,-20738.10496784508,0.0,0.0,0.0,193.0,1.0,154.0,0.0,43.0,3.0,249.0,410.0,43.0,1017.0,1744252831.287778,0.0,2025-04-09 22:40:31.287,BACKWARD,32
46.0,12143.970983501791,1098.722350445074,-58782.2715976562,-55439.27764168711,-33709.49282759343,-30966.911431182794,-7308.036960129376,-20772.19137813942,0.0,0.0,0.0,193.0,1.0,155.0,0.0,43.0,3.0,252.0,411.0,43.0,1020.0,1744252831.2877872,0.0,2025-04-09 22:40:31.287,BACKWARD,32
47.0,12241.84927247158,1115.821434953384,-58793.44746988386,-55471.26298800266,-33718.32176665327,-30957.970733400674,-7389.084385524319,-20760.210843111377,0.0,0.0,0.0,193.0,1.0,154.0,0.0,43.0,3.0,249.0,410.0,43.0,1017.0,1744252831.2877958,0.0,2025-04-09 22:40:31.287,BACKWARD,32
48.0,12209.260429055743,1124.8738914577832,-58747.62639375048,-55436.55072886357,-33647.6902541745,-30893.68711634721,-7466.33201436186,-20697.58125514761,0.0,0.0,0.0,193.0,1.0,155.0,0.0,43.0,3.0,251.0,411.0,43.0,1019.0,1744252831.2878044,0.0,2025-04-09 22:40:31.287,BACKWARD,32
49.0,12154.92333828489,1132.0935049168475,-58774.49319058576,-55456.8908163179,-33659.268457802355,-30909.91448282176,-7335.663716276135,-20712.62397916603,0.0,0.0,0.0,193.0,1.0,154.0,0.0,43.0,3.0,252.0,410.0,43.0,1020.0,1744252831.287813,0.0,2025-04-09 22:40:31.287,BACKWARD,32
50.0,12132.169262429388,1103.9750103920712,-58782.80803952313,-55447.23486271321,-33698.89810072161,-30951.376968786357,-7343.933861724599,-20754.35468606409,0.0,0.0,0.0,193.0,1.0,154.0,0.0,43.0,3.0,249.0,410.0,43.0,1017.0,1744252831.2878218,0.0,2025-04-09 22:40:31.287,BACKWARD,32
51.0,12242.51982480524,1128.2713566149898,-58788.306568659136,-55441.55751962156,-33722.05450797731,-30965.23505034865,-7311.903811920144,-20767.0504769147,0.0,0.0,0.0,193.0,1.0,155.0,0.0,43.0,3.0,251.0,411.0,43.0,1019.0,1744252831.2878308,0.0,2025-04-09 22:40:31.287,BACKWARD,32
52.0,12227.879432187014,1146.0186417125037,-58737.94808840133,-55435.54490036308,-33632.60282666717,-30880.611345840854,-7501.379549667782,-20690.272234710723,0.0,0.0,0.0,193.0,1.0,154.0,0.0,43.0,3.0,252.0,410.0,43.0,1020.0,1744252831.2878397,0.0,2025-04-09 22:40:31.287,BACKWARD,32
53.0,12161.539454643662,1142.0847346883697,-58771.810981251125,-55444.21737721174,-33655.58041996723,-30909.154523510282,-7299.029207113887,-20712.57927567712,0.0,0.0,0.0,193.0,1.0,154.0,0.0,43.0,3.0,250.0,410.0,43.0,1018.0,1744252831.287848,0.0,2025-04-09 22:40:31.287,BACKWARD,32
54.0,12122.379198357965,1111.1499203622247,-58781.44458311136,-55459.371859952436,-33685.64351625962,-30929.427555731247,-7369.168981214641,-20727.040854339702,0.0,0.0,0.0,193.0,1.0,155.0,0.0,43.0,3.0,252.0,411.0,43.0,1020.0,1744252831.287857,0.0,2025-04-09 22:40:31.287,BACKWARD,32
55.0,12237.647144513983,1128.9866124375596,-58775.20844640833,-55416.098882686965,-33714.27610090686,-30958.59658224542,-7233.896223771122,-20749.079674372635,0.0,0.0,0.0,193.0,1.0,155.0,0.0,43.0,3.0,250.0,411.0,43.0,1018.0,1744252831.2878656,0.0,2025-04-09 22:40:31.287,BACKWARD,32
56.0,12236.216632868844,1140.363650365311,-58748.40870480642,-55456.555540151065,-33644.56100995076,-30883.38296215331,-7520.758512110533,-20695.39078419099,0.0,0.0,0.0,193.0,1.0,154.0,0.0,43.0,3.0,250.0,410.0,43.0,1018.0,1744252831.2878745,0.0,2025-04-09 22:40:31.287,BACKWARD,32
57.0,12177.520951929208,1147.0021184685372,-58759.02578342269,-55430.627516582914,-33651.53475422082,-30901.957261795673,-7298.15748908013,-20708.891237841992,0.0,0.0,0.0,193.0,1.0,155.0,0.0,43.0,3.0,252.0,411.0,43.0,1020.0,1744252831.2878833,0.0,2025-04-09 22:40:31.287,BACKWARD,32
58.0,12109.68340750735,1108.8029871944175,-58794.185077450886,-55489.03262484463,-33692.058466918286,-30939.7540616696,-7408.016313077965,-20747.984438894324,0.0,0.0,0.0,193.0,1.0,155.0,0.0,43.0,3.0,251.0,411.0,43.0,1019.0,1744252831.287892,0.0,2025-04-09 22:40:31.287,BACKWARD,32
59.0,12213.619019224529,1120.4035425667219,-58777.86830399851,-55419.47399609971,-33721.71923181048,-30976.679143509766,-7229.917613258078,-20777.198168897412,0.0,0.0,0.0,193.0,1.0,154.0,0.0,43.0,3.0,249.0,410.0,43.0,1017.0,1744252831.2879007,0.0,2025-04-09 22:40:31.287,BACKWARD,32
60.0,12237.669496258439,1129.6795165156743,-58766.73713525977,-55485.3445870095,-33666.80099568379,-30910.78620085552,-7534.795407628466,-20723.397519993487,0.0,0.0,0.0,193.0,1.0,155.0,0.0,44.0,3.0,251.0,411.0,44.0,1019.0,1744252831.2879145,0.0,2025-04-09 22:40:31.287,BACKWARD,32
61.0,12188.585065434583,1139.6260427982859,-58750.57682401858,-55427.274754914615,-33648.04788208579,-30904.326546707936,-7317.759968967434,-20704.420888950932,0.0,0.0,0.0,193.0,1.0,155.0,0.0,44.0,3.0,252.0,411.0,44.0,1020.0,1744252831.2879236,0.0,2025-04-09 22:40:31.287,BACKWARD,32
62.0,12121.999218702224,1116.7155047315962,-58787.01016748073,-55493.190049313314,-33674.780568454335,-30929.02522433105,-7394.22528674904,-20735.534517232718,0.0,0.0,0.0,193.0,1.0,154.0,0.0,43.0,3.0,250.0,410.0,43.0,1018.0,1744252831.287933,0.0,2025-04-09 22:40:31.287,BACKWARD,32
63.0,12195.000016093258,1116.6037460093196,-58769.79932425015,-55417.46233909873,-33713.67260380657,-30969.57128877298,-7230.722276058469,-20770.380886838542,0.0,0.0,0.0,193.0,1.0,155.0,0.0,43.0,3.0,252.0,411.0,43.0,1020.0,1744252831.2879448,0.0,2025-04-09 22:40:31.287,BACKWARD,32
64.0,12249.404162097475,1128.9419089486491,-58771.76627776221,-55490.1502120674,-33679.45208304549,-30924.018433573063,-7499.077319988885,-20743.402331280988,0.0,0.0,0.0,193.0,1.0,155.0,0.0,44.0,3.0,249.0,411.0,44.0,1017.0,1744252831.2879562,0.0,2025-04-09 22:40:31.287,BACKWARD,32
65.0,12192.966007347824,1132.0935049168475,-58749.570995518094,-55434.3826096514,-33648.69608267499,-30904.326546707936,-7363.692803823091,-20707.684243641408,0.0,0.0,0.0,193.0,1.0,155.0,0.0,44.0,3.0,251.0,411.0,44.0,1019.0,1744252831.2879674,0.0,2025-04-09 22:40:31.287,BACKWARD,32
66.0,12124.793186759138,1115.0838273863587,-58795.39207165147,-55505.79643318611,-33677.41807430006,-30941.721015181665,-7399.70146414059,-20759.316773333165,0.0,0.0,0.0,193.0,1.0,156.0,0.0,43.0,3.0,252.0,412.0,43.0,1020.0,1744252831.2879791,0.0,2025-04-09 22:40:31.287,BACKWARD,32
67.0,12160.712440098816,1100.1528620902136,-58783.769164534715,-55448.19598772479,-33716.69008930804,-30997.019230964095,-7294.849430900745,-20817.40895717251,0.0,0.0,0.0,193.0,1.0,154.0,0.0,44.0,3.0,250.0,410.0,44.0,1018.0,1744252831.2879915,0.0,2025-04-09 22:40:31.287,BACKWARD,32
68.0,12248.867720230546,1121.8564059563168,-58781.06460345562,-55490.30667427858,-33691.72319075146,-30945.140832083325,-7439.800493693411,-20740.071921357146,0.0,0.0,0.0,193.0,1.0,155.0,0.0,44.0,3.0,250.0,411.0,44.0,1018.0,1744252831.2880013,0.0,2025-04-09 22:40:31.288,BACKWARD,32
69.0,12200.923228373913,1126.9302519476714,-58740.36207680251,-55440.752856821164,-33636.51438194685,-30892.43541865771,-7409.8491561232995,-20673.776647302708,0.0,0.0,0.0,193.0,1.0,154.0,0.0,44.0,3.0,249.0,410.0,44.0,1017.0,1744252831.28801,0.0,2025-04-09 22:40:31.288,BACKWARD,32
70.0,12127.765968771693,1113.5192052744871,-58785.66906281341,-55498.8003371716,-33664.76698693836,-30928.6005411864,-7352.516931595437,-20716.736700145808,0.0,0.0,0.0,193.0,1.0,154.0,0.0,44.0,3.0,249.0,410.0,44.0,1017.0,1744252831.2880194,0.0,2025-04-09 22:40:31.288,BACKWARD,32
71.0,12123.720303025282,1082.6961496706188,-58786.831353525085,-55468.804296112576,-33709.13519968214,-30972.633477763353,-7320.106902135241,-20761.574299523152,0.0,0.0,0.0,193.0,1.0,155.0,0.0,44.0,3.0,252.0,411.0,44.0,1020.0,1744252831.2880285,0.0,2025-04-09 22:40:31.288,BACKWARD,32
72.0,12232.729760733815,1110.009981395004,-58792.26282742773,-55488.67499693335,-33714.834894518244,-30971.292373096036,-7325.650134760158,-20776.3040991192,0.0,0.0,0.0,193.0,1.0,155.0,0.0,44.0,3.0,252.0,411.0,44.0,1020.0,1744252831.288037,0.0,2025-04-09 22:40:31.288,BACKWARD,32
73.0,12200.766766162726,1122.6834205011633,-58749.48158854027,-55466.636176900414,-33644.00221633938,-30912.507285178577,-7347.308975137351,-20733.902839887483,0.0,0.0,0.0,193.0,1.0,154.0,0.0,44.0,3.0,249.0,410.0,44.0,1017.0,1744252831.2880456,0.0,2025-04-09 22:40:31.288,BACKWARD,32
74.0,12144.574480602085,1125.3879815802552,-58779.87996099949,-55484.808145142575,-33661.078949103234,-30933.070890077463,-7172.317167796751,-20744.139938848013,0.0,0.0,0.0,193.0,1.0,155.0,0.0,44.0,3.0,250.0,411.0,44.0,1018.0,1744252831.2880545,0.0,2025-04-09 22:40:31.288,BACKWARD,32
75.0,12115.181936643356,1088.3958445067221,-58787.0772227141,-55478.03556657262,-33692.70666750749,-30958.440120034233,-7187.359891815173,-20747.246831327302,0.0,0.0,0.0,193.0,1.0,155.0,0.0,44.0,3.0,252.0,411.0,44.0,1020.0,1744252831.288069,0.0,2025-04-09 22:40:31.288,BACKWARD,32
76.0,12233.84734795658,1114.7932547084397,-58786.80900178063,-55459.72948786372,-33712.57736832826,-30976.299163854026,-7126.406684685551,-20767.698677503908,0.0,0.0,0.0,193.0,1.0,155.0,0.0,44.0,3.0,250.0,411.0,44.0,1018.0,1744252831.2880776,0.0,2025-04-09 22:40:31.288,BACKWARD,32
77.0,12214.691902958382,1128.718391504096,-58747.78285596167,-55471.06182230256,-33637.743727891895,-30897.621023371343,-7357.613129331247,-20700.03994703769,0.0,0.0,0.0,193.0,1.0,155.0,0.0,44.0,3.0,252.0,411.0,44.0,1020.0,1744252831.288087,0.0,2025-04-09 22:40:31.288,BACKWARD,32
78.0,12153.157550472923,1124.6950775021407,-58771.76627776221,-55465.853865844474,-33653.27819028833,-30920.553913182488,-7155.218083288441,-20712.780441377217,0.0,0.0,0.0,193.0,1.0,155.0,0.0,44.0,3.0,252.0,411.0,44.0,1020.0,1744252831.2880957,0.0,2025-04-09 22:40:31.288,BACKWARD,32
79.0,12107.291770850632,1092.3073997864008,-58786.4737256138,-55490.03845334512,-33682.067237146766,-30947.845393162417,-7242.6134041086925,-20746.71038946037,0.0,0.0,0.0,193.0,1.0,154.0,0.0,44.0,3.0,249.0,410.0,44.0,1017.0,1744252831.288104,0.0,2025-04-09 22:40:31.288,BACKWARD,32
80.0,12219.743397205282,1113.4074465522108,-58779.38822262147,-55435.61195559645,-33715.57250208527,-30976.679143509766,-7105.4407483864725,-20777.1534654085,0.0,0.0,0.0,193.0,1.0,154.0,0.0,44.0,3.0,249.0,410.0,44.0,1017.0,1744252831.2881129,0.0,2025-04-09 22:40:31.288,BACKWARD,32
81.0,12221.889164672992,1121.8117024674061,-58759.80809447862,-55485.90338062089,-33654.28401878882,-30904.84063683041,-7415.839423637322,-20724.71627291635,0.0,0.0,0.0,193.0,1.0,155.0,0.0,44.0,3.0,252.0,411.0,44.0,1020.0,1744252831.2881217,0.0,2025-04-09 22:40:31.288,BACKWARD,32
82.0,12176.895103084458,1137.659089286219,-58754.84600720955,-55439.97054576523,-33645.32096926224,-30904.55006415249,-7185.214124347463,-20707.14780177448,0.0,0.0,0.0,193.0,1.0,155.0,0.0,44.0,3.0,251.0,411.0,44.0,1019.0,1744252831.2881303,0.0,2025-04-09 22:40:31.288,BACKWARD,32
83.0,12116.545393055128,1108.4006557942218,-58786.004338980245,-55495.67109294786,-33676.389894055115,-30938.100032579903,-7282.734785405968,-20744.408159781477,0.0,0.0,0.0,193.0,1.0,154.0,0.0,44.0,3.0,249.0,410.0,44.0,1017.0,1744252831.288139,0.0,2025-04-09 22:40:31.288,BACKWARD,32
84.0,12198.218667294821,1105.5843359928533,-58784.327958146096,-55432.84033928399,-33725.65313883461,-30988.190291904248,-7123.858585817646,-20788.5081515918,0.0,0.0,0.0,193.0,1.0,155.0,0.0,44.0,3.0,252.0,411.0,44.0,1020.0,1744252831.288148,0.0,2025-04-09 22:40:31.288,BACKWARD,32
85.0,12231.790987466693,1118.8389204548503,-58775.05198419714,-55501.61665697297,-33670.37727479664,-30920.933892838228,-7436.939470403132,-20734.081653843125,0.0,0.0,0.0,193.0,1.0,154.0,0.0,44.0,3.0,250.0,410.0,44.0,1018.0,1744252831.2881567,0.0,2025-04-09 22:40:31.288,BACKWARD,32
86.0,12181.208989764333,1132.4511328281324,-58751.94028043035,-55439.6352695984,-33641.67763491603,-30908.595729898898,-7229.738799302435,-20708.421851208434,0.0,0.0,0.0,193.0,1.0,154.0,0.0,44.0,3.0,250.0,410.0,44.0,1018.0,1744252831.288165,0.0,2025-04-09 22:40:31.288,BACKWARD,32
87.0,12114.287866865143,1107.9089174162052,-58790.25117042675,-55506.914020408876,-33671.87484167515,-30938.725881424652,-7306.092358361764,-20748.364418550067,0.0,0.0,0.0,193.0,1.0,155.0,0.0,44.0,3.0,252.0,411.0,44.0,1020.0,1744252831.2881808,0.0,2025-04-09 22:40:31.288,BACKWARD,32
88.0,12173.83291409408,1102.0304086244594,-58780.125830188495,-55435.76841780763,-33718.411173631095,-30985.306916869515,-7162.214179302952,-20790.989195226335,0.0,0.0,0.0,193.0,1.0,155.0,0.0,44.0,3.0,252.0,411.0,44.0,1020.0,1744252831.2881896,0.0,2025-04-09 22:40:31.288,BACKWARD,32
89.0,12239.390580581497,1123.6445455127414,-58773.50971382973,-55493.52532548014,-33679.56384176777,-30925.247779518104,-7395.499336182993,-20729.544249718696,0.0,0.0,0.0,193.0,1.0,154.0,0.0,44.0,3.0,249.0,410.0,44.0,1017.0,1744252831.2881982,0.0,2025-04-09 22:40:31.288,BACKWARD,32
90.0,12192.876600370002,1131.6464700277413,-58737.29988781213,-55430.001667738165,-33634.435669712504,-30890.602575612378,-7268.630834654669,-20678.984603760793,0.0,0.0,0.0,193.0,1.0,154.0,0.0,44.0,3.0,251.0,410.0,44.0,1019.0,1744252831.2882116,0.0,2025-04-09 22:40:31.288,BACKWARD,32
91.0,12130.314067639598,1120.7835222224621,-58776.05781269763,-55488.20561029978,-33654.932219378024,-30915.30125323549,-7269.256683499419,-20712.33340648811,0.0,0.0,0.0,193.0,1.0,155.0,0.0,44.0,3.0,251.0,411.0,44.0,1019.0,1744252831.2882202,0.0,2025-04-09 22:40:31.288,BACKWARD,32
92.0,12154.722172584794,1097.716521944585,-58773.263844640715,-55435.20962419625,-33704.82131300227,-30967.22435560517,-7183.805964446779,-20765.374096080555,0.0,0.0,0.0,193.0,1.0,154.0,0.0,44.0,3.0,250.0,410.0,44.0,1018.0,1744252831.2882288,0.0,2025-04-09 22:40:31.288,BACKWARD,32
93.0,12253.069848188145,1125.589147280353,-58771.00631845073,-55474.056956059576,-33689.264498861376,-30936.02132034556,-7330.947498196066,-20737.05443585568,0.0,0.0,0.0,193.0,1.0,155.0,0.0,44.0,3.0,251.0,411.0,44.0,1019.0,1744252831.288237,0.0,2025-04-09 22:40:31.288,BACKWARD,32
94.0,12203.22545805281,1127.332583347867,-58733.075408110075,-55436.97541200822,-33634.50272494587,-30891.273127946035,-7338.927070966611,-20692.172132989424,0.0,0.0,0.0,193.0,1.0,155.0,0.0,44.0,3.0,250.0,411.0,44.0,1018.0,1744252831.288246,0.0,2025-04-09 22:40:31.288,BACKWARD,32
95.0,12139.522986355185,1121.1858536226575,-58773.889693485464,-55486.05984283207,-33659.2461060579,-30923.437288217225,-7257.656128127114,-20727.644351439998,0.0,0.0,0.0,193.0,1.0,154.0,0.0,44.0,3.0,249.0,410.0,44.0,1017.0,1744252831.2882545,0.0,2025-04-09 22:40:31.288,BACKWARD,32
96.0,12138.718323554795,1101.9186499021828,-58766.0218794372,-55452.442819171294,-33688.973926183455,-30953.634494976344,-7230.6999243140135,-20749.951392406394,0.0,0.0,0.0,193.0,1.0,155.0,0.0,44.0,3.0,252.0,411.0,44.0,1020.0,1744252831.288263,0.0,2025-04-09 22:40:31.288,BACKWARD,32
97.0,12254.723877277836,1131.914690961205,-58765.01605093671,-55457.136685506906,-33696.05942917579,-30950.393492030325,-7248.715430344991,-20749.325543561645,0.0,0.0,0.0,193.0,1.0,154.0,0.0,44.0,3.0,251.0,410.0,44.0,1019.0,1744252831.2882717,0.0,2025-04-09 22:40:31.288,BACKWARD,32
98.0,12221.486833272797,1134.3063276179228,-58725.22994580626,-55444.485598145206,-33632.15579177807,-30885.461674387658,-7397.51099318397,-20697.20127549187,0.0,0.0,0.0,193.0,1.0,154.0,0.0,44.0,3.0,249.0,410.0,44.0,1017.0,1744252831.2882805,0.0,2025-04-09 22:40:31.288,BACKWARD,32
99.0,12159.192521475856,1131.8029322389284,-58760.32218460109,-55463.39517395439,-33655.33455077822,-30915.50241893559,-7241.294651185829,-20721.832897881617,0.0,0.0,0.0,193.0,1.0,155.0,0.0,44.0,3.0,252.0,411.0,44.0,1020.0,1744252831.2882893,0.0,2025-04-09 22:40:31.288,BACKWARD,32
100.0,12131.856338007014,1108.110083116303,-58769.151123660944,-55464.669223388344,-33689.890347706125,-30944.135003582836,-7287.652169186136,-20744.47521501484,0.0,0.0,0.0,193.0,1.0,154.0,0.0,44.0,3.0,249.0,410.0,44.0,1017.0,1744252831.3254206,0.0,2025-04-09 22:40:31.325,BACKWARD,32
101.0,12252.935737721413,1138.9554904646268,-58763.96551894731,-55435.29903117407,-33712.62207181717,-30966.352637571414,-7203.09551991171,-20778.15929390899,0.0,0.0,0.0,193.0,1.0,155.0,0.0,44.0,3.0,251.0,411.0,44.0,1019.0,1744252831.32545,0.0,2025-04-09 22:40:31.325,BACKWARD,32
102.0,12234.026161912223,1144.4540196006321,-58730.974344131275,-55457.02492678463,-33638.54839069228,-30894.4917791476,-7445.097857129319,-20724.068072327147,0.0,0.0,0.0,193.0,1.0,155.0,0.0,44.0,3.0,252.0,411.0,44.0,1020.0,1744252831.325461,0.0,2025-04-09 22:40:31.325,BACKWARD,32
103.0,12174.324652472098,1143.6046533113306,-58752.7672949752,-55446.49725514618,-33648.24904778589,-30911.054421788984,-7217.087711940731,-20713.29453149969,0.0,0.0,0.0,193.0,1.0,154.0,0.0,44.0,3.0,250.0,410.0,44.0,1018.0,1744252831.3254716,0.0,2025-04-09 22:40:31.325,BACKWARD,32
104.0,12115.226640132267,1097.1577283332024,-58783.143315689966,-55493.10064233549,-33689.44331281702,-30949.4547187632,-7315.077759632798,-20751.29249707371,0.0,0.0,0.0,193.0,1.0,154.0,0.0,44.0,3.0,249.0,410.0,44.0,1017.0,1744252831.3254817,0.0,2025-04-09 22:40:31.325,BACKWARD,32
105.0,12221.352722806065,1111.1946238511352,-58775.45431559734,-55439.568214365034,-33726.927188268564,-30982.244727879137,-7181.146106856598,-20775.074753174158,0.0,0.0,0.0,193.0,1.0,155.0,0.0,44.0,3.0,252.0,411.0,44.0,1020.0,1744252831.3255143,0.0,2025-04-09 22:40:31.325,BACKWARD,32
106.0,12239.211766625855,1132.3170223614004,-58745.458274538316,-55482.997653841696,-33650.08189083122,-30900.906729806273,-7466.9578632066095,-20710.612322165052,0.0,0.0,0.0,193.0,1.0,154.0,0.0,44.0,3.0,249.0,410.0,44.0,1017.0,1744252831.3255243,0.0,2025-04-09 22:40:31.325,BACKWARD,32
107.0,12186.752222389248,1139.2907666314563,-58745.57003326059,-55442.00455451066,-33640.71650990445,-30909.199226999193,-7220.440473609027,-20707.080746541113,0.0,0.0,0.0,193.0,1.0,155.0,0.0,44.0,3.0,251.0,411.0,44.0,1019.0,1744252831.325534,0.0,2025-04-09 22:40:31.325,BACKWARD,32
108.0,12123.809710003105,1107.5512895049203,-58771.67687078439,-55495.38052026994,-33664.47641426044,-30932.713262166177,-7306.919372906611,-20730.05833984117,0.0,0.0,0.0,193.0,1.0,155.0,0.0,44.0,3.0,252.0,411.0,44.0,1020.0,1744252831.7980149,0.0,2025-04-09 22:40:31.798,BACKWARD,32
109.0,12195.692920171372,1099.5717167343757,-58773.129734173985,-55433.60029859547,-33724.848476034225,-30987.944422715238,-7144.153969783065,-20774.2030351404,0.0,0.0,0.0,193.0,1.0,154.0,0.0,44.0,3.0,248.0,410.0,44.0,1016.0,1744252831.7980523,0.0,2025-04-09 22:40:31.798,BACKWARD,32
110.0,12241.13401664901,1119.6212315107862,-58763.49613231375,-55503.047168618104,-33674.37823705414,-30932.445041232713,-7448.875301942266,-20744.184642336924,0.0,0.0,0.0,193.0,1.0,154.0,0.0,44.0,3.0,250.0,410.0,44.0,1018.0,1744252831.7980723,0.0,2025-04-09 22:40:31.798,BACKWARD,32
111.0,12191.893123613969,1128.8972054597384,-58742.77606520368,-55444.41854291184,-33650.238353042405,-30923.906674850787,-7270.508381188915,-20737.47911900033,0.0,0.0,0.0,193.0,1.0,154.0,0.0,44.0,3.0,250.0,410.0,44.0,1018.0,1744252831.7980928,0.0,2025-04-09 22:40:31.798,BACKWARD,32
112.0,12131.096378695534,1112.200452351624,-58773.66617604091,-55502.711892451276,-33667.516251506364,-30935.618988945367,-7318.318762578817,-20742.329447547134,0.0,0.0,0.0,193.0,1.0,154.0,0.0,44.0,3.0,249.0,410.0,44.0,1017.0,1744252831.798113,0.0,2025-04-09 22:40:31.798,BACKWARD,32
113.0,12180.381975219487,1100.5775452348644,-58759.24930086724,-55429.17465319332,-33705.17894091355,-30969.817157961985,-7153.720516409936,-20746.241002826813,0.0,0.0,0.0,193.0,1.0,154.0,0.0,44.0,3.0,249.0,410.0,44.0,1017.0,1744252831.7981308,0.0,2025-04-09 22:40:31.798,BACKWARD,32
114.0,12246.81135974066,1120.336487333356,-58763.65259452494,-55492.67595919084,-33679.250917345395,-30934.993140100618,-7375.226303962029,-20731.220630552845,0.0,0.0,0.0,193.0,1.0,155.0,0.0,44.0,3.0,253.0,411.0,44.0,1021.0,1744252831.7981484,0.0,2025-04-09 22:40:31.798,BACKWARD,32
115.0,12202.264333041232,1130.1265514047805,-58729.34266678604,-55434.762589307145,-33634.92740809052,-30898.760962338565,-7296.6152187127145,-20699.0341185372,0.0,0.0,0.0,193.0,1.0,154.0,0.0,44.0,3.0,250.0,410.0,44.0,1018.0,1744252831.798166,0.0,2025-04-09 22:40:31.798,BACKWARD,32
116.0,12137.578384587572,1117.6319262542638,-58768.83819923857,-55491.15604056788,-33656.80976591227,-30921.559741682977,-7279.896113860144,-20723.643389182496,0.0,0.0,0.0,193.0,1.0,154.0,0.0,44.0,3.0,250.0,410.0,44.0,1018.0,1744252831.7981808,0.0,2025-04-09 22:40:31.798,BACKWARD,32
117.0,12148.64249809295,1086.6971119281188,-58769.978138205784,-55451.14641799288,-33704.73190602445,-30979.115483655394,-7204.9507147015,-20782.69669803342,0.0,0.0,0.0,193.0,1.0,155.0,0.0,44.0,3.0,251.0,411.0,44.0,1019.0,1744252831.79819,0.0,2025-04-09 22:40:31.798,BACKWARD,32
118.0,12240.888147460002,1106.657219726708,-58781.310472644625,-55492.81006965758,-33706.184769414045,-30967.47022479418,-7323.124387636708,-20783.791933511726,0.0,0.0,0.0,193.0,1.0,155.0,0.0,44.0,3.0,252.0,411.0,44.0,1020.0,1744252831.7981987,0.0,2025-04-09 22:40:31.798,BACKWARD,32
119.0,12201.102042329556,1116.2014146091242,-58735.735265700256,-55450.5876243815,-33642.88462911661,-30903.276014718536,-7369.07957423682,-20715.395595478487,0.0,0.0,0.0,193.0,1.0,154.0,0.0,44.0,3.0,250.0,410.0,44.0,1018.0,1744252831.7982075,0.0,2025-04-09 22:40:31.798,BACKWARD,32
120.0,12136.080817709068,1109.1606151057024,-58774.06850744111,-55488.2950172776,-33661.41422527006,-30926.58888418542,-7250.190645479041,-20716.401423978976,0.0,0.0,0.0,193.0,1.0,154.0,0.0,44.0,3.0,249.0,410.0,44.0,1017.0,1744252831.7982492,0.0,2025-04-09 22:40:31.798,BACKWARD,32
121.0,12131.856338007014,1094.8107951653953,-58763.80905673612,-55456.130857006414,-33685.24118485942,-30950.16997458577,-7239.640622096136,-20737.3450085336,0.0,0.0,0.0,193.0,1.0,154.0,0.0,44.0,3.0,252.0,410.0,44.0,1020.0,1744252831.7982583,0.0,2025-04-09 22:40:31.798,BACKWARD,32
122.0,12243.860929472557,1123.7116007461073,-58764.59136779206,-55455.46030467276,-33700.39566760012,-30957.07666362246,-7232.510415614894,-20758.53446227723,0.0,0.0,0.0,193.0,1.0,155.0,0.0,44.0,3.0,250.0,411.0,44.0,1018.0,1744252831.7982671,0.0,2025-04-09 22:40:31.798,BACKWARD,32
123.0,12219.519879760728,1131.914690961205,-58725.27464929517,-55453.87333081643,-33629.94296907699,-30889.373229667337,-7407.904554355688,-20705.024386051224,0.0,0.0,0.0,193.0,1.0,154.0,0.0,44.0,3.0,250.0,410.0,44.0,1018.0,1744252831.7982762,0.0,2025-04-09 22:40:31.798,BACKWARD,32
124.0,12161.40534417693,1129.1877781376575,-58756.500036299236,-55466.83734260051,-33650.57362920924,-30922.610273672377,-7222.653296310103,-20729.991284607804,0.0,0.0,0.0,193.0,1.0,155.0,0.0,44.0,3.0,251.0,411.0,44.0,1019.0,1744252831.7982852,0.0,2025-04-09 22:40:31.798,BACKWARD,32
125.0,12116.67950352186,1092.8885451422389,-58776.37073712001,-55484.47286897575,-33691.18674888453,-30955.80261418851,-7279.58318943777,-20755.2487558423,0.0,0.0,0.0,193.0,1.0,154.0,0.0,44.0,3.0,250.0,410.0,44.0,1018.0,1744252831.7982943,0.0,2025-04-09 22:40:31.798,BACKWARD,32
126.0,12226.091292630588,1110.5464232619313,-58781.75750753374,-55456.0414500286,-33727.0612987353,-30984.36814360239,-7182.889542924112,-20780.953261965904,0.0,0.0,0.0,193.0,1.0,155.0,0.0,44.0,3.0,251.0,411.0,44.0,1019.0,1744252831.7983031,0.0,2025-04-09 22:40:31.798,BACKWARD,32
127.0,12223.766711207238,1119.55417627742,-58748.34164957305,-55481.16481079636,-33654.52988797783,-30900.839674572908,-7457.838351468844,-20717.80958387966,0.0,0.0,0.0,193.0,1.0,155.0,0.0,44.0,3.0,252.0,411.0,44.0,1020.0,1744252831.798312,0.0,2025-04-09 22:40:31.798,BACKWARD,32
128.0,12172.31299547112,1129.4112955822106,-58753.549606031134,-55447.346621435485,-33649.36663500865,-30905.622947886342,-7224.217918421975,-20709.874714598027,0.0,0.0,0.0,193.0,1.0,154.0,0.0,44.0,3.0,249.0,410.0,44.0,1017.0,1744252831.7983208,0.0,2025-04-09 22:40:31.798,BACKWARD,32
129.0,12116.500689566219,1102.1868708356465,-58773.66617604091,-55487.110374821474,-33676.9486876665,-30935.01549184507,-7320.620992257714,-20741.05539811318,0.0,0.0,0.0,193.0,1.0,155.0,0.0,44.0,3.0,251.0,411.0,44.0,1019.0,1744252831.7983298,0.0,2025-04-09 22:40:31.798,BACKWARD,32
130.0,12208.478117999806,1106.6348679822527,-58773.66617604091,-55433.26502242864,-33724.692013823034,-30982.289431368048,-7160.537798468805,-20779.656860787494,0.0,0.0,0.0,193.0,1.0,154.0,0.0,44.0,3.0,250.0,410.0,44.0,1018.0,1744252831.798339,0.0,2025-04-09 22:40:31.798,BACKWARD,32
131.0,12235.590784024094,1123.4880833015543,-58749.97332691829,-55487.31154052157,-33655.51336473386,-30905.958224053174,-7473.797497009933,-20726.750281661785,0.0,0.0,0.0,193.0,1.0,154.0,0.0,44.0,3.0,251.0,410.0,44.0,1019.0,1744252831.798348,0.0,2025-04-09 22:40:31.798,BACKWARD,32
132.0,12190.395556735464,1137.9943654530484,-58736.40581803391,-55428.459397370745,-33640.13536454861,-30897.8445408159,-7244.3791919206615,-20705.560827918154,0.0,0.0,0.0,193.0,1.0,155.0,0.0,44.0,3.0,252.0,411.0,44.0,1020.0,1744252831.7983568,0.0,2025-04-09 22:40:31.798,BACKWARD,32
133.0,12121.373369857476,1106.9254406601717,-58774.49319058576,-55495.291113292114,-33674.445292287506,-30925.56070394048,-7333.652059275158,-20732.941714875906,0.0,0.0,0.0,193.0,1.0,154.0,0.0,44.0,3.0,250.0,410.0,44.0,1018.0,1744252831.7983656,0.0,2025-04-09 22:40:31.798,BACKWARD,32
134.0,12193.36833874802,1107.5959929938308,-58761.462123568315,-55421.23978391168,-33713.98552822894,-30969.95126842872,-7155.709821666458,-20761.5519477787,0.0,0.0,0.0,193.0,1.0,154.0,0.0,44.0,3.0,249.0,410.0,44.0,1017.0,1744252831.7983804,0.0,2025-04-09 22:40:31.798,BACKWARD,32
135.0,12244.464426572851,1127.332583347867,-58752.5661292751,-55485.232828287226,-33663.49293750441,-30912.21671250066,-7431.060961611386,-20722.324636259633,0.0,0.0,0.0,193.0,1.0,155.0,0.0,44.0,3.0,253.0,411.0,44.0,1021.0,1744252831.7983894,0.0,2025-04-09 22:40:31.798,BACKWARD,32
136.0,12198.710405672839,1142.5988248108417,-58721.58661146005,-55415.607144308946,-33631.26172199985,-30888.479159889124,-7264.428706697072,-20692.440353922888,0.0,0.0,0.0,193.0,1.0,155.0,0.0,44.0,3.0,252.0,411.0,44.0,1020.0,1744252831.7983985,0.0,2025-04-09 22:40:31.798,BACKWARD,32
137.0,12130.269364150688,1124.27039435749,-58763.22791138029,-55481.32127300755,-33664.20819332697,-30916.575302669444,-7320.777454468901,-20736.07095909965,0.0,0.0,0.0,193.0,1.0,154.0,0.0,44.0,3.0,250.0,410.0,44.0,1018.0,1744252831.7984073,0.0,2025-04-09 22:40:31.798,BACKWARD,32
138.0,12171.038946037168,1104.3102865589008,-58757.39410607745,-55419.026961210606,-33710.498656093914,-30967.202003860715,-7199.049854165299,-20773.376020595555,0.0,0.0,0.0,193.0,1.0,155.0,0.0,44.0,3.0,253.0,411.0,44.0,1021.0,1744252831.798416,0.0,2025-04-09 22:40:31.798,BACKWARD,32
139.0,12262.748153537292,1139.6260427982859,-58747.335821072564,-55462.25523498717,-33667.717417206455,-30916.93293058073,-7367.26908293594,-20722.346988004087,0.0,0.0,0.0,193.0,1.0,155.0,0.0,44.0,3.0,250.0,411.0,44.0,1018.0,1744252831.7984247,0.0,2025-04-09 22:40:31.798,BACKWARD,32
140.0,12211.741472690283,1141.4588858436211,-58713.651742178416,-55408.49928957216,-33623.08098352921,-30882.73476156411,-7306.964076395521,-20682.270310195723,0.0,0.0,0.0,193.0,1.0,154.0,0.0,45.0,3.0,249.0,410.0,45.0,1017.0,1744252831.7984335,0.0,2025-04-09 22:40:31.798,BACKWARD,32
141.0,12143.814521290604,1125.8126647249062,-58758.39993457794,-55466.23384550022,-33649.88072513112,-30915.144791024304,-7277.079794058775,-20711.77461287673,0.0,0.0,0.0,193.0,1.0,155.0,0.0,44.0,3.0,251.0,411.0,44.0,1019.0,1744252831.7984428,0.0,2025-04-09 22:40:31.798,BACKWARD,32
142.0,12160.555977887629,1105.3384668038448,-58749.97332691829,-55412.4779000852,-33685.75527498189,-30946.303122795,-7215.053703195299,-20718.211915279855,0.0,0.0,0.0,193.0,1.0,155.0,0.0,44.0,3.0,252.0,411.0,44.0,1020.0,1744252831.7984517,0.0,2025-04-09 22:40:31.798,BACKWARD,32
143.0,12253.919214477446,1122.0575716564144,-58761.752696246236,-55443.45741790026,-33689.24214711692,-30944.850259405408,-7293.9777128669875,-20723.57633394913,0.0,0.0,0.0,193.0,1.0,155.0,0.0,44.0,3.0,251.0,411.0,44.0,1019.0,1744252831.7984605,0.0,2025-04-09 22:40:31.798,BACKWARD,32
144.0,12217.910554159947,1134.2616241290123,-58712.13182355545,-55403.648961025356,-33613.9838235359,-30877.906784761763,-7369.12427772573,-20670.625051334508,0.0,0.0,0.0,193.0,1.0,155.0,0.0,44.0,3.0,252.0,411.0,44.0,1020.0,1744252831.7984695,0.0,2025-04-09 22:40:31.798,BACKWARD,32
145.0,12158.521969142195,1134.3510311068335,-58746.88878618345,-55428.23587992619,-33632.11108828915,-30903.879511818828,-7242.971032019977,-20695.74841210227,0.0,0.0,0.0,193.0,1.0,154.0,0.0,44.0,3.0,249.0,410.0,44.0,1017.0,1744252831.7984784,0.0,2025-04-09 22:40:31.798,BACKWARD,32
146.0,12135.074989208579,1098.3870742782444,-58753.39314381995,-55411.69558902927,-33668.90205966259,-30935.84250638992,-7255.9126920596,-20717.76488039075,0.0,0.0,0.0,193.0,1.0,154.0,0.0,44.0,3.0,250.0,410.0,44.0,1018.0,1744252831.7984872,0.0,2025-04-09 22:40:31.798,BACKWARD,32
147.0,12254.925042977935,1126.8631967143056,-58748.85573969552,-55392.20486786424,-33679.80971095678,-30938.614122702376,-7206.47063332446,-20721.363511248055,0.0,0.0,0.0,193.0,1.0,155.0,0.0,44.0,3.0,252.0,411.0,44.0,1020.0,1744252831.7984958,0.0,2025-04-09 22:40:31.798,BACKWARD,32
148.0,12235.076693901623,1142.7999905109396,-58709.13668979844,-55390.7743562191,-33607.56887287723,-30863.020522954528,-7403.992999076009,-20651.246088891756,0.0,0.0,0.0,193.0,1.0,154.0,0.0,44.0,3.0,251.0,410.0,44.0,1019.0,1744252831.7985048,0.0,2025-04-09 22:40:31.798,BACKWARD,32
149.0,12176.760992617727,1149.237292914068,-58736.83050117856,-55391.80253646404,-33623.528018418314,-30889.01560175605,-7210.069264181765,-20666.288812910178,0.0,0.0,0.0,193.0,1.0,155.0,0.0,44.0,3.0,251.0,411.0,44.0,1019.0,1744252831.7985182,0.0,2025-04-09 22:40:31.798,BACKWARD,32
150.0,12128.950611227825,1112.8039494519173,-58757.23764386626,-55416.367103620425,-33662.554164237285,-30926.074794062948,-7288.68034943108,-20707.95246457487,0.0,0.0,0.0,193.0,1.0,154.0,0.0,44.0,3.0,249.0,410.0,44.0,1017.0,1744252831.7985272,0.0,2025-04-09 22:40:31.798,BACKWARD,32
151.0,12232.640353755995,1121.4764263005766,-58761.77504799069,-55380.06787062501,-33703.927243224054,-30960.384721801845,-7169.903179395578,-20734.372226521045,0.0,0.0,0.0,193.0,1.0,155.0,0.0,44.0,3.0,251.0,411.0,44.0,1019.0,1744252831.798536,0.0,2025-04-09 22:40:31.798,BACKWARD,32
152.0,12237.42362706943,1132.5405398059536,-58732.98600113225,-55416.32240013152,-33634.21215226795,-30885.662840087756,-7458.866531713788,-20684.84076080808,0.0,0.0,0.0,193.0,1.0,155.0,0.0,44.0,3.0,250.0,411.0,44.0,1018.0,1744252831.7985451,0.0,2025-04-09 22:40:31.798,BACKWARD,32
153.0,12187.467478211818,1144.945757978649,-58735.601155233526,-55377.698585712744,-33626.79137310879,-30891.16136922376,-7216.461863095983,-20681.353888673057,0.0,0.0,0.0,193.0,1.0,154.0,0.0,44.0,3.0,250.0,410.0,44.0,1018.0,1744252831.7985537,0.0,2025-04-09 22:40:31.798,BACKWARD,32
154.0,12118.847622734025,1104.757321448007,-58769.53110331668,-55431.56628985004,-33656.56389672326,-30927.482953963634,-7305.466509517016,-20719.351854247077,0.0,0.0,0.0,193.0,1.0,155.0,0.0,44.0,3.0,251.0,411.0,44.0,1019.0,1744252831.7985628,0.0,2025-04-09 22:40:31.798,BACKWARD,32
155.0,12224.191394351888,1121.9234611896827,-58756.61179502151,-55359.48191398167,-33695.277118119855,-30957.568402000477,-7130.631164387604,-20732.315866031156,0.0,0.0,0.0,193.0,1.0,154.0,0.0,44.0,3.0,250.0,410.0,44.0,1018.0,1744252831.7985716,0.0,2025-04-09 22:40:31.798,BACKWARD,32
156.0,12253.919214477446,1139.1119526758139,-58739.40095179093,-55417.81996701002,-33633.20632376747,-30885.88635753231,-7433.765522690478,-20676.347097915066,0.0,0.0,0.0,193.0,1.0,154.0,0.0,44.0,3.0,249.0,410.0,44.0,1017.0,1744252831.7985802,0.0,2025-04-09 22:40:31.798,BACKWARD,32
157.0,12196.98932134978,1138.8660834868056,-58733.365980787996,-55369.115515841906,-33624.15386726306,-30888.367401166848,-7222.206261420997,-20670.021554234216,0.0,0.0,0.0,193.0,1.0,155.0,0.0,44.0,3.0,250.0,411.0,44.0,1018.0,1744252831.7985892,0.0,2025-04-09 22:40:31.798,BACKWARD,32
158.0,12130.247012406233,1116.6484494982303,-58770.0228416947,-55434.02498174012,-33651.11007107617,-30914.518942179555,-7303.052521115843,-20702.05160403867,0.0,0.0,0.0,193.0,1.0,155.0,0.0,44.0,3.0,252.0,411.0,44.0,1020.0,1744252831.798598,0.0,2025-04-09 22:40:31.798,BACKWARD,32
159.0,12197.145783560967,1111.462844784599,-58757.14823688844,-55364.511056484116,-33691.007934928886,-30959.714169468185,-7135.325030723218,-20728.337255518112,0.0,0.0,0.0,193.0,1.0,155.0,0.0,44.0,3.0,251.0,411.0,44.0,1019.0,1744252831.7986069,0.0,2025-04-09 22:40:31.798,BACKWARD,32
160.0,12251.572281309638,1128.137246148258,-58755.7177252433,-55436.34956316347,-33655.60277171168,-30914.02720380154,-7399.679112396135,-20704.44324069539,0.0,0.0,0.0,193.0,1.0,155.0,0.0,44.0,3.0,251.0,411.0,44.0,1019.0,1744252831.7986157,0.0,2025-04-09 22:40:31.798,BACKWARD,32
161.0,12197.548114961162,1137.7708480084955,-58728.58270747456,-55375.21754207821,-33628.46775394294,-30892.703639591175,-7276.29748300284,-20684.572539874618,0.0,0.0,0.0,193.0,1.0,155.0,0.0,44.0,3.0,252.0,411.0,44.0,1020.0,1744252831.7986245,0.0,2025-04-09 22:40:31.798,BACKWARD,32
162.0,12133.890346752447,1121.2305571115683,-58764.83723698107,-55434.49436837368,-33647.6902541745,-30910.003889799584,-7288.278018030885,-20698.743545859284,0.0,0.0,0.0,193.0,1.0,154.0,0.0,44.0,3.0,249.0,410.0,44.0,1017.0,1744252831.798633,0.0,2025-04-09 22:40:31.798,BACKWARD,32
163.0,12161.539454643662,1098.9235161451718,-58764.43490558087,-55380.716071214214,-33696.68527802054,-30959.423596790268,-7164.762278170858,-20734.99807536579,0.0,0.0,0.0,193.0,1.0,155.0,0.0,44.0,3.0,250.0,411.0,44.0,1018.0,1744252831.798642,0.0,2025-04-09 22:40:31.798,BACKWARD,32
164.0,12255.305022633675,1132.7417055060514,-58760.52335030119,-55422.60324032346,-33675.22760334344,-30923.50434345059,-7339.9328994671,-20719.083633313614,0.0,0.0,0.0,193.0,1.0,155.0,0.0,44.0,3.0,251.0,411.0,44.0,1019.0,1744252831.7986555,0.0,2025-04-09 22:40:31.798,BACKWARD,32
165.0,12212.568487235128,1141.5929963103529,-58713.56233520059,-55367.4167832633,-33616.88955031509,-30872.475310859125,-7315.122463121708,-20667.2275861773,0.0,0.0,0.0,193.0,1.0,155.0,0.0,45.0,3.0,250.0,411.0,45.0,1018.0,1744252831.7986646,0.0,2025-04-09 22:40:31.798,BACKWARD,32
166.0,12159.103114498033,1140.587167809864,-58743.80424544862,-55407.60521979394,-33630.390003966095,-30892.390715168804,-7244.62506110967,-20686.673603853418,0.0,0.0,0.0,193.0,1.0,154.0,0.0,44.0,3.0,249.0,410.0,44.0,1017.0,1744252831.7986736,0.0,2025-04-09 22:40:31.798,BACKWARD,32
167.0,12159.93012904288,1112.1333971182582,-58746.06177163861,-55375.463411267214,-33676.591059755214,-30935.529581967545,-7206.247115879908,-20724.179831049423,0.0,0.0,0.0,193.0,1.0,155.0,0.0,44.0,3.0,250.0,411.0,44.0,1018.0,1744252831.7986825,0.0,2025-04-09 22:40:31.798,BACKWARD,32
168.0,12262.368173881552,1139.8048567539283,-58750.710934485316,-55395.37881557689,-33679.65324874559,-30928.131154552837,-7253.141075747142,-20717.183735034912,0.0,0.0,0.0,193.0,1.0,155.0,0.0,44.0,3.0,252.0,411.0,44.0,1020.0,1744252831.7986913,0.0,2025-04-09 22:40:31.798,BACKWARD,32
169.0,12231.388656066496,1150.3548801368333,-58703.45934670679,-55371.32833854298,-33606.09365774318,-30861.18767990919,-7354.97562348552,-20653.928298226394,0.0,0.0,0.0,193.0,1.0,154.0,0.0,45.0,3.0,250.0,410.0,45.0,1018.0,1744252831.7987,0.0,2025-04-09 22:40:31.798,BACKWARD,32
170.0,12171.664794881915,1143.4705428445986,-58742.016105892195,-55400.60912377943,-33629.58534116571,-30898.62685187183,-7214.360799117184,-20689.75814458825,0.0,0.0,0.0,193.0,1.0,154.0,0.0,44.0,3.0,250.0,410.0,44.0,1018.0,1744252831.798709,0.0,2025-04-09 22:40:31.798,BACKWARD,32
171.0,12138.628916576972,1105.8749086707721,-58756.05300141013,-55403.60425753645,-33672.053655630785,-30939.865820391875,-7255.756229848413,-20731.555906719674,0.0,0.0,0.0,193.0,1.0,154.0,0.0,44.0,3.0,252.0,410.0,44.0,1020.0,1744252831.7987175,0.0,2025-04-09 22:40:31.798,BACKWARD,32
172.0,12260.580034325129,1138.620214297797,-58748.07342863959,-55377.16214384582,-33685.844681959716,-30944.760852427586,-7191.3161505837625,-20732.114700331058,0.0,0.0,0.0,193.0,1.0,154.0,0.0,44.0,3.0,250.0,410.0,44.0,1018.0,1744252831.7987263,0.0,2025-04-09 22:40:31.798,BACKWARD,32
173.0,12239.99407768179,1146.7115457906182,-58713.04824507812,-55388.829754451486,-33613.38032643561,-30868.921383490728,-7415.817071892867,-20669.70862981184,0.0,0.0,0.0,193.0,1.0,154.0,0.0,44.0,3.0,251.0,410.0,44.0,1019.0,1744252831.7987351,0.0,2025-04-09 22:40:31.798,BACKWARD,32
174.0,12180.449030452852,1147.6726708021965,-58737.03166687866,-55384.404109049334,-33626.00906205286,-30888.68032558922,-7211.3880171046285,-20682.76204857374,0.0,0.0,0.0,193.0,1.0,154.0,0.0,45.0,3.0,250.0,410.0,45.0,1018.0,1744252831.798744,0.0,2025-04-09 22:40:31.798,BACKWARD,32
175.0,12124.435558847852,1109.1606151057024,-58757.684678755366,-55415.025998953104,-33657.301504290284,-30919.63749165982,-7281.952474350032,-20711.215819265344,0.0,0.0,0.0,193.0,1.0,153.0,0.0,44.0,3.0,249.0,409.0,44.0,1017.0,1744252831.7987528,0.0,2025-04-09 22:40:31.798,BACKWARD,32
176.0,12225.733664719304,1117.6319262542638,-58763.406725335924,-55379.84435318045,-33703.2566908904,-30970.89004169584,-7147.238510517897,-20768.033953670736,0.0,0.0,0.0,193.0,1.0,154.0,0.0,44.0,3.0,252.0,410.0,44.0,1020.0,1744252831.7987616,0.0,2025-04-09 22:40:31.798,BACKWARD,32
177.0,12241.491644560296,1137.167350908202,-58728.873280152475,-55418.93755423278,-33623.66212888505,-30887.11570347735,-7447.087162385841,-20706.276083740722,0.0,0.0,0.0,193.0,1.0,155.0,0.0,44.0,3.0,252.0,411.0,44.0,1020.0,1744252831.7987704,0.0,2025-04-09 22:40:31.798,BACKWARD,32
178.0,12191.624902680505,1147.8067812689283,-58725.40875976191,-55371.95418738773,-33615.54844564777,-30878.91261326225,-7207.14118565812,-20660.79028377417,0.0,0.0,0.0,193.0,1.0,154.0,0.0,45.0,3.0,249.0,410.0,45.0,1017.0,1744252831.7987792,0.0,2025-04-09 22:40:31.798,BACKWARD,32
179.0,12126.089587937546,1117.4978157875319,-58755.024821165185,-55424.77135953562,-33644.82923088422,-30908.193398498704,-7291.854297143734,-20691.121601000024,0.0,0.0,0.0,193.0,1.0,155.0,0.0,44.0,3.0,251.0,411.0,44.0,1019.0,1744252831.7987928,0.0,2025-04-09 22:40:31.798,BACKWARD,32
180.0,12215.585972736595,1122.45990305661,-58748.25224259523,-55359.124286070386,-33690.27032736186,-30956.22729733316,-7122.36101893914,-20738.842575412105,0.0,0.0,0.0,193.0,1.0,155.0,0.0,44.0,3.0,252.0,411.0,44.0,1020.0,1744252831.7988014,0.0,2025-04-09 22:40:31.798,BACKWARD,32
181.0,12247.32544986313,1138.754324764529,-58736.9646116453,-55423.564365335034,-33635.30738774627,-30887.316869177448,-7429.362229032783,-20692.082726011602,0.0,0.0,0.0,193.0,1.0,155.0,0.0,45.0,3.0,249.0,411.0,45.0,1017.0,1744252831.7988102,0.0,2025-04-09 22:40:31.798,BACKWARD,32
182.0,12192.183696291888,1143.8728742447943,-58726.95103012932,-55372.133001343376,-33621.47165792843,-30884.20997669816,-7229.872909769168,-20672.636708335485,0.0,0.0,0.0,193.0,1.0,155.0,0.0,44.0,3.0,251.0,411.0,44.0,1019.0,1744252831.798819,0.0,2025-04-09 22:40:31.798,BACKWARD,32
