Sample Index,EXG Channel 0,EXG Channel 1,EXG Channel 2,EXG Channel 3,EXG Channel 4,EXG Channel 5,EXG Channel 6,EXG Channel 7,Accel Channel 0,Accel Channel 1,Accel Channel 2,Not Used,Digital Channel 0 (D11),Digital Channel 1 (D12),Digital Channel 2 (D13),Digital Channel 3 (D17),Not Used,Digital Channel 4 (D18),Analog Channel 0,Analog Channel 1,Analog Channel 2,Timestamp,Marker Channel,Timestamp (Formatted),Stimulus_Direction,Stimulus_Number
205.0,11046.477979001758,428.1700167858621,-55244.526892248025,-51394.46126156584,-31772.24478390751,-29089.43195217037,-759.4899248468787,-19084.165285130177,0.0,0.0,0.0,193.0,1.0,154.0,0.0,10.0,3.0,250.0,410.0,10.0,1018.0,1744252950.7711735,0.0,2025-04-09 22:42:30.771,BACKWARD,47
206.0,11013.486804185726,444.3079762825938,-55202.371502205315,-51346.44971447584,-31715.918387880134,-29033.731404987742,-711.5007295013344,-19029.00117981448,0.0,0.0,0.0,193.0,1.0,154.0,0.0,9.0,3.0,250.0,410.0,9.0,1018.0,1744252950.7711935,0.0,2025-04-09 22:42:30.771,BACKWARD,47
207.0,10955.618137790936,443.1456855709178,-55241.822331168936,-51389.56622953013,-31740.818231203346,-29058.027751210662,-712.4842062573679,-19050.995296358502,0.0,0.0,0.0,193.0,1.0,154.0,0.0,8.0,3.0,250.0,410.0,8.0,1018.0,1744252950.7712135,0.0,2025-04-09 22:42:30.771,BACKWARD,47
208.0,10952.645355778379,412.8814235784321,-55239.296584045485,-51363.95113038435,-31777.452740365596,-29102.507722676724,-712.4395027684573,-19093.463610823586,0.0,0.0,0.0,193.0,1.0,154.0,0.0,7.0,3.0,250.0,410.0,7.0,1018.0,1744252950.771231,0.0,2025-04-09 22:42:30.771,BACKWARD,47
209.0,11044.555728978603,421.8668248494655,-55247.23145332712,-51384.157107371946,-31788.315688170875,-29109.99555706925,-749.8786747310967,-19105.77942201846,0.0,0.0,0.0,193.0,1.0,154.0,0.0,7.0,3.0,251.0,410.0,7.0,1019.0,1744252950.7712483,0.0,2025-04-09 22:42:30.771,BACKWARD,47
210.0,11012.436272196326,427.76768538566654,-55212.47449069912,-51376.870438679514,-31723.1380013392,-29048.975294706263,-747.0176514408173,-19050.123578324747,0.0,0.0,0.0,193.0,1.0,155.0,0.0,7.0,3.0,251.0,411.0,7.0,1019.0,1744252950.7712662,0.0,2025-04-09 22:42:30.771,BACKWARD,47
211.0,10968.470390852737,447.9960141177195,-55229.998258352076,-51377.2280665908,-31725.216713573544,-29051.970428463275,-685.3715402330805,-19037.561897940865,0.0,0.0,0.0,193.0,1.0,155.0,0.0,6.0,3.0,251.0,411.0,6.0,1019.0,1744252950.7713823,0.0,2025-04-09 22:42:30.771,BACKWARD,47
212.0,10935.389809058883,410.109807265974,-55242.80580792497,-51385.07352889461,-31764.689894281615,-29091.24244347125,-720.642592983555,-19070.53072101244,0.0,0.0,0.0,193.0,1.0,155.0,0.0,6.0,3.0,252.0,411.0,6.0,1020.0,1744252950.7713964,0.0,2025-04-09 22:42:30.771,BACKWARD,47
213.0,11036.956135863798,419.98927831521974,-55238.62603171182,-51360.441906504864,-31785.879348025246,-29108.14036227946,-713.3559242911249,-19087.518046798476,0.0,0.0,0.0,193.0,1.0,155.0,0.0,6.0,3.0,252.0,411.0,6.0,1020.0,1744252950.7714055,0.0,2025-04-09 22:42:30.771,BACKWARD,47
214.0,11025.512042702681,427.11948479646264,-55209.859336597845,-51386.235819606285,-31720.478143749016,-29039.386396334936,-770.86696277463,-19042.255764276477,0.0,0.0,0.0,193.0,1.0,155.0,0.0,5.0,3.0,251.0,411.0,5.0,1019.0,1744252950.7714143,0.0,2025-04-09 22:42:30.771,BACKWARD,47
215.0,10986.284731183618,452.37695603095966,-55215.71549364513,-51357.0220896032,-31713.146771567677,-29043.78968999263,-674.7544616168096,-19031.86220310476,0.0,0.0,0.0,193.0,1.0,155.0,0.0,5.0,3.0,252.0,411.0,5.0,1020.0,1744252950.771423,0.0,2025-04-09 22:42:30.771,BACKWARD,47
216.0,10940.083675394497,417.84351084751023,-55236.45791249966,-51390.706168497345,-31741.287617836908,-29072.288164173147,-714.2276423248819,-19054.839796404816,0.0,0.0,0.0,193.0,1.0,155.0,0.0,5.0,3.0,252.0,411.0,5.0,1020.0,1744252950.771432,0.0,2025-04-09 22:42:30.771,BACKWARD,47
217.0,11038.61016495349,429.53347319763583,-55224.09739781587,-51334.0668480476,-31770.836624006824,-29099.95962380882,-672.2063627489046,-19078.689107738628,0.0,0.0,0.0,193.0,1.0,154.0,0.0,5.0,3.0,250.0,410.0,5.0,1018.0,1744252950.7714407,0.0,2025-04-09 22:42:30.771,BACKWARD,47
218.0,11038.498406231214,435.2108162892838,-55216.25193551206,-51395.35533134405,-31720.768716426937,-29040.302817857602,-776.9242855220182,-19035.95257234008,0.0,0.0,0.0,193.0,1.0,154.0,0.0,5.0,3.0,249.0,410.0,5.0,1017.0,1744252950.7714493,0.0,2025-04-09 22:42:30.771,BACKWARD,47
219.0,10984.116611971453,444.77736291615525,-55221.16931929223,-51354.272825035194,-31720.27697804892,-29050.875192984964,-681.3482262311252,-19039.14887179719,0.0,0.0,0.0,193.0,1.0,154.0,0.0,4.0,3.0,250.0,410.0,4.0,1018.0,1744252950.771458,0.0,2025-04-09 22:42:30.771,BACKWARD,47
220.0,10932.886413679887,417.50823468068063,-55246.0915143599,-51405.48067158231,-31745.33328358332,-29071.03646648365,-742.9272822054961,-19065.00984013198,0.0,0.0,0.0,193.0,1.0,154.0,0.0,4.0,3.0,250.0,410.0,4.0,1018.0,1744252950.771467,0.0,2025-04-09 22:42:30.771,BACKWARD,47
221.0,11010.22344949525,416.21183350227284,-55231.048790341476,-51334.849159103534,-31784.96292650258,-29109.10148729104,-680.1859355194492,-19087.83097122085,0.0,0.0,0.0,193.0,1.0,154.0,0.0,4.0,3.0,249.0,410.0,4.0,1017.0,1744252950.7714758,0.0,2025-04-09 22:42:30.771,BACKWARD,47
222.0,11040.264194043184,424.3925719729152,-55229.95355486317,-51410.17453791792,-31743.299274837886,-29060.307629145103,-798.6501811325767,-19067.49088376652,0.0,0.0,0.0,193.0,1.0,154.0,0.0,4.0,3.0,251.0,410.0,4.0,1019.0,1744252950.7714846,0.0,2025-04-09 22:42:30.771,BACKWARD,47
223.0,11000.031054023631,445.6714326943675,-55201.38802544928,-51339.92300509489,-31705.770695897427,-29037.061814911583,-670.1052987701057,-19029.872897848236,0.0,0.0,0.0,193.0,1.0,154.0,0.0,4.0,3.0,251.0,410.0,4.0,1019.0,1744252950.7714932,0.0,2025-04-09 22:42:30.771,BACKWARD,47
224.0,10943.391733573882,431.23220577623914,-55237.329630533415,-51402.64200003648,-31732.212809588054,-29057.625419810465,-725.224700596893,-19052.604621959286,0.0,0.0,0.0,193.0,1.0,154.0,0.0,4.0,3.0,252.0,410.0,4.0,1020.0,1744252950.771502,0.0,2025-04-09 22:42:30.771,BACKWARD,47
225.0,10996.298312699595,423.9231853393537,-55215.9837145786,-51326.31079272161,-31765.114577426266,-29094.99753653974,-671.222885992871,-19084.902892697202,0.0,0.0,0.0,193.0,1.0,155.0,0.0,4.0,3.0,252.0,411.0,4.0,1020.0,1744252950.7715108,0.0,2025-04-09 22:42:30.771,BACKWARD,47
226.0,11047.75202843571,425.44310396231464,-55231.00408685256,-51400.87621222451,-31751.122385397244,-29066.18613793685,-780.0535297457611,-19074.174055358657,0.0,0.0,0.0,193.0,1.0,155.0,0.0,4.0,3.0,252.0,411.0,4.0,1020.0,1744252950.771526,0.0,2025-04-09 22:42:30.771,BACKWARD,47
227.0,10997.684120855823,427.07478130755203,-55205.90307782926,-51349.333089510576,-31715.314890779842,-29038.067643412072,-689.484261212857,-19032.28688624941,0.0,0.0,0.0,193.0,1.0,155.0,0.0,4.0,3.0,252.0,411.0,4.0,1020.0,1744252950.7715354,0.0,2025-04-09 22:42:30.771,BACKWARD,47
228.0,10936.239175348184,419.7881126151219,-55245.06333411495,-51408.252287894764,-31739.27596083593,-29058.94417273333,-715.5240435032897,-19048.33543876832,0.0,0.0,0.0,193.0,1.0,155.0,0.0,4.0,3.0,252.0,411.0,4.0,1020.0,1744252950.771544,0.0,2025-04-09 22:42:30.771,BACKWARD,47
229.0,10958.680326781312,398.755121082678,-55232.70281943117,-51353.98225235728,-31776.29044965392,-29094.461094672813,-687.4949559563346,-19071.469494279565,0.0,0.0,0.0,193.0,1.0,154.0,0.0,4.0,3.0,250.0,410.0,4.0,1018.0,1744252950.7715533,0.0,2025-04-09 22:42:30.771,BACKWARD,47
230.0,11043.616955711479,421.9338800828314,-55240.25770905706,-51397.09876741157,-31771.060141451377,-29085.430989912868,-760.67456730301,-19087.11571539828,0.0,0.0,0.0,193.0,1.0,154.0,0.0,4.0,3.0,251.0,410.0,4.0,1019.0,1744252950.7715616,0.0,2025-04-09 22:42:30.771,BACKWARD,47
231.0,11010.625780895447,440.8658076364765,-55197.45411842515,-51351.143580811455,-31710.285748277398,-29023.941340916317,-718.1615493490159,-19021.490993677497,0.0,0.0,0.0,193.0,1.0,154.0,0.0,3.0,3.0,251.0,410.0,3.0,1019.0,1744252950.7715704,0.0,2025-04-09 22:42:30.771,BACKWARD,47
232.0,10961.228425649218,443.32449952656026,-55231.22760429712,-51385.185287616885,-31728.323606052832,-29042.38153009195,-702.8729561415859,-19020.95455181057,0.0,0.0,0.0,193.0,1.0,154.0,0.0,3.0,3.0,251.0,410.0,3.0,1019.0,1744252950.771594,0.0,2025-04-09 22:42:30.771,BACKWARD,47
233.0,10959.395582603882,417.17295851385103,-55230.065313585445,-51366.454525763336,-31759.41488259016,-29087.733219591766,-690.1324618020609,-19061.455912763588,0.0,0.0,0.0,193.0,1.0,155.0,0.0,3.0,3.0,252.0,411.0,3.0,1020.0,1744252950.7716029,0.0,2025-04-09 22:42:30.771,BACKWARD,47
234.0,11050.456589514803,426.6500981629012,-55239.11777008984,-51378.45741253584,-31777.631554321237,-29096.584510396067,-723.9506511629404,-19082.44420080712,0.0,0.0,0.0,193.0,1.0,155.0,0.0,3.0,3.0,252.0,411.0,3.0,1020.0,1744252950.7716115,0.0,2025-04-09 22:42:30.771,BACKWARD,47
235.0,11015.766682120167,430.3828394869375,-55199.577534148404,-51366.63333971898,-31707.02239358692,-29020.946207159308,-734.7465437348537,-19015.85835407476,0.0,0.0,0.0,193.0,1.0,154.0,0.0,3.0,3.0,250.0,410.0,3.0,1018.0,1744252950.77162,0.0,2025-04-09 22:42:30.771,BACKWARD,47
236.0,10955.126399412919,430.0475633201079,-55227.964249606644,-51371.05898512113,-31724.70262345107,-29038.201753878806,-685.5727059331782,-19028.308275736366,0.0,0.0,0.0,193.0,1.0,154.0,0.0,3.0,3.0,249.0,410.0,3.0,1017.0,1744252950.7716289,0.0,2025-04-09 22:42:30.771,BACKWARD,47
237.0,10914.826204160001,388.69683607778984,-55237.754313678066,-51384.3806248165,-31751.81528947536,-29074.053951985115,-707.8126916662087,-19058.840758662314,0.0,0.0,0.0,193.0,1.0,154.0,0.0,3.0,3.0,249.0,410.0,3.0,1017.0,1744252950.7716374,0.0,2025-04-09 22:42:30.771,BACKWARD,47
238.0,11017.241897254216,406.7570455976779,-55228.72420891812,-51351.18828430036,-31768.53439432793,-29094.505798161725,-680.2753424972705,-19077.839741449327,0.0,0.0,0.0,193.0,1.0,154.0,0.0,3.0,3.0,250.0,410.0,3.0,1018.0,1744252950.771646,0.0,2025-04-09 22:42:30.771,BACKWARD,47
239.0,10999.874591812444,408.1205020094517,-55210.59694416487,-51385.38645331698,-31715.29253903539,-29029.082242141038,-760.026366713806,-19032.10807229377,0.0,0.0,0.0,193.0,1.0,155.0,0.0,3.0,3.0,251.0,411.0,3.0,1019.0,1744252950.7716544,0.0,2025-04-09 22:42:30.771,BACKWARD,47
240.0,10952.645355778379,421.5091969381806,-55223.762121649044,-51360.68777569387,-31720.075812348823,-29039.542858546123,-678.129575029561,-19029.20234551458,0.0,0.0,0.0,193.0,1.0,155.0,0.0,3.0,3.0,252.0,411.0,3.0,1020.0,1744252950.7716627,0.0,2025-04-09 22:42:30.771,BACKWARD,47
241.0,10904.63380868838,388.9427052667982,-55243.610470725354,-51399.17747964591,-31748.663693507162,-29070.030637983164,-730.3432500771582,-19064.20517733159,0.0,0.0,0.0,193.0,1.0,155.0,0.0,3.0,3.0,251.0,411.0,3.0,1019.0,1744252950.7716768,0.0,2025-04-09 22:42:30.771,BACKWARD,47
242.0,10987.22350445074,379.9126005068541,-55238.46956950064,-51349.51190346622,-31786.549900358907,-29109.727336135787,-687.450252467424,-19096.88342772525,0.0,0.0,0.0,193.0,1.0,154.0,0.0,3.0,3.0,250.0,410.0,3.0,1018.0,1744252950.7716856,0.0,2025-04-09 22:42:30.771,BACKWARD,47
243.0,10993.772565576144,380.15846969586255,-55235.92147063273,-51420.81396827865,-31740.75117596998,-29055.479652342758,-795.0962537641828,-19059.891290651714,0.0,0.0,0.0,193.0,1.0,154.0,0.0,3.0,3.0,250.0,410.0,3.0,1018.0,1744252950.7716944,0.0,2025-04-09 22:42:30.771,BACKWARD,47
244.0,10943.749361485168,393.81538555805514,-55231.808749652955,-51370.25432232074,-31730.33526305381,-29054.049140697618,-683.0246070652732,-19043.485110221518,0.0,0.0,0.0,193.0,1.0,155.0,0.0,3.0,3.0,251.0,411.0,3.0,1019.0,1744252950.7717028,0.0,2025-04-09 22:42:30.771,BACKWARD,47
245.0,10878.906950820321,365.4957253331811,-55268.6444245153,-51433.621517851534,-31763.415844847663,-29086.90620504692,-753.4996573328564,-19088.859151465793,0.0,0.0,0.0,193.0,1.0,154.0,0.0,3.0,3.0,251.0,410.0,3.0,1019.0,1744252950.7717113,0.0,2025-04-09 22:42:30.771,BACKWARD,47
246.0,10960.513169826649,375.8222312715329,-55240.12359859033,-51348.95310985483,-31785.94640325861,-29112.409545470426,-676.1402697730387,-19096.190523647132,0.0,0.0,0.0,193.0,1.0,155.0,0.0,3.0,3.0,252.0,411.0,3.0,1020.0,1744252950.7717197,0.0,2025-04-09 22:42:30.771,BACKWARD,47
247.0,10999.472260412247,385.65699883186807,-55243.07402885843,-51423.160901446456,-31753.42461507614,-29056.217259909783,-786.9825705269063,-19042.613392187763,0.0,0.0,0.0,193.0,1.0,155.0,0.0,3.0,3.0,252.0,411.0,3.0,1020.0,1744252950.7717285,0.0,2025-04-09 22:42:30.771,BACKWARD,47
248.0,10959.484989581704,402.2196414732506,-55215.22375526712,-51355.9715576138,-31721.2381030605,-29038.157050389895,-681.8399646091419,-19020.52986866592,0.0,0.0,0.0,193.0,1.0,155.0,0.0,3.0,3.0,252.0,411.0,3.0,1020.0,1744252950.7717376,0.0,2025-04-09 22:42:30.771,BACKWARD,47
249.0,10893.100308549441,381.723091807734,-55261.938901178706,-51429.17352070493,-31756.307990110876,-29073.316344418094,-740.1109624041275,-19065.3004128099,0.0,0.0,0.0,193.0,1.0,154.0,0.0,3.0,3.0,249.0,410.0,3.0,1017.0,1744252950.7717462,0.0,2025-04-09 22:42:30.771,BACKWARD,47
250.0,10947.012716175643,379.8231935290329,-55240.50357824607,-51358.58671171507,-31786.035810236433,-29109.727336135787,-689.7971856352312,-19091.943692200624,0.0,0.0,0.0,193.0,1.0,154.0,0.0,3.0,3.0,249.0,410.0,3.0,1017.0,1744252950.7717552,0.0,2025-04-09 22:42:30.771,BACKWARD,47
251.0,11010.625780895447,393.23424020221717,-55248.170226594244,-51423.54088110219,-31762.700589025095,-29075.32800141907,-777.1030994776606,-19067.848511677803,0.0,0.0,0.0,193.0,1.0,154.0,0.0,3.0,3.0,251.0,410.0,3.0,1019.0,1744252950.7717636,0.0,2025-04-09 22:42:30.771,BACKWARD,47
252.0,10966.79401001859,404.25365021868356,-55218.12948204631,-51370.097860109556,-31719.18174257061,-29042.023902180663,-694.7145694153988,-19031.884554849214,0.0,0.0,0.0,193.0,1.0,155.0,0.0,3.0,3.0,251.0,411.0,3.0,1019.0,1744252950.771772,0.0,2025-04-09 22:42:30.771,BACKWARD,47
253.0,10913.105119836942,408.1875572428176,-55253.959328408164,-51421.48452061231,-31739.72299572504,-29063.03454196865,-722.609546495622,-19056.739694683518,0.0,0.0,0.0,193.0,1.0,155.0,0.0,3.0,3.0,251.0,411.0,3.0,1019.0,1744252950.7717807,0.0,2025-04-09 22:42:30.771,BACKWARD,47
254.0,10931.92528866831,386.7745860546334,-55244.817464925945,-51373.69649096686,-31779.285583410932,-29101.636004642965,-700.1460433180384,-19081.81835196237,0.0,0.0,0.0,193.0,1.0,155.0,0.0,3.0,3.0,252.0,411.0,3.0,1020.0,1744252950.7717893,0.0,2025-04-09 22:42:30.771,BACKWARD,47
255.0,11015.18553676433,395.7152838367562,-55258.519084277046,-51415.181328675906,-31782.884214268237,-29094.818722584096,-761.3451196366692,-19085.416982819675,0.0,0.0,0.0,193.0,1.0,154.0,0.0,3.0,3.0,249.0,410.0,3.0,1017.0,1744252950.771798,0.0,2025-04-09 22:42:30.771,BACKWARD,47
0.0,10981.70262357028,409.34984795449355,-55217.2354122681,-51379.373834058504,-31719.718184437537,-29038.805250979098,-721.6931249729545,-19032.19747927159,0.0,0.0,0.0,193.0,1.0,154.0,0.0,3.0,3.0,250.0,410.0,3.0,1018.0,1744252950.7718108,0.0,2025-04-09 22:42:30.771,BACKWARD,47
1.0,10923.029294375097,411.9873538002198,-55254.49577027509,-51413.19202341939,-31744.86389694976,-29065.627344325465,-710.9866393788624,-19056.49382549451,0.0,0.0,0.0,193.0,1.0,154.0,0.0,2.0,3.0,249.0,410.0,2.0,1017.0,1744252950.771819,0.0,2025-04-09 22:42:30.771,BACKWARD,47
2.0,10909.908820379833,378.2585714171614,-55252.61822374085,-51396.718787755824,-31778.547975843907,-29107.42510645689,-723.3918575515578,-19097.933959714646,0.0,0.0,0.0,193.0,1.0,154.0,0.0,2.0,3.0,249.0,410.0,2.0,1017.0,1744252950.7718277,0.0,2025-04-09 22:42:30.771,BACKWARD,47
3.0,11012.346865218506,395.6035251144797,-55255.94863366469,-51398.46222382334,-31796.652888852703,-29117.550446695146,-748.157590408038,-19112.239076166043,0.0,0.0,0.0,193.0,1.0,155.0,0.0,2.0,3.0,251.0,411.0,2.0,1019.0,1744252950.7718363,0.0,2025-04-09 22:42:30.771,BACKWARD,47
4.0,10990.978597519232,406.0194380306528,-55221.97398209262,-51398.21635463433,-31727.273074063432,-29040.548687046612,-761.6133405701329,-19039.707665408572,0.0,0.0,0.0,193.0,1.0,155.0,0.0,2.0,3.0,251.0,411.0,2.0,1019.0,1744252950.771845,0.0,2025-04-09 22:42:30.771,BACKWARD,47
5.0,10945.40339057486,420.74923762670016,-55237.44138925569,-51390.19207837488,-31729.754117697972,-29053.937381975342,-685.3044849997145,-19042.501633465487,0.0,0.0,0.0,193.0,1.0,155.0,0.0,2.0,3.0,249.0,411.0,2.0,1017.0,1744252950.7718537,0.0,2025-04-09 22:42:30.771,BACKWARD,47
6.0,10908.67947443479,379.71143480675636,-55248.48315101661,-51408.185232661395,-31765.114577426266,-29092.76236209421,-727.0798953866835,-19079.024383905456,0.0,0.0,0.0,193.0,1.0,154.0,0.0,2.0,3.0,252.0,410.0,2.0,1020.0,1744252950.7718623,0.0,2025-04-09 22:42:30.771,BACKWARD,47
7.0,11014.582039664036,402.68902810681203,-55234.98269736561,-51364.75579318473,-31785.208795691586,-29109.123839035496,-693.5969821926335,-19083.137104885234,0.0,0.0,0.0,193.0,1.0,154.0,0.0,2.0,3.0,252.0,410.0,2.0,1020.0,1744252950.7718704,0.0,2025-04-09 22:42:30.771,BACKWARD,47
8.0,10997.035920266619,405.1030165079852,-55219.67175241373,-51408.16288091694,-31730.402318287175,-29044.79551849312,-773.9962069983729,-19031.28105774892,0.0,0.0,0.0,193.0,1.0,155.0,0.0,2.0,3.0,251.0,411.0,2.0,1019.0,1744252950.7718787,0.0,2025-04-09 22:42:30.771,BACKWARD,47
9.0,10952.824169734022,424.9290138398426,-55223.896232115774,-51374.45645027834,-31724.859085662258,-29055.189079664837,-683.1140140430945,-19032.890383349702,0.0,0.0,0.0,193.0,1.0,155.0,0.0,2.0,3.0,252.0,411.0,2.0,1020.0,1744252950.7718875,0.0,2025-04-09 22:42:30.771,BACKWARD,47
10.0,10899.627017930392,385.7687575541446,-55251.56769175145,-51424.01026773576,-31757.738501756015,-29091.555367893623,-745.8777124735967,-19075.291642581422,0.0,0.0,0.0,193.0,1.0,155.0,0.0,2.0,3.0,252.0,411.0,2.0,1020.0,1744252950.771896,0.0,2025-04-09 22:42:30.771,BACKWARD,47
11.0,10994.264303954162,393.45775764677023,-55237.84372065589,-51359.54783672665,-31794.261252195985,-29120.322063007603,-698.3355520171585,-19099.096250426323,0.0,0.0,0.0,193.0,1.0,154.0,0.0,2.0,3.0,250.0,410.0,2.0,1018.0,1744252950.7719047,0.0,2025-04-09 22:42:30.771,BACKWARD,47
12.0,11010.93870531782,399.62683911643495,-55230.95938336365,-51427.00540149277,-31747.3449405843,-29058.541841333135,-808.283782992814,-19060.07010460736,0.0,0.0,0.0,193.0,1.0,154.0,0.0,2.0,3.0,250.0,410.0,2.0,1018.0,1744252950.771913,0.0,2025-04-09 22:42:30.771,BACKWARD,47
13.0,10969.36446063095,420.7939411156108,-55218.97884833561,-51368.22031357531,-31728.56947524184,-29054.65263779791,-694.1557758040161,-19046.05556083388,0.0,0.0,0.0,193.0,1.0,154.0,0.0,2.0,3.0,251.0,410.0,2.0,1019.0,1744252950.7719216,0.0,2025-04-09 22:42:30.771,BACKWARD,47
14.0,10906.511355222627,393.7483303246892,-55254.540473764006,-51429.6876108274,-31757.470280822552,-29083.24051895625,-760.607512069644,-19081.483075795542,0.0,0.0,0.0,193.0,1.0,154.0,0.0,2.0,3.0,251.0,410.0,2.0,1019.0,1744252950.77193,0.0,2025-04-09 22:42:30.771,BACKWARD,47
15.0,10967.241044907696,385.88051627642113,-55242.98462188061,-51360.28544429367,-31797.971641775566,-29122.601940942044,-704.3481712756361,-19104.170096417678,0.0,0.0,0.0,193.0,1.0,155.0,0.0,2.0,3.0,252.0,411.0,2.0,1020.0,1744252950.7719426,0.0,2025-04-09 22:42:30.771,BACKWARD,47
16.0,11006.915391315866,397.1457954818959,-55244.258671314565,-51432.50393062877,-31760.979504702034,-29070.880004272465,-813.8493673621855,-19065.613337232273,0.0,0.0,0.0,193.0,1.0,155.0,0.0,2.0,3.0,252.0,411.0,2.0,1020.0,1744252950.7719512,0.0,2025-04-09 22:42:30.771,BACKWARD,47
17.0,10971.30906239856,413.08258927852984,-55213.32385698842,-51364.576979229096,-31720.522847237928,-29047.254210383206,-693.3287612591698,-19025.626066401728,0.0,0.0,0.0,193.0,1.0,155.0,0.0,2.0,3.0,252.0,411.0,2.0,1020.0,1744252950.7719598,0.0,2025-04-09 22:42:30.771,BACKWARD,47
18.0,10910.087634335476,395.51411813665845,-55255.32278481994,-51433.42035215144,-31745.690911494603,-29076.46794038629,-736.8029042247421,-19061.72413369705,0.0,0.0,0.0,193.0,1.0,154.0,0.0,2.0,3.0,250.0,410.0,2.0,1018.0,1744252950.7719684,0.0,2025-04-09 22:42:30.771,BACKWARD,47
19.0,10952.757114500657,384.89703952038764,-55237.84372065589,-51362.99000537277,-31780.604336333792,-29117.550446695146,-688.1208048010832,-19103.007805706,0.0,0.0,0.0,193.0,1.0,154.0,0.0,2.0,3.0,250.0,410.0,2.0,1018.0,1744252950.7719772,0.0,2025-04-09 22:42:30.771,BACKWARD,47
20.0,11013.576211163547,389.65796108936803,-55252.61822374085,-51427.631250337516,-31772.781225774437,-29089.90133880393,-790.1118147506494,-19089.373241588266,0.0,0.0,0.0,193.0,1.0,154.0,0.0,2.0,3.0,250.0,410.0,2.0,1018.0,1744252950.771986,0.0,2025-04-09 22:42:30.771,BACKWARD,47
21.0,10966.190512918296,401.9290687953316,-55219.090607057886,-51372.78006944419,-31727.027204874423,-29048.103576672507,-720.2402615833595,-19038.791243885906,0.0,0.0,0.0,193.0,1.0,153.0,0.0,2.0,3.0,249.0,409.0,2.0,1017.0,1744252950.7719946,0.0,2025-04-09 22:42:30.771,BACKWARD,47
22.0,10906.77957615609,395.7599873256668,-55257.60266275438,-51422.15507294596,-31744.37215857174,-29071.438797883846,-725.4705697859014,-19047.396665501197,0.0,0.0,0.0,193.0,1.0,154.0,0.0,2.0,3.0,251.0,410.0,2.0,1019.0,1744252950.7720037,0.0,2025-04-09 22:42:30.772,BACKWARD,47
23.0,10922.626962974902,374.0564434595637,-55242.24701431359,-51372.26597932172,-31772.311839140875,-29104.832304100073,-697.352075261125,-19067.848511677803,0.0,0.0,0.0,193.0,1.0,154.0,0.0,2.0,3.0,251.0,410.0,2.0,1019.0,1744252950.7720122,0.0,2025-04-09 22:42:30.772,BACKWARD,47
24.0,11011.586905907025,387.60160059947975,-55254.60752899737,-51403.3349041146,-31779.129121199745,-29103.37944071048,-756.7630120233313,-19074.82225594786,0.0,0.0,0.0,193.0,1.0,154.0,0.0,2.0,3.0,252.0,410.0,2.0,1020.0,1744252950.7720203,0.0,2025-04-09 22:42:30.772,BACKWARD,47
25.0,10978.863952024454,397.57047862654673,-55218.86708961333,-51375.127002612,-31719.76288792645,-29050.27169588467,-741.1167909046163,-19028.33062748082,0.0,0.0,0.0,193.0,1.0,155.0,0.0,2.0,3.0,251.0,411.0,2.0,1019.0,1744252950.7720292,0.0,2025-04-09 22:42:30.772,BACKWARD,47
26.0,10931.567660757026,409.99804854369745,-55245.55507249297,-51388.98508417429,-31728.055385119365,-29067.23666992625,-704.3705230200915,-19036.86899386275,0.0,0.0,0.0,193.0,1.0,155.0,0.0,2.0,3.0,251.0,411.0,2.0,1019.0,1744252950.7720375,0.0,2025-04-09 22:42:30.772,BACKWARD,47
27.0,10913.552154726047,379.42086212883737,-55249.22075858364,-51373.07064212211,-31765.20398440409,-29099.04320228615,-720.0837993721723,-19068.362601800276,0.0,0.0,0.0,193.0,1.0,154.0,0.0,2.0,3.0,251.0,410.0,2.0,1019.0,1744252950.772046,0.0,2025-04-09 22:42:30.772,BACKWARD,47
28.0,11013.41974895236,399.1798042273288,-55252.66292722976,-51363.101764095045,-31786.460493381084,-29107.38040296798,-735.8417792131638,-19077.415058304676,0.0,0.0,0.0,193.0,1.0,155.0,0.0,2.0,3.0,251.0,411.0,2.0,1019.0,1744252950.7720547,0.0,2025-04-09 22:42:30.772,BACKWARD,47
29.0,10986.195324205795,405.0359612746193,-55224.678543171714,-51371.93070315489,-31722.780373427915,-29047.969466205774,-773.7503378093646,-19033.404473472176,0.0,0.0,0.0,193.0,1.0,154.0,0.0,2.0,3.0,249.0,410.0,2.0,1017.0,1744252950.7720633,0.0,2025-04-09 22:42:30.772,BACKWARD,47
30.0,10942.877643451411,421.35273472699345,-55239.67656370122,-51354.78691515767,-31725.887265907204,-29064.241536169236,-694.8710316265859,-19040.71349390906,0.0,0.0,0.0,193.0,1.0,154.0,0.0,2.0,3.0,249.0,410.0,2.0,1017.0,1744252950.7720757,0.0,2025-04-09 22:42:30.772,BACKWARD,47
31.0,10899.58231444148,378.7950132840888,-55260.77661046704,-51377.87626718,-31764.846356492802,-29101.233673242772,-737.5852152806777,-19070.754238456993,0.0,0.0,0.0,193.0,1.0,154.0,0.0,2.0,3.0,251.0,410.0,2.0,1019.0,1744252950.7720845,0.0,2025-04-09 22:42:30.772,BACKWARD,47
32.0,11001.170992990852,393.0554262465747,-55248.41609578325,-51326.78017935517,-31785.34290615832,-29116.879894361486,-701.6659619409993,-19078.39853506071,0.0,0.0,0.0,193.0,1.0,155.0,0.0,2.0,3.0,252.0,411.0,2.0,1020.0,1744252950.772093,0.0,2025-04-09 22:42:30.772,BACKWARD,47
33.0,10995.359539432471,400.6773711058344,-55233.30631653146,-51368.890865908965,-31729.731765953515,-29047.70124527231,-786.4684804044343,-19019.032301787414,0.0,0.0,0.0,193.0,1.0,155.0,0.0,2.0,3.0,251.0,411.0,2.0,1019.0,1744252950.7721016,0.0,2025-04-09 22:42:30.772,BACKWARD,47
34.0,10957.02629769162,424.81725511756605,-55234.91564213224,-51325.10379852102,-31720.969882127036,-29052.484518585745,-679.4259762079688,-19015.031339529913,0.0,0.0,0.0,193.0,1.0,154.0,0.0,2.0,3.0,250.0,410.0,2.0,1018.0,1744252950.7721105,0.0,2025-04-09 22:42:30.772,BACKWARD,47
35.0,10906.489003478171,398.5316036381249,-55257.42384879874,-51366.85685716353,-31744.819193460848,-29075.84209154154,-728.5774622651891,-19032.398644971687,0.0,0.0,0.0,193.0,1.0,154.0,0.0,2.0,3.0,250.0,410.0,2.0,1018.0,1744252950.7721188,0.0,2025-04-09 22:42:30.772,BACKWARD,47
36.0,10988.408146906871,400.45385366128136,-55246.9408806492,-51303.042626743634,-31780.984315989535,-29114.868237360508,-673.6815778829549,-19060.87476740775,0.0,0.0,0.0,193.0,1.0,154.0,0.0,2.0,3.0,250.0,410.0,2.0,1018.0,1744252950.7721276,0.0,2025-04-09 22:42:30.772,BACKWARD,47
37.0,11005.261362226172,405.86297581946565,-55245.84564517089,-51376.84808693506,-31736.102013123276,-29064.867385013986,-789.0836345057053,-19040.020589830947,0.0,0.0,0.0,193.0,1.0,154.0,0.0,2.0,3.0,249.0,410.0,2.0,1017.0,1744252950.772136,0.0,2025-04-09 22:42:30.772,BACKWARD,47
38.0,10967.285748396605,430.31578425357156,-55227.45015948417,-51310.9104407919,-31716.03014660241,-29044.54964930411,-673.256894738304,-18999.832153300304,0.0,0.0,0.0,193.0,1.0,155.0,0.0,2.0,3.0,251.0,411.0,2.0,1019.0,1744252950.7721448,0.0,2025-04-09 22:42:30.772,BACKWARD,47
39.0,10906.891334878366,403.5160426516584,-55262.65415700128,-51375.01524388972,-31743.120460882245,-29068.42131238238,-738.6580990145325,-19033.404473472176,0.0,0.0,0.0,193.0,1.0,155.0,0.0,2.0,3.0,252.0,411.0,2.0,1020.0,1744252950.7721531,0.0,2025-04-09 22:42:30.772,BACKWARD,47
40.0,10973.767754288645,400.6103158724685,-55238.938956134196,-51297.11941446298,-31772.110673440777,-29105.748725622743,-670.1500022590163,-19061.992354630514,0.0,0.0,0.0,193.0,1.0,155.0,0.0,2.0,3.0,252.0,411.0,2.0,1020.0,1744252950.7721617,0.0,2025-04-09 22:42:30.772,BACKWARD,47
41.0,11020.505251944693,406.48882466421423,-55245.4880172596,-51369.98610138728,-31741.57819051483,-29056.55253607661,-773.8620965316411,-19027.77183386944,0.0,0.0,0.0,193.0,1.0,155.0,0.0,2.0,3.0,251.0,411.0,2.0,1019.0,1744252950.7721703,0.0,2025-04-09 22:42:30.772,BACKWARD,47
42.0,10970.750268787178,414.6472113904013,-55226.10905481685,-51314.62083037148,-31712.476219234017,-29042.98502719224,-680.5882669196448,-19009.443403416088,0.0,0.0,0.0,193.0,1.0,155.0,0.0,2.0,3.0,252.0,411.0,2.0,1020.0,1744252950.772179,0.0,2025-04-09 22:42:30.772,BACKWARD,47
43.0,10909.35002676845,402.46551066225896,-55270.27610186054,-51384.1794591164,-31740.840582947803,-29073.5622136071,-734.7018402459431,-19043.95449685508,0.0,0.0,0.0,193.0,1.0,155.0,0.0,2.0,3.0,250.0,411.0,2.0,1018.0,1744252950.7721875,0.0,2025-04-09 22:42:30.772,BACKWARD,47
44.0,10942.899995195867,381.09724296298543,-55257.535607521015,-51324.34383920954,-31779.95613574459,-29117.23752227277,-695.385121749058,-19079.024383905456,0.0,0.0,0.0,193.0,1.0,155.0,0.0,2.0,3.0,252.0,411.0,2.0,1020.0,1744252950.772196,0.0,2025-04-09 22:42:30.772,BACKWARD,47
45.0,11005.663693626368,385.29937092058316,-55273.76297399557,-51390.23678186379,-31775.03875196442,-29100.496065675747,-782.8922012915851,-19071.849473935305,0.0,0.0,0.0,193.0,1.0,154.0,0.0,2.0,3.0,250.0,410.0,2.0,1018.0,1744252950.7722044,0.0,2025-04-09 22:42:30.772,BACKWARD,47
46.0,10970.25853040916,402.68902810681203,-55229.19359555168,-51333.84333060305,-31712.073887833823,-29045.868402226974,-701.1965753074379,-19012.058557517357,0.0,0.0,0.0,193.0,1.0,154.0,0.0,2.0,3.0,250.0,410.0,2.0,1018.0,1744252950.7722175,0.0,2025-04-09 22:42:30.772,BACKWARD,47
47.0,10915.92143963831,403.5160426516584,-55261.245997100596,-51374.79172644517,-31727.22837057452,-29063.347466391024,-701.1071683296167,-19028.285923991913,0.0,0.0,0.0,193.0,1.0,154.0,0.0,2.0,3.0,250.0,410.0,2.0,1018.0,1744252950.772226,0.0,2025-04-09 22:42:30.772,BACKWARD,47
48.0,10929.980686900699,387.691007577301,-55242.9399183917,-51325.32731596557,-31755.123347654742,-29090.884815559963,-681.8399646091419,-19045.452063733588,0.0,0.0,0.0,193.0,1.0,155.0,0.0,2.0,3.0,250.0,411.0,2.0,1018.0,1744252950.772235,0.0,2025-04-09 22:42:30.772,BACKWARD,47
49.0,11023.723903146256,401.41497867285955,-55253.93697666371,-51356.172723313895,-31769.316705383862,-29093.52232140569,-739.351003092647,-19056.694991194607,0.0,0.0,0.0,193.0,1.0,155.0,0.0,2.0,3.0,251.0,411.0,2.0,1019.0,1744252950.7722433,0.0,2025-04-09 22:42:30.772,BACKWARD,47
50.0,10992.319702186549,410.5568421550801,-55216.67661865671,-51335.87733934848,-31707.60353894276,-29035.676006755355,-725.3364593191695,-19007.275284203923,0.0,0.0,0.0,193.0,1.0,154.0,0.0,2.0,3.0,249.0,410.0,2.0,1017.0,1744252950.772252,0.0,2025-04-09 22:42:30.772,BACKWARD,47
51.0,10933.601669502457,410.35567645498236,-55245.711534704154,-51354.74221166876,-31721.081640849312,-29057.31249538809,-687.7855286342536,-19028.62120015874,0.0,0.0,0.0,193.0,1.0,154.0,0.0,2.0,3.0,251.0,410.0,2.0,1019.0,1744252950.7722607,0.0,2025-04-09 22:42:30.772,BACKWARD,47
52.0,10903.650331932347,365.8086497555554,-55258.228511599125,-51358.564359970616,-31762.253554135987,-29104.742897122254,-714.7417324473539,-19076.789209459926,0.0,0.0,0.0,193.0,1.0,154.0,0.0,2.0,3.0,251.0,410.0,2.0,1019.0,1744252950.7722692,0.0,2025-04-09 22:42:30.772,BACKWARD,47
53.0,10997.952341789287,376.1798591828179,-55262.40828781227,-51348.8189993881,-31786.505196869995,-29115.427030971892,-722.900119173541,-19078.018555404968,0.0,0.0,0.0,193.0,1.0,155.0,0.0,2.0,3.0,252.0,411.0,2.0,1020.0,1744252950.7722778,0.0,2025-04-09 22:42:30.772,BACKWARD,47
54.0,10971.197303676285,374.30231264857207,-55237.486092744606,-51367.63916821947,-31726.13313509621,-29048.79648075062,-765.3013784052586,-19016.99829304198,0.0,0.0,0.0,193.0,1.0,155.0,0.0,2.0,3.0,252.0,411.0,2.0,1020.0,1744252950.7722864,0.0,2025-04-09 22:42:30.772,BACKWARD,47
55.0,10915.899087893855,377.36450163894915,-55260.46368604466,-51360.97834837179,-31737.0407863904,-29070.99176299474,-690.1101100576055,-19034.455005461576,0.0,0.0,0.0,193.0,1.0,154.0,0.0,2.0,3.0,249.0,410.0,2.0,1017.0,1744252950.7722948,0.0,2025-04-09 22:42:30.772,BACKWARD,47
56.0,10869.183941982263,345.5803210235025,-55273.22653212864,-51385.118232383524,-31761.583001802326,-29101.211321498315,-732.4890175448678,-19063.936956398127,0.0,0.0,0.0,193.0,1.0,154.0,0.0,2.0,3.0,251.0,410.0,2.0,1019.0,1744252950.772303,0.0,2025-04-09 22:42:30.772,BACKWARD,47
57.0,10957.40627734736,346.2508733571617,-55269.784363482526,-51344.236891774766,-31794.730638829547,-29132.57081896911,-698.2684967837927,-19083.62884326325,0.0,0.0,0.0,193.0,1.0,154.0,0.0,2.0,3.0,250.0,410.0,2.0,1018.0,1744252950.7723117,0.0,2025-04-09 22:42:30.772,BACKWARD,47
58.0,10953.964108701242,342.56283552203604,-55251.29947081798,-51395.5788487886,-31734.157411355667,-29067.571946093078,-793.3081142077583,-19042.47928172103,0.0,0.0,0.0,193.0,1.0,154.0,0.0,2.0,3.0,249.0,410.0,2.0,1017.0,1744252950.7723203,0.0,2025-04-09 22:42:30.772,BACKWARD,47
59.0,10908.25479129014,350.56476003703597,-55253.26642433005,-51354.18341805738,-31729.910579909156,-29072.042294984138,-688.031397823262,-19036.109034551268,0.0,0.0,0.0,193.0,1.0,154.0,0.0,2.0,3.0,249.0,410.0,2.0,1017.0,1744252950.7723289,0.0,2025-04-09 22:42:30.772,BACKWARD,47
60.0,10851.928395262767,321.5074922451368,-55281.2508083881,-51404.09486342608,-31758.61021978977,-29097.545635407645,-750.0574886867391,-19069.524892511952,0.0,0.0,0.0,193.0,1.0,155.0,0.0,2.0,3.0,252.0,411.0,2.0,1020.0,1744252950.7723372,0.0,2025-04-09 22:42:30.772,BACKWARD,47
61.0,10936.172120114818,326.2907655585725,-55256.95446216517,-51326.44490318834,-31781.61016483428,-29123.96539735382,-680.8788395975638,-19082.10892464029,0.0,0.0,0.0,193.0,1.0,155.0,0.0,2.0,3.0,251.0,411.0,2.0,1019.0,1744252950.77235,0.0,2025-04-09 22:42:30.772,BACKWARD,47
62.0,10947.526806298114,320.434608511282,-55259.569616266446,-51403.60312504806,-31746.495574294997,-29070.544728105633,-806.9873818144061,-19049.028342846435,0.0,0.0,0.0,193.0,1.0,155.0,0.0,2.0,3.0,252.0,411.0,2.0,1020.0,1744252950.7723615,0.0,2025-04-09 22:42:30.772,BACKWARD,47
63.0,10898.35296849644,330.62700398290207,-55241.375296279824,-51341.06294406211,-31724.188533328597,-29054.987913964742,-693.2170025368932,-19024.217906501046,0.0,0.0,0.0,193.0,1.0,155.0,0.0,2.0,3.0,250.0,411.0,2.0,1018.0,1744252950.7723703,0.0,2025-04-09 22:42:30.772,BACKWARD,47
64.0,10823.161700148787,295.51241344361466,-55282.480154333134,-51410.82273850712,-31752.53054529793,-29086.57092888009,-749.6998607754542,-19054.23629930452,0.0,0.0,0.0,193.0,1.0,154.0,0.0,2.0,3.0,251.0,410.0,2.0,1019.0,1744252950.7723787,0.0,2025-04-09 22:42:30.772,BACKWARD,47
65.0,10879.331633964972,287.21991625069575,-55258.384973810316,-51332.32341198008,-31776.89394675421,-29122.780754897685,-671.1781825039604,-19076.230415848546,0.0,0.0,0.0,193.0,1.0,155.0,0.0,2.0,3.0,252.0,411.0,2.0,1020.0,1744252950.7723873,0.0,2025-04-09 22:42:30.772,BACKWARD,47
66.0,10918.335428039483,286.0129220501092,-55274.36647109586,-51412.34265713009,-31760.08543492382,-29092.89647256094,-794.1127770081494,-19072.96706115807,0.0,0.0,0.0,193.0,1.0,154.0,0.0,2.0,3.0,250.0,410.0,2.0,1018.0,1744252950.7723956,0.0,2025-04-09 22:42:30.772,BACKWARD,47
67.0,10869.9662530382,292.1596517753186,-55247.7902469385,-51350.24951103324,-31723.987367628502,-29063.794501280132,-696.1674328049937,-19027.503612935976,0.0,0.0,0.0,193.0,1.0,154.0,0.0,2.0,3.0,249.0,410.0,2.0,1017.0,1744252950.7724042,0.0,2025-04-09 22:42:30.772,BACKWARD,47
68.0,10804.118013872865,267.30451194101715,-55293.72308179415,-51418.51173859975,-31753.692836009603,-29093.32115570559,-740.6697560155102,-19054.392761515708,0.0,0.0,0.0,193.0,1.0,154.0,0.0,2.0,3.0,248.0,410.0,2.0,1016.0,1744252950.9355416,0.0,2025-04-09 22:42:30.935,BACKWARD,47
69.0,10844.28409865905,264.6670060952909,-55269.6949565047,-51348.148447054446,-31783.28654566843,-29118.265702517714,-701.6659619409993,-19081.796000217917,0.0,0.0,0.0,193.0,1.0,154.0,0.0,2.0,3.0,251.0,410.0,2.0,1019.0,1744252950.9355807,0.0,2025-04-09 22:42:30.935,BACKWARD,47
70.0,10913.306285537039,270.9254945427769,-55285.564695067966,-51404.40778784845,-31784.560595102383,-29096.04806852914,-787.831936816208,-19065.97096514356,0.0,0.0,0.0,193.0,1.0,155.0,0.0,2.0,3.0,251.0,411.0,2.0,1019.0,1744252950.935593,0.0,2025-04-09 22:42:30.935,BACKWARD,47
71.0,10873.654290873324,282.5260499150813,-55244.258671314565,-51355.189246557864,-31720.969882127036,-29043.387358592438,-711.8136539237087,-19004.70483359156,0.0,0.0,0.0,193.0,1.0,155.0,0.0,2.0,3.0,251.0,411.0,2.0,1019.0,1744252950.935603,0.0,2025-04-09 22:42:30.935,BACKWARD,47
72.0,10817.171432634763,286.19173600575164,-55279.909703720776,-51398.194002889875,-31738.180725357623,-29072.824606040074,-707.9020986440299,-19034.253839761477,0.0,0.0,0.0,193.0,1.0,155.0,0.0,2.0,3.0,251.0,411.0,2.0,1019.0,1744252950.935613,0.0,2025-04-09 22:42:30.935,BACKWARD,47
73.0,10822.267630370574,262.0071485051094,-55273.830029228935,-51364.01818561771,-31774.949344986602,-29115.427030971892,-703.0964735861389,-19075.850436192803,0.0,0.0,0.0,193.0,1.0,155.0,0.0,2.0,3.0,252.0,411.0,2.0,1020.0,1744252950.935622,0.0,2025-04-09 22:42:30.935,BACKWARD,47
74.0,10923.83395717549,283.9118580713103,-55277.18279089723,-51378.323302069104,-31784.404132891195,-29108.922673335397,-745.3412706066694,-19078.10796238279,0.0,0.0,0.0,193.0,1.0,154.0,0.0,2.0,3.0,249.0,410.0,2.0,1017.0,1744252950.9356308,0.0,2025-04-09 22:42:30.935,BACKWARD,47
75.0,10899.358796996929,295.6912273992571,-55234.64742119878,-51358.631415203985,-31717.617120458737,-29042.448585325314,-736.4676280579124,-19017.378272697722,0.0,0.0,0.0,193.0,1.0,154.0,0.0,2.0,3.0,250.0,410.0,2.0,1018.0,1744252950.93564,0.0,2025-04-09 22:42:30.935,BACKWARD,47
76.0,10845.759313793102,304.07313156999726,-55266.23043611413,-51376.13283111249,-31737.264303834952,-29069.538899605144,-695.4298252379687,-19034.678522906128,0.0,0.0,0.0,193.0,1.0,154.0,0.0,2.0,3.0,250.0,410.0,2.0,1018.0,1744252950.935674,0.0,2025-04-09 22:42:30.935,BACKWARD,47
77.0,10826.492110072626,282.10136677043045,-55271.304282105484,-51376.535162512686,-31776.491615354018,-29106.10635353403,-735.4170960685129,-19079.4043635612,0.0,0.0,0.0,193.0,1.0,154.0,0.0,2.0,3.0,251.0,410.0,2.0,1019.0,1744252950.9356833,0.0,2025-04-09 22:42:30.935,BACKWARD,47
78.0,10933.199338102262,306.50947171562575,-55267.191561125706,-51354.80926690213,-31797.52460688646,-29119.584455440578,-728.0186686538063,-19094.49179106853,0.0,0.0,0.0,193.0,1.0,154.0,0.0,2.0,3.0,249.0,410.0,2.0,1017.0,1744252950.935692,0.0,2025-04-09 22:42:30.935,BACKWARD,47
79.0,10917.061378605531,310.3986752508492,-55241.174130579726,-51379.373834058504,-31734.224466589032,-29050.51756507368,-769.5705615962222,-19031.079892048823,0.0,0.0,0.0,193.0,1.0,155.0,0.0,2.0,3.0,251.0,411.0,2.0,1019.0,1744252950.9357011,0.0,2025-04-09 22:42:30.935,BACKWARD,47
80.0,10868.692203604247,322.8933004013658,-55257.60266275438,-51365.13577284048,-31737.37606255723,-29070.723542061278,-684.0751390546726,-19045.04973233339,0.0,0.0,0.0,193.0,1.0,155.0,0.0,2.0,3.0,251.0,411.0,2.0,1019.0,1744252950.93571,0.0,2025-04-09 22:42:30.935,BACKWARD,47
81.0,10835.075179943464,301.2568117686286,-55267.86211345936,-51388.91802894092,-31764.1981559036,-29092.069458016096,-730.4103053105242,-19066.730924455038,0.0,0.0,0.0,193.0,1.0,154.0,0.0,2.0,3.0,251.0,410.0,2.0,1019.0,1744252950.9357188,0.0,2025-04-09 22:42:30.935,BACKWARD,47
82.0,10938.474349793714,319.20526256624015,-55253.42288654124,-51335.609118415014,-31793.59069986233,-29121.551408952644,-691.5406217027452,-19092.63659627874,0.0,0.0,0.0,193.0,1.0,155.0,0.0,2.0,3.0,252.0,411.0,2.0,1020.0,1744252950.935728,0.0,2025-04-09 22:42:30.935,BACKWARD,47
83.0,10944.375210329916,327.14013184787416,-55237.57549972243,-51389.43211906339,-31734.872667178235,-29052.819794752577,-776.4325471440014,-19026.788357113404,0.0,0.0,0.0,193.0,1.0,154.0,0.0,2.0,3.0,250.0,410.0,2.0,1018.0,1744252950.9357371,0.0,2025-04-09 22:42:30.935,BACKWARD,47
84.0,10903.762090654624,347.10023964646336,-55234.669772943234,-51344.996851086245,-31728.502420008474,-29056.3066668876,-668.9206563139745,-19019.233467487513,0.0,0.0,0.0,193.0,1.0,154.0,0.0,2.0,3.0,250.0,410.0,2.0,1018.0,1744252950.935746,0.0,2025-04-09 22:42:30.935,BACKWARD,47
85.0,10843.837063769945,317.4171230098156,-55268.286796604014,-51407.46997683883,-31760.174841901644,-29093.030583027674,-737.7863809807756,-19062.93112789764,0.0,0.0,0.0,193.0,1.0,154.0,0.0,2.0,3.0,249.0,410.0,2.0,1017.0,1744252950.9357548,0.0,2025-04-09 22:42:30.935,BACKWARD,47
86.0,10929.73481771169,329.0847336154859,-55245.510369004056,-51328.63537414496,-31783.599470090805,-29125.5747229546,-662.2821882107482,-19089.932035199647,0.0,0.0,0.0,193.0,1.0,154.0,0.0,2.0,3.0,251.0,410.0,2.0,1019.0,1744252950.9357638,0.0,2025-04-09 22:42:30.935,BACKWARD,47
87.0,10965.631719306914,341.1323238768964,-55245.59977598188,-51401.904392469456,-31745.08741439431,-29070.14239670544,-785.5520588817667,-19058.706648195584,0.0,0.0,0.0,193.0,1.0,154.0,0.0,2.0,3.0,251.0,410.0,2.0,1019.0,1744252950.9357724,0.0,2025-04-09 22:42:30.935,BACKWARD,47
88.0,10926.471463021215,363.17114390982914,-55227.00312459507,-51336.525539937684,-31722.914483894645,-29051.478690085256,-673.4580604384018,-19017.62414188673,0.0,0.0,0.0,193.0,1.0,155.0,0.0,2.0,3.0,252.0,411.0,2.0,1020.0,1744252950.9357815,0.0,2025-04-09 22:42:30.935,BACKWARD,47
89.0,10861.00320351162,338.09248663097463,-55272.19835188369,-51410.37570361802,-31753.938705198612,-29084.380457923467,-732.6007762671443,-19052.045828347902,0.0,0.0,0.0,193.0,1.0,155.0,0.0,2.0,3.0,252.0,411.0,2.0,1020.0,1744252950.9357903,0.0,2025-04-09 22:42:30.935,BACKWARD,47
90.0,10929.623058989413,344.28391984509466,-55241.01766836854,-51324.54500490964,-31778.078589210345,-29109.61557741351,-664.9643975453852,-19063.24405232001,0.0,0.0,0.0,193.0,1.0,154.0,0.0,2.0,3.0,249.0,410.0,2.0,1017.0,1744252950.9357994,0.0,2025-04-09 22:42:30.935,BACKWARD,47
91.0,10987.692891084302,358.43257408530405,-55251.522988262535,-51393.50013655426,-31761.51594656896,-29075.61857409699,-776.7231198219205,-19046.167319556156,0.0,0.0,0.0,193.0,1.0,155.0,0.0,2.0,3.0,250.0,411.0,2.0,1018.0,1744252950.935814,0.0,2025-04-09 22:42:30.935,BACKWARD,47
92.0,10935.434512547794,360.51128631964764,-55235.586194465905,-51348.05904007662,-31736.05730963437,-29065.962620492297,-703.4317497529686,-19036.95840084057,0.0,0.0,0.0,193.0,1.0,155.0,0.0,2.0,3.0,250.0,411.0,2.0,1018.0,1744252950.9358237,0.0,2025-04-09 22:42:30.935,BACKWARD,47
93.0,10884.986625312165,362.4111845983487,-55269.359680337875,-51402.70905526985,-31751.41295807516,-29086.70503934682,-734.5230262903007,-19064.54045349842,0.0,0.0,0.0,193.0,1.0,154.0,0.0,2.0,3.0,249.0,410.0,2.0,1017.0,1744252950.9358325,0.0,2025-04-09 22:42:30.935,BACKWARD,47
94.0,10915.005018115642,351.9282164488097,-55252.014726640555,-51338.67130740539,-31779.039714221923,-29111.515475692213,-683.5386971877452,-19071.268328579466,0.0,0.0,0.0,193.0,1.0,154.0,0.0,2.0,3.0,249.0,410.0,2.0,1017.0,1744252950.935841,0.0,2025-04-09 22:42:30.935,BACKWARD,47
95.0,10995.694815599301,368.75908002365594,-55259.50256103308,-51383.508906782736,-31767.506214082983,-29088.202606225328,-748.4258113415017,-19057.052619105893,0.0,0.0,0.0,193.0,1.0,154.0,0.0,2.0,3.0,250.0,410.0,2.0,1018.0,1744252950.93585,0.0,2025-04-09 22:42:30.935,BACKWARD,47
96.0,10953.651184278868,378.1021092059743,-55223.918583860235,-51342.5158074517,-31710.50926572195,-29035.631303266444,-695.9439153604407,-19001.173257967625,0.0,0.0,0.0,193.0,1.0,154.0,0.0,2.0,3.0,249.0,410.0,2.0,1017.0,1744252950.9358587,0.0,2025-04-09 22:42:30.935,BACKWARD,47
97.0,10893.01090157162,372.11184169195195,-55271.52779955004,-51389.85680220804,-31742.56166727086,-29066.074379214573,-702.2694590412926,-19031.839851360306,0.0,0.0,0.0,193.0,1.0,154.0,0.0,2.0,3.0,251.0,410.0,2.0,1019.0,1744252950.935868,0.0,2025-04-09 22:42:30.935,BACKWARD,47
98.0,10893.659102160824,351.3470710929717,-55265.045793658,-51360.55366522714,-31773.697647297104,-29098.640870885956,-699.2296217953708,-19068.139084355724,0.0,0.0,0.0,193.0,1.0,154.0,0.0,2.0,3.0,251.0,410.0,2.0,1019.0,1744252950.9358768,0.0,2025-04-09 22:42:30.935,BACKWARD,47
99.0,10991.246818452695,365.4733735887258,-55270.65608151628,-51372.198924088356,-31786.43814163663,-29099.311423219613,-729.8738634435969,-19075.559863514885,0.0,0.0,0.0,193.0,1.0,154.0,0.0,2.0,3.0,250.0,410.0,2.0,1018.0,1744252950.9358854,0.0,2025-04-09 22:42:30.935,BACKWARD,47
100.0,10958.345050614484,371.6424550583905,-55239.45304625667,-51368.15325834194,-31727.407184530162,-29041.599219036012,-746.8611892296302,-19025.648418146186,0.0,0.0,0.0,193.0,1.0,155.0,0.0,2.0,3.0,252.0,411.0,2.0,1020.0,1744252950.9358943,0.0,2025-04-09 22:42:30.935,BACKWARD,47
101.0,10899.135279552374,376.5374870941028,-55274.00884318457,-51384.87236319451,-31749.222487118543,-29066.007323981208,-703.0517700972283,-19045.161491055667,0.0,0.0,0.0,193.0,1.0,155.0,0.0,2.0,3.0,252.0,411.0,2.0,1020.0,1744252950.935903,0.0,2025-04-09 22:42:30.935,BACKWARD,47
102.0,10881.142125265853,353.1799141383069,-55269.18086638223,-51381.11727012602,-31768.24382165001,-29085.609803868512,-718.5415290047562,-19065.054543620892,0.0,0.0,0.0,193.0,1.0,154.0,0.0,2.0,3.0,250.0,410.0,2.0,1018.0,1744252950.935912,0.0,2025-04-09 22:42:30.935,BACKWARD,47
103.0,10993.70551034278,381.2313534297173,-55259.435505799716,-51348.148447054446,-31793.43423765114,-29101.61365289851,-715.3228778031919,-19079.985508917038,0.0,0.0,0.0,193.0,1.0,154.0,0.0,2.0,3.0,250.0,410.0,2.0,1018.0,1744252950.9359205,0.0,2025-04-09 22:42:30.935,BACKWARD,47
104.0,10989.615141107457,396.0058565146752,-55226.48903447259,-51369.807287431635,-31725.641396718194,-29029.104593885495,-771.0457767302725,-19016.774775597427,0.0,0.0,0.0,193.0,1.0,154.0,0.0,2.0,3.0,249.0,410.0,2.0,1017.0,1744252950.9359293,0.0,2025-04-09 22:42:30.935,BACKWARD,47
105.0,10939.97191667222,406.19825198629525,-55238.40251426727,-51346.181493542375,-31720.36638502674,-29043.096785914517,-657.1859904749383,-19007.409394670653,0.0,0.0,0.0,193.0,1.0,154.0,0.0,2.0,3.0,250.0,410.0,2.0,1018.0,1744252950.935938,0.0,2025-04-09 22:42:30.935,BACKWARD,47
106.0,10885.34425322345,368.3791003679157,-55264.799924468985,-51386.235819606285,-31758.945495956603,-29082.83818755605,-715.5240435032897,-19059.600717973797,0.0,0.0,0.0,193.0,1.0,154.0,0.0,2.0,3.0,249.0,410.0,2.0,1017.0,1744252950.9359508,0.0,2025-04-09 22:42:30.935,BACKWARD,47
107.0,10980.674443325335,380.49374586269215,-55250.964194651155,-51326.534310166164,-31789.00859224899,-29109.436763457867,-669.5241534142677,-19075.179883859146,0.0,0.0,0.0,193.0,1.0,154.0,0.0,2.0,3.0,249.0,410.0,2.0,1017.0,1744252951.3461435,0.0,2025-04-09 22:42:31.346,BACKWARD,47
108.0,10984.295425927094,377.9456469947871,-55246.7397149491,-51392.06962490912,-31743.65690274917,-29051.501041829713,-783.7415675808868,-19036.064331062356,0.0,0.0,0.0,193.0,1.0,154.0,0.0,2.0,3.0,250.0,410.0,2.0,1018.0,1744252951.3461761,0.0,2025-04-09 22:42:31.346,BACKWARD,47
109.0,10946.319812097528,395.625876858935,-55238.15664507826,-51338.09016204956,-31730.558780498362,-29050.428158095856,-677.7942988627314,-19030.25287750398,0.0,0.0,0.0,193.0,1.0,155.0,0.0,2.0,3.0,251.0,411.0,2.0,1019.0,1744252951.3461964,0.0,2025-04-09 22:42:31.346,BACKWARD,47
110.0,10893.368529482905,372.31300739204977,-55266.61041576987,-51394.64007552148,-31761.38183610223,-29078.770170065185,-741.4520670714459,-19066.842683177314,0.0,0.0,0.0,193.0,1.0,155.0,0.0,2.0,3.0,251.0,411.0,2.0,1019.0,1744252951.3462136,0.0,2025-04-09 22:42:31.346,BACKWARD,47
111.0,10973.41012637736,378.95147549527593,-55248.61726148335,-51323.89680432044,-31795.535301629938,-29121.350243252546,-678.9789413188627,-19102.73958477254,0.0,0.0,0.0,193.0,1.0,155.0,0.0,2.0,3.0,251.0,411.0,2.0,1019.0,1744252951.3462312,0.0,2025-04-09 22:42:31.346,BACKWARD,47
112.0,11004.948437803798,385.1876121983066,-55253.60170049688,-51404.050159937164,-31760.733635513025,-29077.741989820242,-797.1526142540711,-19079.761991472482,0.0,0.0,0.0,193.0,1.0,155.0,0.0,2.0,3.0,252.0,411.0,2.0,1020.0,1744252951.3462489,0.0,2025-04-09 22:42:31.346,BACKWARD,47
113.0,10954.098219167974,398.5092518936696,-55234.26744154304,-51341.33116499557,-31736.03495788991,-29063.861556513497,-687.2490867673263,-19055.77856967194,0.0,0.0,0.0,193.0,1.0,155.0,0.0,2.0,3.0,251.0,411.0,2.0,1019.0,1744252951.3462665,0.0,2025-04-09 22:42:31.346,BACKWARD,47
114.0,10893.368529482905,379.62202782893513,-55272.645386772805,-51410.10748268455,-31761.53829831342,-29090.795408582144,-739.3733548371023,-19077.638575749228,0.0,0.0,0.0,193.0,1.0,155.0,0.0,2.0,3.0,252.0,411.0,2.0,1020.0,1744252951.3462808,0.0,2025-04-09 22:42:31.346,BACKWARD,47
115.0,10951.393658088882,381.2313534297173,-55246.560900993456,-51329.97647881228,-31788.695667826614,-29121.23848453027,-670.9323133149521,-19085.260520608488,0.0,0.0,0.0,193.0,1.0,155.0,0.0,2.0,3.0,251.0,411.0,2.0,1019.0,1744252951.3462896,0.0,2025-04-09 22:42:31.346,BACKWARD,47
116.0,11015.230240253239,395.53646988111376,-55257.379145309824,-51396.875249967015,-31770.47899609554,-29084.626327112477,-770.4646313744345,-19061.43356101913,0.0,0.0,0.0,193.0,1.0,155.0,0.0,2.0,3.0,252.0,411.0,2.0,1020.0,1744252951.3462985,0.0,2025-04-09 22:42:31.346,BACKWARD,47
117.0,10978.752193302178,410.1321590104293,-55218.33064774641,-51333.35159222503,-31719.449963504074,-29042.001550436205,-685.9973890778291,-19021.37923495522,0.0,0.0,0.0,193.0,1.0,155.0,0.0,2.0,3.0,252.0,411.0,2.0,1020.0,1744252951.3463073,0.0,2025-04-09 22:42:31.346,BACKWARD,47
118.0,10913.418044259315,395.335304181016,-55259.480209288624,-51390.32618884161,-31741.242914347997,-29064.688571058345,-714.0711801136947,-19048.469549235055,0.0,0.0,0.0,193.0,1.0,154.0,0.0,2.0,3.0,251.0,410.0,2.0,1019.0,1744252951.3463159,0.0,2025-04-09 22:42:31.346,BACKWARD,47
119.0,10934.875718936411,379.1079377064631,-55245.80094168198,-51336.1679120264,-31776.29044965392,-29099.557292408623,-685.2150780218933,-19081.77364847346,0.0,0.0,0.0,193.0,1.0,154.0,0.0,2.0,3.0,249.0,410.0,2.0,1017.0,1744252951.3463244,0.0,2025-04-09 22:42:31.346,BACKWARD,47
120.0,11016.124310031451,392.3848739129155,-55259.5919680109,-51383.66536899393,-31781.81133053438,-29095.019888284194,-759.9369597359848,-19091.943692200624,0.0,0.0,0.0,193.0,1.0,154.0,0.0,2.0,3.0,250.0,410.0,2.0,1018.0,1744252951.3463333,0.0,2025-04-09 22:42:31.346,BACKWARD,47
121.0,10976.628777578924,400.6103158724685,-55223.695066415676,-51350.853008133534,-31721.729841438515,-29044.12496615946,-713.7135522024098,-19036.95840084057,0.0,0.0,0.0,193.0,1.0,154.0,0.0,2.0,3.0,251.0,410.0,2.0,1019.0,1744252951.3463695,0.0,2025-04-09 22:42:31.346,BACKWARD,47
122.0,10918.40248327285,397.36931292644897,-55259.9942994111,-51386.2805230952,-31740.348844569788,-29062.207527423805,-690.6018484356223,-19039.03711307491,0.0,0.0,0.0,193.0,1.0,154.0,0.0,2.0,3.0,249.0,410.0,2.0,1017.0,1744252951.3463783,0.0,2025-04-09 22:42:31.346,BACKWARD,47
123.0,10911.629904702892,370.79308876908885,-55253.73581096361,-51364.845200162556,-31770.367237373262,-29097.210359240817,-691.2724007692815,-19074.129351869746,0.0,0.0,0.0,193.0,1.0,154.0,0.0,2.0,3.0,249.0,410.0,2.0,1017.0,1744252951.3463871,0.0,2025-04-09 22:42:31.346,BACKWARD,47
124.0,11011.721016373756,386.3722546544379,-55261.313052333964,-51376.64692123496,-31790.86378703878,-29114.24238851576,-730.902043688541,-19105.935884229646,0.0,0.0,0.0,193.0,1.0,154.0,0.0,2.0,3.0,249.0,410.0,2.0,1017.0,1744252951.3463955,0.0,2025-04-09 22:42:31.346,BACKWARD,47
125.0,10984.496591627192,397.25755420417244,-55225.863185627844,-51373.11534561102,-31723.47327750603,-29047.209506894294,-744.804828739742,-19044.647400933194,0.0,0.0,0.0,193.0,1.0,153.0,0.0,2.0,3.0,249.0,409.0,2.0,1017.0,1744252951.3464043,0.0,2025-04-09 22:42:31.346,BACKWARD,47
126.0,10929.287782822585,404.81244383006623,-55253.71345921916,-51376.95984565734,-31733.598617744283,-29064.688571058345,-680.4318047084575,-19039.48414796402,0.0,0.0,0.0,193.0,1.0,154.0,0.0,2.0,3.0,251.0,410.0,2.0,1019.0,1744252951.346413,0.0,2025-04-09 22:42:31.346,BACKWARD,47
127.0,10897.570657440503,374.7940510265888,-55259.07787788843,-51385.09588063906,-31760.66658027966,-29093.790542339153,-709.3996655225355,-19068.58611924483,0.0,0.0,0.0,193.0,1.0,154.0,0.0,2.0,3.0,251.0,410.0,2.0,1019.0,1744252951.3464212,0.0,2025-04-09 22:42:31.346,BACKWARD,47
128.0,11005.41782443736,396.31878093704955,-55247.45497077167,-51345.51094120872,-31780.58198458934,-29109.548522180146,-680.1188802860833,-19075.82808444835,0.0,0.0,0.0,193.0,1.0,154.0,0.0,2.0,3.0,253.0,410.0,2.0,1021.0,1744252951.3464296,0.0,2025-04-09 22:42:31.346,BACKWARD,47
129.0,10997.371196433449,399.0680455050523,-55227.71838041763,-51386.2805230952,-31723.65209146167,-29049.13175691745,-761.0992504476608,-19041.04877007589,0.0,0.0,0.0,193.0,1.0,155.0,0.0,2.0,3.0,252.0,411.0,2.0,1020.0,1744252951.3464384,0.0,2025-04-09 22:42:31.346,BACKWARD,47
130.0,10952.891224967389,415.6530398908901,-55235.89911888828,-51356.41859250291,-31722.17687632762,-29057.647771554923,-662.259836466293,-19037.405435729677,0.0,0.0,0.0,193.0,1.0,155.0,0.0,2.0,3.0,251.0,411.0,2.0,1019.0,1744252951.346447,0.0,2025-04-09 22:42:31.346,BACKWARD,47
131.0,10902.599799942947,383.44417613079264,-55256.99916565409,-51397.61285753404,-31752.977580187035,-29081.5641381221,-714.5629184917115,-19054.415113260166,0.0,0.0,0.0,193.0,1.0,155.0,0.0,2.0,3.0,251.0,411.0,2.0,1019.0,1744252951.3464556,0.0,2025-04-09 22:42:31.346,BACKWARD,47
132.0,10999.204039478784,397.57047862654673,-55240.14595033479,-51332.83750210256,-31780.44787412261,-29112.878932103984,-659.7787928317539,-19081.77364847346,0.0,0.0,0.0,193.0,1.0,155.0,0.0,2.0,3.0,252.0,411.0,2.0,1020.0,1744252951.346464,0.0,2025-04-09 22:42:31.346,BACKWARD,47
133.0,10998.399376678393,393.6365716024127,-55242.38112478032,-51407.93936347239,-31740.32649282533,-29066.007323981208,-776.5666576107333,-19056.11384583877,0.0,0.0,0.0,193.0,1.0,155.0,0.0,2.0,3.0,252.0,411.0,2.0,1020.0,1744252951.3464725,0.0,2025-04-09 22:42:31.346,BACKWARD,47
134.0,10957.294518625084,412.9261270673427,-55230.80292115247,-51352.77525815669,-31722.71331819455,-29061.760492534697,-664.0926795116281,-19037.67365666314,0.0,0.0,0.0,193.0,1.0,154.0,0.0,2.0,3.0,249.0,410.0,2.0,1017.0,1744252951.346481,0.0,2025-04-09 22:42:31.346,BACKWARD,47
135.0,10901.839840631466,389.79207155609987,-55261.804790711976,-51410.75568327376,-31751.681179008625,-29084.581623623566,-727.7504477203427,-19057.9466888841,0.0,0.0,0.0,193.0,1.0,154.0,0.0,2.0,3.0,250.0,410.0,2.0,1018.0,1744252951.3464897,0.0,2025-04-09 22:42:31.346,BACKWARD,47
136.0,10980.160353202862,394.84356580299925,-55237.84372065589,-51328.74713286724,-31783.1524352017,-29113.638891415467,-661.8128015771869,-19080.41019206169,0.0,0.0,0.0,193.0,1.0,154.0,0.0,2.0,3.0,249.0,410.0,2.0,1017.0,1744252951.346503,0.0,2025-04-09 22:42:31.346,BACKWARD,47
137.0,11014.447929197304,397.5481268820914,-55246.22562482663,-51409.61574430654,-31755.168051143653,-29074.456283385312,-785.6191141151327,-19070.374258801254,0.0,0.0,0.0,193.0,1.0,153.0,0.0,2.0,3.0,249.0,409.0,2.0,1017.0,1744252951.3465116,0.0,2025-04-09 22:42:31.346,BACKWARD,47
138.0,10974.818286278045,421.97858357174204,-55214.24027851108,-51337.30785099362,-31718.287672792398,-29050.428158095856,-674.5979994056224,-19032.778624627426,0.0,0.0,0.0,193.0,1.0,154.0,0.0,2.0,3.0,249.0,410.0,2.0,1017.0,1744252951.34652,0.0,2025-04-09 22:42:31.346,BACKWARD,47
139.0,10909.39473025736,406.3547141974824,-55254.45106678618,-51401.79263374718,-31744.729786483025,-29074.344524663036,-721.3131453172142,-19056.15854932768,0.0,0.0,0.0,193.0,1.0,154.0,0.0,2.0,3.0,249.0,410.0,2.0,1017.0,1744252951.3465283,0.0,2025-04-09 22:42:31.346,BACKWARD,47
140.0,10951.55012030007,389.05446398907475,-55239.140121834294,-51334.647993403436,-31783.979449746545,-29117.99748158425,-670.2394092368376,-19095.54232305793,0.0,0.0,0.0,193.0,1.0,154.0,0.0,2.0,3.0,251.0,410.0,2.0,1019.0,1744252951.346537,0.0,2025-04-09 22:42:31.346,BACKWARD,47
141.0,11020.974638578253,401.12440599494056,-55246.18092133772,-51396.74113950028,-31765.963943715567,-29085.967431779794,-761.255712658848,-19072.095343124314,0.0,0.0,0.0,193.0,1.0,154.0,0.0,2.0,3.0,251.0,410.0,2.0,1019.0,1744252951.3465457,0.0,2025-04-09 22:42:31.346,BACKWARD,47
142.0,10987.64818759539,418.51406318116943,-55204.67373188421,-51335.005621314725,-31715.02431810192,-29036.905352700396,-683.4716419543794,-19010.538638894395,0.0,0.0,0.0,193.0,1.0,155.0,0.0,2.0,3.0,251.0,411.0,2.0,1019.0,1744252951.346554,0.0,2025-04-09 22:42:31.346,BACKWARD,47
143.0,10922.090521107975,408.34401945400475,-55250.204235339676,-51392.44960456486,-31747.009664417466,-29072.824606040074,-713.7806074357758,-19051.665848692162,0.0,0.0,0.0,193.0,1.0,155.0,0.0,2.0,3.0,252.0,411.0,2.0,1020.0,1744252951.3465624,0.0,2025-04-09 22:42:31.346,BACKWARD,47
144.0,10931.478253779203,383.17595519732896,-55241.375296279824,-51350.67419417789,-31778.972658988558,-29114.845885616054,-678.0178163072844,-19081.304261839898,0.0,0.0,0.0,193.0,1.0,155.0,0.0,2.0,3.0,252.0,411.0,2.0,1020.0,1744252951.3465707,0.0,2025-04-09 22:42:31.346,BACKWARD,47
145.0,11022.18163277884,401.72790309523384,-55242.47053175814,-51379.61970324752,-31769.987257717523,-29098.774981352686,-720.6872964724656,-19072.78824720243,0.0,0.0,0.0,193.0,1.0,155.0,0.0,2.0,3.0,252.0,411.0,2.0,1020.0,1744252951.3465793,0.0,2025-04-09 22:42:31.346,BACKWARD,47
146.0,10980.540332858604,403.6725048628455,-55210.17226102022,-51355.56922621361,-31715.583111713306,-29047.768300505675,-697.7991101502312,-19025.268438490446,0.0,0.0,0.0,193.0,1.0,155.0,0.0,2.0,3.0,252.0,411.0,2.0,1020.0,1744252951.346588,0.0,2025-04-09 22:42:31.346,BACKWARD,47
147.0,10926.650276976858,407.87463282044325,-55243.9904503811,-51382.681892237895,-31735.1408881117,-29067.683704815354,-681.0800052976615,-19039.52885145293,0.0,0.0,0.0,193.0,1.0,155.0,0.0,2.0,3.0,252.0,411.0,2.0,1020.0,1744252951.3465965,0.0,2025-04-09 22:42:31.346,BACKWARD,47
148.0,10916.055550105042,374.078795204019,-55246.67265971573,-51369.4273077759,-31769.987257717523,-29107.022775056696,-696.5027089718234,-19082.846532207317,0.0,0.0,0.0,193.0,1.0,154.0,0.0,2.0,3.0,249.0,410.0,2.0,1017.0,1744252951.3466048,0.0,2025-04-09 22:42:31.346,BACKWARD,47
149.0,11017.688932143323,393.45775764677023,-55249.08664811691,-51366.18630482988,-31785.119388713767,-29113.214208270816,-712.4618545129126,-19093.55301780141,0.0,0.0,0.0,193.0,1.0,154.0,0.0,2.0,3.0,249.0,410.0,2.0,1017.0,1744252951.3466132,0.0,2025-04-09 22:42:31.346,BACKWARD,47
150.0,10987.715242828757,400.9008885503875,-55218.01772332403,-51373.04829037766,-31720.969882127036,-29046.606009794,-738.1887123809711,-19033.58328742782,0.0,0.0,0.0,193.0,1.0,155.0,0.0,2.0,3.0,249.0,411.0,2.0,1017.0,1744252951.346622,0.0,2025-04-09 22:42:31.346,BACKWARD,47
151.0,10934.898070680865,409.4839584212254,-55247.23145332712,-51375.17170610091,-31740.840582947803,-29075.350353163525,-684.8350983661531,-19059.53366274043,0.0,0.0,0.0,193.0,1.0,154.0,0.0,2.0,3.0,250.0,410.0,2.0,1018.0,1744252951.346635,0.0,2025-04-09 22:42:31.346,BACKWARD,47
152.0,10897.414195229316,372.4918213476922,-55260.2401686001,-51392.516659798224,-31774.01057171948,-29098.439705185858,-721.1119796171165,-19074.352869314298,0.0,0.0,0.0,193.0,1.0,154.0,0.0,2.0,3.0,249.0,410.0,2.0,1017.0,1744252951.3466437,0.0,2025-04-09 22:42:31.346,BACKWARD,47
153.0,11003.339112203015,396.27407744813894,-55245.108037603866,-51347.522598209696,-31789.790903304925,-29115.94112109436,-678.643665152033,-19085.1040583973,0.0,0.0,0.0,193.0,1.0,155.0,0.0,2.0,3.0,252.0,411.0,2.0,1020.0,1744252951.3466525,0.0,2025-04-09 22:42:31.346,BACKWARD,47
154.0,11002.266228469161,407.49465316470304,-55219.582345435905,-51386.2805230952,-31722.914483894645,-29048.237687139237,-751.7115177764318,-19042.00989508747,0.0,0.0,0.0,193.0,1.0,155.0,0.0,2.0,3.0,252.0,411.0,2.0,1020.0,1744252951.346661,0.0,2025-04-09 22:42:31.346,BACKWARD,47
155.0,10953.31590811204,416.56946141355775,-55228.590098451394,-51353.2222930458,-31720.634605960204,-29057.357198877,-649.7652113157764,-19034.47735720603,0.0,0.0,0.0,193.0,1.0,155.0,0.0,2.0,3.0,252.0,411.0,2.0,1020.0,1744252951.3466697,0.0,2025-04-09 22:42:31.346,BACKWARD,47
156.0,10892.988549827165,385.94757150978705,-55258.63084299932,-51401.12208141352,-31754.609257532273,-29082.90524278942,-705.1751858204825,-19052.895194637204,0.0,0.0,0.0,193.0,1.0,154.0,0.0,2.0,3.0,250.0,410.0,2.0,1018.0,1744252951.346678,0.0,2025-04-09 22:42:31.346,BACKWARD,47
157.0,10986.88822828391,396.1399669814071,-55238.84954915638,-51332.189301513354,-31784.33707765783,-29114.6223681715,-643.5961298461116,-19073.59291000282,0.0,0.0,0.0,193.0,1.0,154.0,0.0,2.0,3.0,250.0,410.0,2.0,1018.0,1744252951.3466868,0.0,2025-04-09 22:42:31.346,BACKWARD,47
158.0,11003.070891269552,394.9329727808205,-55234.2897932875,-51401.01032269125,-31742.405205059673,-29059.212393666792,-757.1429916790714,-19039.327685752833,0.0,0.0,0.0,193.0,1.0,155.0,0.0,1.0,3.0,251.0,411.0,1.0,1019.0,1744252951.3466952,0.0,2025-04-09 22:42:31.346,BACKWARD,47
159.0,10957.048649436076,407.9416880538092,-55223.02451408202,-51342.404048729426,-31725.619044973737,-29053.736216275243,-645.4289728914467,-19027.660075147163,0.0,0.0,0.0,193.0,1.0,155.0,0.0,2.0,3.0,250.0,411.0,2.0,1018.0,1744252951.3467035,0.0,2025-04-09 22:42:31.346,BACKWARD,47
160.0,10897.34713999595,388.45096688878147,-55253.78051445252,-51401.055026180155,-31749.267190607454,-29076.28912643065,-703.4988049863344,-19059.734828440527,0.0,0.0,0.0,193.0,1.0,155.0,0.0,2.0,3.0,251.0,411.0,2.0,1019.0,1744252951.346712,0.0,2025-04-09 22:42:31.346,BACKWARD,47
161.0,10971.487876354204,394.57534486953557,-55228.388932751295,-51318.979420540265,-31779.911432255678,-29110.911978591917,-637.2035309318937,-19085.39463107522,0.0,0.0,0.0,193.0,1.0,155.0,0.0,2.0,3.0,252.0,411.0,2.0,1020.0,1744252951.346721,0.0,2025-04-09 22:42:31.346,BACKWARD,47
162.0,11015.453757697793,400.8561850614769,-55236.88259564431,-51399.15512790145,-31752.307027853374,-29072.444626384335,-748.8281427416972,-19056.046790605404,0.0,0.0,0.0,193.0,1.0,154.0,0.0,2.0,3.0,249.0,410.0,2.0,1017.0,1744252951.3467295,0.0,2025-04-09 22:42:31.346,BACKWARD,47
163.0,10966.056402451564,409.34984795449355,-55215.514327945035,-51340.97353708429,-31723.383870528207,-29048.03652143914,-649.6981560824104,-19012.080909261815,0.0,0.0,0.0,193.0,1.0,154.0,0.0,2.0,3.0,249.0,410.0,2.0,1017.0,1744252951.346738,0.0,2025-04-09 22:42:31.346,BACKWARD,47
164.0,10908.858288390433,402.06317926206344,-55248.75137195008,-51399.19983139037,-31741.913466681657,-29067.348428648525,-687.3608454896028,-19032.778624627426,0.0,0.0,0.0,193.0,1.0,154.0,0.0,2.0,3.0,249.0,410.0,2.0,1017.0,1744252951.3467467,0.0,2025-04-09 22:42:31.346,BACKWARD,47
165.0,10948.30911735405,387.89217327739874,-55233.21690955364,-51335.273842248185,-31775.798711275904,-29111.582530925578,-636.9353099984301,-19069.390782045222,0.0,0.0,0.0,193.0,1.0,155.0,0.0,2.0,3.0,252.0,411.0,2.0,1020.0,1744252951.3467553,0.0,2025-04-09 22:42:31.346,BACKWARD,47
166.0,11016.996028065209,397.1681472263512,-55246.136217848805,-51399.95979070185,-31764.980466959536,-29088.60493762552,-734.1430466345605,-19063.378162786743,0.0,0.0,0.0,193.0,1.0,155.0,0.0,2.0,3.0,252.0,411.0,2.0,1020.0,1744252951.346768,0.0,2025-04-09 22:42:31.346,BACKWARD,47
167.0,10973.45482986627,407.785225842622,-55208.85350809735,-51347.81317088761,-31711.023355844423,-29042.202716136304,-664.0479760227175,-19022.653284389173,0.0,0.0,0.0,193.0,1.0,154.0,0.0,2.0,3.0,249.0,410.0,2.0,1017.0,1744252951.3467765,0.0,2025-04-09 22:42:31.346,BACKWARD,47
168.0,10922.314038552528,407.7181706092561,-55242.291717802495,-51391.73434874229,-31727.85421941927,-29061.22405066777,-674.3968337055247,-19046.01085734497,0.0,0.0,0.0,193.0,1.0,154.0,0.0,2.0,3.0,250.0,410.0,2.0,1018.0,1744252951.3467853,0.0,2025-04-09 22:42:31.346,BACKWARD,47
169.0,10924.459806020237,378.37033013943795,-55239.07306660093,-51355.189246557864,-31766.67919953814,-29106.95571982333,-660.158772487494,-19084.455857808098,0.0,0.0,0.0,193.0,1.0,154.0,0.0,2.0,3.0,250.0,410.0,2.0,1018.0,1744252951.3467937,0.0,2025-04-09 22:42:31.346,BACKWARD,47
170.0,11013.553859419091,396.92227803734283,-55244.37043003684,-51381.6760637374,-31767.126234427244,-29097.255062729724,-703.4541014974238,-19073.838779191825,0.0,0.0,0.0,193.0,1.0,154.0,0.0,2.0,3.0,251.0,410.0,2.0,1019.0,1744252951.3468025,0.0,2025-04-09 22:42:31.346,BACKWARD,47
171.0,10979.355690402472,404.52187115214724,-55206.506574929546,-51356.91033088092,-31702.84261737378,-29040.548687046612,-678.0848715406504,-19017.11005176426,0.0,0.0,0.0,193.0,1.0,155.0,0.0,2.0,3.0,252.0,411.0,2.0,1020.0,1744252951.3468115,0.0,2025-04-09 22:42:31.346,BACKWARD,47
172.0,10925.890317665377,408.9028130653874,-55242.090552102396,-51379.30677882514,-31728.547123497385,-29061.08994020104,-659.9129032984857,-19031.593982171296,0.0,0.0,0.0,193.0,1.0,154.0,0.0,2.0,3.0,252.0,410.0,2.0,1020.0,1744252951.3468204,0.0,2025-04-09 22:42:31.346,BACKWARD,47
173.0,10906.06432033352,375.7328242937117,-55248.68431671671,-51373.62943573349,-31767.95324897209,-29097.769152852197,-684.7903948772425,-19071.760066957482,0.0,0.0,0.0,193.0,1.0,154.0,0.0,2.0,3.0,252.0,410.0,2.0,1020.0,1744252951.346829,0.0,2025-04-09 22:42:31.346,BACKWARD,47
174.0,11007.18361224933,390.5520308675803,-55247.7902469385,-51362.56532222812,-31780.17965318914,-29111.24725475875,-670.4629266813906,-19078.91262518318,0.0,0.0,0.0,193.0,1.0,154.0,0.0,2.0,3.0,250.0,410.0,2.0,1018.0,1744252951.3468375,0.0,2025-04-09 22:42:31.346,BACKWARD,47
175.0,10996.141850488408,404.7006851077897,-55211.82629010991,-51369.98610138728,-31712.833847145303,-29037.97823643425,-706.158662576516,-19018.1382320092,0.0,0.0,0.0,193.0,1.0,154.0,0.0,1.0,3.0,251.0,410.0,1.0,1019.0,1744252951.346846,0.0,2025-04-09 22:42:31.346,BACKWARD,47
176.0,10943.369381829427,416.86003409147673,-55234.043924098485,-51359.056098348636,-31726.9377978966,-29054.56323082009,-640.712754811377,-19026.90011583568,0.0,0.0,0.0,193.0,1.0,155.0,0.0,2.0,3.0,252.0,411.0,2.0,1020.0,1744252951.3468544,0.0,2025-04-09 22:42:31.346,BACKWARD,47
177.0,10894.173192283297,380.00200748467535,-55253.26642433005,-51384.67119749441,-31762.32060936935,-29085.14041723495,-691.8758978695748,-19064.29458430941,0.0,0.0,0.0,193.0,1.0,155.0,0.0,2.0,3.0,252.0,411.0,2.0,1020.0,1744252951.3468628,0.0,2025-04-09 22:42:31.346,BACKWARD,47
178.0,11000.835716824022,400.0291705166305,-55236.41320901075,-51331.071714290585,-31785.94640325861,-29103.714716877308,-661.4328219214466,-19073.123523369257,0.0,0.0,0.0,193.0,1.0,154.0,0.0,2.0,3.0,249.0,410.0,2.0,1017.0,1744252951.3468711,0.0,2025-04-09 22:42:31.346,BACKWARD,47
179.0,10998.533487145125,406.84645257549914,-55217.749502390565,-51377.719804968816,-31726.714280452048,-29031.764451475676,-749.3645846086246,-19012.99733078448,0.0,0.0,0.0,193.0,1.0,154.0,0.0,2.0,3.0,249.0,410.0,2.0,1017.0,1744252951.3468795,0.0,2025-04-09 22:42:31.346,BACKWARD,47
180.0,10951.863044722444,421.5091969381806,-55217.6824471572,-51338.04545856064,-31710.71043142205,-29045.17549814886,-622.1831586579274,-19017.0877000198,0.0,0.0,0.0,193.0,1.0,154.0,0.0,2.0,3.0,250.0,410.0,2.0,1018.0,1744252951.3468883,0.0,2025-04-09 22:42:31.346,BACKWARD,47
181.0,10895.894276606356,382.9747894972312,-55245.82329342643,-51392.27079060922,-31740.50530678097,-29073.048123484627,-679.3142174856922,-19042.881613121226,0.0,0.0,0.0,193.0,1.0,154.0,0.0,2.0,3.0,252.0,410.0,2.0,1020.0,1744252951.346902,0.0,2025-04-09 22:42:31.346,BACKWARD,47
182.0,10993.660806853868,400.9679437837534,-55219.80586288046,-51311.89391754793,-31766.075702437844,-29093.052934772128,-616.3940568440029,-19047.419017245655,0.0,0.0,0.0,193.0,1.0,155.0,0.0,2.0,3.0,251.0,411.0,2.0,1019.0,1744252951.3469107,0.0,2025-04-09 22:42:31.346,BACKWARD,47
183.0,10998.689949356312,397.99516177119756,-55233.66394444275,-51400.20565989085,-31734.60444624477,-29058.541841333135,-743.1060961611386,-19039.126520052734,0.0,0.0,0.0,193.0,1.0,155.0,0.0,2.0,3.0,252.0,411.0,2.0,1020.0,1744252951.3469193,0.0,2025-04-09 22:42:31.346,BACKWARD,47
184.0,10955.394620346382,417.88821433642084,-55214.10616804435,-51334.89386259245,-31706.530655208906,-29041.26394286918,-621.7584755132766,-19009.197534227078,0.0,0.0,0.0,193.0,1.0,155.0,0.0,2.0,3.0,251.0,411.0,2.0,1019.0,1744252951.346928,0.0,2025-04-09 22:42:31.346,BACKWARD,47
185.0,10901.146936553352,401.43733041731485,-55245.39861028178,-51392.181383631396,-31731.877533421226,-29057.066626199085,-680.3200459861811,-19030.05171180388,0.0,0.0,0.0,193.0,1.0,155.0,0.0,2.0,3.0,251.0,411.0,2.0,1019.0,1744252951.3469365,0.0,2025-04-09 22:42:31.346,BACKWARD,47
186.0,10972.091373454497,401.012647272664,-55223.94093560469,-51314.84434781603,-31767.774435016447,-29095.288109217658,-626.3405831266145,-19061.902947652692,0.0,0.0,0.0,193.0,1.0,154.0,0.0,2.0,3.0,249.0,410.0,2.0,1017.0,1744252951.3469448,0.0,2025-04-09 22:42:31.346,BACKWARD,47
187.0,11017.42071120986,404.2983537075942,-55240.23535731261,-51400.764453502234,-31752.70935925357,-29068.309553660103,-753.1867329104821,-19063.10994185328,0.0,0.0,0.0,193.0,1.0,154.0,0.0,2.0,3.0,250.0,410.0,2.0,1018.0,1744252951.3469534,0.0,2025-04-09 22:42:31.346,BACKWARD,47
188.0,10980.920312514343,423.9678888282644,-55206.59598190737,-51331.02701080168,-31712.453867489563,-29035.22897186625,-653.9449875289188,-19025.96134256856,0.0,0.0,0.0,193.0,1.0,154.0,0.0,2.0,3.0,251.0,410.0,2.0,1019.0,1744252951.346962,0.0,2025-04-09 22:42:31.346,BACKWARD,47
189.0,10916.368474527417,408.5675368985578,-55247.63378472731,-51392.114328398035,-31740.95234167008,-29058.78771052214,-696.1897845494491,-19046.72611316754,0.0,0.0,0.0,193.0,1.0,154.0,0.0,2.0,3.0,249.0,410.0,2.0,1017.0,1744252951.3469703,0.0,2025-04-09 22:42:31.346,BACKWARD,47
190.0,10950.20901563275,394.48593789171434,-55227.3831042508,-51326.37784795497,-31771.037789706923,-29090.05780101512,-645.8313042916423,-19061.321802296854,0.0,0.0,0.0,193.0,1.0,154.0,0.0,2.0,3.0,250.0,410.0,2.0,1018.0,1744252951.346979,0.0,2025-04-09 22:42:31.346,BACKWARD,47
191.0,11015.520812931158,403.69485660730084,-55243.25284281407,-51386.660502750936,-31765.025170448444,-29074.121007218484,-723.6824302294767,-19050.52590972494,0.0,0.0,0.0,193.0,1.0,154.0,0.0,2.0,3.0,250.0,410.0,2.0,1018.0,1744252951.3469875,0.0,2025-04-09 22:42:31.346,BACKWARD,47
192.0,10963.776524517123,401.39262692840424,-55216.05076981196,-51349.35544125503,-31718.9358733816,-29039.207582379295,-667.4007376910135,-19010.09160400529,0.0,0.0,0.0,193.0,1.0,154.0,0.0,2.0,3.0,249.0,410.0,2.0,1017.0,1744252951.346996,0.0,2025-04-09 22:42:31.346,BACKWARD,47
193.0,10911.361683769428,408.63459213192374,-55243.72222944764,-51385.85583995055,-31727.720108952537,-29055.010265709196,-661.5669323881784,-19022.362711711256,0.0,0.0,0.0,193.0,1.0,154.0,0.0,7.0,3.0,250.0,410.0,7.0,1018.0,1744252951.3470047,0.0,2025-04-09 22:42:31.347,BACKWARD,47
194.0,10913.082768092487,377.5209638501363,-55236.770836922035,-51352.21646454531,-31765.00281870399,-29096.80802784062,-657.968301530874,-19064.96513664307,0.0,0.0,0.0,193.0,1.0,154.0,0.0,17.0,3.0,251.0,410.0,17.0,1019.0,1744252951.3470132,0.0,2025-04-09 22:42:31.347,BACKWARD,47
195.0,11003.473222669749,387.31102792156076,-55249.354869050374,-51378.88209568049,-31781.76662704547,-29097.81385634111,-713.0429998687506,-19074.665793736673,0.0,0.0,0.0,193.0,1.0,154.0,0.0,28.0,3.0,249.0,410.0,28.0,1017.0,1744252951.3470218,0.0,2025-04-09 22:42:31.347,BACKWARD,47
196.0,10972.381946132416,394.53064138062496,-55209.233487753096,-51360.64307220496,-31711.85037038927,-29037.307684100593,-698.0896828281502,-19019.166412254144,0.0,0.0,0.0,193.0,1.0,154.0,0.0,36.0,3.0,251.0,410.0,36.0,1019.0,1744252951.34709,0.0,2025-04-09 22:42:31.347,BACKWARD,47
197.0,10915.58616347148,397.1681472263512,-55241.46470325765,-51378.5244677692,-31732.14575435469,-29060.03940821164,-665.6573016234996,-19041.942839854102,0.0,0.0,0.0,193.0,1.0,154.0,0.0,39.0,3.0,249.0,410.0,39.0,1017.0,1744252951.3470988,0.0,2025-04-09 22:42:31.347,BACKWARD,47
198.0,10893.659102160824,368.6696730458347,-55245.0409823705,-51375.30581656764,-31762.700589025095,-29090.817760326598,-676.5649529176894,-19067.02149713296,0.0,0.0,0.0,193.0,1.0,154.0,0.0,39.0,3.0,251.0,410.0,39.0,1019.0,1744252951.3471076,0.0,2025-04-09 22:42:31.347,BACKWARD,47
199.0,10996.901809799887,382.3936441413932,-55247.611432982856,-51362.811191417124,-31786.1028654698,-29113.325966993092,-668.8759528250639,-19082.734773485037,0.0,0.0,0.0,193.0,1.0,155.0,0.0,38.0,3.0,252.0,411.0,38.0,1020.0,1744252951.3471165,0.0,2025-04-09 22:42:31.347,BACKWARD,47
200.0,10984.98833000521,397.8386995600104,-55211.02162730952,-51375.57403750111,-31710.621024444226,-29036.324207344558,-708.9749823778848,-19009.71162434955,0.0,0.0,0.0,193.0,1.0,155.0,0.0,38.0,3.0,251.0,411.0,38.0,1019.0,1744252951.347125,0.0,2025-04-09 22:42:31.347,BACKWARD,47
201.0,10938.675515493813,416.94944106929796,-55222.46572047064,-51354.96572911331,-31711.00100409997,-29046.360140604993,-621.5349580687235,-19011.09743250578,0.0,0.0,0.0,193.0,1.0,154.0,0.0,38.0,3.0,250.0,410.0,38.0,1018.0,1744252951.3471336,0.0,2025-04-09 22:42:31.347,BACKWARD,47
202.0,10890.529857937081,377.2527429166726,-55246.069162615444,-51390.728520241806,-31750.965923186057,-29078.770170065185,-681.5270401867676,-19043.261592776966,0.0,0.0,0.0,193.0,1.0,154.0,0.0,38.0,3.0,250.0,410.0,38.0,1018.0,1744252951.3471425,0.0,2025-04-09 22:42:31.347,BACKWARD,47
203.0,10989.928065529832,386.59577209899095,-55240.70474394617,-51344.10278130803,-31783.644173579716,-29111.291958247657,-648.7817345597427,-19072.654136735695,0.0,0.0,0.0,193.0,1.0,154.0,0.0,39.0,3.0,250.0,410.0,39.0,1018.0,1744252951.3471513,0.0,2025-04-09 22:42:31.347,BACKWARD,47
204.0,10998.354673189482,399.4033216718819,-55222.510423959546,-51395.28827611069,-31722.065117605343,-29043.767338248177,-737.6075670251331,-19030.834022859817,0.0,0.0,0.0,193.0,1.0,154.0,0.0,39.0,3.0,250.0,410.0,39.0,1018.0,1744252951.3471599,0.0,2025-04-09 22:42:31.347,BACKWARD,47
205.0,10951.125437155419,418.26819399216106,-55218.44240646868,-51346.58382494257,-31711.51509422244,-29046.02486443816,-623.1889871584162,-19020.351054710278,0.0,0.0,0.0,193.0,1.0,154.0,0.0,39.0,3.0,251.0,410.0,39.0,1019.0,1744252951.3471687,0.0,2025-04-09 22:42:31.347,BACKWARD,47
206.0,10882.594988655448,378.593847583991,-55257.75912496557,-51410.9344972294,-31752.977580187035,-29087.040315513652,-700.1683950624937,-19069.63665123423,0.0,0.0,0.0,193.0,1.0,154.0,0.0,39.0,3.0,251.0,410.0,39.0,1019.0,1744252951.3471775,0.0,2025-04-09 22:42:31.347,BACKWARD,47
207.0,10965.7881815181,382.3265889080273,-55238.938956134196,-51338.067810305096,-31786.035810236433,-29118.466868217813,-639.3716501440585,-19082.846532207317,0.0,0.0,0.0,193.0,1.0,155.0,0.0,40.0,3.0,251.0,411.0,40.0,1019.0,1744252951.347186,0.0,2025-04-09 22:42:31.347,BACKWARD,47
208.0,10986.910580028365,380.18082144031786,-55245.46566551515,-51421.0374857232,-31750.943571441603,-29069.762417049697,-759.0205382133172,-19046.770816656448,0.0,0.0,0.0,193.0,1.0,155.0,0.0,40.0,3.0,252.0,411.0,40.0,1020.0,1744252951.3471947,0.0,2025-04-09 22:42:31.347,BACKWARD,47
209.0,10949.292594110084,398.0622170045635,-55218.7329791466,-51351.68002267838,-31717.66182394765,-29044.23672488174,-636.6894408094216,-19012.77381333993,0.0,0.0,0.0,193.0,1.0,154.0,0.0,40.0,3.0,250.0,410.0,40.0,1018.0,1744252951.3472033,0.0,2025-04-09 22:42:31.347,BACKWARD,47
210.0,10891.893314348856,380.3149319070497,-55252.640575485304,-51413.12496818602,-31740.214734103054,-29062.833376268554,-684.7233396438766,-19029.694083892595,0.0,0.0,0.0,193.0,1.0,154.0,0.0,40.0,3.0,250.0,410.0,40.0,1018.0,1744252951.8166146,0.0,2025-04-09 22:42:31.816,BACKWARD,47
211.0,10948.97966968771,375.1069754489631,-55237.21787181114,-51341.979365584775,-31776.558670587383,-29107.29099599016,-624.1054086810838,-19066.239186077022,0.0,0.0,0.0,193.0,1.0,155.0,0.0,41.0,3.0,251.0,411.0,41.0,1019.0,1744252951.81668,0.0,2025-04-09 22:42:31.816,BACKWARD,47
212.0,11000.70160635729,389.2109262002619,-55248.68431671671,-51417.08122695461,-31755.9950656885,-29073.830434540563,-742.189674638471,-19050.324744024845,0.0,0.0,0.0,193.0,1.0,154.0,0.0,41.0,3.0,250.0,410.0,41.0,1018.0,1744252951.8167002,0.0,2025-04-09 22:42:31.816,BACKWARD,47
213.0,10954.388791845893,399.69389434980087,-55220.02938032501,-51358.631415203985,-31718.064155347845,-29045.242553382228,-651.6874613389327,-19017.199458742078,0.0,0.0,0.0,193.0,1.0,154.0,0.0,41.0,3.0,252.0,410.0,41.0,1020.0,1744252951.8167205,0.0,2025-04-09 22:42:31.816,BACKWARD,47
214.0,10897.615360929414,392.3848739129155,-55262.69886049019,-51419.65167756697,-31743.634551004718,-29072.08699847305,-685.192726277438,-19049.00599110198,0.0,0.0,0.0,193.0,1.0,154.0,0.0,41.0,3.0,249.0,410.0,41.0,1017.0,1744252951.8167408,0.0,2025-04-09 22:42:31.816,BACKWARD,47
215.0,10932.104102623953,377.99035048369774,-55241.6882207022,-51354.16106631292,-31773.42942636364,-29103.491199432756,-642.8138187901758,-19068.027325633448,0.0,0.0,0.0,193.0,1.0,154.0,0.0,41.0,3.0,251.0,410.0,41.0,1019.0,1744252951.8167584,0.0,2025-04-09 22:42:31.816,BACKWARD,47
216.0,11014.693798386312,397.30225769308305,-55246.96323239365,-51395.109462155044,-31764.555783814885,-29076.445588641836,-717.0216103817953,-19052.939898126115,0.0,0.0,0.0,193.0,1.0,155.0,0.0,41.0,3.0,252.0,411.0,41.0,1020.0,1744252951.8167727,0.0,2025-04-09 22:42:31.816,BACKWARD,47
217.0,10980.36151890296,408.433426431826,-55210.64164765378,-51354.60810120203,-31710.106934321757,-29033.284370098638,-670.41822319248,-19010.158659238656,0.0,0.0,0.0,193.0,1.0,154.0,0.0,42.0,3.0,249.0,410.0,42.0,1017.0,1744252951.8167818,0.0,2025-04-09 22:42:31.816,BACKWARD,47
218.0,10917.664875705825,402.9348972958204,-55255.568654008945,-51403.22314539232,-31740.75117596998,-29069.65065832742,-680.4094529640023,-19050.19063355811,0.0,0.0,0.0,193.0,1.0,154.0,0.0,42.0,3.0,250.0,410.0,42.0,1018.0,1744252951.8167908,0.0,2025-04-09 22:42:31.816,BACKWARD,47
219.0,10911.406387258337,376.2916179050944,-55253.26642433005,-51379.19502010287,-31784.53824335793,-29115.069403060606,-704.7057991869211,-19119.83866928085,0.0,0.0,0.0,193.0,1.0,154.0,0.0,42.0,3.0,249.0,410.0,42.0,1017.0,1744252951.8167996,0.0,2025-04-09 22:42:31.816,BACKWARD,47
220.0,11005.50723141518,388.13804246640717,-55254.16049410826,-51388.046310907164,-31789.075647482354,-29104.47467618879,-718.3403633046584,-19091.83193347835,0.0,0.0,0.0,193.0,1.0,154.0,0.0,42.0,3.0,251.0,410.0,42.0,1019.0,1744252951.8168085,0.0,2025-04-09 22:42:31.816,BACKWARD,47
221.0,10974.281844411116,397.99516177119756,-55210.64164765378,-51372.400089788454,-31705.346012752776,-29027.048233395606,-672.2063627489046,-18978.530940834396,0.0,0.0,0.0,193.0,1.0,154.0,0.0,42.0,3.0,250.0,410.0,42.0,1018.0,1744252951.816817,0.0,2025-04-09 22:42:31.816,BACKWARD,47
222.0,10915.58616347148,401.9067170508763,-55241.97879338012,-51387.018130662225,-31723.965015884045,-29056.686646543345,-625.2229959038492,-19006.56002838135,0.0,0.0,0.0,193.0,1.0,154.0,0.0,42.0,3.0,249.0,410.0,42.0,1017.0,1744252951.8168259,0.0,2025-04-09 22:42:31.816,BACKWARD,47
223.0,10891.803907371033,369.49668759068106,-55248.25963357206,-51391.71199699784,-31757.939667456114,-29092.002402782728,-662.1480777440164,-19045.04973233339,0.0,0.0,0.0,193.0,1.0,154.0,0.0,42.0,3.0,251.0,410.0,42.0,1019.0,1744252951.8168347,0.0,2025-04-09 22:42:31.816,BACKWARD,47
224.0,11012.235106496228,401.9067170508763,-55230.467644985634,-51348.68488892137,-31769.316705383862,-29098.216187741305,-649.0499554932065,-19055.935031883124,0.0,0.0,0.0,193.0,1.0,154.0,0.0,43.0,3.0,249.0,410.0,43.0,1017.0,1744252951.8168435,0.0,2025-04-09 22:42:31.816,BACKWARD,47
225.0,10991.380928919427,401.10205425048525,-55208.45117669716,-51374.50115376725,-31709.794009899382,-29034.334902088038,-714.8534911696305,-19013.62317962923,0.0,0.0,0.0,193.0,1.0,154.0,0.0,43.0,3.0,251.0,410.0,43.0,1019.0,1744252951.816852,0.0,2025-04-09 22:42:31.816,BACKWARD,47
226.0,10943.727009740713,414.9377840683203,-55222.868051870835,-51349.93658661087,-31713.012661100944,-29049.198812150815,-632.3532023850921,-19020.82044134384,0.0,0.0,0.0,193.0,1.0,154.0,0.0,42.0,3.0,252.0,410.0,42.0,1020.0,1744252951.8168664,0.0,2025-04-09 22:42:31.816,BACKWARD,47
227.0,10904.231477288185,388.71918782224515,-55239.52010149004,-51376.95984565734,-31739.72299572504,-29073.070475229084,-677.5707814181783,-19039.461796219566,0.0,0.0,0.0,193.0,1.0,154.0,0.0,42.0,3.0,251.0,410.0,42.0,1019.0,1744252951.8168747,0.0,2025-04-09 22:42:31.816,BACKWARD,47
228.0,10994.55487663208,394.0836064915188,-55236.92729913322,-51323.56152815361,-31780.17965318914,-29109.99555706925,-643.5290746127456,-19069.189616345124,0.0,0.0,0.0,193.0,1.0,154.0,0.0,43.0,3.0,252.0,410.0,43.0,1020.0,1744252951.8168836,0.0,2025-04-09 22:42:31.816,BACKWARD,47
229.0,10992.945551031298,397.34696118199366,-55225.70672341665,-51381.0278631482,-31721.953358883067,-29044.482594070745,-738.0322501697839,-19010.42688017212,0.0,0.0,0.0,193.0,1.0,155.0,0.0,43.0,3.0,251.0,411.0,43.0,1019.0,1744252951.816892,0.0,2025-04-09 22:42:31.816,BACKWARD,47
230.0,10947.102123153463,415.80950210207726,-55219.64940066927,-51323.7626938537,-31709.57049245483,-29045.868402226974,-632.0849814516284,-19002.134382979202,0.0,0.0,0.0,193.0,1.0,155.0,0.0,43.0,3.0,253.0,411.0,43.0,1021.0,1744252951.8169007,0.0,2025-04-09 22:42:31.816,BACKWARD,47
231.0,10887.065337546508,384.0029697421753,-55252.95349990768,-51378.79268870267,-31738.203077102076,-29070.924707761373,-692.3676362475916,-19023.52500242293,0.0,0.0,0.0,193.0,1.0,154.0,0.0,43.0,3.0,252.0,410.0,43.0,1020.0,1744252951.8169093,0.0,2025-04-09 22:42:31.816,BACKWARD,47
232.0,10963.441248350293,387.3557314104714,-55233.19455780918,-51297.879373774456,-31771.685990296126,-29100.89839707594,-628.0169639607625,-19033.985618828014,0.0,0.0,0.0,193.0,1.0,154.0,0.0,43.0,3.0,249.0,410.0,43.0,1017.0,1744252951.816918,0.0,2025-04-09 22:42:31.816,BACKWARD,47
233.0,11004.188478492319,398.57630712703553,-55233.149854320276,-51364.55462748464,-31736.05730963437,-29050.897544729418,-751.4656485874234,-19013.24319997349,0.0,0.0,0.0,193.0,1.0,154.0,0.0,43.0,3.0,250.0,410.0,43.0,1018.0,1744252951.8169267,0.0,2025-04-09 22:42:31.816,BACKWARD,47
234.0,10966.346975129483,417.6870486363231,-55209.38994996428,-51294.99599873972,-31704.27312901892,-29036.03363466664,-640.2433681778155,-19001.754403323463,0.0,0.0,0.0,193.0,1.0,154.0,0.0,43.0,3.0,250.0,410.0,43.0,1018.0,1744252951.8169353,0.0,2025-04-09 22:42:31.816,BACKWARD,47
235.0,10916.25671580514,410.69095262181196,-55238.581328222914,-51347.03085983168,-31719.22644605952,-29051.478690085256,-687.1820315339603,-19021.446290188585,0.0,0.0,0.0,193.0,1.0,154.0,0.0,43.0,3.0,249.0,410.0,43.0,1017.0,1744252951.816944,0.0,2025-04-09 22:42:31.816,BACKWARD,47
236.0,10960.893149482388,398.7327693382227,-55227.539566461994,-51274.81237349658,-31760.24189713501,-29092.89647256094,-629.0004407167961,-19035.684351406617,0.0,0.0,0.0,193.0,1.0,154.0,0.0,43.0,3.0,250.0,410.0,43.0,1018.0,1744252951.816953,0.0,2025-04-09 22:42:31.816,BACKWARD,47
237.0,11008.36825470546,400.8561850614769,-55250.807732439964,-51354.18341805738,-31755.413920332663,-29071.416446139392,-747.6211485411106,-19028.57649666983,0.0,0.0,0.0,193.0,1.0,154.0,0.0,43.0,3.0,250.0,410.0,43.0,1018.0,1744252951.8169613,0.0,2025-04-09 22:42:31.816,BACKWARD,47
238.0,10970.50439959817,420.2798509931387,-55204.56197316194,-51285.2059346683,-31696.785294626392,-29027.249399095705,-653.2744351952596,-18985.03529847089,0.0,0.0,0.0,193.0,1.0,154.0,0.0,43.0,3.0,249.0,410.0,43.0,1017.0,1744252951.81697,0.0,2025-04-09 22:42:31.816,BACKWARD,47
239.0,10904.007959843631,404.85714731897684,-55238.42486601173,-51343.47693246329,-31721.46162050505,-29048.818832495075,-674.4415371944353,-19003.453135902066,0.0,0.0,0.0,193.0,1.0,154.0,0.0,43.0,3.0,250.0,410.0,43.0,1018.0,1744252951.8169787,0.0,2025-04-09 22:42:31.816,BACKWARD,47
240.0,10927.186718843785,387.4898418772032,-55214.97788607811,-51287.172888180365,-31754.318684854352,-29084.64867885693,-637.6729175654552,-19030.118767037246,0.0,0.0,0.0,193.0,1.0,154.0,0.0,43.0,3.0,249.0,410.0,43.0,1017.0,1744252951.8169873,0.0,2025-04-09 22:42:31.816,BACKWARD,47
241.0,11019.074740299553,406.3770659419377,-55214.66496165573,-51326.467254932795,-31747.456699306575,-29069.09186471604,-702.3141625302032,-19019.166412254144,0.0,0.0,0.0,193.0,1.0,154.0,0.0,43.0,3.0,250.0,410.0,43.0,1018.0,1744252951.8170006,0.0,2025-04-09 22:42:31.817,BACKWARD,47
242.0,10987.13409747292,424.10199929499623,-55166.29578665445,-51283.194277667324,-31688.60455615575,-29012.02786112164,-674.5085924278012,-18975.267586143924,0.0,0.0,0.0,193.0,1.0,154.0,0.0,43.0,3.0,249.0,410.0,43.0,1017.0,1744252951.8170092,0.0,2025-04-09 22:42:31.817,BACKWARD,47
243.0,10925.823262432012,421.73271438273366,-55206.05954004044,-51320.49933916323,-31714.64433844618,-29039.721672501764,-668.5406766582342,-19002.08967949029,0.0,0.0,0.0,193.0,1.0,154.0,0.0,43.0,3.0,251.0,410.0,43.0,1019.0,1744252951.8170176,0.0,2025-04-09 22:42:31.817,BACKWARD,47
244.0,10917.843689661466,395.2458972031948,-55201.70094987166,-51300.114548219986,-31741.533487025918,-29075.573870608077,-660.4716969098683,-19033.51623219445,0.0,0.0,0.0,193.0,1.0,154.0,0.0,43.0,3.0,252.0,410.0,43.0,1020.0,1744252951.8170261,0.0,2025-04-09 22:42:31.817,BACKWARD,47
245.0,11008.770586105657,404.432464174326,-55216.45310121216,-51314.7102373493,-31764.131100670234,-29089.40960042591,-683.4269384654688,-19045.742636411505,0.0,0.0,0.0,193.0,1.0,154.0,0.0,43.0,3.0,251.0,410.0,43.0,1019.0,1744252951.8170345,0.0,2025-04-09 22:42:31.817,BACKWARD,47
246.0,10982.216713692751,408.00874328717515,-55186.01002526403,-51314.82199607158,-31700.60744292825,-29021.303835070594,-700.548374718234,-18980.162618179635,0.0,0.0,0.0,193.0,1.0,154.0,0.0,44.0,3.0,252.0,410.0,44.0,1020.0,1744252951.8170433,0.0,2025-04-09 22:42:31.817,BACKWARD,47
247.0,10932.394675301872,420.6151271599683,-55210.19461276467,-51313.816167571094,-31711.693908178084,-29038.537030045634,-641.9197490119635,-18994.445382886577,0.0,0.0,0.0,193.0,1.0,154.0,0.0,43.0,3.0,252.0,410.0,43.0,1020.0,1744252951.8170521,0.0,2025-04-09 22:42:31.817,BACKWARD,47
248.0,10905.282009277584,395.044731503097,-55216.6319151678,-51321.66162987491,-31743.299274837886,-29071.79642579513,-680.2976942417257,-19035.32672349533,0.0,0.0,0.0,193.0,1.0,155.0,0.0,43.0,3.0,251.0,411.0,43.0,1019.0,1744252951.8170607,0.0,2025-04-09 22:42:31.817,BACKWARD,47
249.0,11016.683103642834,416.658868391379,-55206.864202840836,-51284.06599570108,-31766.790958260415,-29092.85176907203,-663.6232928780666,-19062.953479642092,0.0,0.0,0.0,193.0,1.0,155.0,0.0,44.0,3.0,251.0,411.0,44.0,1019.0,1744252951.8170695,0.0,2025-04-09 22:42:31.817,BACKWARD,47
250.0,11010.6481326399,423.36439172797105,-55179.28215018298,-51314.62083037148,-31702.686155162595,-29023.114326371473,-731.6843547444767,-19007.454098159564,0.0,0.0,0.0,193.0,1.0,155.0,0.0,44.0,3.0,251.0,411.0,44.0,1019.0,1744252951.8170784,0.0,2025-04-09 22:42:31.817,BACKWARD,47
251.0,10952.712411011746,430.0475633201079,-55190.94976078865,-51288.49164110323,-31703.043783073877,-29029.953960174797,-632.8449407631089,-18981.794295524873,0.0,0.0,0.0,193.0,1.0,155.0,0.0,44.0,3.0,250.0,411.0,44.0,1018.0,1744252951.8170872,0.0,2025-04-09 22:42:31.817,BACKWARD,47
252.0,10900.63284643088,390.9767140122311,-55220.36465649184,-51337.62077541599,-31742.673425993136,-29065.5602890921,-697.6649996834993,-19017.46767967554,0.0,0.0,0.0,193.0,1.0,154.0,0.0,43.0,3.0,252.0,410.0,43.0,1020.0,1744252951.8170958,0.0,2025-04-09 22:42:31.817,BACKWARD,47
253.0,11000.500440657192,408.07579852054107,-55200.628066137804,-51270.69965251681,-31765.159280915177,-29093.455266172325,-634.9907082308183,-19041.495804964998,0.0,0.0,0.0,193.0,1.0,154.0,0.0,44.0,3.0,252.0,410.0,44.0,1020.0,1744252951.8171046,0.0,2025-04-09 22:42:31.817,BACKWARD,47
254.0,11006.334245960028,410.66860087735665,-55197.11884225832,-51340.951185339836,-31724.926140895623,-29040.861611468987,-754.3266718777028,-19017.758252353462,0.0,0.0,0.0,193.0,1.0,154.0,0.0,44.0,3.0,252.0,410.0,44.0,1020.0,1744252951.8171134,0.0,2025-04-09 22:42:31.817,BACKWARD,47
255.0,10959.97672795972,425.6666214068677,-55187.753461331544,-51287.44110911383,-31711.73861166699,-29040.03459692414,-649.8546182935976,-19007.454098159564,0.0,0.0,0.0,193.0,1.0,155.0,0.0,44.0,3.0,252.0,411.0,44.0,1020.0,1744252951.817122,0.0,2025-04-09 22:42:31.817,BACKWARD,47
0.0,10904.365587754917,400.81148157256627,-55218.15183379076,-51348.08139182108,-31729.28473106441,-29067.571946093078,-695.5192322157899,-19034.075025805836,0.0,0.0,0.0,193.0,1.0,154.0,0.0,44.0,3.0,251.0,410.0,44.0,1019.0,1744252951.817135,0.0,2025-04-09 22:42:31.817,BACKWARD,47
1.0,10978.305158413072,399.55978388306903,-55200.270438226515,-51274.164172907374,-31765.136929170723,-29105.838132600562,-636.8906065095194,-19067.87086342226,0.0,0.0,0.0,193.0,1.0,155.0,0.0,44.0,3.0,252.0,411.0,44.0,1020.0,1744252951.817144,0.0,2025-04-09 22:42:31.817,BACKWARD,47
2.0,11020.840528111521,412.45674043378125,-55203.69025512818,-51347.3214325096,-31735.85614393427,-29054.630286053456,-767.9165325065294,-19038.970057841547,0.0,0.0,0.0,193.0,1.0,154.0,0.0,44.0,3.0,251.0,410.0,44.0,1019.0,1744252951.8171525,0.0,2025-04-09 22:42:31.817,BACKWARD,47
3.0,10979.981539247221,430.31578425357156,-55173.18012394669,-51275.61703629697,-31698.37226848272,-29025.21539035027,-645.3172141691703,-18991.62906308521,0.0,0.0,0.0,193.0,1.0,155.0,0.0,44.0,3.0,252.0,411.0,44.0,1020.0,1744252951.8171613,0.0,2025-04-09 22:42:31.817,BACKWARD,47
4.0,10918.8271664175,411.8532433334879,-55212.89917384377,-51343.34282199655,-31724.412050773153,-29048.93059121735,-696.2344880383597,-19015.947761052583,0.0,0.0,0.0,193.0,1.0,155.0,0.0,44.0,3.0,252.0,411.0,44.0,1020.0,1744252951.81717,0.0,2025-04-09 22:42:31.817,BACKWARD,47
5.0,10965.385850117904,401.41497867285955,-55194.88366781279,-51277.606341553495,-31757.403225589187,-29096.025716784683,-647.708850825888,-19054.30335453789,0.0,0.0,0.0,193.0,1.0,154.0,0.0,44.0,3.0,249.0,410.0,44.0,1017.0,1744252951.8171785,0.0,2025-04-09 22:42:31.817,BACKWARD,47
6.0,11021.935763589832,402.75608334017795,-55212.653304654756,-51348.573130199096,-31750.98827493051,-29073.18223395136,-755.8689422451189,-19042.72515091004,0.0,0.0,0.0,193.0,1.0,154.0,0.0,44.0,3.0,251.0,410.0,44.0,1019.0,1744252951.8171873,0.0,2025-04-09 22:42:31.817,BACKWARD,47
7.0,10985.636530594413,420.9056998378873,-55172.84484777986,-51285.2059346683,-31696.025335314913,-29016.721727457254,-674.9779790613627,-18983.716545548028,0.0,0.0,0.0,193.0,1.0,154.0,0.0,44.0,3.0,249.0,410.0,44.0,1017.0,1744252951.8171957,0.0,2025-04-09 22:42:31.817,BACKWARD,47
8.0,10920.01180887363,409.39455144340417,-55223.04686582647,-51345.555644697626,-31727.116611852245,-29054.116195930983,-696.5921159496446,-19023.703816378573,0.0,0.0,0.0,193.0,1.0,154.0,0.0,44.0,3.0,249.0,410.0,44.0,1017.0,1744252951.817204,0.0,2025-04-09 22:42:31.817,BACKWARD,47
9.0,10935.814492203534,390.1944029562954,-55212.20626976565,-51296.5606208516,-31762.208850647075,-29088.09084750305,-678.5766099186671,-19050.1459300692,0.0,0.0,0.0,193.0,1.0,154.0,0.0,44.0,3.0,252.0,410.0,44.0,1020.0,1744252951.8172128,0.0,2025-04-09 22:42:31.817,BACKWARD,47
10.0,11017.353655976494,401.79495832859976,-55226.712551917146,-51335.899691092935,-31768.66850479466,-29083.575795123077,-742.7261165053984,-19052.179938814636,0.0,0.0,0.0,193.0,1.0,154.0,0.0,44.0,3.0,250.0,410.0,44.0,1018.0,1744252951.8172216,0.0,2025-04-09 22:42:31.817,BACKWARD,47
11.0,10984.876571282932,414.06606603456333,-55184.49010664107,-51308.13882447944,-31699.713373150036,-29032.591466020524,-699.095511328639,-19006.448269659075,0.0,0.0,0.0,193.0,1.0,154.0,0.0,44.0,3.0,249.0,410.0,44.0,1017.0,1744252951.81723,0.0,2025-04-09 22:42:31.817,BACKWARD,47
12.0,10933.601669502457,421.2633277491722,-55213.99440932208,-51333.75392362523,-31717.8853413922,-29056.88781224344,-678.062519796195,-19029.515269936954,0.0,0.0,0.0,193.0,1.0,154.0,0.0,44.0,3.0,250.0,410.0,44.0,1018.0,1744252951.8172383,0.0,2025-04-09 22:42:31.817,BACKWARD,47
13.0,10913.753320426145,386.86399303245463,-55216.76602563453,-51322.82392058658,-31751.48001330853,-29093.164693494404,-688.6125431790999,-19054.281002793432,0.0,0.0,0.0,193.0,1.0,154.0,0.0,44.0,3.0,250.0,410.0,44.0,1018.0,1744252951.8172472,0.0,2025-04-09 22:42:31.817,BACKWARD,47
14.0,11014.291466986117,401.12440599494056,-55217.905964601756,-51319.09117926254,-31767.886193738723,-29096.696269118343,-699.6990084289323,-19049.989467858013,0.0,0.0,0.0,193.0,1.0,153.0,0.0,44.0,3.0,250.0,409.0,44.0,1018.0,1744252951.8172557,0.0,2025-04-09 22:42:31.817,BACKWARD,47
15.0,10999.829888323533,411.62972588893484,-55177.38225190428,-51315.269030960684,-31700.071001061322,-29020.521524014657,-731.0585058997281,-18991.47260087402,0.0,0.0,0.0,193.0,1.0,154.0,0.0,44.0,3.0,250.0,410.0,44.0,1018.0,1744252951.8172693,0.0,2025-04-09 22:42:31.817,BACKWARD,47
16.0,10960.22259714873,434.6296709334458,-55185.07125199691,-51296.71708306278,-31696.092390548278,-29023.22608509375,-651.4862956388349,-18984.2306356705,0.0,0.0,0.0,193.0,1.0,154.0,0.0,44.0,3.0,249.0,410.0,44.0,1017.0,1744252951.8172781,0.0,2025-04-09 22:42:31.817,BACKWARD,47
17.0,10912.903954136844,392.7425018242004,-55210.86516509833,-51325.68494387686,-31740.95234167008,-29066.968448992786,-698.1567380615161,-19025.00021755698,0.0,0.0,0.0,193.0,1.0,153.0,0.0,44.0,3.0,249.0,409.0,44.0,1017.0,1744252951.8172867,0.0,2025-04-09 22:42:31.817,BACKWARD,47
18.0,11011.430443695837,406.4664729197589,-55204.09258652837,-51288.17871668086,-31769.71903678406,-29091.28714696016,-671.7146243708878,-19046.39083700071,0.0,0.0,0.0,193.0,1.0,153.0,0.0,44.0,3.0,249.0,409.0,44.0,1017.0,1744252951.8172956,0.0,2025-04-09 22:42:31.817,BACKWARD,47
19.0,11007.518888416158,414.15547301238456,-55176.711699570624,-51324.05326653162,-31701.52386445092,-29021.482649026235,-740.7591629933314,-18997.865199788237,0.0,0.0,0.0,193.0,1.0,153.0,0.0,44.0,3.0,250.0,409.0,44.0,1018.0,1744252951.8173044,0.0,2025-04-09 22:42:31.817,BACKWARD,47
20.0,10961.921329727333,429.399362730904,-55184.288940940976,-51288.67045505887,-31700.160408039144,-29032.546762531612,-649.3405281711255,-18999.47452538902,0.0,0.0,0.0,193.0,1.0,153.0,0.0,44.0,3.0,249.0,409.0,44.0,1017.0,1744252951.8173127,0.0,2025-04-09 22:42:31.817,BACKWARD,47
21.0,10913.149823325852,401.79495832859976,-55207.53475517449,-51332.03283930217,-31732.27986482142,-29054.339713375535,-715.9934301368511,-19022.496822177985,0.0,0.0,0.0,193.0,1.0,153.0,0.0,44.0,3.0,249.0,409.0,44.0,1017.0,1744252951.8173215,0.0,2025-04-09 22:42:31.817,BACKWARD,47
22.0,11005.08254827053,412.3002782225941,-55187.909923542735,-51262.071879157054,-31756.643266277704,-29080.535957877157,-643.1043914680948,-19033.426825216633,0.0,0.0,0.0,193.0,1.0,153.0,0.0,44.0,3.0,251.0,409.0,44.0,1019.0,1744252951.8173316,0.0,2025-04-09 22:42:31.817,BACKWARD,47
23.0,11015.923144331355,414.5354526681248,-55188.044034009465,-51337.0172783157,-31713.884379134703,-29031.943265431317,-753.834933499686,-19013.310255206856,0.0,0.0,0.0,193.0,1.0,154.0,0.0,44.0,3.0,249.0,410.0,44.0,1017.0,1744252951.81734,0.0,2025-04-09 22:42:31.817,BACKWARD,47
24.0,10970.102068197975,429.89110110892074,-55177.78458330448,-51280.02032995467,-31703.200245285065,-29024.678948483343,-650.0781357381506,-18993.886589275193,0.0,0.0,0.0,193.0,1.0,155.0,0.0,44.0,3.0,252.0,411.0,44.0,1020.0,1744252951.8173487,0.0,2025-04-09 22:42:31.817,BACKWARD,47
25.0,10906.645465689358,406.82410083104384,-55214.50849944455,-51342.80638012962,-31730.782297942915,-29050.56226856259,-709.8914039005523,-19014.3384354518,0.0,0.0,0.0,193.0,1.0,155.0,0.0,44.0,3.0,251.0,411.0,44.0,1019.0,1744252951.817357,0.0,2025-04-09 22:42:31.817,BACKWARD,47
26.0,10970.191475175796,402.13023449542936,-55197.25295272505,-51273.80654499609,-31760.398359346196,-29098.95379530833,-646.4795048808462,-19063.445218020108,0.0,0.0,0.0,193.0,1.0,155.0,0.0,44.0,3.0,252.0,411.0,44.0,1020.0,1744252951.8173656,0.0,2025-04-09 22:42:31.817,BACKWARD,47
27.0,11013.799728608099,408.07579852054107,-55203.75731036154,-51350.651842433435,-31731.005815387467,-29059.79353902263,-768.0059394843506,-19062.394686030708,0.0,0.0,0.0,193.0,1.0,155.0,0.0,44.0,3.0,252.0,411.0,44.0,1020.0,1744252951.817374,0.0,2025-04-09 22:42:31.817,BACKWARD,47
28.0,10970.50439959817,418.3128974810717,-55175.169429203204,-51281.54024857763,-31696.74059113748,-29023.27078858266,-657.163638730483,-18997.686385832596,0.0,0.0,0.0,193.0,1.0,155.0,0.0,44.0,3.0,251.0,411.0,44.0,1019.0,1744252951.8173828,0.0,2025-04-09 22:42:31.817,BACKWARD,47
29.0,10910.422910502304,409.61806888795724,-55216.49780470107,-51343.99102258575,-31730.46937352054,-29041.420405080367,-712.7747789352869,-19012.483240662008,0.0,0.0,0.0,193.0,1.0,155.0,0.0,44.0,3.0,252.0,411.0,44.0,1020.0,1744252951.8173914,0.0,2025-04-09 22:42:31.817,BACKWARD,47
30.0,10948.35382084296,395.625876858935,-55199.510478915035,-51279.86386774348,-31764.175804159142,-29082.681725344864,-666.2384469793376,-19043.932145110626,0.0,0.0,0.0,193.0,1.0,155.0,0.0,44.0,3.0,251.0,411.0,44.0,1019.0,1744252951.8174045,0.0,2025-04-09 22:42:31.817,BACKWARD,47
31.0,11011.251629740194,398.4198449158484,-55216.22958376761,-51349.51190346622,-31752.95522844258,-29072.98106825126,-746.2576921293369,-19045.653229433683,0.0,0.0,0.0,193.0,1.0,155.0,0.0,44.0,3.0,251.0,411.0,44.0,1019.0,1744252951.817413,0.0,2025-04-09 22:42:31.817,BACKWARD,47
32.0,10973.164257188351,414.624859645946,-55177.60576934883,-51297.521745863174,-31697.589957426782,-29027.18234386234,-675.8496970951196,-19001.66499634564,0.0,0.0,0.0,193.0,1.0,155.0,0.0,44.0,3.0,252.0,411.0,44.0,1020.0,1744252951.817422,0.0,2025-04-09 22:42:31.817,BACKWARD,47
33.0,10925.666800220824,421.5762521715465,-55206.573630162915,-51336.749057382236,-31711.1351145667,-29035.854820710996,-684.7456913883319,-19009.197534227078,0.0,0.0,0.0,193.0,1.0,155.0,0.0,44.0,3.0,251.0,411.0,44.0,1019.0,1744252951.8174307,0.0,2025-04-09 22:42:31.817,BACKWARD,47
34.0,10941.670649250824,404.432464174326,-55190.12274624381,-51290.0562632151,-31738.493649779997,-29064.979143736262,-661.8351533216421,-19022.60858090026,0.0,0.0,0.0,193.0,1.0,155.0,0.0,44.0,3.0,252.0,411.0,44.0,1020.0,1744252951.8174393,0.0,2025-04-09 22:42:31.817,BACKWARD,47
35.0,11027.411940981381,413.6413828899125,-55203.66790338372,-51325.05909503211,-31750.63064701923,-29073.696324073833,-713.4900347578567,-19034.76792988395,0.0,0.0,0.0,193.0,1.0,155.0,0.0,44.0,3.0,251.0,411.0,44.0,1019.0,1744252951.817448,0.0,2025-04-09 22:42:31.817,BACKWARD,47
36.0,10990.196286463295,419.3410777260158,-55169.40267913374,-51306.17187096737,-31693.298422491363,-29019.98508214773,-703.0517700972283,-18992.38902239669,0.0,0.0,0.0,193.0,1.0,155.0,0.0,44.0,3.0,251.0,411.0,44.0,1019.0,1744252951.8174565,0.0,2025-04-09 22:42:31.817,BACKWARD,47
37.0,10930.472425278715,419.430484703837,-55208.4288249527,-51334.55858642561,-31716.343071024785,-29054.540879075634,-678.3977959630247,-19029.112938536757,0.0,0.0,0.0,193.0,1.0,155.0,0.0,44.0,3.0,250.0,411.0,44.0,1018.0,1744252951.817465,0.0,2025-04-09 22:42:31.817,BACKWARD,47
38.0,10912.412215758826,391.2896384346054,-55209.32289473092,-51326.5119584217,-31745.42269056114,-29083.91107128991,-689.193688534938,-19056.806749916883,0.0,0.0,0.0,193.0,1.0,155.0,0.0,44.0,3.0,250.0,411.0,44.0,1018.0,1744252951.8174736,0.0,2025-04-09 22:42:31.817,BACKWARD,47
39.0,11007.697702371801,402.13023449542936,-55211.73688313209,-51316.1631007389,-31771.037789706923,-29093.969356294794,-696.8826886275637,-19050.928241125137,0.0,0.0,0.0,193.0,1.0,155.0,0.0,44.0,3.0,250.0,411.0,44.0,1018.0,1744252951.817482,0.0,2025-04-09 22:42:31.817,BACKWARD,47
40.0,10995.516001643658,412.948478811798,-55176.8234582929,-51325.43907468785,-31704.206073785554,-29025.5506665171,-737.0487734137504,-18997.060536987847,0.0,0.0,0.0,193.0,1.0,155.0,0.0,44.0,3.0,250.0,411.0,44.0,1018.0,1744252951.8174908,0.0,2025-04-09 22:42:31.817,BACKWARD,47
41.0,10945.671611508324,424.43727546182583,-55196.783566091486,-51316.00663852771,-31714.018489601433,-29049.109405172996,-665.0091010342958,-19015.61248488575,0.0,0.0,0.0,193.0,1.0,155.0,0.0,44.0,3.0,251.0,411.0,44.0,1019.0,1744252951.8174992,0.0,2025-04-09 22:42:31.817,BACKWARD,47
42.0,10903.672683676801,394.9329727808205,-55213.636781410794,-51344.54981619714,-31749.446004563095,-29081.765303822198,-715.18876733646,-19048.760121912972,0.0,0.0,0.0,193.0,1.0,155.0,0.0,44.0,3.0,252.0,411.0,44.0,1020.0,1744252951.8175075,0.0,2025-04-09 22:42:31.817,BACKWARD,47
43.0,11006.244838982206,409.4169031878595,-55197.767042847525,-51291.509126604695,-31767.461510594072,-29096.740972607255,-659.5776271316561,-19047.66488643466,0.0,0.0,0.0,193.0,1.0,155.0,0.0,44.0,3.0,250.0,411.0,44.0,1018.0,1744252951.817516,0.0,2025-04-09 22:42:31.817,BACKWARD,47
44.0,11001.215696479761,406.399417686393,-55182.85842929583,-51340.43709521736,-31712.252701789464,-29028.456393296292,-747.7329072633871,-18999.295711433377,0.0,0.0,0.0,193.0,1.0,154.0,0.0,44.0,3.0,250.0,410.0,44.0,1018.0,1744252951.8175247,0.0,2025-04-09 22:42:31.817,BACKWARD,47
45.0,10952.913576711844,417.55293816959124,-55189.42984216569,-51301.58976335404,-31711.783315155903,-29035.18426837734,-645.4289728914467,-18986.912845005136,0.0,0.0,0.0,193.0,1.0,155.0,0.0,44.0,3.0,250.0,411.0,44.0,1018.0,1744252951.8175375,0.0,2025-04-09 22:42:31.817,BACKWARD,47
46.0,10900.58814294197,393.368350668949,-55215.91665934523,-51352.84231339006,-31737.018434645946,-29065.42617862537,-705.6892759429546,-19024.48612743451,0.0,0.0,0.0,193.0,1.0,155.0,0.0,44.0,3.0,250.0,411.0,44.0,1018.0,1744252951.817546,0.0,2025-04-09 22:42:31.817,BACKWARD,47
47.0,10981.88143752592,398.28573444911655,-55206.148947018264,-51287.77638528066,-31776.33515314283,-29102.172446509892,-658.191818975427,-19053.901023137692,0.0,0.0,0.0,193.0,1.0,155.0,0.0,44.0,3.0,252.0,411.0,44.0,1020.0,1744252951.8175547,0.0,2025-04-09 22:42:31.817,BACKWARD,47
48.0,11002.51209765817,403.47133916274777,-55208.02649355251,-51363.30292979514,-31736.43728929011,-29050.852841240507,-782.9592565249511,-19030.655208904172,0.0,0.0,0.0,193.0,1.0,154.0,0.0,44.0,3.0,249.0,410.0,44.0,1017.0,1744252951.8175633,0.0,2025-04-09 22:42:31.817,BACKWARD,47
49.0,10951.013678433143,414.9377840683203,-55196.49299341357,-51304.89782153342,-31717.930044881112,-29044.16966964837,-671.6922726264326,-19017.91471456465,0.0,0.0,0.0,193.0,1.0,154.0,0.0,44.0,3.0,250.0,410.0,44.0,1018.0,1744252951.8175716,0.0,2025-04-09 22:42:31.817,BACKWARD,47
50.0,10897.145974295852,392.9883710132088,-55227.785435651,-51365.828676918594,-31742.718129482048,-29060.24057391174,-727.8175029537085,-19029.42586295913,0.0,0.0,0.0,193.0,1.0,154.0,0.0,44.0,3.0,250.0,410.0,44.0,1018.0,1744252951.81758,0.0,2025-04-09 22:42:31.817,BACKWARD,47
51.0,10964.357669872961,389.99323725619763,-55202.88559232779,-51287.35170213601,-31773.541185085916,-29098.506760419223,-663.2209614778711,-19055.622107460753,0.0,0.0,0.0,193.0,1.0,155.0,0.0,44.0,3.0,250.0,411.0,44.0,1018.0,1744252951.8175883,0.0,2025-04-09 22:42:31.817,BACKWARD,47
52.0,11008.70353087229,400.11857749445176,-55212.80976686595,-51363.83937166207,-31753.648132520695,-29063.57098383558,-787.2731432048254,-19038.031284574423,0.0,0.0,0.0,193.0,1.0,155.0,0.0,44.0,3.0,250.0,411.0,44.0,1018.0,1744252951.817597,0.0,2025-04-09 22:42:31.817,BACKWARD,47
53.0,10969.342108886494,418.96109807027557,-55176.085850725874,-51294.75012955072,-31705.100143563766,-29031.920913686863,-680.3647494750917,-18993.596016597276,0.0,0.0,0.0,193.0,1.0,154.0,0.0,44.0,3.0,251.0,410.0,44.0,1019.0,1744252951.8176055,0.0,2025-04-09 22:42:31.817,BACKWARD,47
54.0,10909.953523868744,408.65694387637905,-55214.59790642237,-51356.68681343637,-31718.958225126058,-29058.094806444027,-695.5415839602451,-19018.227638987024,0.0,0.0,0.0,193.0,1.0,154.0,0.0,44.0,3.0,249.0,410.0,44.0,1017.0,1744252951.817614,0.0,2025-04-09 22:42:31.817,BACKWARD,47
55.0,10938.094370137975,392.6307431019239,-55202.527964416506,-51300.65099008691,-31755.39156858821,-29102.12774302098,-655.6213683630667,-19058.21490981757,0.0,0.0,0.0,193.0,1.0,154.0,0.0,44.0,3.0,250.0,410.0,44.0,1018.0,1744252951.8176224,0.0,2025-04-09 22:42:31.817,BACKWARD,47
56.0,11020.639362411424,408.5228334096472,-55210.39577846477,-51350.987118600264,-31748.1943068736,-29079.351315421023,-746.9729479519067,-19048.357790512775,0.0,0.0,0.0,193.0,1.0,154.0,0.0,44.0,3.0,250.0,410.0,44.0,1018.0,1744252951.8176308,0.0,2025-04-09 22:42:31.817,BACKWARD,47
57.0,10980.205056691773,412.52379566714717,-55170.25204542304,-51300.62863834246,-31693.432532958097,-29027.517620029168,-685.7291681443654,-18987.04695547187,0.0,0.0,0.0,193.0,1.0,154.0,0.0,44.0,3.0,250.0,410.0,44.0,1018.0,1744252951.817639,0.0,2025-04-09 22:42:31.817,BACKWARD,47
58.0,10924.21393683123,413.529624167636,-55208.47352844162,-51345.0192028307,-31716.56658846934,-29053.66916104188,-691.3171042581921,-19015.925409308125,0.0,0.0,0.0,193.0,1.0,154.0,0.0,44.0,3.0,250.0,410.0,44.0,1018.0,1744252951.8176477,0.0,2025-04-09 22:42:31.817,BACKWARD,47
59.0,10921.531727496593,387.8251180440328,-55203.69025512818,-51312.20684197031,-31750.317722596854,-29086.861501558007,-677.839002351642,-19040.445272975598,0.0,0.0,0.0,193.0,1.0,154.0,0.0,44.0,3.0,250.0,410.0,44.0,1018.0,1744252951.817656,0.0,2025-04-09 22:42:31.817,BACKWARD,47
60.0,11016.593696665013,409.70747586577846,-55204.271400484016,-51326.98134505527,-31754.47514706554,-29080.55830962161,-716.8874999150635,-19045.943802111604,0.0,0.0,0.0,193.0,1.0,154.0,0.0,44.0,3.0,251.0,410.0,44.0,1019.0,1744252951.8176696,0.0,2025-04-09 22:42:31.817,BACKWARD,47
61.0,10984.518943371648,414.915432323865,-55165.98286223208,-51311.983324525754,-31690.146826523167,-29022.197904848803,-714.9876016363623,-19002.24614170148,0.0,0.0,0.0,193.0,1.0,154.0,0.0,44.0,3.0,249.0,410.0,44.0,1017.0,1744252951.817678,0.0,2025-04-09 22:42:31.817,BACKWARD,47
62.0,10929.44424503377,414.0213625456527,-55202.90794407224,-51334.782103870166,-31716.588940213795,-29055.412597109393,-684.6562844105107,-19026.788357113404,0.0,0.0,0.0,193.0,1.0,154.0,0.0,44.0,3.0,249.0,410.0,44.0,1017.0,1744252951.8176863,0.0,2025-04-09 22:42:31.817,BACKWARD,47
63.0,10902.44333773176,379.7784900401223,-55216.60956342335,-51339.43126671687,-31765.829833248838,-29091.28714696016,-729.8068082102309,-19061.72413369705,0.0,0.0,0.0,193.0,1.0,154.0,0.0,44.0,3.0,249.0,410.0,44.0,1017.0,1744252951.817695,0.0,2025-04-09 22:42:31.817,BACKWARD,47
64.0,11007.18361224933,403.13606299591817,-55208.56293541944,-51313.79381582663,-31780.157301444688,-29099.490237175258,-712.2383370683596,-19067.982622144536,0.0,0.0,0.0,193.0,1.0,154.0,0.0,44.0,3.0,249.0,410.0,44.0,1017.0,1744252951.8177035,0.0,2025-04-09 22:42:31.817,BACKWARD,47
65.0,10991.380928919427,409.7745310991444,-55171.5707983459,-51330.02118230119,-31701.07682956181,-29017.615797235467,-738.8369129701749,-18990.779696795904,0.0,0.0,0.0,193.0,1.0,154.0,0.0,45.0,3.0,250.0,410.0,45.0,1018.0,1744252951.817712,0.0,2025-04-09 22:42:31.817,BACKWARD,47
66.0,10953.539425556592,428.7511621417001,-55177.04697573745,-51301.90268777641,-31693.365477724732,-29021.907332170886,-645.2054554468937,-18985.683499060095,0.0,0.0,0.0,193.0,1.0,154.0,0.0,44.0,3.0,249.0,410.0,44.0,1017.0,1744252951.8177204,0.0,2025-04-09 22:42:31.817,BACKWARD,47
67.0,10907.561887212025,394.48593789171434,-55197.54352540297,-51334.55858642561,-31730.447021776086,-29055.50200408721,-703.6552671975217,-19021.15571751067,0.0,0.0,0.0,193.0,1.0,154.0,0.0,44.0,3.0,249.0,410.0,44.0,1017.0,1744252951.8177288,0.0,2025-04-09 22:42:31.817,BACKWARD,47
68.0,11000.880420312933,409.64042063241254,-55188.960455532135,-51285.38474862394,-31760.755987257482,-29089.47665565928,-667.4454411799242,-19057.477302250543,0.0,0.0,0.0,193.0,1.0,154.0,0.0,44.0,3.0,250.0,410.0,44.0,1018.0,1744252951.817737,0.0,2025-04-09 22:42:31.817,BACKWARD,47
69.0,10999.718129601257,412.79201660061085,-55181.0255862505,-51347.299080765144,-31712.699736678573,-29031.362120075482,-778.1089279781495,-19030.521098437443,0.0,0.0,0.0,193.0,1.0,155.0,0.0,44.0,3.0,251.0,411.0,44.0,1019.0,1744252951.8177457,0.0,2025-04-09 22:42:31.817,BACKWARD,47
70.0,10954.344088356984,421.68801089382305,-55183.61838860731,-51301.925039520866,-31711.09041107779,-29029.88690494143,-673.4133569494912,-19002.693176590583,0.0,0.0,0.0,193.0,1.0,155.0,0.0,44.0,3.0,249.0,411.0,44.0,1017.0,1744252951.817754,0.0,2025-04-09 22:42:31.817,BACKWARD,47
71.0,10894.374357983394,384.7629290536558,-55217.45892971265,-51364.66638620692,-31737.018434645946,-29064.3085914026,-720.4414272834572,-19030.85637460427,0.0,0.0,0.0,193.0,1.0,154.0,0.0,44.0,3.0,249.0,410.0,44.0,1017.0,1744252951.8177624,0.0,2025-04-09 22:42:31.817,BACKWARD,47
72.0,10979.422745635837,394.7094553362674,-55194.81661257942,-51285.787080024136,-31765.561612315374,-29094.32698420608,-652.2015514614047,-19053.275174292943,0.0,0.0,0.0,193.0,1.0,154.0,0.0,44.0,3.0,249.0,410.0,44.0,1017.0,1744252951.817771,0.0,2025-04-09 22:42:31.817,BACKWARD,47
73.0,11008.301199472095,405.81827233055503,-55196.157717246744,-51358.81022915962,-31729.754117697972,-29037.486498056234,-776.9913407553842,-19023.301484978376,0.0,0.0,0.0,193.0,1.0,154.0,0.0,44.0,3.0,249.0,410.0,44.0,1017.0,1744252951.8177795,0.0,2025-04-09 22:42:31.817,BACKWARD,47
74.0,10960.557873315558,415.5636329130689,-55178.96922576061,-51297.67820807436,-31708.005870342957,-29026.198867106305,-668.4289179359577,-19001.03914750089,0.0,0.0,0.0,193.0,1.0,155.0,0.0,45.0,3.0,249.0,411.0,45.0,1017.0,1744252952.1701083,0.0,2025-04-09 22:42:32.170,BACKWARD,47
75.0,10891.848610859945,386.7969377990887,-55224.20915653815,-51374.568209000616,-31741.444080048095,-29066.588469337046,-731.997279166851,-19041.562860198363,0.0,0.0,0.0,193.0,1.0,155.0,0.0,44.0,3.0,251.0,411.0,44.0,1019.0,1744252952.1701784,0.0,2025-04-09 22:42:32.170,BACKWARD,47
76.0,10943.8834719519,375.91163824935416,-55209.05467379745,-51306.99888551222,-31778.503272354996,-29112.990690826264,-678.9118860854967,-19079.11379088328,0.0,0.0,0.0,193.0,1.0,155.0,0.0,44.0,3.0,251.0,411.0,44.0,1019.0,1744252952.1701984,0.0,2025-04-09 22:42:32.170,BACKWARD,47
77.0,11008.904696572388,394.77651056963333,-55210.5298889315,-51368.64499671996,-31749.490708052006,-29064.107425702507,-783.0710152472276,-19049.207156802076,0.0,0.0,0.0,193.0,1.0,155.0,0.0,44.0,3.0,252.0,411.0,44.0,1020.0,1744252952.1702185,0.0,2025-04-09 22:42:32.170,BACKWARD,47
78.0,10972.001966476675,414.043714290108,-55175.30353966994,-51301.34389416503,-31703.80374238536,-29022.108497870984,-690.9147728579966,-19003.788412068894,0.0,0.0,0.0,193.0,1.0,155.0,0.0,44.0,3.0,251.0,411.0,44.0,1019.0,1744252952.170228,0.0,2025-04-09 22:42:32.170,BACKWARD,47
79.0,10919.050683862053,416.0330195466304,-55206.35011271836,-51350.49538022225,-31718.31002453685,-29038.46997481227,-714.2052905804265,-19018.76408085395,0.0,0.0,0.0,193.0,1.0,155.0,0.0,44.0,3.0,251.0,411.0,44.0,1019.0,1744252952.1702373,0.0,2025-04-09 22:42:32.170,BACKWARD,47
80.0,10944.419913818827,395.6705803478456,-55194.59309513487,-51297.611152841,-31753.111690653765,-29080.200681710325,-666.8866475685415,-19046.413188745166,0.0,0.0,0.0,193.0,1.0,155.0,0.0,44.0,3.0,251.0,411.0,44.0,1019.0,1744252952.1702466,0.0,2025-04-09 22:42:32.170,BACKWARD,47
81.0,11026.920202603365,408.05344677608576,-55209.41230170874,-51348.59548194355,-31752.262324364463,-29072.779902551163,-746.0788781736944,-19056.449122005597,0.0,0.0,0.0,193.0,1.0,155.0,0.0,44.0,3.0,251.0,411.0,44.0,1019.0,1744252952.1702557,0.0,2025-04-09 22:42:32.170,BACKWARD,47
82.0,10982.954321259776,416.1000747799963,-55174.81180129192,-51309.32346693557,-31699.64631791667,-29022.108497870984,-706.7845114212646,-19007.23058071501,0.0,0.0,0.0,193.0,1.0,155.0,0.0,44.0,3.0,251.0,411.0,44.0,1019.0,1744252952.1702647,0.0,2025-04-09 22:42:32.170,BACKWARD,47
83.0,10926.516166510126,416.21183350227284,-55211.06633079843,-51345.08625806407,-31722.64626296118,-29040.32516960206,-704.6163922090999,-19020.52986866592,0.0,0.0,0.0,193.0,1.0,155.0,0.0,44.0,3.0,252.0,411.0,44.0,1020.0,1744252952.1702733,0.0,2025-04-09 22:42:32.170,BACKWARD,47
84.0,10924.616268231424,390.77554831213337,-55203.556144661445,-51314.17379548238,-31757.00089418899,-29066.297896659125,-704.7952061647424,-19033.002142071982,0.0,0.0,0.0,193.0,1.0,155.0,0.0,44.0,3.0,253.0,411.0,44.0,1021.0,1744252952.170282,0.0,2025-04-09 22:42:32.170,BACKWARD,47
85.0,11021.533432189635,406.7793973421332,-55210.50753718705,-51326.958993310815,-31771.37306587375,-29072.869309528985,-746.3470991071581,-19046.949630612093,0.0,0.0,0.0,193.0,1.0,155.0,0.0,44.0,3.0,251.0,411.0,44.0,1019.0,1744252952.1702907,0.0,2025-04-09 22:42:32.170,BACKWARD,47
86.0,10995.292484199106,419.139912025918,-55170.229693678586,-51316.34191469454,-31699.80278012786,-29008.60804421998,-742.6143577831218,-18994.646548586672,0.0,0.0,0.0,193.0,1.0,155.0,0.0,44.0,3.0,251.0,411.0,44.0,1019.0,1744252952.1702995,0.0,2025-04-09 22:42:32.170,BACKWARD,47
87.0,10939.994268416676,428.23707201922804,-55193.76608059002,-51324.075618276074,-31708.65407093216,-29032.680872998342,-680.4765081973682,-19013.936104051605,0.0,0.0,0.0,193.0,1.0,155.0,0.0,44.0,3.0,249.0,411.0,44.0,1017.0,1744252952.170308,0.0,2025-04-09 22:42:32.170,BACKWARD,47
88.0,10909.417082001815,391.06612099005235,-55201.56683940493,-51333.955089325325,-31738.89598118019,-29064.822681525075,-713.7806074357758,-19045.139139311214,0.0,0.0,0.0,193.0,1.0,155.0,0.0,44.0,3.0,251.0,411.0,44.0,1019.0,1744252952.1703167,0.0,2025-04-09 22:42:32.170,BACKWARD,47
89.0,11014.962019319775,407.9640397982645,-55198.90698181475,-51308.071769246075,-31768.579097816837,-29086.52622539118,-708.4608922554127,-19063.601680231295,0.0,0.0,0.0,193.0,1.0,155.0,0.0,44.0,3.0,251.0,411.0,44.0,1019.0,1744252952.1703255,0.0,2025-04-09 22:42:32.170,BACKWARD,47
90.0,11001.998007535698,413.9543073122868,-55173.24717918005,-51341.152351039935,-31706.66476567564,-29020.141544358918,-771.9398465084847,-19017.66884537564,0.0,0.0,0.0,193.0,1.0,154.0,0.0,44.0,3.0,251.0,410.0,44.0,1019.0,1744252952.1703403,0.0,2025-04-09 22:42:32.170,BACKWARD,47
91.0,10952.511245311647,424.77255162865544,-55185.29476944146,-51314.10674024901,-31709.52578896592,-29027.294102584616,-675.5144209282901,-19006.18004872561,0.0,0.0,0.0,193.0,1.0,154.0,0.0,44.0,3.0,251.0,410.0,44.0,1019.0,1744252952.170349,0.0,2025-04-09 22:42:32.170,BACKWARD,47
92.0,10901.236343531173,386.7745860546334,-55208.2276592526,-51354.02695584619,-31740.035920147413,-29062.02871346816,-732.3325553336806,-19048.849528890794,0.0,0.0,0.0,193.0,1.0,154.0,0.0,44.0,3.0,249.0,410.0,44.0,1017.0,1744252952.1703577,0.0,2025-04-09 22:42:32.170,BACKWARD,47
93.0,10993.213771964762,395.7599873256668,-55193.363749189826,-51293.476080116765,-31767.416807105164,-29085.028658512674,-679.3589209746028,-19056.829101661337,0.0,0.0,0.0,193.0,1.0,154.0,0.0,44.0,3.0,250.0,410.0,44.0,1018.0,1744252952.1703663,0.0,2025-04-09 22:42:32.170,BACKWARD,47
94.0,11000.098109256996,400.2973914500942,-55182.59020836237,-51355.278653535686,-31718.846466403782,-29023.98604440523,-784.6579891035544,-19016.10422326377,0.0,0.0,0.0,193.0,1.0,154.0,0.0,44.0,3.0,249.0,410.0,44.0,1017.0,1744252952.170375,0.0,2025-04-09 22:42:32.170,BACKWARD,47
95.0,10952.421838333827,417.7094003807784,-55177.44930713765,-51305.76953956718,-31704.876626119214,-29026.623550250955,-672.4745836823682,-19007.677615604116,0.0,0.0,0.0,193.0,1.0,154.0,0.0,44.0,3.0,249.0,410.0,44.0,1017.0,1744252952.170384,0.0,2025-04-09 22:42:32.170,BACKWARD,47
96.0,10896.274256262095,392.0943012349965,-55205.8807260848,-51359.21256055982,-31730.022338631436,-29048.7070737728,-731.0138024108174,-19030.63285715972,0.0,0.0,0.0,193.0,1.0,154.0,0.0,44.0,3.0,250.0,410.0,44.0,1018.0,1744252952.1703928,0.0,2025-04-09 22:42:32.170,BACKWARD,47
97.0,10973.924216499832,392.47428089073674,-55188.37931017629,-51285.25063815721,-31765.67337103765,-29086.414466668903,-671.1781825039604,-19056.739694683518,0.0,0.0,0.0,193.0,1.0,154.0,0.0,44.0,3.0,249.0,410.0,44.0,1017.0,1744252952.1704013,0.0,2025-04-09 22:42:32.170,BACKWARD,47
98.0,11008.256495983183,400.11857749445176,-55193.81078407893,-51361.73830768327,-31732.70454796607,-29040.07930041305,-797.733759609909,-19036.75723514047,0.0,0.0,0.0,193.0,1.0,154.0,0.0,45.0,3.0,249.0,410.0,45.0,1017.0,1744252952.1704102,0.0,2025-04-09 22:42:32.170,BACKWARD,47
99.0,10966.235216407207,411.1156357664628,-55170.34145240086,-51296.38180689595,-31705.480123219506,-29018.73338445823,-688.0537495677173,-18994.89241777568,0.0,0.0,0.0,193.0,1.0,154.0,0.0,45.0,3.0,249.0,410.0,45.0,1017.0,1744252952.1704192,0.0,2025-04-09 22:42:32.170,BACKWARD,47
100.0,10905.058491833031,395.044731503097,-55207.3782929633,-51362.56532222812,-31727.80951593036,-29044.728463259755,-734.545378034756,-19021.490993677497,0.0,0.0,0.0,193.0,1.0,154.0,0.0,44.0,3.0,249.0,410.0,44.0,1017.0,1744252952.1704276,0.0,2025-04-09 22:42:32.170,BACKWARD,47
101.0,10952.421838333827,387.7133593217563,-55186.21119096413,-51290.97268473777,-31754.72101625455,-29088.873158558985,-664.7855835897427,-19053.364581270765,0.0,0.0,0.0,193.0,1.0,155.0,0.0,44.0,3.0,250.0,411.0,44.0,1018.0,1744252952.1704364,0.0,2025-04-09 22:42:32.170,BACKWARD,47
102.0,11010.22344949525,394.82121405854394,-55197.16354574723,-51360.374851271496,-31740.08062363632,-29053.46799534178,-768.2741604178144,-19019.81461284335,0.0,0.0,0.0,193.0,1.0,155.0,0.0,44.0,3.0,251.0,411.0,44.0,1019.0,1744252952.1704457,0.0,2025-04-09 22:42:32.170,BACKWARD,47
103.0,10975.242969422696,410.02040028815276,-55162.00425171903,-51301.32154242058,-31694.9300998366,-29017.50403851319,-692.8146711366977,-18979.22384491251,0.0,0.0,0.0,193.0,1.0,155.0,0.0,45.0,3.0,250.0,411.0,45.0,1018.0,1744252952.170454,0.0,2025-04-09 22:42:32.170,BACKWARD,47
104.0,10916.860212905432,400.78912982811096,-55205.43369119569,-51360.30779603813,-31721.573379227328,-29047.36596910548,-725.6270319970885,-19023.65911288966,0.0,0.0,0.0,193.0,1.0,154.0,0.0,44.0,3.0,250.0,410.0,44.0,1018.0,1744252952.1704628,0.0,2025-04-09 22:42:32.170,BACKWARD,47
105.0,10933.154634613353,380.2925801625944,-55192.98376953409,-51308.608211113,-31755.369216843752,-29083.262870700702,-699.5201944732898,-19061.38885753022,0.0,0.0,0.0,193.0,1.0,154.0,0.0,44.0,3.0,250.0,410.0,44.0,1018.0,1744252952.1704767,0.0,2025-04-09 22:42:32.170,BACKWARD,47
106.0,11018.292429243616,398.26338270466124,-55195.48716491308,-51342.49345570725,-31745.780318472425,-29060.79936752312,-744.7601252508314,-19038.277153763433,0.0,0.0,0.0,193.0,1.0,155.0,0.0,45.0,3.0,250.0,411.0,45.0,1018.0,1744252952.1704853,0.0,2025-04-09 22:42:32.170,BACKWARD,47
107.0,10974.013623477653,402.2866967066165,-55164.485295353574,-51314.17379548238,-31693.74545738047,-29014.151276844896,-712.1936335794489,-18993.886589275193,0.0,0.0,0.0,193.0,1.0,154.0,0.0,45.0,3.0,249.0,410.0,45.0,1017.0,1744252952.1704938,0.0,2025-04-09 22:42:32.170,BACKWARD,47
108.0,10919.20714607324,405.14771999689583,-55203.35497896135,-51347.81317088761,-31723.920312395134,-29035.78776547763,-715.18876733646,-19019.792261098894,0.0,0.0,0.0,193.0,1.0,154.0,0.0,44.0,3.0,249.0,410.0,44.0,1017.0,1744252952.1705022,0.0,2025-04-09 22:42:32.170,BACKWARD,47
109.0,10901.526916209092,368.40145211237103,-55208.09354878587,-51335.430304459376,-31762.34296111381,-29077.205547953316,-724.5765000076891,-19053.968078371057,0.0,0.0,0.0,193.0,1.0,154.0,0.0,44.0,3.0,248.0,410.0,44.0,1016.0,1744252952.1705108,0.0,2025-04-09 22:42:32.170,BACKWARD,47
110.0,10997.684120855823,386.1040337209742,-55210.86516509833,-51339.63243241697,-31768.020304205456,-29088.38142018097,-726.319936075203,-19062.707610453082,0.0,0.0,0.0,193.0,1.0,155.0,0.0,44.0,3.0,252.0,411.0,44.0,1020.0,1744252952.170519,0.0,2025-04-09 22:42:32.170,BACKWARD,47
111.0,10976.584074090013,397.95045828228695,-55173.984786747074,-51336.72670563778,-31701.07682956181,-29019.202771091794,-747.2411688853704,-19003.251970201967,0.0,0.0,0.0,193.0,1.0,155.0,0.0,44.0,3.0,252.0,411.0,44.0,1020.0,1744252952.170528,0.0,2025-04-09 22:42:32.170,BACKWARD,47
112.0,10925.622096731913,412.657906133879,-55190.905057299744,-51328.858891589516,-31706.46359997554,-29023.561361260578,-678.8001273632202,-18987.315176405333,0.0,0.0,0.0,193.0,1.0,154.0,0.0,44.0,3.0,252.0,410.0,44.0,1020.0,1744252952.1705365,0.0,2025-04-09 22:42:32.170,BACKWARD,47
113.0,10884.606645656426,370.3460538799827,-55208.20530750815,-51346.0697348201,-31745.601504516784,-29059.882946000453,-717.5580522487227,-19026.408377457665,0.0,0.0,0.0,193.0,1.0,155.0,0.0,44.0,3.0,251.0,411.0,44.0,1019.0,1744252952.170545,0.0,2025-04-09 22:42:32.170,BACKWARD,47
114.0,10988.095222484497,383.44417613079264,-55201.611542893836,-51309.23405995775,-31771.037789706923,-29080.267736943693,-697.70970317241,-19052.336401025823,0.0,0.0,0.0,193.0,1.0,155.0,0.0,44.0,3.0,251.0,411.0,44.0,1019.0,1744252952.1705537,0.0,2025-04-09 22:42:32.170,BACKWARD,47
115.0,10983.691928826802,394.0165512581529,-55172.464868124116,-51341.75584814022,-31702.172065040122,-29011.35730878798,-768.1400499510825,-19010.00219702747,0.0,0.0,0.0,193.0,1.0,155.0,0.0,45.0,3.0,252.0,411.0,45.0,1020.0,1744252952.1705625,0.0,2025-04-09 22:42:32.170,BACKWARD,47
116.0,10935.389809058883,412.9261270673427,-55180.80206880595,-51311.983324525754,-31700.786256883894,-29025.952997917295,-668.6747871249661,-19010.51628714994,0.0,0.0,0.0,193.0,1.0,155.0,0.0,44.0,3.0,251.0,411.0,44.0,1019.0,1744252952.1705709,0.0,2025-04-09 22:42:32.170,BACKWARD,47
117.0,10880.046889787542,374.4587748597592,-55206.88655458529,-51359.324319282096,-31736.99608290149,-29054.987913964742,-732.2431483558594,-19034.09737755029,0.0,0.0,0.0,193.0,1.0,154.0,0.0,44.0,3.0,251.0,410.0,44.0,1019.0,1744252952.1705797,0.0,2025-04-09 22:42:32.170,BACKWARD,47
