Sample Index,EXG Channel 0,EXG Channel 1,EXG Channel 2,EXG Channel 3,EXG Channel 4,EXG Channel 5,EXG Channel 6,EXG Channel 7,Accel Channel 0,Accel Channel 1,Accel Channel 2,Not Used,Digital Channel 0 (D11),Digital Channel 1 (D12),Digital Channel 2 (D13),Digital Channel 3 (D17),Not Used,Digital Channel 4 (D18),Analog Channel 0,Analog Channel 1,Analog Channel 2,Timestamp,Marker Channel,Timestamp (Formatted),Stimulus_Direction,Stimulus_Number
164.0,8537.74053308255,-9721.019532802049,-24885.471151527305,-23845.735054699788,16403.63233132748,8065.73874541983,30590.10572315523,50950.60032017235,0.0,0.0,0.0,193.0,0.0,193.0,0.0,1.0,0.0,179.0,193.0,1.0,179.0,1744418709.725382,0.0,2025-04-11 20:45:09.725,BACKWARD,23
165.0,8519.099178206823,-9760.269196065568,-24882.31955555911,-23883.554206318167,16532.333675901136,7898.950028294329,30974.399265575325,50926.236918716066,0.0,0.0,0.0,193.0,0.0,192.0,0.0,1.0,0.0,178.0,192.0,1.0,178.0,1744418709.7254157,0.0,2025-04-11 20:45:09.725,BACKWARD,23
166.0,8527.34697191083,-9740.130274311337,-24906.459439570837,-23858.49790078377,16434.58949739808,7802.21167829176,30932.869724377364,50804.64342887919,0.0,0.0,0.0,193.0,0.0,193.0,0.0,1.0,0.0,179.0,193.0,1.0,179.0,1744418709.7254467,0.0,2025-04-11 20:45:09.725,BACKWARD,23
167.0,8528.173986455678,-9720.281925235025,-24922.88797174549,-23821.841039877065,16340.555708474603,8039.475445684844,30676.741084663998,50889.244781642534,0.0,0.0,0.0,193.0,0.0,192.0,0.0,1.0,0.0,178.0,192.0,1.0,178.0,1744418709.7254941,0.0,2025-04-11 20:45:09.725,BACKWARD,23
168.0,8538.25462320502,-9725.556936926478,-24888.153360861943,-23825.685539923375,16396.81504926861,8097.880553946562,30557.561583228304,50955.450648719154,0.0,0.0,0.0,193.0,0.0,193.0,0.0,1.0,0.0,179.0,193.0,1.0,179.0,1744418709.7255259,0.0,2025-04-11 20:45:09.725,BACKWARD,23
169.0,8500.658989031195,-9779.93873118624,-24890.7238114743,-23890.706764543866,16529.249135166305,7945.441656761367,30929.31579700897,50951.89672135076,0.0,0.0,0.0,193.0,0.0,193.0,0.0,1.0,0.0,179.0,193.0,1.0,179.0,1744418709.7255585,0.0,2025-04-11 20:45:09.725,BACKWARD,23
170.0,8497.082709918346,-9763.510199011589,-24922.195067667373,-23892.271386655735,16436.891727076974,7775.926026812319,30964.27392533707,50815.66283889566,0.0,0.0,0.0,193.0,0.0,192.0,0.0,1.0,0.0,178.0,192.0,1.0,178.0,1744418709.7255914,0.0,2025-04-11 20:45:09.725,BACKWARD,23
171.0,8512.617172314784,-9723.92525958124,-24945.396178411982,-23856.15096761596,16329.402187991403,7975.951787942861,30732.84396324682,50866.73657497604,0.0,0.0,0.0,193.0,0.0,193.0,0.0,1.0,0.0,179.0,193.0,1.0,179.0,1744418709.725628,0.0,2025-04-11 20:45:09.725,BACKWARD,23
172.0,8539.394562172241,-9699.025416258028,-24918.417622854427,-23850.563031502134,16347.32828704456,8082.681367716953,30546.743338911932,50945.01238405852,0.0,0.0,0.0,193.0,0.0,192.0,0.0,1.0,0.0,178.0,192.0,1.0,178.0,1744418709.7256668,0.0,2025-04-11 20:45:09.725,BACKWARD,23
173.0,8508.97383796857,-9749.02626860455,-24876.932785145378,-23877.87686322652,16524.689379297422,7979.773936244719,30867.692037545687,50955.13772429678,0.0,0.0,0.0,193.0,0.0,193.0,0.0,1.0,0.0,179.0,193.0,1.0,179.0,1744418709.7257087,0.0,2025-04-11 20:45:09.725,BACKWARD,23
174.0,8480.453012043597,-9790.22053363568,-24904.894817458968,-23894.975947734827,16466.46308499135,7790.0970327969835,31005.33407990147,50823.128321543736,0.0,0.0,0.0,193.0,0.0,192.0,0.0,1.0,0.0,178.0,192.0,1.0,178.0,1744418709.7257507,0.0,2025-04-11 20:45:09.725,BACKWARD,23
175.0,8483.358738822788,-9779.156420130304,-24933.370939895027,-23855.458063537844,16347.529452744659,7965.781744215697,30800.927376857686,50846.44119101062,0.0,0.0,0.0,193.0,0.0,193.0,0.0,1.0,0.0,179.0,193.0,1.0,179.0,1744418709.725786,0.0,2025-04-11 20:45:09.725,BACKWARD,23
176.0,8497.552096551908,-9759.464533265178,-24916.316558875627,-23839.58832497458,16340.37689451896,8123.98739147036,30561.964876886,50939.04446828896,0.0,0.0,0.0,193.0,0.0,193.0,0.0,1.0,0.0,179.0,193.0,1.0,179.0,1744418709.7258196,0.0,2025-04-11 20:45:09.725,BACKWARD,23
177.0,8473.72513696255,-9794.84734473793,-24883.72771545979,-23871.86424396804,16507.187963388915,8036.480311927833,30801.262653024514,50959.026927832005,0.0,0.0,0.0,193.0,0.0,192.0,0.0,1.0,0.0,178.0,192.0,1.0,178.0,1744418709.725853,0.0,2025-04-11 20:45:09.725,BACKWARD,23
178.0,8440.510444701964,-9836.823920824996,-24925.74899503577,-23922.22272422585,16471.96161412735,7804.200983548282,31039.778118107097,50853.526694002954,0.0,0.0,0.0,193.0,0.0,193.0,0.0,1.0,0.0,179.0,193.0,1.0,179.0,1744418709.7258866,0.0,2025-04-11 20:45:09.725,BACKWARD,23
179.0,8461.878712401238,-9799.965894218194,-24935.60611434056,-23872.959479446352,16351.150435346419,7887.975321766773,30849.09538615887,50820.78138837593,0.0,0.0,0.0,193.0,0.0,193.0,0.0,1.0,0.0,178.0,193.0,1.0,178.0,1744418709.7260473,0.0,2025-04-11 20:45:09.726,BACKWARD,23
180.0,8480.698881232605,-9756.447047763711,-24920.831611255602,-23841.532926742188,16311.386681960426,8093.097280633126,30581.120321884195,50919.6208023573,0.0,0.0,0.0,193.0,0.0,193.0,0.0,1.0,0.0,179.0,193.0,1.0,179.0,1744418709.726083,0.0,2025-04-11 20:45:09.726,BACKWARD,23
181.0,8454.524988475441,-9801.776385519075,-24882.699535214848,-23868.734999744298,16477.34838454108,8039.2742799847465,30721.93631195263,50947.73929688207,0.0,0.0,0.0,193.0,0.0,193.0,0.0,1.0,0.0,178.0,193.0,1.0,178.0,1744418709.7261157,0.0,2025-04-11 20:45:09.726,BACKWARD,23
182.0,8456.804866409882,-9826.631525353376,-24895.194160365365,-23906.01770949575,16511.65831227998,7823.35642854648,31028.93752204627,50857.75117370501,0.0,0.0,0.0,193.0,0.0,193.0,0.0,1.0,0.0,178.0,193.0,1.0,178.0,1744418709.7261703,0.0,2025-04-11 20:45:09.726,BACKWARD,23
183.0,8468.427773526642,-9796.188449405248,-24927.581838081103,-23877.742752759787,16391.38357536597,7850.513798059678,30892.547177379987,50796.77561483093,0.0,0.0,0.0,193.0,0.0,193.0,0.0,1.0,0.0,178.0,193.0,1.0,178.0,1744418709.7262115,0.0,2025-04-11 20:45:09.726,BACKWARD,23
184.0,8468.58423573783,-9778.798792219019,-24945.17266096743,-23856.285078082692,16311.431385449338,8068.1527338210035,30623.00749099344,50903.39343588275,0.0,0.0,0.0,193.0,0.0,192.0,0.0,1.0,0.0,178.0,192.0,1.0,178.0,1744418709.726254,0.0,2025-04-11 20:45:09.726,BACKWARD,23
185.0,8469.791229938415,-9786.13016440036,-24885.337041060575,-23850.898307668962,16449.855738861053,8059.659070927986,30654.411691953148,50941.212587501126,0.0,0.0,0.0,193.0,0.0,193.0,0.0,1.0,0.0,179.0,193.0,1.0,179.0,1744418709.7262871,0.0,2025-04-11 20:45:09.726,BACKWARD,23
186.0,8453.474456486041,-9825.066903241504,-24894.00951790923,-23895.78061053522,16531.931344500943,7888.958798522806,31023.81897256601,50895.99500846804,0.0,0.0,0.0,193.0,0.0,192.0,0.0,1.0,0.0,178.0,192.0,1.0,178.0,1744418709.7263281,0.0,2025-04-11 20:45:09.726,BACKWARD,23
187.0,8455.642575698206,-9808.32544664448,-24935.024968984722,-23885.722325530332,16404.481697616782,7830.061951883073,30933.093241821916,50791.455899650566,0.0,0.0,0.0,193.0,0.0,193.0,0.0,1.0,0.0,178.0,193.0,1.0,178.0,1744418709.7263818,0.0,2025-04-11 20:45:09.726,BACKWARD,23
188.0,8468.874808415749,-9771.445068293222,-24940.32233242063,-23852.664095480934,16311.967827316264,8050.383096979034,30657.339770476792,50875.38670008024,0.0,0.0,0.0,193.0,0.0,193.0,0.0,1.0,0.0,178.0,193.0,1.0,178.0,1744418709.7264178,0.0,2025-04-11 20:45:09.726,BACKWARD,23
189.0,8471.713479961572,-9771.98151016015,-24885.44879978285,-23848.23845007878,16409.376729652493,8075.819382169174,30590.597461533245,50926.46043616062,0.0,0.0,0.0,193.0,0.0,192.0,0.0,1.0,0.0,179.0,192.0,1.0,179.0,1744418709.726467,0.0,2025-04-11 20:45:09.726,BACKWARD,23
190.0,8448.467665728052,-9814.203955436225,-24877.893910156956,-23893.366622134046,16541.922574272463,7919.066598304105,30968.766625972585,50902.812290526905,0.0,0.0,0.0,193.0,0.0,192.0,0.0,1.0,0.0,178.0,192.0,1.0,178.0,1744418709.7265172,0.0,2025-04-11 20:45:09.726,BACKWARD,23
191.0,8457.453066999087,-9799.742376773642,-24907.755840749247,-23885.655270296964,16439.752750367254,7796.936666600307,30942.79389891552,50774.02153897542,0.0,0.0,0.0,193.0,0.0,193.0,0.0,1.0,0.0,179.0,193.0,1.0,179.0,1744418709.7265756,0.0,2025-04-11 20:45:09.726,BACKWARD,23
192.0,8464.382107780231,-9775.624844506365,-24927.023044469723,-23849.691313468375,16332.7549496597,8022.197547220892,30697.237634329515,50858.555836505395,0.0,0.0,0.0,193.0,0.0,193.0,0.0,1.0,0.0,179.0,193.0,1.0,179.0,1744418709.726612,0.0,2025-04-11 20:45:09.726,BACKWARD,23
193.0,8484.29751208991,-9773.434373549744,-24890.835570196577,-23845.5785924886,16391.741203277255,8092.851411444118,30563.57420248678,50936.2728519765,0.0,0.0,0.0,193.0,0.0,192.0,0.0,1.0,0.0,178.0,192.0,1.0,178.0,1744418709.7266457,0.0,2025-04-11 20:45:09.726,BACKWARD,23
194.0,8467.757221192984,-9812.460519368711,-24865.73456117327,-23878.949746960374,16551.645583110523,7957.802171445152,30923.839619617418,50930.52845365149,0.0,0.0,0.0,193.0,0.0,193.0,0.0,1.0,0.0,179.0,193.0,1.0,179.0,1744418709.7268565,0.0,2025-04-11 20:45:09.726,BACKWARD,23
195.0,8467.377241537242,-9803.296304142035,-24903.911340702933,-23886.102305186072,16466.93247162491,7780.821058848031,30990.425466349778,50794.026350262924,0.0,0.0,0.0,193.0,0.0,192.0,0.0,1.0,0.0,178.0,192.0,1.0,178.0,1744418709.7269027,0.0,2025-04-11 20:45:09.726,BACKWARD,23
196.0,8480.944750421613,-9767.444106035722,-24925.0337392132,-23842.985790131785,16355.57608074857,7977.918741454929,30755.57568735787,50831.73374315903,0.0,0.0,0.0,193.0,0.0,193.0,0.0,1.0,0.0,179.0,193.0,1.0,179.0,1744418709.7269404,0.0,2025-04-11 20:45:09.726,BACKWARD,23
197.0,8481.995282411013,-9745.293527280513,-24880.978450891787,-23819.42705147589,16372.630461767969,8114.197327398936,30550.744301169434,50918.45851164562,0.0,0.0,0.0,193.0,0.0,193.0,0.0,1.0,0.0,179.0,193.0,1.0,179.0,1744418709.7269824,0.0,2025-04-11 20:45:09.726,BACKWARD,23
198.0,8440.666906913151,-9798.691844784242,-24857.330305258074,-23866.455121809857,16529.98674273333,8005.29962841268,30858.930153719208,50933.09890426385,0.0,0.0,0.0,193.0,0.0,192.0,0.0,1.0,0.0,178.0,192.0,1.0,178.0,1744418709.7271333,0.0,2025-04-11 20:45:09.727,BACKWARD,23
199.0,8442.075066813835,-9820.4177403948,-24896.624672010505,-23904.073107728138,16465.21138730185,7781.849239092975,31018.879237041383,50804.48696666801,0.0,0.0,0.0,193.0,0.0,193.0,0.0,1.0,0.0,179.0,193.0,1.0,179.0,1744418709.7272153,0.0,2025-04-11 20:45:09.727,BACKWARD,23
200.0,8454.189712308611,-9790.332292357956,-24917.45649784285,-23860.598964762565,16353.609127236501,7923.939278595362,30808.594025205857,50803.86111782326,0.0,0.0,0.0,193.0,0.0,192.0,0.0,1.0,0.0,178.0,192.0,1.0,178.0,1744418709.727281,0.0,2025-04-11 20:45:09.727,BACKWARD,23
201.0,8471.042927627914,-9759.464533265178,-24897.630500510993,-23830.848792892553,16346.389513777438,8094.863068445095,30558.925039640075,50898.25253465802,0.0,0.0,0.0,193.0,0.0,193.0,0.0,1.0,0.0,179.0,193.0,1.0,179.0,1744418709.727333,0.0,2025-04-11 20:45:09.727,BACKWARD,23
202.0,8451.932186118625,-9797.395443605834,-24870.383724019972,-23868.131502644006,16506.56211454417,8008.719445314342,30775.513443412,50914.65871508822,0.0,0.0,0.0,193.0,0.0,193.0,0.0,0.0,0.0,178.0,193.0,0.0,178.0,1744418709.7273767,0.0,2025-04-11 20:45:09.727,BACKWARD,23
203.0,8442.231529025023,-9821.13299621737,-24907.509971560237,-23916.657139856477,16488.099573624084,7789.582942674511,31021.784963820573,50804.75518760147,0.0,0.0,0.0,193.0,0.0,193.0,0.0,1.0,0.0,179.0,193.0,1.0,179.0,1744418709.7274275,0.0,2025-04-11 20:45:09.727,BACKWARD,23
204.0,8451.239282040511,-9796.031987194061,-24940.009407998255,-23882.078991184117,16372.09401990104,7877.604112339511,30852.15757514925,50774.42387037562,0.0,0.0,0.0,193.0,0.0,192.0,0.0,0.0,0.0,178.0,192.0,0.0,178.0,1744418709.727491,0.0,2025-04-11 20:45:09.727,BACKWARD,23
205.0,8479.424831798653,-9744.757085413587,-24925.659588057948,-23846.249144822257,16318.539240186125,8083.754251450808,30577.476987537982,50876.63839776974,0.0,0.0,0.0,193.0,0.0,192.0,0.0,0.0,0.0,178.0,192.0,0.0,178.0,1744418709.727533,0.0,2025-04-11 20:45:09.727,BACKWARD,23
206.0,8480.274198087955,-9759.241015820626,-24870.495482742248,-23857.96145891684,16457.231814531304,8052.171236535459,30690.800331926388,50914.39049415475,0.0,0.0,0.0,193.0,0.0,193.0,0.0,0.0,0.0,179.0,193.0,0.0,179.0,1744418709.7275815,0.0,2025-04-11 20:45:09.727,BACKWARD,23
207.0,8446.38895349371,-9813.04166472455,-24898.904549944946,-23910.06337524216,16484.232721833316,7845.50700730169,31025.405946422336,50846.1506183327,0.0,0.0,0.0,193.0,0.0,192.0,0.0,0.0,0.0,178.0,192.0,0.0,178.0,1744418709.7276354,0.0,2025-04-11 20:45:09.727,BACKWARD,23
208.0,8452.043944840902,-9808.683074555764,-24935.516707362738,-23884.001241207272,16364.695592486334,7850.558501548589,30903.320718207447,50777.262541921446,0.0,0.0,0.0,193.0,0.0,193.0,0.0,0.0,0.0,179.0,193.0,0.0,179.0,1744418709.727682,0.0,2025-04-11 20:45:09.727,BACKWARD,23
209.0,8458.771819921949,-9782.889161454339,-24943.965666766842,-23861.91771768543,16293.08060325153,8072.176047822959,30630.718842830523,50884.0591769289,0.0,0.0,0.0,193.0,0.0,192.0,0.0,0.0,0.0,178.0,192.0,0.0,178.0,1744418709.7280114,0.0,2025-04-11 20:45:09.728,BACKWARD,23
210.0,8447.037154082913,-9795.227324393669,-24906.995881437768,-23881.92252897293,16403.609979583023,8056.3510127486015,30637.938456289587,50934.44000893117,0.0,0.0,0.0,193.0,0.0,193.0,0.0,0.0,0.0,179.0,193.0,0.0,179.0,1744418709.7280543,0.0,2025-04-11 20:45:09.728,BACKWARD,23
211.0,8430.586270163807,-9822.764673562608,-24901.8773319575,-23922.78151783723,16503.991663931807,7866.361184878491,31000.99784147714,50889.13302292026,0.0,0.0,0.0,193.0,0.0,192.0,0.0,0.0,0.0,178.0,192.0,0.0,178.0,1744418709.728094,0.0,2025-04-11 20:45:09.728,BACKWARD,23
212.0,8439.370505734743,-9803.564525075499,-24931.158117193954,-23902.93316876092,16417.646875100956,7795.081471810517,30933.137945310827,50783.67749258012,0.0,0.0,0.0,193.0,0.0,193.0,0.0,0.0,0.0,179.0,193.0,0.0,179.0,1744418709.7281282,0.0,2025-04-11 20:45:09.728,BACKWARD,23
213.0,8449.965232606559,-9781.749222487118,-24949.643009858493,-23869.96434568934,16329.37983624695,8023.292782699202,30668.69445666009,50875.610217524794,0.0,0.0,0.0,193.0,0.0,192.0,0.0,0.0,0.0,178.0,192.0,0.0,178.0,1744418709.7282503,0.0,2025-04-11 20:45:09.728,BACKWARD,23
214.0,8476.362642808275,-9768.293472325024,-24893.8754074425,-23854.58634550409,16406.20278193984,8069.158562321492,30570.659705479113,50928.22622397259,0.0,0.0,0.0,193.0,0.0,193.0,0.0,0.0,0.0,179.0,193.0,0.0,179.0,1744418709.7282836,0.0,2025-04-11 20:45:09.728,BACKWARD,23
215.0,8443.662040670162,-9814.315714158502,-24890.187369607374,-23905.905950773475,16535.149995702504,7922.017028572206,30958.909506667795,50914.278735432476,0.0,0.0,0.0,193.0,0.0,193.0,0.0,0.0,0.0,179.0,193.0,0.0,179.0,1744418709.7283182,0.0,2025-04-11 20:45:09.728,BACKWARD,23
216.0,8438.230566767523,-9813.868679269395,-24936.16490795194,-23903.223741438836,16429.783872340187,7785.649035650377,30959.13302411235,50785.55503911436,0.0,0.0,0.0,193.0,0.0,192.0,0.0,0.0,0.0,178.0,192.0,0.0,178.0,1744418709.728358,0.0,2025-04-11 20:45:09.728,BACKWARD,23
217.0,8435.86128185526,-9795.003806949117,-24956.259126217265,-23867.460950310346,16316.773452374156,8005.389035390501,30711.16277112517,50853.526694002954,0.0,0.0,0.0,193.0,0.0,193.0,0.0,0.0,0.0,179.0,193.0,0.0,179.0,1744418709.7283895,0.0,2025-04-11 20:45:09.728,BACKWARD,23
218.0,8450.926357618137,-9784.565542288488,-24913.74610826327,-23858.162624616936,16364.449723297326,8090.370367809578,30551.727777925465,50925.23109021558,0.0,0.0,0.0,193.0,0.0,192.0,0.0,0.0,0.0,178.0,192.0,0.0,178.0,1744418709.7284207,0.0,2025-04-11 20:45:09.728,BACKWARD,23
219.0,8432.217947509045,-9814.740397303152,-24895.417677809917,-23904.20721819487,16514.340521614617,7945.5757672281,30890.133188978816,50914.83752904386,0.0,0.0,0.0,193.0,0.0,193.0,0.0,0.0,0.0,179.0,193.0,0.0,179.0,1744418709.7284532,0.0,2025-04-11 20:45:09.728,BACKWARD,23
220.0,8435.503653943975,-9812.996961235638,-24937.662474830446,-23921.932151547928,16433.047227030664,7747.360497398437,30969.41482656179,50767.472477850024,0.0,0.0,0.0,193.0,0.0,193.0,0.0,0.0,0.0,179.0,193.0,0.0,179.0,1744418709.7284842,0.0,2025-04-11 20:45:09.728,BACKWARD,23
221.0,8455.44140999811,-9773.16615261628,-24952.347570937585,-23866.52217704322,16331.65971418139,7951.3425172975685,30741.292922650926,50808.06324578086,0.0,0.0,0.0,193.0,0.0,193.0,0.0,0.0,0.0,178.0,193.0,0.0,178.0,1744418709.7285168,0.0,2025-04-11 20:45:09.728,BACKWARD,23
222.0,8469.81358168287,-9749.11567558237,-24917.523553076215,-23850.831252435597,16344.66842945438,8105.0778156611705,30530.51597243738,50905.78507253946,0.0,0.0,0.0,193.0,0.0,193.0,0.0,0.0,0.0,179.0,193.0,0.0,179.0,1744418710.2045996,0.0,2025-04-11 20:45:10.204,BACKWARD,23
223.0,8456.827218154338,-9780.98926317564,-24892.623709753003,-23889.991508721294,16516.955675715886,8007.579506347121,30820.90983640073,50927.84624431685,0.0,0.0,0.0,193.0,0.0,193.0,0.0,0.0,0.0,179.0,193.0,0.0,179.0,1744418710.2046628,0.0,2025-04-11 20:45:10.204,BACKWARD,23
224.0,8452.62509019674,-9810.27004841209,-24935.248486429275,-23927.028349283737,16467.468913491837,7777.535352413101,30995.90164374133,50796.90972529766,0.0,0.0,0.0,193.0,0.0,193.0,0.0,0.0,0.0,179.0,193.0,0.0,179.0,1744418710.2048378,0.0,2025-04-11 20:45:10.204,BACKWARD,23
225.0,8430.474511441531,-9808.258391411113,-24958.449597173883,-23890.01386046575,16349.071723112074,7894.27851370317,30803.788400147965,50791.522954883934,0.0,0.0,0.0,193.0,0.0,192.0,0.0,0.0,0.0,178.0,192.0,0.0,178.0,1744418710.2048748,0.0,2025-04-11 20:45:10.204,BACKWARD,23
226.0,8429.692200385594,-9792.276894125569,-24943.049245244176,-23859.54843277317,16312.70543488329,8057.848579627107,30552.95712387051,50894.45273810062,0.0,0.0,0.0,193.0,0.0,193.0,0.0,0.0,0.0,179.0,193.0,0.0,179.0,1744418710.20491,0.0,2025-04-11 20:45:10.204,BACKWARD,23
227.0,8430.675677141628,-9812.66168506881,-24898.21164586683,-23873.317107357634,16467.44656174738,7989.653407293965,30737.22490516006,50922.05714250293,0.0,0.0,0.0,193.0,0.0,192.0,0.0,0.0,0.0,178.0,192.0,0.0,178.0,1744418710.2049456,0.0,2025-04-11 20:45:10.204,BACKWARD,23
228.0,8420.90796481466,-9838.880281314883,-24923.737338034793,-23912.678529343433,16468.36298327005,7791.2146200197485,31013.96185326122,50833.43247573763,0.0,0.0,0.0,193.0,0.0,193.0,0.0,0.0,0.0,179.0,193.0,0.0,179.0,1744418710.2050004,0.0,2025-04-11 20:45:10.205,BACKWARD,23
229.0,8416.705836857062,-9819.210746194214,-24959.813053585658,-23891.15379943297,16335.414807249881,7864.2377691552365,30862.215860154138,50799.03314102091,0.0,0.0,0.0,193.0,0.0,192.0,0.0,0.0,0.0,178.0,192.0,0.0,178.0,1744418710.2050364,0.0,2025-04-11 20:45:10.205,BACKWARD,23
230.0,8440.398685979688,-9774.663719494787,-24949.397140669484,-23858.073217639118,16288.453792149281,8068.555065221199,30577.164063115608,50895.346807878836,0.0,0.0,0.0,193.0,0.0,193.0,0.0,0.0,0.0,179.0,193.0,0.0,179.0,1744418710.2050712,0.0,2025-04-11 20:45:10.205,BACKWARD,23
231.0,8447.439485483108,-9775.893065439828,-24894.858884198533,-23860.978944418308,16451.465064461838,8030.870024069551,30649.96369480654,50921.36423842481,0.0,0.0,0.0,193.0,0.0,193.0,0.0,0.0,0.0,179.0,193.0,0.0,179.0,1744418710.2051065,0.0,2025-04-11 20:45:10.205,BACKWARD,23
232.0,8434.184901021112,-9802.603400063921,-24908.001709938257,-23907.96231126336,16507.009149433274,7832.475940284246,30985.530434314067,50852.49851375801,0.0,0.0,0.0,193.0,0.0,193.0,0.0,0.0,0.0,178.0,193.0,0.0,178.0,1744418710.2051413,0.0,2025-04-11 20:45:10.205,BACKWARD,23
233.0,8432.597927164785,-9799.809432007007,-24941.46227138785,-23889.410363365456,16379.425392082381,7829.257289082681,30878.219709184137,50774.043890719884,0.0,0.0,0.0,193.0,0.0,193.0,0.0,0.0,0.0,179.0,193.0,0.0,179.0,1744418710.2051752,0.0,2025-04-11 20:45:10.205,BACKWARD,23
234.0,8446.008973837968,-9772.227379349159,-24950.470024403337,-23861.62714500751,16278.060230977564,8063.660033185486,30609.283519897883,50876.68310125865,0.0,0.0,0.0,193.0,0.0,192.0,0.0,0.0,0.0,178.0,192.0,0.0,178.0,1744418710.2052107,0.0,2025-04-11 20:45:10.205,BACKWARD,23
235.0,8464.58327348033,-9771.31095782649,-24893.45072429785,-23856.329781571603,16390.131877676475,8071.706661189397,30589.949260944042,50921.54305238045,0.0,0.0,0.0,193.0,0.0,193.0,0.0,0.0,0.0,179.0,193.0,0.0,179.0,1744418710.205246,0.0,2025-04-11 20:45:10.205,BACKWARD,23
236.0,8419.85743282526,-9827.190318964758,-24900.78209647919,-23915.852477056083,16487.116096868052,7895.641970114943,30974.019285919585,50884.260342629,0.0,0.0,0.0,193.0,0.0,192.0,0.0,0.0,0.0,178.0,192.0,0.0,178.0,1744418710.2052813,0.0,2025-04-11 20:45:10.205,BACKWARD,23
237.0,8426.741770117495,-9810.56062109001,-24934.667341073437,-23905.369508906548,16398.111450447017,7788.6888728962995,30914.720107879653,50761.63867254718,0.0,0.0,0.0,193.0,0.0,193.0,0.0,0.0,0.0,179.0,193.0,0.0,179.0,1744418710.2053158,0.0,2025-04-11 20:45:10.205,BACKWARD,23
238.0,8438.38702897871,-9784.654949266309,-24955.812091328156,-23871.461912567844,16314.337112228528,8009.389997648001,30659.507889688957,50854.26430156998,0.0,0.0,0.0,193.0,0.0,192.0,0.0,0.0,0.0,178.0,192.0,0.0,178.0,1744418710.205351,0.0,2025-04-11 20:45:10.205,BACKWARD,23
239.0,8448.937052361614,-9771.378013059857,-24915.869523986523,-23865.42694156491,16379.023060682186,8051.590091179621,30544.23994353294,50906.1650521952,0.0,0.0,0.0,193.0,0.0,193.0,0.0,0.0,0.0,179.0,193.0,0.0,179.0,1744418710.2054813,0.0,2025-04-11 20:45:10.205,BACKWARD,23
240.0,8414.940049045092,-9805.084443698459,-24914.97545420831,-23914.712538088865,16513.200582647394,7918.9995430707395,30936.244837790113,50912.043560986946,0.0,0.0,0.0,193.0,0.0,193.0,0.0,0.0,0.0,179.0,193.0,0.0,179.0,1744418710.2055151,0.0,2025-04-11 20:45:10.205,BACKWARD,23
241.0,8412.548412388374,-9808.213687922203,-24950.7382453368,-23912.991453765804,16413.02006399871,7765.554817385057,30950.192326330227,50779.14008845569,0.0,0.0,0.0,193.0,0.0,192.0,0.0,0.0,0.0,178.0,192.0,0.0,178.0,1744418710.2055464,0.0,2025-04-11 20:45:10.205,BACKWARD,23
242.0,8432.329706231321,-9798.870658739885,-24962.383504198016,-23866.05279040966,16313.353635472493,7984.1548781579595,30701.88679717622,50834.9523943606,0.0,0.0,0.0,193.0,0.0,193.0,0.0,0.0,0.0,179.0,193.0,0.0,179.0,1744418710.2055774,0.0,2025-04-11 20:45:10.205,BACKWARD,23
243.0,8451.261633784967,-9782.17390563177,-24926.866582258535,-23856.799168205165,16340.7568741747,8084.134231106548,30532.929960838555,50911.37300865329,0.0,0.0,0.0,193.0,0.0,192.0,0.0,0.0,0.0,178.0,192.0,0.0,178.0,1744418710.2057269,0.0,2025-04-11 20:45:10.205,BACKWARD,23
244.0,8428.552261418374,-9816.081501970471,-24906.235922126285,-23902.217912938348,16491.854666692576,7960.171456357415,30870.01661896904,50917.65384884523,0.0,0.0,0.0,193.0,0.0,193.0,0.0,0.0,0.0,179.0,193.0,0.0,179.0,1744418710.2057593,0.0,2025-04-11 20:45:10.205,BACKWARD,23
245.0,8428.440502696098,-9806.514955343599,-24943.920963277935,-23924.59200913811,16431.86258457453,7757.307023681048,30973.50519579711,50779.005977988956,0.0,0.0,0.0,193.0,0.0,192.0,0.0,0.0,0.0,178.0,192.0,0.0,178.0,1744418710.2057903,0.0,2025-04-11 20:45:10.205,BACKWARD,23
246.0,8413.844813566782,-9782.777402732063,-24976.778027627235,-23890.907930243964,16322.830775121543,7939.09376133606,30755.240411191036,50798.787271831905,0.0,0.0,0.0,193.0,0.0,192.0,0.0,0.0,0.0,178.0,192.0,0.0,178.0,1744418710.2058332,0.0,2025-04-11 20:45:10.205,BACKWARD,23
247.0,8429.759255618961,-9771.892103182328,-24947.921925535433,-23870.076104411615,16312.750138372201,8096.204173112414,30524.12337352316,50887.38958685274,0.0,0.0,0.0,193.0,0.0,193.0,0.0,0.0,0.0,179.0,193.0,0.0,179.0,1744418710.2058914,0.0,2025-04-11 20:45:10.205,BACKWARD,23
248.0,8430.362752719255,-9804.011559964605,-24900.893855201466,-23890.34913663258,16488.45720153537,8006.976009246828,30777.927431813176,50901.53824109295,0.0,0.0,0.0,193.0,0.0,192.0,0.0,0.0,0.0,178.0,192.0,0.0,178.0,1744418710.205924,0.0,2025-04-11 20:45:10.205,BACKWARD,23
249.0,8425.579479405818,-9818.18256594927,-24925.547829335672,-23915.62895961153,16458.729381409812,7788.0406723070955,30979.27194586658,50784.79507980288,0.0,0.0,0.0,193.0,0.0,193.0,0.0,0.0,0.0,179.0,193.0,0.0,179.0,1744418710.2059553,0.0,2025-04-11 20:45:10.205,BACKWARD,23
250.0,8424.394836949687,-9799.809432007007,-24960.684771619413,-23885.00706970776,16341.874461397465,7905.677903375376,30803.22960653658,50783.833954791306,0.0,0.0,0.0,193.0,0.0,193.0,0.0,0.0,0.0,179.0,193.0,0.0,179.0,1744418710.2059865,0.0,2025-04-11 20:45:10.205,BACKWARD,23
251.0,8434.900156843682,-9765.633614734843,-24954.739207594303,-23870.21021487835,16303.720033612257,8083.463678772889,30538.33908299674,50883.6121420398,0.0,0.0,0.0,193.0,0.0,193.0,0.0,0.0,0.0,178.0,193.0,0.0,178.0,1744418710.2060175,0.0,2025-04-11 20:45:10.206,BACKWARD,23
252.0,8420.706799114561,-9798.311865128502,-24911.622692540015,-23889.92445348793,16462.484474478304,8012.3851314050125,30695.382439539724,50902.320552148885,0.0,0.0,0.0,193.0,0.0,193.0,0.0,0.0,0.0,179.0,193.0,0.0,179.0,1744418710.2060483,0.0,2025-04-11 20:45:10.206,BACKWARD,23
253.0,8410.894383298682,-9833.18058647878,-24928.96764623733,-23924.45789867138,16484.74681195579,7800.602352690978,30981.484768567654,50813.82999585033,0.0,0.0,0.0,193.0,0.0,193.0,0.0,0.0,0.0,179.0,193.0,0.0,179.0,1744418710.206079,0.0,2025-04-11 20:45:10.206,BACKWARD,23
254.0,8413.464833911043,-9824.172833463292,-24967.502053678283,-23904.09545947259,16360.337002317548,7844.255309612193,30837.941865675675,50766.86898074973,0.0,0.0,0.0,193.0,0.0,193.0,0.0,0.0,0.0,178.0,193.0,0.0,178.0,1744418710.2061098,0.0,2025-04-11 20:45:10.206,BACKWARD,23
255.0,8418.270458968933,-9799.27299014008,-24961.623544886537,-23875.373467847523,16294.287597452118,8062.318928518168,30563.23892631995,50874.224409368566,0.0,0.0,0.0,193.0,0.0,192.0,0.0,0.0,0.0,178.0,192.0,0.0,178.0,1744418710.20616,0.0,2025-04-11 20:45:10.206,BACKWARD,23
0.0,8418.76219734695,-9799.943542473738,-24901.229131368298,-23881.49784582828,16428.733340350787,8029.2383467243135,30610.557569331835,50905.405092883724,0.0,0.0,0.0,193.0,0.0,193.0,0.0,0.0,0.0,179.0,193.0,0.0,179.0,1744418710.2061913,0.0,2025-04-11 20:45:10.206,BACKWARD,23
1.0,8405.395854162676,-9823.636391596365,-24908.20287563835,-23929.241171984813,16503.321111598147,7834.487597285223,30957.434291533744,50840.741496174516,0.0,0.0,0.0,193.0,0.0,192.0,0.0,0.0,0.0,178.0,192.0,0.0,178.0,1744418710.2062268,0.0,2025-04-11 20:45:10.206,BACKWARD,23
2.0,8420.304467714366,-9783.671472510276,-24934.9355620069,-23899.893331514995,16385.929749718875,7800.848221879986,30854.750377506065,50742.66204150463,0.0,0.0,0.0,193.0,0.0,193.0,0.0,0.0,0.0,179.0,193.0,0.0,179.0,1744418710.2062583,0.0,2025-04-11 20:45:10.206,BACKWARD,23
3.0,8432.486168442509,-9759.241015820626,-24941.395216154484,-23865.806921220654,16297.729766098235,8040.280108485235,30587.088237653763,50842.39552526421,0.0,0.0,0.0,193.0,0.0,192.0,0.0,0.0,0.0,178.0,192.0,0.0,178.0,1744418710.206303,0.0,2025-04-11 20:45:10.206,BACKWARD,23
4.0,8449.562901206364,-9786.286626611547,-24885.40409629394,-23861.358924074048,16405.688691817366,8054.6522801699975,30545.178716800063,50883.43332808415,0.0,0.0,0.0,193.0,0.0,193.0,0.0,0.0,0.0,179.0,193.0,0.0,179.0,1744418710.2063344,0.0,2025-04-11 20:45:10.206,BACKWARD,23
5.0,8426.85352883977,-9835.460464413221,-24887.751029461746,-23901.88263677152,16516.240419893315,7895.1725834813815,30935.84250638992,50851.91736840217,0.0,0.0,0.0,193.0,0.0,192.0,0.0,0.0,0.0,178.0,192.0,0.0,178.0,1744418710.206365,0.0,2025-04-11 20:45:10.206,BACKWARD,23
6.0,8425.065389283347,-9823.904612529828,-24926.285436902697,-23893.657194811964,16392.367052122005,7800.289428268604,30912.909616578774,50736.850587946254,0.0,0.0,0.0,193.0,0.0,193.0,0.0,0.0,0.0,179.0,193.0,0.0,179.0,1744418710.2063959,0.0,2025-04-11 20:45:10.206,BACKWARD,23
7.0,8423.701932871572,-9795.18262090476,-24947.497242390782,-23860.174281617914,16268.985422728709,8022.354009432079,30667.956849093065,50820.06613255336,0.0,0.0,0.0,193.0,0.0,192.0,0.0,0.0,0.0,178.0,192.0,0.0,178.0,1744418710.2064264,0.0,2025-04-11 20:45:10.206,BACKWARD,23
8.0,8441.33745924681,-9778.038832907538,-24899.038660411676,-23849.020761134718,16353.117388858485,8081.988463638839,30550.766652913888,50883.0086449395,0.0,0.0,0.0,193.0,0.0,192.0,0.0,0.0,0.0,178.0,192.0,0.0,178.0,1744418710.2064571,0.0,2025-04-11 20:45:10.206,BACKWARD,23
9.0,8410.268534453933,-9839.394371437356,-24896.289395843673,-23904.140162961503,16512.954713458385,7935.629240945487,30937.854163390897,50883.16510715069,0.0,0.0,0.0,193.0,0.0,193.0,0.0,0.0,0.0,179.0,193.0,0.0,179.0,1744418710.206488,0.0,2025-04-11 20:45:10.206,BACKWARD,23
10.0,8392.2306766785,-9852.581900665988,-24940.210573698354,-23919.16053523547,16410.851944786544,7757.888169036886,30992.481826839667,50747.02063167342,0.0,0.0,0.0,193.0,0.0,192.0,0.0,0.0,0.0,178.0,192.0,0.0,178.0,1744418710.206519,0.0,2025-04-11 20:45:10.206,BACKWARD,23
11.0,8388.967321988026,-9822.496452629144,-24961.757655353267,-23884.314165629647,16302.602446389492,7959.187979601381,30753.787547801443,50793.892239796194,0.0,0.0,0.0,193.0,0.0,193.0,0.0,0.0,0.0,179.0,193.0,0.0,179.0,1744418710.2065496,0.0,2025-04-11 20:45:10.206,BACKWARD,23
12.0,8420.751502603473,-9782.196257376225,-24912.896741973967,-23858.29673508367,16339.259307296195,8072.64543445652,30548.285609279348,50864.03201389695,0.0,0.0,0.0,193.0,0.0,192.0,0.0,0.0,0.0,178.0,192.0,0.0,178.0,1744418710.206581,0.0,2025-04-11 20:45:10.206,BACKWARD,23
13.0,8402.490127383486,-9824.284592185568,-24889.986203907276,-23900.5415321042,16513.245286136305,7974.856552464552,30873.414084126245,50879.007682682,0.0,0.0,0.0,193.0,0.0,193.0,0.0,0.0,0.0,179.0,193.0,0.0,179.0,1744418710.206612,0.0,2025-04-11 20:45:10.206,BACKWARD,23
14.0,8403.764176817438,-9837.047438269548,-24926.151326435964,-23922.759166092776,16447.06177080414,7768.862875564441,30999.477922854177,50749.34521309676,0.0,0.0,0.0,193.0,0.0,193.0,0.0,0.0,0.0,179.0,193.0,0.0,179.0,1744418710.2066565,0.0,2025-04-11 20:45:10.206,BACKWARD,23
15.0,8423.56782240484,-9801.955199474716,-24937.729530063814,-23868.35502008856,16341.919164886376,7934.198729300348,30782.218966748595,50768.14303018368,0.0,0.0,0.0,193.0,0.0,192.0,0.0,0.0,0.0,178.0,192.0,0.0,178.0,1744418710.2066877,0.0,2025-04-11 20:45:10.206,BACKWARD,23
16.0,8436.487130700008,-9782.17390563177,-24919.49050658828,-23851.90413616945,16335.459510738792,8101.881516204062,30553.582972715256,50868.837638954836,0.0,0.0,0.0,193.0,0.0,193.0,0.0,0.0,0.0,179.0,193.0,0.0,179.0,1744418710.2067184,0.0,2025-04-11 20:45:10.206,BACKWARD,23
17.0,8415.409435678654,-9816.930868259773,-24883.325384059597,-23881.11786617254,16495.49800103879,8010.328770915124,30794.467722710102,50890.228258398565,0.0,0.0,0.0,193.0,0.0,192.0,0.0,0.0,0.0,178.0,192.0,0.0,178.0,1744418710.2067492,0.0,2025-04-11 20:45:10.206,BACKWARD,23
18.0,8400.254952937956,-9833.940545790261,-24917.143573420475,-23915.047814255693,16473.146256583485,7791.728710142221,31023.349585932447,50782.738719313,0.0,0.0,0.0,193.0,0.0,192.0,0.0,0.0,0.0,178.0,192.0,0.0,178.0,1744418710.206792,0.0,2025-04-11 20:45:10.206,BACKWARD,23
19.0,8426.741770117495,-9796.74724301663,-24937.0366259857,-23871.350153845568,16362.549825018625,7887.483583388756,30839.461784298634,50751.71449800903,0.0,0.0,0.0,193.0,0.0,192.0,0.0,0.0,0.0,178.0,192.0,0.0,178.0,1744418710.2068229,0.0,2025-04-11 20:45:10.206,BACKWARD,23
20.0,8437.582366178318,-9783.827934721463,-24932.186297438897,-23854.273421081714,16314.89590583991,8084.4695072733775,30586.171816131096,50863.003833652,0.0,0.0,0.0,193.0,0.0,192.0,0.0,0.0,0.0,178.0,192.0,0.0,178.0,1744418710.2068536,0.0,2025-04-11 20:45:10.206,BACKWARD,23
21.0,8419.991543291992,-9802.849269252929,-24878.63151772398,-23867.930336943908,16474.330899039614,8030.266526969258,30723.970320698063,50890.518831076486,0.0,0.0,0.0,193.0,0.0,193.0,0.0,0.0,0.0,179.0,193.0,0.0,179.0,1744418710.2068849,0.0,2025-04-11 20:45:10.206,BACKWARD,23
22.0,8393.392967390177,-9842.94829880575,-24905.520666303717,-23921.14984049199,16495.87798069453,7813.007570863673,31033.407870937335,50803.5928968898,0.0,0.0,0.0,193.0,0.0,193.0,0.0,0.0,0.0,178.0,193.0,0.0,178.0,1744418710.2069159,0.0,2025-04-11 20:45:10.206,BACKWARD,23
23.0,8404.546487873375,-9819.836595038962,-24937.59541959708,-23897.904026258475,16367.042525654142,7830.687800727821,30899.63268037232,50744.80780897234,0.0,0.0,0.0,193.0,0.0,193.0,0.0,0.0,0.0,179.0,193.0,0.0,179.0,1744418710.2069468,0.0,2025-04-11 20:45:10.206,BACKWARD,23
24.0,8424.19367124959,-9782.84445796543,-24936.03079748521,-23868.131502644006,16286.710356081769,8030.892375814006,30630.20475270805,50851.87266491326,0.0,0.0,0.0,193.0,0.0,192.0,0.0,0.0,0.0,178.0,192.0,0.0,178.0,1744418710.2069776,0.0,2025-04-11 20:45:10.206,BACKWARD,23
25.0,8421.757331103961,-9803.966856475694,-24886.678145727892,-23874.457046324856,16421.849003058553,8019.381227419523,30673.92476486263,50899.258363158515,0.0,0.0,0.0,193.0,0.0,193.0,0.0,0.0,0.0,179.0,193.0,0.0,179.0,1744418710.2070084,0.0,2025-04-11 20:45:10.207,BACKWARD,23
26.0,8401.864278538738,-9841.271917971602,-24890.857921941035,-23920.009901524772,16507.858515722575,7847.116332902472,31044.695501887265,50851.62679572425,0.0,0.0,0.0,193.0,0.0,192.0,0.0,0.0,0.0,178.0,192.0,0.0,178.0,1744418710.207039,0.0,2025-04-11 20:45:10.207,BACKWARD,23
27.0,8407.675732097117,-9822.831728795974,-24918.350567621063,-23889.388011621002,16399.407851625427,7810.235954551215,30965.682085237753,50754.73198351049,0.0,0.0,0.0,193.0,0.0,193.0,0.0,0.0,0.0,179.0,193.0,0.0,179.0,1744418710.20707,0.0,2025-04-11 20:45:10.207,BACKWARD,23
28.0,8429.42397945213,-9796.031987194061,-24922.016253711732,-23842.695217453864,16316.684045396334,8047.544425433211,30695.11421860626,50846.999984622,0.0,0.0,0.0,193.0,0.0,192.0,0.0,0.0,0.0,178.0,192.0,0.0,178.0,1744418710.2071009,0.0,2025-04-11 20:45:10.207,BACKWARD,23
29.0,8454.033250097424,-9787.068937667482,-24870.9201658869,-23834.87210689451,16419.122090235007,8073.695966445919,30623.76745030492,50894.899772989724,0.0,0.0,0.0,193.0,0.0,193.0,0.0,0.0,0.0,179.0,193.0,0.0,179.0,1744418710.2071457,0.0,2025-04-11 20:45:10.207,BACKWARD,23
30.0,8423.657229382663,-9826.810339309019,-24872.8200641656,-23892.517255844745,16540.916745771974,7919.066598304105,31013.4701148832,50882.71807226158,0.0,0.0,0.0,193.0,0.0,192.0,0.0,0.0,0.0,178.0,192.0,0.0,178.0,1744418710.2071767,0.0,2025-04-11 20:45:10.207,BACKWARD,23
31.0,8408.56980187533,-9817.400254893333,-24920.719852533326,-23901.525008860233,16418.987979768273,7796.713149155754,31003.03185022257,50764.544399326376,0.0,0.0,0.0,193.0,0.0,193.0,0.0,0.0,0.0,179.0,193.0,0.0,179.0,1744418710.2072077,0.0,2025-04-11 20:45:10.207,BACKWARD,23
32.0,8430.094531785791,-9787.180696389758,-24934.823803284624,-23860.129578129003,16318.427481463848,8017.637791352009,30741.31527439538,50830.750266402996,0.0,0.0,0.0,193.0,0.0,193.0,0.0,0.0,0.0,178.0,193.0,0.0,178.0,1744418710.2072384,0.0,2025-04-11 20:45:10.207,BACKWARD,23
33.0,8446.1430843047,-9777.636501507342,-24887.326346317095,-23845.220964577315,16375.267967613694,8080.133268849047,30583.891938196655,50882.047519927924,0.0,0.0,0.0,193.0,0.0,193.0,0.0,0.0,0.0,178.0,193.0,0.0,178.0,1744418710.2072809,0.0,2025-04-11 20:45:10.207,BACKWARD,23
34.0,8415.52119440093,-9821.80354855103,-24869.646116452946,-23889.633880810008,16519.861402495077,7951.767200442219,30946.996026873116,50884.10388041781,0.0,0.0,0.0,193.0,0.0,192.0,0.0,0.0,0.0,178.0,192.0,0.0,178.0,1744418710.207312,0.0,2025-04-11 20:45:10.207,BACKWARD,23
35.0,8406.222868707522,-9836.019258024604,-24917.45649784285,-23908.811677552665,16428.64393337297,7776.283654723604,31012.106658471428,50752.56386429833,0.0,0.0,0.0,193.0,0.0,193.0,0.0,0.0,0.0,179.0,193.0,0.0,179.0,1744418710.2073429,0.0,2025-04-11 20:45:10.207,BACKWARD,23
36.0,8405.060577995846,-9819.031932238571,-24954.739207594303,-23873.160645146447,16300.769603344155,7964.261825592736,30780.453178936623,50804.26344922346,0.0,0.0,0.0,193.0,0.0,192.0,0.0,0.0,0.0,178.0,192.0,0.0,178.0,1744418710.2073736,0.0,2025-04-11 20:45:10.207,BACKWARD,23
37.0,8431.949726575582,-9786.398385333823,-24905.92299770391,-23843.946915143362,16322.160222787885,8076.735803691841,30555.52757448287,50881.82400248337,0.0,0.0,0.0,193.0,0.0,193.0,0.0,0.0,0.0,178.0,193.0,0.0,178.0,1744418710.2074044,0.0,2025-04-11 20:45:10.207,BACKWARD,23
38.0,8407.116938485735,-9830.5207288886,-24867.567404218604,-23877.854511482063,16493.195771359893,7971.637901262988,30852.895182716275,50888.84245024234,0.0,0.0,0.0,193.0,0.0,192.0,0.0,0.0,0.0,178.0,192.0,0.0,178.0,1744418710.2074351,0.0,2025-04-11 20:45:10.207,BACKWARD,23
39.0,8402.646589594673,-9838.3214877035,-24898.21164586683,-23902.754354805274,16437.763445110733,7774.786087845098,31010.206760192727,50763.24799814797,0.0,0.0,0.0,193.0,0.0,193.0,0.0,0.0,0.0,179.0,193.0,0.0,179.0,1744418710.207466,0.0,2025-04-11 20:45:10.207,BACKWARD,23
40.0,8403.652418095162,-9815.723874059186,-24926.039567713688,-23868.444427066377,16329.446891480315,7925.168624540404,30814.56194097542,50781.174097201125,0.0,0.0,0.0,193.0,0.0,193.0,0.0,0.0,0.0,179.0,193.0,0.0,179.0,1744418710.207497,0.0,2025-04-11 20:45:10.207,BACKWARD,23
41.0,8418.248107224477,-9793.550943559521,-24902.391422079974,-23839.409511018934,16310.738481371223,8085.944722407427,30562.233097819462,50880.12526990477,0.0,0.0,0.0,193.0,0.0,193.0,0.0,0.0,0.0,179.0,193.0,0.0,179.0,1744418710.2075274,0.0,2025-04-11 20:45:10.207,BACKWARD,23
42.0,8390.04020572188,-9836.868624313907,-24875.077590355588,-23873.33945910209,16473.705050194865,8020.834090809119,30780.386123703258,50909.36135165231,0.0,0.0,0.0,193.0,0.0,193.0,0.0,0.0,0.0,178.0,193.0,0.0,178.0,1744418710.207558,0.0,2025-04-11 20:45:10.207,BACKWARD,23
43.0,8371.823533990804,-9874.732479421196,-24915.623654797513,-23922.78151783723,16464.809055901653,7806.637323693911,31025.785926078075,50807.169176002644,0.0,0.0,0.0,193.0,0.0,193.0,0.0,0.0,0.0,179.0,193.0,0.0,179.0,1744418710.207589,0.0,2025-04-11 20:45:10.207,BACKWARD,23
44.0,8368.046089177858,-9859.756810636141,-24949.37478892503,-23892.427848866922,16356.134874359952,7883.594379853533,30857.454938585157,50774.870905264725,0.0,0.0,0.0,193.0,0.0,193.0,0.0,0.0,0.0,179.0,193.0,0.0,179.0,1744418710.20762,0.0,2025-04-11 20:45:10.207,BACKWARD,23
45.0,8385.94983648656,-9826.966801520206,-24942.915134777446,-23865.62810726501,16302.669501622857,8075.0817746021485,30579.153368372128,50870.223447111064,0.0,0.0,0.0,193.0,0.0,193.0,0.0,0.0,0.0,178.0,193.0,0.0,178.0,1744418710.2076635,0.0,2025-04-11 20:45:10.207,BACKWARD,23
46.0,8377.456173593542,-9847.239833741169,-24889.91914867391,-23874.613508536044,16448.268765004726,8028.21016647937,30687.000535368985,50898.140775935746,0.0,0.0,0.0,193.0,0.0,193.0,0.0,0.0,0.0,178.0,193.0,0.0,178.0,1744418710.2076948,0.0,2025-04-11 20:45:10.207,BACKWARD,23
47.0,8356.378478572187,-9889.551685995066,-24898.993956922764,-23905.883599029017,16484.098611366586,7827.983239648729,31005.490542112657,50815.75224587348,0.0,0.0,0.0,193.0,0.0,192.0,0.0,0.0,0.0,178.0,192.0,0.0,178.0,1744418710.2077255,0.0,2025-04-11 20:45:10.207,BACKWARD,23
48.0,8338.27356556339,-9891.04925287357,-24938.780062053214,-23885.945842974885,16366.975470420775,7837.974469420251,30885.327563920924,50741.34328858177,0.0,0.0,0.0,193.0,0.0,193.0,0.0,0.0,0.0,179.0,193.0,0.0,179.0,1744418710.2077682,0.0,2025-04-11 20:45:10.207,BACKWARD,23
49.0,8329.668143948096,-9877.235874800192,-24951.900536048477,-23865.71751424283,16295.22637071924,8056.663937170975,30622.180476448593,50850.97859513505,0.0,0.0,0.0,193.0,0.0,192.0,0.0,0.0,0.0,178.0,192.0,0.0,178.0,1744418710.2077992,0.0,2025-04-11 20:45:10.207,BACKWARD,23
50.0,8325.175443312579,-9891.004549384661,-24894.300090587152,-23868.623241022022,16412.99771225425,8038.715486373364,30622.851028782254,50885.489688574045,0.0,0.0,0.0,193.0,0.0,193.0,0.0,0.0,0.0,179.0,193.0,0.0,179.0,1744418710.20783,0.0,2025-04-11 20:45:10.207,BACKWARD,23
51.0,8291.424309185066,-9944.559329099577,-24896.73643073278,-23915.919532289452,16500.773012730242,7867.858751756997,30994.337021629457,50840.182702563136,0.0,0.0,0.0,193.0,0.0,192.0,0.0,0.0,0.0,178.0,192.0,0.0,178.0,1744418710.2078607,0.0,2025-04-11 20:45:10.207,BACKWARD,23
52.0,8278.54970437881,-9944.514625610665,-24934.354416651062,-23904.229569939325,16377.100810659029,7798.814213134553,30917.245855003104,50726.59113724127,0.0,0.0,0.0,193.0,0.0,193.0,0.0,0.0,0.0,179.0,193.0,0.0,179.0,1744418710.2078917,0.0,2025-04-11 20:45:10.207,BACKWARD,23
53.0,8270.234855441435,-9932.422331860344,-24946.871393546033,-23865.941031687384,16293.214713718262,8035.5191869162545,30647.46029942755,50820.55787093138,0.0,0.0,0.0,193.0,0.0,192.0,0.0,0.0,0.0,178.0,192.0,0.0,178.0,1744418710.2079227,0.0,2025-04-11 20:45:10.207,BACKWARD,23
54.0,8263.797553038306,-9947.465055878765,-24898.658680755936,-23862.76708397473,16387.829647997576,8082.4578502724,30582.617888762703,50891.65877004371,0.0,0.0,0.0,193.0,0.0,193.0,0.0,0.0,0.0,178.0,193.0,0.0,178.0,1744418710.2079537,0.0,2025-04-11 20:45:10.207,BACKWARD,23
55.0,8237.86952947015,-9987.340567987034,-24899.79861972316,-23913.751413077287,16499.7448324853,7899.911153305907,30955.73555895514,50861.707432473595,0.0,0.0,0.0,193.0,0.0,192.0,0.0,0.0,0.0,178.0,192.0,0.0,178.0,1744418710.2079844,0.0,2025-04-11 20:45:10.207,BACKWARD,23
56.0,8242.384581850121,-9982.534942929142,-24933.92973350641,-23909.05754674167,16395.38453762347,7766.49359065218,30938.524715724554,50726.300564563346,0.0,0.0,0.0,193.0,0.0,193.0,0.0,0.0,0.0,179.0,193.0,0.0,179.0,1744418710.2080152,0.0,2025-04-11 20:45:10.208,BACKWARD,23
57.0,8258.276672157845,-9939.217262174758,-24942.333989421608,-23858.229679850305,16297.394489931405,8004.629076079021,30687.291108046906,50796.46269040855,0.0,0.0,0.0,193.0,0.0,193.0,0.0,0.0,0.0,179.0,193.0,0.0,179.0,1744418710.208046,0.0,2025-04-11 20:45:10.208,BACKWARD,23
58.0,8265.965672250471,-9928.890756236406,-24903.88898895848,-23845.19861283286,16333.112577570986,8096.5618010236985,30536.774460884866,50874.17970587966,0.0,0.0,0.0,193.0,0.0,192.0,0.0,0.0,0.0,178.0,192.0,0.0,178.0,1744418710.2080767,0.0,2025-04-11 20:45:10.208,BACKWARD,23
59.0,8240.06000042677,-9975.74001261473,-24886.432276538882,-23892.83018026712,16485.909102667465,7969.425078561912,30903.097200762895,50885.28852287395,0.0,0.0,0.0,193.0,0.0,193.0,0.0,0.0,0.0,179.0,193.0,0.0,179.0,1744418710.2081077,0.0,2025-04-11 20:45:10.208,BACKWARD,23
60.0,8241.803436494283,-9995.700120413318,-24931.739262549792,-23917.68532010142,16414.808203555134,7782.676253637822,31002.540111844555,50762.353928369754,0.0,0.0,0.0,193.0,0.0,192.0,0.0,0.0,0.0,178.0,192.0,0.0,178.0,1744418710.208151,0.0,2025-04-11 20:45:10.208,BACKWARD,23
61.0,8245.670288285051,-9983.384309218443,-24954.158062238464,-23883.73302027381,16308.816231348066,7953.28711906518,30772.294792210436,50796.417986919645,0.0,0.0,0.0,193.0,0.0,193.0,0.0,0.0,0.0,178.0,193.0,0.0,178.0,1744418710.2081823,0.0,2025-04-11 20:45:10.208,BACKWARD,23
62.0,8247.883110986128,-9966.59814913251,-24916.763593764736,-23865.33753458709,16323.814251877577,8070.052632099704,30543.077652821263,50871.2069238671,0.0,0.0,0.0,193.0,0.0,192.0,0.0,0.0,0.0,178.0,192.0,0.0,178.0,1744418710.208217,0.0,2025-04-11 20:45:10.208,BACKWARD,23
63.0,8221.709218228963,-10005.892515884938,-24880.956099147334,-23891.35496513307,16492.480515537325,7978.879866466506,30824.374356791304,50883.99212169553,0.0,0.0,0.0,193.0,0.0,193.0,0.0,0.0,0.0,179.0,193.0,0.0,179.0,1744418710.208248,0.0,2025-04-11 20:45:10.208,BACKWARD,23
64.0,8209.527517500821,-10018.253030568723,-24917.70236703186,-23915.15957297797,16441.87616609051,7785.805497861565,31002.27189091109,50772.300454652366,0.0,0.0,0.0,193.0,0.0,192.0,0.0,0.0,0.0,178.0,192.0,0.0,178.0,1744418710.2082908,0.0,2025-04-11 20:45:10.208,BACKWARD,23
65.0,8208.588744233697,-9991.810916878096,-24950.22415521433,-23883.10717142906,16326.80938563459,7936.545662468156,30808.86224613932,50782.02346349043,0.0,0.0,0.0,193.0,0.0,193.0,0.0,0.0,0.0,179.0,193.0,0.0,179.0,1744418710.2083216,0.0,2025-04-11 20:45:10.208,BACKWARD,23
66.0,8226.291325842301,-9967.671032866363,-24935.002617240265,-23861.850662452063,16302.93772255632,8114.599658799131,30558.455653006513,50883.05334842842,0.0,0.0,0.0,193.0,0.0,193.0,0.0,0.0,0.0,179.0,193.0,0.0,179.0,1744418710.2083528,0.0,2025-04-11 20:45:10.208,BACKWARD,23
67.0,8209.773386689829,-10012.285114799157,-24899.64215751197,-23889.008031965262,16449.274593505215,8046.091562043615,30751.9100012672,50914.211680199114,0.0,0.0,0.0,193.0,0.0,193.0,0.0,0.0,0.0,179.0,193.0,0.0,179.0,1744418710.2083836,0.0,2025-04-11 20:45:10.208,BACKWARD,23
68.0,8191.444956236477,-10038.146083133946,-24924.966683979834,-23923.943808548906,16427.615753128022,7832.565347262067,31021.874370798396,50821.20607152058,0.0,0.0,0.0,193.0,0.0,193.0,0.0,0.0,0.0,178.0,193.0,0.0,178.0,1744418710.2084143,0.0,2025-04-11 20:45:10.208,BACKWARD,23
69.0,8191.981398103404,-10013.626219466474,-24945.910268534455,-23889.92445348793,16336.621801450468,7891.193972968337,30861.858232242852,50778.5365913554,0.0,0.0,0.0,193.0,0.0,193.0,0.0,0.0,0.0,179.0,193.0,0.0,179.0,1744418710.2084453,0.0,2025-04-11 20:45:10.208,BACKWARD,23
70.0,8201.838517408194,-9976.701137626307,-24944.300942933674,-23866.388066576492,16289.437268905314,8089.163373608992,30590.66451676661,50882.69572051713,0.0,0.0,0.0,193.0,0.0,192.0,0.0,0.0,0.0,178.0,192.0,0.0,178.0,1744418710.208476,0.0,2025-04-11 20:45:10.208,BACKWARD,23
71.0,8210.95802914596,-9980.813858606083,-24885.806427694133,-23865.53870028719,16433.91894506442,8061.514265717777,30670.12496830523,50913.74229356555,0.0,0.0,0.0,193.0,0.0,192.0,0.0,0.0,0.0,178.0,192.0,0.0,178.0,1744418710.2085066,0.0,2025-04-11 20:45:10.208,BACKWARD,23
72.0,8191.221438791924,-10037.65434475593,-24910.438050083885,-23909.795154308697,16483.472762521837,7867.3446616345245,31005.870521768396,50843.98249912054,0.0,0.0,0.0,193.0,0.0,193.0,0.0,0.0,0.0,179.0,193.0,0.0,179.0,1744418710.2085373,0.0,2025-04-11 20:45:10.208,BACKWARD,23
73.0,8197.301113283767,-10020.488205014253,-24942.55750686616,-23885.498808085777,16370.551749533624,7846.378725335447,30889.105008733874,50758.308262623344,0.0,0.0,0.0,193.0,0.0,193.0,0.0,0.0,0.0,178.0,193.0,0.0,178.0,1744418710.208568,0.0,2025-04-11 20:45:10.208,BACKWARD,23
74.0,8211.405064035067,-9991.609751177997,-24947.921925535433,-23855.18984260438,16292.36534742896,8076.266417058279,30612.233950165984,50855.98538589304,0.0,0.0,0.0,193.0,0.0,193.0,0.0,0.0,0.0,179.0,193.0,0.0,179.0,1744418710.208599,0.0,2025-04-11 20:45:10.208,BACKWARD,23
75.0,8217.305924571267,-9995.543658202132,-24890.58970100757,-23854.608697248543,16407.610941840525,8085.095356118126,30605.43901985157,50906.99206674005,0.0,0.0,0.0,193.0,0.0,193.0,0.0,0.0,0.0,179.0,193.0,0.0,179.0,1744418710.2086427,0.0,2025-04-11 20:45:10.208,BACKWARD,23
76.0,8198.686921439996,-10027.149024861936,-24894.233035353787,-23910.4433548979,16504.997492432296,7900.5146504062,30987.318573870492,50867.31772033188,0.0,0.0,0.0,193.0,0.0,193.0,0.0,0.0,0.0,179.0,193.0,0.0,179.0,1744418710.208674,0.0,2025-04-11 20:45:10.208,BACKWARD,23
77.0,8213.059093124759,-10015.861393912006,-24933.281532917208,-23902.48613387181,16368.651851254923,7811.062969096061,30934.657863933786,50754.19554164357,0.0,0.0,0.0,193.0,0.0,192.0,0.0,0.0,0.0,178.0,192.0,0.0,178.0,1744418710.208705,0.0,2025-04-11 20:45:10.208,BACKWARD,23
78.0,8217.52944201582,-9993.3084837566,-24941.216402198843,-23858.29673508367,16269.343050639995,8039.676611384942,30667.77803513742,50840.20505430759,0.0,0.0,0.0,193.0,0.0,193.0,0.0,0.0,0.0,179.0,193.0,0.0,179.0,1744418710.2087357,0.0,2025-04-11 20:45:10.208,BACKWARD,23
79.0,8230.67226775554,-9978.466925438277,-24888.779209706692,-23845.33272329959,16358.682973227857,8070.298501288713,30557.650990206123,50897.581982324366,0.0,0.0,0.0,193.0,0.0,192.0,0.0,0.0,0.0,178.0,192.0,0.0,178.0,1744418710.208778,0.0,2025-04-11 20:45:10.208,BACKWARD,23
80.0,8198.373997017623,-10022.544565504142,-24888.10865737303,-23906.21887519585,16495.118021383052,7903.308618463114,30937.4518319907,50880.92993270516,0.0,0.0,0.0,193.0,0.0,193.0,0.0,0.0,0.0,178.0,193.0,0.0,178.0,1744418710.2088091,0.0,2025-04-11 20:45:10.208,BACKWARD,23
81.0,8198.798680162274,-10022.209289337312,-24926.151326435964,-23907.045889740693,16400.05605221463,7763.453753406257,30954.79678568802,50742.55028278235,0.0,0.0,0.0,193.0,0.0,192.0,0.0,0.0,0.0,178.0,192.0,0.0,178.0,1744418710.20884,0.0,2025-04-11 20:45:10.208,BACKWARD,23
82.0,8196.295284783278,-10010.519326987187,-24956.70616110637,-23874.255880624758,16278.50726586667,7995.576619574621,30719.701137507098,50821.13901628721,0.0,0.0,0.0,193.0,0.0,193.0,0.0,0.0,0.0,179.0,193.0,0.0,179.0,1744418710.208871,0.0,2025-04-11 20:45:10.208,BACKWARD,23
83.0,8234.33795384621,-9973.907169569395,-24895.93176793239,-23846.942048900375,16321.579077432047,8088.626931742065,30524.14572526762,50886.74138626354,0.0,0.0,0.0,193.0,0.0,192.0,0.0,0.0,0.0,178.0,192.0,0.0,178.0,1744418710.208902,0.0,2025-04-11 20:45:10.208,BACKWARD,23
84.0,8221.597459506685,-10004.685521684352,-24868.260308296718,-23883.688316784897,16490.580617258624,7974.633035019999,30858.95250546366,50892.17286016618,0.0,0.0,0.0,193.0,0.0,193.0,0.0,0.0,0.0,179.0,193.0,0.0,179.0,1744418710.2089329,0.0,2025-04-11 20:45:10.208,BACKWARD,23
85.0,8228.124168887636,-10004.372597261978,-24909.007538438742,-23907.269407185246,16418.76446232372,7781.871590837431,30973.393437074836,50766.75722202745,0.0,0.0,0.0,193.0,0.0,193.0,0.0,0.0,0.0,179.0,193.0,0.0,179.0,1744418710.2089632,0.0,2025-04-11 20:45:10.208,BACKWARD,23
86.0,8225.017276408349,-9982.892570840428,-24942.423396399427,-23878.323898115625,16292.812382318067,7946.313374795124,30758.883745537252,50798.5414026429,0.0,0.0,0.0,193.0,0.0,193.0,0.0,0.0,0.0,179.0,193.0,0.0,179.0,1744418710.6839895,0.0,2025-04-11 20:45:10.683,BACKWARD,23
87.0,8234.87439571314,-9960.071439751559,-24915.914227475434,-23862.275345596714,16290.197228216795,8087.397585797023,30538.182620785552,50895.70443579012,0.0,0.0,0.0,193.0,0.0,192.0,0.0,0.0,0.0,178.0,192.0,0.0,178.0,1744418710.6841528,0.0,2025-04-11 20:45:10.684,BACKWARD,23
88.0,8224.05615139677,-9991.699158155818,-24888.376878306495,-23899.222779181335,16457.298869764672,7988.714634026842,30804.034269336975,50920.40311341323,0.0,0.0,0.0,193.0,0.0,193.0,0.0,0.0,0.0,179.0,193.0,0.0,179.0,1744418710.6841855,0.0,2025-04-11 20:45:10.684,BACKWARD,23
89.0,8230.806378222273,-10002.942085616838,-24924.050262457164,-23929.487041173823,16433.896593319965,7762.6267388614115,31002.18248393327,50802.229440478026,0.0,0.0,0.0,193.0,0.0,192.0,0.0,0.0,0.0,178.0,192.0,0.0,178.0,1744418710.6842155,0.0,2025-04-11 20:45:10.684,BACKWARD,23
90.0,8234.516767801853,-9967.44751542181,-24952.23581221531,-23890.907930243964,16328.284600768638,7878.744051306731,30806.694126927156,50789.39953916068,0.0,0.0,0.0,193.0,0.0,193.0,0.0,0.0,0.0,179.0,193.0,0.0,179.0,1744418710.6842906,0.0,2025-04-11 20:45:10.684,BACKWARD,23
91.0,8260.15421869209,-9927.124968424436,-24932.87920151701,-23862.700028741365,16283.22348394674,8065.604634953098,30534.740452139435,50890.92116247668,0.0,0.0,0.0,193.0,0.0,192.0,0.0,0.0,0.0,178.0,192.0,0.0,178.0,1744418710.6843207,0.0,2025-04-11 20:45:10.684,BACKWARD,23
92.0,8272.671195587063,-9955.914015282871,-24876.1728258339,-23870.143159644984,16439.14925326696,8018.598916363588,30684.921823134642,50913.429369143174,0.0,0.0,0.0,193.0,0.0,193.0,0.0,0.0,0.0,179.0,193.0,0.0,179.0,1744418710.68435,0.0,2025-04-11 20:45:10.684,BACKWARD,23
93.0,8255.3485936342,-9989.911018599394,-24905.230093625796,-23910.421003153446,16450.079256305606,7821.523585501145,30923.616102172866,50818.59091741931,0.0,0.0,0.0,193.0,0.0,192.0,0.0,0.0,0.0,178.0,192.0,0.0,178.0,1744418710.684379,0.0,2025-04-11 20:45:10.684,BACKWARD,23
94.0,8260.556550092286,-9960.16084672938,-24940.389387653995,-23889.946805232383,16336.800615406111,7866.830571512052,30720.08111716284,50761.41515510263,0.0,0.0,0.0,193.0,0.0,193.0,0.0,0.0,0.0,179.0,193.0,0.0,179.0,1744418710.6844244,0.0,2025-04-11 20:45:10.684,BACKWARD,23
95.0,8285.88107656015,-9922.431102088822,-24932.186297438897,-23853.468758281324,16266.54908258308,8084.737728206841,30407.96135758893,50862.333281318344,0.0,0.0,0.0,193.0,0.0,193.0,0.0,0.0,0.0,178.0,193.0,0.0,178.0,1744418710.684454,0.0,2025-04-11 20:45:10.684,BACKWARD,23
96.0,8289.233838228445,-9927.683762035818,-24876.038715367165,-23856.15096761596,16408.14738370745,8069.851466399607,30444.84173594019,50898.140775935746,0.0,0.0,0.0,193.0,0.0,193.0,0.0,0.0,0.0,179.0,193.0,0.0,179.0,1744418710.6844835,0.0,2025-04-11 20:45:10.684,BACKWARD,23
97.0,8262.054116970792,-9961.524303141154,-24899.105715645044,-23917.998244523795,16473.727401939323,7871.122106447471,30798.312222756416,50852.54321724692,0.0,0.0,0.0,193.0,0.0,193.0,0.0,0.0,0.0,178.0,193.0,0.0,178.0,1744418710.6845129,0.0,2025-04-11 20:45:10.684,BACKWARD,23
98.0,8276.515695633376,-9940.692477308809,-24928.811184026144,-23891.73494478881,16349.272888812173,7824.541071002612,30681.300840532884,50755.96132945554,0.0,0.0,0.0,193.0,0.0,193.0,0.0,0.0,0.0,179.0,193.0,0.0,179.0,1744418710.6845417,0.0,2025-04-11 20:45:10.684,BACKWARD,23
99.0,8305.103576791713,-9902.068662890037,-24934.22030618433,-23853.088778625584,16256.714315022746,8052.193588279914,30396.941947572464,50844.11660958727,0.0,0.0,0.0,193.0,0.0,193.0,0.0,0.0,0.0,178.0,193.0,0.0,178.0,1744418710.6845708,0.0,2025-04-11 20:45:10.684,BACKWARD,23
100.0,8314.200736785024,-9899.34175006649,-24882.0736863701,-23850.361865802035,16372.541054790147,8066.588111709132,30358.20637443142,50894.65390380072,0.0,0.0,0.0,193.0,0.0,192.0,0.0,0.0,0.0,178.0,192.0,0.0,178.0,1744418710.6846,0.0,2025-04-11 20:45:10.684,BACKWARD,23
101.0,8288.272713216867,-9949.700230324297,-24889.382706806984,-23900.67564257093,16488.680718979922,7902.727473107276,30752.491146623033,50877.152487892214,0.0,0.0,0.0,193.0,0.0,193.0,0.0,0.0,0.0,178.0,193.0,0.0,178.0,1744418710.6846292,0.0,2025-04-11 20:45:10.684,BACKWARD,23
102.0,8292.45248943001,-9925.560346312564,-24927.470079358827,-23895.82531402413,16369.322403588583,7792.287503753603,30704.636061744222,50758.82235274582,0.0,0.0,0.0,193.0,0.0,192.0,0.0,0.0,0.0,178.0,192.0,0.0,178.0,1744418710.684658,0.0,2025-04-11 20:45:10.684,BACKWARD,23
103.0,8301.572001167775,-9890.490459262188,-24938.04245448619,-23861.269517096225,16281.211826945762,8013.5027186277775,30434.69404395748,50834.795932149405,0.0,0.0,0.0,193.0,0.0,193.0,0.0,0.0,0.0,179.0,193.0,0.0,179.0,1744418710.684687,0.0,2025-04-11 20:45:10.684,BACKWARD,23
104.0,8324.236670045457,-9878.778145167607,-24883.526549759692,-23845.556240744143,16353.027981880663,8067.437477998434,30302.036440615233,50888.17189790868,0.0,0.0,0.0,193.0,0.0,192.0,0.0,0.0,0.0,178.0,192.0,0.0,178.0,1744418710.684716,0.0,2025-04-11 20:45:10.684,BACKWARD,23
105.0,8307.182289026057,-9914.607991529465,-24869.556709475128,-23891.422020366434,16499.342501085102,7934.265784533714,30675.712904419055,50878.09126115934,0.0,0.0,0.0,193.0,0.0,193.0,0.0,0.0,0.0,179.0,193.0,0.0,179.0,1744418710.6847448,0.0,2025-04-11 20:45:10.684,BACKWARD,23
106.0,8308.679855904562,-9918.340732853501,-24917.300035631662,-23906.665910084954,16390.176581165386,7774.137887255894,30717.93534969513,50745.36660258372,0.0,0.0,0.0,193.0,0.0,192.0,0.0,0.0,0.0,178.0,192.0,0.0,178.0,1744418710.6847868,0.0,2025-04-11 20:45:10.684,BACKWARD,23
107.0,8311.339713494745,-9893.15031685237,-24937.751881808268,-23870.232566622803,16275.892111765399,7978.544590299677,30481.11861719115,50799.7931003324,0.0,0.0,0.0,193.0,0.0,193.0,0.0,0.0,0.0,178.0,193.0,0.0,178.0,1744418710.684816,0.0,2025-04-11 20:45:10.684,BACKWARD,23
108.0,8332.037428860358,-9873.10080207596,-24894.948291176355,-23843.92456339891,16315.141775028918,8092.627893999565,30291.732286421335,50879.72293850457,0.0,0.0,0.0,193.0,0.0,193.0,0.0,0.0,0.0,179.0,193.0,0.0,179.0,1744418710.6848452,0.0,2025-04-11 20:45:10.684,BACKWARD,23
109.0,8313.150204795624,-9915.412654329855,-24869.802578664134,-23881.274328383726,16488.300739324182,7982.210276390348,30611.49634259896,50886.45081358562,0.0,0.0,0.0,193.0,0.0,192.0,0.0,0.0,0.0,178.0,192.0,0.0,178.0,1744418710.684874,0.0,2025-04-11 20:45:10.684,BACKWARD,23
110.0,8317.195870542035,-9920.82177648804,-24898.770439478212,-23898.865151270053,16414.361168666026,7772.863837821942,30724.417355587168,50744.58429152779,0.0,0.0,0.0,193.0,0.0,193.0,0.0,0.0,0.0,179.0,193.0,0.0,179.0,1744418710.6849144,0.0,2025-04-11 20:45:10.684,BACKWARD,23
111.0,8321.777978155373,-9889.954017395261,-24931.627503827516,-23862.096531641073,16293.259417207173,7938.222043302303,30519.720079865467,50768.38889937269,0.0,0.0,0.0,193.0,0.0,192.0,0.0,0.0,0.0,178.0,192.0,0.0,178.0,1744418710.684944,0.0,2025-04-11 20:45:10.684,BACKWARD,23
112.0,8336.93246089607,-9862.304909504046,-24906.615901782025,-23839.00717961874,16281.927082768332,8083.0613473726935,30283.70801016188,50864.9037319307,0.0,0.0,0.0,193.0,0.0,193.0,0.0,0.0,0.0,179.0,193.0,0.0,179.0,1744418710.6849728,0.0,2025-04-11 20:45:10.684,BACKWARD,23
113.0,8330.293992792844,-9887.3835667829,-24855.34100000155,-23857.380313561003,16465.41255300195,7990.703939283364,30511.159361739086,50879.99115943804,0.0,0.0,0.0,193.0,0.0,192.0,0.0,0.0,0.0,178.0,192.0,0.0,178.0,1744418710.685002,0.0,2025-04-11 20:45:10.685,BACKWARD,23
114.0,8322.962620611504,-9903.208601857257,-24883.7724189487,-23891.35496513307,16443.68665739139,7783.972654816229,30734.475640592056,50774.267408164436,0.0,0.0,0.0,193.0,0.0,193.0,0.0,0.0,0.0,179.0,193.0,0.0,179.0,1744418710.685031,0.0,2025-04-11 20:45:10.685,BACKWARD,23
115.0,8324.102559578725,-9878.822848656519,-24914.707233274847,-23858.944935672873,16319.254496008694,7887.438879899845,30559.90851639611,50757.749469011964,0.0,0.0,0.0,193.0,0.0,192.0,0.0,0.0,0.0,178.0,192.0,0.0,178.0,1744418710.68506,0.0,2025-04-11 20:45:10.685,BACKWARD,23
116.0,8344.085019121769,-9847.977441308194,-24907.59937853806,-23835.028569105696,16268.136056439407,8066.923387875961,30292.71576317737,50853.14671434721,0.0,0.0,0.0,193.0,0.0,192.0,0.0,0.0,0.0,178.0,192.0,0.0,178.0,1744418710.685089,0.0,2025-04-11 20:45:10.685,BACKWARD,23
117.0,8348.577719757286,-9845.42934244029,-24849.797767376636,-23840.348284286058,16429.783872340187,8017.414273907456,30428.34614853217,50881.24285712753,0.0,0.0,0.0,193.0,0.0,193.0,0.0,0.0,0.0,179.0,193.0,0.0,179.0,1744418710.685118,0.0,2025-04-11 20:45:10.685,BACKWARD,23
118.0,8324.951925868027,-9881.236837057691,-24874.429389766385,-23888.404534864967,16452.69441040688,7818.796672677598,30741.047053461916,50804.039931778905,0.0,0.0,0.0,193.0,0.0,192.0,0.0,0.0,0.0,178.0,192.0,0.0,178.0,1744418710.685147,0.0,2025-04-11 20:45:10.685,BACKWARD,23
119.0,8327.835300902761,-9883.740232436685,-24910.750974506256,-23863.19176711938,16329.491594969226,7850.692612015321,30602.689755283565,50741.879730448694,0.0,0.0,0.0,193.0,0.0,193.0,0.0,0.0,0.0,179.0,193.0,0.0,179.0,1744418710.685176,0.0,2025-04-11 20:45:10.685,BACKWARD,23
120.0,8341.31340280931,-9861.05321181455,-24914.97545420831,-23836.548487728654,16261.877567991922,8067.884512887539,30333.731214252857,50846.10591484379,0.0,0.0,0.0,193.0,0.0,192.0,0.0,0.0,0.0,178.0,192.0,0.0,178.0,1744418710.6852047,0.0,2025-04-11 20:45:10.685,BACKWARD,23
121.0,8346.342545311754,-9870.016261341127,-24865.287526284163,-23842.47170000931,16396.01038646822,8051.947719090906,30371.68447633797,50879.812345482394,0.0,0.0,0.0,193.0,0.0,193.0,0.0,0.0,0.0,179.0,193.0,0.0,179.0,1744418710.6852458,0.0,2025-04-11 20:45:10.685,BACKWARD,23
122.0,8331.45628350452,-9904.19207861329,-24874.31763104411,-23887.979851720316,16470.128771082018,7852.614862038477,30731.100527179307,50814.05351329488,0.0,0.0,0.0,193.0,0.0,193.0,0.0,0.0,0.0,178.0,193.0,0.0,178.0,1744418710.6852748,0.0,2025-04-11 20:45:10.685,BACKWARD,23
123.0,8353.740972726462,-9875.358328265946,-24895.30591908764,-23858.96728741733,16359.509987772703,7813.432254008324,30640.419499924126,50715.236451057965,0.0,0.0,0.0,193.0,0.0,193.0,0.0,0.0,0.0,179.0,193.0,0.0,179.0,1744418710.6853037,0.0,2025-04-11 20:45:10.685,BACKWARD,23
124.0,8355.886740194172,-9849.653822142342,-24907.30880586014,-23822.176316043893,16264.60448081547,8053.333527247135,30362.58731634466,50801.447129422086,0.0,0.0,0.0,193.0,0.0,193.0,0.0,0.0,0.0,178.0,193.0,0.0,178.0,1744418710.6853328,0.0,2025-04-11 20:45:10.685,BACKWARD,23
125.0,8362.70402225304,-9853.85595009994,-24863.298221027642,-23826.28903702367,16356.604260993512,8081.630835727554,30312.56411225368,50859.71812721707,0.0,0.0,0.0,193.0,0.0,193.0,0.0,0.0,0.0,179.0,193.0,0.0,179.0,1744418710.6853724,0.0,2025-04-11 20:45:10.685,BACKWARD,23
126.0,8346.811931945316,-9880.633339957398,-24852.92701160038,-23870.970174189828,16484.813867189154,7914.260973246214,30695.6953639621,50832.18077804813,0.0,0.0,0.0,193.0,0.0,193.0,0.0,0.0,0.0,179.0,193.0,0.0,179.0,1744418710.6854014,0.0,2025-04-11 20:45:10.685,BACKWARD,23
127.0,8336.060742862313,-9857.588691423976,-24890.29912832965,-23867.72917124381,16386.868522986,7799.663579423855,30684.318326034347,50715.50467199143,0.0,0.0,0.0,193.0,0.0,193.0,0.0,0.0,0.0,178.0,193.0,0.0,178.0,1744418710.6854303,0.0,2025-04-11 20:45:10.685,BACKWARD,23
128.0,8332.015077115902,-9836.488644658166,-24918.9317129769,-23842.963438387327,16278.194341444296,8024.3656664330565,30438.69500621498,50799.703693354575,0.0,0.0,0.0,193.0,0.0,193.0,0.0,0.0,0.0,179.0,193.0,0.0,179.0,1744418710.6854591,0.0,2025-04-11 20:45:10.685,BACKWARD,23
129.0,8353.539807026364,-9830.654839355331,-24875.055238611134,-23834.00038886075,16329.916278113877,8075.618216469075,30289.832388142633,50855.22542658156,0.0,0.0,0.0,193.0,0.0,192.0,0.0,0.0,0.0,178.0,192.0,0.0,178.0,1744418710.6854882,0.0,2025-04-11 20:45:10.685,BACKWARD,23
130.0,8339.614670230707,-9867.33405200649,-24856.525642457684,-23870.456084067355,16483.293948566192,7943.385296271479,30637.379662678202,50840.249757796504,0.0,0.0,0.0,193.0,0.0,193.0,0.0,0.0,0.0,179.0,193.0,0.0,179.0,1744418710.6855173,0.0,2025-04-11 20:45:10.685,BACKWARD,23
131.0,8337.871234163194,-9882.801459169563,-24893.8754074425,-23879.329726616113,16402.09006096006,7773.444983177779,30698.46698027456,50707.12276782069,0.0,0.0,0.0,193.0,0.0,192.0,0.0,1.0,0.0,178.0,192.0,1.0,178.0,1744418710.6855462,0.0,2025-04-11 20:45:10.685,BACKWARD,23
132.0,8346.655469734129,-9858.549816435554,-24908.180523893898,-23840.63885696398,16290.308986939071,7966.184075615893,30452.97777092192,50748.80877122984,0.0,0.0,0.0,193.0,0.0,193.0,0.0,2.0,0.0,179.0,193.0,2.0,179.0,1744418710.6855762,0.0,2025-04-11 20:45:10.685,BACKWARD,23
133.0,8364.290996109366,-9836.421589424801,-24868.97556411929,-23824.277380022693,16314.672388395356,8098.662865002498,30236.456422383362,50839.17687406264,0.0,0.0,0.0,193.0,0.0,192.0,0.0,3.0,0.0,178.0,192.0,3.0,178.0,1744418710.6856058,0.0,2025-04-11 20:45:10.685,BACKWARD,23
134.0,8348.957699413026,-9866.417630483822,-24842.0640637951,-23860.420150806924,16489.6418439915,8003.1762126894255,30531.879428849155,50861.439211540135,0.0,0.0,0.0,193.0,0.0,192.0,0.0,4.0,0.0,178.0,192.0,4.0,178.0,1744418710.685635,0.0,2025-04-11 20:45:10.685,BACKWARD,23
135.0,8349.114161624213,-9874.888941632384,-24874.87642465549,-23882.458970839856,16434.522442164714,7792.332207242514,30664.045293813386,50729.586270998276,0.0,0.0,0.0,193.0,0.0,193.0,0.0,5.0,0.0,179.0,193.0,5.0,179.0,1744418710.6856644,0.0,2025-04-11 20:45:10.685,BACKWARD,23
136.0,8343.258004576923,-9861.790819381575,-24908.426393082907,-23853.871089681517,16314.068891295063,7949.532025996688,30456.196422123485,50746.014803172926,0.0,0.0,0.0,193.0,0.0,192.0,0.0,7.0,0.0,178.0,192.0,7.0,178.0,1744418710.6857057,0.0,2025-04-11 20:45:10.685,BACKWARD,23
137.0,8351.863426192216,-9848.268013986113,-24895.417677809917,-23839.901249396953,16283.491704880204,8103.736710993852,30203.331137100595,50845.03303110994,0.0,0.0,0.0,193.0,0.0,193.0,0.0,7.0,0.0,179.0,193.0,7.0,179.0,1744418710.6857407,0.0,2025-04-11 20:45:10.685,BACKWARD,23
138.0,8337.088923107258,-9868.786915396086,-24849.350732487528,-23861.29186884068,16447.91113709344,8005.3443319015905,30407.246101766363,50860.232217339544,0.0,0.0,0.0,193.0,0.0,192.0,0.0,8.0,0.0,178.0,192.0,8.0,178.0,1744418710.6857705,0.0,2025-04-11 20:45:10.685,BACKWARD,23
139.0,8333.669106205596,-9870.843275885973,-24869.690819941858,-23888.605700565065,16454.77312264122,7789.649997907877,30637.558476633847,50746.75241073995,0.0,0.0,0.0,193.0,0.0,193.0,0.0,9.0,0.0,179.0,193.0,9.0,179.0,1744418710.6857998,0.0,2025-04-11 20:45:10.685,BACKWARD,23
140.0,8332.618574216196,-9851.844293098962,-24912.337948362583,-23865.583403776098,16328.865746124477,7875.793621038631,30472.13321592012,50723.573651739796,0.0,0.0,0.0,193.0,0.0,193.0,0.0,10.0,0.0,179.0,193.0,10.0,179.0,1744418710.685841,0.0,2025-04-11 20:45:10.685,BACKWARD,23
141.0,8357.227844861489,-9814.226307180681,-24904.425430825406,-23835.833231906086,16279.26722517815,8085.765908451785,30205.007517934744,50837.47814148404,0.0,0.0,0.0,193.0,0.0,193.0,0.0,10.0,0.0,179.0,193.0,10.0,179.0,1744418710.685871,0.0,2025-04-11 20:45:10.685,BACKWARD,23
142.0,8348.734181968473,-9836.46629291371,-24851.317685999595,-23847.947877400864,16433.740131108778,8043.92344283145,30317.794420456223,50872.65978725669,0.0,0.0,0.0,193.0,0.0,193.0,0.0,11.0,0.0,178.0,193.0,11.0,178.0,1744418710.6859004,0.0,2025-04-11 20:45:10.685,BACKWARD,23
143.0,8330.428103259575,-9872.899636375862,-24859.856052381525,-23878.659174282453,16484.277425322227,7834.420542051857,30625.957921261543,50785.376225158725,0.0,0.0,0.0,193.0,0.0,192.0,0.0,11.0,0.0,178.0,192.0,11.0,178.0,1744418710.68593,0.0,2025-04-11 20:45:10.685,BACKWARD,23
144.0,8326.74006542445,-9874.821886399019,-24907.085288415587,-23867.90798519945,16348.535281245147,7848.233920125237,30508.633614615635,50726.300564563346,0.0,0.0,0.0,193.0,0.0,193.0,0.0,12.0,0.0,179.0,193.0,12.0,179.0,1744418710.6859596,0.0,2025-04-11 20:45:10.685,BACKWARD,23
145.0,8346.387248800665,-9842.836540083474,-24908.60520703855,-23838.649551707455,16262.972803470231,8059.144980805515,30231.04730022518,50833.745400160005,0.0,0.0,0.0,193.0,0.0,193.0,0.0,12.0,0.0,178.0,193.0,12.0,178.0,1744418710.6859891,0.0,2025-04-11 20:45:10.685,BACKWARD,23
146.0,8363.106353653235,-9839.819054582007,-24850.58007843257,-23834.648589449953,16400.950121992842,8046.248024254803,30235.18237294941,50871.02810991146,0.0,0.0,0.0,193.0,0.0,193.0,0.0,12.0,0.0,179.0,193.0,12.0,179.0,1744418710.6860187,0.0,2025-04-11 20:45:10.686,BACKWARD,23
147.0,8341.693382465051,-9880.409822512845,-24863.141758816455,-23886.88461624201,16493.039309148706,7866.1153156894825,30607.674194297102,50829.65503092469,0.0,0.0,0.0,193.0,0.0,192.0,0.0,13.0,0.0,178.0,192.0,13.0,178.0,1744418710.6860485,0.0,2025-04-11 20:45:10.686,BACKWARD,23
148.0,8348.242443590456,-9861.410839725833,-24899.530398789695,-23872.378334090514,16376.43025832537,7793.449794465279,30528.437260203038,50721.71845695001,0.0,0.0,0.0,193.0,0.0,193.0,0.0,13.0,0.0,179.0,193.0,13.0,179.0,1744418710.686078,0.0,2025-04-11 20:45:10.686,BACKWARD,23
149.0,8362.055821663836,-9820.931830517273,-24908.538151805184,-23836.995522617763,16291.068946250552,8026.086750756115,30252.817899324647,50808.66674288115,0.0,0.0,0.0,193.0,0.0,193.0,0.0,13.0,0.0,178.0,193.0,13.0,178.0,1744418710.686108,0.0,2025-04-11 20:45:10.686,BACKWARD,23
150.0,8383.46879285202,-9790.756975502609,-24853.44110172285,-23822.355129999534,16377.883121714965,8064.196475052414,30161.712188924816,50855.38188879274,0.0,0.0,0.0,193.0,0.0,193.0,0.0,14.0,0.0,179.0,193.0,14.0,179.0,1744418710.6861377,0.0,2025-04-11 20:45:10.686,BACKWARD,23
151.0,8364.156885642635,-9847.642165141364,-24855.117482556998,-23872.19952013487,16494.067489393652,7929.2142902868145,30549.514955224393,50842.909615386685,0.0,0.0,0.0,193.0,0.0,192.0,0.0,14.0,0.0,178.0,192.0,14.0,178.0,1744418710.6861796,0.0,2025-04-11 20:45:10.686,BACKWARD,23
152.0,8343.861501677216,-9861.164970536825,-24909.946311705866,-23882.950709217872,16369.210644866305,7792.265152009149,30541.33421675375,50710.430826000076,0.0,0.0,0.0,193.0,0.0,192.0,0.0,14.0,0.0,178.0,192.0,14.0,178.0,1744418710.6862097,0.0,2025-04-11 20:45:10.686,BACKWARD,23
153.0,8333.020905616391,-9842.814188339018,-24929.54879159317,-23847.52319425621,16271.578225085525,8016.184927962414,30294.7497719228,50790.472422894534,0.0,0.0,0.0,193.0,0.0,193.0,0.0,14.0,0.0,179.0,193.0,14.0,179.0,1744418710.6862395,0.0,2025-04-11 20:45:10.686,BACKWARD,23
154.0,8353.338641326267,-9828.106740487427,-24880.665526469413,-23830.692330681366,16321.08733905403,8094.304274833713,30135.091261278543,50866.602464509306,0.0,0.0,0.0,193.0,0.0,192.0,0.0,14.0,0.0,178.0,192.0,14.0,178.0,1744418710.6862693,0.0,2025-04-11 20:45:10.686,BACKWARD,23
155.0,8335.390190528655,-9866.61879618392,-24853.77637788968,-23872.62420327952,16485.752640456278,7961.803133702652,30474.435445599014,50854.241949825526,0.0,0.0,0.0,193.0,0.0,193.0,0.0,15.0,0.0,179.0,193.0,15.0,179.0,1744418710.6863103,0.0,2025-04-11 20:45:10.686,BACKWARD,23
156.0,8334.786693428361,-9868.563397951531,-24894.188331864876,-23884.291813885193,16410.427261641893,7778.787050102598,30561.13786234115,50723.95363139554,0.0,0.0,0.0,193.0,0.0,192.0,0.0,15.0,0.0,178.0,192.0,15.0,178.0,1744418710.68634,0.0,2025-04-11 20:45:10.686,BACKWARD,23
157.0,8341.626327231685,-9848.647993641853,-24920.205762410853,-23843.72339769881,16303.898847567898,7975.415346075934,30329.774955484267,50763.94090222608,0.0,0.0,0.0,193.0,0.0,192.0,0.0,15.0,0.0,178.0,192.0,15.0,178.0,1744418710.6863697,0.0,2025-04-11 20:45:10.686,BACKWARD,23
158.0,8355.551464027341,-9832.75590333413,-24899.15041913395,-23835.944990628363,16296.70158585329,8110.4645860749,30113.25360694571,50851.91736840217,0.0,0.0,0.0,193.0,0.0,193.0,0.0,15.0,0.0,179.0,193.0,15.0,179.0,1744418710.6863992,0.0,2025-04-11 20:45:10.686,BACKWARD,23
159.0,8344.196777844045,-9854.258281500135,-24861.264212282207,-23865.941031687384,16454.92958485241,8001.432776621912,30390.147017258052,50861.52861851795,0.0,0.0,0.0,193.0,0.0,192.0,0.0,15.0,0.0,178.0,192.0,15.0,178.0,1744418710.6864288,0.0,2025-04-11 20:45:10.686,BACKWARD,23
160.0,8342.967431899004,-9857.655746657341,-24889.31565157362,-23892.651366311475,16440.222137000816,7785.850201350475,30550.52078372488,50726.568785496806,0.0,0.0,0.0,193.0,0.0,193.0,0.0,15.0,0.0,179.0,193.0,15.0,179.0,1744418710.6864588,0.0,2025-04-11 20:45:10.686,BACKWARD,23
161.0,8349.89647268015,-9836.488644658166,-24916.02598619771,-23858.72141822832,16329.648057180413,7926.263860018714,30344.81767950269,50722.05373311684,0.0,0.0,0.0,193.0,0.0,193.0,0.0,15.0,0.0,179.0,193.0,15.0,179.0,1744418710.6864884,0.0,2025-04-11 20:45:10.686,BACKWARD,23
162.0,8371.935292713082,-9810.873545512384,-24896.02117491021,-23831.34053127057,16290.89013229491,8104.4296150719665,30088.085542689034,50825.51995820045,0.0,0.0,0.0,193.0,0.0,193.0,0.0,15.0,0.0,179.0,193.0,15.0,179.0,1744418710.686518,0.0,2025-04-11 20:45:10.686,BACKWARD,23
163.0,8342.565100498809,-9849.653822142342,-24858.045561080642,-23855.86039493804,16441.183262012393,8021.415236164956,30297.14140857952,50863.27205458547,0.0,0.0,0.0,193.0,0.0,193.0,0.0,15.0,0.0,179.0,193.0,15.0,179.0,1744418710.6865475,0.0,2025-04-11 20:45:10.686,BACKWARD,23
164.0,8328.349391025233,-9873.123153820414,-24881.06785786961,-23891.35496513307,16434.947125309365,7788.39830021838,30558.6121152177,50764.92437898212,0.0,0.0,0.0,193.0,0.0,193.0,0.0,15.0,0.0,178.0,193.0,15.0,178.0,1744418710.686577,0.0,2025-04-11 20:45:10.686,BACKWARD,23
165.0,8332.439760260553,-9847.642165141364,-24906.101811659555,-23856.329781571603,16338.61110670699,7856.861693484985,30409.503627956346,50736.649422246155,0.0,0.0,0.0,193.0,0.0,192.0,0.0,15.0,0.0,178.0,192.0,15.0,178.0,1744418710.686607,0.0,2025-04-11 20:45:10.686,BACKWARD,23
166.0,8343.83914993276,-9823.837557296463,-24902.771401735714,-23830.558220214632,16271.287652407605,8067.54923672071,30149.418729474397,50849.16810383417,0.0,0.0,0.0,193.0,0.0,193.0,0.0,16.0,0.0,179.0,193.0,16.0,179.0,1744418710.6866484,0.0,2025-04-11 20:45:10.686,BACKWARD,23
167.0,8349.56119651332,-9840.154330748837,-24848.43431096486,-23843.81280467663,16405.800450539642,8036.547367161199,30230.577913591616,50871.296330844925,0.0,0.0,0.0,193.0,0.0,192.0,0.0,16.0,0.0,179.0,192.0,16.0,179.0,1744418710.6866784,0.0,2025-04-11 20:45:10.686,BACKWARD,23
168.0,8336.306612051321,-9864.025993827105,-24867.947383874343,-23897.233473924814,16469.97230887083,7843.36123983398,30564.021237375884,50793.825184562826,0.0,0.0,0.0,193.0,0.0,193.0,0.0,16.0,0.0,179.0,193.0,16.0,179.0,1744418710.686708,0.0,2025-04-11 20:45:10.686,BACKWARD,23
169.0,8333.579699227774,-9856.76167687913,-24900.78209647919,-23869.29379335568,16373.47982805727,7844.79175147912,30443.99236965089,50709.380294010676,0.0,0.0,0.0,193.0,0.0,193.0,0.0,16.0,0.0,179.0,193.0,16.0,179.0,1744418710.6867378,0.0,2025-04-11 20:45:10.686,BACKWARD,23
170.0,8334.607879472718,-9839.930813304283,-24910.50510531725,-23838.53779298518,16296.053385264086,8075.349995535612,30172.86570940801,50815.55108017338,0.0,0.0,0.0,193.0,0.0,193.0,0.0,16.0,0.0,179.0,193.0,16.0,179.0,1744418710.6867783,0.0,2025-04-11 20:45:10.686,BACKWARD,23
171.0,8353.495103537452,-9839.126150503893,-24861.375971004483,-23836.05674935064,16412.21540119832,8067.973919865361,30156.884212122466,50852.02912712445,0.0,0.0,0.0,193.0,0.0,193.0,0.0,16.0,0.0,179.0,193.0,16.0,179.0,1744418710.686808,0.0,2025-04-11 20:45:10.686,BACKWARD,23
172.0,8333.065609105302,-9880.342767279479,-24866.583927462572,-23883.509502829256,16505.89156221051,7883.281455431159,30527.319672980273,50808.28676322541,0.0,0.0,0.0,193.0,0.0,193.0,0.0,16.0,0.0,178.0,193.0,16.0,178.0,1744418710.6868377,0.0,2025-04-11 20:45:10.686,BACKWARD,23
173.0,8332.12683583818,-9861.56730193702,-24898.032831911187,-23874.613508536044,16383.895740973443,7796.690797411299,30468.869861229643,50703.23356428547,0.0,0.0,0.0,193.0,0.0,192.0,0.0,16.0,0.0,178.0,192.0,16.0,178.0,1744418710.6868672,0.0,2025-04-11 20:45:10.686,BACKWARD,23
174.0,8336.552481240331,-9825.156310219325,-24919.043471699177,-23844.90804015494,16264.984460471209,8029.484215913322,30205.186331890385,50796.17211773063,0.0,0.0,0.0,193.0,0.0,193.0,0.0,16.0,0.0,179.0,193.0,16.0,179.0,1744418710.686897,0.0,2025-04-11 20:45:10.686,BACKWARD,23
175.0,8358.256025106433,-9821.4682723842,-24862.76177916071,-23827.00429284624,16333.716074671278,8071.416088511478,30086.252699643697,50848.11757184477,0.0,0.0,0.0,193.0,0.0,193.0,0.0,16.0,0.0,179.0,193.0,16.0,179.0,1744418710.6869268,0.0,2025-04-11 20:45:10.686,BACKWARD,23
176.0,8335.144321339647,-9878.375813767412,-24849.462491209804,-23872.49009281279,16484.5903497446,7927.4708542193,30464.6900850165,50836.42760949464,0.0,0.0,0.0,193.0,0.0,192.0,0.0,16.0,0.0,178.0,192.0,16.0,178.0,1744418710.6869562,0.0,2025-04-11 20:45:10.686,BACKWARD,23
177.0,8336.261908562412,-9876.721784677718,-24895.30591908764,-23888.650404053977,16392.00942421072,7771.165105243338,30479.017553212354,50707.011009098416,0.0,0.0,0.0,193.0,0.0,193.0,0.0,16.0,0.0,179.0,193.0,16.0,179.0,1744418710.686986,0.0,2025-04-11 20:45:10.686,BACKWARD,23
178.0,8350.3211558248,-9843.417685439312,-24918.618788554526,-23853.513461770235,16288.118515982453,7992.380320117512,30225.168791433432,50771.76401278544,0.0,0.0,0.0,193.0,0.0,193.0,0.0,16.0,0.0,179.0,193.0,16.0,179.0,1744418710.6870284,0.0,2025-04-11 20:45:10.687,BACKWARD,23
179.0,8352.153998870135,-9818.696656071741,-24874.29527929965,-23839.118938341016,16335.772435161167,8100.339245836645,30060.637600497914,50857.102973115805,0.0,0.0,0.0,193.0,0.0,193.0,0.0,16.0,0.0,179.0,193.0,16.0,179.0,1744418710.6870568,0.0,2025-04-11 20:45:10.687,BACKWARD,23
180.0,8324.303725278822,-9856.247586756657,-24847.62964816447,-23872.758313746253,16496.995567917296,7981.405613589956,30395.086752782674,50854.42076378116,0.0,0.0,0.0,193.0,0.0,193.0,0.0,16.0,0.0,179.0,193.0,16.0,179.0,1744418710.6870854,0.0,2025-04-11 20:45:10.687,BACKWARD,23
181.0,8313.418425729087,-9883.963749881239,-24891.7743434637,-23896.786439035706,16413.623561099,7775.68015762331,30491.355716151684,50719.595041226756,0.0,0.0,0.0,193.0,0.0,193.0,0.0,16.0,0.0,178.0,193.0,16.0,178.0,1744418710.6871257,0.0,2025-04-11 20:45:10.687,BACKWARD,23
182.0,8323.208489800512,-9859.957976336238,-24909.141648905475,-23849.691313468375,16297.953283542787,7943.05002010465,30270.207556510875,50757.16832365612,0.0,0.0,0.0,193.0,0.0,192.0,0.0,16.0,0.0,178.0,192.0,16.0,178.0,1744418710.6871545,0.0,2025-04-11 20:45:10.687,BACKWARD,23
183.0,8354.053897148837,-9837.539176647566,-24874.429389766385,-23822.53394395518,16295.338129441516,8091.733824221352,30039.403443265375,50842.26141479748,0.0,0.0,0.0,193.0,0.0,193.0,0.0,16.0,0.0,179.0,193.0,16.0,179.0,1744418710.6871836,0.0,2025-04-11 20:45:10.687,BACKWARD,23
184.0,8328.908184636615,-9876.38650851089,-24842.86872659549,-23861.24716535177,16456.851834875564,8007.53480285821,30314.776934954756,50859.78518245044,0.0,0.0,0.0,193.0,0.0,192.0,0.0,16.0,0.0,178.0,192.0,16.0,178.0,1744418710.687212,0.0,2025-04-11 20:45:10.687,BACKWARD,23
185.0,8316.391207741644,-9889.596389483975,-24881.201968336343,-23896.16059019096,16416.417529155915,7790.253495008171,30504.27502444685,50733.43077104459,0.0,0.0,0.0,193.0,0.0,192.0,0.0,17.0,0.0,178.0,192.0,17.0,178.0,1744418710.687251,0.0,2025-04-11 20:45:10.687,BACKWARD,23
186.0,8328.528204980876,-9860.628528669899,-24902.905512202444,-23848.752540201254,16322.786071632634,7915.04328430215,30306.126809850553,50721.76316043892,0.0,0.0,0.0,193.0,0.0,193.0,0.0,16.0,0.0,179.0,193.0,16.0,179.0,1744418710.68728,0.0,2025-04-11 20:45:10.687,BACKWARD,23
187.0,8336.440722518055,-9837.829749325485,-24892.064916141622,-23834.089795838572,16299.27203646565,8106.642437773042,30061.956353420777,50834.1477315602,0.0,0.0,0.0,193.0,0.0,192.0,0.0,17.0,0.0,178.0,192.0,17.0,178.0,1744418710.6873088,0.0,2025-04-11 20:45:10.687,BACKWARD,23
188.0,8332.529167238376,-9857.275767001602,-24847.897869097935,-23848.663133223432,16452.761465640244,8035.854463083085,30235.18237294941,50859.472258028065,0.0,0.0,0.0,193.0,0.0,192.0,0.0,16.0,0.0,179.0,192.0,16.0,179.0,1744418710.6873376,0.0,2025-04-11 20:45:10.687,BACKWARD,23
189.0,8319.587507198752,-9882.868514402928,-24878.296241557153,-23887.219892408837,16453.87905286301,7803.485727725712,30511.248768716905,50752.07212592031,0.0,0.0,0.0,193.0,0.0,193.0,0.0,17.0,0.0,178.0,193.0,17.0,178.0,1744418710.6873665,0.0,2025-04-11 20:45:10.687,BACKWARD,23
190.0,8323.052027589325,-9848.670345386308,-24907.442916326872,-23857.402665305457,16334.744254916222,7847.161036391382,30352.841955762146,50692.19180252455,0.0,0.0,0.0,193.0,0.0,192.0,0.0,17.0,0.0,178.0,192.0,17.0,178.0,1744418710.6874087,0.0,2025-04-11 20:45:10.687,BACKWARD,23
191.0,8341.246347575945,-9813.958086247218,-24896.848189455057,-23821.304598010138,16282.195303701796,8066.230483797847,30085.157464165386,50801.67064686664,0.0,0.0,0.0,193.0,0.0,193.0,0.0,16.0,0.0,179.0,193.0,16.0,179.0,1744418710.6874375,0.0,2025-04-11 20:45:10.687,BACKWARD,23
192.0,8331.590393971252,-9859.063906558027,-24856.950325602334,-23839.677731952397,16418.809165812632,8049.600785923099,30179.772398444704,50852.6549759692,0.0,0.0,0.0,193.0,0.0,193.0,0.0,17.0,0.0,179.0,193.0,17.0,179.0,1744418710.6874664,0.0,2025-04-11 20:45:10.687,BACKWARD,23
193.0,8318.425216487076,-9897.95594191026,-24871.724828687293,-23884.492979585288,16471.268710049237,7853.0842486720385,30529.24192300343,50785.53268736991,0.0,0.0,0.0,193.0,0.0,192.0,0.0,17.0,0.0,178.0,192.0,17.0,178.0,1744418710.6874955,0.0,2025-04-11 20:45:10.687,BACKWARD,23
194.0,8322.582640955763,-9867.110534561936,-24902.16790463542,-23863.214118863838,16339.840452652033,7835.873405441453,30423.45111649646,50696.8186136268,0.0,0.0,0.0,193.0,0.0,192.0,0.0,17.0,0.0,178.0,192.0,17.0,178.0,1744418710.687524,0.0,2025-04-11 20:45:10.687,BACKWARD,23
195.0,8324.88487063466,-9846.256356985135,-24915.534247819694,-23835.81088016163,16238.899974691865,8060.776658150752,30151.54214519765,50798.56375438735,0.0,0.0,0.0,193.0,0.0,192.0,0.0,17.0,0.0,178.0,192.0,17.0,178.0,1744418710.6875527,0.0,2025-04-11 20:45:10.687,BACKWARD,23
196.0,8338.094751607747,-9852.023107054605,-24854.78220639017,-23828.166583557915,16356.358391804504,8063.078887829649,30107.66567083188,50838.93100487364,0.0,0.0,0.0,193.0,0.0,192.0,0.0,17.0,0.0,179.0,192.0,17.0,179.0,1744418710.6875813,0.0,2025-04-11 20:45:10.687,BACKWARD,23
197.0,8322.627344444674,-9890.199886584269,-24847.674351653382,-23868.57853753311,16491.854666692576,7902.481603918267,30493.233262685928,50805.26927772394,0.0,0.0,0.0,193.0,0.0,193.0,0.0,17.0,0.0,179.0,193.0,17.0,179.0,1744418710.687622,0.0,2025-04-11 20:45:10.687,BACKWARD,23
198.0,8317.374684497678,-9878.487572489688,-24891.483770785784,-23868.936165444396,16380.386517093959,7804.156280059372,30456.576401779224,50688.63787515615,0.0,0.0,0.0,193.0,0.0,192.0,0.0,17.0,0.0,178.0,192.0,17.0,178.0,1744418710.687651,0.0,2025-04-11 20:45:10.687,BACKWARD,23
199.0,8321.50975722191,-9842.970650550205,-24909.566332050126,-23841.175298830905,16272.964033241755,8037.083809028127,30200.872445210513,50785.39857690318,0.0,0.0,0.0,193.0,0.0,193.0,0.0,17.0,0.0,179.0,193.0,17.0,179.0,1744418710.6876795,0.0,2025-04-11 20:45:10.687,BACKWARD,23
200.0,8348.778885457383,-9824.508109630122,-24859.92310761489,-23823.04803407765,16351.508063257703,8086.592922996631,30081.96116470828,50845.86004565478,0.0,0.0,0.0,193.0,0.0,192.0,0.0,17.0,0.0,179.0,192.0,17.0,179.0,1744418710.6877224,0.0,2025-04-11 20:45:10.687,BACKWARD,23
201.0,8325.957754368515,-9879.873380645917,-24848.59077317605,-23866.589232276587,16499.92364644094,7941.61950845951,30463.818366982745,50840.07094384086,0.0,0.0,0.0,193.0,0.0,192.0,0.0,17.0,0.0,178.0,192.0,17.0,178.0,1744418710.6877515,0.0,2025-04-11 20:45:10.687,BACKWARD,23
202.0,8318.268754275889,-9873.391374753879,-24884.845302682555,-23864.734037486796,16409.86846803051,7796.936666600307,30503.045678501807,50709.69321843305,0.0,0.0,0.0,193.0,0.0,193.0,0.0,17.0,0.0,179.0,193.0,17.0,179.0,1744418710.6877804,0.0,2025-04-11 20:45:10.687,BACKWARD,23
203.0,8317.955829853516,-9852.00075531015,-24919.49050658828,-23838.113109840528,16290.17487647234,8008.093596469593,30270.296963488694,50769.46178310654,0.0,0.0,0.0,193.0,0.0,193.0,0.0,17.0,0.0,178.0,193.0,17.0,178.0,1744418710.6878092,0.0,2025-04-11 20:45:10.687,BACKWARD,23
204.0,8340.307574308823,-9845.921080818305,-24880.531416002683,-23826.311388768125,16316.728748885245,8099.758100480807,30088.309060133586,50843.26724329797,0.0,0.0,0.0,193.0,0.0,192.0,0.0,17.0,0.0,179.0,192.0,17.0,179.0,1744418710.687838,0.0,2025-04-11 20:45:10.687,BACKWARD,23
205.0,8308.411634971098,-9899.118232621937,-24856.950325602334,-23871.126636401015,16471.5369309827,7967.413421560935,30414.64452918107,50846.821170666364,0.0,0.0,0.0,193.0,0.0,193.0,0.0,17.0,0.0,179.0,193.0,17.0,179.0,1744418710.6878667,0.0,2025-04-11 20:45:10.687,BACKWARD,23
206.0,8303.918934335583,-9906.069625147536,-24885.0241166382,-23890.684412799408,16402.514744104712,7761.799724316565,30518.17780949805,50698.249125271934,0.0,0.0,0.0,193.0,0.0,193.0,0.0,17.0,0.0,179.0,193.0,17.0,179.0,1744418711.163462,0.0,2025-04-11 20:45:11.163,BACKWARD,23
207.0,8310.892678605638,-9884.299026048067,-24918.70819553235,-23852.19470884737,16275.802704787578,7922.70993265032,30292.939280621922,50712.95657312353,0.0,0.0,0.0,193.0,0.0,192.0,0.0,17.0,0.0,179.0,192.0,17.0,179.0,1744418711.1636002,0.0,2025-04-11 20:45:11.163,BACKWARD,23
208.0,8329.511681736909,-9855.509979189632,-24892.15432311944,-23828.770080658207,16267.778428528123,8080.066213615682,30058.357722563473,50810.38782720421,0.0,0.0,0.0,193.0,0.0,193.0,0.0,17.0,0.0,179.0,193.0,17.0,179.0,1744418711.1636395,0.0,2025-04-11 20:45:11.163,BACKWARD,23
209.0,8317.195870542035,-9873.950168365262,-24842.600505662027,-23851.233583835794,16454.795474385675,8001.522183599733,30306.439734272928,50836.69583042811,0.0,0.0,0.0,193.0,0.0,193.0,0.0,17.0,0.0,179.0,193.0,17.0,179.0,1744418711.163676,0.0,2025-04-11 20:45:11.163,BACKWARD,23
210.0,8301.639056401142,-9902.225125101224,-24884.97941314929,-23896.898197757986,16426.028779271695,7794.254457265671,30520.815315343778,50723.66305871762,0.0,0.0,0.0,193.0,0.0,193.0,0.0,17.0,0.0,178.0,193.0,17.0,178.0,1744418711.1637125,0.0,2025-04-11 20:45:11.163,BACKWARD,23
211.0,8311.250306516922,-9882.510886491644,-24918.50702983225,-23858.743769972774,16305.888152824422,7895.127879992471,30321.884789691543,50694.1140525477,0.0,0.0,0.0,193.0,0.0,193.0,0.0,17.0,0.0,179.0,193.0,17.0,179.0,1744418711.1637478,0.0,2025-04-11 20:45:11.163,BACKWARD,23
212.0,8324.59429795674,-9857.901615846351,-24903.285491858183,-23827.987769602274,16284.877513036432,8100.182783625458,30060.302324331085,50801.55888814436,0.0,0.0,0.0,193.0,0.0,193.0,0.0,17.0,0.0,179.0,193.0,17.0,179.0,1744418711.1638381,0.0,2025-04-11 20:45:11.163,BACKWARD,23
213.0,8314.826585629771,-9881.415651013333,-24861.77830240468,-23858.229679850305,16446.011238814743,8054.540521447721,30226.152268189464,50838.215749051065,0.0,0.0,0.0,193.0,0.0,193.0,0.0,17.0,0.0,178.0,193.0,17.0,178.0,1744418711.1638756,0.0,2025-04-11 20:45:11.163,BACKWARD,23
214.0,8289.658521373096,-9913.356293839966,-24896.803485966146,-23906.82237229614,16450.794512128177,7834.040562396117,30531.544152682323,50754.93314921059,0.0,0.0,0.0,193.0,0.0,193.0,0.0,17.0,0.0,179.0,193.0,17.0,179.0,1744418711.1639109,0.0,2025-04-11 20:45:11.163,BACKWARD,23
215.0,8309.037483815848,-9882.577941725009,-24920.92101823342,-23870.746656745276,16328.530469957648,7850.066763170572,30371.34920017114,50686.40270071062,0.0,0.0,0.0,193.0,0.0,193.0,0.0,17.0,0.0,179.0,193.0,17.0,179.0,1744418711.1639462,0.0,2025-04-11 20:45:11.163,BACKWARD,23
216.0,8318.514623464898,-9864.204807782748,-24915.131916419497,-23841.845851164562,16273.41106813086,8067.973919865361,30095.439266614827,50786.203239703565,0.0,0.0,0.0,193.0,0.0,193.0,0.0,17.0,0.0,179.0,193.0,17.0,179.0,1744418711.163998,0.0,2025-04-11 20:45:11.163,BACKWARD,23
217.0,8318.469919975987,-9886.511848749144,-24867.232128051775,-23848.19374658987,16396.52447659069,8053.467637713867,30153.754967898723,50828.76096114647,0.0,0.0,0.0,193.0,0.0,193.0,0.0,17.0,0.0,179.0,193.0,17.0,179.0,1744418711.1640337,0.0,2025-04-11 20:45:11.164,BACKWARD,23
218.0,8311.384416983654,-9908.125985637425,-24871.098979842543,-23881.319031872634,16467.558320469656,7855.878216728952,30504.006803513388,50766.5337045829,0.0,0.0,0.0,193.0,0.0,193.0,0.0,17.0,0.0,179.0,193.0,17.0,179.0,1744418711.164069,0.0,2025-04-11 20:45:11.164,BACKWARD,23
219.0,8314.156033296113,-9886.824773171518,-24907.01823318222,-23863.86231945304,16358.772380205677,7820.294239556103,30407.44726746646,50673.706909860004,0.0,0.0,0.0,193.0,0.0,193.0,0.0,17.0,0.0,178.0,193.0,17.0,178.0,1744418711.1641042,0.0,2025-04-11 20:45:11.164,BACKWARD,23
220.0,8317.777015897873,-9868.921025862817,-24924.20672466835,-23839.856545908042,16273.7910477866,8043.4987596867995,30144.769566627692,50774.043890719884,0.0,0.0,0.0,193.0,0.0,193.0,0.0,17.0,0.0,179.0,193.0,17.0,179.0,1744418711.1641395,0.0,2025-04-11 20:45:11.164,BACKWARD,23
221.0,8325.443664246042,-9866.261168272635,-24862.739427416258,-23835.788528417175,16363.041563396642,8052.350050491101,30089.0019642117,50819.35087673079,0.0,0.0,0.0,193.0,0.0,193.0,0.0,17.0,0.0,179.0,193.0,17.0,179.0,1744418711.1641748,0.0,2025-04-11 20:45:11.164,BACKWARD,23
222.0,8309.149242538124,-9899.3864535554,-24855.38570349046,-23876.15577890346,16480.052945620173,7891.976284024273,30458.655114013567,50784.99624550298,0.0,0.0,0.0,193.0,0.0,193.0,0.0,17.0,0.0,178.0,193.0,17.0,178.0,1744418711.1642108,0.0,2025-04-11 20:45:11.164,BACKWARD,23
223.0,8300.901448834116,-9903.029787901616,-24899.35158483405,-23876.11107541455,16386.980281708275,7795.617913677444,30429.441384010483,50662.97807252146,0.0,0.0,0.0,193.0,0.0,193.0,0.0,17.0,0.0,179.0,193.0,17.0,179.0,1744418711.1642523,0.0,2025-04-11 20:45:11.164,BACKWARD,23
224.0,8309.573925682775,-9878.152296322858,-24921.21159091134,-23843.4775285098,16282.932911268821,8034.759227604774,30189.853035194046,50750.976890442005,0.0,0.0,0.0,193.0,0.0,192.0,0.0,17.0,0.0,179.0,192.0,17.0,179.0,1744418711.1642923,0.0,2025-04-11 20:45:11.164,BACKWARD,23
225.0,8332.752684682928,-9856.113476289926,-24874.54114848866,-23830.446461492356,16340.153377074406,8093.298446333224,30065.1973563668,50816.80277786288,0.0,0.0,0.0,193.0,0.0,193.0,0.0,17.0,0.0,179.0,193.0,17.0,179.0,1744418711.1643353,0.0,2025-04-11 20:45:11.164,BACKWARD,23
226.0,8300.275599989367,-9902.29218033459,-24858.134968058464,-23875.32876435861,16493.240474848804,7944.368773027512,30431.944779389476,50818.367399974755,0.0,0.0,0.0,193.0,0.0,193.0,0.0,17.0,0.0,179.0,193.0,17.0,179.0,1744418711.1643844,0.0,2025-04-11 20:45:11.164,BACKWARD,23
227.0,8296.006416798404,-9906.874287947929,-24891.372012063508,-23883.53185457371,16420.172622224407,7780.508134425657,30476.000067710887,50690.38131122367,0.0,0.0,0.0,193.0,0.0,192.0,0.0,17.0,0.0,178.0,192.0,17.0,178.0,1744418711.1645448,0.0,2025-04-11 20:45:11.164,BACKWARD,23
228.0,8290.619646384674,-9895.34078780899,-24923.02208221222,-23848.327857056604,16311.677254638345,7991.173325916926,30241.55262011917,50753.972024199014,0.0,0.0,0.0,193.0,0.0,193.0,0.0,17.0,0.0,179.0,193.0,17.0,179.0,1744418711.1645985,0.0,2025-04-11 20:45:11.164,BACKWARD,23
229.0,8308.79161462684,-9872.810229398041,-24890.25442484074,-23825.909057367928,16308.79387960361,8108.497632562832,30034.687225185306,50833.96891760456,0.0,0.0,0.0,193.0,0.0,192.0,0.0,17.0,0.0,179.0,192.0,17.0,179.0,1744418711.1646302,0.0,2025-04-11 20:45:11.164,BACKWARD,23
230.0,8296.431099943055,-9907.634247259408,-24860.05721808162,-23865.71751424283,16460.29400352168,7997.63298006451,30342.917781223987,50849.3022143009,0.0,0.0,0.0,193.0,0.0,192.0,0.0,17.0,0.0,178.0,192.0,17.0,178.0,1744418711.1646836,0.0,2025-04-11 20:45:11.164,BACKWARD,23
231.0,8288.764451594883,-9918.966581698249,-24892.891930686466,-23892.02551746673,16420.910229791432,7782.631550148911,30468.40047459608,50715.862299902714,0.0,0.0,0.0,193.0,0.0,193.0,0.0,17.0,0.0,179.0,193.0,17.0,179.0,1744418711.1648407,0.0,2025-04-11 20:45:11.164,BACKWARD,23
232.0,8292.676006874563,-9900.01230240015,-24918.328215876605,-23855.659229237943,16327.479937968248,7944.90521489444,30262.69737037389,50735.64359374566,0.0,0.0,0.0,193.0,0.0,193.0,0.0,17.0,0.0,179.0,193.0,17.0,179.0,1744418711.1648724,0.0,2025-04-11 20:45:11.164,BACKWARD,23
233.0,8303.874230846672,-9879.783973668096,-24899.26217785623,-23842.583458731588,16305.284655724128,8098.349940580123,30017.252864510163,50825.18468203362,0.0,0.0,0.0,193.0,0.0,193.0,0.0,17.0,0.0,178.0,193.0,17.0,178.0,1744418711.1649032,0.0,2025-04-11 20:45:11.164,BACKWARD,23
234.0,8289.725576606463,-9908.193040870792,-24861.644191937947,-23872.132464901504,16464.943166368386,8018.39775066349,30245.17360272093,50842.417877008666,0.0,0.0,0.0,193.0,0.0,193.0,0.0,17.0,0.0,179.0,193.0,17.0,179.0,1744418711.1649346,0.0,2025-04-11 20:45:11.164,BACKWARD,23
235.0,8295.961713309493,-9912.909258950862,-24884.577081749092,-23898.01578498075,16455.331916252606,7805.6538469378775,30475.8436054997,50731.955555910536,0.0,0.0,0.0,193.0,0.0,192.0,0.0,17.0,0.0,179.0,192.0,17.0,179.0,1744418711.1649659,0.0,2025-04-11 20:45:11.164,BACKWARD,23
236.0,8317.665257175597,-9881.19213356878,-24905.29714885916,-23847.590249489578,16346.680086455357,7909.343589466047,30291.28525153223,50701.4677764735,0.0,0.0,0.0,193.0,0.0,193.0,0.0,17.0,0.0,179.0,193.0,17.0,179.0,1744418711.165001,0.0,2025-04-11 20:45:11.165,BACKWARD,23
237.0,8321.532108966365,-9855.755848378642,-24897.764610977723,-23825.305560267636,16290.756021828178,8105.860126717106,30018.526913944115,50797.33440844231,0.0,0.0,0.0,193.0,0.0,193.0,0.0,17.0,0.0,179.0,193.0,17.0,179.0,1744418711.1650364,0.0,2025-04-11 20:45:11.165,BACKWARD,23
238.0,8315.385379241156,-9879.71691843473,-24847.361427231008,-23838.046054607163,16436.511747421235,8063.4588674853885,30162.427444747384,50839.84742639631,0.0,0.0,0.0,193.0,0.0,193.0,0.0,17.0,0.0,178.0,193.0,17.0,178.0,1744418711.1650927,0.0,2025-04-11 20:45:11.165,BACKWARD,23
239.0,8300.387358711643,-9913.512756051154,-24874.228224066286,-23887.890444742497,16455.466026719336,7852.681917271843,30482.23620441392,50764.72321328202,0.0,0.0,0.0,193.0,0.0,193.0,0.0,17.0,0.0,179.0,193.0,17.0,179.0,1744418711.165128,0.0,2025-04-11 20:45:11.165,BACKWARD,23
240.0,8302.68958839054,-9893.083261619004,-24899.999785423253,-23861.40362756296,16347.797673678122,7858.627481296955,30339.117984666587,50691.94593333554,0.0,0.0,0.0,193.0,0.0,193.0,0.0,17.0,0.0,178.0,193.0,17.0,178.0,1744418711.1651611,0.0,2025-04-11 20:45:11.165,BACKWARD,23
241.0,8308.031655315359,-9866.417630483822,-24900.536227290184,-23839.744787185766,16290.197228216795,8068.4433064989225,30066.024370911644,50789.24307694949,0.0,0.0,0.0,193.0,0.0,193.0,0.0,17.0,0.0,179.0,193.0,17.0,179.0,1744418711.1652062,0.0,2025-04-11 20:45:11.165,BACKWARD,23
242.0,8306.534088436852,-9877.548799222564,-24852.144700544442,-23845.377426788502,16409.823764541597,8039.028410795738,30095.77454278166,50826.83871112332,0.0,0.0,0.0,193.0,0.0,193.0,0.0,17.0,0.0,179.0,193.0,17.0,179.0,1744418711.165295,0.0,2025-04-11 20:45:11.165,BACKWARD,23
243.0,8285.076413759758,-9932.15411092688,-24868.68499144137,-23897.30052915818,16493.709861482366,7852.860731227485,30465.003009438875,50788.99720776048,0.0,0.0,0.0,193.0,0.0,192.0,0.0,17.0,0.0,179.0,192.0,17.0,179.0,1744418711.1653357,0.0,2025-04-11 20:45:11.165,BACKWARD,23
244.0,8288.093899261225,-9919.883003220917,-24903.285491858183,-23874.948784702872,16367.958947176809,7798.009550334162,30371.99740076034,50687.85556410022,0.0,0.0,0.0,193.0,0.0,193.0,0.0,17.0,0.0,179.0,193.0,17.0,179.0,1744418711.165374,0.0,2025-04-11 20:45:11.165,BACKWARD,23
245.0,8309.88685010515,-9871.804400897552,-24904.11250640303,-23826.4231474904,16283.22348394674,8036.21209099437,30105.81047604209,50783.699844324576,0.0,0.0,0.0,193.0,0.0,192.0,0.0,17.0,0.0,178.0,192.0,17.0,178.0,1744418711.1654131,0.0,2025-04-11 20:45:11.165,BACKWARD,23
246.0,8324.057856089814,-9853.632432655386,-24858.090264569553,-23825.417318989912,16379.425392082381,8084.603617740109,30071.90287970339,50842.59669096431,0.0,0.0,0.0,193.0,0.0,193.0,0.0,17.0,0.0,179.0,193.0,17.0,179.0,1744418711.1655157,0.0,2025-04-11 20:45:11.165,BACKWARD,23
247.0,8291.424309185066,-9906.04727340308,-24858.961982603312,-23884.40357260747,16496.906160939474,7922.2852495056695,30480.962154979963,50815.95341157358,0.0,0.0,0.0,193.0,0.0,193.0,0.0,17.0,0.0,179.0,193.0,17.0,179.0,1744418711.1655605,0.0,2025-04-11 20:45:11.165,BACKWARD,23
248.0,8291.223143484967,-9915.792633985595,-24895.46238129883,-23877.116903915037,16385.348604363036,7798.702454412277,30480.60452706868,50686.29094198834,0.0,0.0,0.0,193.0,0.0,192.0,0.0,17.0,0.0,178.0,192.0,17.0,178.0,1744418711.1656106,0.0,2025-04-11 20:45:11.165,BACKWARD,23
249.0,8294.933533064548,-9900.10170937797,-24923.35735837905,-23842.091720353572,16267.241986661194,8029.908899057973,30249.599248123082,50769.17121042863,0.0,0.0,0.0,193.0,0.0,193.0,0.0,17.0,0.0,179.0,193.0,17.0,179.0,1744418711.165659,0.0,2025-04-11 20:45:11.165,BACKWARD,23
250.0,8318.40286474262,-9872.899636375862,-24858.805520392125,-23819.22588577579,16335.303048527605,8103.669655760486,30098.43440037184,50830.97378384755,0.0,0.0,0.0,193.0,0.0,193.0,0.0,17.0,0.0,179.0,193.0,17.0,179.0,1744418711.165696,0.0,2025-04-11 20:45:11.165,BACKWARD,23
251.0,8286.506925404898,-9917.401959586377,-24843.405168462417,-23865.71751424283,16485.998509645284,7980.556247300655,30483.04086721431,50843.736629931525,0.0,0.0,0.0,193.0,0.0,192.0,0.0,17.0,0.0,179.0,192.0,17.0,179.0,1744418711.165739,0.0,2025-04-11 20:45:11.165,BACKWARD,23
252.0,8287.646864372118,-9921.313514866057,-24889.762686462724,-23879.665002782942,16378.419563581892,7791.236971764204,30547.592705201234,50702.36184625171,0.0,0.0,0.0,193.0,0.0,193.0,0.0,17.0,0.0,179.0,193.0,17.0,179.0,1744418711.165776,0.0,2025-04-11 20:45:11.165,BACKWARD,23
253.0,8297.772204610374,-9888.724671450218,-24904.78305873669,-23833.128670826994,16285.682175836824,7975.191828631381,30311.960615153388,50742.3267653378,0.0,0.0,0.0,193.0,0.0,193.0,0.0,17.0,0.0,179.0,193.0,17.0,179.0,1744418711.165815,0.0,2025-04-11 20:45:11.165,BACKWARD,23
254.0,8317.553498453319,-9868.451639229255,-24868.72969493028,-23814.643778162455,16314.56062967308,8094.2148678558915,30104.87170277497,50827.62102217925,0.0,0.0,0.0,193.0,0.0,193.0,0.0,17.0,0.0,179.0,193.0,17.0,179.0,1744418711.1658578,0.0,2025-04-11 20:45:11.165,BACKWARD,23
255.0,8300.722634878473,-9902.67215999033,-24829.412976433396,-23840.43769126388,16493.93337892692,7989.2063724048585,30410.129476801096,50847.62583346675,0.0,0.0,0.0,193.0,0.0,192.0,0.0,17.0,0.0,178.0,192.0,17.0,178.0,1744418711.1658933,0.0,2025-04-11 20:45:11.165,BACKWARD,23
0.0,8290.843163829228,-9903.879154190918,-24864.482863483772,-23863.795264219676,16453.92375635192,7769.332262198003,30571.106740368217,50725.49590176295,0.0,0.0,0.0,193.0,0.0,193.0,0.0,17.0,0.0,180.0,193.0,17.0,180.0,1744418711.165928,0.0,2025-04-11 20:45:11.165,BACKWARD,23
1.0,8299.448585444521,-9876.654729444354,-24887.43810503937,-23823.115089311017,16342.321496286571,7915.780891869175,30360.173327943485,50725.78647444087,0.0,0.0,0.0,193.0,0.0,193.0,0.0,17.0,0.0,179.0,193.0,17.0,179.0,1744418711.1660564,0.0,2025-04-11 20:45:11.166,BACKWARD,23
2.0,8296.699320876518,-9875.984177110693,-24880.039677624667,-23813.012100817217,16304.122365012452,8094.907771934006,30124.09420300653,50823.70946689957,0.0,0.0,0.0,193.0,0.0,193.0,0.0,17.0,0.0,178.0,193.0,17.0,178.0,1744418711.1661012,0.0,2025-04-11 20:45:11.166,BACKWARD,23
3.0,8292.92187606357,-9884.746060937174,-24827.401319432418,-23835.207383061337,16468.7876664147,8032.702867114886,30344.460051591406,50852.274996313456,0.0,0.0,0.0,193.0,0.0,193.0,0.0,17.0,0.0,179.0,193.0,17.0,179.0,1744418711.1661456,0.0,2025-04-11 20:45:11.166,BACKWARD,23
4.0,8279.913160790582,-9912.261058361657,-24857.419712235896,-23874.658212024955,16466.82071290263,7825.636306480922,30594.57607204629,50746.484189806484,0.0,0.0,0.0,193.0,0.0,193.0,0.0,17.0,0.0,179.0,193.0,17.0,179.0,1744418711.1661875,0.0,2025-04-11 20:45:11.166,BACKWARD,23
5.0,8278.952035779004,-9912.86455546195,-24896.91524468842,-23844.639819221477,16334.878365382954,7902.2133829848035,30420.388927506083,50704.32879976378,0.0,0.0,0.0,193.0,0.0,193.0,0.0,17.0,0.0,179.0,193.0,17.0,179.0,1744418711.1662707,0.0,2025-04-11 20:45:11.166,BACKWARD,23
6.0,8308.948076838025,-9876.990005611182,-24887.773381206203,-23807.826496103586,16277.635547832913,8101.859164459606,30142.914371837902,50800.17307998813,0.0,0.0,0.0,193.0,0.0,193.0,0.0,17.0,0.0,178.0,193.0,17.0,178.0,1744418711.1663167,0.0,2025-04-11 20:45:11.166,BACKWARD,23
7.0,8310.020960571881,-9882.24266555818,-24844.00866556271,-23824.880877122985,16400.503087103734,8060.955472106394,30262.563259907158,50834.21478679357,0.0,0.0,0.0,193.0,0.0,193.0,0.0,17.0,0.0,179.0,193.0,17.0,179.0,1744418711.1663587,0.0,2025-04-11 20:45:11.166,BACKWARD,23
8.0,8278.236779956434,-9925.716808523752,-24869.333192030575,-23874.434694580403,16441.138558523486,7849.329155603547,30586.52944404238,50758.107096923246,0.0,0.0,0.0,193.0,0.0,192.0,0.0,17.0,0.0,178.0,192.0,17.0,178.0,1744418711.1664052,0.0,2025-04-11 20:45:11.166,BACKWARD,23
9.0,8273.252340942901,-9918.430139831322,-24905.475962814806,-23850.6300867355,16334.833661894043,7848.122161402961,30464.06423617175,50690.3142559903,0.0,0.0,0.0,193.0,0.0,193.0,0.0,17.0,0.0,179.0,193.0,17.0,179.0,1744418711.1664455,0.0,2025-04-11 20:45:11.166,BACKWARD,23
10.0,8295.02294004237,-9882.600293469464,-24907.55467504915,-23817.348339241547,16255.708486522257,8076.869914158573,30185.047410136154,50794.026350262924,0.0,0.0,0.0,193.0,0.0,192.0,0.0,17.0,0.0,178.0,192.0,17.0,178.0,1744418711.16649,0.0,2025-04-11 20:45:11.166,BACKWARD,23
11.0,8306.154108781113,-9875.872418388417,-24842.2652294952,-23813.414432217414,16398.223209169293,8071.125515833559,30188.02019214871,50830.951432103095,0.0,0.0,0.0,193.0,0.0,193.0,0.0,17.0,0.0,179.0,193.0,17.0,179.0,1744418711.1665344,0.0,2025-04-11 20:45:11.166,BACKWARD,23
12.0,8276.82862005575,-9918.899526464884,-24847.651999908925,-23870.277270111714,16500.013053418763,7885.18135370986,30567.91044091111,50789.33248392731,0.0,0.0,0.0,193.0,0.0,193.0,0.0,17.0,0.0,179.0,193.0,17.0,179.0,1744418711.1665733,0.0,2025-04-11 20:45:11.166,BACKWARD,23
13.0,8274.191114210023,-9913.423349073333,-24890.321480074108,-23866.611584021044,16385.52741831868,7806.97259986074,30499.402344155595,50681.59707565273,0.0,0.0,0.0,193.0,0.0,193.0,0.0,17.0,0.0,178.0,193.0,17.0,178.0,1744418711.1666145,0.0,2025-04-11 20:45:11.166,BACKWARD,23
14.0,8273.229989198446,-9894.178497097313,-24915.042509441675,-23842.941086642873,16275.892111765399,8029.595974635598,30235.49529737178,50773.2839314084,0.0,0.0,0.0,193.0,0.0,193.0,0.0,17.0,0.0,179.0,193.0,17.0,179.0,1744418711.1666589,0.0,2025-04-11 20:45:11.166,BACKWARD,23
15.0,8293.97240805297,-9885.774241182118,-24860.370142503994,-23832.81574640462,16348.848205667522,8065.090544830627,30147.34001724005,50824.06709481086,0.0,0.0,0.0,193.0,0.0,193.0,0.0,17.0,0.0,179.0,193.0,17.0,179.0,1744418711.166706,0.0,2025-04-11 20:45:11.166,BACKWARD,23
16.0,8283.422384670066,-9920.508852065666,-24841.14764227243,-23874.658212024955,16480.947015398386,7907.3766359539795,30520.99412929942,50796.59680087528,0.0,0.0,0.0,193.0,0.0,193.0,0.0,17.0,0.0,179.0,193.0,17.0,179.0,1744418711.1668231,0.0,2025-04-11 20:45:11.166,BACKWARD,23
17.0,8287.825678327761,-9911.255229861168,-24887.21458759482,-23881.5872528061,16378.106639159518,7764.794858073576,30528.392556714127,50669.661244113595,0.0,0.0,0.0,193.0,0.0,192.0,0.0,17.0,0.0,178.0,192.0,17.0,178.0,1744418711.1668725,0.0,2025-04-11 20:45:11.166,BACKWARD,23
18.0,8283.06475675878,-9885.260151059647,-24909.856904728047,-23838.15781332944,16274.930986753821,7985.853610736563,30289.98885035382,50750.976890442005,0.0,0.0,0.0,193.0,0.0,193.0,0.0,17.0,0.0,179.0,193.0,17.0,179.0,1744418711.1669154,0.0,2025-04-11 20:45:11.166,BACKWARD,23
19.0,8283.869419559172,-9878.666386445331,-24866.53922397366,-23822.623350932998,16329.826871136054,8074.858257157595,30140.746252625737,50833.58893794882,0.0,0.0,0.0,193.0,0.0,192.0,0.0,17.0,0.0,178.0,192.0,17.0,178.0,1744418711.1669552,0.0,2025-04-11 20:45:11.166,BACKWARD,23
20.0,8274.459335143487,-9909.467090304744,-24835.649113136427,-23845.75740644424,16490.02182364724,7948.749714940753,30484.158454437074,50830.3479350028,0.0,0.0,0.0,193.0,0.0,193.0,0.0,17.0,0.0,179.0,193.0,17.0,179.0,1744418711.16705,0.0,2025-04-11 20:45:11.167,BACKWARD,23
21.0,8274.593445610219,-9920.978238699226,-24873.40120952144,-23863.728208986307,16401.620674326503,7756.3458986694695,30559.930868140564,50682.42409019758,0.0,0.0,0.0,193.0,0.0,192.0,0.0,17.0,0.0,179.0,192.0,17.0,179.0,1744418711.167091,0.0,2025-04-11 20:45:11.167,BACKWARD,23
22.0,8289.010320783893,-9893.798517441573,-24900.670337756914,-23826.512554468223,16268.158408183863,7930.041304831661,30318.80024895671,50720.198538327044,0.0,0.0,0.0,193.0,0.0,192.0,0.0,17.0,0.0,178.0,192.0,17.0,178.0,1744418711.1671307,0.0,2025-04-11 20:45:11.167,BACKWARD,23
23.0,8311.78674838385,-9868.04930782906,-24861.264212282207,-23804.876065835484,16285.995100259199,8077.719280447875,30080.105969918488,50802.29649571139,0.0,0.0,0.0,193.0,0.0,193.0,0.0,17.0,0.0,179.0,193.0,17.0,179.0,1744418711.1671731,0.0,2025-04-11 20:45:11.167,BACKWARD,23
24.0,8284.808192826295,-9905.935514680805,-24825.233200220253,-23840.39298777497,16488.725422468833,8015.424968650934,30368.77874955878,50826.414027978666,0.0,0.0,0.0,193.0,0.0,192.0,0.0,17.0,0.0,178.0,192.0,17.0,178.0,1744418711.1672316,0.0,2025-04-11 20:45:11.167,BACKWARD,23
25.0,8275.711032832985,-9914.58563978501,-24863.097055327544,-23871.216043378838,16453.946108096374,7811.912335385363,30551.19133605854,50711.59311671175,0.0,0.0,0.0,193.0,0.0,193.0,0.0,17.0,0.0,179.0,193.0,17.0,179.0,1744418711.1672847,0.0,2025-04-11 20:45:11.167,BACKWARD,23
26.0,8281.388375924633,-9899.29704657758,-24892.40019230845,-23832.256952793236,16341.8074061641,7944.569938727611,30348.95275222692,50711.43665450057,0.0,0.0,0.0,193.0,0.0,193.0,0.0,17.0,0.0,179.0,193.0,17.0,179.0,1744418711.1673336,0.0,2025-04-11 20:45:11.167,BACKWARD,23
27.0,8299.426233700065,-9875.380680010401,-24874.697610699848,-23811.80510661663,16316.505231440691,8109.548164552232,30096.57920558205,50805.87277482424,0.0,0.0,0.0,193.0,0.0,192.0,0.0,17.0,0.0,178.0,192.0,17.0,178.0,1744418711.167376,0.0,2025-04-11 20:45:11.167,BACKWARD,23
28.0,8289.502059161909,-9901.24164834519,-24831.71520611229,-23835.609714461534,16475.560244984656,8026.757303089775,30291.508768976782,50824.73764714452,0.0,0.0,0.0,193.0,0.0,193.0,0.0,17.0,0.0,179.0,193.0,17.0,179.0,1744418711.1674228,0.0,2025-04-11 20:45:11.167,BACKWARD,23
29.0,8273.744079320917,-9921.693494521796,-24868.573232719093,-23884.492979585288,16460.428113988415,7807.553745216578,30571.82199619079,50729.18393959808,0.0,0.0,0.0,193.0,0.0,193.0,0.0,17.0,0.0,178.0,193.0,17.0,178.0,1744418711.1674633,0.0,2025-04-11 20:45:11.167,BACKWARD,23
30.0,8277.230951455946,-9889.417575528334,-24898.74808773376,-23848.797243690165,16336.465339239281,7869.065745957583,30410.88943611258,50687.54263967784,0.0,0.0,0.0,193.0,0.0,193.0,0.0,17.0,0.0,179.0,193.0,17.0,179.0,1744418711.1675067,0.0,2025-04-11 20:45:11.167,BACKWARD,23
31.0,8301.124966278669,-9859.309775747035,-24881.000802636245,-23802.730298367776,16278.529617611126,8074.925312390961,30132.58786589955,50792.2382107065,0.0,0.0,0.0,193.0,0.0,192.0,0.0,17.0,0.0,178.0,192.0,17.0,178.0,1744418711.1676311,0.0,2025-04-11 20:45:11.167,BACKWARD,23
32.0,8293.4583179305,-9891.451584273766,-24829.368272944484,-23812.699176394843,16424.419453670915,8049.511378945277,30229.34856764657,50835.75705716098,0.0,0.0,0.0,193.0,0.0,192.0,0.0,17.0,0.0,178.0,192.0,17.0,178.0,1744418711.1676717,0.0,2025-04-11 20:45:11.167,BACKWARD,23
33.0,8267.507942617887,-9931.550613826586,-24848.546069687138,-23867.617412521533,16468.49709373678,7848.278623614147,30574.079522380773,50765.39376561568,0.0,0.0,0.0,193.0,0.0,193.0,0.0,17.0,0.0,179.0,193.0,17.0,179.0,1744418711.1677155,0.0,2025-04-11 20:45:11.167,BACKWARD,23
34.0,8274.749907821406,-9910.338808338502,-24878.40800027943,-23850.697141968863,16351.441008024338,7835.806350208087,30457.17989887952,50674.39981393812,0.0,0.0,0.0,193.0,0.0,192.0,0.0,17.0,0.0,179.0,192.0,17.0,179.0,1744418711.1677556,0.0,2025-04-11 20:45:11.167,BACKWARD,23
35.0,8295.089995275735,-9874.218389298725,-24888.041602139667,-23817.840077619563,16273.656937319869,8065.828152397651,30180.68881996737,50777.97779774402,0.0,0.0,0.0,193.0,0.0,193.0,0.0,17.0,0.0,179.0,193.0,17.0,179.0,1744418711.1678185,0.0,2025-04-11 20:45:11.167,BACKWARD,23
36.0,8301.415538956588,-9875.358328265946,-24839.806537605113,-23817.52715319719,16374.753877491223,8083.977768895361,30168.082436094577,50830.86202512527,0.0,0.0,0.0,193.0,0.0,193.0,0.0,17.0,0.0,179.0,193.0,17.0,179.0,1744418711.1678553,0.0,2025-04-11 20:45:11.167,BACKWARD,23
37.0,8262.501151859899,-9928.890756236406,-24847.361427231008,-23872.132464901504,16479.40474503097,7903.822708585586,30551.124280825174,50794.160460729654,0.0,0.0,0.0,193.0,0.0,193.0,0.0,17.0,0.0,179.0,193.0,17.0,179.0,1744418711.1678936,0.0,2025-04-11 20:45:11.167,BACKWARD,23
38.0,8258.075506457748,-9927.326134124534,-24893.808352209137,-23864.935203186895,16366.8637116985,7799.618875934944,30490.998088240398,50669.48243015796,0.0,0.0,0.0,193.0,0.0,192.0,0.0,17.0,0.0,178.0,192.0,17.0,178.0,1744418711.1679313,0.0,2025-04-11 20:45:11.167,BACKWARD,23
39.0,8263.462276871476,-9898.470032032732,-24918.998768210266,-23836.123804584004,16278.46256237776,8032.501701414789,30233.46128862635,50756.38601260019,0.0,0.0,0.0,193.0,0.0,193.0,0.0,17.0,0.0,179.0,193.0,17.0,179.0,1744418711.1679688,0.0,2025-04-11 20:45:11.167,BACKWARD,23
40.0,8284.875248059661,-9892.747985452173,-24876.329288045086,-23828.90419112494,16360.448761039826,8096.606504512609,30138.220505502286,50832.29253677041,0.0,0.0,0.0,193.0,0.0,192.0,0.0,17.0,0.0,178.0,192.0,17.0,178.0,1744418711.168004,0.0,2025-04-11 20:45:11.168,BACKWARD,23
41.0,8274.593445610219,-9924.196889900792,-24852.09999705553,-23870.970174189828,16490.044175391697,7935.405723500935,30504.85616980269,50812.690056883104,0.0,0.0,0.0,193.0,0.0,193.0,0.0,17.0,0.0,179.0,193.0,17.0,179.0,1744418711.168043,0.0,2025-04-11 20:45:11.168,BACKWARD,23
42.0,8273.162933965079,-9913.333942095513,-24884.10769511553,-23870.791360234187,16391.942368977354,7768.4381924197905,30526.492658435425,50680.32302621878,0.0,0.0,0.0,193.0,0.0,193.0,0.0,17.0,0.0,178.0,193.0,17.0,178.0,1744418711.1680849,0.0,2025-04-11 20:45:11.168,BACKWARD,23
43.0,8276.605102611196,-9895.72076746473,-24908.940483205377,-23821.081080565582,16289.213751460762,8004.651427823476,30290.882920132033,50746.707707251044,0.0,0.0,0.0,193.0,0.0,193.0,0.0,17.0,0.0,179.0,193.0,17.0,179.0,1744418711.168119,0.0,2025-04-11 20:45:11.168,BACKWARD,23
44.0,8289.435003928544,-9887.897656905372,-24867.902680385436,-23812.498010694744,16332.173804303862,8110.151661652525,30115.757002324703,50820.53551918692,0.0,0.0,0.0,193.0,0.0,192.0,0.0,17.0,0.0,178.0,192.0,17.0,178.0,1744418711.1681592,0.0,2025-04-11 20:45:11.168,BACKWARD,23
45.0,8265.58569259473,-9922.900488722384,-24837.593714904036,-23852.887612925486,16499.70012899639,7977.1140786545375,30449.848526698177,50821.69780989859,0.0,0.0,0.0,193.0,0.0,193.0,0.0,17.0,0.0,179.0,193.0,17.0,179.0,1744418711.1681936,0.0,2025-04-11 20:45:11.168,BACKWARD,23
46.0,8255.996794223403,-9925.850918990483,-24876.01636362271,-23872.04305792368,16429.336837451083,7774.294349467082,30564.28945830935,50685.97801756597,0.0,0.0,0.0,193.0,0.0,192.0,0.0,17.0,0.0,178.0,192.0,17.0,178.0,1744418711.168238,0.0,2025-04-11 20:45:11.168,BACKWARD,23
47.0,8262.456448370987,-9898.268866332635,-24896.73643073278,-23832.793394660162,16314.761795373179,7947.922700395907,30357.088787208653,50713.716532435006,0.0,0.0,0.0,193.0,0.0,193.0,0.0,17.0,0.0,179.0,193.0,17.0,179.0,1744418711.1683457,0.0,2025-04-11 20:45:11.168,BACKWARD,23
48.0,8291.938399307537,-9859.309775747035,-24855.452758723826,-23800.025737288684,16317.242839007717,8100.071024903182,30134.376005455975,50801.447129422086,0.0,0.0,0.0,193.0,0.0,192.0,0.0,17.0,0.0,179.0,192.0,17.0,179.0,1744418711.1683931,0.0,2025-04-11 20:45:11.168,BACKWARD,23
49.0,8261.651785570597,-9909.087110649003,-24824.450889164316,-23840.01300811923,16477.16957058544,8016.095520984593,30413.54929370276,50825.74347564501,0.0,0.0,0.0,193.0,0.0,193.0,0.0,17.0,0.0,179.0,193.0,17.0,179.0,1744418711.1684427,0.0,2025-04-11 20:45:11.168,BACKWARD,23
50.0,8250.699430787496,-9928.466073091755,-24863.83466289457,-23882.68248828441,16433.986000297788,7790.856992108464,30623.946264260565,50710.05084634434,0.0,0.0,0.0,193.0,0.0,193.0,0.0,17.0,0.0,179.0,193.0,17.0,179.0,1744418711.1685631,0.0,2025-04-11 20:45:11.168,BACKWARD,23
51.0,8263.305814660289,-9891.362177295945,-24888.8239131956,-23842.739920942775,16319.254496008694,7896.4019294264235,30438.40443353706,50698.56204969431,0.0,0.0,0.0,193.0,0.0,193.0,0.0,17.0,0.0,179.0,193.0,17.0,179.0,1744418711.1686192,0.0,2025-04-11 20:45:11.168,BACKWARD,23
52.0,8286.328111449255,-9853.453618699745,-24876.664564211915,-23815.4707927073,16289.616082860957,8078.099260103615,30186.008535147732,50800.28483871041,0.0,0.0,0.0,193.0,0.0,192.0,0.0,17.0,0.0,178.0,192.0,17.0,178.0,1744418711.1686673,0.0,2025-04-11 20:45:11.168,BACKWARD,23
53.0,8276.87332354466,-9901.018130900638,-24834.77739510267,-23832.94985687135,16447.10647429305,8022.376361176534,30363.10140646713,50831.845501881304,0.0,0.0,0.0,193.0,0.0,192.0,0.0,17.0,0.0,178.0,192.0,17.0,178.0,1744418711.1687453,0.0,2025-04-11 20:45:11.168,BACKWARD,23
54.0,8248.01722145286,-9942.659430820875,-24868.97556411929,-23878.569767304634,16447.35234348206,7815.846242409497,30661.02780831192,50748.76406774093,0.0,0.0,0.0,193.0,0.0,193.0,0.0,17.0,0.0,179.0,193.0,17.0,179.0,1744418711.1688168,0.0,2025-04-11 20:45:11.168,BACKWARD,23
55.0,8250.453561598488,-9926.454416090777,-24898.256349355743,-23849.5795547461,16319.589772175525,7865.221245911271,30516.188504241527,50697.623276427184,0.0,0.0,0.0,193.0,0.0,192.0,0.0,17.0,0.0,178.0,192.0,17.0,178.0,1744418711.168867,0.0,2025-04-11 20:45:11.168,BACKWARD,23
56.0,8270.771297308362,-9897.285389576602,-24895.395326065463,-23816.09664155205,16255.954355711265,8085.1177078625815,30250.60507662357,50803.257620722965,0.0,0.0,0.0,193.0,0.0,193.0,0.0,17.0,0.0,179.0,193.0,17.0,179.0,1744418711.1689177,0.0,2025-04-11 20:45:11.168,BACKWARD,23
57.0,8269.11726821867,-9907.81306121505,-24843.53927892915,-23824.85852537853,16400.458383614827,8055.792219137218,30315.805115199702,50847.6034817223,0.0,0.0,0.0,193.0,0.0,192.0,0.0,17.0,0.0,178.0,192.0,17.0,178.0,1744418711.1689725,0.0,2025-04-11 20:45:11.168,BACKWARD,23
58.0,8234.650878268585,-9945.028715733137,-24870.271965297696,-23886.48228484181,16467.223044302827,7852.637213782932,30665.766378136443,50792.46172815105,0.0,0.0,0.0,193.0,0.0,193.0,0.0,17.0,0.0,179.0,193.0,17.0,179.0,1744418711.169018,0.0,2025-04-11 20:45:11.169,BACKWARD,23
59.0,8241.378753349632,-9915.032674674116,-24905.78888723718,-23866.455121809857,16351.351601046515,7819.131948844427,30561.227269318973,50699.41141598361,0.0,0.0,0.0,193.0,0.0,193.0,0.0,17.0,0.0,179.0,193.0,17.0,179.0,1744418711.1690686,0.0,2025-04-11 20:45:11.169,BACKWARD,23
60.0,8253.202826166491,-9888.545857494577,-24913.388480351983,-23835.25208655025,16259.240062146195,8059.837884883629,30290.27942303174,50803.86111782326,0.0,0.0,0.0,193.0,0.0,193.0,0.0,17.0,0.0,179.0,193.0,17.0,179.0,1744418711.1691203,0.0,2025-04-11 20:45:11.169,BACKWARD,23
61.0,8273.073526987258,-9872.899636375862,-24854.40222673443,-23824.724414911798,16368.227168110272,8084.424803784466,30243.832498053613,50847.73759218903,0.0,0.0,0.0,193.0,0.0,193.0,0.0,17.0,0.0,179.0,193.0,17.0,179.0,1744418711.1691673,0.0,2025-04-11 20:45:11.169,BACKWARD,23
62.0,8258.67900355804,-9915.278543863124,-24858.49259596975,-23870.366677089536,16488.41249804646,7914.797415113141,30619.386508391683,50811.08073128232,0.0,0.0,0.0,193.0,0.0,193.0,0.0,17.0,0.0,179.0,193.0,17.0,179.0,1744418711.1692712,0.0,2025-04-11 20:45:11.169,BACKWARD,23
63.0,8268.625529840652,-9902.538049523599,-24885.046468382654,-23851.077121624607,16403.073537716096,7804.849184137486,30567.977496144475,50688.28024724487,0.0,0.0,0.0,193.0,0.0,193.0,0.0,17.0,0.0,179.0,193.0,17.0,179.0,1744418711.1693058,0.0,2025-04-11 20:45:11.169,BACKWARD,23
64.0,8266.122134461659,-9868.988081096182,-24894.613015009527,-23806.70890888082,16299.540257399114,8042.403524208489,30308.585501740636,50778.08955646629,0.0,0.0,0.0,193.0,0.0,192.0,0.0,17.0,0.0,178.0,192.0,17.0,178.0,1744418711.1693397,0.0,2025-04-11 20:45:11.169,BACKWARD,23
65.0,8278.505000889898,-9866.372926994913,-24855.00572383472,-23799.243426232748,16348.512929500692,8096.830021957162,30171.904584396434,50838.61808045126,0.0,0.0,0.0,193.0,0.0,193.0,0.0,17.0,0.0,179.0,193.0,17.0,179.0,1744418711.1693723,0.0,2025-04-11 20:45:11.169,BACKWARD,23
66.0,8250.654727298586,-9923.43693058931,-24856.793863391147,-23859.43667405089,16490.401803302982,7948.123866096004,30532.080594549254,50837.388734506225,0.0,0.0,0.0,193.0,0.0,192.0,0.0,17.0,0.0,178.0,192.0,17.0,178.0,1744418711.1694283,0.0,2025-04-11 20:45:11.169,BACKWARD,23
67.0,8249.358326120178,-9921.022942188138,-24890.857921941035,-23870.076104411615,16391.964720721808,7768.885227308897,30557.449824506024,50707.770968409895,0.0,0.0,0.0,193.0,0.0,193.0,0.0,17.0,0.0,179.0,193.0,17.0,179.0,1744418711.1694613,0.0,2025-04-11 20:45:11.169,BACKWARD,23
68.0,8249.514788331364,-9901.24164834519,-24917.769422265224,-23843.365769787524,16280.407164145372,7956.57282550011,30311.33476630864,50760.72225102452,0.0,0.0,0.0,193.0,0.0,193.0,0.0,17.0,0.0,179.0,193.0,17.0,179.0,1744418711.1694937,0.0,2025-04-11 20:45:11.169,BACKWARD,23
69.0,8263.77520129385,-9875.71595617723,-24884.442971282362,-23836.95081912885,16308.749176114701,8072.958358878895,30120.42851691586,50847.87170265576,0.0,0.0,0.0,193.0,0.0,193.0,0.0,17.0,0.0,179.0,193.0,17.0,179.0,1744418711.169526,0.0,2025-04-11 20:45:11.169,BACKWARD,23
70.0,8231.05224741128,-9909.891773449395,-24866.20394780683,-23876.044020181183,16471.134599582507,7974.186000130892,30431.87772415611,50857.21473183808,0.0,0.0,0.0,193.0,0.0,193.0,0.0,17.0,0.0,179.0,193.0,17.0,179.0,1744418711.6435335,0.0,2025-04-11 20:45:11.643,BACKWARD,23
71.0,8232.169834634047,-9919.860651476461,-24898.904549944946,-23886.415229608447,16410.807241297633,7769.667538364833,30550.67724593607,50722.433712772574,0.0,0.0,0.0,193.0,0.0,193.0,0.0,17.0,0.0,179.0,193.0,17.0,179.0,1744418711.6437309,0.0,2025-04-11 20:45:11.643,BACKWARD,23
72.0,8249.380677864632,-9894.267904075135,-24914.12608791901,-23842.739920942775,16290.152524727884,7946.33572653958,30331.89837120752,50747.80294272935,0.0,0.0,0.0,193.0,0.0,193.0,0.0,17.0,0.0,179.0,193.0,17.0,179.0,1744418711.643788,0.0,2025-04-11 20:45:11.643,BACKWARD,23
73.0,8271.397146153111,-9859.600348424954,-24879.43618052437,-23819.136478797973,16280.22835018973,8102.909696449005,30075.702676260793,50838.215749051065,0.0,0.0,0.0,193.0,0.0,193.0,0.0,17.0,0.0,179.0,193.0,17.0,179.0,1744418711.6438336,0.0,2025-04-11 20:45:11.643,BACKWARD,23
74.0,8255.01331746737,-9897.44185178779,-24843.718092884792,-23849.780720446197,16449.609869672047,8016.855480296073,30306.23856857283,50857.505304515995,0.0,0.0,0.0,193.0,0.0,193.0,0.0,17.0,0.0,179.0,193.0,17.0,179.0,1744418711.643878,0.0,2025-04-11 20:45:11.643,BACKWARD,23
75.0,8244.06096268427,-9926.186195157314,-24874.25057581074,-23880.44731383888,16432.846061330565,7807.151413816383,30521.508219421892,50742.729096737996,0.0,0.0,0.0,193.0,0.0,193.0,0.0,17.0,0.0,179.0,193.0,17.0,179.0,1744418711.6439254,0.0,2025-04-11 20:45:11.643,BACKWARD,23
76.0,8247.570186563753,-9907.3883780704,-24907.26410237123,-23843.879859909997,16302.8483155785,7903.979170796772,30341.62138004558,50724.221852329,0.0,0.0,0.0,193.0,0.0,193.0,0.0,17.0,0.0,179.0,193.0,17.0,179.0,1744418711.6439707,0.0,2025-04-11 20:45:11.643,BACKWARD,23
77.0,8249.738305775918,-9886.24362781568,-24898.859846456035,-23819.918789853906,16251.908689964856,8094.147812622526,30075.121530904955,50831.15259780319,0.0,0.0,0.0,193.0,0.0,193.0,0.0,17.0,0.0,178.0,193.0,17.0,178.0,1744418711.6440852,0.0,2025-04-11 20:45:11.644,BACKWARD,23
78.0,8248.039573197315,-9898.335921566,-24849.909526098912,-23833.687464438375,16410.606075597534,8041.911785830473,30212.763573260734,50863.98731040804,0.0,0.0,0.0,193.0,0.0,193.0,0.0,17.0,0.0,179.0,193.0,17.0,179.0,1744418711.6441271,0.0,2025-04-11 20:45:11.644,BACKWARD,23
79.0,8245.78204700733,-9914.496232807187,-24871.434256009372,-23873.562976546644,16453.856701118555,7826.552728003589,30502.017498256864,50772.45691686356,0.0,0.0,0.0,193.0,0.0,192.0,0.0,17.0,0.0,179.0,192.0,17.0,179.0,1744418711.6441648,0.0,2025-04-11 20:45:11.644,BACKWARD,23
80.0,8241.177587649536,-9895.586656997999,-24912.94144546288,-23853.982848403793,16332.553783959602,7844.501178801201,30353.803080773723,50699.74669215044,0.0,0.0,0.0,193.0,0.0,192.0,0.0,17.0,0.0,178.0,192.0,17.0,178.0,1744418711.6442025,0.0,2025-04-11 20:45:11.644,BACKWARD,23
81.0,8258.254320413389,-9862.595482181965,-24913.187314651885,-23819.18118228688,16257.183701656308,8080.960283393894,30077.759036750682,50807.72796961403,0.0,0.0,0.0,193.0,0.0,193.0,0.0,17.0,0.0,179.0,193.0,17.0,179.0,1744418711.6442645,0.0,2025-04-11 20:45:11.644,BACKWARD,23
82.0,8265.54098910582,-9865.90354036135,-24860.370142503994,-23828.43480449138,16380.118296160495,8064.598806452609,30114.751173824214,50849.01164162298,0.0,0.0,0.0,193.0,0.0,193.0,0.0,18.0,0.0,179.0,193.0,18.0,179.0,1744418711.644303,0.0,2025-04-11 20:45:11.644,BACKWARD,23
83.0,8247.994869708404,-9894.804345942062,-24854.33517150106,-23863.974078175317,16473.25801530576,7864.483638344245,30467.55110830678,50791.3888444172,0.0,0.0,0.0,193.0,0.0,193.0,0.0,17.0,0.0,179.0,193.0,17.0,179.0,1744418711.6443405,0.0,2025-04-11 20:45:11.644,BACKWARD,23
