Sample Index,EXG Channel 0,EXG Channel 1,EXG Channel 2,EXG Channel 3,EXG Channel 4,EXG Channel 5,EXG Channel 6,EXG Channel 7,Accel Channel 0,Accel Channel 1,Accel Channel 2,Not Used,Digital Channel 0 (D11),Digital Channel 1 (D12),Digital Channel 2 (D13),Digital Channel 3 (D17),Not Used,Digital Channel 4 (D18),Analog Channel 0,Analog Channel 1,Analog Channel 2,Timestamp,Marker Channel,Timestamp (Formatted),Stimulus_Direction,Stimulus_Number
244.0,8130.737618295863,-10613.949372047111,-25088.24617722585,-24032.75210055734,14410.326112547651,6371.700033152108,24696.64361436887,50434.74440988832,0.0,0.0,0.0,193.0,0.0,193.0,0.0,1.0,0.0,179.0,193.0,1.0,179.0,1744418693.8780627,0.0,2025-04-11 20:44:53.878,BACKWARD,21
245.0,8139.432446888977,-10579.52768558594,-25066.229708937375,-24017.03882420526,14389.270769270752,6538.8240264444385,24451.333218971875,50527.50414937784,0.0,0.0,0.0,193.0,0.0,193.0,0.0,1.0,0.0,178.0,193.0,1.0,178.0,1744418693.8780987,0.0,2025-04-11 20:44:53.878,BACKWARD,21
246.0,8131.654039818531,-10610.708369101092,-25016.631187991046,-24040.686969838975,14558.026439908319,6467.90194128775,24669.486244855674,50545.58671064219,0.0,0.0,0.0,193.0,0.0,192.0,0.0,1.0,0.0,178.0,192.0,1.0,178.0,1744418693.8781352,0.0,2025-04-11 20:44:53.878,BACKWARD,21
247.0,8130.357638640123,-10637.776331636469,-25037.66417952349,-24071.91235684304,14560.663945754046,6246.194988035559,24915.84717224207,50430.38581971954,0.0,0.0,0.0,193.0,0.0,192.0,0.0,1.0,0.0,178.0,192.0,1.0,178.0,1744418693.8781712,0.0,2025-04-11 20:44:53.878,BACKWARD,21
248.0,8124.277964148279,-10626.19812800862,-25073.04699099624,-24037.982408759883,14444.680743775458,6333.277384433435,24764.1458826239,50405.88830779652,0.0,0.0,0.0,193.0,0.0,193.0,0.0,1.0,0.0,179.0,193.0,1.0,179.0,1744418693.8782067,0.0,2025-04-11 20:44:53.878,BACKWARD,21
249.0,8134.202138686435,-10597.52083987246,-25072.6670113405,-24008.3663473566,14382.297025000695,6541.10390437888,24501.736402718594,50514.00369572684,0.0,0.0,0.0,193.0,0.0,192.0,0.0,1.0,0.0,178.0,192.0,1.0,178.0,1744418693.8782423,0.0,2025-04-11 20:44:53.878,BACKWARD,21
250.0,8125.283792648768,-10616.162194748187,-25040.033464435754,-24033.020321490803,14518.48620396688,6489.896057831772,24621.54175299904,50546.346669953666,0.0,0.0,0.0,193.0,0.0,193.0,0.0,1.0,0.0,179.0,193.0,1.0,179.0,1744418693.8782785,0.0,2025-04-11 20:44:53.878,BACKWARD,21
251.0,8106.977713939872,-10656.551796978927,-25064.799197292235,-24079.735467402395,14548.281079325805,6272.771212192919,24944.345646422586,50468.13791610455,0.0,0.0,0.0,193.0,0.0,193.0,0.0,1.0,0.0,179.0,193.0,1.0,179.0,1744418693.8783312,0.0,2025-04-11 20:44:53.878,BACKWARD,21
252.0,8112.252725631324,-10643.498378217027,-25094.30349997324,-24054.880327568095,14417.679836473446,6286.8304594553065,24812.179781458355,50387.96220874336,0.0,0.0,0.0,193.0,0.0,192.0,0.0,1.0,0.0,178.0,192.0,1.0,178.0,1744418693.8783665,0.0,2025-04-11 20:44:53.878,BACKWARD,21
253.0,8127.22839441638,-10604.248714953508,-25087.910901059022,-24020.27982715128,14358.961803789354,6514.393569754788,24530.391339110298,50479.47025054339,0.0,0.0,0.0,193.0,0.0,193.0,0.0,1.0,0.0,179.0,193.0,1.0,179.0,1744418693.8784018,0.0,2025-04-11 20:44:53.878,BACKWARD,21
254.0,8128.457740361422,-10615.022255780967,-25038.737063257347,-24026.04657722075,14506.908000339032,6520.987334369103,24562.130816236833,50533.85204480315,0.0,0.0,0.0,193.0,0.0,192.0,0.0,1.0,0.0,178.0,192.0,1.0,178.0,1744418693.8784373,0.0,2025-04-11 20:44:53.878,BACKWARD,21
255.0,8104.988408683349,-10652.461427743607,-25053.600973320124,-24085.05518258276,14583.261559398361,6335.6690210901525,24940.992884754287,50488.07567215868,0.0,0.0,0.0,193.0,0.0,192.0,0.0,1.0,0.0,178.0,192.0,1.0,178.0,1744418693.878487,0.0,2025-04-11 20:44:53.878,BACKWARD,21
0.0,8125.484958348866,-10627.53923267594,-25069.224842694384,-24054.030961278793,14484.57860762818,6271.698328459064,24854.089302312055,50370.41608934595,0.0,0.0,0.0,193.0,0.0,193.0,0.0,1.0,0.0,179.0,193.0,1.0,179.0,1744418693.878523,0.0,2025-04-11 20:44:53.878,BACKWARD,21
1.0,8123.339190881156,-10619.62671513876,-25087.463866169914,-24029.019359233305,14389.471934970848,6522.216680314145,24588.617633416372,50466.61799748159,0.0,0.0,0.0,193.0,0.0,193.0,0.0,1.0,0.0,179.0,193.0,1.0,179.0,1744418693.8785582,0.0,2025-04-11 20:44:53.878,BACKWARD,21
2.0,8127.004876971827,-10613.368226691275,-25043.408577848506,-24028.393510388556,14466.361935897105,6555.006689430081,24501.334071318397,50514.696599804956,0.0,0.0,0.0,193.0,0.0,192.0,0.0,1.0,0.0,178.0,192.0,1.0,178.0,1744418693.8785932,0.0,2025-04-11 20:44:53.878,BACKWARD,21
3.0,8101.345074337134,-10650.494474231538,-25040.279333624763,-24077.18736853449,14596.851420027187,6378.74083265553,24853.10582555602,50490.6684745155,0.0,0.0,0.0,193.0,0.0,192.0,0.0,1.0,0.0,178.0,192.0,1.0,178.0,1744418693.8786287,0.0,2025-04-11 20:44:53.878,BACKWARD,21
4.0,8102.976751682371,-10647.611099196803,-25071.99645900684,-24070.37008647562,14505.455136949437,6233.543900673855,24806.72595581126,50369.72318526783,0.0,0.0,0.0,193.0,0.0,193.0,0.0,1.0,0.0,179.0,193.0,1.0,179.0,1744418693.8786645,0.0,2025-04-11 20:44:53.878,BACKWARD,21
5.0,8109.972847696883,-10629.416779210183,-25092.269491227806,-24034.51788836931,14394.076394328642,6458.491856872065,24494.89676891527,50434.6550029105,0.0,0.0,0.0,193.0,0.0,193.0,0.0,1.0,0.0,178.0,193.0,1.0,178.0,1744418693.8787,0.0,2025-04-11 20:44:53.878,BACKWARD,21
6.0,8128.122464194592,-10604.963970776078,-25056.43964486595,-24031.455699378934,14436.969391938377,6539.002840400081,24261.879832968694,50488.5674105367,0.0,0.0,0.0,193.0,0.0,192.0,0.0,1.0,0.0,178.0,192.0,1.0,178.0,1744418693.8787355,0.0,2025-04-11 20:44:53.878,BACKWARD,21
7.0,8124.277964148279,-10620.677247128158,-25021.0568333932,-24057.00374329135,14607.289684687816,6414.749492973029,24544.584696839418,50480.31961683269,0.0,0.0,0.0,193.0,0.0,193.0,0.0,1.0,0.0,179.0,193.0,1.0,179.0,1744418693.8787713,0.0,2025-04-11 20:44:53.878,BACKWARD,21
8.0,8114.823176243684,-10652.595538210338,-25071.728238073378,-24073.119351043624,14513.859392864633,6247.513740958422,24600.218188788676,50366.59394104409,0.0,0.0,0.0,193.0,0.0,193.0,0.0,1.0,0.0,179.0,193.0,1.0,179.0,1744418693.8788064,0.0,2025-04-11 20:44:53.878,BACKWARD,21
9.0,8123.428597858978,-10634.781197879458,-25090.079020271187,-24030.002835989337,14393.316435017161,6442.443304353154,24325.24702849949,50406.22358396335,0.0,0.0,0.0,193.0,0.0,192.0,0.0,1.0,0.0,178.0,192.0,1.0,178.0,1744418693.8788424,0.0,2025-04-11 20:44:53.878,BACKWARD,21
10.0,8144.439237646966,-10611.803604579402,-25057.646639066537,-24012.166143914004,14411.398996281505,6579.526553097553,24060.557670659742,50487.963913436404,0.0,0.0,0.0,193.0,0.0,192.0,0.0,1.0,0.0,178.0,192.0,1.0,178.0,1744418693.8788896,0.0,2025-04-11 20:44:53.878,BACKWARD,21
11.0,8127.161339183014,-10638.58099443686,-25028.946999185922,-24047.168975731012,14579.260597140861,6472.0817175008915,24305.018699767435,50492.27780011628,0.0,0.0,0.0,193.0,0.0,193.0,0.0,1.0,0.0,179.0,193.0,1.0,179.0,1744418693.878922,0.0,2025-04-11 20:44:53.878,BACKWARD,21
12.0,8105.010760427805,-10648.527520719472,-25079.26077595482,-24088.76557216234,14526.979866859898,6264.948101633561,24467.56058544643,50375.37817661503,0.0,0.0,0.0,193.0,0.0,193.0,0.0,1.0,0.0,179.0,193.0,1.0,179.0,1744418693.8789756,0.0,2025-04-11 20:44:53.878,BACKWARD,21
13.0,8108.229411629369,-10629.752055377014,-25106.060517556733,-24050.409978677035,14406.056929356686,6390.117870583281,24249.42991130709,50375.86991499304,0.0,0.0,0.0,193.0,0.0,193.0,0.0,1.0,0.0,179.0,193.0,1.0,179.0,1744418693.879017,0.0,2025-04-11 20:44:53.879,BACKWARD,21
14.0,8129.418865373,-10610.171927234165,-25088.737915603866,-24026.962998743416,14378.184304020919,6558.20298888719,23976.671573718977,50468.94257890494,0.0,0.0,0.0,193.0,0.0,192.0,0.0,1.0,0.0,178.0,192.0,1.0,178.0,1744418693.879068,0.0,2025-04-11 20:44:53.879,BACKWARD,21
15.0,8118.064179189704,-10632.523671689472,-25040.122871413576,-24045.13496698558,14558.384067819605,6504.536450449998,24159.486491618933,50494.02123618379,0.0,0.0,0.0,193.0,0.0,193.0,0.0,1.0,0.0,178.0,193.0,1.0,178.0,1744418693.8791,0.0,2025-04-11 20:44:53.879,BACKWARD,21
16.0,8099.020492913783,-10670.521637263493,-25071.25885143982,-24081.68006917001,14554.763085217844,6296.240543870991,24411.703576052616,50391.18085994493,0.0,0.0,0.0,193.0,0.0,193.0,0.0,1.0,0.0,179.0,193.0,1.0,179.0,1744418693.879132,0.0,2025-04-11 20:44:53.879,BACKWARD,21
17.0,8110.017551185793,-10657.959956879611,-25098.751497119847,-24042.89979254005,14441.998534440821,6368.16845752817,24239.12575711319,50351.43945830339,0.0,0.0,0.0,193.0,0.0,193.0,0.0,1.0,0.0,179.0,193.0,1.0,179.0,1744418693.8791635,0.0,2025-04-11 20:44:53.879,BACKWARD,21
18.0,8132.2575369188235,-10627.583936164849,-25089.363764448615,-24015.585960815664,14392.914103616966,6591.596495103418,23948.12839604955,50452.111715330095,0.0,0.0,0.0,193.0,0.0,192.0,0.0,1.0,0.0,178.0,192.0,1.0,178.0,1744418693.8791952,0.0,2025-04-11 20:44:53.879,BACKWARD,21
19.0,8136.571423598698,-10642.134921805255,-25037.53006905676,-24025.80070803174,14533.618334963125,6556.884235964327,24025.97952198738,50480.96781742189,0.0,0.0,0.0,193.0,0.0,193.0,0.0,1.0,0.0,178.0,193.0,1.0,178.0,1744418693.8792272,0.0,2025-04-11 20:44:53.879,BACKWARD,21
20.0,8103.669655760486,-10674.455544287628,-25057.557232088715,-24073.365220232634,14582.74746927589,6360.792381857918,24361.792130683916,50425.58019466164,0.0,0.0,0.0,193.0,0.0,192.0,0.0,1.0,0.0,178.0,192.0,1.0,178.0,1744418693.8792608,0.0,2025-04-11 20:44:53.879,BACKWARD,21
21.0,8110.7104552639075,-10649.801570153424,-25089.363764448615,-24051.348751944155,14453.353220624116,6343.916814794161,24231.056777364825,50344.309251822146,0.0,0.0,0.0,193.0,0.0,192.0,0.0,1.0,0.0,178.0,192.0,1.0,178.0,1744418693.8792975,0.0,2025-04-11 20:44:53.879,BACKWARD,21
22.0,8136.951403254438,-10612.027122023956,-25092.068325527707,-24014.311911381712,14360.74994334578,6565.333195368433,23947.904878604997,50437.2031017784,0.0,0.0,0.0,193.0,0.0,193.0,0.0,1.0,0.0,179.0,193.0,1.0,179.0,1744418693.8793402,0.0,2025-04-11 20:44:53.879,BACKWARD,21
23.0,8142.606394601631,-10618.352665704808,-25038.982932446354,-24014.177800914982,14479.013023258809,6558.180637142735,23930.314055718667,50471.267160328294,0.0,0.0,0.0,193.0,0.0,192.0,0.0,1.0,0.0,178.0,192.0,1.0,178.0,1744418693.879377,0.0,2025-04-11 20:44:53.879,BACKWARD,21
24.0,8104.273152860779,-10660.73157319207,-25043.945019715433,-24056.3778944466,14571.8398179817,6390.497850239021,24308.4385166691,50436.33138374465,0.0,0.0,0.0,193.0,0.0,193.0,0.0,1.0,0.0,179.0,193.0,1.0,179.0,1744418693.8794131,0.0,2025-04-11 20:44:53.879,BACKWARD,21
25.0,8112.744464009341,-10652.595538210338,-25080.356011433127,-24039.547030871756,14438.064627416687,6317.7652737814515,24252.492100297466,50327.92542313641,0.0,0.0,0.0,193.0,0.0,193.0,0.0,1.0,0.0,179.0,193.0,1.0,179.0,1744418693.8794985,0.0,2025-04-11 20:44:53.879,BACKWARD,21
26.0,8134.671525319997,-10608.562601633383,-25078.903148043533,-23988.540350024745,14364.549739903181,6556.101924908391,23977.923271408472,50411.20802297688,0.0,0.0,0.0,193.0,0.0,192.0,0.0,1.0,0.0,178.0,192.0,1.0,178.0,1744418693.8795373,0.0,2025-04-11 20:44:53.879,BACKWARD,21
27.0,8133.822159030696,-10601.298284685408,-25041.642790036534,-23996.22935011737,14457.018906714788,6595.955085272203,23874.05471492466,50466.41683178149,0.0,0.0,0.0,193.0,0.0,193.0,0.0,1.0,0.0,178.0,193.0,1.0,178.0,1744418693.8795702,0.0,2025-04-11 20:44:53.879,BACKWARD,21
28.0,8107.916487206994,-10664.419611027195,-25045.7108075274,-24060.915298571028,14588.558922834269,6426.79708323444,24254.61551602072,50447.5072559723,0.0,0.0,0.0,193.0,0.0,192.0,0.0,1.0,0.0,178.0,192.0,1.0,178.0,1744418693.879604,0.0,2025-04-11 20:44:53.879,BACKWARD,21
29.0,8108.050597673727,-10677.96476816711,-25079.596052121648,-24062.725789871907,14483.77394482779,6270.9160174031285,24262.058646924335,50312.25685027324,0.0,0.0,0.0,193.0,0.0,193.0,0.0,1.0,0.0,179.0,193.0,1.0,179.0,1744418693.8796597,0.0,2025-04-11 20:44:53.879,BACKWARD,21
30.0,8130.894080507051,-10639.743285148536,-25086.793313836257,-24009.886265979563,14388.913141359466,6490.656017143252,24000.61029203061,50366.37042359954,0.0,0.0,0.0,193.0,0.0,192.0,0.0,1.0,0.0,179.0,192.0,1.0,179.0,1744418693.8796945,0.0,2025-04-11 20:44:53.879,BACKWARD,21
31.0,8145.847397547651,-10624.387636707741,-25050.359970374106,-24006.28763512226,14428.498080789816,6569.557675070486,23824.56795270061,50433.53741568773,0.0,0.0,0.0,193.0,0.0,192.0,0.0,0.0,0.0,178.0,192.0,0.0,178.0,1744418693.8797288,0.0,2025-04-11 20:44:53.879,BACKWARD,21
32.0,8106.4859755618545,-10659.032840613467,-25034.937266699944,-24052.779263589295,14584.289739643305,6423.086693654859,24158.681828818542,50433.78328487674,0.0,0.0,0.0,193.0,0.0,193.0,0.0,0.0,0.0,179.0,193.0,0.0,179.0,1744418693.8797631,0.0,2025-04-11 20:44:53.879,BACKWARD,21
33.0,8107.670618017986,-10662.653823215225,-25062.7651885468,-24057.115502013625,14510.931314340987,6246.217339780014,24253.31911484231,50298.376416966494,0.0,0.0,0.0,193.0,0.0,192.0,0.0,0.0,0.0,182.0,192.0,0.0,182.0,1744418693.8798006,0.0,2025-04-11 20:44:53.879,BACKWARD,21
34.0,8114.711417521408,-10639.899747359723,-25082.837055067666,-24012.724937525385,14405.453432256394,6449.551159089942,24031.031016234283,50327.4783882473,0.0,0.0,0.0,193.0,0.0,193.0,0.0,0.0,0.0,180.0,193.0,0.0,180.0,1744418693.879845,0.0,2025-04-11 20:44:53.879,BACKWARD,21
35.0,8135.006801486827,-10600.67243584066,-25053.77978727577,-23991.84840820413,14407.465089257372,6596.424471905765,23791.50972265121,50405.21775546286,0.0,0.0,0.0,193.0,0.0,193.0,0.0,0.0,0.0,180.0,193.0,0.0,180.0,1744418693.8798916,0.0,2025-04-11 20:44:53.879,BACKWARD,21
36.0,8110.062254674704,-10644.146578806232,-25025.169554372973,-24033.065024979715,14575.103172672174,6509.006799341059,24047.19132747547,50410.06808400966,0.0,0.0,0.0,193.0,0.0,193.0,0.0,0.0,0.0,179.0,193.0,0.0,179.0,1744418693.879932,0.0,2025-04-11 20:44:53.879,BACKWARD,21
37.0,8107.827080229174,-10669.694622718647,-25064.955659503423,-24067.017324807326,14522.330704013195,6308.377541110223,24241.718559470006,50296.47651868779,0.0,0.0,0.0,193.0,0.0,193.0,0.0,0.0,0.0,179.0,193.0,0.0,179.0,1744418693.879972,0.0,2025-04-11 20:44:53.879,BACKWARD,21
38.0,8109.861088974606,-10648.840445141846,-25091.97891854989,-24036.10486222564,14398.837315897623,6428.27229836849,24049.560612387733,50287.267599972205,0.0,0.0,0.0,193.0,0.0,193.0,0.0,0.0,0.0,179.0,193.0,0.0,179.0,1744418693.880029,0.0,2025-04-11 20:44:53.880,BACKWARD,21
39.0,8123.316839136701,-10618.062093026889,-25075.34922067514,-24014.378966615077,14367.120190515541,6605.745149343628,23775.79644629913,50376.62987430452,0.0,0.0,0.0,193.0,0.0,192.0,0.0,0.0,0.0,178.0,192.0,0.0,178.0,1744418693.8800862,0.0,2025-04-11 20:44:53.880,BACKWARD,21
40.0,8123.383894370067,-10633.663610656693,-25028.8575922081,-24029.75696680033,14533.21600356293,6554.358488840877,23937.22074475536,50397.12642397004,0.0,0.0,0.0,193.0,0.0,193.0,0.0,0.0,0.0,179.0,193.0,0.0,179.0,1744418693.88019,0.0,2025-04-11 20:44:53.880,BACKWARD,21
41.0,8102.663827259998,-10671.102782619331,-25054.830319265166,-24070.079513797704,14536.188785575485,6350.421172430655,24213.84593413424,50310.22284152781,0.0,0.0,0.0,193.0,0.0,193.0,0.0,0.0,0.0,178.0,193.0,0.0,178.0,1744418693.8802285,0.0,2025-04-11 20:44:53.880,BACKWARD,21
42.0,8099.109899891603,-10668.420573284695,-25092.247139483352,-24043.592696618165,14394.478725728837,6402.679550967164,24054.477996167898,50266.99456775124,0.0,0.0,0.0,193.0,0.0,193.0,0.0,0.0,0.0,179.0,193.0,0.0,179.0,1744418693.8802853,0.0,2025-04-11 20:44:53.880,BACKWARD,21
43.0,8116.3430948666455,-10630.802587366414,-25084.53578764627,-24011.85321949163,14339.806358791157,6620.027914050569,23765.872271760974,50367.19743814438,0.0,0.0,0.0,193.0,0.0,193.0,0.0,0.0,0.0,178.0,193.0,0.0,178.0,1744418693.8803408,0.0,2025-04-11 20:44:53.880,BACKWARD,21
44.0,8121.37223736909,-10624.231174496554,-25047.610705806102,-24032.23801043487,14486.545561140247,6605.92396329927,23820.90226660994,50395.94178151391,0.0,0.0,0.0,193.0,0.0,192.0,0.0,0.0,0.0,178.0,192.0,0.0,178.0,1744418693.8804152,0.0,2025-04-11 20:44:53.880,BACKWARD,21
45.0,8102.596772026632,-10644.951241606623,-25074.186929963464,-24086.686859927995,14552.863186939143,6406.412292291199,24146.097796690203,50331.38994352698,0.0,0.0,0.0,193.0,0.0,193.0,0.0,0.0,0.0,179.0,193.0,0.0,179.0,1744418693.8804517,0.0,2025-04-11 20:44:53.880,BACKWARD,21
46.0,8102.015626670794,-10650.405067253718,-25102.30542448824,-24053.203946733945,14443.719618763878,6380.55132395641,24025.890115009563,50254.49994260073,0.0,0.0,0.0,193.0,0.0,192.0,0.0,0.0,0.0,178.0,192.0,0.0,178.0,1744418693.880485,0.0,2025-04-11 20:44:53.880,BACKWARD,21
47.0,8104.831946472163,-10646.292346273942,-25101.724279132402,-24014.401318359534,14359.207672978364,6613.858832580904,23732.143489377915,50356.04391766118,0.0,0.0,0.0,193.0,0.0,193.0,0.0,0.0,0.0,179.0,193.0,0.0,179.0,1744418693.880518,0.0,2025-04-11 20:44:53.880,BACKWARD,21
48.0,8122.042789702748,-10633.440093212139,-25042.536859814747,-24007.360518856112,14471.05580223272,6624.900594341826,23678.49930268518,50395.67356058044,0.0,0.0,0.0,193.0,0.0,193.0,0.0,0.0,0.0,179.0,193.0,0.0,179.0,1744418693.8805578,0.0,2025-04-11 20:44:53.880,BACKWARD,21
49.0,8114.867879732595,-10660.73157319207,-25043.565040059693,-24057.29431596927,14569.962271447454,6440.588109563364,24026.247742920845,50344.26454833324,0.0,0.0,0.0,193.0,0.0,192.0,0.0,0.0,0.0,178.0,192.0,0.0,178.0,1744418693.8806,0.0,2025-04-11 20:44:53.880,BACKWARD,21
50.0,8131.318763651701,-10640.972631093578,-25066.72144731539,-24037.46831863741,14466.049011474732,6354.466838177066,23962.83584390114,50233.779875490654,0.0,0.0,0.0,193.0,0.0,193.0,0.0,0.0,0.0,179.0,193.0,0.0,179.0,1744418693.8806367,0.0,2025-04-11 20:44:53.880,BACKWARD,21
51.0,8130.692914806952,-10616.653933126205,-25084.558139390727,-24006.377042100077,14371.389373706506,6593.049358493014,23693.49732321469,50325.73495217979,0.0,0.0,0.0,193.0,0.0,193.0,0.0,0.0,0.0,178.0,193.0,0.0,178.0,1744418693.8806744,0.0,2025-04-11 20:44:53.880,BACKWARD,21
52.0,8135.632650331575,-10605.835688809835,-25040.61460979159,-23995.17881812797,14433.61663027008,6648.034649853069,23558.358676237905,50378.46271734986,0.0,0.0,0.0,193.0,0.0,192.0,0.0,0.0,0.0,178.0,192.0,0.0,178.0,1744418693.880721,0.0,2025-04-11 20:44:53.880,BACKWARD,21
53.0,8113.884402976561,-10647.76756140799,-25026.533010784748,-24044.75498732984,14561.714477743446,6488.689063631185,23919.249942213293,50363.30823460916,0.0,0.0,0.0,193.0,0.0,193.0,0.0,0.0,0.0,178.0,193.0,0.0,178.0,1744418693.8807783,0.0,2025-04-11 20:44:53.880,BACKWARD,21
54.0,8116.499557077833,-10651.165026565199,-25065.29093567025,-24053.31570545622,14467.188950441952,6321.386256383212,23940.327637234644,50224.79447421962,0.0,0.0,0.0,193.0,0.0,193.0,0.0,0.0,0.0,178.0,193.0,0.0,178.0,1744418693.880865,0.0,2025-04-11 20:44:53.880,BACKWARD,21
55.0,8115.449025088433,-10623.71708437408,-25094.281148228783,-24020.212771917915,14359.431190422916,6548.927014938237,23689.608119679466,50282.99841678124,0.0,0.0,0.0,193.0,0.0,192.0,0.0,0.0,0.0,178.0,192.0,0.0,178.0,1744418693.880986,0.0,2025-04-11 20:44:53.880,BACKWARD,21
56.0,8146.964984770416,-10592.357586903285,-25053.265697153296,-23994.865893705595,14406.056929356686,6675.214371110723,23480.46284681116,50349.9865949138,0.0,0.0,0.0,193.0,0.0,193.0,0.0,0.0,0.0,179.0,193.0,0.0,179.0,1744418693.8812428,0.0,2025-04-11 20:44:53.881,BACKWARD,21
57.0,8127.340153138656,-10623.739436118536,-25029.23757186384,-24034.964923258416,14581.004033208375,6569.088288436925,23791.152094739926,50353.69698449338,0.0,0.0,0.0,193.0,0.0,193.0,0.0,0.0,0.0,179.0,193.0,0.0,179.0,1744418693.8813004,0.0,2025-04-11 20:44:53.881,BACKWARD,21
58.0,8116.097225677637,-10634.848253112825,-25065.827377537178,-24060.51296717083,14517.748596399857,6359.697146379608,23890.460895354856,50216.725494471255,0.0,0.0,0.0,193.0,0.0,192.0,0.0,0.0,0.0,178.0,192.0,0.0,178.0,1744418693.881354,0.0,2025-04-11 20:44:53.881,BACKWARD,21
59.0,8109.861088974606,-10628.098026287322,-25098.59503490866,-24036.395434903556,14403.978217122343,6536.857072932372,23666.988154290695,50240.99948894972,0.0,0.0,0.0,193.0,0.0,193.0,0.0,0.0,0.0,179.0,193.0,0.0,179.0,1744418693.8814025,0.0,2025-04-11 20:44:53.881,BACKWARD,21
60.0,8134.89504276455,-10597.766709061469,-25072.331735173673,-24016.904713738528,14394.903408873488,6685.831449726993,23416.91683732472,50322.33748702258,0.0,0.0,0.0,193.0,0.0,192.0,0.0,0.0,0.0,178.0,192.0,0.0,178.0,1744418693.8815055,0.0,2025-04-11 20:44:53.881,BACKWARD,21
61.0,8123.182728669969,-10637.86573861429,-25032.076243409665,-24034.272019180302,14572.867998226644,6595.508050383098,23661.35551468796,50340.330641309105,0.0,0.0,0.0,193.0,0.0,193.0,0.0,0.0,0.0,179.0,193.0,0.0,179.0,1744418693.8815527,0.0,2025-04-11 20:44:53.881,BACKWARD,21
62.0,8117.393626856045,-10654.741305678048,-25063.927479258477,-24057.316667713723,14531.383160517593,6369.040175561926,23852.082950125096,50221.195843362315,0.0,0.0,0.0,193.0,0.0,193.0,0.0,0.0,0.0,178.0,193.0,0.0,178.0,1744418693.8815928,0.0,2025-04-11 20:44:53.881,BACKWARD,21
63.0,8124.479129848377,-10620.923116317168,-25088.62615688159,-24017.99994921684,14413.812984682678,6474.205133224146,23641.663627822832,50207.04718912211,0.0,0.0,0.0,193.0,0.0,192.0,0.0,0.0,0.0,178.0,192.0,0.0,178.0,1744418693.8816357,0.0,2025-04-11 20:44:53.881,BACKWARD,21
64.0,8146.383839414578,-10596.559714860883,-25069.96245026141,-23990.50730353681,14381.693527900403,6662.585635493474,23354.644877272236,50302.44443445736,0.0,0.0,0.0,193.0,0.0,193.0,0.0,0.0,0.0,179.0,193.0,0.0,179.0,1744418693.881685,0.0,2025-04-11 20:44:53.881,BACKWARD,21
65.0,8124.099150192636,-10640.570299693383,-25037.932400456953,-24023.81140277522,14532.791320418279,6618.440940194242,23502.524018588545,50332.79810342767,0.0,0.0,0.0,193.0,0.0,192.0,0.0,0.0,0.0,178.0,192.0,0.0,178.0,1744418693.8817363,0.0,2025-04-11 20:44:53.881,BACKWARD,21
66.0,8106.150699395025,-10665.246625572041,-25061.133511201562,-24065.251536995358,14540.92735540001,6415.397693562233,23787.79933307163,50248.107343686504,0.0,0.0,0.0,193.0,0.0,192.0,0.0,0.0,0.0,178.0,192.0,0.0,178.0,1744418693.881791,0.0,2025-04-11 20:44:53.881,BACKWARD,21
67.0,8120.746388524341,-10629.685000143649,-25080.758342833324,-24025.532487098277,14421.032598141743,6456.681365571185,23621.949389213252,50179.30867425307,0.0,0.0,0.0,193.0,0.0,193.0,0.0,0.0,0.0,179.0,193.0,0.0,179.0,1744418693.8818536,0.0,2025-04-11 20:44:53.881,BACKWARD,21
68.0,8123.853281003629,-10602.795851563913,-25080.266604455308,-23995.089411150147,14352.256280452762,6694.436871342286,23343.401949811217,50284.78655633766,0.0,0.0,0.0,193.0,0.0,193.0,0.0,0.0,0.0,179.0,193.0,0.0,179.0,1744418693.8818948,0.0,2025-04-11 20:44:53.881,BACKWARD,21
69.0,8121.37223736909,-10627.852157098312,-25037.887696968046,-24014.75894627082,14488.311348952217,6656.8635889129155,23377.6671740612,50310.78163513919,0.0,0.0,0.0,193.0,0.0,193.0,0.0,0.0,0.0,178.0,193.0,0.0,178.0,1744418693.8819358,0.0,2025-04-11 20:44:53.881,BACKWARD,21
70.0,8092.091452132637,-10663.771410437992,-25055.18794717645,-24071.174749276015,14543.96719264593,6449.685269556674,23721.727576461744,50239.61368079349,0.0,0.0,0.0,193.0,0.0,193.0,0.0,0.0,0.0,179.0,193.0,0.0,179.0,1744418693.881971,0.0,2025-04-11 20:44:53.881,BACKWARD,21
71.0,8104.340208094145,-10636.278764757964,-25072.53290087377,-24042.966847773416,14427.224031355863,6415.777673217974,23613.34396759796,50139.16494121134,0.0,0.0,0.0,193.0,0.0,193.0,0.0,0.0,0.0,179.0,193.0,0.0,179.0,1744418693.8820484,0.0,2025-04-11 20:44:53.882,BACKWARD,21
72.0,8125.216737415402,-10617.212726737587,-25076.690325342457,-24002.778411242773,14347.31654492814,6659.925777903292,23327.867487414776,50231.92468070086,0.0,0.0,0.0,193.0,0.0,192.0,0.0,0.0,0.0,178.0,192.0,0.0,178.0,1744418693.8820815,0.0,2025-04-11 20:44:53.882,BACKWARD,21
73.0,8135.386781142567,-10609.747244089514,-25024.968388672878,-23991.781352970764,14451.609784556602,6679.595313023962,23271.764608831956,50276.60581786702,0.0,0.0,0.0,193.0,0.0,193.0,0.0,0.0,0.0,179.0,193.0,0.0,179.0,1744418693.8821137,0.0,2025-04-11 20:44:53.882,BACKWARD,21
74.0,8100.115728392092,-10662.944395893144,-25036.323074856173,-24048.71124609843,14556.953556174465,6504.804671383461,23662.048418766073,50248.599082064524,0.0,0.0,0.0,193.0,0.0,192.0,0.0,0.0,0.0,178.0,192.0,0.0,178.0,1744418693.8821452,0.0,2025-04-11 20:44:53.882,BACKWARD,21
75.0,8112.520946564788,-10651.165026565199,-25065.96148800391,-24039.301161682746,14458.248252659829,6380.260751278491,23621.278836879592,50119.51775783512,0.0,0.0,0.0,193.0,0.0,192.0,0.0,0.0,0.0,179.0,192.0,0.0,179.0,1744418693.8821945,0.0,2025-04-11 20:44:53.882,BACKWARD,21
76.0,8120.612278057609,-10615.111662758787,-25077.986726520867,-23997.861027462608,14375.390335964006,6624.297097241533,23369.799360012934,50211.048151379604,0.0,0.0,0.0,193.0,0.0,193.0,0.0,0.0,0.0,179.0,193.0,0.0,179.0,1744418693.88223,0.0,2025-04-11 20:44:53.882,BACKWARD,21
77.0,8139.521853866799,-10614.530517402949,-25040.18992664694,-23991.982518670862,14425.547650521714,6691.195868396267,23235.55478281436,50272.448393398336,0.0,0.0,0.0,193.0,0.0,193.0,0.0,0.0,0.0,178.0,193.0,0.0,178.0,1744418693.8822615,0.0,2025-04-11 20:44:53.882,BACKWARD,21
78.0,8103.93787669395,-10660.619814469794,-25029.61755151958,-24043.927972784993,14574.633786038612,6536.030058387525,23597.608339501425,50261.049003726126,0.0,0.0,0.0,193.0,0.0,192.0,0.0,0.0,0.0,178.0,192.0,0.0,178.0,1744418693.8822937,0.0,2025-04-11 20:44:53.882,BACKWARD,21
79.0,8090.683292231953,-10651.276785287475,-25067.34729616014,-24057.584888647187,14487.797258829745,6373.890504108728,23648.21268894824,50148.99970877168,0.0,0.0,0.0,193.0,0.0,193.0,0.0,0.0,0.0,179.0,193.0,0.0,179.0,1744418693.8823264,0.0,2025-04-11 20:44:53.882,BACKWARD,21
80.0,8112.029208186771,-10615.71515985908,-25081.987688778365,-24013.4178416035,14375.36798421955,6587.372015401365,23388.261900933016,50204.432035020836,0.0,0.0,0.0,193.0,0.0,193.0,0.0,0.0,0.0,179.0,193.0,0.0,179.0,1744418693.8823588,0.0,2025-04-11 20:44:53.882,BACKWARD,21
81.0,8129.3741618840895,-10592.804621792391,-25041.642790036534,-23993.010698915805,14403.41942351096,6708.9878569826915,23170.220633771496,50276.292893444646,0.0,0.0,0.0,193.0,0.0,192.0,0.0,0.0,0.0,178.0,192.0,0.0,178.0,1744418693.8823905,0.0,2025-04-11 20:44:53.882,BACKWARD,21
82.0,8095.310103334201,-10649.063962586399,-25028.18703987444,-24033.646170335553,14565.178998134017,6611.69071336874,23488.17419864824,50299.561059422624,0.0,0.0,0.0,193.0,0.0,193.0,0.0,0.0,0.0,179.0,193.0,0.0,179.0,1744418693.882422,0.0,2025-04-11 20:44:53.882,BACKWARD,21
83.0,8076.556989736198,-10680.378756568285,-25081.54065388926,-24078.684935412995,14494.882761822077,6404.422987034677,23624.00574970314,50181.901476609884,0.0,0.0,0.0,193.0,0.0,192.0,0.0,0.0,0.0,178.0,192.0,0.0,178.0,1744418693.882454,0.0,2025-04-11 20:44:53.882,BACKWARD,21
84.0,8085.989425896339,-10638.066904314388,-25106.17227627901,-24036.060158736727,14380.307719744173,6545.171921869746,23375.543758337946,50186.103604567485,0.0,0.0,0.0,193.0,0.0,192.0,0.0,0.0,0.0,178.0,192.0,0.0,178.0,1744418693.882486,0.0,2025-04-11 20:44:53.882,BACKWARD,21
85.0,8109.637571530053,-10598.169040461666,-25070.990630506352,-24002.286672864757,14384.107516301576,6704.003417969158,23095.9010834576,50272.448393398336,0.0,0.0,0.0,193.0,0.0,193.0,0.0,0.0,0.0,179.0,193.0,0.0,179.0,1744418693.8825176,0.0,2025-04-11 20:44:53.882,BACKWARD,21
86.0,8095.108937634103,-10641.531424704961,-25036.23366787835,-24032.1709552015,14554.472512539925,6630.063847311002,23300.08426905683,50288.42989068388,0.0,0.0,0.0,193.0,0.0,192.0,0.0,0.0,0.0,178.0,192.0,0.0,178.0,1744418693.882565,0.0,2025-04-11 20:44:53.882,BACKWARD,21
87.0,8087.643454986031,-10665.134866849765,-25064.665086825502,-24065.028019550806,14535.808805919743,6421.164443631702,23511.55412334849,50181.141517298405,0.0,0.0,0.0,193.0,0.0,192.0,0.0,0.0,0.0,178.0,192.0,0.0,178.0,1744418693.8825967,0.0,2025-04-11 20:44:53.882,BACKWARD,21
88.0,8080.401489782512,-10655.411858011706,-25099.466752942415,-24045.38083617459,14398.27852228624,6518.506290734565,23324.022987368466,50166.23290374671,0.0,0.0,0.0,193.0,0.0,193.0,0.0,0.0,0.0,179.0,193.0,0.0,179.0,1744418693.8826284,0.0,2025-04-11 20:44:53.882,BACKWARD,21
89.0,8100.69687374793,-10619.559659905393,-25083.664069612514,-24015.429498604477,14337.057094223153,6703.198755168767,23017.066480763733,50259.88671301445,0.0,0.0,0.0,193.0,0.0,193.0,0.0,0.0,0.0,179.0,193.0,0.0,179.0,1744418693.88266,0.0,2025-04-11 20:44:53.882,BACKWARD,21
90.0,8087.442289285933,-10646.940546863145,-25047.63305755056,-24039.3235134272,14494.838058333167,6658.115286602412,23138.615267111694,50295.783614609674,0.0,0.0,0.0,193.0,0.0,192.0,0.0,0.0,0.0,178.0,192.0,0.0,178.0,1744418693.8827052,0.0,2025-04-11 20:44:53.882,BACKWARD,21
91.0,8055.367535992567,-10691.44287007366,-25086.39098243606,-24100.85786591266,14526.666942437523,6441.996269464049,23437.480442223605,50215.16087235938,0.0,0.0,0.0,193.0,0.0,193.0,0.0,0.0,0.0,179.0,193.0,0.0,179.0,1744418693.8827372,0.0,2025-04-11 20:44:53.882,BACKWARD,21
92.0,8068.800934410207,-10666.744192450547,-25113.011910082332,-24068.447836452466,14408.672083457957,6450.914615501716,23259.64996333718,50139.03083074461,0.0,0.0,0.0,193.0,0.0,193.0,0.0,0.0,0.0,178.0,193.0,0.0,178.0,1744418693.8827689,0.0,2025-04-11 20:44:53.882,BACKWARD,21
93.0,8092.940818421939,-10630.646125155226,-25103.937101833475,-24028.997007488848,14351.60807986356,6679.617664768418,22962.371762081595,50242.05002093912,0.0,0.0,0.0,193.0,0.0,192.0,0.0,0.0,0.0,178.0,192.0,0.0,178.0,1744418693.8827996,0.0,2025-04-11 20:44:53.882,BACKWARD,21
94.0,8101.03214991476,-10639.653878170715,-25054.316229142696,-24033.065024979715,14479.974148270387,6682.70220550325,22983.807085014236,50291.84970758554,0.0,0.0,0.0,193.0,0.0,193.0,0.0,0.0,0.0,179.0,193.0,0.0,179.0,1744418694.357756,0.0,2025-04-11 20:44:54.357,BACKWARD,21
95.0,8079.775640937763,-10684.424422314694,-25070.20831945042,-24083.602319193164,14555.366582318138,6505.564630694942,23343.781929466957,50241.826503494565,0.0,0.0,0.0,193.0,0.0,193.0,0.0,0.0,0.0,178.0,193.0,0.0,178.0,1744418694.3578136,0.0,2025-04-11 20:44:54.357,BACKWARD,21
96.0,8090.504478276311,-10659.211654569108,-25097.209226752428,-24057.741350858374,14440.322153606672,6443.203263664635,23226.547029798872,50131.1853684408,0.0,0.0,0.0,193.0,0.0,192.0,0.0,0.0,0.0,178.0,192.0,0.0,178.0,1744418694.3578484,0.0,2025-04-11 20:44:54.357,BACKWARD,21
97.0,8088.671635230975,-10633.350686234318,-25106.865180357123,-24027.454737121432,14359.006507278265,6688.580714294996,22876.518711628763,50224.57095677507,0.0,0.0,0.0,193.0,0.0,193.0,0.0,0.0,0.0,178.0,193.0,0.0,178.0,1744418694.3578887,0.0,2025-04-11 20:44:54.357,BACKWARD,21
98.0,8098.282885346757,-10628.701523387614,-25054.115063442598,-24025.353673142636,14442.378514096561,6719.224955943222,22731.67940755837,50273.61068411001,0.0,0.0,0.0,193.0,0.0,192.0,0.0,0.0,0.0,178.0,192.0,0.0,178.0,1744418694.3579216,0.0,2025-04-11 20:44:54.357,BACKWARD,21
99.0,8069.784411166241,-10686.838410715867,-25052.326923886172,-24075.3321737447,14553.69020148399,6556.459552819676,23080.210158849975,50246.52036983018,0.0,0.0,0.0,193.0,0.0,192.0,0.0,0.0,0.0,178.0,192.0,0.0,178.0,1744418694.3579547,0.0,2025-04-11 20:44:54.357,BACKWARD,21
100.0,8071.527847233755,-10682.92685543619,-25090.861331327123,-24071.04063880928,14451.945060723432,6430.4627693251105,23067.961402888468,50122.423484614315,0.0,0.0,0.0,193.0,0.0,193.0,0.0,0.0,0.0,179.0,193.0,0.0,179.0,1744418694.357988,0.0,2025-04-11 20:44:54.357,BACKWARD,21
101.0,8070.432611755445,-10662.720878448592,-25116.297616517262,-24040.910487283527,14349.663478095947,6665.469010528209,22857.89970849749,50212.27749732465,0.0,0.0,0.0,193.0,0.0,192.0,0.0,0.0,0.0,178.0,192.0,0.0,178.0,1744418694.3580616,0.0,2025-04-11 20:44:54.358,BACKWARD,21
102.0,8088.559876508699,-10643.833654383858,-25063.56985134719,-24016.860010249617,14398.971426364355,6741.777866098627,22708.321834602575,50273.007187009716,0.0,0.0,0.0,193.0,0.0,192.0,0.0,0.0,0.0,178.0,192.0,0.0,178.0,1744418694.3580952,0.0,2025-04-11 20:44:54.358,BACKWARD,21
103.0,8063.481219229844,-10687.955997938634,-25045.86726973859,-24061.071760782215,14547.78934094779,6606.818033077483,23057.925469628033,50273.25305619873,0.0,0.0,0.0,193.0,0.0,193.0,0.0,0.0,0.0,179.0,193.0,0.0,179.0,1744418694.3581283,0.0,2025-04-11 20:44:54.358,BACKWARD,21
104.0,8067.191608809425,-10685.966692682112,-25078.63492711007,-24075.91331910054,14464.059706218208,6411.597897004831,23058.573670217236,50132.347659152474,0.0,0.0,0.0,193.0,0.0,192.0,0.0,0.0,0.0,178.0,192.0,0.0,178.0,1744418694.3581617,0.0,2025-04-11 20:44:54.358,BACKWARD,21
105.0,8071.416088511478,-10662.005622626022,-25097.05276454124,-24027.544144099254,14361.688716612902,6622.2630884961,22781.568501182617,50182.326159754535,0.0,0.0,0.0,193.0,0.0,193.0,0.0,0.0,0.0,179.0,193.0,0.0,179.0,1744418694.358212,0.0,2025-04-11 20:44:54.358,BACKWARD,21
106.0,8074.366518779579,-10659.77044818049,-25078.523168387794,-24022.31383589671,14368.975385305332,6777.451250249297,22574.881920204392,50278.95275103483,0.0,0.0,0.0,193.0,0.0,193.0,0.0,0.0,0.0,179.0,193.0,0.0,179.0,1744418694.358245,0.0,2025-04-11 20:44:54.358,BACKWARD,21
107.0,8058.094448816115,-10701.50115507855,-25054.58445007616,-24068.51489168583,14522.084834824185,6669.760545463628,22872.540101115716,50285.926495304884,0.0,0.0,0.0,193.0,0.0,192.0,0.0,0.0,0.0,178.0,192.0,0.0,178.0,1744418694.358278,0.0,2025-04-11 20:44:54.358,BACKWARD,21
108.0,8046.851521355095,-10720.254268676552,-25081.49595040035,-24089.547883218274,14476.330813924173,6452.523941102499,23030.477527436917,50158.9909385432,0.0,0.0,0.0,193.0,0.0,193.0,0.0,0.0,0.0,179.0,193.0,0.0,179.0,1744418694.3583112,0.0,2025-04-11 20:44:54.358,BACKWARD,21
109.0,8041.196530007903,-10708.184326670686,-25098.930311075488,-24044.643228607565,14370.204731250375,6597.139727728335,22839.258353621764,50181.81206963206,0.0,0.0,0.0,193.0,0.0,192.0,0.0,0.0,0.0,179.0,192.0,0.0,179.0,1744418694.358344,0.0,2025-04-11 20:44:54.358,BACKWARD,21
110.0,8056.887454615528,-10685.966692682112,-25068.800159549734,-24012.970806714395,14358.492417155794,6763.995500087202,22586.61658604343,50269.83323929706,0.0,0.0,0.0,193.0,0.0,193.0,0.0,0.0,0.0,178.0,193.0,0.0,178.0,1744418694.3583765,0.0,2025-04-11 20:44:54.358,BACKWARD,21
111.0,8041.956489319384,-10712.654675561747,-25030.422214319973,-24042.117481484114,14527.762177915834,6687.954865450248,22812.145687597476,50286.708806360824,0.0,0.0,0.0,193.0,0.0,193.0,0.0,0.0,0.0,179.0,193.0,0.0,179.0,1744418694.35841,0.0,2025-04-11 20:44:54.358,BACKWARD,21
112.0,8019.91766928645,-10747.74691435658,-25057.758397788813,-24078.975508090916,14500.425994446994,6461.978729007093,23068.967231388957,50188.45053773529,0.0,0.0,0.0,193.0,0.0,192.0,0.0,0.0,0.0,178.0,192.0,0.0,178.0,1744418694.3584428,0.0,2025-04-11 20:44:54.358,BACKWARD,21
113.0,8013.547422116688,-10743.567138143437,-25089.900206315542,-24050.02999902129,14361.17462649043,6531.760875196562,22901.351499718607,50166.9928630582,0.0,0.0,0.0,193.0,0.0,193.0,0.0,0.0,0.0,178.0,193.0,0.0,178.0,1744418694.3584752,0.0,2025-04-11 20:44:54.358,BACKWARD,21
114.0,8020.387055920012,-10717.192079686176,-25078.880796299076,-24016.591789316153,14343.181472203909,6752.461999948264,22613.52808636762,50268.20156195183,0.0,0.0,0.0,193.0,0.0,193.0,0.0,0.0,0.0,179.0,193.0,0.0,179.0,1744418694.3585076,0.0,2025-04-11 20:44:54.358,BACKWARD,21
115.0,8006.908954013462,-10739.700286352669,-25034.28906611074,-24030.628684834086,14503.734052626378,6736.882834062914,22695.022546651668,50308.233536271284,0.0,0.0,0.0,193.0,0.0,192.0,0.0,0.0,0.0,178.0,192.0,0.0,178.0,1744418694.3585403,0.0,2025-04-11 20:44:54.358,BACKWARD,21
116.0,7962.227816847303,-10810.577668020447,-25070.096560728143,-24092.297147786277,14532.053712851253,6534.845415931394,22987.40571587154,50237.13263715895,0.0,0.0,0.0,193.0,0.0,193.0,0.0,0.0,0.0,179.0,193.0,0.0,179.0,1744418694.3586957,0.0,2025-04-11 20:44:54.358,BACKWARD,21
117.0,7951.543682997666,-10810.465909298171,-25102.238369254872,-24069.118388786126,14412.94126664892,6524.00481987057,22825.66849299294,50165.49529617969,0.0,0.0,0.0,193.0,0.0,193.0,0.0,0.0,0.0,179.0,193.0,0.0,179.0,1744418694.35873,0.0,2025-04-11 20:44:54.358,BACKWARD,21
118.0,7963.390107558979,-10778.391156004805,-25097.209226752428,-24027.65590282153,14345.304887927163,6749.757438869172,22527.853849870426,50269.788535808155,0.0,0.0,0.0,193.0,0.0,192.0,0.0,0.0,0.0,178.0,192.0,0.0,178.0,1744418694.358763,0.0,2025-04-11 20:44:54.358,BACKWARD,21
119.0,7953.28711906518,-10795.311426557473,-25055.99260997684,-24034.920219769505,14460.997517227832,6746.38232545642,22517.281474743068,50313.30738226264,0.0,0.0,0.0,193.0,0.0,193.0,0.0,0.0,0.0,179.0,193.0,0.0,179.0,1744418694.3587961,0.0,2025-04-11 20:44:54.358,BACKWARD,21
120.0,7911.109377278016,-10850.788456295546,-25072.041162495752,-24093.660604198052,14551.11975087163,6561.86867497786,22887.96280478988,50280.338559191056,0.0,0.0,0.0,193.0,0.0,192.0,0.0,0.0,0.0,178.0,192.0,0.0,178.0,1744418694.3588445,0.0,2025-04-11 20:44:54.358,BACKWARD,21
121.0,7907.309580720614,-10849.33559290595,-25102.998328566355,-24085.412810494043,14441.998534440821,6485.716281618629,22815.56550449914,50184.0472440776,0.0,0.0,0.0,193.0,0.0,192.0,0.0,0.0,0.0,178.0,192.0,0.0,178.0,1744418694.358878,0.0,2025-04-11 20:44:54.358,BACKWARD,21
122.0,7916.47379594729,-10823.876955971356,-25107.803953624243,-24048.353618187146,14351.36221067455,6714.75460705216,22534.827594140483,50279.0645097571,0.0,0.0,0.0,193.0,0.0,193.0,0.0,0.0,0.0,179.0,193.0,0.0,179.0,1744418694.3589108,0.0,2025-04-11 20:44:54.358,BACKWARD,21
123.0,7943.76527592722,-10809.191859864219,-25058.71952280039,-24030.740443556362,14430.912069190988,6753.66899414885,22425.01347363156,50332.90986214994,0.0,0.0,0.0,193.0,0.0,192.0,0.0,0.0,0.0,178.0,192.0,0.0,178.0,1744418694.3589437,0.0,2025-04-11 20:44:54.358,BACKWARD,21
124.0,7910.260010988714,-10860.153837222319,-25063.882775769565,-24082.842359881684,14552.393800305583,6605.275762710066,22788.564597197128,50315.76607415272,0.0,0.0,0.0,193.0,0.0,193.0,0.0,0.0,0.0,179.0,193.0,0.0,179.0,1744418694.3589745,0.0,2025-04-11 20:44:54.358,BACKWARD,21
125.0,7908.695388876843,-10851.168435951286,-25090.883683071577,-24073.72284814392,14452.794427012734,6476.149734991758,22778.75218138125,50201.79452917511,0.0,0.0,0.0,193.0,0.0,193.0,0.0,0.0,0.0,179.0,193.0,0.0,179.0,1744418694.3590035,0.0,2025-04-11 20:44:54.359,BACKWARD,21
126.0,7916.47379594729,-10830.29190663003,-25112.006081581843,-24038.272981437804,14342.577975103615,6717.101540219968,22531.564239450006,50294.531916920176,0.0,0.0,0.0,193.0,0.0,192.0,0.0,0.0,0.0,178.0,192.0,0.0,178.0,1744418694.3590326,0.0,2025-04-11 20:44:54.359,BACKWARD,21
127.0,7936.411552001424,-10816.43382506774,-25076.466807897905,-24029.220524933404,14400.759565920778,6793.656264979394,22338.534574333975,50359.888417707494,0.0,0.0,0.0,193.0,0.0,193.0,0.0,0.0,0.0,179.0,193.0,0.0,179.0,1744418694.3590617,0.0,2025-04-11 20:44:54.359,BACKWARD,21
128.0,7897.631275371466,-10863.886578546355,-25062.049932724232,-24074.72867664441,14560.798056220778,6653.890806900359,22653.2471362647,50351.73003098131,0.0,0.0,0.0,193.0,0.0,192.0,0.0,0.0,0.0,178.0,192.0,0.0,178.0,1744418694.3590908,0.0,2025-04-11 20:44:54.359,BACKWARD,21
129.0,7898.413586427401,-10877.521142664093,-25092.045973783253,-24078.66258366854,14452.325040379172,6462.068135984914,22686.81945643657,50215.71966597076,0.0,0.0,0.0,193.0,0.0,192.0,0.0,0.0,0.0,178.0,192.0,0.0,178.0,1744418694.35912,0.0,2025-04-11 20:44:54.359,BACKWARD,21
130.0,7910.3717697109905,-10857.493979632138,-25107.848657113154,-24034.56259185822,14346.444826894383,6661.535103504075,22426.68985446571,50275.242361455246,0.0,0.0,0.0,193.0,0.0,193.0,0.0,0.0,0.0,179.0,193.0,0.0,179.0,1744418694.3591492,0.0,2025-04-11 20:44:54.359,BACKWARD,21
131.0,7932.432941488379,-10831.007162452599,-25074.43279915247,-24016.18945791596,14358.000678777777,6785.453174764297,22170.15888335215,50366.70569976637,0.0,0.0,0.0,193.0,0.0,192.0,0.0,0.0,0.0,178.0,192.0,0.0,178.0,1744418694.3591783,0.0,2025-04-11 20:44:54.359,BACKWARD,21
132.0,7918.038418059161,-10864.62418611338,-25034.19965913292,-24046.85605130864,14523.068311580219,6679.237685112677,22416.855086905372,50383.804784274675,0.0,0.0,0.0,193.0,0.0,193.0,0.0,0.0,0.0,179.0,193.0,0.0,179.0,1744418694.359303,0.0,2025-04-11 20:44:54.359,BACKWARD,21
133.0,7903.666246374399,-10882.77380261109,-25075.72920033088,-24082.4847319704,14478.43187790297,6465.197380208658,22571.529158536097,50281.120870246996,0.0,0.0,0.0,193.0,0.0,192.0,0.0,0.0,0.0,178.0,192.0,0.0,178.0,1744418694.3593328,0.0,2025-04-11 20:44:54.359,BACKWARD,21
134.0,7915.445615702345,-10846.161645193297,-25104.384136722583,-24040.508155883334,14340.566318102638,6589.8307072914495,22326.107004416826,50284.02659702618,0.0,0.0,0.0,193.0,0.0,193.0,0.0,0.0,0.0,179.0,193.0,0.0,179.0,1744418694.359362,0.0,2025-04-11 20:44:54.359,BACKWARD,21
135.0,7934.422246744901,-10814.355112833395,-25079.64075561056,-24012.23319914737,14328.205803418852,6782.547447985107,22034.12616659715,50386.10701395357,0.0,0.0,0.0,193.0,0.0,193.0,0.0,0.0,0.0,179.0,193.0,0.0,179.0,1744418694.3593955,0.0,2025-04-11 20:44:54.359,BACKWARD,21
136.0,7920.273592504692,-10846.116941704386,-25032.99266493233,-24042.408054162035,14524.901154625555,6732.725409594227,22202.904188979173,50425.37902896154,0.0,0.0,0.0,193.0,0.0,192.0,0.0,0.0,0.0,178.0,192.0,0.0,178.0,1744418694.35944,0.0,2025-04-11 20:44:54.359,BACKWARD,21
137.0,7909.030665043672,-10872.134372250364,-25063.480444369372,-24088.787923906795,14520.363750501127,6508.135081307302,22441.352598828387,50332.284013305194,0.0,0.0,0.0,193.0,0.0,193.0,0.0,0.0,0.0,179.0,193.0,0.0,179.0,1744418694.3594697,0.0,2025-04-11 20:44:54.359,BACKWARD,21
138.0,7918.28428724817,-10848.95561325021,-25097.09746803015,-24050.90171705505,14399.820792653656,6564.617939545863,22259.699971640108,50301.28214374568,0.0,0.0,0.0,193.0,0.0,192.0,0.0,0.0,0.0,178.0,192.0,0.0,178.0,1744418694.359499,0.0,2025-04-11 20:44:54.359,BACKWARD,21
139.0,7946.894520150962,-10805.459118540182,-25083.552310890238,-24011.719109024896,14341.192166947385,6766.72241291075,21960.700686061464,50401.97675251684,0.0,0.0,0.0,193.0,0.0,192.0,0.0,0.0,0.0,178.0,192.0,0.0,178.0,1744418694.3595283,0.0,2025-04-11 20:44:54.359,BACKWARD,21
140.0,7952.683621964887,-10814.623333766858,-25034.557287044205,-24026.873591765594,14482.902226794033,6728.992668270192,22012.802602386786,50433.11273254308,0.0,0.0,0.0,193.0,0.0,193.0,0.0,0.0,0.0,179.0,193.0,0.0,179.0,1744418694.3595576,0.0,2025-04-11 20:44:54.359,BACKWARD,21
141.0,7924.006333828728,-10861.450238400726,-25057.937211744455,-24071.822949865218,14527.605715704647,6520.316782035445,22282.31993702888,50367.42095558893,0.0,0.0,0.0,193.0,0.0,192.0,0.0,0.0,0.0,178.0,192.0,0.0,178.0,1744418694.3595867,0.0,2025-04-11 20:44:54.359,BACKWARD,21
142.0,7918.28428724817,-10854.208273197208,-25088.559101648225,-24047.034865264282,14401.720690932358,6501.518964948531,22125.790670608363,50299.873983845,0.0,0.0,0.0,193.0,0.0,193.0,0.0,0.0,0.0,178.0,193.0,0.0,178.0,1744418694.359616,0.0,2025-04-11 20:44:54.359,BACKWARD,21
143.0,7952.884787664984,-10795.490240513116,-25067.90608977152,-23994.642376261043,14333.190242432385,6737.374572440931,21820.532896582234,50404.9495345294,0.0,0.0,0.0,193.0,0.0,192.0,0.0,0.0,0.0,179.0,192.0,0.0,179.0,1744418694.3596456,0.0,2025-04-11 20:44:54.359,BACKWARD,21
144.0,7962.786610458686,-10794.819688179456,-25019.648673492513,-24003.739536254354,14452.213281656896,6743.834226588515,21800.058698661174,50453.31870953068,0.0,0.0,0.0,193.0,0.0,192.0,0.0,0.0,0.0,178.0,192.0,0.0,178.0,1744418694.3596747,0.0,2025-04-11 20:44:54.359,BACKWARD,21
145.0,7928.90136586444,-10835.566918321481,-25039.34056035764,-24070.19127251998,14535.831157664199,6541.9309189237265,22176.573834010822,50410.80569157669,0.0,0.0,0.0,193.0,0.0,193.0,0.0,0.0,0.0,178.0,193.0,0.0,178.0,1744418694.3597047,0.0,2025-04-11 20:44:54.359,BACKWARD,21
146.0,7933.394066499957,-10833.599964809415,-25077.472636398394,-24059.015400292326,14425.033560399243,6446.980708477582,22135.446624213055,50319.6776294324,0.0,0.0,0.0,193.0,0.0,192.0,0.0,0.0,0.0,178.0,192.0,0.0,178.0,1744418694.3597336,0.0,2025-04-11 20:44:54.359,BACKWARD,21
147.0,7955.008203388239,-10815.673865756258,-25091.53188366078,-24023.789051030762,14323.936620227889,6679.550609535052,21865.99634480433,50405.82125256315,0.0,0.0,0.0,193.0,0.0,192.0,0.0,0.0,0.0,178.0,192.0,0.0,178.0,1744418694.3598936,0.0,2025-04-11 20:44:54.359,BACKWARD,21
148.0,7969.492133795278,-10811.002351165098,-25044.704979026912,-24019.206943417426,14397.22799029684,6759.0557645625795,21776.25409081627,50471.49067777285,0.0,0.0,0.0,193.0,0.0,193.0,0.0,0.0,0.0,179.0,193.0,0.0,179.0,1744418694.3599267,0.0,2025-04-11 20:44:54.359,BACKWARD,21
149.0,7946.0004503727505,-10854.543549364036,-25046.023731949776,-24076.56151968974,14511.668921908013,6595.709216083195,22160.011191369438,50454.70451768691,0.0,0.0,0.0,193.0,0.0,192.0,0.0,0.0,0.0,178.0,192.0,0.0,178.0,1744418694.359956,0.0,2025-04-11 20:44:54.359,BACKWARD,21
150.0,7957.466895278323,-10839.43377011225,-25068.129607216073,-24068.29137424128,14414.461185271883,6430.976859447582,22159.206528569048,50306.87007985951,0.0,0.0,0.0,193.0,0.0,193.0,0.0,0.0,0.0,179.0,193.0,0.0,179.0,1744418694.3599858,0.0,2025-04-11 20:44:54.359,BACKWARD,21
151.0,7964.172418614915,-10806.174374362752,-25091.084848771676,-24028.32645515519,14316.515841068727,6665.424307039298,21912.39856629355,50371.95835971336,0.0,0.0,0.0,193.0,0.0,192.0,0.0,0.0,0.0,178.0,192.0,0.0,178.0,1744418694.3600478,0.0,2025-04-11 20:44:54.360,BACKWARD,21
152.0,7989.25107589377,-10785.409603763772,-25052.416330863995,-24006.824076989185,14357.933623544412,6783.754442185694,21735.14923276296,50455.12920083156,0.0,0.0,0.0,193.0,0.0,192.0,0.0,0.0,0.0,178.0,192.0,0.0,178.0,1744418694.3600767,0.0,2025-04-11 20:44:54.360,BACKWARD,21
153.0,7956.304604566647,-10839.076142200964,-25034.713749255392,-24052.108711255638,14529.259744794339,6674.409708310332,22086.47395211148,50470.52955276127,0.0,0.0,0.0,193.0,0.0,193.0,0.0,0.0,0.0,179.0,193.0,0.0,179.0,1744418694.3601053,0.0,2025-04-11 20:44:54.360,BACKWARD,21
154.0,7955.455238277345,-10832.616488053382,-25066.49792987084,-24072.985240576894,14469.178255698474,6471.366461678322,22190.275453361923,50340.5318070092,0.0,0.0,0.0,193.0,0.0,192.0,0.0,0.0,0.0,178.0,192.0,0.0,178.0,1744418694.3601336,0.0,2025-04-11 20:44:54.360,BACKWARD,21
155.0,7962.764258714231,-10794.082080612432,-25093.856465084133,-24041.692798339463,14346.869510039034,6646.2688620411,21985.242901473393,50388.856278521576,0.0,0.0,0.0,193.0,0.0,193.0,0.0,0.0,0.0,178.0,193.0,0.0,178.0,1744418694.3601615,0.0,2025-04-11 20:44:54.360,BACKWARD,21
156.0,7996.671855052931,-10758.341641228395,-25063.659258325013,-24018.13405968357,14320.06976843712,6775.90897988188,21751.86833761553,50474.79873595223,0.0,0.0,0.0,193.0,0.0,193.0,0.0,0.0,0.0,178.0,193.0,0.0,178.0,1744418694.36019,0.0,2025-04-11 20:44:54.360,BACKWARD,21
157.0,7983.126697913015,-10804.721510973157,-25033.931438199455,-24053.829795578695,14493.96634029941,6685.004435182147,22017.16119255557,50487.1145471471,0.0,0.0,0.0,193.0,0.0,192.0,0.0,0.0,0.0,178.0,192.0,0.0,178.0,1744418694.3602188,0.0,2025-04-11 20:44:54.360,BACKWARD,21
158.0,7970.654424506954,-10826.648572283813,-25069.873043283587,-24090.82193265223,14482.902226794033,6479.793069337973,22208.78269777092,50366.8398102331,0.0,0.0,0.0,193.0,0.0,193.0,0.0,0.0,0.0,179.0,193.0,0.0,179.0,1744418694.3602476,0.0,2025-04-11 20:44:54.360,BACKWARD,21
159.0,7969.827409962108,-10797.971284147654,-25096.471619185402,-24053.51687115632,14371.858760340067,6584.555695599997,22002.364337726158,50348.511379779746,0.0,0.0,0.0,193.0,0.0,192.0,0.0,0.0,0.0,178.0,192.0,0.0,178.0,1744418694.3602765,0.0,2025-04-11 20:44:54.360,BACKWARD,21
160.0,7990.860401494551,-10768.869312866846,-25079.19372072145,-24025.80070803174,14336.028913978209,6772.667976935862,21735.708026374345,50451.061183340695,0.0,0.0,0.0,193.0,0.0,193.0,0.0,0.0,0.0,179.0,193.0,0.0,179.0,1744418694.3603065,0.0,2025-04-11 20:44:54.360,BACKWARD,21
161.0,7995.397805618979,-10789.544676488003,-25030.690435253437,-24036.95422851494,14490.457116419926,6728.880909547915,21900.932121387974,50483.18064012297,0.0,0.0,0.0,193.0,0.0,193.0,0.0,0.0,0.0,179.0,193.0,0.0,179.0,1744418694.360335,0.0,2025-04-11 20:44:54.360,BACKWARD,21
162.0,7978.432831577401,-10818.557240790993,-25067.43670313796,-24092.475961741922,14485.025642517287,6506.212831284146,22187.079153904815,50395.07006348015,0.0,0.0,0.0,193.0,0.0,192.0,0.0,0.0,0.0,178.0,192.0,0.0,178.0,1744418694.3605013,0.0,2025-04-11 20:44:54.360,BACKWARD,21
163.0,7983.461974079844,-10794.149135845797,-25092.0236220388,-24056.512004913333,14367.969556804843,6551.408058572777,22023.531439725335,50348.779600713206,0.0,0.0,0.0,193.0,0.0,193.0,0.0,0.0,0.0,179.0,193.0,0.0,179.0,1744418694.360531,0.0,2025-04-11 20:44:54.360,BACKWARD,21
164.0,8001.835108022107,-10761.716754641147,-25078.858444554622,-24019.318702139703,14316.627599791003,6776.691290937816,21740.5807066656,50453.56457871969,0.0,0.0,0.0,193.0,0.0,192.0,0.0,0.0,0.0,178.0,192.0,0.0,178.0,1744418694.3605592,0.0,2025-04-11 20:44:54.360,BACKWARD,21
165.0,8002.0586254666605,-10766.410620976761,-25037.172441145474,-24034.763757558318,14453.308517135207,6752.90903483737,21809.6475970325,50490.199087881934,0.0,0.0,0.0,193.0,0.0,192.0,0.0,0.0,0.0,178.0,192.0,0.0,178.0,1744418694.3605876,0.0,2025-04-11 20:44:54.360,BACKWARD,21
166.0,7980.936226956395,-10799.893534170811,-25067.615517093604,-24096.67808969952,14491.306482709228,6553.173846384746,22169.756551951952,50434.16326453248,0.0,0.0,0.0,193.0,0.0,193.0,0.0,0.0,0.0,179.0,193.0,0.0,179.0,1744418694.3606305,0.0,2025-04-11 20:44:54.360,BACKWARD,21
167.0,7985.048947936171,-10777.22886529313,-25099.645566898056,-24076.42740922301,14373.356327218573,6510.258497030556,22066.670306524076,50352.91467343744,0.0,0.0,0.0,193.0,0.0,192.0,0.0,0.0,0.0,178.0,192.0,0.0,178.0,1744418694.360659,0.0,2025-04-11 20:44:54.360,BACKWARD,21
168.0,8003.86911676754,-10739.096789252377,-25094.906997073533,-24033.087376724172,14307.575143286604,6723.225918200722,21786.98292815482,50455.397421765025,0.0,0.0,0.0,193.0,0.0,193.0,0.0,0.0,0.0,179.0,193.0,0.0,179.0,1744418694.3606873,0.0,2025-04-11 20:44:54.360,BACKWARD,21
169.0,8029.819492080152,-10736.951021784667,-25026.33184508465,-24018.89401899505,14433.728388992356,6746.583491156518,21750.504881203757,50499.586820553166,0.0,0.0,0.0,193.0,0.0,192.0,0.0,0.0,0.0,178.0,192.0,0.0,178.0,1744418694.3607154,0.0,2025-04-11 20:44:54.360,BACKWARD,21
170.0,8001.343369644091,-10796.160792846775,-25034.311417855195,-24071.398266720567,14535.741750686379,6594.502221882609,22146.644848185166,50476.96685516439,0.0,0.0,0.0,193.0,0.0,192.0,0.0,0.0,0.0,179.0,192.0,0.0,179.0,1744418694.3607435,0.0,2025-04-11 20:44:54.360,BACKWARD,21
171.0,7997.409462619957,-10797.881877169833,-25085.519264402305,-24066.369124218123,14405.699301445402,6496.065139301436,22118.056967026827,50378.66388304996,0.0,0.0,0.0,193.0,0.0,193.0,0.0,0.0,0.0,178.0,193.0,0.0,178.0,1744418694.360772,0.0,2025-04-11 20:44:54.360,BACKWARD,21
172.0,8004.629076079021,-10767.215283777152,-25103.132439033085,-24033.422652891,14302.568352528615,6722.465958889242,21853.81464407619,50458.63842471104,0.0,0.0,0.0,193.0,0.0,193.0,0.0,0.0,0.0,178.0,193.0,0.0,178.0,1744418694.3608,0.0,2025-04-11 20:44:54.360,BACKWARD,21
173.0,8011.982800004816,-10759.88391159581,-25060.261793167807,-24031.18747844547,14373.959824318867,6773.226770547244,21738.50199443126,50510.963858480914,0.0,0.0,0.0,193.0,0.0,192.0,0.0,0.0,0.0,178.0,192.0,0.0,178.0,1744418694.3608284,0.0,2025-04-11 20:44:54.360,BACKWARD,21
174.0,7990.502773583266,-10800.51938301556,-25047.297781383728,-24078.707287157453,14510.551334685248,6617.971553560681,22105.22706570948,50494.42356758399,0.0,0.0,0.0,193.0,0.0,193.0,0.0,0.0,0.0,179.0,193.0,0.0,179.0,1744418694.3608563,0.0,2025-04-11 20:44:54.360,BACKWARD,21
175.0,8000.494003354789,-10791.444574766705,-25073.44932239644,-24078.103790057157,14421.658446986492,6455.362612648322,22135.826603868798,50363.6882142649,0.0,0.0,0.0,193.0,0.0,193.0,0.0,0.0,0.0,179.0,193.0,0.0,179.0,1744418694.3608844,0.0,2025-04-11 20:44:54.360,BACKWARD,21
176.0,7996.604799819565,-10778.257045538074,-25104.451191955948,-24053.360408945133,14313.051320678154,6668.218275096211,21914.05259538324,50437.918357600975,0.0,0.0,0.0,193.0,0.0,193.0,0.0,0.0,0.0,178.0,193.0,0.0,178.0,1744418694.3609128,0.0,2025-04-11 20:44:54.360,BACKWARD,21
177.0,8012.496890127289,-10757.693440639192,-25069.426008394483,-24038.720016326908,14329.301038897162,6765.604825687984,21726.25323846975,50514.540137593765,0.0,0.0,0.0,193.0,0.0,192.0,0.0,0.0,0.0,178.0,192.0,0.0,178.0,1744418694.3610475,0.0,2025-04-11 20:44:54.361,BACKWARD,21
178.0,7994.123756185027,-10785.431955508227,-25045.15201391602,-24070.750066131364,14481.091735493153,6644.1230945733905,22052.096969139217,50518.36228589562,0.0,0.0,0.0,193.0,0.0,192.0,0.0,0.0,0.0,178.0,192.0,0.0,178.0,1744418694.3610766,0.0,2025-04-11 20:44:54.361,BACKWARD,21
179.0,7990.614532305543,-10786.482487497628,-25078.545520132247,-24081.590662192186,14407.688606701924,6458.357746405333,22180.954775924063,50389.616237833055,0.0,0.0,0.0,193.0,0.0,192.0,0.0,0.0,0.0,178.0,192.0,0.0,178.0,1744418694.3611047,0.0,2025-04-11 20:44:54.361,BACKWARD,21
180.0,7984.892485724984,-10774.345490258394,-25111.983729837386,-24046.587830375174,14301.294303094663,6645.866530640904,21987.925110808028,50435.5043691998,0.0,0.0,0.0,193.0,0.0,192.0,0.0,0.0,0.0,178.0,192.0,0.0,178.0,1744418694.361133,0.0,2025-04-11 20:44:54.361,BACKWARD,21
181.0,8003.2879714117025,-10748.708039368157,-25085.96629929141,-24031.969789501407,14319.578030059103,6784.380291030442,21755.60107893957,50528.442922644965,0.0,0.0,0.0,193.0,0.0,193.0,0.0,0.0,0.0,179.0,193.0,0.0,179.0,1744418694.3611755,0.0,2025-04-11 20:44:54.361,BACKWARD,21
182.0,8001.164555688448,-10773.853751880379,-25044.414406348995,-24058.52366191431,14503.175259014995,6695.889734731882,22007.326424995237,50541.92102455152,0.0,0.0,0.0,193.0,0.0,193.0,0.0,0.0,0.0,179.0,193.0,0.0,179.0,1744418694.361204,0.0,2025-04-11 20:44:54.361,BACKWARD,21
183.0,7985.29481712518,-10803.067481883465,-25084.379325435082,-24100.723755445928,14468.8653312761,6482.363519950333,22242.176203987146,50439.57238669066,0.0,0.0,0.0,193.0,0.0,192.0,0.0,0.0,0.0,178.0,192.0,0.0,178.0,1744418694.3612325,0.0,2025-04-11 20:44:54.361,BACKWARD,21
184.0,7998.839974265096,-10770.232769278618,-25101.657223899034,-24058.881289825596,14344.768446060234,6587.64023633483,22067.094989668727,50440.913491357984,0.0,0.0,0.0,193.0,0.0,192.0,0.0,0.0,0.0,178.0,192.0,0.0,178.0,1744418694.361261,0.0,2025-04-11 20:44:54.361,BACKWARD,21
185.0,8023.628058866032,-10740.594356130881,-25079.037258510263,-24026.359501643125,14307.888067708978,6768.711718167272,21807.434774331425,50555.5332369248,0.0,0.0,0.0,193.0,0.0,193.0,0.0,0.0,0.0,179.0,193.0,0.0,179.0,1744418694.3612888,0.0,2025-04-11 20:44:54.361,BACKWARD,21
186.0,8029.372457191045,-10758.453399950671,-25023.09084213863,-24036.10486222564,14470.251139432328,6710.440720372287,21972.792979811788,50592.48067050942,0.0,0.0,0.0,193.0,0.0,193.0,0.0,0.0,0.0,178.0,193.0,0.0,178.0,1744418694.3613172,0.0,2025-04-11 20:44:54.361,BACKWARD,21
187.0,8002.907991755962,-10797.52424925855,-25063.502796113826,-24090.4866564854,14477.9177877805,6505.542278950486,22299.97781514857,50523.480835375885,0.0,0.0,0.0,193.0,0.0,192.0,0.0,0.0,0.0,178.0,192.0,0.0,178.0,1744418694.3613453,0.0,2025-04-11 20:44:54.361,BACKWARD,21
188.0,7995.375453874523,-10788.18122007623,-25111.78256413729,-24070.303031242256,14333.391408132484,6537.952308410681,22164.548595493867,50473.144706862535,0.0,0.0,0.0,193.0,0.0,193.0,0.0,0.0,0.0,179.0,193.0,0.0,179.0,1744418694.3613777,0.0,2025-04-11 20:44:54.361,BACKWARD,21
189.0,8012.943925016395,-10745.444684677683,-25102.148962277053,-24032.282713923778,14267.587872456059,6764.017851831657,21886.247025280838,50574.77808890082,0.0,0.0,0.0,193.0,0.0,193.0,0.0,0.0,0.0,178.0,193.0,0.0,178.0,1744418694.361406,0.0,2025-04-11 20:44:54.361,BACKWARD,21
190.0,8012.429834893923,-10751.36789695834,-25045.10731042711,-24035.05433023624,14411.846031170611,6753.557235426573,21934.01270318183,50614.31832484226,0.0,0.0,0.0,193.0,0.0,192.0,0.0,0.0,0.0,178.0,192.0,0.0,178.0,1744418694.3614345,0.0,2025-04-11 20:44:54.361,BACKWARD,21
191.0,7991.10627068356,-10789.70113869919,-25057.57958383317,-24090.374897763122,14491.373537942594,6557.10775340888,22305.901027429227,50571.24651327688,0.0,0.0,0.0,193.0,0.0,193.0,0.0,0.0,0.0,179.0,193.0,0.0,179.0,1744418694.3614624,0.0,2025-04-11 20:44:54.361,BACKWARD,21
192.0,8004.427910378923,-10774.546655958493,-25088.29088071476,-24074.415752222034,14376.731440631323,6499.730825392106,22214.460040862567,50476.54217201974,0.0,0.0,0.0,193.0,0.0,192.0,0.0,0.0,0.0,179.0,192.0,0.0,179.0,1744418694.3615785,0.0,2025-04-11 20:44:54.361,BACKWARD,21
193.0,8024.030390266227,-10741.734295098102,-25090.257834226828,-24031.835679034673,14299.21559086032,6740.839092831504,21934.459738070935,50574.26399877835,0.0,0.0,0.0,193.0,0.0,192.0,0.0,0.0,0.0,178.0,192.0,0.0,178.0,1744418694.3616068,0.0,2025-04-11 20:44:54.361,BACKWARD,21
194.0,8029.953602546883,-10748.953908557167,-25054.29387739824,-24038.38474016008,14405.609894467581,6772.153886813389,21889.443324737946,50629.29399362731,0.0,0.0,0.0,193.0,0.0,193.0,0.0,0.0,0.0,179.0,193.0,0.0,179.0,1744418694.3616352,0.0,2025-04-11 20:44:54.361,BACKWARD,21
195.0,8002.282142911214,-10793.120955600853,-25070.185967705962,-24095.42639201002,14500.314235724716,6591.909419525793,22272.731038657552,50595.81108043326,0.0,0.0,0.0,193.0,0.0,192.0,0.0,0.0,0.0,178.0,192.0,0.0,178.0,1744418694.3616636,0.0,2025-04-11 20:44:54.361,BACKWARD,21
196.0,8002.617419078043,-10769.89749311179,-25090.369592949104,-24077.61205167914,14398.904371130988,6473.7804500794955,22241.952686542594,50476.65393074202,0.0,0.0,0.0,193.0,0.0,193.0,0.0,0.0,0.0,179.0,193.0,0.0,179.0,1744418694.3617053,0.0,2025-04-11 20:44:54.361,BACKWARD,21
197.0,8014.039160494704,-10736.705152595658,-25101.768982621314,-24040.1728797165,14312.514878811227,6702.841127257482,21987.947462552485,50557.67900439251,0.0,0.0,0.0,193.0,0.0,192.0,0.0,0.0,0.0,178.0,192.0,0.0,178.0,1744418694.361734,0.0,2025-04-11 20:44:54.361,BACKWARD,21
198.0,8031.384114192023,-10725.17165245672,-25053.511566342302,-24022.291484152258,14387.437926225415,6791.018759133668,21855.625135377068,50624.55542380279,0.0,0.0,0.0,193.0,0.0,193.0,0.0,0.0,0.0,178.0,193.0,0.0,178.0,1744418694.3617623,0.0,2025-04-11 20:44:54.361,BACKWARD,21
199.0,8005.858422024063,-10794.931446901734,-25045.33082787166,-24076.650926667564,14540.390913533081,6667.480667529187,22242.48912840952,50632.02090645086,0.0,0.0,0.0,193.0,0.0,193.0,0.0,0.0,0.0,179.0,193.0,0.0,179.0,1744418694.3617907,0.0,2025-04-11 20:44:54.361,BACKWARD,21
200.0,8011.692227326897,-10797.032510880532,-25081.47359865589,-24084.67520292702,14438.176386138963,6486.878572330305,22289.40544002121,50492.83659372766,0.0,0.0,0.0,193.0,0.0,192.0,0.0,0.0,0.0,178.0,192.0,0.0,178.0,1744418694.3618188,0.0,2025-04-11 20:44:54.361,BACKWARD,21
201.0,8011.356951160068,-10767.617615177347,-25104.652357656047,-24045.47024315241,14314.012445689732,6685.205600882245,22054.93564068504,50548.22421648791,0.0,0.0,0.0,193.0,0.0,193.0,0.0,0.0,0.0,179.0,193.0,0.0,179.0,1744418694.3618472,0.0,2025-04-11 20:44:54.361,BACKWARD,21
202.0,8040.660088140976,-10736.593393873382,-25054.38328437606,-24017.37410037209,14351.161044974453,6801.367616816476,21853.971106287376,50628.37757210465,0.0,0.0,0.0,193.0,0.0,192.0,0.0,0.0,0.0,178.0,192.0,0.0,178.0,1744418694.3618755,0.0,2025-04-11 20:44:54.361,BACKWARD,21
203.0,8014.888526784007,-10779.709908927669,-25029.86342070859,-24055.036789779282,14523.671808680512,6703.42227261332,22178.652546245165,50645.38724963513,0.0,0.0,0.0,193.0,0.0,192.0,0.0,0.0,0.0,178.0,192.0,0.0,178.0,1744418694.361904,0.0,2025-04-11 20:44:54.361,BACKWARD,21
204.0,8004.897297012484,-10788.337682287418,-25068.129607216073,-24079.511949957843,14466.831322530667,6508.962095852148,22335.628847554788,50533.00267851385,0.0,0.0,0.0,193.0,0.0,193.0,0.0,0.0,0.0,179.0,193.0,0.0,179.0,1744418694.3619325,0.0,2025-04-11 20:44:54.361,BACKWARD,21
205.0,8016.855480296073,-10763.571949430938,-25096.471619185402,-24039.658789594032,14349.976402518321,6661.110420359424,22141.61570568272,50560.3835654716,0.0,0.0,0.0,193.0,0.0,192.0,0.0,0.0,0.0,178.0,192.0,0.0,178.0,1744418694.361961,0.0,2025-04-11 20:44:54.361,BACKWARD,21
206.0,8032.792274092708,-10750.719696369135,-25077.58439512067,-24020.83862076266,14329.748073786268,6806.642628507928,21902.116763844107,50655.60199685121,0.0,0.0,0.0,193.0,0.0,193.0,0.0,0.0,0.0,179.0,193.0,0.0,179.0,1744418694.362003,0.0,2025-04-11 20:44:54.362,BACKWARD,21
207.0,8022.689285598909,-10769.316347755952,-25026.711824740392,-24032.61799009061,14501.565933414215,6729.417351414842,22123.622551396198,50665.6602818561,0.0,0.0,0.0,193.0,0.0,193.0,0.0,0.0,0.0,179.0,193.0,0.0,179.0,1744418694.3621006,0.0,2025-04-11 20:44:54.362,BACKWARD,21
208.0,8009.859384281563,-10790.371691032851,-25060.887642012556,-24073.968717332926,14490.747689097845,6520.473244246632,22370.989307283082,50556.3826032141,0.0,0.0,0.0,193.0,0.0,192.0,0.0,0.0,0.0,178.0,192.0,0.0,178.0,1744418694.3621309,0.0,2025-04-11 20:44:54.362,BACKWARD,21
209.0,8012.698055827386,-10759.258062751063,-25086.972127791898,-24035.61312384762,14381.917045344955,6623.179510018767,22214.30357865138,50538.031821016295,0.0,0.0,0.0,193.0,0.0,193.0,0.0,0.0,0.0,179.0,193.0,0.0,179.0,1744418694.3621595,0.0,2025-04-11 20:44:54.362,BACKWARD,21
210.0,8028.031352523727,-10731.944231026679,-25078.925499787987,-24010.04272819075,14324.428358605905,6824.054637438612,21965.707476819454,50647.68947931403,0.0,0.0,0.0,193.0,0.0,192.0,0.0,0.0,0.0,178.0,192.0,0.0,178.0,1744418694.3621888,0.0,2025-04-11 20:44:54.362,BACKWARD,21
211.0,8017.011942507261,-10759.615690662347,-25033.640865521535,-24030.449870878445,14479.14713372554,6772.2656455356655,22115.46416467001,50687.073253044284,0.0,0.0,0.0,193.0,0.0,192.0,0.0,0.0,0.0,178.0,192.0,0.0,178.0,1744418694.362232,0.0,2025-04-11 20:44:54.362,BACKWARD,21
212.0,7988.982854960305,-10795.266723068562,-25054.7632640318,-24073.991069077383,14526.331666270695,6557.621843531352,22439.564459271965,50608.61863000615,0.0,0.0,0.0,193.0,0.0,193.0,0.0,0.0,0.0,178.0,193.0,0.0,178.0,1744418694.3622613,0.0,2025-04-11 20:44:54.362,BACKWARD,21
213.0,7999.5328783432105,-10779.061708338466,-25082.9711655344,-24043.682103595987,14402.167725821464,6574.832686761938,22310.013748409005,50552.13577176759,0.0,0.0,0.0,193.0,0.0,193.0,0.0,0.0,0.0,178.0,193.0,0.0,178.0,1744418694.3622904,0.0,2025-04-11 20:44:54.362,BACKWARD,21
214.0,8023.449244910389,-10740.415542175238,-25074.566909619203,-24003.963053698906,14327.490547596282,6810.4200733208745,22032.78506192983,50663.31334868829,0.0,0.0,0.0,193.0,0.0,192.0,0.0,0.0,0.0,178.0,192.0,0.0,178.0,1744418694.8372984,0.0,2025-04-11 20:44:54.837,BACKWARD,21
215.0,8023.650410610487,-10752.306670225462,-25028.946999185922,-24012.47906833638,14446.960621709899,6799.333608071042,22065.910347212597,50703.79235789685,0.0,0.0,0.0,193.0,0.0,193.0,0.0,0.0,0.0,179.0,193.0,0.0,179.0,1744418694.8375,0.0,2025-04-11 20:44:54.837,BACKWARD,21
216.0,8004.293799912191,-10785.878990397334,-25041.285162125252,-24059.060103781238,14536.032323364298,6613.277687225067,22437.932781926727,50649.187046192535,0.0,0.0,0.0,193.0,0.0,192.0,0.0,0.0,0.0,178.0,192.0,0.0,178.0,1744418694.83755,0.0,2025-04-11 20:44:54.837,BACKWARD,21
217.0,8006.81954703564,-10784.917865385756,-25083.95464229043,-24046.587830375174,14412.985970137832,6541.327421823433,22357.354743165346,50541.317527451225,0.0,0.0,0.0,193.0,0.0,193.0,0.0,0.0,0.0,179.0,193.0,0.0,179.0,1744418694.8375924,0.0,2025-04-11 20:44:54.837,BACKWARD,21
218.0,8007.825375536129,-10764.980109331622,-25101.612520410126,-24019.89984749554,14314.347721856562,6761.268587263655,22093.42534463708,50633.809046007285,0.0,0.0,0.0,193.0,0.0,193.0,0.0,0.0,0.0,179.0,193.0,0.0,179.0,1744418694.837634,0.0,2025-04-11 20:44:54.837,BACKWARD,21
219.0,8018.39775066349,-10753.088981281398,-25052.259868652807,-24020.168068429004,14411.42134802596,6794.550334757607,22029.4993554949,50694.67284615908,0.0,0.0,0.0,193.0,0.0,192.0,0.0,0.0,0.0,178.0,192.0,0.0,178.0,1744418694.8376727,0.0,2025-04-11 20:44:54.837,BACKWARD,21
220.0,8008.0488929806825,-10788.51649624306,-25037.395958590027,-24054.701513612454,14540.122692599618,6626.308754242511,22407.10972632286,50668.43189816856,0.0,0.0,0.0,193.0,0.0,193.0,0.0,0.0,0.0,179.0,193.0,0.0,179.0,1744418694.8377128,0.0,2025-04-11 20:44:54.837,BACKWARD,21
221.0,8013.167442460948,-10789.343510787907,-25073.136397974064,-24045.89492629706,14431.202641868907,6510.973752853126,22404.896903621782,50549.72178336642,0.0,0.0,0.0,193.0,0.0,193.0,0.0,0.0,0.0,179.0,193.0,0.0,179.0,1744418694.8377528,0.0,2025-04-11 20:44:54.837,BACKWARD,21
222.0,8011.669875582443,-10776.312443770463,-25099.73497387588,-24018.245818405845,14324.02602720571,6748.461037690764,22164.10156060476,50628.95871746048,0.0,0.0,0.0,193.0,0.0,192.0,0.0,0.0,0.0,178.0,192.0,0.0,178.0,1744418694.8377924,0.0,2025-04-11 20:44:54.837,BACKWARD,21
223.0,8040.660088140976,-10743.902414310267,-25046.783691261255,-23994.485914049856,14387.482629714326,6839.678506812872,22009.092212807205,50691.09656704624,0.0,0.0,0.0,193.0,0.0,193.0,0.0,0.0,0.0,179.0,193.0,0.0,179.0,1744418694.8382344,0.0,2025-04-11 20:44:54.838,BACKWARD,21
224.0,8017.101349485082,-10777.206513548674,-25025.705996239903,-24036.641304092565,14544.146006601573,6717.012133242147,22383.550987666964,50697.69033166055,0.0,0.0,0.0,193.0,0.0,192.0,0.0,0.0,0.0,178.0,192.0,0.0,178.0,1744418694.8382719,0.0,2025-04-11 20:44:54.838,BACKWARD,21
225.0,8007.244230180291,-10788.494144498605,-25066.989668248854,-24054.254478723346,14467.904206264522,6534.979526398126,22478.68001206875,50571.358271999154,0.0,0.0,0.0,193.0,0.0,192.0,0.0,0.0,0.0,178.0,192.0,0.0,178.0,1744418694.8383043,0.0,2025-04-11 20:44:54.838,BACKWARD,21
226.0,8012.787462805208,-10764.980109331622,-25089.184950492974,-24013.171972414493,14352.524501386226,6721.035447244102,22256.995410561016,50614.89947019809,0.0,0.0,0.0,193.0,0.0,193.0,0.0,0.0,0.0,178.0,193.0,0.0,178.0,1744418694.838336,0.0,2025-04-11 20:44:54.838,BACKWARD,21
227.0,8026.422026922945,-10753.536016170505,-25061.826415279676,-23999.604463530122,14356.50311189927,6839.87967251297,22044.855003935696,50684.279284987366,0.0,0.0,0.0,193.0,0.0,193.0,0.0,0.0,0.0,178.0,193.0,0.0,178.0,1744418694.838585,0.0,2025-04-11 20:44:54.838,BACKWARD,21
228.0,8013.748587816786,-10785.65547295278,-25026.33184508465,-24035.45666163643,14519.11205281163,6743.789523099605,22351.05155122895,50691.49889844643,0.0,0.0,0.0,193.0,0.0,192.0,0.0,0.0,0.0,178.0,192.0,0.0,178.0,1744418694.8386295,0.0,2025-04-11 20:44:54.838,BACKWARD,21
229.0,8014.553250617177,-10786.482487497628,-25056.461996610404,-24058.2777927253,14449.307554877705,6533.034924630514,22522.556486434518,50564.47393470692,0.0,0.0,0.0,193.0,0.0,193.0,0.0,0.0,0.0,179.0,193.0,0.0,179.0,1744418694.838667,0.0,2025-04-11 20:44:54.838,BACKWARD,21
230.0,8015.022637250739,-10768.645795422291,-25087.73208710338,-24022.917332997007,14335.179547688907,6665.536065761575,22334.779481265483,50578.220257546935,0.0,0.0,0.0,193.0,0.0,192.0,0.0,1.0,0.0,178.0,192.0,1.0,178.0,1744418694.8386986,0.0,2025-04-11 20:44:54.838,BACKWARD,21
231.0,8031.048838025194,-10753.491312681594,-25066.140301959553,-24001.95139669793,14334.821919777623,6827.988544462746,22098.521542372888,50683.586380909255,0.0,0.0,0.0,193.0,0.0,193.0,0.0,3.0,0.0,179.0,193.0,3.0,179.0,1744418694.8387315,0.0,2025-04-11 20:44:54.838,BACKWARD,21
232.0,8012.787462805208,-10786.214266564164,-25028.164688129986,-24027.007702232328,14500.53775316927,6764.598997187495,22325.727024761087,50719.438579015565,0.0,0.0,0.0,193.0,0.0,193.0,0.0,4.0,0.0,179.0,193.0,4.0,179.0,1744418694.8387644,0.0,2025-04-11 20:44:54.838,BACKWARD,21
233.0,7996.180116674915,-10811.002351165098,-25060.552365845724,-24066.614993407133,14491.15002049804,6545.887177692316,22589.634071544897,50617.60403127719,0.0,0.0,0.0,193.0,0.0,192.0,0.0,5.0,0.0,178.0,192.0,5.0,178.0,1744418694.8387969,0.0,2025-04-11 20:44:54.838,BACKWARD,21
234.0,8017.570736118643,-10782.839153151412,-25081.764171333813,-24023.587885330664,14378.541931932205,6622.4642541961975,22420.207848573667,50581.41655700404,0.0,0.0,0.0,193.0,0.0,193.0,0.0,6.0,0.0,179.0,193.0,6.0,179.0,1744418694.8388288,0.0,2025-04-11 20:44:54.838,BACKWARD,21
235.0,8024.432721666422,-10763.057859308465,-25083.373496934593,-24009.148658412538,14325.747111528768,6835.230509666266,22166.269679816924,50693.152927536124,0.0,0.0,0.0,193.0,0.0,192.0,0.0,7.0,0.0,178.0,192.0,7.0,178.0,1744418694.8388608,0.0,2025-04-11 20:44:54.838,BACKWARD,21
236.0,8015.961410517862,-10779.151115316286,-25039.51937431328,-24023.476126608388,14467.546578353236,6790.348206800009,22277.491960226533,50723.10426510624,0.0,0.0,0.0,193.0,0.0,192.0,0.0,8.0,0.0,178.0,192.0,8.0,178.0,1744418694.8388927,0.0,2025-04-11 20:44:54.838,BACKWARD,21
237.0,8007.311285413657,-10809.057749397487,-25052.70690354191,-24068.62665040811,14504.985750315876,6577.425489118754,22608.253074676166,50640.91690074407,0.0,0.0,0.0,193.0,0.0,193.0,0.0,9.0,0.0,179.0,193.0,9.0,179.0,1744418694.8389244,0.0,2025-04-11 20:44:54.838,BACKWARD,21
238.0,8015.849651795585,-10789.567028232459,-25080.646584111048,-24037.75889131533,14399.530219975737,6582.409928132288,22490.057049996503,50567.71493765294,0.0,0.0,0.0,193.0,0.0,193.0,0.0,9.0,0.0,178.0,193.0,9.0,178.0,1744418694.8389912,0.0,2025-04-11 20:44:54.838,BACKWARD,21
239.0,8016.743721573797,-10759.88391159581,-25082.144150989552,-24002.331376353668,14333.458463365849,6822.132387415456,22230.5980003593,50683.89930533163,0.0,0.0,0.0,193.0,0.0,193.0,0.0,10.0,0.0,178.0,193.0,10.0,178.0,1744418694.8390236,0.0,2025-04-11 20:44:54.839,BACKWARD,21
240.0,8028.478387412833,-10747.165769000741,-25029.0587579082,-24004.03010893227,14448.279374632762,6817.818500735581,22243.763177843473,50729.31805006481,0.0,0.0,0.0,193.0,0.0,193.0,0.0,11.0,0.0,179.0,193.0,11.0,179.0,1744418694.8390555,0.0,2025-04-11 20:44:54.839,BACKWARD,21
241.0,8013.748587816786,-10779.888722883312,-25037.351255101115,-24047.81717632022,14528.96917211642,6620.1173210283905,22619.80892655956,50678.44547968453,0.0,0.0,0.0,193.0,0.0,193.0,0.0,11.0,0.0,179.0,193.0,11.0,179.0,1744418694.8390896,0.0,2025-04-11 20:44:54.839,BACKWARD,21
242.0,8022.130491987526,-10780.872199639345,-25070.34242991715,-24026.962998743416,14401.85480139909,6545.350735825388,22567.014106156126,50581.34950177068,0.0,0.0,0.0,193.0,0.0,192.0,0.0,12.0,0.0,178.0,192.0,12.0,178.0,1744418694.8391423,0.0,2025-04-11 20:44:54.839,BACKWARD,21
243.0,8013.793291305697,-10773.026737335533,-25091.643642383056,-23995.98348092836,14300.467288549817,6785.408471275387,22320.541420047455,50693.39879672513,0.0,0.0,0.0,193.0,0.0,193.0,0.0,12.0,0.0,179.0,193.0,12.0,179.0,1744418694.839175,0.0,2025-04-11 20:44:54.839,BACKWARD,21
244.0,8018.867137297051,-10768.824609377934,-25042.648618537023,-23994.955300683418,14401.966560121366,6820.2771926256655,22226.373520657246,50740.00218391445,0.0,0.0,0.0,193.0,0.0,192.0,0.0,12.0,0.0,178.0,192.0,12.0,178.0,1744418694.8392067,0.0,2025-04-11 20:44:54.839,BACKWARD,21
245.0,7984.668968280432,-10826.782682750545,-25036.971275445376,-24050.52173739931,14544.6824484685,6664.262016327622,22616.746737569185,50721.18201508308,0.0,0.0,0.0,193.0,0.0,193.0,0.0,13.0,0.0,179.0,193.0,13.0,179.0,1744418694.839239,0.0,2025-04-11 20:44:54.839,BACKWARD,21
246.0,7996.023654463727,-10816.009141923088,-25063.838072280654,-24040.217583205413,14452.705020034913,6523.043694858992,22619.875981792928,50598.560345001264,0.0,0.0,0.0,193.0,0.0,193.0,0.0,13.0,0.0,179.0,193.0,13.0,179.0,1744418694.8392713,0.0,2025-04-11 20:44:54.839,BACKWARD,21
247.0,8010.373474404035,-10776.535961215015,-25082.814703323213,-24000.833809475163,14354.200882220375,6739.788560842105,22369.245871215568,50666.46494465649,0.0,0.0,0.0,193.0,0.0,193.0,0.0,13.0,0.0,179.0,193.0,13.0,179.0,1744418694.839303,0.0,2025-04-11 20:44:54.839,BACKWARD,21
248.0,8027.4725589123445,-10761.269719752041,-25046.493118583337,-23993.815361716195,14389.695452415403,6834.179977676867,22212.023700716938,50735.3753728122,0.0,0.0,0.0,193.0,0.0,193.0,0.0,13.0,0.0,179.0,193.0,13.0,179.0,1744418694.8393347,0.0,2025-04-11 20:44:54.839,BACKWARD,21
249.0,8011.222840693336,-10799.938237659722,-25028.455260807903,-24035.076681980692,14537.21696582043,6726.153996724367,22583.934376708792,50748.47349506301,0.0,0.0,0.0,193.0,0.0,193.0,0.0,14.0,0.0,179.0,193.0,14.0,179.0,1744418694.839367,0.0,2025-04-11 20:44:54.839,BACKWARD,21
250.0,8009.68057032592,-10795.75846144658,-25055.746740787836,-24044.553821629743,14458.7623427823,6528.4304652727205,22672.11200858498,50611.7478742299,0.0,0.0,0.0,193.0,0.0,193.0,0.0,14.0,0.0,179.0,193.0,14.0,179.0,1744418694.8393989,0.0,2025-04-11 20:44:54.839,BACKWARD,21
251.0,8007.132471458015,-10785.946045630699,-25080.0207352663,-24010.713280524407,14344.991963504788,6711.021865728124,22465.268965395568,50664.2074184665,0.0,0.0,0.0,193.0,0.0,193.0,0.0,14.0,0.0,178.0,193.0,14.0,178.0,1744418694.8394303,0.0,2025-04-11 20:44:54.839,BACKWARD,21
252.0,8021.929326287428,-10769.718679156147,-25050.695246540934,-23993.591844271643,14367.276652726729,6847.702783072327,22260.079951295847,50761.63867254718,0.0,0.0,0.0,193.0,0.0,193.0,0.0,14.0,0.0,179.0,193.0,14.0,179.0,1744418694.8394625,0.0,2025-04-11 20:44:54.839,BACKWARD,21
253.0,8007.937134258406,-10787.667129953757,-25014.440717034428,-24019.676330050985,14552.97494566142,6757.692308150806,22546.74107393516,50778.24601867748,0.0,0.0,0.0,193.0,0.0,192.0,0.0,14.0,0.0,178.0,192.0,14.0,178.0,1744418694.839509,0.0,2025-04-11 20:44:54.839,BACKWARD,21
254.0,8006.327808657624,-10798.999464392598,-25042.536859814747,-24040.016417505314,14515.848698121155,6543.182616613223,22726.203230166822,50651.39986889361,0.0,0.0,0.0,193.0,0.0,193.0,0.0,14.0,0.0,178.0,193.0,14.0,178.0,1744418694.839541,0.0,2025-04-11 20:44:54.839,BACKWARD,21
255.0,7997.63298006451,-10794.305598056984,-25085.00517427983,-24021.732690540874,14380.397126721995,6661.55745524853,22537.576858708486,50648.67295607006,0.0,0.0,0.0,193.0,0.0,193.0,0.0,15.0,0.0,179.0,193.0,15.0,179.0,1744418694.839573,0.0,2025-04-11 20:44:54.839,BACKWARD,21
0.0,8018.040122752205,-10757.358164472362,-25066.49792987084,-23993.50243729382,14336.341838400584,6820.25484088121,22274.78739914744,50738.30345133584,0.0,0.0,0.0,193.0,0.0,192.0,0.0,15.0,0.0,178.0,192.0,15.0,178.0,1744418694.8396049,0.0,2025-04-11 20:44:54.839,BACKWARD,21
1.0,8019.336523930612,-10770.791562890001,-25014.373661801063,-24002.309024609214,14516.362788243627,6757.848770361993,22476.623651578862,50769.014748217436,0.0,0.0,0.0,193.0,0.0,193.0,0.0,15.0,0.0,179.0,193.0,15.0,179.0,1744418694.839649,0.0,2025-04-11 20:44:54.839,BACKWARD,21
2.0,8002.505660355767,-10794.216191079164,-25046.738987772347,-24044.844394307664,14519.424977234004,6558.337099353922,22771.018477799713,50683.00523555341,0.0,0.0,0.0,193.0,0.0,192.0,0.0,15.0,0.0,178.0,192.0,15.0,178.0,1744418694.839681,0.0,2025-04-11 20:44:54.839,BACKWARD,21
3.0,8003.243267922791,-10783.286188040518,-25085.742781846857,-24022.447946363445,14384.532199446227,6625.258222253111,22626.961484785257,50648.896473514615,0.0,0.0,0.0,193.0,0.0,193.0,0.0,15.0,0.0,179.0,193.0,15.0,179.0,1744418694.8397129,0.0,2025-04-11 20:44:54.839,BACKWARD,21
4.0,8024.544480388699,-10764.734240142614,-25081.272432955797,-23994.240044860846,14319.108643425543,6837.197463178332,22354.85134778635,50753.88261722119,0.0,0.0,0.0,193.0,0.0,193.0,0.0,15.0,0.0,179.0,193.0,15.0,179.0,1744418694.839744,0.0,2025-04-11 20:44:54.839,BACKWARD,21
5.0,8029.573622891144,-10785.208438063675,-25035.85368822261,-24011.674405535985,14462.942118995443,6803.178108117356,22450.382703588333,50788.728986827016,0.0,0.0,0.0,193.0,0.0,192.0,0.0,15.0,0.0,178.0,192.0,15.0,178.0,1744418694.8397758,0.0,2025-04-11 20:44:54.839,BACKWARD,21
6.0,8003.511488856255,-10808.61071450838,-25057.266659410794,-24065.698571884463,14514.373482987105,6588.690768324229,22802.869713648524,50723.908927906625,0.0,0.0,0.0,193.0,0.0,193.0,0.0,15.0,0.0,179.0,193.0,15.0,179.0,1744418694.8398075,0.0,2025-04-11 20:44:54.839,BACKWARD,21
7.0,7998.236477164803,-10782.749746173591,-25092.045973783253,-24047.3254379422,14386.65561516948,6541.841511945905,22684.092543613024,50630.63509829463,0.0,0.0,0.0,193.0,0.0,192.0,0.0,15.0,0.0,178.0,192.0,15.0,178.0,1744418694.8398395,0.0,2025-04-11 20:44:54.839,BACKWARD,21
8.0,8007.266581924747,-10766.924711099233,-25081.138322489063,-24002.331376353668,14316.873468980011,6784.492049752718,22425.3934532873,50744.249015360954,0.0,0.0,0.0,193.0,0.0,192.0,0.0,15.0,0.0,178.0,192.0,15.0,178.0,1744418694.8398707,0.0,2025-04-11 20:44:54.839,BACKWARD,21
9.0,8013.659180838965,-10780.22399905014,-25024.007263661297,-24005.393565344046,14423.245420842817,6790.750538200205,22416.877438649826,50784.2362861915,0.0,0.0,0.0,193.0,0.0,193.0,0.0,15.0,0.0,179.0,193.0,15.0,179.0,1744418694.8399026,0.0,2025-04-11 20:44:54.839,BACKWARD,21
10.0,7994.548439329677,-10814.489223300126,-25026.890638696033,-24051.393455433066,14512.406529475038,6617.211594249201,22805.395460771975,50747.333556095786,0.0,0.0,0.0,193.0,0.0,193.0,0.0,15.0,0.0,179.0,193.0,15.0,179.0,1744418694.839934,0.0,2025-04-11 20:44:54.839,BACKWARD,21
11.0,7989.0275584492165,-10816.813804723479,-25073.404618907527,-24046.43136816399,14403.888810144523,6532.811407185961,22774.59475691256,50655.51258987339,0.0,0.0,0.0,193.0,0.0,192.0,0.0,16.0,0.0,178.0,192.0,16.0,178.0,1744418694.839966,0.0,2025-04-11 20:44:54.839,BACKWARD,21
12.0,8006.908954013462,-10778.815839149456,-25082.859406812124,-23999.448001318935,14331.558565087149,6759.5251511961405,22516.11918403139,50742.371468826714,0.0,0.0,0.0,193.0,0.0,193.0,0.0,16.0,0.0,179.0,193.0,16.0,179.0,1744418694.8400118,0.0,2025-04-11 20:44:54.840,BACKWARD,21
13.0,8024.410369921968,-10762.230844763619,-25037.015978934287,-23988.875626191573,14421.680798730946,6805.167413373878,22414.35169152638,50793.735777585,0.0,0.0,0.0,193.0,0.0,193.0,0.0,16.0,0.0,179.0,193.0,16.0,179.0,1744418694.840044,0.0,2025-04-11 20:44:54.840,BACKWARD,21
14.0,7998.5941050760875,-10815.137423889331,-25035.04902542222,-24047.772472831308,14565.335460345204,6654.65076621184,22800.70159443636,50774.58033258681,0.0,0.0,0.0,193.0,0.0,193.0,0.0,16.0,0.0,178.0,193.0,16.0,178.0,1744418694.8400767,0.0,2025-04-11 20:44:54.840,BACKWARD,21
15.0,8002.885640011506,-10806.643760996314,-25069.448360138937,-24055.528528157298,14469.558235354214,6503.172994038224,22832.28460935171,50647.33185140275,0.0,0.0,0.0,193.0,0.0,193.0,0.0,16.0,0.0,179.0,193.0,16.0,179.0,1744418694.8401089,0.0,2025-04-11 20:44:54.840,BACKWARD,21
16.0,8000.873983010529,-10782.28035954003,-25098.036241297275,-24020.99508297385,14352.300983941674,6729.953793281769,22609.527124110118,50724.57948024029,0.0,0.0,0.0,193.0,0.0,193.0,0.0,16.0,0.0,179.0,193.0,16.0,179.0,1744418694.8401525,0.0,2025-04-11 20:44:54.840,BACKWARD,21
17.0,8023.516300143755,-10758.162827272752,-25049.24238315134,-23995.37998382807,14388.71197565937,6823.093512427034,22435.608200503375,50792.975818273524,0.0,0.0,0.0,193.0,0.0,192.0,0.0,16.0,0.0,178.0,192.0,16.0,178.0,1744418694.8401847,0.0,2025-04-11 20:44:54.840,BACKWARD,21
18.0,7995.911895741451,-10795.08790911292,-25028.119984641075,-24038.272981437804,14556.97590791892,6708.89845000487,22795.314824022633,50805.783367846416,0.0,0.0,0.0,193.0,0.0,193.0,0.0,16.0,0.0,179.0,193.0,16.0,179.0,1744418694.8402164,0.0,2025-04-11 20:44:54.840,BACKWARD,21
19.0,7995.978950974817,-10796.27255156905,-25065.62621183708,-24057.629592136098,14481.516418637804,6500.736653892595,22910.068680056178,50672.14228774814,0.0,0.0,0.0,193.0,0.0,193.0,0.0,16.0,0.0,179.0,193.0,16.0,179.0,1744418694.8402483,0.0,2025-04-11 20:44:54.840,BACKWARD,21
20.0,7986.814735748141,-10795.154964346286,-25108.83213386919,-24032.81915579071,14355.206710720864,6667.212446595722,22704.186761878344,50706.720436420495,0.0,0.0,0.0,193.0,0.0,192.0,0.0,16.0,0.0,179.0,192.0,16.0,179.0,1744418694.8402803,0.0,2025-04-11 20:44:54.840,BACKWARD,21
21.0,8010.507584870767,-10765.9412343432,-25074.00811600782,-23999.17978038547,14353.55268163117,6825.1498729169225,22469.918128242272,50787.83491704881,0.0,0.0,0.0,193.0,0.0,193.0,0.0,16.0,0.0,179.0,193.0,16.0,179.0,1744418694.840312,0.0,2025-04-11 20:44:54.840,BACKWARD,21
22.0,7989.787517760697,-10796.004330635587,-25040.368740602582,-24028.03588247727,14522.867145880122,6751.769095870149,22750.61133511202,50807.50445216947,0.0,0.0,0.0,193.0,0.0,192.0,0.0,16.0,0.0,178.0,192.0,16.0,178.0,1744418694.8403437,0.0,2025-04-11 20:44:54.840,BACKWARD,21
23.0,7983.953712457862,-10806.599057507403,-25071.974107262387,-24055.886156068584,14482.030508760276,6537.10294212138,22958.907241691024,50690.64953215713,0.0,0.0,0.0,193.0,0.0,193.0,0.0,16.0,0.0,179.0,193.0,16.0,179.0,1744418694.8403757,0.0,2025-04-11 20:44:54.840,BACKWARD,21
24.0,8003.913820256451,-10783.777926418536,-25094.951700562444,-24016.502382338334,14369.444771938894,6657.3329755464765,22764.759989352227,50680.501840174424,0.0,0.0,0.0,193.0,0.0,193.0,0.0,16.0,0.0,179.0,193.0,16.0,179.0,1744418694.8404076,0.0,2025-04-11 20:44:54.840,BACKWARD,21
25.0,8020.476462897834,-10755.547673171483,-25081.652412611536,-23994.910597194506,14329.233983663797,6851.882559285469,22501.858771068906,50779.90004776717,0.0,0.0,0.0,193.0,0.0,192.0,0.0,16.0,0.0,178.0,192.0,16.0,178.0,1744418694.8404396,0.0,2025-04-11 20:44:54.840,BACKWARD,21
26.0,8009.546459859188,-10771.976205346133,-25039.58642954665,-24016.860010249617,14490.501819908837,6787.263666065177,22668.53572947213,50808.510280669965,0.0,0.0,0.0,193.0,0.0,193.0,0.0,16.0,0.0,179.0,193.0,16.0,179.0,1744418694.8404715,0.0,2025-04-11 20:44:54.840,BACKWARD,21
27.0,7993.833183507108,-10796.943103902711,-25065.42504613698,-24061.898775327063,14500.11307002462,6557.9571196981815,22951.955849165424,50717.24810805894,0.0,0.0,0.0,193.0,0.0,193.0,0.0,16.0,0.0,179.0,193.0,16.0,179.0,1744418694.8405168,0.0,2025-04-11 20:44:54.840,BACKWARD,21
28.0,7984.534857813699,-10788.717661943158,-25099.131476775587,-24036.484841881378,14381.402955222484,6600.3360271854435,22811.98922538629,50678.93721806255,0.0,0.0,0.0,193.0,0.0,192.0,0.0,16.0,0.0,179.0,192.0,16.0,179.0,1744418694.840549,0.0,2025-04-11 20:44:54.840,BACKWARD,21
29.0,8015.424968650934,-10740.951984042167,-25087.44151442546,-24003.65012927653,14304.580009529593,6801.524079027663,22524.03170156857,50770.91464649614,0.0,0.0,0.0,193.0,0.0,193.0,0.0,16.0,0.0,179.0,193.0,16.0,179.0,1744418694.8405807,0.0,2025-04-11 20:44:54.840,BACKWARD,21
30.0,8016.877832040529,-10732.12304498232,-25033.886734710544,-24011.47323983589,14458.114142193097,6788.91769515487,22598.150086182366,50813.36060921677,0.0,0.0,0.0,193.0,0.0,192.0,0.0,16.0,0.0,178.0,192.0,16.0,178.0,1744418694.8406124,0.0,2025-04-11 20:44:54.840,BACKWARD,21
31.0,7977.67287226592,-10805.9508569182,-25063.882775769565,-24075.242766766878,14521.995427846365,6604.538155143042,22973.704096520436,50770.17703892911,0.0,0.0,0.0,193.0,0.0,193.0,0.0,16.0,0.0,178.0,193.0,16.0,178.0,1744418694.8406565,0.0,2025-04-11 20:44:54.840,BACKWARD,21
32.0,7992.603837562066,-10802.866316183367,-25087.910901059022,-24049.04652226526,14410.326112547651,6556.280738864034,22862.43711262192,50675.204476738516,0.0,0.0,0.0,193.0,0.0,193.0,0.0,16.0,0.0,179.0,193.0,16.0,179.0,1744418694.8406887,0.0,2025-04-11 20:44:54.840,BACKWARD,21
33.0,8005.456090623867,-10758.65456565077,-25084.82636032419,-24003.739536254354,14331.290344153686,6791.890477167425,22572.93731843678,50761.79513475837,0.0,0.0,0.0,193.0,0.0,192.0,0.0,16.0,0.0,179.0,192.0,16.0,179.0,1744418694.840721,0.0,2025-04-11 20:44:54.840,BACKWARD,21
34.0,8014.977933761827,-10752.686649881203,-25041.531031314258,-24007.204056644925,14431.180290124452,6818.82432923607,22554.586536238974,50821.47429245404,0.0,0.0,0.0,193.0,0.0,193.0,0.0,17.0,0.0,178.0,193.0,17.0,178.0,1744418694.8407524,0.0,2025-04-11 20:44:54.840,BACKWARD,21
35.0,8000.672817310431,-10789.90230439929,-25048.884755240055,-24060.781188104294,14541.910832156043,6648.8840161423705,22946.032636884767,50794.09340549629,0.0,0.0,0.0,193.0,0.0,193.0,0.0,16.0,0.0,179.0,193.0,16.0,179.0,1744418694.8407843,0.0,2025-04-11 20:44:54.840,BACKWARD,21
36.0,8011.826337793629,-10775.150153058787,-25075.326868930682,-24044.732635585384,14439.629249528558,6546.021288159048,22909.1075550446,50674.26570347139,0.0,0.0,0.0,193.0,0.0,192.0,0.0,17.0,0.0,178.0,192.0,17.0,178.0,1744418694.8408165,0.0,2025-04-11 20:44:54.840,BACKWARD,21
37.0,8011.267544182247,-10770.836266378912,-25106.73106989039,-24024.057271964226,14336.341838400584,6779.418203761364,22672.782560918637,50767.36071912775,0.0,0.0,0.0,193.0,0.0,193.0,0.0,17.0,0.0,179.0,193.0,17.0,179.0,1744418694.8408477,0.0,2025-04-11 20:44:54.840,BACKWARD,21
38.0,8015.581430862121,-10760.398001718284,-25066.073246726188,-24019.676330050985,14407.912124146478,6829.977849719268,22559.45921653023,50827.35280124579,0.0,0.0,0.0,193.0,0.0,192.0,0.0,17.0,0.0,178.0,192.0,17.0,178.0,1744418694.8408797,0.0,2025-04-11 20:44:54.840,BACKWARD,21
39.0,8000.20343067687,-10782.570932217948,-25038.178269645963,-24047.928935042495,14569.202312135973,6683.596275281463,22930.542877977237,50808.82320509234,0.0,0.0,0.0,193.0,0.0,193.0,0.0,17.0,0.0,179.0,193.0,17.0,179.0,1744418694.8409111,0.0,2025-04-11 20:44:54.840,BACKWARD,21
40.0,7998.839974265096,-10787.533019487026,-25081.29478470025,-24060.200042748456,14470.988746999354,6523.468378003643,22982.197759413455,50683.31815997579,0.0,0.0,0.0,193.0,0.0,193.0,0.0,17.0,0.0,179.0,193.0,17.0,179.0,1744418694.840943,0.0,2025-04-11 20:44:54.840,BACKWARD,21
41.0,8001.566887088644,-10759.839208106901,-25107.423973968504,-24022.85027776364,14342.846196037079,6737.463979418752,22750.857204301024,50746.3277275953,0.0,0.0,0.0,193.0,0.0,192.0,0.0,17.0,0.0,179.0,192.0,17.0,179.0,1744418694.8409789,0.0,2025-04-11 20:44:54.840,BACKWARD,21
42.0,8015.357913417568,-10742.74012359859,-25074.321040430194,-24003.963053698906,14357.419533421938,6843.947690003835,22567.975231167704,50820.22259476454,0.0,0.0,0.0,193.0,0.0,193.0,0.0,17.0,0.0,179.0,193.0,17.0,179.0,1744418694.8410244,0.0,2025-04-11 20:44:54.841,BACKWARD,21
43.0,7989.049910193671,-10792.584513733926,-25048.48242383986,-24050.85701356614,14527.069273837718,6716.319229164033,22897.43994443893,50821.787216876415,0.0,0.0,0.0,193.0,0.0,193.0,0.0,17.0,0.0,179.0,193.0,17.0,179.0,1744418694.8410563,0.0,2025-04-11 20:44:54.841,BACKWARD,21
44.0,7993.073224195627,-10790.103470099386,-25073.53872937426,-24066.14560677357,14473.693308078446,6515.980543611115,23036.26662925084,50699.590229939255,0.0,0.0,0.0,193.0,0.0,192.0,0.0,17.0,0.0,179.0,192.0,17.0,179.0,1744418694.8410883,0.0,2025-04-11 20:44:54.841,BACKWARD,21
45.0,8000.270485910236,-10767.394097732795,-25104.07121230021,-24033.646170335553,14353.50797814226,6684.959731693236,22836.91142045396,50731.888500677174,0.0,0.0,0.0,193.0,0.0,193.0,0.0,17.0,0.0,179.0,193.0,17.0,179.0,1744418694.84112,0.0,2025-04-11 20:44:54.841,BACKWARD,21
46.0,8037.776713106241,-10719.918992509723,-25074.29868868574,-24007.65109153403,14329.859832508546,6832.861224754003,22587.19773139927,50817.0933505408,0.0,0.0,0.0,193.0,0.0,192.0,0.0,17.0,0.0,178.0,192.0,17.0,178.0,1744418694.8411634,0.0,2025-04-11 20:44:54.841,BACKWARD,21
47.0,8040.235404996325,-10745.064705021943,-25027.404728818507,-24025.934818498474,14531.137291328585,6752.797276115093,22834.05039716368,50829.02918207994,0.0,0.0,0.0,193.0,0.0,193.0,0.0,17.0,0.0,179.0,193.0,17.0,179.0,1744418694.8411956,0.0,2025-04-11 20:44:54.841,BACKWARD,21
48.0,8006.081939468616,-10786.102507841886,-25068.48723512736,-24068.224319007913,14503.689349137469,6531.202081585179,23070.66596396756,50716.309334791826,0.0,0.0,0.0,193.0,0.0,192.0,0.0,17.0,0.0,178.0,192.0,17.0,178.0,1744418694.8412273,0.0,2025-04-11 20:44:54.841,BACKWARD,21
49.0,7996.96242773085,-10773.071440824442,-25087.843845825657,-24027.208867932426,14372.596367907092,6624.230042008167,22892.455505425394,50696.75155839343,0.0,0.0,0.0,193.0,0.0,193.0,0.0,17.0,0.0,179.0,193.0,17.0,179.0,1744418694.8412592,0.0,2025-04-11 20:44:54.841,BACKWARD,21
50.0,8018.107177985571,-10740.46024566415,-25076.645621853546,-24000.49853330833,14327.758768529746,6814.555146045107,22627.117946996445,50786.67262633713,0.0,0.0,0.0,193.0,0.0,192.0,0.0,17.0,0.0,178.0,192.0,17.0,178.0,1744418694.8412907,0.0,2025-04-11 20:44:54.841,BACKWARD,21
51.0,8016.3190384291465,-10759.615690662347,-25032.255057365306,-24017.08352769417,14498.906075824032,6766.521247210651,22785.32359425111,50814.187623761616,0.0,0.0,0.0,193.0,0.0,193.0,0.0,17.0,0.0,179.0,193.0,17.0,179.0,1744418694.841323,0.0,2025-04-11 20:44:54.841,BACKWARD,21
52.0,7991.3744916170235,-10791.556333488981,-25059.43477862296,-24064.111598028136,14522.509517968836,6565.333195368433,23110.496772586917,50743.01966941592,0.0,0.0,0.0,193.0,0.0,193.0,0.0,17.0,0.0,179.0,193.0,17.0,179.0,1744418694.8413544,0.0,2025-04-11 20:44:54.841,BACKWARD,21
53.0,7981.495020567778,-10788.315330542962,-25101.83603785468,-24047.95128678695,14388.89078961501,6587.707291568196,22982.01894545781,50688.59317166724,0.0,0.0,0.0,193.0,0.0,192.0,0.0,17.0,0.0,178.0,192.0,17.0,178.0,1744418694.8413863,0.0,2025-04-11 20:44:54.841,BACKWARD,21
54.0,8004.830241779118,-10748.640984134792,-25093.543540661758,-24007.360518856112,14312.35841660004,6793.544506257118,22698.554122275607,50781.464669879046,0.0,0.0,0.0,193.0,0.0,193.0,0.0,17.0,0.0,179.0,193.0,17.0,179.0,1744418694.841418,0.0,2025-04-11 20:44:54.841,BACKWARD,21
55.0,8014.955582017373,-10753.714830126148,-25041.732197014357,-24006.13117291107,14441.484444318348,6779.373500272453,22744.531660620174,50826.481083212035,0.0,0.0,0.0,193.0,0.0,192.0,0.0,17.0,0.0,179.0,192.0,17.0,179.0,1744418694.8414495,0.0,2025-04-11 20:44:54.841,BACKWARD,21
56.0,7997.253000408769,-10795.356130046384,-25051.075226196674,-24045.626705363597,14516.362788243627,6591.104756725402,23121.38207213665,50772.434565119096,0.0,0.0,0.0,193.0,0.0,193.0,0.0,17.0,0.0,179.0,193.0,17.0,179.0,1744418694.8414812,0.0,2025-04-11 20:44:54.841,BACKWARD,21
57.0,7999.577581832121,-10787.868295653856,-25097.410392452526,-24041.916315784016,14390.969501849355,6529.436293773209,23047.46485322295,50676.99261629494,0.0,0.0,0.0,193.0,0.0,193.0,0.0,17.0,0.0,179.0,193.0,17.0,179.0,1744418694.841529,0.0,2025-04-11 20:44:54.841,BACKWARD,21
58.0,8003.444433622889,-10752.396077203284,-25107.53573269078,-24014.177800914982,14293.91822742441,6758.519322695652,22780.674431404404,50786.78438505941,0.0,0.0,0.0,193.0,0.0,192.0,0.0,17.0,0.0,178.0,192.0,17.0,178.0,1744418694.8415608,0.0,2025-04-11 20:44:54.841,BACKWARD,21
59.0,8012.116910471548,-10737.576870629415,-25046.51547032779,-24003.60542578762,14422.440758042427,6802.842831950526,22715.764965506194,50828.850368124295,0.0,0.0,0.0,193.0,0.0,193.0,0.0,17.0,0.0,179.0,193.0,17.0,179.0,1744418694.8415928,0.0,2025-04-11 20:44:54.841,BACKWARD,21
60.0,7995.911895741451,-10780.089888583409,-25042.961542959398,-24046.788996075273,14562.563844032748,6665.871341928404,23109.781516764346,50797.75909158696,0.0,0.0,0.0,193.0,0.0,193.0,0.0,17.0,0.0,179.0,193.0,17.0,179.0,1744418694.8416245,0.0,2025-04-11 20:44:54.841,BACKWARD,21
61.0,8000.762224288253,-10775.32896701443,-25084.40167717954,-24039.547030871756,14438.534014050249,6555.207855130178,23098.918568959067,50677.50670641741,0.0,0.0,0.0,193.0,0.0,192.0,0.0,17.0,0.0,179.0,192.0,17.0,179.0,1744418694.8416677,0.0,2025-04-11 20:44:54.841,BACKWARD,21
62.0,8007.53480285821,-10748.998612046076,-25102.618348910615,-24002.689004264954,14340.834539036101,6790.616427733473,22847.707313025872,50759.783477757395,0.0,0.0,0.0,193.0,0.0,193.0,0.0,17.0,0.0,179.0,193.0,17.0,179.0,1744418694.8416994,0.0,2025-04-11 20:44:54.841,BACKWARD,21
63.0,8030.579451391632,-10734.514681639039,-25054.33858088715,-23989.4120680585,14413.634170727037,6867.752297848738,22703.87383745597,50820.20024302009,0.0,0.0,0.0,193.0,0.0,193.0,0.0,17.0,0.0,179.0,193.0,17.0,179.0,1744418694.8417313,0.0,2025-04-11 20:44:54.841,BACKWARD,21
64.0,7993.67672129592,-10788.717661943158,-25050.91876398549,-24049.09122575417,14545.30829731325,6722.041275744591,23080.0984001277,50815.26050749547,0.0,0.0,0.0,193.0,0.0,193.0,0.0,17.0,0.0,178.0,193.0,17.0,178.0,1744418694.8417633,0.0,2025-04-11 20:44:54.841,BACKWARD,21
65.0,7997.208296919859,-10793.813859678969,-25087.19564523645,-24059.216565992425,14455.946022980932,6540.142779367302,23146.192508482043,50687.78850886685,0.0,0.0,0.0,193.0,0.0,193.0,0.0,17.0,0.0,179.0,193.0,17.0,179.0,1744418694.8417947,0.0,2025-04-11 20:44:54.841,BACKWARD,21
66.0,8002.840936522596,-10771.350356501383,-25111.78256413729,-24024.079623708683,14341.236870436296,6729.730275837216,22910.269845756276,50737.31997457981,0.0,0.0,0.0,193.0,0.0,193.0,0.0,17.0,0.0,179.0,193.0,17.0,179.0,1744418694.8418267,0.0,2025-04-11 20:44:54.841,BACKWARD,21
67.0,8021.504643142777,-10748.998612046076,-25078.67963059898,-24012.501420080833,14362.471027668838,6845.177035948877,22704.075003156067,50809.203184748076,0.0,0.0,0.0,193.0,0.0,193.0,0.0,17.0,0.0,179.0,193.0,17.0,179.0,1744418694.8418589,0.0,2025-04-11 20:44:54.841,BACKWARD,21
68.0,7992.357968373057,-10802.463984783171,-25059.255964667318,-24061.250574737856,14533.439521007482,6741.0402585316015,23031.773928615326,50823.93298434413,0.0,0.0,0.0,193.0,0.0,193.0,0.0,17.0,0.0,179.0,193.0,17.0,179.0,1744418694.8418903,0.0,2025-04-11 20:44:54.841,BACKWARD,21
69.0,7988.334654371101,-10806.911981929778,-25093.051802283742,-24077.701458656964,14471.659299333012,6524.653020459774,23182.40233449964,50693.35409323622,0.0,0.0,0.0,193.0,0.0,193.0,0.0,17.0,0.0,178.0,193.0,17.0,178.0,1744418694.8419223,0.0,2025-04-11 20:44:54.841,BACKWARD,21
70.0,7990.480421838811,-10772.624405935336,-25117.348148506662,-24036.373083159102,14354.759675831758,6678.455374056742,22983.292994891763,50715.1693958246,0.0,0.0,0.0,193.0,0.0,193.0,0.0,17.0,0.0,179.0,193.0,17.0,179.0,1744418694.8419535,0.0,2025-04-11 20:44:54.841,BACKWARD,21
71.0,8018.487157641311,-10747.478693423116,-25085.96629929141,-24014.066042192706,14350.021106007232,6834.515253843696,22739.189593695355,50804.53167015692,0.0,0.0,0.0,193.0,0.0,193.0,0.0,17.0,0.0,179.0,193.0,17.0,179.0,1744418694.8419852,0.0,2025-04-11 20:44:54.841,BACKWARD,21
72.0,8006.037235979705,-10777.497086226593,-25046.403711605515,-24042.162184973025,14505.67865439399,6744.236557988711,22976.431009343985,50823.620059921755,0.0,0.0,0.0,193.0,0.0,192.0,0.0,17.0,0.0,178.0,192.0,17.0,178.0,1744418694.84203,0.0,2025-04-11 20:44:54.842,BACKWARD,21
73.0,7995.554267830166,-10786.080156097432,-25071.19179620645,-24081.389496492087,14483.550427383236,6519.199194812679,23223.618951275224,50704.686427675064,0.0,0.0,0.0,193.0,0.0,193.0,0.0,17.0,0.0,179.0,193.0,17.0,179.0,1744418694.8420625,0.0,2025-04-11 20:44:54.842,BACKWARD,21
74.0,7991.061567194649,-10785.320196785951,-25100.33847097617,-24050.2758682103,14367.880149827022,6614.97641980367,23055.153853315576,50676.79145059484,0.0,0.0,0.0,193.0,0.0,192.0,0.0,17.0,0.0,178.0,192.0,17.0,178.0,1744418694.8420944,0.0,2025-04-11 20:44:54.842,BACKWARD,21
75.0,8014.083863983616,-10764.868350609346,-25082.01004052282,-24015.76477477131,14325.233021406297,6839.454989368319,22785.278890762198,50791.63471360621,0.0,0.0,0.0,193.0,0.0,193.0,0.0,17.0,0.0,179.0,193.0,17.0,179.0,1744418694.8421268,0.0,2025-04-11 20:44:54.842,BACKWARD,21
76.0,8020.834090809119,-10768.198760533185,-25027.069452651675,-24016.010643960315,14495.86623857811,6808.766044231182,22913.846124869124,50826.905766356685,0.0,0.0,0.0,193.0,0.0,193.0,0.0,17.0,0.0,179.0,193.0,17.0,179.0,1744418694.8421707,0.0,2025-04-11 20:44:54.842,BACKWARD,21
77.0,8000.002264976772,-10794.909095157278,-25054.94207798744,-24059.95417355945,14531.629029706603,6613.12122501388,23256.967754002544,50760.275216135415,0.0,0.0,0.0,193.0,0.0,193.0,0.0,17.0,0.0,179.0,193.0,17.0,179.0,1744418694.842203,0.0,2025-04-11 20:44:54.842,BACKWARD,21
78.0,7999.711692298853,-10787.823592164945,-25092.671822628003,-24039.435272149476,14405.721653189858,6615.468158181687,23128.86990652918,50697.10918630471,0.0,0.0,0.0,193.0,0.0,193.0,0.0,17.0,0.0,179.0,193.0,17.0,179.0,1744418695.3174384,0.0,2025-04-11 20:44:55.317,BACKWARD,21
79.0,8011.200488948881,-10755.346507471384,-25088.91672955951,-24009.215713645903,14331.402102875962,6826.06629443959,22854.122263684545,50800.262486965956,0.0,0.0,0.0,193.0,0.0,193.0,0.0,17.0,0.0,179.0,193.0,17.0,179.0,1744418695.317672,0.0,2025-04-11 20:44:55.317,BACKWARD,21
80.0,8007.378340647023,-10766.70119365468,-25047.856574995112,-24018.55874282822,14433.817795970179,6809.593058776029,22886.91227280048,50842.44022875312,0.0,0.0,0.0,193.0,0.0,193.0,0.0,17.0,0.0,178.0,193.0,17.0,178.0,1744418695.3177345,0.0,2025-04-11 20:44:55.317,BACKWARD,21
81.0,7987.172363659426,-10801.681673727237,-25063.480444369372,-24069.297202741767,14492.804049587734,6613.702370369718,23266.26607969595,50787.3878821597,0.0,0.0,0.0,193.0,0.0,192.0,0.0,17.0,0.0,179.0,192.0,17.0,179.0,1744418695.3177814,0.0,2025-04-11 20:44:55.317,BACKWARD,21
82.0,7990.39101486099,-10786.102507841886,-25090.950738304942,-24040.642266350063,14388.622568681547,6566.450782591198,23202.36244229823,50693.734072891966,0.0,0.0,0.0,193.0,0.0,192.0,0.0,17.0,0.0,178.0,192.0,17.0,178.0,1744418695.317828,0.0,2025-04-11 20:44:55.317,BACKWARD,21
83.0,8005.143166201493,-10760.84503660739,-25099.220883753405,-24001.213789130903,14328.898707496966,6813.750483244716,22946.21145084041,50800.463652666054,0.0,0.0,0.0,193.0,0.0,193.0,0.0,17.0,0.0,179.0,193.0,17.0,179.0,1744418695.3178675,0.0,2025-04-11 20:44:55.317,BACKWARD,21
84.0,8016.766073318252,-10761.180312774219,-25056.551403588226,-24014.870704993096,14440.18804313994,6829.977849719268,22875.401124405995,50854.82309518136,0.0,0.0,0.0,193.0,0.0,193.0,0.0,17.0,0.0,179.0,193.0,17.0,179.0,1744418695.317912,0.0,2025-04-11 20:44:55.317,BACKWARD,21
85.0,7989.161668915948,-10805.570877262458,-25048.795348262232,-24063.86572883913,14563.748486488877,6652.907330144326,23259.13587321471,50825.16233028917,0.0,0.0,0.0,193.0,0.0,193.0,0.0,17.0,0.0,179.0,193.0,17.0,179.0,1744418695.3179574,0.0,2025-04-11 20:44:55.317,BACKWARD,21
86.0,7980.086860667094,-10808.878935441844,-25084.513435901816,-24061.56349916023,14444.90426122001,6518.90862213476,23248.518794598436,50691.185974024054,0.0,0.0,0.0,193.0,0.0,193.0,0.0,17.0,0.0,179.0,193.0,17.0,179.0,1744418695.3179975,0.0,2025-04-11 20:44:55.317,BACKWARD,21
87.0,7994.660198051954,-10777.631196693326,-25095.532845918282,-24006.4664490779,14349.641126351491,6760.2851105076215,22994.60297758615,50768.4336028616,0.0,0.0,0.0,193.0,0.0,193.0,0.0,17.0,0.0,178.0,193.0,17.0,178.0,1744418695.3180375,0.0,2025-04-11 20:44:55.318,BACKWARD,21
88.0,8015.0896924841045,-10767.774077388534,-25058.898336756032,-23997.302233851224,14389.85191462659,6858.45397215533,22852.93762122841,50844.161313076176,0.0,0.0,0.0,193.0,0.0,193.0,0.0,17.0,0.0,178.0,193.0,17.0,178.0,1744418695.3182812,0.0,2025-04-11 20:44:55.318,BACKWARD,21
89.0,7994.950770729873,-10801.167583604763,-25043.945019715433,-24040.776376816797,14547.655230481058,6729.28324094811,23213.761831970434,50839.44509499611,0.0,0.0,0.0,193.0,0.0,192.0,0.0,17.0,0.0,178.0,192.0,17.0,178.0,1744418695.318323,0.0,2025-04-11 20:44:55.318,BACKWARD,21
90.0,7992.559134073154,-10797.591304491914,-25077.271470698295,-24047.884231553584,14485.092697750653,6541.953270668182,23297.200894022095,50707.41334049861,0.0,0.0,0.0,193.0,0.0,193.0,0.0,17.0,0.0,178.0,193.0,17.0,178.0,1744418695.3183603,0.0,2025-04-11 20:44:55.318,BACKWARD,21
91.0,7984.3336921136015,-10783.710871185169,-25109.59209318067,-24016.3682718716,14358.246547966784,6728.1880054698,23088.033269409334,50761.750431269465,0.0,0.0,0.0,193.0,0.0,193.0,0.0,17.0,0.0,179.0,193.0,17.0,179.0,1744418695.318452,0.0,2025-04-11 20:44:55.318,BACKWARD,21
92.0,8011.066378482149,-10744.841187577389,-25064.106293214118,-23990.954338425916,14369.55653066117,6846.808713294115,22869.679077825436,50840.89795838571,0.0,0.0,0.0,193.0,0.0,192.0,0.0,17.0,0.0,178.0,192.0,17.0,178.0,1744418695.31849,0.0,2025-04-11 20:44:55.318,BACKWARD,21
93.0,7990.368663116535,-10793.858563167878,-25038.178269645963,-24024.526658597788,14535.182957074996,6743.029563788124,23170.131226793674,50857.39354579372,0.0,0.0,0.0,193.0,0.0,193.0,0.0,17.0,0.0,179.0,193.0,17.0,179.0,1744418695.31853,0.0,2025-04-11 20:44:55.318,BACKWARD,21
94.0,7981.785593245697,-10815.964438434177,-25078.612575365612,-24059.171862503514,14489.026604774786,6533.884290919816,23354.130787149763,50741.61150951523,0.0,0.0,0.0,193.0,0.0,192.0,0.0,17.0,0.0,178.0,192.0,17.0,178.0,1744418695.318565,0.0,2025-04-11 20:44:55.318,BACKWARD,21
95.0,7982.478497323811,-10799.222981837152,-25103.847694855656,-24026.98535048787,14374.920949330444,6660.12694360339,23155.043799286344,50743.28789034938,0.0,0.0,0.0,193.0,0.0,193.0,0.0,17.0,0.0,179.0,193.0,17.0,179.0,1744418695.318599,0.0,2025-04-11 20:44:55.318,BACKWARD,21
96.0,8012.742759316297,-10766.231807021119,-25068.621345594092,-23995.17881812797,14353.575033375626,6825.194576405833,22895.204769993397,50833.477179226546,0.0,0.0,0.0,193.0,0.0,193.0,0.0,17.0,0.0,179.0,193.0,17.0,179.0,1744418695.318633,0.0,2025-04-11 20:44:55.318,BACKWARD,21
97.0,8000.6504655659755,-10790.66226371077,-25030.24340036433,-24021.442117862956,14516.049863821252,6768.130572811434,23115.9058947451,50868.63647325474,0.0,0.0,0.0,193.0,0.0,192.0,0.0,17.0,0.0,178.0,192.0,17.0,178.0,1744418695.3186693,0.0,2025-04-11 20:44:55.318,BACKWARD,21
98.0,7982.411442090445,-10803.38040630584,-25063.21222343591,-24058.43425493649,14510.327817240694,6564.841456990416,23394.028651002485,50777.754280299465,0.0,0.0,0.0,193.0,0.0,193.0,0.0,17.0,0.0,179.0,193.0,17.0,179.0,1744418695.3187032,0.0,2025-04-11 20:44:55.318,BACKWARD,21
99.0,7993.855535251562,-10780.402813005783,-25088.53674990377,-24020.503344595832,14384.196923279396,6624.565318174997,23234.526602569415,50739.3763350697,0.0,0.0,0.0,193.0,0.0,193.0,0.0,17.0,0.0,178.0,193.0,17.0,178.0,1744418695.3187385,0.0,2025-04-11 20:44:55.318,BACKWARD,21
100.0,8005.836070279607,-10766.790600632501,-25076.444456153447,-23989.65793724751,14322.59551556057,6814.890422211936,22967.758532495325,50844.161313076176,0.0,0.0,0.0,193.0,0.0,193.0,0.0,17.0,0.0,179.0,193.0,17.0,179.0,1744418695.3187735,0.0,2025-04-11 20:44:55.318,BACKWARD,21
101.0,8003.86911676754,-10782.7944496625,-25023.627284005557,-23993.99417567184,14474.00623250082,6776.3113112820765,23072.878786668636,50874.090298901836,0.0,0.0,0.0,193.0,0.0,193.0,0.0,17.0,0.0,179.0,193.0,17.0,179.0,1744418695.3188076,0.0,2025-04-11 20:44:55.318,BACKWARD,21
102.0,7989.0275584492165,-10808.275438341552,-25042.827432492668,-24039.167051216013,14524.320009269717,6586.165021200779,23416.313340224428,50801.22361197753,0.0,0.0,0.0,193.0,0.0,192.0,0.0,17.0,0.0,178.0,192.0,17.0,178.0,1744418695.3188431,0.0,2025-04-11 20:44:55.318,BACKWARD,21
103.0,7987.574695059621,-10792.830382922933,-25081.451246911438,-24027.633551077077,14411.488403259327,6588.78017530205,23322.391310023228,50736.291794334866,0.0,0.0,0.0,193.0,0.0,193.0,0.0,17.0,0.0,179.0,193.0,17.0,179.0,1744418695.3188984,0.0,2025-04-11 20:44:55.318,BACKWARD,21
104.0,7994.682549796409,-10763.03550756401,-25091.755401105333,-24004.27597812128,14323.467233594327,6806.888497696937,23065.815635420757,50846.999984622,0.0,0.0,0.0,193.0,0.0,193.0,0.0,17.0,0.0,179.0,193.0,17.0,179.0,1744418695.318933,0.0,2025-04-11 20:44:55.318,BACKWARD,21
105.0,8000.605762077065,-10785.633121208326,-25043.05094993722,-24009.483934579366,14438.534014050249,6792.561029501085,23072.297641312798,50888.50717407551,0.0,0.0,0.0,193.0,0.0,192.0,0.0,17.0,0.0,178.0,192.0,17.0,178.0,1744418695.3189664,0.0,2025-04-11 20:44:55.318,BACKWARD,21
106.0,7987.462936337345,-10825.843909483423,-25038.29002836824,-24045.783167574784,14543.45310252346,6627.1581205318125,23468.72818097212,50855.53835100393,0.0,0.0,0.0,193.0,0.0,193.0,0.0,17.0,0.0,179.0,193.0,17.0,179.0,1744418695.319,0.0,2025-04-11 20:44:55.319,BACKWARD,21
107.0,7990.323959627624,-10819.048979169009,-25070.118912472597,-24032.059196479226,14428.18515636744,6563.7685732565615,23422.59418041637,50744.31607059432,0.0,0.0,0.0,193.0,0.0,193.0,0.0,17.0,0.0,179.0,193.0,17.0,179.0,1744418695.319045,0.0,2025-04-11 20:44:55.319,BACKWARD,21
108.0,7995.844840508085,-10789.879952654834,-25090.079020271187,-24001.906693209017,14335.827748278112,6790.9293521558475,23167.851348859233,50833.79010364892,0.0,0.0,0.0,193.0,0.0,192.0,0.0,17.0,0.0,179.0,192.0,17.0,179.0,1744418695.3190777,0.0,2025-04-11 20:44:55.319,BACKWARD,21
109.0,8013.390959905501,-10773.518475713548,-25039.56407780219,-23993.904768694018,14438.154034394507,6834.06821895459,23087.407420564585,50892.821060755385,0.0,0.0,0.0,193.0,0.0,193.0,0.0,17.0,0.0,179.0,193.0,17.0,179.0,1744418695.3191335,0.0,2025-04-11 20:44:55.319,BACKWARD,21
110.0,7970.4309070624,-10815.942086689722,-25039.58642954665,-24045.827871063695,14570.699879014479,6699.466013844731,23497.025489452542,50890.96586596559,0.0,0.0,0.0,193.0,0.0,192.0,0.0,17.0,0.0,178.0,192.0,17.0,178.0,1744418695.319166,0.0,2025-04-11 20:44:55.319,BACKWARD,21
111.0,7973.336633841591,-10811.136461631831,-25081.026563766787,-24043.369179173613,14460.885758505556,6550.357526583377,23517.566742606967,50760.968120213525,0.0,0.0,0.0,193.0,0.0,192.0,0.0,17.0,0.0,178.0,192.0,17.0,178.0,1744418695.3191972,0.0,2025-04-11 20:44:55.319,BACKWARD,21
112.0,7989.3181311271355,-10780.51457172806,-25102.39483146606,-23995.78231522826,14344.07554198212,6772.1985903023,23275.22912922253,50820.177891275634,0.0,0.0,0.0,193.0,0.0,193.0,0.0,17.0,0.0,179.0,193.0,17.0,179.0,1744418695.3192291,0.0,2025-04-11 20:44:55.319,BACKWARD,21
113.0,7998.4152911204455,-10778.927597871732,-25070.878871784076,-23989.74734422533,14367.254300982273,6870.792135094659,23125.38303439415,50898.02901721347,0.0,0.0,0.0,193.0,0.0,192.0,0.0,17.0,0.0,178.0,192.0,17.0,178.0,1744418695.3192608,0.0,2025-04-11 20:44:55.319,BACKWARD,21
114.0,7984.19958164687,-10814.936258189233,-25042.00041794782,-24026.739481298864,14544.704800212956,6745.398848700386,23482.429800323225,50900.264191659,0.0,0.0,0.0,193.0,0.0,193.0,0.0,17.0,0.0,179.0,193.0,17.0,179.0,1744418695.319292,0.0,2025-04-11 20:44:55.319,BACKWARD,21
115.0,7970.609721018043,-10813.818670966468,-25086.793313836257,-24058.501310169853,14475.503799379327,6543.272023591045,23602.637482003865,50770.3335011403,0.0,0.0,0.0,193.0,0.0,193.0,0.0,17.0,0.0,179.0,193.0,17.0,179.0,1744418695.3193235,0.0,2025-04-11 20:44:55.319,BACKWARD,21
116.0,7968.642767505976,-10802.955723161189,-25116.297616517262,-24027.790013288264,14350.60225136307,6705.009246469646,23390.832351545378,50804.57637364583,0.0,0.0,0.0,193.0,0.0,192.0,0.0,17.0,0.0,179.0,192.0,17.0,179.0,1744418695.3193548,0.0,2025-04-11 20:44:55.319,BACKWARD,21
117.0,8000.426948121423,-10780.112240327864,-25077.182063720473,-23993.971823927383,14357.777161333224,6847.389858649953,23173.282822761874,50889.535354320455,0.0,0.0,0.0,193.0,0.0,193.0,0.0,17.0,0.0,179.0,193.0,17.0,179.0,1744418695.3193865,0.0,2025-04-11 20:44:55.319,BACKWARD,21
118.0,7996.96242773085,-10810.555316275993,-25041.687493525445,-24026.6724260655,14537.708704198445,6756.57472092804,23463.766093703045,50901.35942713731,0.0,0.0,0.0,193.0,0.0,193.0,0.0,17.0,0.0,178.0,193.0,17.0,178.0,1744418695.3194337,0.0,2025-04-11 20:44:55.319,BACKWARD,21
119.0,7990.05573869416,-10821.261801870085,-25070.185967705962,-24054.925031057006,14506.572724172203,6536.566500254453,23666.54111940159,50781.867001279235,0.0,0.0,0.0,193.0,0.0,193.0,0.0,17.0,0.0,179.0,193.0,17.0,179.0,1744418695.3194673,0.0,2025-04-11 20:44:55.319,BACKWARD,21
120.0,7985.607741547555,-10803.13453711683,-25096.583377907682,-24017.061175949715,14373.132809774019,6654.248434811644,23489.202378893184,50785.06330073635,0.0,0.0,0.0,193.0,0.0,193.0,0.0,17.0,0.0,179.0,193.0,17.0,179.0,1744418695.3194997,0.0,2025-04-11 20:44:55.319,BACKWARD,21
121.0,8008.96531450335,-10775.865408881356,-25077.58439512067,-23994.32945183867,14334.9336784999,6821.3947798484305,23243.288486395897,50881.19815363862,0.0,0.0,0.0,193.0,0.0,193.0,0.0,17.0,0.0,179.0,193.0,17.0,179.0,1744418695.3195324,0.0,2025-04-11 20:44:55.319,BACKWARD,21
122.0,8002.639770822499,-10806.107319129387,-25034.222010877373,-24014.08839393716,14515.513421954325,6769.225808289744,23442.800157403966,50903.19227018265,0.0,0.0,0.0,193.0,0.0,193.0,0.0,17.0,0.0,179.0,193.0,17.0,179.0,1744418695.3195815,0.0,2025-04-11 20:44:55.319,BACKWARD,21
123.0,7972.57667453011,-10841.847758513422,-25063.949831002934,-24056.86963282462,14512.45123296395,6571.479925093642,23743.40876858339,50814.36643771725,0.0,0.0,0.0,193.0,0.0,192.0,0.0,17.0,0.0,178.0,192.0,17.0,178.0,1744418695.3196146,0.0,2025-04-11 20:44:55.319,BACKWARD,21
124.0,7963.323052325613,-10821.194746636718,-25106.95458733494,-24031.969789501407,14371.344670217595,6621.9948675626365,23599.597644757945,50769.05945170635,0.0,0.0,0.0,193.0,0.0,193.0,0.0,17.0,0.0,179.0,193.0,17.0,179.0,1744418695.3196461,0.0,2025-04-11 20:44:55.319,BACKWARD,21
125.0,7976.622340276521,-10784.314368285462,-25108.38509898008,-24008.478106078877,14319.533326570194,6829.106131685511,23319.776155921958,50861.282749328944,0.0,0.0,0.0,193.0,0.0,193.0,0.0,17.0,0.0,179.0,193.0,17.0,179.0,1744418695.3196783,0.0,2025-04-11 20:44:55.319,BACKWARD,21
126.0,7982.545552557177,-10806.688464485225,-25054.495043098337,-24015.295388137747,14479.504761636827,6797.813689448081,23399.370717927304,50889.669464787185,0.0,0.0,0.0,193.0,0.0,193.0,0.0,17.0,0.0,179.0,193.0,17.0,179.0,1744418695.3197107,0.0,2025-04-11 20:44:55.319,BACKWARD,21
127.0,7975.191828631381,-10846.876901015867,-25063.05576122472,-24051.371103688612,14543.140178101085,6601.520669641575,23750.427216342356,50825.34114424481,0.0,0.0,0.0,193.0,0.0,193.0,0.0,17.0,0.0,178.0,193.0,17.0,178.0,1744418695.3197424,0.0,2025-04-11 20:44:55.319,BACKWARD,21
128.0,7976.91291295444,-10829.330781618452,-25102.528941932793,-24034.070853480203,14413.812984682678,6583.013425232581,23648.167985459328,50742.371468826714,0.0,0.0,0.0,193.0,0.0,193.0,0.0,17.0,0.0,179.0,193.0,17.0,179.0,1744418695.3197742,0.0,2025-04-11 20:44:55.319,BACKWARD,21
129.0,7990.882753239007,-10791.489278255616,-25109.525037947304,-24009.6180450461,14325.389483617484,6806.463814552286,23382.696316563644,50843.26724329797,0.0,0.0,0.0,193.0,0.0,192.0,0.0,17.0,0.0,178.0,192.0,17.0,178.0,1744418695.3198063,0.0,2025-04-11 20:44:55.319,BACKWARD,21
130.0,8003.511488856255,-10797.658359725281,-25056.461996610404,-24015.071870693195,14440.210394884396,6796.740805714227,23363.29500237644,50880.63936002724,0.0,0.0,0.0,193.0,0.0,193.0,0.0,17.0,0.0,179.0,193.0,17.0,179.0,1744418695.319838,0.0,2025-04-11 20:44:55.319,BACKWARD,21
131.0,7963.85949419254,-10856.018764498087,-25066.609688593115,-24071.57708067621,14539.854471666154,6610.729588357161,23757.870347245975,50842.842560153316,0.0,0.0,0.0,193.0,0.0,193.0,0.0,17.0,0.0,179.0,193.0,17.0,179.0,1744418695.3198695,0.0,2025-04-11 20:44:55.319,BACKWARD,21
132.0,7959.81382844613,-10849.737924306146,-25104.361784978126,-24064.022191050317,14412.203659081897,6505.855203372861,23715.84906767,50719.41622727111,0.0,0.0,0.0,193.0,0.0,192.0,0.0,17.0,0.0,178.0,192.0,17.0,178.0,1744418695.3199017,0.0,2025-04-11 20:44:55.319,BACKWARD,21
133.0,7978.701052510864,-10804.587400506425,-25107.759250135336,-24016.032995704772,14325.41183536194,6747.231691745722,23462.69320996919,50807.750321358486,0.0,0.0,0.0,193.0,0.0,193.0,0.0,17.0,0.0,179.0,193.0,17.0,179.0,1744418695.3199503,0.0,2025-04-11 20:44:55.319,BACKWARD,21
134.0,8003.399730133979,-10774.077269324931,-25056.48434835486,-24001.54906529773,14401.51952523226,6809.34718958702,23361.797435497934,50863.71908947457,0.0,0.0,0.0,193.0,0.0,192.0,0.0,17.0,0.0,179.0,192.0,17.0,179.0,1744418695.3199828,0.0,2025-04-11 20:44:55.319,BACKWARD,21
135.0,7991.799174761674,-10813.639857010825,-25039.452319079915,-24039.56938261621,14541.620259478124,6661.378641292888,23740.726559248753,50836.09233332781,0.0,0.0,0.0,193.0,0.0,192.0,0.0,17.0,0.0,178.0,192.0,17.0,178.0,1744418695.320015,0.0,2025-04-11 20:44:55.320,BACKWARD,21
136.0,7979.840991478085,-10841.735999791146,-25088.022659781298,-24054.18742348998,14445.23953738684,6518.506290734565,23801.94798731184,50723.573651739796,0.0,0.0,0.0,193.0,0.0,193.0,0.0,17.0,0.0,179.0,193.0,17.0,179.0,1744418695.3200724,0.0,2025-04-11 20:44:55.320,BACKWARD,21
137.0,7976.421174576423,-10816.970266934666,-25105.7252413899,-24014.960111970915,14335.537175600193,6713.659371573851,23563.32076350698,50782.89518152418,0.0,0.0,0.0,193.0,0.0,192.0,0.0,17.0,0.0,179.0,192.0,17.0,179.0,1744418695.3201208,0.0,2025-04-11 20:44:55.320,BACKWARD,21
138.0,7999.041139965194,-10791.735147444624,-25067.86138628261,-23997.995137929338,14367.075487026632,6807.8943261974255,23373.19682517014,50846.7988189219,0.0,0.0,0.0,193.0,0.0,193.0,0.0,17.0,0.0,179.0,193.0,17.0,179.0,1744418695.3201551,0.0,2025-04-11 20:44:55.320,BACKWARD,21
139.0,7979.192790888881,-10839.344363134429,-25041.687493525445,-24040.61991460561,14542.804901934256,6700.449490600764,23716.609026981478,50862.10976387379,0.0,0.0,0.0,193.0,0.0,193.0,0.0,17.0,0.0,179.0,193.0,17.0,179.0,1744418695.3201883,0.0,2025-04-11 20:44:55.320,BACKWARD,21
140.0,7973.336633841591,-10848.843854527933,-25079.05961025472,-24062.122292771615,14478.968319769898,6505.497575461576,23856.933278671895,50748.69701250756,0.0,0.0,0.0,193.0,0.0,193.0,0.0,17.0,0.0,178.0,193.0,17.0,178.0,1744418695.3202212,0.0,2025-04-11 20:44:55.320,BACKWARD,21
141.0,7974.38716583099,-10829.219022896174,-25106.753421634847,-24027.924123754994,14354.759675831758,6673.739155976672,23643.317656912524,50777.70957681055,0.0,0.0,0.0,193.0,0.0,193.0,0.0,17.0,0.0,179.0,193.0,17.0,179.0,1744418695.3202543,0.0,2025-04-11 20:44:55.320,BACKWARD,21
142.0,7990.413366605445,-10801.458156282682,-25079.77486607729,-24009.57334155719,14346.087198983098,6820.4560065813075,23407.842029075866,50865.93191217565,0.0,0.0,0.0,193.0,0.0,192.0,0.0,17.0,0.0,178.0,192.0,17.0,178.0,1744418695.3202925,0.0,2025-04-11 20:44:55.320,BACKWARD,21
143.0,7989.0275584492165,-10824.748674005114,-25032.612685276592,-24025.37602488709,14531.964305873431,6738.00042128568,23671.726724115222,50884.72972926256,0.0,0.0,0.0,193.0,0.0,193.0,0.0,17.0,0.0,179.0,193.0,17.0,179.0,1744418695.3203318,0.0,2025-04-11 20:44:55.320,BACKWARD,21
144.0,7976.19765713187,-10843.121807947375,-25070.43183689497,-24058.791882847774,14501.431822947483,6532.453779274676,23899.468648370344,50774.69209130909,0.0,0.0,0.0,193.0,0.0,193.0,0.0,17.0,0.0,179.0,193.0,17.0,179.0,1744418695.320387,0.0,2025-04-11 20:44:55.320,BACKWARD,21
145.0,7977.248189121269,-10820.501842558604,-25100.0255465538,-24021.66563530751,14384.37573723504,6635.2047485357225,23717.972483393252,50755.78251549989,0.0,0.0,0.0,193.0,0.0,193.0,0.0,17.0,0.0,179.0,193.0,17.0,179.0,1744418695.3204541,0.0,2025-04-11 20:44:55.320,BACKWARD,21
146.0,7991.061567194649,-10796.384310291329,-25087.083886514174,-24000.11855365259,14348.925870528921,6812.521137299674,23460.41333203475,50849.905711401196,0.0,0.0,0.0,193.0,0.0,193.0,0.0,17.0,0.0,179.0,193.0,17.0,179.0,1744418695.3205197,0.0,2025-04-11 20:44:55.320,BACKWARD,21
147.0,7971.772011729719,-10821.530022803548,-25055.903202999023,-24034.964923258416,14498.079061279186,6762.207360530778,23645.888107524886,50896.41969161269,0.0,0.0,0.0,193.0,0.0,193.0,0.0,17.0,0.0,179.0,193.0,17.0,179.0,1744418695.3205848,0.0,2025-04-11 20:44:55.320,BACKWARD,21
148.0,7968.933340183895,-10838.159720678297,-25075.639793353057,-24071.979412076405,14509.746671884855,6540.72392472314,23931.20812549688,50794.026350262924,0.0,0.0,0.0,193.0,0.0,192.0,0.0,17.0,0.0,179.0,192.0,17.0,179.0,1744418695.3207085,0.0,2025-04-11 20:44:55.320,BACKWARD,21
149.0,7975.3482908425685,-10825.307467616496,-25102.7748111218,-24043.302123940244,14399.306702531185,6572.619864060863,23787.687574349355,50731.19559659906,0.0,0.0,0.0,193.0,0.0,193.0,0.0,17.0,0.0,179.0,193.0,17.0,179.0,1744418695.3207588,0.0,2025-04-11 20:44:55.320,BACKWARD,21
150.0,7995.86719225254,-10794.372653290351,-25096.404563952037,-24012.188495658458,14328.094044696576,6788.91769515487,23519.623103096856,50829.00683033548,0.0,0.0,0.0,193.0,0.0,193.0,0.0,17.0,0.0,179.0,193.0,17.0,179.0,1744418695.3208036,0.0,2025-04-11 20:44:55.320,BACKWARD,21
151.0,7995.062529452149,-10811.784662221035,-25055.232650665363,-24025.75600454283,14456.236595658851,6777.585360716029,23597.04954589004,50864.92608367516,0.0,0.0,0.0,193.0,0.0,192.0,0.0,17.0,0.0,178.0,192.0,17.0,178.0,1744418695.3208451,0.0,2025-04-11 20:44:55.320,BACKWARD,21
152.0,7965.692337237876,-10857.270462187584,-25080.803046322235,-24076.56151968974,14520.721378412412,6572.619864060863,23972.26828006128,50801.84946082228,0.0,0.0,0.0,193.0,0.0,193.0,0.0,17.0,0.0,179.0,193.0,17.0,179.0,1744418695.3209405,0.0,2025-04-11 20:44:55.320,BACKWARD,21
153.0,7972.151991385459,-10832.616488053382,-25104.6747094005,-24048.823004820708,14414.729406205346,6530.419770529244,23879.799113249675,50708.0168375989,0.0,0.0,0.0,193.0,0.0,193.0,0.0,17.0,0.0,179.0,193.0,17.0,179.0,1744418695.320986,0.0,2025-04-11 20:44:55.320,BACKWARD,21
154.0,7989.094613682582,-10792.003368378088,-25102.573645421704,-24007.09229792265,14332.966724987833,6771.215113546266,23624.475136336703,50805.15751900167,0.0,0.0,0.0,193.0,0.0,192.0,0.0,17.0,0.0,178.0,192.0,17.0,178.0,1744418695.321032,0.0,2025-04-11 20:44:55.321,BACKWARD,21
155.0,7993.274389895724,-10801.189935349219,-25056.730217543867,-24012.255550891823,14433.7060372479,6785.877857908948,23593.853246432933,50849.3022143009,0.0,0.0,0.0,193.0,0.0,193.0,0.0,17.0,0.0,179.0,193.0,17.0,179.0,1744418695.3210795,0.0,2025-04-11 20:44:55.321,BACKWARD,21
156.0,7964.619453504021,-10853.805941797013,-25058.183080933464,-24060.065932281726,14551.522082271826,6608.762634845095,23981.03016388776,50818.72502788604,0.0,0.0,0.0,193.0,0.0,192.0,0.0,17.0,0.0,178.0,192.0,17.0,178.0,1744418695.3211288,0.0,2025-04-11 20:44:55.321,BACKWARD,21
157.0,7961.177284857904,-10852.375430151873,-25098.818552353212,-24054.701513612454,14434.71186574839,6501.317799248433,23957.4043699985,50707.39098875415,0.0,0.0,0.0,193.0,0.0,192.0,0.0,17.0,0.0,178.0,192.0,17.0,178.0,1744418695.321185,0.0,2025-04-11 20:44:55.321,BACKWARD,21
158.0,7966.742869227275,-10824.659267027291,-25113.68246241599,-24022.93968474146,14329.16692843043,6725.908127535359,23704.78495416462,50794.92042004114,0.0,0.0,0.0,193.0,0.0,193.0,0.0,17.0,0.0,179.0,193.0,17.0,179.0,1744418695.3212335,0.0,2025-04-11 20:44:55.321,BACKWARD,21
159.0,7988.491116582289,-10798.395967292307,-25064.128644958575,-24012.546123569744,14391.394184994006,6797.746634214715,23580.933938137765,50865.21665635308,0.0,0.0,0.0,193.0,0.0,192.0,0.0,17.0,0.0,179.0,192.0,17.0,179.0,1744418695.3212729,0.0,2025-04-11 20:44:55.321,BACKWARD,21
160.0,7976.354119343057,-10828.034380440044,-25049.95763897391,-24052.354580444644,14539.273326310316,6663.41265003832,23958.633715943542,50858.01939463847,0.0,0.0,0.0,193.0,0.0,193.0,0.0,17.0,0.0,179.0,193.0,17.0,179.0,1744418695.321324,0.0,2025-04-11 20:44:55.321,BACKWARD,21
161.0,7971.995529174273,-10834.136406676342,-25112.20724728194,-24074.52751094431,14426.262906344284,6484.732804862596,24029.600504589143,50735.88946293467,0.0,0.0,0.0,193.0,0.0,193.0,0.0,17.0,0.0,179.0,193.0,17.0,179.0,1744418695.3214014,0.0,2025-04-11 20:44:55.321,BACKWARD,21
