Sample Index,EXG Channel 0,EXG Channel 1,EXG Channel 2,EXG Channel 3,EXG Channel 4,EXG Channel 5,EXG Channel 6,EXG Channel 7,Accel Channel 0,Accel Channel 1,Accel Channel 2,Not Used,Digital Channel 0 (D11),Digital Channel 1 (D12),Digital Channel 2 (D13),Digital Channel 3 (D17),Not Used,Digital Channel 4 (D18),Analog Channel 0,Analog Channel 1,Analog Channel 2,Timestamp,Marker Channel,Timestamp (Formatted),Stimulus_Direction,Stimulus_Number
87.0,16637.990371941374,23918.802907324185,-31362.179680130444,-19039.03711307491,-34220.96779596422,-25538.320903577915,-14302.25542810624,-30140.455679947816,0.0,0.0,0.0,193.0,0.0,194.0,0.0,1.0,0.0,180.0,194.0,1.0,180.0,1744420664.0939264,0.0,2025-04-11 21:17:44.093,STOP,46
88.0,16636.604563785146,23933.55505866469,-31348.612171246074,-19025.33549372381,-34205.38863007887,-25529.402557540245,-14510.640741663068,-30143.339054982553,0.0,0.0,0.0,193.0,0.0,193.0,0.0,1.0,0.0,179.0,193.0,1.0,179.0,1744420664.093971,0.0,2025-04-11 21:17:44.093,STOP,46
89.0,16660.230357674405,23941.020541312762,-31350.78029045824,-19026.52013617994,-34210.507179559136,-25546.456938559644,-14130.974010345222,-30112.046612745122,0.0,0.0,0.0,193.0,0.0,194.0,0.0,1.0,0.0,179.0,194.0,1.0,179.0,1744420664.0940151,0.0,2025-04-11 21:17:44.094,STOP,46
90.0,16662.085552464196,23929.419985940458,-31361.01738941877,-19047.687238179118,-34217.63738604038,-25555.10706366385,-13922.454586321663,-30154.649037676936,0.0,0.0,0.0,193.0,0.0,193.0,0.0,1.0,0.0,179.0,193.0,1.0,179.0,1744420664.0940657,0.0,2025-04-11 21:17:44.094,STOP,46
91.0,16644.315915622225,23924.88258181603,-31358.26812485077,-19037.360732240766,-34212.98822319367,-25528.061452872927,-14230.126348748965,-30126.552894896617,0.0,0.0,0.0,193.0,0.0,193.0,0.0,1.0,0.0,179.0,193.0,1.0,179.0,1744420664.0942569,0.0,2025-04-11 21:17:44.094,STOP,46
92.0,16638.973848697406,23935.79023311022,-31351.227325347347,-19029.068235047846,-34208.76374349162,-25514.38218526628,-14506.572724172203,-30111.7560400672,0.0,0.0,0.0,193.0,0.0,194.0,0.0,1.0,0.0,179.0,194.0,1.0,179.0,1744420664.094302,0.0,2025-04-11 21:17:44.094,STOP,46
93.0,16660.72209605242,23941.624038413054,-31354.222459104356,-19026.274266990935,-34216.74331626217,-25527.837935428375,-14224.024322512667,-30081.24590888571,0.0,0.0,0.0,193.0,0.0,193.0,0.0,1.0,0.0,179.0,193.0,1.0,179.0,1744420664.0943463,0.0,2025-04-11 21:17:44.094,STOP,46
94.0,16672.456761891455,23931.364587708067,-31367.54409879972,-19046.793168400905,-34229.05912745704,-25543.171232124714,-13894.917237152726,-30108.738554565738,0.0,0.0,0.0,193.0,0.0,193.0,0.0,1.0,0.0,179.0,193.0,1.0,179.0,1744420664.0944057,0.0,2025-04-11 21:17:44.094,STOP,46
95.0,16645.992296456374,23922.26742771476,-31368.862851722584,-19044.401531744188,-34232.00955772514,-25534.09642387586,-14182.80770573708,-30141.752081126226,0.0,0.0,0.0,193.0,0.0,193.0,0.0,1.0,0.0,179.0,193.0,1.0,179.0,1744420664.09445,0.0,2025-04-11 21:17:44.094,STOP,46
96.0,16630.43548231548,23934.471480187356,-31358.715159739873,-19032.33158973832,-34225.14757217736,-25527.7261767061,-14515.669884165512,-30147.29531375114,0.0,0.0,0.0,193.0,0.0,193.0,0.0,1.0,0.0,179.0,193.0,1.0,179.0,1744420664.094494,0.0,2025-04-11 21:17:44.094,STOP,46
97.0,16647.400456357056,23940.439395956924,-31350.668531735962,-19023.949685567582,-34213.636423782875,-25534.43170004269,-14332.899669754466,-30118.260397703696,0.0,0.0,0.0,193.0,0.0,193.0,0.0,1.0,0.0,179.0,193.0,1.0,179.0,1744420664.0945385,0.0,2025-04-11 21:17:44.094,STOP,46
98.0,16666.645308333078,23937.287799988724,-31358.715159739873,-19038.344208996798,-34219.35847036344,-25544.62409551431,-13888.636396960783,-30093.852292758504,0.0,0.0,0.0,193.0,0.0,194.0,0.0,1.0,0.0,179.0,194.0,1.0,179.0,1744420664.0945826,0.0,2025-04-11 21:17:44.094,STOP,46
99.0,16656.54231983928,23930.6493318855,-31354.78125271574,-19036.913697351658,-34214.08345867199,-25537.851516944353,-14106.610608888937,-30139.561610169603,0.0,0.0,0.0,193.0,0.0,193.0,0.0,1.0,0.0,179.0,193.0,1.0,179.0,1744420664.0946271,0.0,2025-04-11 21:17:44.094,STOP,46
100.0,16646.998124956863,23940.014712812274,-31344.231229332836,-19023.502650678474,-34204.561615534025,-25515.85740040033,-14456.638927059046,-30121.523752394172,0.0,0.0,0.0,193.0,0.0,193.0,0.0,1.0,0.0,179.0,193.0,1.0,179.0,1744420664.5667727,0.0,2025-04-11 21:17:44.566,STOP,46
101.0,16651.06614244773,23937.64542790001,-31344.92413341095,-19022.42976694462,-34206.05918241253,-25521.244170814058,-14396.08805132962,-30098.456752116294,0.0,0.0,0.0,193.0,0.0,194.0,0.0,1.0,0.0,179.0,194.0,1.0,179.0,1744420664.5669527,0.0,2025-04-11 21:17:44.566,STOP,46
102.0,16664.946575754475,23929.97877955184,-31361.822052219162,-19041.227584031534,-34219.49258083017,-25550.860232217343,-13905.690777980182,-30084.084580431532,0.0,0.0,0.0,193.0,0.0,193.0,0.0,1.0,0.0,179.0,193.0,1.0,179.0,1744420664.5670416,0.0,2025-04-11 21:17:44.567,STOP,46
103.0,16652.07197094822,23916.321863689645,-31358.134014384035,-19044.312124766366,-34212.92116796031,-25544.937019936686,-14056.475646075683,-30152.43621497586,0.0,0.0,0.0,193.0,0.0,194.0,0.0,1.0,0.0,179.0,194.0,1.0,179.0,1744420664.5670893,0.0,2025-04-11 21:17:44.567,STOP,46
104.0,16635.643438773568,23926.961294050372,-31350.132089869036,-19032.0410170604,-34203.39932482235,-25529.58137149589,-14419.244458585317,-30136.566476412594,0.0,0.0,0.0,193.0,0.0,194.0,0.0,1.0,0.0,179.0,194.0,1.0,179.0,1744420664.5671349,0.0,2025-04-11 21:17:44.567,STOP,46
105.0,16638.370351597114,23935.142032521017,-31344.38769154402,-19029.112938536757,-34201.63353701038,-25534.6775692317,-14458.091790448641,-30131.91731356589,0.0,0.0,0.0,193.0,0.0,193.0,0.0,1.0,0.0,179.0,193.0,1.0,179.0,1744420664.5671804,0.0,2025-04-11 21:17:44.567,STOP,46
106.0,16659.269232662828,23931.945733063905,-31357.977552172848,-19042.90396486568,-34216.6762610288,-25560.180909655206,-13966.040488009512,-30093.941699736322,0.0,0.0,0.0,193.0,0.0,194.0,0.0,1.0,0.0,180.0,194.0,1.0,180.0,1744420664.5674937,0.0,2025-04-11 21:17:44.567,STOP,46
107.0,16641.834871987685,23903.559017605665,-31371.478005823854,-19065.233357576533,-34230.53434259109,-25569.993325471085,-14001.95974134919,-30162.941534869857,0.0,0.0,0.0,193.0,0.0,193.0,0.0,1.0,0.0,179.0,193.0,1.0,179.0,1744420664.5675807,0.0,2025-04-11 21:17:44.567,STOP,46
108.0,16627.417996814012,23917.618264868055,-31356.16706087197,-19044.513290466464,-34215.20104589475,-25546.792214726476,-14373.848065596589,-30150.737482397257,0.0,0.0,0.0,193.0,0.0,193.0,0.0,1.0,0.0,179.0,193.0,1.0,179.0,1744420664.567629,0.0,2025-04-11 21:17:44.567,STOP,46
109.0,16637.4762818189,23928.79413709571,-31340.900819408995,-19027.123633280236,-34199.71128698722,-25534.811679698432,-14499.531924668781,-30127.62577863047,0.0,0.0,0.0,193.0,0.0,194.0,0.0,1.0,0.0,179.0,194.0,1.0,179.0,1744420664.567731,0.0,2025-04-11 21:17:44.567,STOP,46
110.0,16669.238110689894,23938.047759300203,-31352.143746870013,-19032.756272882973,-34217.19035115127,-25560.180909655206,-14047.445541315741,-30095.640432314925,0.0,0.0,0.0,193.0,0.0,193.0,0.0,1.0,0.0,179.0,193.0,1.0,179.0,1744420664.567789,0.0,2025-04-11 21:17:44.567,STOP,46
111.0,16665.21479668794,23924.45789867138,-31361.06209290768,-19047.843700390305,-34224.409964610335,-25558.05749393195,-13944.962792988157,-30139.91923808089,0.0,0.0,0.0,193.0,0.0,194.0,0.0,1.0,0.0,180.0,194.0,1.0,180.0,1744420664.5678468,0.0,2025-04-11 21:17:44.567,STOP,46
112.0,16643.846528988663,23932.146898764004,-31353.663665492975,-19032.979790327525,-34216.4750953287,-25539.036159400483,-14293.694709979858,-30135.091261278543,0.0,0.0,0.0,193.0,0.0,193.0,0.0,1.0,0.0,179.0,193.0,1.0,179.0,1744420664.567902,0.0,2025-04-11 21:17:44.567,STOP,46
113.0,16634.123520150606,23940.417044212467,-31344.946485155404,-19022.876801833725,-34208.71904000271,-25532.10711861934,-14523.02360809131,-30134.755985111715,0.0,0.0,0.0,193.0,0.0,193.0,0.0,1.0,0.0,179.0,193.0,1.0,179.0,1744420664.5679846,0.0,2025-04-11 21:17:44.567,STOP,46
114.0,16660.4315233745,23943.97097158086,-31349.752110213296,-19021.62510414423,-34217.972662207205,-25540.466671045622,-14150.352972787974,-30092.198263668808,0.0,0.0,0.0,193.0,0.0,194.0,0.0,1.0,0.0,179.0,194.0,1.0,179.0,1744420664.5681815,0.0,2025-04-11 21:17:44.568,STOP,46
115.0,16665.728886810408,23924.92728530494,-31361.93381094144,-19044.267421277455,-34221.9289209758,-25551.642543273276,-13918.028940919512,-30133.77250835568,0.0,0.0,0.0,193.0,0.0,193.0,0.0,1.0,0.0,179.0,193.0,1.0,179.0,1744420664.5682569,0.0,2025-04-11 21:17:44.568,STOP,46
116.0,16646.841662745675,23925.083747516128,-31356.524688783255,-19032.46570020505,-34212.89881621586,-25530.56484825192,-14226.415959169384,-30124.51888615118,0.0,0.0,0.0,193.0,0.0,193.0,0.0,1.0,0.0,179.0,193.0,1.0,179.0,1744420664.5683177,0.0,2025-04-11 21:17:44.568,STOP,46
117.0,16635.5763835402,23932.59393365311,-31353.93188642644,-19028.509441436465,-34208.69668825826,-25526.51918250551,-14495.374500200094,-30116.561665125093,0.0,0.0,0.0,193.0,0.0,194.0,0.0,1.0,0.0,179.0,194.0,1.0,179.0,1744420664.5683763,0.0,2025-04-11 21:17:44.568,STOP,46
118.0,16656.58702332819,23939.45591920089,-31351.49554628081,-19024.70964487906,-34209.83662722548,-25532.889429675273,-14236.653058129914,-30093.271147402666,0.0,0.0,0.0,193.0,0.0,194.0,0.0,0.0,0.0,179.0,194.0,0.0,179.0,1744420664.5684328,0.0,2025-04-11 21:17:44.568,STOP,46
119.0,16671.33917466869,23933.666817386966,-31360.01156091828,-19041.205232287077,-34221.23601689768,-25542.813604213432,-13899.901676166259,-30108.515037121182,0.0,0.0,0.0,193.0,0.0,193.0,0.0,1.0,0.0,180.0,193.0,1.0,180.0,1744420664.568492,0.0,2025-04-11 21:17:44.568,STOP,46
120.0,16644.651191789057,23924.43554692692,-31364.504261553797,-19045.116787566756,-34226.30986288904,-25541.09251989037,-14183.388851092917,-30155.230183032774,0.0,0.0,0.0,193.0,0.0,193.0,0.0,1.0,0.0,179.0,193.0,1.0,179.0,1744420664.5685625,0.0,2025-04-11 21:17:44.568,STOP,46
121.0,16628.714397992422,23936.505488932788,-31355.071825393657,-19032.71156939406,-34210.68599351478,-25529.29079881797,-14506.505668938837,-30142.601447415527,0.0,0.0,0.0,193.0,0.0,194.0,0.0,0.0,0.0,180.0,194.0,0.0,180.0,1744420664.5690258,0.0,2025-04-11 21:17:44.569,STOP,46
122.0,16651.5802325702,23945.44618671491,-31349.148613113,-19024.687293134608,-34207.556749291034,-25530.58719999638,-14330.284515653197,-30107.464505131782,0.0,0.0,0.0,193.0,0.0,193.0,0.0,1.0,0.0,179.0,193.0,1.0,179.0,1744420664.569095,0.0,2025-04-11 21:17:44.569,STOP,46
123.0,16672.21089270245,23938.78536686723,-31359.743339984816,-19039.215927030556,-34220.431354097294,-25549.139147894282,-13894.961940641635,-30091.348897379507,0.0,0.0,0.0,193.0,0.0,194.0,0.0,0.0,0.0,179.0,194.0,0.0,179.0,1744420664.569164,0.0,2025-04-11 21:17:44.569,STOP,46
124.0,16656.81054077274,23924.480250415832,-31356.34587482761,-19038.210098530068,-34215.536322061576,-25540.24315360107,-14101.02267277511,-30134.510115922705,0.0,0.0,0.0,193.0,0.0,193.0,0.0,0.0,0.0,179.0,193.0,0.0,179.0,1744420664.5692887,0.0,2025-04-11 21:17:44.569,STOP,46
125.0,16641.365485354127,23936.661951143975,-31351.02615964725,-19025.2907902349,-34213.27879587159,-25531.324807563404,-14449.218147899885,-30120.137944237944,0.0,0.0,0.0,193.0,0.0,193.0,0.0,1.0,0.0,180.0,193.0,1.0,180.0,1744420664.569425,0.0,2025-04-11 21:17:44.569,STOP,46
126.0,16655.178863427504,23943.903916347495,-31347.91926716796,-19020.19459249909,-34216.29628137306,-25542.254810602048,-14411.980141637343,-30121.23317971625,0.0,0.0,0.0,193.0,0.0,193.0,0.0,0.0,0.0,179.0,193.0,0.0,179.0,1744420664.569496,0.0,2025-04-11 21:17:44.569,STOP,46
127.0,16673.149665969573,23947.346084993613,-31352.836650948127,-19022.720339622538,-34227.80742976754,-25553.989476441086,-13935.03861845,-30094.76871428117,0.0,0.0,0.0,193.0,0.0,193.0,0.0,0.0,0.0,179.0,193.0,0.0,179.0,1744420664.5695565,0.0,2025-04-11 21:17:44.569,STOP,46
128.0,16665.415962388037,23942.205183768892,-31346.95814215638,-19021.111014021757,-34223.91822623232,-25542.835955957886,-14056.140369908855,-30148.792880629648,0.0,0.0,0.0,193.0,0.0,194.0,0.0,0.0,0.0,180.0,194.0,0.0,180.0,1744420664.5696127,0.0,2025-04-11 21:17:44.569,STOP,46
129.0,16643.86888073312,23940.908782590483,-31343.49362176581,-19015.344263952287,-34218.55380756305,-25538.119737877816,-14416.383435295038,-30149.374025985486,0.0,0.0,0.0,193.0,0.0,193.0,0.0,0.0,0.0,179.0,193.0,0.0,179.0,1744420664.5697436,0.0,2025-04-11 21:17:44.569,STOP,46
130.0,16648.272174390815,23943.099253547105,-31334.15059258349,-19009.46575516054,-34207.981432435685,-25536.33159832139,-14485.763250084312,-30140.567438670092,0.0,0.0,0.0,193.0,0.0,194.0,0.0,0.0,0.0,179.0,194.0,0.0,179.0,1744420664.569795,0.0,2025-04-11 21:17:44.569,STOP,46
131.0,16668.09817172267,23942.16048027998,-31345.125299111045,-19018.562915153852,-34216.96683370672,-25556.559927053444,-13995.231866268143,-30089.33724037853,0.0,0.0,0.0,193.0,0.0,193.0,0.0,0.0,0.0,179.0,193.0,0.0,179.0,1744420664.5698392,0.0,2025-04-11 21:17:44.569,STOP,46
132.0,16658.039886717783,23919.473459657846,-31355.049473649204,-19037.919525852147,-34221.34777561996,-25557.11872066483,-13979.473886427151,-30137.326435724073,0.0,0.0,0.0,193.0,0.0,194.0,0.0,0.0,0.0,179.0,194.0,0.0,179.0,1744420664.569883,0.0,2025-04-11 21:17:44.569,STOP,46
133.0,16636.44810157396,23921.17219223645,-31355.563563771673,-19031.90690659367,-34222.174790164805,-25543.90883969174,-14340.02987623571,-30134.331301967064,0.0,0.0,0.0,193.0,0.0,193.0,0.0,0.0,0.0,179.0,193.0,0.0,179.0,1744420664.56993,0.0,2025-04-11 21:17:44.569,STOP,46
134.0,16631.173089882504,23935.678474387943,-31346.48875552282,-19021.66980763314,-34215.893949972866,-25531.43656628568,-14512.45123296395,-30120.00383377121,0.0,0.0,0.0,193.0,0.0,194.0,0.0,0.0,0.0,180.0,194.0,0.0,180.0,1744420664.5699809,0.0,2025-04-11 21:17:44.569,STOP,46
135.0,16651.66963954802,23945.26737275927,-31354.96006667138,-19025.33549372381,-34223.06885994302,-25550.703770006156,-14071.585425327472,-30075.367400093965,0.0,0.0,0.0,193.0,0.0,193.0,0.0,0.0,0.0,179.0,193.0,0.0,179.0,1744420664.5700257,0.0,2025-04-11 21:17:44.570,STOP,46
136.0,16661.124427452618,23937.399558711,-31355.20593586039,-19034.276191505935,-34218.7773250076,-25548.513299049533,-13929.025999191523,-30121.523752394172,0.0,0.0,0.0,193.0,0.0,194.0,0.0,0.0,0.0,180.0,194.0,0.0,180.0,1744420664.570158,0.0,2025-04-11 21:17:44.570,STOP,46
137.0,16647.869842990618,23938.338331978124,-31341.303150809188,-19011.410356928154,-34202.1252753884,-25519.120755090804,-14249.214738513798,-30103.038859729633,0.0,0.0,0.0,193.0,0.0,193.0,0.0,0.0,0.0,179.0,193.0,0.0,179.0,1744420664.5702157,0.0,2025-04-11 21:17:44.570,STOP,46
138.0,16646.662848790034,23951.659971673485,-31332.563618727163,-19000.81563005634,-34198.66075499782,-25511.208237553627,-14485.986767528864,-30106.369269653474,0.0,0.0,0.0,193.0,0.0,194.0,0.0,0.0,0.0,179.0,194.0,0.0,179.0,1744420664.5702596,0.0,2025-04-11 21:17:44.570,STOP,46
139.0,16664.566596098735,23944.507413447787,-31347.516935767766,-19010.695101105583,-34217.79384825157,-25540.220801856616,-14141.725199428225,-30089.359592122986,0.0,0.0,0.0,193.0,0.0,194.0,0.0,0.0,0.0,180.0,194.0,0.0,180.0,1744420664.570323,0.0,2025-04-11 21:17:44.570,STOP,46
140.0,16664.25367167636,23925.55313414969,-31363.319619097667,-19035.259668261966,-34230.19906642426,-25555.419988086225,-13914.430310062207,-30136.119441523486,0.0,0.0,0.0,193.0,0.0,193.0,0.0,0.0,0.0,179.0,193.0,0.0,179.0,1744420664.5703676,0.0,2025-04-11 21:17:44.570,STOP,46
141.0,16646.036999945285,23925.463727171868,-31358.737511484327,-19024.374368712233,-34225.63931055538,-25537.113909377327,-14233.881441817457,-30136.20884850131,0.0,0.0,0.0,193.0,0.0,194.0,0.0,0.0,0.0,179.0,194.0,0.0,179.0,1744420664.5704117,0.0,2025-04-11 21:17:44.570,STOP,46
142.0,16631.620124771613,23941.93696283543,-31347.829860190137,-19014.1372697517,-34212.92116796031,-25524.19460108216,-14519.49203246737,-30123.825982073067,0.0,0.0,0.0,193.0,0.0,193.0,0.0,0.0,0.0,179.0,193.0,0.0,179.0,1744420664.5704556,0.0,2025-04-11 21:17:44.570,STOP,46
143.0,16650.529700580802,23946.63082917104,-31348.58981950162,-19012.662054617653,-34215.536322061576,-25532.934133164184,-14259.116561307499,-30083.19051065332,0.0,0.0,0.0,193.0,0.0,194.0,0.0,0.0,0.0,180.0,194.0,0.0,180.0,1744420664.5704992,0.0,2025-04-11 21:17:44.570,STOP,46
144.0,16670.556863612757,23940.707616890388,-31362.380845830543,-19034.544412439398,-34232.389537380885,-25554.995304941574,-13903.27678957901,-30107.44215338733,0.0,0.0,0.0,193.0,0.0,193.0,0.0,0.0,0.0,179.0,193.0,0.0,179.0,1744420664.5705612,0.0,2025-04-11 21:17:44.570,STOP,46
145.0,16658.39751462907,23930.78344235223,-31351.62965674754,-19024.95551406807,-34220.38665060838,-25536.510412277035,-14165.46275203976,-30130.9114850654,0.0,0.0,0.0,193.0,0.0,194.0,0.0,0.0,0.0,180.0,194.0,0.0,180.0,1744420664.570606,0.0,2025-04-11 21:17:44.570,STOP,46
146.0,16640.829043487196,23940.461747701378,-31342.890124665515,-19013.891400562694,-34210.61893828141,-25525.513354005023,-14483.595130872147,-30112.918330778877,0.0,0.0,0.0,193.0,0.0,193.0,0.0,0.0,0.0,178.0,193.0,0.0,178.0,1744420664.5706503,0.0,2025-04-11 21:17:44.570,STOP,46
147.0,16651.781398270297,23943.83686111413,-31341.928999653937,-19012.930275551116,-34211.624766781904,-25541.830127457397,-14349.8869955405,-30108.29151967663,0.0,0.0,0.0,193.0,0.0,193.0,0.0,0.0,0.0,179.0,193.0,0.0,179.0,1744420664.570695,0.0,2025-04-11 21:17:44.570,STOP,46
148.0,16673.931977025506,23939.902954089994,-31349.72975846884,-19026.006046057468,-34225.23697915518,-25557.275182876016,-13915.302028095964,-30106.10104872001,0.0,0.0,0.0,193.0,0.0,193.0,0.0,0.0,0.0,179.0,193.0,0.0,179.0,1744420664.570748,0.0,2025-04-11 21:17:44.570,STOP,46
149.0,16660.85620651915,23927.96712255086,-31350.4003108025,-19026.497784435487,-34229.036775712586,-25543.975894925108,-14117.630018905404,-30144.25547650522,0.0,0.0,0.0,193.0,0.0,194.0,0.0,0.0,0.0,179.0,194.0,0.0,179.0,1744420664.5708032,0.0,2025-04-11 21:17:44.570,STOP,46
150.0,16638.77268299731,23941.31111399068,-31342.53249675423,-19013.15379299567,-34210.082496414485,-25528.843763928864,-14443.8090257417,-30119.266226204185,0.0,0.0,0.0,193.0,0.0,194.0,0.0,0.0,0.0,180.0,194.0,0.0,180.0,1744420664.5708632,0.0,2025-04-11 21:17:44.570,STOP,46
151.0,16655.648250061065,23954.74451240832,-31326.662758190963,-18994.28892067539,-34192.62578399489,-25512.795211409953,-14402.882981644034,-30090.14190317892,0.0,0.0,0.0,193.0,0.0,193.0,0.0,0.0,0.0,179.0,193.0,0.0,179.0,1744420664.5711007,0.0,2025-04-11 21:17:44.571,STOP,46
152.0,16683.990262030395,23951.659971673485,-31344.611208988576,-19011.432708672608,-34214.418734838815,-25535.661045987734,-13917.917182197236,-30068.550118035095,0.0,0.0,0.0,193.0,0.0,194.0,0.0,0.0,0.0,180.0,194.0,0.0,180.0,1744420664.5711613,0.0,2025-04-11 21:17:44.571,STOP,46
153.0,16670.512160123846,23938.807718611686,-31350.534421269233,-19022.1391942667,-34218.330290118494,-25531.838897685873,-14031.799320197026,-30137.0135113017,0.0,0.0,0.0,193.0,0.0,193.0,0.0,0.0,0.0,179.0,193.0,0.0,179.0,1744420664.5712173,0.0,2025-04-11 21:17:44.571,STOP,46
154.0,16644.405322600047,23939.74649187881,-31348.92509566845,-19012.32677845082,-34214.284624372085,-25517.153801578737,-14395.953940862888,-30126.10586000751,0.0,0.0,0.0,193.0,0.0,194.0,0.0,0.0,0.0,179.0,194.0,0.0,179.0,1744420664.571355,0.0,2025-04-11 21:17:44.571,STOP,46
155.0,16647.53456682379,23944.373302981057,-31338.799755430195,-19000.14507772268,-34205.41098182333,-25502.155781049227,-14483.908055294522,-30091.594766568516,0.0,0.0,0.0,193.0,0.0,193.0,0.0,0.0,0.0,179.0,193.0,0.0,179.0,1744420664.5714097,0.0,2025-04-11 21:17:44.571,STOP,46
156.0,16672.434410147,23947.569602438165,-31345.125299111045,-19005.241275458488,-34208.69668825826,-25515.81269691142,-13977.28341547053,-30024.785402391604,0.0,0.0,0.0,193.0,0.0,194.0,0.0,0.0,0.0,180.0,194.0,0.0,180.0,1744420664.5714648,0.0,2025-04-11 21:17:44.571,STOP,46
157.0,16668.12052346713,23931.83397434163,-31353.01546490377,-19024.419072201144,-34217.324461618,-25525.24513307156,-13955.557519859973,-30101.76481029568,0.0,0.0,0.0,193.0,0.0,193.0,0.0,0.0,0.0,179.0,193.0,0.0,179.0,1744420664.571522,0.0,2025-04-11 21:17:44.571,STOP,46
158.0,16645.76877901182,23934.024445298248,-31351.562601514175,-19017.780604097916,-34214.06110692753,-25519.076051601896,-14329.83748076409,-30117.478086647763,0.0,0.0,0.0,193.0,0.0,194.0,0.0,0.0,0.0,180.0,194.0,0.0,180.0,1744420664.5715823,0.0,2025-04-11 21:17:44.571,STOP,46
159.0,16643.95828771094,23941.333465735133,-31345.125299111045,-19011.90209530617,-34207.64615626886,-25515.589179466868,-14503.287017737273,-30107.017470242678,0.0,0.0,0.0,193.0,0.0,193.0,0.0,0.0,0.0,179.0,193.0,0.0,179.0,1744420664.5717223,0.0,2025-04-11 21:17:44.571,STOP,46
160.0,16675.653061348567,23950.49768096181,-31346.220534589356,-19012.639702873195,-34213.81523773852,-25532.956484908642,-14076.771030041104,-30069.958277935777,0.0,0.0,0.0,193.0,0.0,193.0,0.0,0.0,0.0,179.0,193.0,0.0,179.0,1744420664.5717802,0.0,2025-04-11 21:17:44.571,STOP,46
161.0,16678.96111952795,23939.522974434254,-31354.40127306,-19032.979790327525,-34223.225322154205,-25544.3782263253,-13933.250478893577,-30122.462525661296,0.0,0.0,0.0,193.0,0.0,194.0,0.0,0.0,0.0,179.0,194.0,0.0,179.0,1744420664.5718515,0.0,2025-04-11 21:17:44.571,STOP,46
162.0,16659.224529173916,23943.16630878047,-31346.68992122292,-19019.926371565627,-34212.51883656011,-25523.032310370483,-14267.20789280032,-30110.169066210878,0.0,0.0,0.0,193.0,0.0,193.0,0.0,0.0,0.0,179.0,193.0,0.0,179.0,1744420664.571914,0.0,2025-04-11 21:17:44.571,STOP,46
163.0,16651.53552908129,23950.005942583794,-31336.721043195852,-19010.09160400529,-34201.85705445493,-25520.70772894713,-14518.262686522328,-30125.457659418305,0.0,0.0,0.0,193.0,0.0,194.0,0.0,0.0,0.0,180.0,194.0,0.0,180.0,1744420664.5719743,0.0,2025-04-11 21:17:44.571,STOP,46
164.0,16670.221587445925,23947.54725069371,-31345.214706088867,-19011.969150539535,-34215.87159822841,-25537.33742682188,-14184.28292087113,-30092.690002046827,0.0,0.0,0.0,193.0,0.0,193.0,0.0,0.0,0.0,179.0,193.0,0.0,179.0,1744420664.572042,0.0,2025-04-11 21:17:44.572,STOP,46
165.0,16685.666642864544,23943.725102391854,-31356.63644750553,-19032.130424038223,-34233.328310648,-25544.892316447775,-13923.99685668908,-30112.605406356506,0.0,0.0,0.0,193.0,0.0,194.0,0.0,0.0,0.0,180.0,194.0,0.0,180.0,1744420664.5721097,0.0,2025-04-11 21:17:44.572,STOP,46
166.0,16671.182712457503,23942.473404702356,-31349.59564800211,-19022.541525666897,-34220.78898200858,-25527.234438328083,-14223.398473667918,-30118.34980468152,0.0,0.0,0.0,193.0,0.0,193.0,0.0,0.0,0.0,179.0,193.0,0.0,179.0,1744420664.5722709,0.0,2025-04-11 21:17:44.572,STOP,46
167.0,16647.623973801612,23942.562811680178,-31347.2487148343,-19020.663979132652,-34210.10484815894,-25526.04979587195,-14501.118898525108,-30113.499476134715,0.0,0.0,0.0,193.0,0.0,194.0,0.0,0.0,0.0,179.0,194.0,0.0,179.0,1744420664.5723183,0.0,2025-04-11 21:17:44.572,STOP,46
168.0,16665.170093199027,23947.45784371589,-31345.617037489064,-19017.735900609005,-34208.38376383588,-25540.19845011216,-14272.035869602665,-30098.367345138475,0.0,0.0,0.0,193.0,0.0,194.0,0.0,0.0,0.0,180.0,194.0,0.0,180.0,1744420664.572393,0.0,2025-04-11 21:17:44.572,STOP,46
169.0,16678.737602083398,23942.674570402454,-31361.5538312857,-19042.52398520994,-34226.578083822504,-25563.332505623403,-13900.482821522097,-30121.590807627537,0.0,0.0,0.0,193.0,0.0,193.0,0.0,0.0,0.0,179.0,193.0,0.0,179.0,1744420664.5725656,0.0,2025-04-11 21:17:44.572,STOP,46
170.0,16658.844549518177,23931.811622597175,-31365.286572609733,-19045.80969164487,-34225.080516944,-25554.6823805192,-14151.939946644301,-30150.670427163892,0.0,0.0,0.0,193.0,0.0,194.0,0.0,0.0,0.0,179.0,194.0,0.0,179.0,1744420664.5726109,0.0,2025-04-11 21:17:44.572,STOP,46
171.0,16642.237203387882,23947.614305927076,-31353.216630603867,-19026.229563502024,-34210.90951095933,-25529.24609532906,-14479.14713372554,-30122.77545008367,0.0,0.0,0.0,193.0,0.0,193.0,0.0,0.0,0.0,179.0,193.0,0.0,179.0,1744420664.5726545,0.0,2025-04-11 21:17:44.572,STOP,46
172.0,16655.603546572154,23951.21293678438,-31346.24288633381,-19015.523077907932,-34207.89202545786,-25526.139202849772,-14380.866513355555,-30102.368307395973,0.0,0.0,0.0,193.0,0.0,194.0,0.0,0.0,0.0,180.0,194.0,0.0,180.0,1744420664.5726984,0.0,2025-04-11 21:17:44.572,STOP,46
173.0,16670.802732801763,23941.087596546127,-31365.465386565375,-19036.86899386275,-34226.73454603369,-25549.362665338835,-13919.437100820196,-30077.736685006224,0.0,0.0,0.0,193.0,0.0,193.0,0.0,0.0,0.0,179.0,193.0,0.0,179.0,1744420664.5727477,0.0,2025-04-11 21:17:44.572,STOP,46
174.0,16661.92909025301,23928.458860928877,-31363.20786037539,-19038.38891248571,-34218.9784907077,-25535.90691517674,-14079.341480653464,-30113.186551712344,0.0,0.0,0.0,193.0,0.0,193.0,0.0,0.0,0.0,179.0,193.0,0.0,179.0,1744420664.572811,0.0,2025-04-11 21:17:44.572,STOP,46
175.0,16643.466549332923,23940.417044212467,-31352.769595714763,-19021.356883210767,-34210.26131037013,-25515.09744108885,-14450.425142100472,-30104.514074863684,0.0,0.0,0.0,193.0,0.0,193.0,0.0,0.0,0.0,179.0,193.0,0.0,179.0,1744420664.5728548,0.0,2025-04-11 21:17:44.572,STOP,46
176.0,16646.215813900926,23950.341218750626,-31343.806546188185,-19009.979845283015,-34201.544130032555,-25511.14118232026,-14461.466903861394,-30089.71722003427,0.0,0.0,0.0,193.0,0.0,194.0,0.0,0.0,0.0,180.0,194.0,0.0,180.0,1744420664.5728989,0.0,2025-04-11 21:17:44.572,STOP,46
177.0,16661.884386764097,23948.374265238555,-31358.11166263958,-19025.46960419054,-34212.22826388219,-25540.131394878794,-13949.276679668032,-30057.061321385067,0.0,0.0,0.0,193.0,0.0,194.0,0.0,0.0,0.0,179.0,194.0,0.0,179.0,1744420664.5729437,0.0,2025-04-11 21:17:44.572,STOP,46
178.0,16648.227470901904,23927.564791150668,-31364.68307550944,-19040.557031697874,-34217.838551740475,-25545.495813548067,-14024.691465460237,-30130.620912387483,0.0,0.0,0.0,193.0,0.0,194.0,0.0,0.0,0.0,179.0,194.0,0.0,179.0,1744420664.57299,0.0,2025-04-11 21:17:44.572,STOP,46
179.0,16634.682313761987,23930.895201074505,-31354.31186608218,-19026.564839668852,-34206.729734746186,-25524.06049061543,-14387.326167503139,-30119.57915062656,0.0,0.0,0.0,193.0,0.0,194.0,0.0,0.0,0.0,180.0,194.0,0.0,180.0,1744420664.573037,0.0,2025-04-11 21:17:44.573,STOP,46
180.0,16637.23041262989,23942.74162563582,-31341.079633364636,-19014.271380218433,-34194.05629564003,-25512.258769543027,-14504.181087515484,-30106.9057115204,0.0,0.0,0.0,193.0,0.0,193.0,0.0,0.0,0.0,179.0,193.0,0.0,179.0,1744420664.5738263,0.0,2025-04-11 21:17:44.573,STOP,46
181.0,16657.414037873037,23933.040968542216,-31357.910496939483,-19029.358807725766,-34213.636423782875,-25539.773766967508,-14036.068503387989,-30070.181795380333,0.0,0.0,0.0,193.0,0.0,194.0,0.0,0.0,0.0,179.0,194.0,0.0,179.0,1744420664.5738847,0.0,2025-04-11 21:17:44.573,STOP,46
182.0,16655.804712272253,23918.579389879633,-31365.01835167627,-19052.42580800364,-34220.90074073085,-25545.786386225987,-13995.745956390616,-30129.23510423125,0.0,0.0,0.0,193.0,0.0,193.0,0.0,0.0,0.0,179.0,193.0,0.0,179.0,1744420664.57393,0.0,2025-04-11 21:17:44.573,STOP,46
183.0,16636.87278471861,23929.956427807385,-31358.089310895124,-19041.361694498264,-34216.05041218405,-25526.76505169452,-14340.320448913628,-30113.410069156896,0.0,0.0,0.0,193.0,0.0,194.0,0.0,0.0,0.0,180.0,194.0,0.0,180.0,1744420664.5739744,0.0,2025-04-11 21:17:44.573,STOP,46
184.0,16636.87278471861,23942.339294235622,-31341.794889187207,-19025.626066401728,-34206.036830668076,-25513.823391654896,-14543.07312286772,-30105.452848130808,0.0,0.0,0.0,193.0,0.0,194.0,0.0,0.0,0.0,179.0,194.0,0.0,179.0,1744420664.5740533,0.0,2025-04-11 21:17:44.574,STOP,46
185.0,16661.124427452618,23942.182832024435,-31347.181659600934,-19029.20234551458,-34214.86576972792,-25535.884563432286,-14125.78840563159,-30060.749359220194,0.0,0.0,0.0,193.0,0.0,194.0,0.0,0.0,0.0,180.0,194.0,0.0,180.0,1744420664.5740976,0.0,2025-04-11 21:17:44.574,STOP,46
186.0,16669.90866302355,23931.811622597175,-31354.40127306,-19048.000162601493,-34227.04747045606,-25548.848575216365,-13961.659546096273,-30124.809458829102,0.0,0.0,0.0,193.0,0.0,193.0,0.0,0.0,0.0,179.0,193.0,0.0,179.0,1744420664.5741413,0.0,2025-04-11 21:17:44.574,STOP,46
187.0,16644.964116211428,23928.749433606798,-31353.373092815054,-19038.366560741255,-34220.78898200858,-25540.24315360107,-14278.517875494705,-30120.227351215763,0.0,0.0,0.0,193.0,0.0,193.0,0.0,0.0,0.0,179.0,193.0,0.0,179.0,1744420664.5741851,0.0,2025-04-11 21:17:44.574,STOP,46
188.0,16628.155604381038,23935.276142987746,-31344.275932821743,-19029.42586295913,-34206.01447892362,-25536.33159832139,-14527.561012215736,-30123.602464628515,0.0,0.0,0.0,193.0,0.0,193.0,0.0,0.0,0.0,179.0,193.0,0.0,179.0,1744420664.5742288,0.0,2025-04-11 21:17:44.574,STOP,46
189.0,16656.497616350367,23943.300419247204,-31339.470307763855,-19018.741729109493,-34208.607281280434,-25544.40057806976,-14226.795938825124,-30091.080676446043,0.0,0.0,0.0,193.0,0.0,194.0,0.0,0.0,0.0,179.0,194.0,0.0,179.0,1744420664.5742884,0.0,2025-04-11 21:17:44.574,STOP,46
190.0,16672.568520613735,23936.3490267216,-31347.673397978953,-19032.018665315947,-34219.87256048591,-25546.792214726476,-13924.46624332264,-30097.0038887267,0.0,0.0,0.0,193.0,0.0,194.0,0.0,0.0,0.0,180.0,194.0,0.0,180.0,1744420664.5743325,0.0,2025-04-11 21:17:44.574,STOP,46
191.0,16650.39559011407,23932.348064464102,-31347.71810146786,-19029.694083892595,-34217.25740638464,-25536.845688443864,-14214.413072396885,-30119.355633182007,0.0,0.0,0.0,193.0,0.0,193.0,0.0,0.0,0.0,179.0,193.0,0.0,179.0,1744420664.5743773,0.0,2025-04-11 21:17:44.574,STOP,46
192.0,16635.15170039555,23945.043855314718,-31339.78323218623,-19021.66980763314,-34208.56257779153,-25527.212086583626,-14527.53866047128,-30119.646205859925,0.0,0.0,0.0,193.0,0.0,194.0,0.0,0.0,0.0,180.0,194.0,0.0,180.0,1744420664.574421,0.0,2025-04-11 21:17:44.574,STOP,46
193.0,16654.35184888266,23947.055512315692,-31335.91638039546,-19016.350092452776,-34209.38959233637,-25529.33550230688,-14322.30494288265,-30079.70363851829,0.0,0.0,0.0,193.0,0.0,193.0,0.0,0.0,0.0,179.0,193.0,0.0,179.0,1744420664.5744646,0.0,2025-04-11 21:17:44.574,STOP,46
194.0,16663.694878064976,23934.426776698445,-31353.149575370502,-19041.182880542623,-34229.70732804624,-25553.989476441086,-13927.729598013115,-30092.801760769104,0.0,0.0,0.0,193.0,0.0,194.0,0.0,0.0,0.0,180.0,194.0,0.0,180.0,1744420664.5745115,0.0,2025-04-11 21:17:44.574,STOP,46
195.0,16644.315915622225,23920.389881180512,-31346.891086923017,-19037.405435729677,-34219.98431920818,-25539.460842545133,-14170.558949775572,-30132.431403688362,0.0,0.0,0.0,193.0,0.0,194.0,0.0,0.0,0.0,179.0,194.0,0.0,179.0,1744420664.574572,0.0,2025-04-11 21:17:44.574,STOP,46
196.0,16625.853374702143,23929.621151640553,-31335.983435628827,-19025.24608674599,-34208.78609523608,-25521.691205703166,-14502.728224125889,-30109.230292943754,0.0,0.0,0.0,193.0,0.0,193.0,0.0,0.0,0.0,179.0,193.0,0.0,179.0,1744420664.5746164,0.0,2025-04-11 21:17:44.574,STOP,46
197.0,16640.96315395393,23937.623076155553,-31330.417851259455,-19020.239295988,-34204.24869111165,-25527.659121472734,-14397.920894374955,-30084.218690898266,0.0,0.0,0.0,193.0,0.0,194.0,0.0,0.0,0.0,179.0,194.0,0.0,179.0,1744420664.5746603,0.0,2025-04-11 21:17:44.574,STOP,46
198.0,16668.47815137841,23937.399558711,-31346.756976456283,-19038.075988063334,-34219.313766874526,-25551.642543273276,-13918.006589175056,-30075.099179160497,0.0,0.0,0.0,193.0,0.0,193.0,0.0,0.0,0.0,179.0,193.0,0.0,179.0,1744420664.574704,0.0,2025-04-11 21:17:44.574,STOP,46
199.0,16659.62686057411,23919.87579105804,-31348.72392996835,-19042.680447421128,-34217.48092382919,-25538.85734544484,-14075.54168409606,-30121.948435538823,0.0,0.0,0.0,193.0,0.0,194.0,0.0,0.0,0.0,179.0,194.0,0.0,179.0,1744420664.5747626,0.0,2025-04-11 21:17:44.574,STOP,46
200.0,16636.783377740787,23933.622113898055,-31343.87360142155,-19031.146947282192,-34212.40707783784,-25523.501697004045,-14437.125854149564,-30107.397449898417,0.0,0.0,0.0,193.0,0.0,193.0,0.0,0.0,0.0,179.0,193.0,0.0,179.0,1744420664.5748076,0.0,2025-04-11 21:17:44.574,STOP,46
201.0,16637.588040541177,23942.83103261364,-31336.67633970694,-19022.161546011157,-34208.272005113606,-25525.6251127273,-14466.272528919284,-30107.509208620693,0.0,0.0,0.0,193.0,0.0,193.0,0.0,0.0,0.0,179.0,193.0,0.0,179.0,1744420664.5748541,0.0,2025-04-11 21:17:44.574,STOP,46
202.0,16658.039886717783,23939.567677923165,-31351.696711980905,-19034.90204035068,-34225.37108962191,-25551.91076420674,-13983.966587062669,-30086.6997345328,0.0,0.0,0.0,193.0,0.0,193.0,0.0,0.0,0.0,179.0,193.0,0.0,179.0,1744420664.5748997,0.0,2025-04-11 21:17:44.574,STOP,46
203.0,16650.887328492085,23924.25673297128,-31351.383787558534,-19043.3957032437,-34219.827856997,-25538.700883233654,-14034.034494642556,-30128.72101410878,0.0,0.0,0.0,193.0,0.0,193.0,0.0,0.0,0.0,179.0,193.0,0.0,179.0,1744420664.574944,0.0,2025-04-11 21:17:44.574,STOP,46
204.0,16631.06133116023,23933.756224364784,-31343.06893862116,-19025.04492104589,-34210.998917937155,-25514.784516666477,-14380.061850555165,-30093.986403225234,0.0,0.0,0.0,193.0,0.0,194.0,0.0,0.0,0.0,179.0,194.0,0.0,179.0,1744420664.5750031,0.0,2025-04-11 21:17:44.575,STOP,46
205.0,16633.877650961596,23945.982628581838,-31338.35272054109,-19018.96524655405,-34214.19521739426,-25517.958464379128,-14509.880782351589,-30099.596691083516,0.0,0.0,0.0,193.0,0.0,193.0,0.0,0.0,0.0,179.0,193.0,0.0,179.0,1744420664.5750468,0.0,2025-04-11 21:17:44.575,STOP,46
206.0,16663.449008875967,23942.16048027998,-31350.266200335765,-19031.973961827036,-34230.37788037991,-25548.62505777181,-14070.847817760447,-30082.38584785293,0.0,0.0,0.0,193.0,0.0,194.0,0.0,0.0,0.0,179.0,194.0,0.0,179.0,1744420664.575094,0.0,2025-04-11 21:17:44.575,STOP,46
207.0,16662.15260769756,23922.26742771476,-31354.848307949105,-19052.112883581267,-34227.60626406744,-25556.24700263107,-14000.037491326035,-30146.0659678061,0.0,0.0,0.0,193.0,0.0,193.0,0.0,0.0,0.0,179.0,193.0,0.0,179.0,1744420664.575138,0.0,2025-04-11 21:17:44.575,STOP,46
208.0,16637.118653907615,23923.183849237426,-31349.528592768744,-19042.792206143404,-34217.25740638464,-25538.6785314892,-14323.780158016702,-30129.48097342026,0.0,0.0,0.0,193.0,0.0,194.0,0.0,0.0,0.0,179.0,194.0,0.0,179.0,1744420664.5751815,0.0,2025-04-11 21:17:44.575,STOP,46
209.0,16632.33538059418,23944.954448336895,-31334.172944327947,-19027.257743746966,-34205.9250719458,-25521.244170814058,-14541.843776922677,-30116.09227849153,0.0,0.0,0.0,193.0,0.0,193.0,0.0,0.0,0.0,179.0,193.0,0.0,179.0,1744420664.575225,0.0,2025-04-11 21:17:44.575,STOP,46
210.0,16663.314898409237,23948.955410594393,-31338.35272054109,-19024.597886156786,-34214.418734838815,-25538.25384834455,-14151.761132688658,-30073.42279832635,0.0,0.0,0.0,193.0,0.0,194.0,0.0,0.0,0.0,180.0,194.0,0.0,180.0,1744420664.5752847,0.0,2025-04-11 21:17:44.575,STOP,46
211.0,16674.758991570354,23941.713445390877,-31337.369243785055,-19031.303409493376,-34215.51397031712,-25532.44239478617,-13939.978353974624,-30100.200188183808,0.0,0.0,0.0,193.0,0.0,194.0,0.0,0.0,0.0,179.0,194.0,0.0,179.0,1744420664.5753288,0.0,2025-04-11 21:17:44.575,STOP,46
212.0,16647.19929065696,23936.39373021051,-31338.44212751891,-19024.262609989957,-34220.2748918861,-25525.446298771658,-14256.702572906324,-30111.01843250018,0.0,0.0,0.0,193.0,0.0,193.0,0.0,0.0,0.0,179.0,193.0,0.0,179.0,1744420664.5753725,0.0,2025-04-11 21:17:44.575,STOP,46
213.0,16630.77075848231,23944.328599492146,-31337.01161587377,-19022.899153578182,-34222.733583776186,-25527.457955772636,-14543.028419378808,-30128.8104210866,0.0,0.0,0.0,193.0,0.0,194.0,0.0,0.0,0.0,179.0,194.0,0.0,179.0,1744420664.575416,0.0,2025-04-11 21:17:44.575,STOP,46
214.0,16654.82123551622,23949.53655595023,-31334.95525538388,-19020.015778543446,-34218.44204884077,-25535.683397732188,-14249.77353212518,-30086.76678976617,0.0,0.0,0.0,193.0,0.0,193.0,0.0,0.0,0.0,179.0,193.0,0.0,179.0,1744420664.5754735,0.0,2025-04-11 21:17:44.575,STOP,46
215.0,16666.66766007753,23937.287799988724,-31343.538325254718,-19038.366560741255,-34221.99597620916,-25549.47442406111,-13915.726711240615,-30098.277938160652,0.0,0.0,0.0,193.0,0.0,194.0,0.0,0.0,0.0,179.0,194.0,0.0,179.0,1744420664.5755177,0.0,2025-04-11 21:17:44.575,STOP,46
216.0,16645.321744122713,23929.64350338501,-31343.694787465905,-19035.594944428798,-34218.53145581859,-25533.939961664673,-14186.808667994579,-30109.76673481068,0.0,0.0,0.0,193.0,0.0,194.0,0.0,0.0,0.0,179.0,194.0,0.0,179.0,1744420664.5755606,0.0,2025-04-11 21:17:44.575,STOP,46
217.0,16624.132290379082,23936.952523821896,-31337.793926929706,-19024.553182667874,-34212.09415341546,-25521.020653369505,-14505.142212527064,-30099.261414916687,0.0,0.0,0.0,193.0,0.0,193.0,0.0,0.0,0.0,179.0,193.0,0.0,179.0,1744420664.575604,0.0,2025-04-11 21:17:44.575,STOP,46
218.0,16641.656058032044,23942.875736102553,-31332.273046049246,-19016.171278497135,-34208.16024639133,-25523.725214448597,-14333.771387788223,-30081.089446674523,0.0,0.0,0.0,193.0,0.0,193.0,0.0,0.0,0.0,179.0,193.0,0.0,179.0,1744420664.5756476,0.0,2025-04-11 21:17:44.575,STOP,46
219.0,16662.018497230827,23942.205183768892,-31347.49458402331,-19034.00797057247,-34225.460496599735,-25546.501642048555,-13924.242725878088,-30091.885339246433,0.0,0.0,0.0,193.0,0.0,193.0,0.0,0.0,0.0,179.0,193.0,0.0,179.0,1744420664.5757048,0.0,2025-04-11 21:17:44.575,STOP,46
220.0,16642.5277760658,23930.604628396588,-31351.719063725363,-19035.661999662163,-34226.89100824488,-25539.371435567315,-14154.510397256661,-30133.2137147443,0.0,0.0,0.0,193.0,0.0,194.0,0.0,0.0,0.0,179.0,194.0,0.0,179.0,1744420665.0476985,0.0,2025-04-11 21:17:45.047,STOP,46
221.0,16620.980694410886,23929.487041173823,-31350.713235224874,-19027.794185613893,-34221.615996553424,-25527.90499066174,-14472.285148177762,-30096.847426515513,0.0,0.0,0.0,193.0,0.0,193.0,0.0,0.0,0.0,179.0,193.0,0.0,179.0,1744420665.0478437,0.0,2025-04-11 21:17:45.047,STOP,46
222.0,16635.44227307347,23940.97583782385,-31340.52083975325,-19017.557086653364,-34212.98822319367,-25525.267484816013,-14413.99179863832,-30087.862025244478,0.0,0.0,0.0,193.0,0.0,194.0,0.0,0.0,0.0,180.0,194.0,0.0,180.0,1744420665.0479453,0.0,2025-04-11 21:17:45.047,STOP,46
223.0,16652.47430234841,23943.434529713933,-31351.87552593655,-19031.303409493376,-34221.99597620916,-25545.652275759254,-13936.692647539694,-30067.656048256882,0.0,0.0,0.0,193.0,0.0,193.0,0.0,0.0,0.0,179.0,193.0,0.0,179.0,1744420665.048043,0.0,2025-04-11 21:17:45.048,STOP,46
224.0,16641.745465009866,23925.55313414969,-31354.803604460194,-19041.071121820347,-34222.68888028728,-25545.875793203806,-14064.030535701579,-30125.703528607315,0.0,0.0,0.0,193.0,0.0,194.0,0.0,0.0,0.0,180.0,194.0,0.0,180.0,1744420665.0481007,0.0,2025-04-11 21:17:45.048,STOP,46
225.0,16624.28875259027,23930.537573163223,-31348.34395031261,-19029.135290281214,-34213.994051694164,-25531.369511052315,-14424.05008364321,-30115.71229883579,0.0,0.0,0.0,193.0,0.0,193.0,0.0,0.0,0.0,179.0,193.0,0.0,179.0,1744420665.0483663,0.0,2025-04-11 21:17:45.048,STOP,46
226.0,16634.414092828523,23940.841727357118,-31339.91734265296,-19021.80391809987,-34209.166074891815,-25527.56971449491,-14491.239427475863,-30115.511133135693,0.0,0.0,0.0,193.0,0.0,194.0,0.0,0.0,0.0,180.0,194.0,0.0,180.0,1744420665.0484536,0.0,2025-04-11 21:17:45.048,STOP,46
227.0,16662.443180375478,23941.042893057216,-31349.238020090823,-19030.208174015068,-34218.598511051954,-25544.042950158473,-14007.234753040642,-30068.61717326846,0.0,0.0,0.0,193.0,0.0,193.0,0.0,0.0,0.0,179.0,193.0,0.0,179.0,1744420665.048525,0.0,2025-04-11 21:17:45.048,STOP,46
228.0,16652.317840137224,23921.30630270318,-31354.15540387099,-19045.72028466705,-34218.55380756305,-25550.256735117047,-14026.189032338743,-30130.9114850654,0.0,0.0,0.0,193.0,0.0,193.0,0.0,0.0,0.0,179.0,193.0,0.0,179.0,1744420665.048593,0.0,2025-04-11 21:17:45.048,STOP,46
229.0,16624.95930492393,23921.529820147734,-31352.613133503575,-19036.310200251366,-34217.19035115127,-25535.39282505427,-14368.170722504941,-30112.024261000668,0.0,0.0,0.0,193.0,0.0,194.0,0.0,0.0,0.0,180.0,194.0,0.0,180.0,1744420665.0488057,0.0,2025-04-11 21:17:45.048,STOP,46
230.0,16626.121595635606,23936.97487556635,-31336.67633970694,-19022.340359966798,-34203.6228422669,-25518.181981823684,-14510.417224218516,-30093.315850891573,0.0,0.0,0.0,193.0,0.0,193.0,0.0,0.0,0.0,179.0,193.0,0.0,179.0,1744420665.0488763,0.0,2025-04-11 21:17:45.048,STOP,46
231.0,16651.691991292475,23944.03802681423,-31342.465441520864,-19023.033264044912,-34215.469266828215,-25535.191659354172,-14071.071335205,-30057.66481848536,0.0,0.0,0.0,193.0,0.0,194.0,0.0,0.0,0.0,179.0,194.0,0.0,179.0,1744420665.0489497,0.0,2025-04-11 21:17:45.048,STOP,46
232.0,16653.703648293453,23926.044872527706,-31348.522764268255,-19039.10416830828,-34219.649043041354,-25540.53372627899,-13984.90536032979,-30117.902769792414,0.0,0.0,0.0,193.0,0.0,193.0,0.0,0.0,0.0,179.0,193.0,0.0,179.0,1744420665.0489974,0.0,2025-04-11 21:17:45.048,STOP,46
233.0,16630.502537548844,23922.20037248139,-31345.90761016698,-19028.978828070027,-34210.373069092406,-25530.095461618363,-14311.062015421632,-30109.72203132177,0.0,0.0,0.0,193.0,0.0,194.0,0.0,0.0,0.0,180.0,194.0,0.0,180.0,1744420665.0490491,0.0,2025-04-11 21:17:45.049,STOP,46
234.0,16617.739691464867,23936.147861021505,-31337.39159552951,-19017.892362820192,-34204.78513297858,-25516.505600989534,-14516.809823132733,-30094.09816194751,0.0,0.0,0.0,193.0,0.0,194.0,0.0,0.0,0.0,180.0,194.0,0.0,180.0,1744420665.049183,0.0,2025-04-11 21:17:45.049,STOP,46
235.0,16640.76198825383,23937.734834877832,-31338.643293219007,-19014.18197324061,-34210.44012432577,-25526.51918250551,-14156.65616472437,-30051.80866143807,0.0,0.0,0.0,193.0,0.0,193.0,0.0,0.0,0.0,179.0,193.0,0.0,179.0,1744420665.0492306,0.0,2025-04-11 21:17:45.049,STOP,46
236.0,16651.11084593664,23919.74168059131,-31349.908572424483,-19037.025456073938,-34220.34194711947,-25542.321865835413,-13929.584792802907,-30100.446057372817,0.0,0.0,0.0,193.0,0.0,194.0,0.0,0.0,0.0,179.0,194.0,0.0,179.0,1744420665.0492754,0.0,2025-04-11 21:17:45.049,STOP,46
237.0,16630.077854404193,23917.48415440132,-31344.544153755207,-19026.96717106905,-34212.29531911556,-25527.189734839172,-14243.58209891106,-30115.086449991042,0.0,0.0,0.0,193.0,0.0,193.0,0.0,0.0,0.0,179.0,193.0,0.0,179.0,1744420665.049322,0.0,2025-04-11 21:17:45.049,STOP,46
238.0,16618.119671120607,23930.850497585598,-31329.05439484768,-19009.197534227078,-34197.29729858605,-25504.167438050205,-14518.39679698906,-30081.268260630164,0.0,0.0,0.0,193.0,0.0,194.0,0.0,0.0,0.0,180.0,194.0,0.0,180.0,1744420665.0493784,0.0,2025-04-11 21:17:45.049,STOP,46
239.0,16637.208060885438,23931.45399468589,-31331.043700104205,-19004.70483359156,-34201.544130032555,-25513.71163293262,-14226.035979513643,-30036.073033341534,0.0,0.0,0.0,193.0,0.0,193.0,0.0,0.0,0.0,179.0,193.0,0.0,179.0,1744420665.049431,0.0,2025-04-11 21:17:45.049,STOP,46
240.0,16653.793055271275,23920.83691606962,-31345.92996191144,-19027.235392002513,-34220.833685497484,-25534.29758957596,-13904.215562846133,-30076.84261522801,0.0,0.0,0.0,193.0,0.0,194.0,0.0,0.0,0.0,179.0,194.0,0.0,179.0,1744420665.0495663,0.0,2025-04-11 21:17:45.049,STOP,46
241.0,16636.559860296235,23916.43362241192,-31341.146688598,-19021.602752399773,-34214.75401100564,-25524.887505160274,-14200.219714667764,-30121.05436576061,0.0,0.0,0.0,193.0,0.0,194.0,0.0,0.0,0.0,180.0,194.0,0.0,180.0,1744420665.0496507,0.0,2025-04-11 21:17:45.049,STOP,46
242.0,16617.270304831305,23928.011826039772,-31332.92124663845,-19011.52211565043,-34203.57813877799,-25514.158667821728,-14491.597055387147,-30095.483970103738,0.0,0.0,0.0,193.0,0.0,193.0,0.0,0.0,0.0,179.0,193.0,0.0,179.0,1744420665.0497313,0.0,2025-04-11 21:17:45.049,STOP,46
243.0,16634.458796317434,23935.678474387943,-31325.880447135027,-19003.43078415761,-34201.74529573265,-25515.790345166966,-14326.283553395697,-30059.47530978624,0.0,0.0,0.0,193.0,0.0,194.0,0.0,0.0,0.0,179.0,194.0,0.0,179.0,1744420665.0501504,0.0,2025-04-11 21:17:45.050,STOP,46
244.0,16653.211909915437,23932.25865748628,-31338.017444374258,-19023.301484978376,-34212.63059528239,-25540.086691389883,-13897.1300598538,-30063.789196466114,0.0,0.0,0.0,193.0,0.0,194.0,0.0,0.0,0.0,179.0,194.0,0.0,179.0,1744420665.0502553,0.0,2025-04-11 21:17:45.050,STOP,46
245.0,16644.20415689995,23923.183849237426,-31334.15059258349,-19024.10614777877,-34205.41098182333,-25532.308284319435,-14109.069300779021,-30116.67342384737,0.0,0.0,0.0,193.0,0.0,194.0,0.0,0.0,0.0,179.0,194.0,0.0,179.0,1744420665.05037,0.0,2025-04-11 21:17:45.050,STOP,46
246.0,16622.65707524503,23925.776651594242,-31333.502391994287,-19018.451156431576,-34206.61797602391,-25521.646502214255,-14444.680743775458,-30100.758981795192,0.0,0.0,0.0,193.0,0.0,193.0,0.0,0.0,0.0,179.0,193.0,0.0,179.0,1744420665.0505035,0.0,2025-04-11 21:17:45.050,STOP,46
247.0,16635.688142262476,23934.136204020528,-31322.930016866925,-19009.085775504802,-34197.45376079724,-25520.797135924953,-14420.429101041449,-30090.924214234856,0.0,0.0,0.0,193.0,0.0,193.0,0.0,0.0,0.0,179.0,193.0,0.0,179.0,1744420665.0506103,0.0,2025-04-11 21:17:45.050,STOP,46
248.0,16659.738619296386,23934.829108098642,-31334.888200150515,-19019.926371565627,-34204.628670767386,-25536.935095421686,-13931.641153292794,-30055.876678928937,0.0,0.0,0.0,193.0,0.0,193.0,0.0,0.0,0.0,180.0,193.0,0.0,180.0,1744420665.0507288,0.0,2025-04-11 21:17:45.050,STOP,46
249.0,16647.378104612602,23925.35196844959,-31333.234171060823,-19021.468641933043,-34198.63840325337,-25520.797135924953,-14034.995619654133,-30091.304193890595,0.0,0.0,0.0,193.0,0.0,193.0,0.0,0.0,0.0,179.0,193.0,0.0,179.0,1744420665.0510411,0.0,2025-04-11 21:17:45.051,STOP,46
250.0,16615.61627574161,23923.65323587099,-31337.704519951883,-19018.3393977093,-34201.119446887904,-25517.66789170121,-14392.198847794396,-30091.61711831297,0.0,0.0,0.0,193.0,0.0,194.0,0.0,0.0,0.0,179.0,194.0,0.0,179.0,1744420665.0511003,0.0,2025-04-11 21:17:45.051,STOP,46
251.0,16623.10411013414,23931.342235963613,-31333.994130372303,-19013.82434532933,-34202.28173759958,-25525.356891793836,-14473.603901100625,-30105.542255108627,0.0,0.0,0.0,193.0,0.0,193.0,0.0,0.0,0.0,179.0,193.0,0.0,179.0,1744420665.051164,0.0,2025-04-11 21:17:45.051,STOP,46
252.0,16650.797921514266,23942.272239002257,-31342.15251709849,-19020.70868262156,-34209.523702803104,-25540.176098367705,-13996.86354361338,-30062.85042319899,0.0,0.0,0.0,193.0,0.0,193.0,0.0,0.0,0.0,179.0,193.0,0.0,179.0,1744420665.051237,0.0,2025-04-11 21:17:45.051,STOP,46
253.0,16652.451950603958,23936.39373021051,-31339.470307763855,-19027.749482124982,-34205.545092290056,-25529.849592429353,-14001.311540759987,-30105.989289997735,0.0,0.0,0.0,193.0,0.0,194.0,0.0,0.0,0.0,180.0,194.0,0.0,180.0,1744420665.0513935,0.0,2025-04-11 21:17:45.051,STOP,46
254.0,16632.849470716654,23929.64350338501,-31336.4975257513,-19018.026473286925,-34203.84635971145,-25519.657196957734,-14355.564338632148,-30093.71818229177,0.0,0.0,0.0,193.0,0.0,193.0,0.0,0.0,0.0,179.0,193.0,0.0,179.0,1744420665.051566,0.0,2025-04-11 21:17:45.051,STOP,46
255.0,16629.943743937463,23933.420948197956,-31323.62292094504,-19006.694138848085,-34187.015496136606,-25509.509504975023,-14498.526096168292,-30074.272164615653,0.0,0.0,0.0,193.0,0.0,194.0,0.0,0.0,0.0,179.0,194.0,0.0,179.0,1744420665.0517633,0.0,2025-04-11 21:17:45.051,STOP,46
0.0,16651.759046525844,23934.11385227607,-31334.172944327947,-19013.95845579606,-34198.34783057545,-25530.028406384994,-14059.02374494359,-30036.542419975096,0.0,0.0,0.0,193.0,0.0,193.0,0.0,0.0,0.0,179.0,193.0,0.0,179.0,1744420665.0518308,0.0,2025-04-11 21:17:45.051,STOP,46
1.0,16649.412113358034,23912.879695043528,-31346.935790411928,-19038.366560741255,-34210.216606881215,-25540.28785708998,-13942.28058365352,-30102.636528329436,0.0,0.0,0.0,193.0,0.0,194.0,0.0,0.0,0.0,179.0,194.0,0.0,179.0,1744420665.0519,0.0,2025-04-11 21:17:45.051,STOP,46
2.0,16629.42965381499,23914.980759022328,-31339.20208683039,-19025.357845468265,-34199.44306605376,-25521.557095236432,-14282.83176217458,-30096.8027230266,0.0,0.0,0.0,193.0,0.0,194.0,0.0,0.0,0.0,179.0,194.0,0.0,179.0,1744420665.0520103,0.0,2025-04-11 21:17:45.052,STOP,46
3.0,16625.629857257587,23935.097329032105,-31324.71815642335,-19010.806859827862,-34183.75214144613,-25508.14604856325,-14515.91575335452,-30089.270185145164,0.0,0.0,0.0,193.0,0.0,193.0,0.0,0.0,0.0,180.0,193.0,0.0,180.0,1744420665.0520682,0.0,2025-04-11 21:17:45.052,STOP,46
4.0,16648.562747068732,23936.527840677245,-31330.68607219292,-19011.611522628253,-34194.30216482904,-25525.602760982845,-14156.745571702191,-30049.417024781353,0.0,0.0,0.0,193.0,0.0,194.0,0.0,0.0,0.0,179.0,194.0,0.0,179.0,1744420665.0521357,0.0,2025-04-11 21:17:45.052,STOP,46
5.0,16656.72113379492,23923.20620098188,-31344.07476712165,-19033.449176961087,-34211.87063597091,-25543.618267013822,-13904.66259773524,-30098.143827693923,0.0,0.0,0.0,193.0,0.0,193.0,0.0,0.0,0.0,179.0,193.0,0.0,179.0,1744420665.0522044,0.0,2025-04-11 21:17:45.052,STOP,46
6.0,16640.91845046502,23920.501639902788,-31340.76670894226,-19023.14502276719,-34210.32836560349,-25525.06631911592,-14230.729845849259,-30110.14671446642,0.0,0.0,0.0,193.0,0.0,194.0,0.0,0.0,0.0,179.0,194.0,0.0,179.0,1744420665.05226,0.0,2025-04-11 21:17:45.052,STOP,46
7.0,16628.312066592225,23933.577410409143,-31328.80852565867,-19007.789374326396,-34197.18553986377,-25508.458972985623,-14521.995427846365,-30086.252699643697,0.0,0.0,0.0,193.0,0.0,193.0,0.0,0.0,0.0,179.0,193.0,0.0,179.0,1744420665.052428,0.0,2025-04-11 21:17:45.052,STOP,46
8.0,16646.506386578847,23937.153689521994,-31329.121450081046,-19002.71552833504,-34198.39253406436,-25522.898199903753,-14249.460607702806,-30046.645408468892,0.0,0.0,0.0,193.0,0.0,194.0,0.0,0.0,0.0,179.0,194.0,0.0,179.0,1744420665.0525055,0.0,2025-04-11 21:17:45.052,STOP,46
9.0,16659.00101172936,23926.87188707255,-31343.270104321255,-19025.179031512624,-34212.876464471396,-25546.00990367054,-13884.478972492096,-30079.211900140275,0.0,0.0,0.0,193.0,0.0,193.0,0.0,0.0,0.0,179.0,193.0,0.0,179.0,1744420665.0526502,0.0,2025-04-11 21:17:45.052,STOP,46
10.0,16642.86305223263,23919.71932884685,-31340.409081030975,-19019.836964587805,-34209.322537103006,-25534.699920976152,-14164.546330517094,-30121.0096622717,0.0,0.0,0.0,193.0,0.0,194.0,0.0,0.0,0.0,179.0,194.0,0.0,179.0,1744420665.0527043,0.0,2025-04-11 21:17:45.052,STOP,46
11.0,16623.461738045426,23931.811622597175,-31332.228342560335,-19006.940008037094,-34198.66075499782,-25509.80007765294,-14488.870142563599,-30092.354725879995,0.0,0.0,0.0,193.0,0.0,193.0,0.0,0.0,0.0,179.0,193.0,0.0,179.0,1744420665.052755,0.0,2025-04-11 21:17:45.052,STOP,46
12.0,16637.453930074447,23934.650294142997,-31328.942636125405,-19003.810763813348,-34198.92897593129,-25514.225723055093,-14356.279594454718,-30059.967048164257,0.0,0.0,0.0,193.0,0.0,193.0,0.0,0.0,0.0,179.0,193.0,0.0,179.0,1744420665.0528052,0.0,2025-04-11 21:17:45.052,STOP,46
13.0,16662.845511775675,23932.660988886477,-31343.82889793264,-19022.988560556005,-34216.519798817615,-25538.18679311118,-13904.908466924247,-30054.066187628054,0.0,0.0,0.0,193.0,0.0,193.0,0.0,0.0,0.0,179.0,193.0,0.0,179.0,1744420665.0528543,0.0,2025-04-11 21:17:45.052,STOP,46
14.0,16654.35184888266,23926.827183583642,-31334.374110028042,-19015.768947096938,-34204.6733742563,-25522.272351059004,-14092.59606511546,-30099.753153294703,0.0,0.0,0.0,193.0,0.0,194.0,0.0,0.0,0.0,180.0,194.0,0.0,180.0,1744420665.0529387,0.0,2025-04-11 21:17:45.052,STOP,46
15.0,16636.269287618314,23942.652218657997,-31324.785211656716,-19000.793278311885,-34192.82694969499,-25509.084821830373,-14429.883888946044,-30086.94560372181,0.0,0.0,0.0,193.0,0.0,193.0,0.0,0.0,0.0,179.0,193.0,0.0,179.0,1744420665.0529888,0.0,2025-04-11 21:17:45.052,STOP,46
16.0,16646.77460751231,23951.347047251114,-31318.97375809834,-18994.355975908755,-34189.943574660254,-25512.7728596655,-14421.300819075206,-30085.693906032313,0.0,0.0,0.0,193.0,0.0,193.0,0.0,0.0,0.0,178.0,193.0,0.0,178.0,1744420665.053038,0.0,2025-04-11 21:17:45.053,STOP,46
17.0,16671.16036071305,23948.441320471924,-31333.39063327201,-19008.504630148964,-34209.61310978093,-25535.795156454464,-13958.038563494512,-30073.95924019328,0.0,0.0,0.0,193.0,0.0,194.0,0.0,0.0,0.0,179.0,194.0,0.0,179.0,1744420665.0531065,0.0,2025-04-11 21:17:45.053,STOP,46
18.0,16658.710439051443,23934.270314487258,-31332.92124663845,-19013.62317962923,-34204.852188211946,-25524.641635971268,-14049.077218660977,-30117.276920947665,0.0,0.0,0.0,193.0,0.0,193.0,0.0,0.0,0.0,179.0,193.0,0.0,179.0,1744420665.0531557,0.0,2025-04-11 21:17:45.053,STOP,46
19.0,16635.129348651095,23945.82616637065,-31323.824086645138,-18996.546446865374,-34193.11752237291,-25500.971138593097,-14396.445679240906,-30078.47429257325,0.0,0.0,0.0,193.0,0.0,194.0,0.0,0.0,0.0,179.0,194.0,0.0,179.0,1744420665.0532045,0.0,2025-04-11 21:17:45.053,STOP,46
20.0,16639.71145626443,23957.4043699985,-31314.324595251634,-18988.455115372555,-34182.50044375664,-25498.57950193638,-14472.374555155582,-30067.544289534606,0.0,0.0,0.0,193.0,0.0,193.0,0.0,0.0,0.0,179.0,193.0,0.0,179.0,1744420665.053254,0.0,2025-04-11 21:17:45.053,STOP,46
21.0,16662.7337530534,23948.12839604955,-31330.06022334817,-19002.067327745837,-34201.275909099095,-25522.540571992467,-13994.002520323102,-30031.42387049483,0.0,0.0,0.0,193.0,0.0,194.0,0.0,0.0,0.0,180.0,194.0,0.0,180.0,1744420665.0532992,0.0,2025-04-11 21:17:45.053,STOP,46
22.0,16659.515101851834,23926.98364579483,-31339.425604274944,-19018.786432598405,-34209.47899931419,-25525.111022604826,-13976.411697436775,-30098.0544207161,0.0,0.0,0.0,193.0,0.0,194.0,0.0,0.0,0.0,180.0,194.0,0.0,180.0,1744420665.0534234,0.0,2025-04-11 21:17:45.053,STOP,46
23.0,16637.543337052266,23930.314055718667,-31335.424642017442,-19003.810763813348,-34203.39932482235,-25509.308339274925,-14328.496376096771,-30090.410124112386,0.0,0.0,0.0,193.0,0.0,194.0,0.0,0.0,0.0,179.0,194.0,0.0,179.0,1744420665.0534685,0.0,2025-04-11 21:17:45.053,STOP,46
24.0,16631.374255582603,23941.825204113153,-31327.735641924817,-18995.875894531717,-34198.548996275546,-25505.776763650985,-14511.266590507817,-30094.589900325525,0.0,0.0,0.0,193.0,0.0,194.0,0.0,0.0,0.0,180.0,194.0,0.0,180.0,1744420665.053512,0.0,2025-04-11 21:17:45.053,STOP,46
25.0,16651.021438958818,23946.675532659952,-31332.898894893995,-18994.84771428677,-34204.04752541155,-25518.517257990512,-14084.907065022835,-30036.296550786086,0.0,0.0,0.0,193.0,0.0,194.0,0.0,0.0,0.0,180.0,194.0,0.0,180.0,1744420665.053563,0.0,2025-04-11 21:17:45.053,STOP,46
26.0,16648.272174390815,23931.655160385988,-31340.029101375236,-19012.19266798409,-34206.573272535,-25523.501697004045,-13925.337961356397,-30073.80277798209,0.0,0.0,0.0,193.0,0.0,194.0,0.0,0.0,0.0,179.0,194.0,0.0,179.0,1744420665.053609,0.0,2025-04-11 21:17:45.053,STOP,46
27.0,16628.602639270146,23931.16342200797,-31338.24096181881,-19005.934179536605,-34204.60631902293,-25512.437583498668,-14262.178750297875,-30083.14580716441,0.0,0.0,0.0,193.0,0.0,194.0,0.0,0.0,0.0,179.0,194.0,0.0,179.0,1744420665.0536568,0.0,2025-04-11 21:17:45.053,STOP,46
28.0,16619.61723799911,23939.21005001188,-31334.843496661604,-19003.028452757415,-34206.39445857936,-25509.554208463935,-14529.863241894633,-30094.992231725722,0.0,0.0,0.0,193.0,0.0,194.0,0.0,0.0,0.0,180.0,194.0,0.0,180.0,1744420665.0537062,0.0,2025-04-11 21:17:45.053,STOP,46
29.0,16644.49472957787,23940.752320379295,-31334.01648211676,-19001.776755067916,-34205.90272020134,-25522.18294408118,-14190.250836640696,-30049.57348699254,0.0,0.0,0.0,193.0,0.0,193.0,0.0,0.0,0.0,179.0,193.0,0.0,179.0,1744420665.053893,0.0,2025-04-11 21:17:45.053,STOP,46
30.0,16662.621994331123,23932.951561564394,-31335.268179806255,-19010.695101105583,-34203.86871145591,-25518.29374054596,-13908.37298731482,-30066.471405800752,0.0,0.0,0.0,193.0,0.0,194.0,0.0,0.0,0.0,179.0,194.0,0.0,179.0,1744420665.0539477,0.0,2025-04-11 21:17:45.053,STOP,46
31.0,16641.410188843034,23930.02348304075,-31335.37993852853,-19004.414260913643,-34202.30408934404,-25501.552283948935,-14195.123516931953,-30067.38782732342,0.0,0.0,0.0,193.0,0.0,193.0,0.0,0.0,0.0,179.0,193.0,0.0,179.0,1744420665.0539985,0.0,2025-04-11 21:17:45.053,STOP,46
32.0,16627.976790425397,23940.238230256826,-31327.512124480265,-18997.418164899133,-34192.268156083606,-25489.415286709704,-14497.743785112356,-30062.313981332063,0.0,0.0,0.0,193.0,0.0,194.0,0.0,0.0,0.0,180.0,194.0,0.0,180.0,1744420665.0541155,0.0,2025-04-11 21:17:45.054,STOP,46
33.0,16644.4276743445,23940.707616890388,-31326.662758190963,-18992.836057285793,-34191.39643804985,-25498.221874025094,-14273.578139970083,-30034.240190296197,0.0,0.0,0.0,193.0,0.0,193.0,0.0,0.0,0.0,179.0,193.0,0.0,179.0,1744420665.0541644,0.0,2025-04-11 21:17:45.054,STOP,46
34.0,16652.11667443713,23921.77568933674,-31350.333255569134,-19021.13336576621,-34214.17286564981,-25528.5755429954,-13889.865742905826,-30057.262487085165,0.0,0.0,0.0,193.0,0.0,193.0,0.0,0.0,0.0,179.0,193.0,0.0,179.0,1744420665.0542114,0.0,2025-04-11 21:17:45.054,STOP,46
35.0,16638.169185897015,23908.722270574843,-31344.342988055112,-19014.606656385262,-34202.7734759776,-25515.94680737815,-14157.058496124566,-30100.91544400638,0.0,0.0,0.0,193.0,0.0,193.0,0.0,0.0,0.0,179.0,193.0,0.0,179.0,1744420665.0542605,0.0,2025-04-11 21:17:45.054,STOP,46
36.0,16620.734825221876,23926.715424861362,-31333.10006059409,-19000.41329865614,-34191.709362472226,-25499.250054270036,-14493.34049145466,-30084.822187998558,0.0,0.0,0.0,193.0,0.0,194.0,0.0,0.0,0.0,180.0,194.0,0.0,180.0,1744420665.0543127,0.0,2025-04-11 21:17:45.054,STOP,46
37.0,16638.68327601949,23936.863116844073,-31327.78034541373,-18995.384156153697,-34190.9717549052,-25508.3695660078,-14380.821809866646,-30066.493757545206,0.0,0.0,0.0,193.0,0.0,193.0,0.0,0.0,0.0,179.0,193.0,0.0,179.0,1744420665.054606,0.0,2025-04-11 21:17:45.054,STOP,46
38.0,16655.000049471862,23924.92728530494,-31350.48971778032,-19019.926371565627,-34221.683051786786,-25543.35004608036,-13931.417635848242,-30077.42376058385,0.0,0.0,0.0,193.0,0.0,194.0,0.0,0.0,0.0,180.0,194.0,0.0,180.0,1744420665.054659,0.0,2025-04-11 21:17:45.054,STOP,46
39.0,16638.996200441863,23909.43752639741,-31349.707406724385,-19023.61440940075,-34217.86090348493,-25541.427796057204,-14122.480347452207,-30145.127194538974,0.0,0.0,0.0,193.0,0.0,193.0,0.0,0.0,0.0,179.0,193.0,0.0,179.0,1744420665.0547073,0.0,2025-04-11 21:17:45.054,STOP,46
40.0,16620.01956939931,23928.63767488452,-31337.10102285159,-19003.14021147969,-34199.8230457095,-25513.91279863272,-14448.81581649969,-30097.227406171252,0.0,0.0,0.0,193.0,0.0,193.0,0.0,0.0,0.0,179.0,193.0,0.0,179.0,1744420665.054758,0.0,2025-04-11 21:17:45.054,STOP,46
41.0,16636.58221204069,23941.6016866686,-31323.578217456132,-18988.790391539384,-34192.6704874838,-25503.09455431635,-14447.854691488112,-30069.42183606885,0.0,0.0,0.0,193.0,0.0,193.0,0.0,0.0,0.0,179.0,193.0,0.0,179.0,1744420665.0548048,0.0,2025-04-11 21:17:45.054,STOP,46
42.0,16667.87465427812,23943.479233202845,-31332.76478442726,-18998.692214333085,-34201.700592243746,-25520.037176613474,-13953.121179714344,-30029.143992560388,0.0,0.0,0.0,193.0,0.0,193.0,0.0,0.0,0.0,179.0,193.0,0.0,179.0,1744420665.054864,0.0,2025-04-11 21:17:45.054,STOP,46
43.0,16661.750276297364,23932.59393365311,-31331.446031504398,-19004.593074869284,-34194.413923551314,-25512.504638732033,-14018.500032246118,-30084.71042927628,0.0,0.0,0.0,193.0,0.0,193.0,0.0,0.0,0.0,179.0,193.0,0.0,179.0,1744420665.054911,0.0,2025-04-11 21:17:45.054,STOP,46
44.0,16631.463662560425,23930.135241763026,-31332.898894893995,-18997.90990327715,-34194.078647384486,-25505.441487484157,-14369.578882405625,-30072.506376803685,0.0,0.0,0.0,193.0,0.0,193.0,0.0,0.0,0.0,180.0,193.0,0.0,180.0,1744420665.0550375,0.0,2025-04-11 21:17:45.055,STOP,46
45.0,16627.686217747476,23933.085672031128,-31331.71425243786,-18996.457039887555,-34195.53151077408,-25509.48715323057,-14480.398831415037,-30072.57343203705,0.0,0.0,0.0,193.0,0.0,193.0,0.0,0.0,0.0,180.0,193.0,0.0,180.0,1744420665.0551107,0.0,2025-04-11 21:17:45.055,STOP,46
46.0,16656.8328925172,23935.4996604323,-31338.68799670792,-19003.207266713056,-34205.36627833441,-25531.68243547469,-14029.318276562486,-30045.818393924048,0.0,0.0,0.0,193.0,0.0,194.0,0.0,0.0,0.0,179.0,194.0,0.0,179.0,1744420665.0551631,0.0,2025-04-11 21:17:45.055,STOP,46
47.0,16662.19731118647,23919.11583174656,-31342.130165354036,-19019.881668076716,-34210.26131037013,-25533.53763026448,-13977.596339892905,-30100.33429865054,0.0,0.0,0.0,193.0,0.0,193.0,0.0,0.0,0.0,179.0,193.0,0.0,179.0,1744420665.0552633,0.0,2025-04-11 21:17:45.055,STOP,46
48.0,16635.62108702911,23919.518163146757,-31333.614150716563,-19005.040109758393,-34195.06212414052,-25510.62709219779,-14314.481832323294,-30072.014638425666,0.0,0.0,0.0,193.0,0.0,194.0,0.0,0.0,0.0,180.0,194.0,0.0,180.0,1744420665.0553157,0.0,2025-04-11 21:17:45.055,STOP,46
49.0,16623.081758389682,23925.12845100504,-31329.25556054778,-18999.832153300304,-34188.825987437485,-25510.649443942242,-14500.269532235807,-30077.155539650386,0.0,0.0,0.0,193.0,0.0,193.0,0.0,0.0,0.0,179.0,193.0,0.0,179.0,1744420665.0553615,0.0,2025-04-11 21:17:45.055,STOP,46
50.0,16650.350886625158,23933.10802377558,-31335.49169725081,-19001.46383064554,-34201.78999922157,-25521.467688258614,-14112.824393847513,-30044.43258576782,0.0,0.0,0.0,193.0,0.0,194.0,0.0,0.0,0.0,179.0,194.0,0.0,179.0,1744420665.0554063,0.0,2025-04-11 21:17:45.055,STOP,46
51.0,16659.224529173916,23924.167325993458,-31340.52083975325,-19016.215981986046,-34204.11458064492,-25522.160592336728,-13936.513833584051,-30069.8465192135,0.0,0.0,0.0,193.0,0.0,193.0,0.0,0.0,0.0,179.0,193.0,0.0,179.0,1744420665.0554564,0.0,2025-04-11 21:17:45.055,STOP,46
52.0,16635.263459117825,23919.36170093557,-31340.54319149771,-19008.750499337973,-34198.03490615307,-25511.252941042538,-14246.398418712428,-30069.600650024495,0.0,0.0,0.0,193.0,0.0,193.0,0.0,0.0,0.0,180.0,193.0,0.0,180.0,1744420665.0557208,0.0,2025-04-11 21:17:45.055,STOP,46
53.0,16620.712473477422,23929.129413262537,-31335.96108388437,-19003.43078415761,-34194.74919971814,-25506.559074706922,-14509.009064317832,-30082.117626919466,0.0,0.0,0.0,193.0,0.0,193.0,0.0,0.0,0.0,179.0,193.0,0.0,179.0,1744420665.0557652,0.0,2025-04-11 21:17:45.055,STOP,46
54.0,16641.946630709965,23935.231439498835,-31339.939694397417,-19003.542542879884,-34204.74042948967,-25522.115888847817,-14220.068063744076,-30056.435472540317,0.0,0.0,0.0,193.0,0.0,193.0,0.0,0.0,0.0,179.0,193.0,0.0,179.0,1744420665.0558085,0.0,2025-04-11 21:17:45.055,STOP,46
55.0,16660.230357674405,23927.609494639575,-31348.902743923994,-19019.792261098894,-34214.910473216834,-25533.448223286658,-13939.71013304116,-30089.538406078627,0.0,0.0,0.0,193.0,0.0,193.0,0.0,0.0,0.0,179.0,193.0,0.0,179.0,1744420665.055852,0.0,2025-04-11 21:17:45.055,STOP,46
56.0,16642.237203387882,23921.060433514172,-31343.20304908789,-19013.600827884773,-34200.8735776989,-25520.059528357928,-14223.465528901283,-30102.681231818347,0.0,0.0,0.0,193.0,0.0,194.0,0.0,0.0,0.0,179.0,194.0,0.0,179.0,1744420665.055895,0.0,2025-04-11 21:17:45.055,STOP,46
57.0,16622.321799078203,23932.839802842118,-31336.721043195852,-19005.397737669675,-34190.05533338253,-25507.14022006276,-14501.29771248075,-30079.100141418,0.0,0.0,0.0,193.0,0.0,193.0,0.0,0.0,0.0,179.0,193.0,0.0,179.0,1744420665.0559385,0.0,2025-04-11 21:17:45.055,STOP,46
58.0,16639.264421375326,23942.875736102553,-31332.809487916173,-18999.56393236684,-34185.98731589167,-25516.282083544982,-14296.086346636575,-30053.8426701835,0.0,0.0,0.0,193.0,0.0,193.0,0.0,0.0,0.0,179.0,193.0,0.0,179.0,1744420665.0559816,0.0,2025-04-11 21:17:45.055,STOP,46
59.0,16655.380029127602,23928.034177784226,-31350.132089869036,-19020.686330877106,-34204.91924344531,-25537.00215065505,-13892.659710962738,-30067.36547557896,0.0,0.0,0.0,193.0,0.0,194.0,0.0,0.0,0.0,180.0,194.0,0.0,180.0,1744420665.0560431,0.0,2025-04-11 21:17:45.056,STOP,46
60.0,16638.81738648622,23907.96231126336,-31351.987284658826,-19019.546391909887,-34205.56744403451,-25520.752432436042,-14121.295704996075,-30097.316813149075,0.0,0.0,0.0,193.0,0.0,193.0,0.0,0.0,0.0,179.0,193.0,0.0,179.0,1744420665.0560937,0.0,2025-04-11 21:17:45.056,STOP,46
61.0,16616.219772841905,23914.332558433125,-31351.383787558534,-19016.640665130697,-34201.94646143275,-25514.13631607727,-14465.981956241365,-30087.035010699634,0.0,0.0,0.0,193.0,0.0,194.0,0.0,0.0,0.0,179.0,194.0,0.0,179.0,1744420665.056139,0.0,2025-04-11 21:17:45.056,STOP,46
62.0,16619.99721765485,23911.471535142846,-31352.143746870013,-19016.707720364062,-34204.58396727848,-25524.01578712652,-14395.9986443518,-30084.263394387173,0.0,0.0,0.0,193.0,0.0,194.0,0.0,0.0,0.0,179.0,194.0,0.0,179.0,1744420665.056203,0.0,2025-04-11 21:17:45.056,STOP,46
63.0,16649.38976161358,23911.06920374265,-31363.945467942416,-19031.035188559912,-34224.25350239915,-25543.797080969463,-13944.851034265881,-30076.90967046138,0.0,0.0,0.0,193.0,0.0,194.0,0.0,0.0,0.0,179.0,194.0,0.0,179.0,1744420665.0562477,0.0,2025-04-11 21:17:45.056,STOP,46
64.0,16636.336342851682,23899.468648370344,-31366.650029021508,-19038.031284574423,-34228.54503733457,-25536.443357043667,-14112.198545002764,-30130.48680192075,0.0,0.0,0.0,193.0,0.0,193.0,0.0,0.0,0.0,179.0,193.0,0.0,179.0,1744420665.0562923,0.0,2025-04-11 21:17:45.056,STOP,46
65.0,16619.639589743565,23914.82429681114,-31352.34491257011,-19016.774775597427,-34209.47899931419,-25501.149952548738,-14447.497063576826,-30070.51707154716,0.0,0.0,0.0,193.0,0.0,193.0,0.0,0.0,0.0,179.0,193.0,0.0,179.0,1744420665.056337,0.0,2025-04-11 21:17:45.056,STOP,46
66.0,16628.066197403215,23932.30336097519,-31341.59372348711,-19006.649435359173,-34200.56065327652,-25502.021670582497,-14467.367764397593,-30064.23623135522,0.0,0.0,0.0,193.0,0.0,193.0,0.0,0.0,0.0,179.0,193.0,0.0,179.0,1744420665.0563831,0.0,2025-04-11 21:17:45.056,STOP,46
67.0,16653.681296549,23939.67943664544,-31356.3011713387,-19021.468641933043,-34217.79384825157,-25529.53666800698,-13980.14443876081,-30040.45397525477,0.0,0.0,0.0,193.0,0.0,194.0,0.0,1.0,0.0,180.0,194.0,1.0,180.0,1744420665.056838,0.0,2025-04-11 21:17:45.056,STOP,46
68.0,16651.11084593664,23919.96519803586,-31358.513994039775,-19034.544412439398,-34219.98431920818,-25533.24705758656,-14033.743921964637,-30112.605406356506,0.0,0.0,0.0,193.0,0.0,193.0,0.0,2.0,0.0,179.0,193.0,2.0,179.0,1744420665.056894,0.0,2025-04-11 21:17:45.056,STOP,46
69.0,16630.211964870927,23922.423889925944,-31350.377959058045,-19019.97107505454,-34208.406115580336,-25521.646502214255,-14382.252321511785,-30104.312909163586,0.0,0.0,0.0,193.0,0.0,194.0,0.0,3.0,0.0,179.0,194.0,3.0,179.0,1744420665.0569446,0.0,2025-04-11 21:17:45.056,STOP,46
70.0,16628.58028752569,23932.705692375388,-31341.549019998198,-19009.398699927176,-34204.36044983393,-25516.86322890082,-14509.500802695848,-30095.215749170275,0.0,0.0,0.0,193.0,0.0,193.0,0.0,5.0,0.0,179.0,193.0,5.0,179.0,1744420665.056991,0.0,2025-04-11 21:17:45.056,STOP,46
71.0,16646.707552278942,23926.603666139086,-31357.463462050375,-19022.318008222344,-34223.89587448786,-25541.226630357105,-14060.16368391081,-30058.536536519117,0.0,0.0,0.0,193.0,0.0,193.0,0.0,6.0,0.0,179.0,193.0,6.0,179.0,1744420665.0570397,0.0,2025-04-11 21:17:45.057,STOP,46
72.0,16641.276078376304,23902.06145072716,-31372.036799435235,-19048.15662481268,-34234.5800083375,-25553.743607252076,-13996.572970935462,-30128.29633096413,0.0,0.0,0.0,193.0,0.0,193.0,0.0,7.0,0.0,179.0,193.0,7.0,179.0,1744420665.057087,0.0,2025-04-11 21:17:45.057,STOP,46
73.0,16617.694987975956,23902.30731991617,-31365.107758654092,-19036.39960722919,-34221.0795546865,-25538.25384834455,-14347.852986795067,-30120.853200060512,0.0,0.0,0.0,193.0,0.0,194.0,0.0,8.0,0.0,180.0,194.0,8.0,180.0,1744420665.0571384,0.0,2025-04-11 21:17:45.057,STOP,46
74.0,16606.25089481484,23913.30437818818,-31354.624790504553,-19024.731996623515,-34207.89202545786,-25528.642598228766,-14539.943878643977,-30106.793952798125,0.0,0.0,0.0,193.0,0.0,193.0,0.0,8.0,0.0,179.0,193.0,8.0,179.0,1744420665.0574172,0.0,2025-04-11 21:17:45.057,STOP,46
75.0,16635.710494006933,23918.69114860191,-31352.34491257011,-19018.89819132068,-34205.0757056565,-25529.6260749848,-14146.575527975026,-30049.797004437092,0.0,0.0,0.0,193.0,0.0,194.0,0.0,9.0,0.0,179.0,194.0,9.0,179.0,1744420665.057464,0.0,2025-04-11 21:17:45.057,STOP,46
76.0,16646.618145301123,23902.82141003864,-31355.898839938505,-19038.00893282997,-34202.08057189948,-25536.063377387927,-13928.824833491426,-30085.358629865485,0.0,0.0,0.0,193.0,0.0,193.0,0.0,10.0,0.0,179.0,193.0,10.0,179.0,1744420665.05751,0.0,2025-04-11 21:17:45.057,STOP,46
77.0,16628.110900892127,23903.469610627846,-31352.5013747813,-19029.470566448043,-34195.57621426299,-25524.48517376008,-14232.562688894594,-30099.931967250344,0.0,0.0,0.0,193.0,0.0,194.0,0.0,10.0,0.0,180.0,194.0,10.0,180.0,1744420665.0575812,0.0,2025-04-11 21:17:45.057,STOP,46
78.0,16617.76204320932,23919.607570124575,-31342.1972205874,-19014.226676729522,-34187.30606881453,-25507.922531118696,-14503.219962503907,-30087.370286866462,0.0,0.0,0.0,193.0,0.0,193.0,0.0,11.0,0.0,179.0,193.0,11.0,179.0,1744420665.0576272,0.0,2025-04-11 21:17:45.057,STOP,46
79.0,16636.24693587386,23923.608532382077,-31343.58302874363,-19010.404528427665,-34193.519853773105,-25514.918627133207,-14221.699741089315,-30043.873792156435,0.0,0.0,0.0,193.0,0.0,194.0,0.0,11.0,0.0,180.0,194.0,11.0,180.0,1744420665.057676,0.0,2025-04-11 21:17:45.057,STOP,46
80.0,16644.092398177672,23907.82820079663,-31362.604363275095,-19039.14887179719,-34211.17773189279,-25536.353950065848,-13905.579019257906,-30067.656048256882,0.0,0.0,0.0,193.0,0.0,193.0,0.0,12.0,0.0,179.0,193.0,12.0,179.0,1744420665.057742,0.0,2025-04-11 21:17:45.057,STOP,46
81.0,16620.913639177517,23901.30149141568,-31362.269087108267,-19035.170261284144,-34205.34392658996,-25525.558057493934,-14173.732897488226,-30089.404295611897,0.0,0.0,0.0,193.0,0.0,194.0,0.0,12.0,0.0,180.0,194.0,12.0,180.0,1744420665.0577884,0.0,2025-04-11 21:17:45.057,STOP,46
82.0,16609.424842527493,23918.825259068642,-31352.657836992486,-19020.95455181057,-34196.49263578566,-25509.91183637522,-14491.77586934279,-30083.034048442132,0.0,0.0,0.0,193.0,0.0,193.0,0.0,12.0,0.0,179.0,193.0,12.0,179.0,1744420665.0580037,0.0,2025-04-11 21:17:45.058,STOP,46
83.0,16626.09924389115,23916.478325900833,-31350.981456158337,-19016.126575008224,-34200.24772885415,-25515.723289933598,-14320.36034111504,-30060.27997258663,0.0,0.0,0.0,193.0,0.0,194.0,0.0,13.0,0.0,180.0,194.0,13.0,180.0,1744420665.05805,0.0,2025-04-11 21:17:45.058,STOP,46
84.0,16650.037962202783,23913.997282266293,-31355.451805049397,-19025.804880357373,-34207.31088010203,-25519.388976024267,-13915.905525196258,-30046.868925913448,0.0,0.0,0.0,193.0,0.0,193.0,0.0,13.0,0.0,179.0,193.0,13.0,179.0,1744420665.527226,0.0,2025-04-11 21:17:45.527,STOP,46
85.0,16633.34120909467,23900.80975303766,-31361.375017330054,-19030.63285715972,-34214.418734838815,-25518.740775435064,-14138.193623804287,-30093.91934799187,0.0,0.0,0.0,193.0,0.0,194.0,0.0,13.0,0.0,180.0,194.0,13.0,180.0,1744420665.5273745,0.0,2025-04-11 21:17:45.527,STOP,46
86.0,16610.408319283524,23914.109040988573,-31355.384749816032,-19020.39575819919,-34204.89689170085,-25507.00610959603,-14476.53197962427,-30081.737647263726,0.0,0.0,0.0,193.0,0.0,193.0,0.0,14.0,0.0,179.0,193.0,14.0,179.0,1744420665.5274265,0.0,2025-04-11 21:17:45.527,STOP,46
87.0,16620.66776998851,23921.77568933674,-31347.58399100113,-19011.410356928154,-34201.45472305474,-25506.737888662567,-14416.696359717413,-30065.018542411155,0.0,0.0,0.0,193.0,0.0,194.0,0.0,14.0,0.0,180.0,194.0,14.0,180.0,1744420665.5274775,0.0,2025-04-11 21:17:45.527,STOP,46
88.0,16641.499595820856,23917.618264868055,-31362.82788071965,-19028.241220503,-34219.91726397482,-25530.274275574004,-13958.61970885035,-30053.61915273895,0.0,0.0,0.0,193.0,0.0,193.0,0.0,14.0,0.0,179.0,193.0,14.0,179.0,1744420665.5275273,0.0,2025-04-11 21:17:45.527,STOP,46
89.0,16639.689104519977,23907.738793818808,-31363.096101653115,-19036.354903740277,-34213.90464471634,-25526.966217394616,-14077.463934119218,-30106.48102837575,0.0,0.0,0.0,193.0,0.0,194.0,0.0,14.0,0.0,180.0,194.0,14.0,180.0,1744420665.52764,0.0,2025-04-11 21:17:45.527,STOP,46
90.0,16624.020531656806,23919.629921869033,-31355.54121202722,-19022.1391942667,-34205.47803705669,-25511.319996275903,-14413.880039916045,-30087.057362444088,0.0,0.0,0.0,193.0,0.0,193.0,0.0,14.0,0.0,179.0,193.0,14.0,179.0,1744420665.527684,0.0,2025-04-11 21:17:45.527,STOP,46
91.0,16626.59098226917,23922.803869581687,-31346.06407237817,-19010.51628714994,-34195.10682762943,-25507.229627040582,-14457.376534626072,-30076.03795242762,0.0,0.0,0.0,193.0,0.0,194.0,0.0,14.0,0.0,180.0,194.0,14.0,180.0,1744420665.5277264,0.0,2025-04-11 21:17:45.527,STOP,46
92.0,16657.369334384126,23927.095404517106,-31351.20497360289,-19013.556124395862,-34206.84149346846,-25519.14310683526,-13981.373784705853,-30031.826201895026,0.0,0.0,0.0,193.0,0.0,193.0,0.0,15.0,0.0,179.0,193.0,15.0,179.0,1744420665.5277967,0.0,2025-04-11 21:17:45.527,STOP,46
93.0,16644.67354353351,23906.934131018417,-31357.3517033281,-19031.035188559912,-34211.557711548536,-25522.920551648207,-14004.239619283631,-30085.023353698656,0.0,0.0,0.0,193.0,0.0,194.0,0.0,15.0,0.0,180.0,194.0,15.0,180.0,1744420665.5278392,0.0,2025-04-11 21:17:45.527,STOP,46
94.0,16618.56670600971,23909.68339558642,-31352.836650948127,-19021.96038031106,-34202.21468236622,-25511.945845120652,-14358.291251455696,-30081.290612374618,0.0,0.0,0.0,193.0,0.0,193.0,0.0,15.0,0.0,179.0,193.0,15.0,179.0,1744420665.5278816,0.0,2025-04-11 21:17:45.527,STOP,46
95.0,16621.539488022267,23921.194543980902,-31338.82210717465,-19008.012891770948,-34190.7705892051,-25504.23449328357,-14513.25589576434,-30081.13415016343,0.0,0.0,0.0,193.0,0.0,194.0,0.0,15.0,0.0,180.0,194.0,15.0,180.0,1744420665.527923,0.0,2025-04-11 21:17:45.527,STOP,46
96.0,16653.703648293453,23927.74360510631,-31345.639389233518,-19010.42688017212,-34206.305051601536,-25521.110060347328,-14070.914872993813,-30042.443280511296,0.0,0.0,0.0,193.0,0.0,193.0,0.0,15.0,0.0,179.0,193.0,15.0,179.0,1744420665.5279655,0.0,2025-04-11 21:17:45.527,STOP,46
97.0,16665.527721110313,23918.35587243508,-31345.01354038877,-19021.088662277303,-34205.29922310105,-25518.76312717952,-13972.276624712542,-30085.09040893202,0.0,0.0,0.0,193.0,0.0,193.0,0.0,15.0,0.0,179.0,193.0,15.0,179.0,1744420665.5281315,0.0,2025-04-11 21:17:45.528,STOP,46
98.0,16637.677447519,23916.165401478458,-31347.226363089845,-19016.126575008224,-34205.254519612135,-25515.20919981113,-14299.707329238336,-30082.341144364018,0.0,0.0,0.0,193.0,0.0,193.0,0.0,15.0,0.0,180.0,193.0,15.0,180.0,1744420665.5281744,0.0,2025-04-11 21:17:45.528,STOP,46
99.0,16628.37912182559,23929.084709773626,-31337.592761229607,-19007.275284203923,-34196.13500787437,-25511.029423597985,-14533.953611129953,-30092.46648460227,0.0,0.0,0.0,193.0,0.0,194.0,0.0,15.0,0.0,180.0,194.0,15.0,180.0,1744420665.5282164,0.0,2025-04-11 21:17:45.528,STOP,46
100.0,16647.042828445774,23932.437471441925,-31345.661740977976,-19007.454098159564,-34207.221473124206,-25524.66398771572,-14164.009888650167,-30041.50450724417,0.0,0.0,0.0,193.0,0.0,194.0,0.0,15.0,0.0,180.0,194.0,15.0,180.0,1744420665.5282583,0.0,2025-04-11 21:17:45.528,STOP,46
101.0,16653.614241315634,23918.847610813096,-31355.697674238407,-19029.76113912596,-34215.536322061576,-25536.555115765947,-13938.436083607208,-30085.67155428786,0.0,0.0,0.0,193.0,0.0,194.0,0.0,15.0,0.0,179.0,194.0,15.0,179.0,1744420665.5283,0.0,2025-04-11 21:17:45.528,STOP,46
102.0,16634.81642422872,23913.326729932636,-31349.01450264627,-19019.613447143252,-34204.53926378957,-25518.29374054596,-14241.659848887903,-30087.14676942191,0.0,0.0,0.0,193.0,0.0,194.0,0.0,15.0,0.0,180.0,194.0,15.0,180.0,1744420665.5283418,0.0,2025-04-11 21:17:45.528,STOP,46
103.0,16623.66290374552,23922.915628303963,-31337.25748506278,-19007.61056037075,-34196.20206310774,-25507.676661929687,-14530.176166317007,-30086.38681011043,0.0,0.0,0.0,193.0,0.0,193.0,0.0,16.0,0.0,179.0,193.0,16.0,179.0,1744420665.528398,0.0,2025-04-11 21:17:45.528,STOP,46
104.0,16645.29939237826,23925.173154493947,-31341.683130464928,-19011.075080761326,-34208.137894646876,-25524.48517376008,-14263.877482876478,-30061.196394109298,0.0,0.0,0.0,193.0,0.0,194.0,0.0,16.0,0.0,180.0,194.0,16.0,180.0,1744420665.5284407,0.0,2025-04-11 21:17:45.528,STOP,46
105.0,16659.62686057411,23923.362663193067,-31346.95814215638,-19025.357845468265,-34207.26617661311,-25530.520144763013,-13912.932743183703,-30070.941754691812,0.0,0.0,0.0,193.0,0.0,193.0,0.0,16.0,0.0,179.0,193.0,16.0,179.0,1744420665.528483,0.0,2025-04-11 21:17:45.528,STOP,46
106.0,16643.220680143917,23915.78542182272,-31342.420738031953,-19014.271380218433,-34201.45472305474,-25513.868095143807,-14171.922406187345,-30087.213824655275,0.0,0.0,0.0,193.0,0.0,194.0,0.0,16.0,0.0,180.0,194.0,16.0,180.0,1744420665.528525,0.0,2025-04-11 21:17:45.528,STOP,46
107.0,16631.620124771613,23929.5987998961,-31334.619979217052,-18999.85450504476,-34200.56065327652,-25499.741792648056,-14497.095584523153,-30071.85817621448,0.0,0.0,0.0,193.0,0.0,193.0,0.0,16.0,0.0,179.0,193.0,16.0,179.0,1744420665.528581,0.0,2025-04-11 21:17:45.528,STOP,46
108.0,16646.171110412015,23936.505488932788,-31327.802697158182,-18991.62906308521,-34195.15153111834,-25500.345289748348,-14353.440922908894,-30043.627922967426,0.0,0.0,0.0,193.0,0.0,193.0,0.0,16.0,0.0,179.0,193.0,16.0,179.0,1744420665.528623,0.0,2025-04-11 21:17:45.528,STOP,46
109.0,16667.96406125594,23931.63280864153,-31336.966912384858,-19006.403566170164,-34203.10875214443,-25519.187810324172,-13919.481804309107,-30036.296550786086,0.0,0.0,0.0,193.0,0.0,194.0,0.0,16.0,0.0,180.0,194.0,16.0,180.0,1744420665.5286648,0.0,2025-04-11 21:17:45.528,STOP,46
110.0,16649.948555224964,23915.20427646688,-31338.956217641382,-19012.90792380666,-34200.69476374325,-25516.460897500623,-14107.728196111704,-30081.0000396967,0.0,0.0,0.0,193.0,0.0,193.0,0.0,16.0,0.0,179.0,193.0,16.0,179.0,1744420665.5287066,0.0,2025-04-11 21:17:45.528,STOP,46
111.0,16626.300409591247,23920.054605013684,-31334.038833861214,-19005.084813247304,-34195.57621426299,-25504.5697694504,-14458.67293580448,-30072.394618081405,0.0,0.0,0.0,193.0,0.0,194.0,0.0,16.0,0.0,180.0,194.0,16.0,180.0,1744420665.5287485,0.0,2025-04-11 21:17:45.528,STOP,46
112.0,16635.5763835402,23926.178982994436,-31321.834781388618,-18995.27239743142,-34185.94261240275,-25505.217970039605,-14439.539842550737,-30064.57150752205,0.0,0.0,0.0,193.0,0.0,193.0,0.0,16.0,0.0,179.0,193.0,16.0,179.0,1744420665.5288415,0.0,2025-04-11 21:17:45.528,STOP,46
113.0,16650.328534880704,23924.726119604842,-31335.06701410616,-19012.14796449518,-34196.29147008556,-25529.514316262525,-13942.392342375797,-30034.419004251842,0.0,0.0,0.0,193.0,0.0,194.0,0.0,16.0,0.0,180.0,194.0,16.0,180.0,1744420665.5288846,0.0,2025-04-11 21:17:45.528,STOP,46
114.0,16645.947592967463,23917.908837545972,-31333.323578038646,-19019.077005276326,-34194.145702617854,-25522.093537103363,-14047.870224460392,-30093.137036935932,0.0,0.0,0.0,193.0,0.0,193.0,0.0,16.0,0.0,179.0,193.0,16.0,179.0,1744420665.5289266,0.0,2025-04-11 21:17:45.528,STOP,46
115.0,16634.95053469545,23933.890334831518,-31318.683185420417,-18999.85450504476,-34181.271097811594,-25502.021670582497,-14421.390226053027,-30088.599632811503,0.0,0.0,0.0,193.0,0.0,193.0,0.0,16.0,0.0,180.0,193.0,16.0,180.0,1744420665.5289729,0.0,2025-04-11 21:17:45.528,STOP,46
116.0,16636.20223238495,23937.77953836674,-31313.989319084805,-18994.557141608853,-34179.86293791091,-25499.048888569938,-14490.792392586756,-30079.502472818196,0.0,0.0,0.0,193.0,0.0,194.0,0.0,16.0,0.0,180.0,194.0,16.0,180.0,1744420665.5290148,0.0,2025-04-11 21:17:45.529,STOP,46
117.0,16658.06223846224,23930.738738863318,-31329.412022758966,-19003.52019113543,-34196.24676659665,-25516.05856610043,-14001.088023315433,-30027.75818440416,0.0,0.0,0.0,193.0,0.0,193.0,0.0,16.0,0.0,179.0,193.0,16.0,179.0,1744420665.5290573,0.0,2025-04-11 21:17:45.529,STOP,46
118.0,16649.63563080259,23909.661043841967,-31334.709386194874,-19018.071176775837,-34199.06308639802,-25517.019691112007,-14005.401909995308,-30081.782350752637,0.0,0.0,0.0,193.0,0.0,194.0,0.0,16.0,0.0,180.0,194.0,16.0,180.0,1744420665.5291128,0.0,2025-04-11 21:17:45.529,STOP,46
119.0,16628.267363103314,23919.339349191112,-31327.288607035713,-19005.509496391955,-34187.12725485888,-25501.708746160122,-14354.491454898294,-30070.00298142469,0.0,0.0,0.0,193.0,0.0,193.0,0.0,16.0,0.0,179.0,193.0,16.0,179.0,1744420665.5291555,0.0,2025-04-11 21:17:45.529,STOP,46
120.0,16623.618200256613,23932.5492301642,-31317.90087436448,-18998.222827699523,-34180.354676288924,-25497.596025180344,-14516.385139988082,-30075.121530904955,0.0,0.0,0.0,193.0,0.0,194.0,0.0,16.0,0.0,180.0,194.0,16.0,180.0,1744420665.529197,0.0,2025-04-11 21:17:45.529,STOP,46
121.0,16653.793055271275,23939.67943664544,-31319.2419790318,-18995.76413580944,-34187.4178275368,-25512.839914898865,-14098.07224250701,-30033.94961761828,0.0,0.0,0.0,193.0,0.0,193.0,0.0,16.0,0.0,179.0,193.0,16.0,179.0,1744420665.5292387,0.0,2025-04-11 21:17:45.529,STOP,46
122.0,16660.789151285786,23923.02738702624,-31327.19920005789,-19013.600827884773,-34195.57621426299,-25518.405499268236,-13964.833493808925,-30070.628830269437,0.0,0.0,0.0,193.0,0.0,193.0,0.0,16.0,0.0,179.0,193.0,16.0,179.0,1744420665.5292945,0.0,2025-04-11 21:17:45.529,STOP,46
123.0,16641.052560931752,23924.167325993458,-31322.035947088716,-19002.84963880177,-34188.15543510383,-25504.05567932793,-14298.142707126464,-30067.790158723612,0.0,0.0,0.0,193.0,0.0,193.0,0.0,16.0,0.0,179.0,193.0,16.0,179.0,1744420665.5293367,0.0,2025-04-11 21:17:45.529,STOP,46
124.0,16625.831022957685,23932.750395864296,-31315.844513874596,-18997.66403408814,-34179.01357162161,-25494.04209781195,-14529.39385526107,-30057.32954231853,0.0,0.0,0.0,193.0,0.0,194.0,0.0,16.0,0.0,180.0,194.0,16.0,180.0,1744420665.5293784,0.0,2025-04-11 21:17:45.529,STOP,46
125.0,16642.304258621247,23933.152727264493,-31320.918359865947,-18999.47452538902,-34185.62968798038,-25510.604740453335,-14181.757173747681,-30020.650329667373,0.0,0.0,0.0,193.0,0.0,194.0,0.0,16.0,0.0,180.0,194.0,16.0,180.0,1744420665.5294204,0.0,2025-04-11 21:17:45.529,STOP,46
126.0,16645.455854589447,23915.897180544995,-31332.898894893995,-19020.216944243544,-34194.637440995866,-25524.351063293347,-13924.645057278283,-30056.52487951814,0.0,0.0,0.0,193.0,0.0,193.0,0.0,17.0,0.0,179.0,193.0,17.0,179.0,1744420665.529462,0.0,2025-04-11 21:17:45.529,STOP,46
127.0,16626.926258435997,23915.293683444703,-31328.24973204729,-19009.42105167163,-34191.351734560936,-25505.50854271752,-14250.086456547555,-30072.171100636853,0.0,0.0,0.0,193.0,0.0,194.0,0.0,16.0,0.0,180.0,194.0,16.0,180.0,1744420665.5295515,0.0,2025-04-11 21:17:45.529,STOP,46
128.0,16614.632798985578,23935.767881365762,-31321.901836621983,-18995.920598020628,-34186.747275203146,-25491.80692336642,-14539.49684375487,-30061.37520806494,0.0,0.0,0.0,193.0,0.0,193.0,0.0,17.0,0.0,179.0,193.0,17.0,179.0,1744420665.5295944,0.0,2025-04-11 21:17:45.529,STOP,46
129.0,16637.23041262989,23942.272239002257,-31319.487848220808,-18988.633929328196,-34187.641344981355,-25499.250054270036,-14279.568407484105,-30024.51718145814,0.0,0.0,0.0,193.0,0.0,194.0,0.0,16.0,0.0,180.0,194.0,16.0,180.0,1744420665.5296364,0.0,2025-04-11 21:17:45.529,STOP,46
130.0,16651.28965989228,23928.861192329074,-31335.178772828436,-19013.891400562694,-34205.455685312234,-25523.18877258167,-13917.112519396846,-30053.8426701835,0.0,0.0,0.0,193.0,0.0,193.0,0.0,16.0,0.0,179.0,193.0,16.0,179.0,1744420665.529678,0.0,2025-04-11 21:17:45.529,STOP,46
131.0,16639.28677311978,23919.942846291407,-31328.2944355362,-19010.04690051638,-34191.77641770559,-25510.962368364617,-14188.90973197338,-30090.2536619012,0.0,0.0,0.0,193.0,0.0,194.0,0.0,17.0,0.0,180.0,194.0,17.0,180.0,1744420665.5297196,0.0,2025-04-11 21:17:45.529,STOP,46
132.0,16622.455909544937,23928.16828825096,-31320.985415099316,-18998.535752121898,-34182.120464100895,-25497.350155991335,-14501.923561325499,-30063.252754599187,0.0,0.0,0.0,193.0,0.0,193.0,0.0,17.0,0.0,179.0,193.0,17.0,179.0,1744420665.5297616,0.0,2025-04-11 21:17:45.529,STOP,46
133.0,16633.698837005955,23936.013750554772,-31318.95140635388,-18991.874932274215,-34184.53445250207,-25501.552283948935,-14364.259167225262,-30033.368472262442,0.0,0.0,0.0,193.0,0.0,193.0,0.0,17.0,0.0,179.0,193.0,17.0,179.0,1744420665.5298169,0.0,2025-04-11 21:17:45.529,STOP,46
134.0,16649.21094765794,23930.850497585598,-31335.737566439817,-19011.432708672608,-34202.43819981077,-25523.702862704144,-13921.202888632166,-30029.389861749398,0.0,0.0,0.0,193.0,0.0,193.0,0.0,17.0,0.0,179.0,193.0,17.0,179.0,1744420665.5298588,0.0,2025-04-11 21:17:45.529,STOP,46
135.0,16639.465587075425,23915.852477056083,-31335.58110422863,-19015.590133141297,-34203.66754575581,-25517.645539956757,-14118.233516005697,-30084.978650209745,0.0,0.0,0.0,193.0,0.0,193.0,0.0,17.0,0.0,179.0,193.0,17.0,179.0,1744420665.5299008,0.0,2025-04-11 21:17:45.529,STOP,46
136.0,16618.410243798524,23925.396671938503,-31325.746336668297,-19001.821458556828,-34186.791978692054,-25502.021670582497,-14464.126761451575,-30071.299382603098,0.0,0.0,0.0,193.0,0.0,194.0,0.0,17.0,0.0,180.0,194.0,17.0,180.0,1744420665.5299556,0.0,2025-04-11 21:17:45.529,STOP,46
137.0,16618.253781587337,23926.4472039279,-31321.566560455154,-18999.295711433377,-34180.444083266746,-25503.966272350106,-14443.160825152496,-30063.252754599187,0.0,0.0,0.0,193.0,0.0,193.0,0.0,17.0,0.0,179.0,193.0,17.0,179.0,1744420665.5299976,0.0,2025-04-11 21:17:45.529,STOP,46
138.0,16642.795996999266,23919.696977102398,-31335.134069339525,-19014.271380218433,-34198.70545848674,-25527.189734839172,-13967.694517099204,-30038.263504298153,0.0,0.0,0.0,193.0,0.0,194.0,0.0,17.0,0.0,179.0,194.0,17.0,179.0,1744420665.5300395,0.0,2025-04-11 21:17:45.530,STOP,46
139.0,16636.470453318412,23903.559017605665,-31339.403252530486,-19026.96717106905,-34203.26521435562,-25526.630941227788,-14063.11411417891,-30093.449961358307,0.0,0.0,0.0,193.0,0.0,193.0,0.0,17.0,0.0,179.0,193.0,17.0,179.0,1744420665.5301058,0.0,2025-04-11 21:17:45.530,STOP,46
140.0,16615.48216527488,23918.78055557973,-31330.753127426284,-19007.878781304214,-34196.313821830016,-25505.173266550693,-14411.264885814773,-30067.00784766768,0.0,0.0,0.0,193.0,0.0,194.0,0.0,17.0,0.0,180.0,194.0,17.0,180.0,1744420665.5301542,0.0,2025-04-11 21:17:45.530,STOP,46
141.0,16616.309179819727,23930.87284933005,-31324.271121534246,-19000.41329865614,-34196.13500787437,-25504.70387991713,-14514.999331831854,-30066.918440689857,0.0,0.0,0.0,193.0,0.0,193.0,0.0,17.0,0.0,179.0,193.0,17.0,179.0,1744420665.530252,0.0,2025-04-11 21:17:45.530,STOP,46
142.0,16641.164319654028,23932.035140041728,-31336.318711795655,-19010.181010983113,-34207.60145277995,-25530.944827907664,-14045.031552914566,-30032.295588528585,0.0,0.0,0.0,193.0,0.0,194.0,0.0,17.0,0.0,180.0,194.0,17.0,180.0,1744420665.530295,0.0,2025-04-11 21:17:45.530,STOP,46
143.0,16642.907755721542,23920.16636373596,-31334.508220494776,-19019.412281443154,-34204.2263393672,-25525.28983656047,-14003.971398350168,-30080.351839107498,0.0,0.0,0.0,193.0,0.0,193.0,0.0,17.0,0.0,179.0,193.0,17.0,179.0,1744420665.5303369,0.0,2025-04-11 21:17:45.530,STOP,46
144.0,16626.076892146695,23926.55896265018,-31326.43924074641,-19003.76606032444,-34197.65492649734,-25505.441487484157,-14368.573053905136,-30069.91357444687,0.0,0.0,0.0,193.0,0.0,194.0,0.0,17.0,0.0,180.0,194.0,17.0,180.0,1744420665.5303783,0.0,2025-04-11 21:17:45.530,STOP,46
145.0,16618.76787170981,23930.917552818963,-31313.899912106983,-18992.85840903025,-34174.85614715292,-25497.841894369354,-14536.479358253404,-30062.47044354325,0.0,0.0,0.0,193.0,0.0,193.0,0.0,17.0,0.0,179.0,193.0,17.0,179.0,1744420665.5304203,0.0,2025-04-11 21:17:45.530,STOP,46
146.0,16640.493767320368,23929.621151640553,-31319.219627287344,-18993.19368519708,-34182.187519334264,-25513.08578408787,-14101.469707664217,-30008.490980683684,0.0,0.0,0.0,193.0,0.0,194.0,0.0,17.0,0.0,180.0,194.0,17.0,180.0,1744420665.530462,0.0,2025-04-11 21:17:45.530,STOP,46
147.0,16643.757122010844,23918.579389879633,-31325.67928143493,-19010.136307494202,-34184.40034203534,-25521.355929536337,-13930.903545725769,-30062.91747843236,0.0,0.0,0.0,193.0,0.0,193.0,0.0,17.0,0.0,179.0,193.0,17.0,179.0,1744420665.530504,0.0,2025-04-11 21:17:45.530,STOP,46
148.0,16627.417996814012,23928.83884058462,-31317.96792959785,-18992.746650307974,-34178.67829545478,-25501.306414759925,-14250.600546670026,-30060.928173175835,0.0,0.0,0.0,193.0,0.0,193.0,0.0,17.0,0.0,179.0,193.0,17.0,179.0,1744420665.53056,0.0,2025-04-11 21:17:45.530,STOP,46
149.0,16617.96320890942,23945.625000670552,-31307.216740514847,-18980.386135624187,-34173.22446980768,-25488.29769948694,-14512.294770752762,-30044.52199274564,0.0,0.0,0.0,193.0,0.0,194.0,0.0,17.0,0.0,180.0,194.0,17.0,180.0,1744420665.5306022,0.0,2025-04-11 21:17:45.530,STOP,46
150.0,16634.078816661695,23941.512279690778,-31315.73275515232,-18986.152885693657,-34186.18848159176,-25513.77868816599,-14187.836848239524,-30020.963254089744,0.0,0.0,0.0,193.0,0.0,193.0,0.0,17.0,0.0,179.0,193.0,17.0,179.0,1744420665.530644,0.0,2025-04-11 21:17:45.530,STOP,46
151.0,16646.618145301123,23927.654198128486,-31322.795906400195,-19003.72135683553,-34190.32355431599,-25526.630941227788,-13918.1854031307,-30063.90095518839,0.0,0.0,0.0,193.0,0.0,194.0,0.0,17.0,0.0,180.0,194.0,17.0,180.0,1744420665.5307672,0.0,2025-04-11 21:17:45.530,STOP,46
152.0,16629.206136370438,23926.178982994436,-31318.48201972032,-18993.104278219256,-34184.75796994662,-25503.47453397209,-14208.109880460488,-30061.352856320485,0.0,0.0,0.0,193.0,0.0,193.0,0.0,17.0,0.0,179.0,193.0,17.0,179.0,1744420665.5308096,0.0,2025-04-11 21:17:45.530,STOP,46
153.0,16616.800918197743,23942.719273891365,-31305.786228869707,-18980.18496992409,-34171.59279246245,-25488.632975653767,-14512.96532308642,-30047.695940458292,0.0,0.0,0.0,193.0,0.0,194.0,0.0,17.0,0.0,180.0,194.0,17.0,180.0,1744420665.5308516,0.0,2025-04-11 21:17:45.530,STOP,46
154.0,16635.95636319594,23950.74355015082,-31303.28283349071,-18975.781676266393,-34173.78326341906,-25498.33363274737,-14296.891009436968,-30024.807754136058,0.0,0.0,0.0,193.0,0.0,194.0,0.0,17.0,0.0,179.0,194.0,17.0,179.0,1744420665.5308936,0.0,2025-04-11 21:17:45.530,STOP,46
155.0,16652.6307645596,23931.722215619353,-31318.258502275767,-18999.63098760021,-34190.94940316074,-25518.04787135695,-13906.853068691858,-30034.843687396493,0.0,0.0,0.0,193.0,0.0,193.0,0.0,17.0,0.0,179.0,193.0,17.0,179.0,1744420665.5309358,0.0,2025-04-11 21:17:45.530,STOP,46
156.0,16631.217793371416,23917.618264868055,-31316.559769697164,-19000.502705633964,-34187.216661836705,-25509.509504975023,-14155.471522268239,-30073.087522159523,0.0,0.0,0.0,193.0,0.0,193.0,0.0,17.0,0.0,179.0,193.0,17.0,179.0,1744420665.531032,0.0,2025-04-11 21:17:45.531,STOP,46
157.0,16615.012778641318,23929.665855129464,-31307.976699826326,-18988.499818861463,-34178.29831579904,-25497.059583313418,-14494.368671699605,-30058.201260352285,0.0,0.0,0.0,193.0,0.0,193.0,0.0,17.0,0.0,179.0,193.0,17.0,179.0,1744420665.5310748,0.0,2025-04-11 21:17:45.531,STOP,46
158.0,16622.969999667406,23936.93017207744,-31306.00974631426,-18986.510513604942,-34179.19238557725,-25509.91183637522,-14380.330071488628,-30044.477289256727,0.0,0.0,0.0,193.0,0.0,194.0,0.0,17.0,0.0,180.0,194.0,17.0,180.0,1744420665.5311172,0.0,2025-04-11 21:17:45.531,STOP,46
159.0,16645.321744122713,23934.15855576498,-31317.00680458627,-19001.687348090094,-34194.65979274032,-25531.302455818946,-13937.85493825137,-30047.47242301374,0.0,0.0,0.0,193.0,0.0,193.0,0.0,17.0,0.0,179.0,193.0,17.0,179.0,1744420665.531159,0.0,2025-04-11 21:17:45.531,STOP,46
160.0,16634.592906784168,23920.054605013684,-31315.509237707764,-19003.229618457513,-34188.80363569303,-25522.00413012554,-14105.761242599636,-30092.019449713167,0.0,0.0,0.0,193.0,0.0,194.0,0.0,17.0,0.0,180.0,194.0,17.0,180.0,1744420665.5312023,0.0,2025-04-11 21:17:45.531,STOP,46
161.0,16613.694025718454,23926.715424861362,-31311.463571961354,-18991.539656107387,-34181.29344955605,-25504.48036247258,-14446.29006937624,-30067.99132442371,0.0,0.0,0.0,193.0,0.0,193.0,0.0,17.0,0.0,179.0,193.0,17.0,179.0,1744420665.5312836,0.0,2025-04-11 21:17:45.531,STOP,46
162.0,16620.645418244054,23932.88450633103,-31306.23326375881,-18984.14122869268,-34179.460606510715,-25499.13829554776,-14444.300764119716,-30038.889353142902,0.0,0.0,0.0,193.0,0.0,194.0,0.0,17.0,0.0,180.0,194.0,17.0,180.0,1744420665.5313575,0.0,2025-04-11 21:17:45.531,STOP,46
163.0,16645.545261567266,23934.78440460973,-31318.794944142694,-18995.026528242415,-34194.52568227359,-25519.411327768725,-13968.923863044247,-30016.537608687595,0.0,0.0,0.0,193.0,0.0,193.0,0.0,17.0,0.0,179.0,193.0,17.0,179.0,1744420665.5314512,0.0,2025-04-11 21:17:45.531,STOP,46
164.0,16636.269287618314,23917.752375334785,-31321.63361568852,-19002.04497600138,-34193.83277819548,-25507.676661929687,-14039.018933656089,-30061.934001676324,0.0,0.0,0.0,193.0,0.0,194.0,0.0,17.0,0.0,180.0,194.0,17.0,180.0,1744420665.5315185,0.0,2025-04-11 21:17:45.531,STOP,46
165.0,16609.33543554967,23919.40640442448,-31322.125354066535,-18993.551313108364,-34189.42948453778,-25495.986699579564,-14378.027841809731,-30047.494774758194,0.0,0.0,0.0,193.0,0.0,194.0,0.0,17.0,0.0,180.0,194.0,17.0,180.0,1744420665.5315833,0.0,2025-04-11 21:17:45.531,STOP,46
166.0,16609.91658090551,23927.274218472747,-31314.30224350718,-18986.443458371577,-34183.014533879104,-25492.768048378,-14495.039224033264,-30050.601667237483,0.0,0.0,0.0,193.0,0.0,193.0,0.0,17.0,0.0,179.0,193.0,17.0,179.0,1744420665.5316796,0.0,2025-04-11 21:17:45.531,STOP,46
167.0,16633.14004339457,23924.949637049394,-31326.059261090668,-18995.406507898155,-34197.40905730832,-25514.493943988557,-14045.746808737136,-30021.164419789842,0.0,0.0,0.0,193.0,0.0,193.0,0.0,17.0,0.0,179.0,193.0,17.0,179.0,1744420665.5317447,0.0,2025-04-11 21:17:45.531,STOP,46
168.0,16639.443235330968,23912.991453765804,-31326.036909346214,-19005.733013836507,-34192.894004928356,-25510.515333475512,-13999.657511670293,-30072.32756284804,0.0,0.0,0.0,193.0,0.0,193.0,0.0,17.0,0.0,179.0,193.0,17.0,179.0,1744420665.5318086,0.0,2025-04-11 21:17:45.531,STOP,46
169.0,16615.973903652895,23918.132354990525,-31318.705537164875,-18991.76317355194,-34184.17682459078,-25491.359888477313,-14336.721818056325,-30053.395635294397,0.0,0.0,0.0,193.0,0.0,194.0,0.0,17.0,0.0,180.0,194.0,17.0,180.0,1744420665.5318727,0.0,2025-04-11 21:17:45.531,STOP,46
170.0,16611.838830928664,23932.30336097519,-31313.475228962332,-18985.638795571183,-34183.39451353485,-25488.163589020205,-14531.249050050861,-30053.61915273895,0.0,0.0,0.0,193.0,0.0,193.0,0.0,17.0,0.0,179.0,193.0,17.0,179.0,1744420665.5319357,0.0,2025-04-11 21:17:45.531,STOP,46
171.0,16632.91652595002,23934.292666231715,-31324.695804678897,-18995.317100920332,-34193.81042645102,-25513.242246299058,-14119.976952073212,-30014.347137730976,0.0,0.0,0.0,193.0,0.0,194.0,0.0,17.0,0.0,180.0,194.0,17.0,180.0,1744420665.5321033,0.0,2025-04-11 21:17:45.532,STOP,46
172.0,16637.29746786326,23919.942846291407,-31329.523781481243,-19013.690234862595,-34197.87844394189,-25520.48421150258,-13944.269888910043,-30065.95731567828,0.0,0.0,0.0,193.0,0.0,193.0,0.0,17.0,0.0,179.0,193.0,17.0,179.0,1744420665.5321684,0.0,2025-04-11 21:17:45.532,STOP,46
173.0,16612.33056930668,23911.583293865122,-31335.82697341764,-19011.94679879508,-34207.57910103549,-25517.958464379128,-14280.127201095487,-30075.836786727523,0.0,0.0,0.0,193.0,0.0,193.0,0.0,17.0,0.0,179.0,193.0,17.0,179.0,1744420665.5322356,0.0,2025-04-11 21:17:45.532,STOP,46
174.0,16605.20036282544,23925.374320194045,-31323.332348267122,-18999.362766666745,-34186.9707926477,-25506.38026075128,-14538.468663509926,-30067.9466209348,0.0,0.0,0.0,193.0,0.0,194.0,0.0,17.0,0.0,180.0,194.0,17.0,180.0,1744420665.532307,0.0,2025-04-11 21:17:45.532,STOP,46
175.0,16633.542374794768,23935.723177876855,-31320.136048810014,-18992.14315320768,-34183.39451353485,-25517.91376089022,-14227.57824988106,-30040.31986478804,0.0,0.0,0.0,193.0,0.0,193.0,0.0,17.0,0.0,179.0,193.0,17.0,179.0,1744420665.5323775,0.0,2025-04-11 21:17:45.532,STOP,46
176.0,16642.19249989897,23918.802907324185,-31337.145726340503,-19018.652322131675,-34200.6724119988,-25532.554153508445,-13925.673237523228,-30065.57733602254,0.0,0.0,0.0,193.0,0.0,194.0,0.0,17.0,0.0,180.0,194.0,17.0,180.0,1744420665.5324492,0.0,2025-04-11 21:17:45.532,STOP,46
177.0,16622.880592689588,23915.897180544995,-31327.109793080068,-19000.167429467136,-34192.6704874838,-25496.5678449354,-14208.512211860683,-30050.0428736261,0.0,0.0,0.0,193.0,0.0,193.0,0.0,17.0,0.0,179.0,193.0,17.0,179.0,1744420665.5325506,0.0,2025-04-11 21:17:45.532,STOP,46
178.0,16603.121650591096,23920.993378280804,-31324.785211656716,-18993.43955438609,-34187.06019962552,-25492.209254766614,-14506.639779405568,-30033.860210640458,0.0,0.0,0.0,193.0,0.0,194.0,0.0,17.0,0.0,180.0,194.0,17.0,180.0,1744420665.532622,0.0,2025-04-11 21:17:45.532,STOP,46
179.0,16623.506441534333,23925.01669228276,-31322.05829883317,-18991.293786918377,-34179.728827444174,-25503.496885716544,-14297.159230370431,-30016.89523659888,0.0,0.0,0.0,193.0,0.0,194.0,0.0,17.0,0.0,180.0,194.0,17.0,180.0,1744420665.5326912,0.0,2025-04-11 21:17:45.532,STOP,46
180.0,16643.041866188272,23922.960331792874,-31331.982473371325,-19008.705795849062,-34192.82694969499,-25519.76895568001,-13889.351652783353,-30023.399594235372,0.0,0.0,0.0,193.0,0.0,194.0,0.0,17.0,0.0,179.0,194.0,17.0,179.0,1744420665.532768,0.0,2025-04-11 21:17:45.532,STOP,46
181.0,16625.09341539066,23912.656177598976,-31330.52960998173,-19008.974016782526,-34190.077685126984,-25511.85643814283,-14136.27137378113,-30065.08559764452,0.0,0.0,0.0,193.0,0.0,194.0,0.0,17.0,0.0,180.0,194.0,17.0,180.0,1744420665.532879,0.0,2025-04-11 21:17:45.532,STOP,46
182.0,16601.89230464605,23918.93701779092,-31332.0942320936,-19005.733013836507,-34191.99993515014,-25508.928359619185,-14469.602938843125,-30060.90582143138,0.0,0.0,0.0,193.0,0.0,193.0,0.0,17.0,0.0,179.0,193.0,17.0,179.0,1744420665.5329523,0.0,2025-04-11 21:17:45.532,STOP,46
183.0,16618.43259554298,23927.54243940621,-31318.97375809834,-18991.673766574117,-34184.087417612966,-25505.75441190653,-14399.261999042274,-30045.86309741296,0.0,0.0,0.0,193.0,0.0,194.0,0.0,17.0,0.0,180.0,194.0,17.0,180.0,1744420665.5330262,0.0,2025-04-11 21:17:45.533,STOP,46
184.0,16640.046732431263,23924.45789867138,-31332.384804771522,-19005.733013836507,-34200.068914898504,-25524.52987724899,-13936.156205672767,-30032.47440248423,0.0,0.0,0.0,193.0,0.0,194.0,0.0,17.0,0.0,180.0,194.0,17.0,180.0,1744420665.533098,0.0,2025-04-11 21:17:45.533,STOP,46
185.0,16630.86016546013,23914.82429681114,-31331.758955926773,-19006.403566170164,-34197.45376079724,-25514.20337131064,-14094.36185292743,-30080.1506734074,0.0,0.0,0.0,193.0,0.0,193.0,0.0,17.0,0.0,179.0,193.0,17.0,179.0,1744420665.533173,0.0,2025-04-11 21:17:45.533,STOP,46
186.0,16610.90005766154,23927.654198128486,-31328.763822169763,-18995.697080576072,-34194.078647384486,-25501.149952548738,-14444.680743775458,-30062.828071454536,0.0,0.0,0.0,193.0,0.0,194.0,0.0,17.0,0.0,180.0,194.0,17.0,180.0,1744420665.5334651,0.0,2025-04-11 21:17:45.533,STOP,46
187.0,16617.53852576477,23935.253791243293,-31319.91253136546,-18987.449286872066,-34188.8706909264,-25501.641690926754,-14489.361880941617,-30065.443225555806,0.0,0.0,0.0,193.0,0.0,193.0,0.0,17.0,0.0,179.0,193.0,17.0,179.0,1744420665.5335393,0.0,2025-04-11 21:17:45.533,STOP,46
188.0,16641.38783709858,23933.73387262033,-31326.5957029576,-18990.690289818085,-34197.47611254169,-25516.05856610043,-14009.760500164093,-30031.04389083909,0.0,0.0,0.0,193.0,0.0,194.0,0.0,17.0,0.0,180.0,194.0,17.0,180.0,1744420665.5336115,0.0,2025-04-11 21:17:45.533,STOP,46
189.0,16633.76589223932,23913.818468310652,-31330.373147770544,-19001.352071923266,-34196.91731893031,-25512.594045709855,-14046.819692470992,-30081.24590888571,0.0,0.0,0.0,193.0,0.0,193.0,0.0,17.0,0.0,179.0,193.0,17.0,179.0,1744420665.5336845,0.0,2025-04-11 21:17:45.533,STOP,46
190.0,16613.962246651918,23922.22272422585,-31327.981511113827,-18994.71360382004,-34186.38964729186,-25504.547417705944,-14373.132809774019,-30069.24302211321,0.0,0.0,0.0,193.0,0.0,194.0,0.0,17.0,0.0,180.0,194.0,17.0,180.0,1744420665.5337536,0.0,2025-04-11 21:17:45.533,STOP,46
191.0,16620.265438588314,23940.908782590483,-31314.279891762722,-18980.967280980025,-34177.13602508736,-25489.90702508772,-14502.750575870345,-30069.37713257994,0.0,0.0,0.0,193.0,0.0,194.0,0.0,17.0,0.0,179.0,194.0,17.0,179.0,1744420665.5338252,0.0,2025-04-11 21:17:45.533,STOP,46
192.0,16642.281906876793,23934.382073209534,-31326.5957029576,-18989.639757828685,-34198.01255440862,-25508.302510774436,-14046.864395959903,-30009.36269871744,0.0,0.0,0.0,193.0,0.0,193.0,0.0,17.0,0.0,179.0,193.0,17.0,179.0,1744420665.5339258,0.0,2025-04-11 21:17:45.533,STOP,46
193.0,16640.024380686806,23915.4948491448,-31337.63746471852,-19014.897229063183,-34208.272005113606,-25521.19946732515,-13988.593398164916,-30076.887318716923,0.0,0.0,0.0,193.0,0.0,194.0,0.0,17.0,0.0,180.0,194.0,17.0,180.0,1744420665.534001,0.0,2025-04-11 21:17:45.534,STOP,46
194.0,16620.712473477422,23923.563828893166,-31325.880447135027,-18998.58045561081,-34185.78615019157,-25500.211179281614,-14323.9813237168,-30069.37713257994,0.0,0.0,0.0,193.0,0.0,193.0,0.0,17.0,0.0,179.0,193.0,17.0,179.0,1744420665.5340757,0.0,2025-04-11 21:17:45.534,STOP,46
195.0,16609.983636138873,23939.7017883899,-31315.464534218852,-18987.449286872066,-34176.42076926479,-25491.069315799396,-14515.334607998682,-30057.106024873978,0.0,0.0,0.0,193.0,0.0,194.0,0.0,17.0,0.0,180.0,194.0,17.0,180.0,1744420665.5341794,0.0,2025-04-11 21:17:45.534,STOP,46
196.0,16634.5258515508,23942.696922146908,-31323.19823780039,-18991.51730436293,-34193.27398458409,-25508.5707317079,-14128.537670199594,-30011.374355718417,0.0,0.0,0.0,193.0,0.0,193.0,0.0,17.0,0.0,179.0,193.0,17.0,179.0,1744420665.534253,0.0,2025-04-11 21:17:45.534,STOP,46
197.0,16648.6298023021,23928.16828825096,-31330.350796026087,-19010.315121449843,-34201.566481777016,-25520.23834231357,-13953.299993669987,-30072.484025059228,0.0,0.0,0.0,193.0,0.0,193.0,0.0,17.0,0.0,179.0,193.0,17.0,179.0,1744420665.534329,0.0,2025-04-11 21:17:45.534,STOP,46
198.0,16632.000104427352,23928.97295105135,-31323.555865711674,-18997.66403408814,-34192.42461829479,-25505.24032178406,-14277.40028827194,-30081.067094930066,0.0,0.0,0.0,193.0,0.0,194.0,0.0,17.0,0.0,180.0,194.0,17.0,180.0,1744420665.5344017,0.0,2025-04-11 21:17:45.534,STOP,46
199.0,16620.37719731059,23943.278067502746,-31311.86590336155,-18982.733068791997,-34186.18848159176,-25492.052792555427,-14529.930297128,-30062.738664476714,0.0,0.0,0.0,193.0,0.0,193.0,0.0,17.0,0.0,179.0,193.0,17.0,179.0,1744420665.534468,0.0,2025-04-11 21:17:45.534,STOP,46
200.0,16641.52194756531,23949.871832117064,-31306.47913294782,-18971.736010519984,-34184.087417612966,-25495.38320247927,-14243.313877977596,-30014.682413897805,0.0,0.0,0.0,193.0,0.0,194.0,0.0,17.0,0.0,180.0,194.0,17.0,180.0,1744420665.534541,0.0,2025-04-11 21:17:45.534,STOP,46
201.0,16647.33340112369,23931.543401663712,-31323.86879013405,-18995.89824627617,-34201.47707479919,-25515.56682772241,-13921.09112990989,-30034.46370774075,0.0,0.0,0.0,193.0,0.0,193.0,0.0,17.0,0.0,179.0,193.0,17.0,179.0,1744420665.5346563,0.0,2025-04-11 21:17:45.534,STOP,46
202.0,16614.67750247449,23913.326729932636,-31333.502391994287,-18997.686385832596,-34208.09319115796,-25512.370528265303,-14198.409223366883,-30066.98549592322,0.0,0.0,0.0,193.0,0.0,194.0,0.0,17.0,0.0,180.0,194.0,17.0,180.0,1744420665.5347395,0.0,2025-04-11 21:17:45.534,STOP,46
203.0,16597.62312145509,23932.07984353064,-31320.314862765656,-18977.74862977846,-34192.268156083606,-25489.23647275406,-14516.720416154913,-30055.787271951114,0.0,0.0,0.0,193.0,0.0,193.0,0.0,17.0,0.0,179.0,193.0,17.0,179.0,1744420665.534806,0.0,2025-04-11 21:17:45.534,STOP,46
204.0,16617.38206355358,23942.294590746715,-31316.224493530335,-18971.28897563088,-34191.75406596113,-25495.29379550145,-14339.001695990766,-30027.69112917079,0.0,0.0,0.0,193.0,0.0,193.0,0.0,17.0,0.0,180.0,193.0,17.0,180.0,1744420666.008073,0.0,2025-04-11 21:17:46.008,STOP,46
205.0,16635.598735284657,23927.005997539283,-31334.552923983687,-18999.63098760021,-34209.926034203294,-25526.697996461153,-13927.32726661292,-30047.964161391756,0.0,0.0,0.0,193.0,0.0,194.0,0.0,17.0,0.0,180.0,194.0,17.0,180.0,1744420666.0081844,0.0,2025-04-11 21:17:46.008,STOP,46
206.0,16620.354845566137,23915.226628211338,-31331.133107082023,-19001.754403323463,-34201.99116492167,-25518.204333568137,-14155.784446690614,-30096.087467204034,0.0,0.0,0.0,193.0,0.0,194.0,0.0,17.0,0.0,180.0,194.0,17.0,180.0,1744420666.0082288,0.0,2025-04-11 21:17:46.008,STOP,46
207.0,16607.323778548693,23930.336407463124,-31320.717194165853,-18989.14801945067,-34189.38478104887,-25500.99349033755,-14493.988692043864,-30073.981591937732,0.0,0.0,0.0,193.0,0.0,194.0,0.0,17.0,0.0,179.0,194.0,17.0,179.0,1744420666.0083325,0.0,2025-04-11 21:17:46.008,STOP,46
208.0,16616.73386296438,23927.74360510631,-31318.303205764678,-18987.002251982958,-34185.62968798038,-25513.15283932124,-14430.040351157231,-30074.62979252694,0.0,0.0,0.0,193.0,0.0,194.0,0.0,17.0,0.0,180.0,194.0,17.0,180.0,1744420666.0083768,0.0,2025-04-11 21:17:46.008,STOP,46
209.0,16630.413130571025,23916.724195089842,-31339.894990908506,-19009.86808656074,-34206.7744382351,-25542.008941413038,-13973.841246824413,-30070.606478524984,0.0,0.0,0.0,193.0,0.0,194.0,0.0,17.0,0.0,180.0,194.0,17.0,180.0,1744420666.0084193,0.0,2025-04-11 21:17:46.008,STOP,46
210.0,16610.90005766154,23900.16155244846,-31345.997017144804,-19018.317045964843,-34213.68112727179,-25526.362720294324,-14105.73889085518,-30098.993193983224,0.0,0.0,0.0,193.0,0.0,193.0,0.0,17.0,0.0,179.0,193.0,17.0,179.0,1744420666.0084848,0.0,2025-04-11 21:17:46.008,STOP,46
211.0,16590.895246374042,23914.690186344407,-31336.2963600512,-19003.810763813348,-34196.649097996844,-25504.86034212832,-14441.52914780726,-30066.94079243431,0.0,0.0,0.0,193.0,0.0,194.0,0.0,17.0,0.0,180.0,194.0,17.0,180.0,1744420666.0085275,0.0,2025-04-11 21:17:46.008,STOP,46
212.0,16600.48414474537,23927.944770806407,-31322.840609889106,-18989.237426428488,-34181.829891422974,-25492.43277221117,-14487.43963091846,-30046.60070497998,0.0,0.0,0.0,193.0,0.0,194.0,0.0,17.0,0.0,180.0,194.0,17.0,180.0,1744420666.0085697,0.0,2025-04-11 21:17:46.008,STOP,46
213.0,16629.452005559448,23926.514259161268,-31333.457688505376,-18997.485220132497,-34192.044638639054,-25513.19754281015,-13994.427203467752,-30002.098381769465,0.0,0.0,0.0,193.0,0.0,194.0,0.0,17.0,0.0,180.0,194.0,17.0,180.0,1744420666.008612,0.0,2025-04-11 21:17:46.008,STOP,46
214.0,16620.28779033277,23906.375337407037,-31342.376034543042,-19018.697025620582,-34198.81721720901,-25525.446298771658,-14012.06272984299,-30078.42958908434,0.0,0.0,0.0,193.0,0.0,193.0,0.0,17.0,0.0,179.0,193.0,17.0,179.0,1744420666.008654,0.0,2025-04-11 21:17:46.008,STOP,46
215.0,16601.780545923775,23917.50650614578,-31334.843496661604,-19005.75536558096,-34194.90566192933,-25506.80494389593,-14367.902501571478,-30065.33146683353,0.0,0.0,0.0,193.0,0.0,194.0,0.0,17.0,0.0,180.0,194.0,17.0,180.0,1744420666.0087128,0.0,2025-04-11 21:17:46.008,STOP,46
216.0,16601.132345334572,23929.82231734065,-31325.925150623938,-18997.216999199034,-34191.284679327575,-25500.255882770525,-14527.024570348809,-30061.509318531673,0.0,0.0,0.0,193.0,0.0,194.0,0.0,17.0,0.0,180.0,194.0,17.0,180.0,1744420666.0087552,0.0,2025-04-11 21:17:46.008,STOP,46
217.0,16627.7756247253,23928.72708186234,-31330.797830915195,-18997.887551532694,-34198.43723755327,-25517.6231882123,-14091.567884870516,-30019.868018611436,0.0,0.0,0.0,193.0,0.0,193.0,0.0,17.0,0.0,180.0,193.0,17.0,180.0,1744420666.0087972,0.0,2025-04-11 21:17:46.008,STOP,46
218.0,16625.406339813035,23915.338386933614,-31333.927075138938,-19008.4375749156,-34196.85026369694,-25518.740775435064,-13978.803334093493,-30073.087522159523,0.0,0.0,0.0,193.0,0.0,193.0,0.0,17.0,0.0,180.0,193.0,17.0,180.0,1744420666.008839,0.0,2025-04-11 21:17:46.008,STOP,46
219.0,16601.6687872015,23919.048776513195,-31331.91541813796,-18994.71360382004,-34192.51402527261,-25497.75248739153,-14302.791869973169,-30056.1448998624,0.0,0.0,0.0,193.0,0.0,194.0,0.0,17.0,0.0,180.0,194.0,17.0,180.0,1744420666.0088809,0.0,2025-04-11 21:17:46.008,STOP,46
220.0,16597.310197032715,23929.867020829563,-31320.136048810014,-18983.51537984793,-34178.58888847696,-25487.269519241992,-14528.96917211642,-30048.813527681057,0.0,0.0,0.0,193.0,0.0,193.0,0.0,17.0,0.0,179.0,193.0,17.0,179.0,1744420666.0089228,0.0,2025-04-11 21:17:46.008,STOP,46
221.0,16614.05165362974,23930.4481661854,-31324.33817676761,-18981.95075773606,-34183.68508621277,-25500.85937987082,-14160.32185081504,-30009.586216161995,0.0,0.0,0.0,193.0,0.0,193.0,0.0,17.0,0.0,179.0,193.0,17.0,179.0,1744420666.0089643,0.0,2025-04-11 21:17:46.008,STOP,46
222.0,16618.3208368207,23915.696014844896,-31336.43047051793,-19003.497839390977,-34195.57621426299,-25512.52699047649,-13933.742217271592,-30048.768824192146,0.0,0.0,0.0,193.0,0.0,194.0,0.0,17.0,0.0,179.0,194.0,17.0,179.0,1744420666.0090196,0.0,2025-04-11 21:17:46.009,STOP,46
223.0,16599.768888922797,23909.549285119687,-31336.00578737328,-18998.80397305536,-34196.40322880784,-25500.032365325973,-14244.185596011353,-30052.7921381941,0.0,0.0,0.0,193.0,0.0,193.0,0.0,17.0,0.0,179.0,193.0,17.0,179.0,1744420666.0090616,0.0,2025-04-11 21:17:46.009,STOP,46
224.0,16590.55997020721,23924.659064371477,-31329.23320880332,-18991.494952618476,-34189.20596709323,-25494.645594912243,-14523.91767786952,-30051.85336492698,0.0,0.0,0.0,193.0,0.0,194.0,0.0,17.0,0.0,180.0,194.0,17.0,180.0,1744420666.0091035,0.0,2025-04-11 21:17:46.009,STOP,46
225.0,16618.47729903189,23936.17021276596,-31327.02038610225,-18984.074173459314,-34188.35660080393,-25503.586292694366,-14254.288584505151,-30028.831068138014,0.0,0.0,0.0,193.0,0.0,194.0,0.0,17.0,0.0,179.0,194.0,17.0,179.0,1744420666.00916,0.0,2025-04-11 21:17:46.009,STOP,46
226.0,16638.05742717474,23927.2965702172,-31339.20208683039,-19003.29667369088,-34203.511083544625,-25520.618321969312,-13918.565382786439,-30057.173080107343,0.0,0.0,0.0,193.0,0.0,193.0,0.0,17.0,0.0,179.0,193.0,17.0,179.0,1744420666.0092025,0.0,2025-04-11 21:17:46.009,STOP,46
227.0,16621.20421185544,23923.20620098188,-31332.474211749344,-18993.528961363907,-34195.553862518536,-25502.80398163843,-14196.53167683264,-30073.243984370707,0.0,0.0,0.0,193.0,0.0,194.0,0.0,17.0,0.0,180.0,194.0,17.0,180.0,1744420666.0092444,0.0,2025-04-11 21:17:46.009,STOP,46
228.0,16603.859258158118,23933.823279598153,-31322.25946453327,-18979.067382701323,-34185.38381879137,-25491.18107452167,-14501.610636903124,-30055.317885317552,0.0,0.0,0.0,193.0,0.0,194.0,0.0,17.0,0.0,179.0,194.0,17.0,179.0,1744420666.0092864,0.0,2025-04-11 21:17:46.009,STOP,46
229.0,16614.00695014083,23928.83884058462,-31322.639444189008,-18976.966318722527,-34192.71519097271,-25499.361812992312,-14347.9870972618,-30037.861172897956,0.0,0.0,0.0,193.0,0.0,193.0,0.0,17.0,0.0,180.0,193.0,17.0,180.0,1744420666.0093281,0.0,2025-04-11 21:17:46.009,STOP,46
230.0,16630.703703248942,23914.19844796639,-31341.079633364636,-19000.346243422777,-34213.25644412714,-25523.971083637607,-13925.673237523228,-30043.024425867134,0.0,0.0,0.0,193.0,0.0,194.0,0.0,17.0,0.0,180.0,194.0,17.0,180.0,1744420666.0093837,0.0,2025-04-11 21:17:46.009,STOP,46
231.0,16616.309179819727,23904.29662517269,-31340.878467664537,-19002.983749268504,-34206.372106834904,-25514.650406199744,-14144.340353529496,-30096.221577670764,0.0,0.0,0.0,193.0,0.0,193.0,0.0,17.0,0.0,179.0,193.0,17.0,179.0,1744420666.0094256,0.0,2025-04-11 21:17:46.009,STOP,46
232.0,16601.10999359012,23920.054605013684,-31332.16128732697,-18990.600882840263,-34194.95036541824,-25498.53479844747,-14487.596093129647,-30083.14580716441,0.0,0.0,0.0,193.0,0.0,193.0,0.0,17.0,0.0,179.0,193.0,17.0,179.0,1744420666.0094676,0.0,2025-04-11 21:17:46.009,STOP,46
233.0,16612.15175535104,23926.06722427216,-31325.366357012554,-18982.867179258727,-34191.66465898331,-25496.94782459114,-14446.312421120694,-30060.302324331085,0.0,0.0,0.0,193.0,0.0,194.0,0.0,17.0,0.0,180.0,194.0,17.0,180.0,1744420666.0095096,0.0,2025-04-11 21:17:46.009,STOP,46
234.0,16634.659962017533,23928.77178535125,-31334.217647816855,-18993.931292764104,-34200.784170721075,-25509.6212636973,-13968.521531644052,-30025.388899491896,0.0,0.0,0.0,193.0,0.0,193.0,0.0,17.0,0.0,179.0,193.0,17.0,179.0,1744420666.0095513,0.0,2025-04-11 21:17:46.009,STOP,46
235.0,16627.14977588055,23919.696977102398,-31333.457688505376,-18999.80980155585,-34197.856092197435,-25502.826333382887,-14081.554303354538,-30080.77652225215,0.0,0.0,0.0,193.0,0.0,194.0,0.0,17.0,0.0,180.0,194.0,17.0,180.0,1744420666.0095932,0.0,2025-04-11 21:17:46.009,STOP,46
236.0,16604.865086658607,23926.15663124998,-31327.802697158182,-18989.796220039872,-34189.83181593798,-25489.6164524098,-14426.218202855374,-30060.7940627091,0.0,0.0,0.0,193.0,0.0,194.0,0.0,17.0,0.0,180.0,194.0,17.0,180.0,1744420666.009647,0.0,2025-04-11 21:17:46.009,STOP,46
237.0,16607.18966808196,23930.761090607775,-31318.414964486954,-18978.061554200835,-34180.511138500115,-25482.486245928558,-14486.210284973418,-30044.477289256727,0.0,0.0,0.0,193.0,0.0,193.0,0.0,17.0,0.0,179.0,193.0,17.0,179.0,1744420666.009689,0.0,2025-04-11 21:17:46.009,STOP,46
238.0,16627.48505204738,23924.279084715738,-31332.16128732697,-18987.449286872066,-34194.88331018487,-25504.212141539116,-13998.562276191984,-30003.394782947875,0.0,0.0,0.0,193.0,0.0,194.0,0.0,17.0,0.0,180.0,194.0,17.0,180.0,1744420666.0097313,0.0,2025-04-11 21:17:46.009,STOP,46
239.0,16628.20030786995,23908.63286359702,-31335.223476317344,-19001.016795756437,-34200.56065327652,-25508.168400307706,-14020.44463401373,-30081.96116470828,0.0,0.0,0.0,193.0,0.0,193.0,0.0,17.0,0.0,179.0,193.0,17.0,179.0,1744420666.009782,0.0,2025-04-11 21:17:46.009,STOP,46
240.0,16610.09539486115,23915.673663100442,-31325.880447135027,-18983.247158914466,-34189.36242930441,-25486.084876785862,-14366.851969582078,-30061.531670276127,0.0,0.0,0.0,193.0,0.0,193.0,0.0,17.0,0.0,179.0,193.0,17.0,179.0,1744420666.0098937,0.0,2025-04-11 21:17:46.009,STOP,46
241.0,16602.38404302407,23926.178982994436,-31315.91156910796,-18973.52415007641,-34175.616106464404,-25480.47458892758,-14506.572724172203,-30044.52199274564,0.0,0.0,0.0,193.0,0.0,194.0,0.0,17.0,0.0,180.0,194.0,17.0,180.0,1744420666.0099366,0.0,2025-04-11 21:17:46.009,STOP,46
242.0,16623.95347642344,23931.11871851906,-31321.901836621983,-18975.89343498867,-34180.53349024457,-25499.13829554776,-14078.559169597527,-30012.380184218906,0.0,0.0,0.0,193.0,0.0,193.0,0.0,17.0,0.0,179.0,193.0,17.0,179.0,1744420666.009979,0.0,2025-04-11 21:17:46.009,STOP,46
243.0,16619.885458932575,23910.4433548979,-31335.849325162093,-19002.961397524046,-34192.111693872415,-25511.543513720455,-13957.077438482935,-30064.727969733238,0.0,0.0,0.0,193.0,0.0,194.0,0.0,17.0,0.0,180.0,194.0,17.0,180.0,1744420666.0100207,0.0,2025-04-11 21:17:46.010,STOP,46
244.0,16600.19357206745,23914.109040988573,-31331.334272782122,-18991.539656107387,-34186.9707926477,-25494.936167590164,-14295.751070469747,-30059.207088852774,0.0,0.0,0.0,193.0,0.0,193.0,0.0,17.0,0.0,179.0,193.0,17.0,179.0,1744420666.010063,0.0,2025-04-11 21:17:46.010,STOP,46
245.0,16591.00700509632,23923.541477148712,-31326.707461679875,-18985.504685104454,-34184.0203623796,-25488.47651344258,-14529.751483172357,-30055.13907136191,0.0,0.0,0.0,193.0,0.0,194.0,0.0,17.0,0.0,180.0,194.0,17.0,180.0,1744420666.0101812,0.0,2025-04-11 21:17:46.010,STOP,46
246.0,16617.806746698232,23925.396671938503,-31333.904723394484,-18986.599920582765,-34197.207891608225,-25503.251016527538,-14193.782412264636,-30020.672681411826,0.0,0.0,0.0,193.0,0.0,193.0,0.0,17.0,0.0,179.0,193.0,17.0,179.0,1744420666.010224,0.0,2025-04-11 21:17:46.010,STOP,46
247.0,16624.176993867994,23909.459878141868,-31347.58399100113,-19013.086737762304,-34204.09222890046,-25521.020653369505,-13943.867557509848,-30063.073940643542,0.0,0.0,0.0,193.0,0.0,194.0,0.0,17.0,0.0,180.0,194.0,17.0,180.0,1744420666.010266,0.0,2025-04-11 21:17:46.010,STOP,46
248.0,16605.62504597009,23909.951616519884,-31339.984397886325,-19004.794240569383,-34184.89208041335,-25502.513408960513,-14230.10399700451,-30061.24109759821,0.0,0.0,0.0,193.0,0.0,194.0,0.0,17.0,0.0,180.0,194.0,17.0,180.0,1744420666.010308,0.0,2025-04-11 21:17:46.010,STOP,46
249.0,16593.84567664214,23922.245075970302,-31331.28956929321,-18990.75734505145,-34179.97469663319,-25489.124714031783,-14512.853564364144,-30045.058434612565,0.0,0.0,0.0,193.0,0.0,194.0,0.0,17.0,0.0,179.0,194.0,17.0,179.0,1744420666.01035,0.0,2025-04-11 21:17:46.010,STOP,46
250.0,16612.308217562226,23919.36170093557,-31331.602493715585,-18985.03529847089,-34181.986353634165,-25500.121772303795,-14274.606320215025,-30021.902027356868,0.0,0.0,0.0,193.0,0.0,193.0,0.0,17.0,0.0,179.0,193.0,17.0,179.0,1744420666.010392,0.0,2025-04-11 21:17:46.010,STOP,46
251.0,16625.741615979867,23915.45014565589,-31344.342988055112,-19000.90503703416,-34194.48097878468,-25511.521161976,-13921.80638573246,-30037.861172897956,0.0,0.0,0.0,193.0,0.0,193.0,0.0,17.0,0.0,179.0,193.0,17.0,179.0,1744420666.0104537,0.0,2025-04-11 21:17:46.010,STOP,46
252.0,16602.495801746347,23909.01284325276,-31348.58981950162,-19003.654301602164,-34199.33130733148,-25508.43662124117,-14163.585205505517,-30068.326600590543,0.0,0.0,0.0,193.0,0.0,194.0,0.0,17.0,0.0,180.0,194.0,17.0,180.0,1744420666.010496,0.0,2025-04-11 21:17:46.010,STOP,46
253.0,16587.38602249456,23920.36752943606,-31340.610246731074,-18995.875894531717,-34193.00576365063,-25498.244225769547,-14495.8215350892,-30067.43253081233,0.0,0.0,0.0,193.0,0.0,193.0,0.0,17.0,0.0,179.0,193.0,17.0,179.0,1744420666.0105376,0.0,2025-04-11 21:17:46.010,STOP,46
254.0,16611.52590650629,23927.34127370611,-31329.456726247878,-18982.598958325263,-34185.18265309127,-25494.80205712343,-14371.970519062343,-30037.771765920137,0.0,0.0,0.0,193.0,0.0,194.0,0.0,17.0,0.0,180.0,194.0,17.0,180.0,1744420666.0105796,0.0,2025-04-11 21:17:46.010,STOP,46
255.0,16631.32955209369,23915.271331700245,-31349.953275913394,-19007.23058071501,-34211.892987715364,-25527.212086583626,-13932.0881881819,-30041.929190388822,0.0,0.0,0.0,193.0,0.0,193.0,0.0,17.0,0.0,179.0,193.0,17.0,179.0,1744420666.0106368,0.0,2025-04-11 21:17:46.010,STOP,46
0.0,16620.399549055048,23906.330633918125,-31347.628694490042,-19010.29276970539,-34204.829836467485,-25521.71355744762,-14137.277202281619,-30098.926138749855,0.0,0.0,0.0,193.0,0.0,194.0,0.0,17.0,0.0,180.0,194.0,17.0,180.0,1744420666.0106792,0.0,2025-04-11 21:17:46.010,STOP,46
1.0,16598.04780459974,23918.78055557973,-31338.86681066356,-18996.70290907656,-34189.40713279333,-25501.127600804284,-14463.52326435128,-30073.243984370707,0.0,0.0,0.0,193.0,0.0,193.0,0.0,17.0,0.0,179.0,193.0,17.0,179.0,1744420666.0107205,0.0,2025-04-11 21:17:46.010,STOP,46
2.0,16606.876743659584,23925.329616705134,-31334.15059258349,-18990.846752029272,-34189.47418802669,-25502.111077560316,-14448.972278710877,-30062.068112143053,0.0,0.0,0.0,193.0,0.0,193.0,0.0,17.0,0.0,179.0,193.0,17.0,179.0,1744420666.0107627,0.0,2025-04-11 21:17:46.010,STOP,46
3.0,16628.714397992422,23923.78734633772,-31348.79098520172,-19002.179086468113,-34207.31088010203,-25518.4725545016,-13960.497255384596,-30014.950634831268,0.0,0.0,0.0,193.0,0.0,194.0,0.0,17.0,0.0,180.0,194.0,17.0,180.0,1744420666.010805,0.0,2025-04-11 21:17:46.010,STOP,46
4.0,16619.259610087825,23908.409346152468,-31347.29341832321,-19003.453135902066,-34205.70155450125,-25506.96140610712,-14064.321108379498,-30066.449054056295,0.0,0.0,0.0,193.0,0.0,194.0,0.0,17.0,0.0,180.0,194.0,17.0,180.0,1744420666.0108593,0.0,2025-04-11 21:17:46.010,STOP,46
