Sample Index,EXG Channel 0,EXG Channel 1,EXG Channel 2,EXG Channel 3,EXG Channel 4,EXG Channel 5,EXG Channel 6,EXG Channel 7,Accel Channel 0,Accel Channel 1,Accel Channel 2,Not Used,Digital Channel 0 (D11),Digital Channel 1 (D12),Digital Channel 2 (D13),Digital Channel 3 (D17),Not Used,Digital Channel 4 (D18),Analog Channel 0,Analog Channel 1,Analog Channel 2,Timestamp,Marker Channel,Timestamp (Formatted),Stimulus_Direction,Stimulus_Number
109.0,28242.881982670067,30475.50832933287,-32189.775370332645,-29736.000864029036,-36389.55639476256,-32359.492165981792,-6269.6866714580865,-38109.768999787455,0.0,0.0,0.0,193.0,0.0,193.0,0.0,1.0,0.0,179.0,193.0,1.0,179.0,1744420343.2124796,0.0,2025-04-11 21:12:23.212,STOP,6
110.0,28215.143467801034,30474.860128743665,-32189.574204632547,-29732.69280584965,-36383.409665037354,-32353.367788001036,-6534.376029297832,-38093.72044726854,0.0,0.0,0.0,193.0,0.0,193.0,0.0,1.0,0.0,178.0,193.0,1.0,178.0,1744420343.2125263,0.0,2025-04-11 21:12:23.212,STOP,6
111.0,28241.138546602553,30474.45779734347,-32195.139789001918,-29735.330311695376,-36390.36105756296,-32365.77300617373,-6293.714796747541,-38086.85846172076,0.0,0.0,0.0,193.0,0.0,194.0,0.0,1.0,0.0,179.0,194.0,1.0,179.0,1744420343.2125711,0.0,2025-04-11 21:12:23.212,STOP,6
112.0,28270.821663239203,30472.13321592012,-32202.068829783064,-29748.74135836856,-36398.85472045597,-32371.919735898944,-5950.1908362139275,-38112.74178180001,0.0,0.0,0.0,193.0,0.0,193.0,0.0,1.0,0.0,179.0,193.0,1.0,179.0,1744420343.2126188,0.0,2025-04-11 21:12:23.212,STOP,6
113.0,28248.224049594886,30467.752274006878,-32189.931832543833,-29734.436241917163,-36385.0860458715,-32343.331854740605,-6188.169859429581,-38084.2880111084,0.0,0.0,0.0,193.0,0.0,194.0,0.0,1.0,0.0,180.0,194.0,1.0,180.0,1744420343.2126641,0.0,2025-04-11 21:12:23.212,STOP,6
114.0,28216.86455212409,30478.570518323246,-32183.494530140702,-29725.227323201576,-36375.76536843364,-32332.53596216869,-6489.672540387219,-38068.84295568978,0.0,0.0,0.0,193.0,0.0,194.0,0.0,1.0,0.0,179.0,194.0,1.0,179.0,1744420343.2127442,0.0,2025-04-11 21:12:23.212,STOP,6
115.0,28236.57879073367,30484.85135851519,-32182.980440018233,-29718.722965565084,-36377.2852870566,-32338.146250026974,-6366.35796622729,-38064.2831998209,0.0,0.0,0.0,193.0,0.0,193.0,0.0,1.0,0.0,179.0,193.0,1.0,179.0,1744420343.212792,0.0,2025-04-11 21:12:23.212,STOP,6
116.0,28267.848881226648,30480.80569276878,-32198.51490241467,-29735.419718673198,-36400.91108094586,-32362.152023571973,-5942.770057054765,-38082.16459538515,0.0,0.0,0.0,193.0,0.0,193.0,0.0,1.0,0.0,179.0,193.0,1.0,179.0,1744420343.2128358,0.0,2025-04-11 21:12:23.212,STOP,6
117.0,28255.98010492088,30467.685218773513,-32190.669440110858,-29731.709329093617,-36397.401857066376,-32355.31238976865,-6131.821111657752,-38110.05957246537,0.0,0.0,0.0,193.0,0.0,194.0,0.0,1.0,0.0,180.0,194.0,1.0,180.0,1744420343.2128801,0.0,2025-04-11 21:12:23.212,STOP,6
118.0,28237.785784934258,30493.389724897115,-32185.863815052966,-29722.70157607813,-36387.83531043951,-32351.423186233427,-6461.978729007093,-38101.856482250274,0.0,0.0,0.0,193.0,0.0,194.0,0.0,1.0,0.0,180.0,194.0,1.0,180.0,1744420343.2129257,0.0,2025-04-11 21:12:23.212,STOP,6
119.0,28248.134642617068,30502.218663956963,-32177.75013181569,-29709.961081738602,-36381.06273186955,-32338.12389828252,-6448.679441056185,-38066.004284143964,0.0,0.0,0.0,193.0,0.0,193.0,0.0,1.0,0.0,179.0,193.0,1.0,179.0,1744420343.2129815,0.0,2025-04-11 21:12:23.212,STOP,6
120.0,28262.909145702022,30480.425713113036,-32184.254489452185,-29717.98535799806,-36389.779912207116,-32353.524250212224,-5976.454135948913,-38062.74092945349,0.0,0.0,0.0,193.0,0.0,194.0,0.0,1.0,0.0,179.0,194.0,1.0,179.0,1744420343.213026,0.0,2025-04-11 21:12:23.213,STOP,6
121.0,28240.915029158,30454.542393033793,-32186.735533086725,-29730.010596515014,-36389.13171161791,-32349.992674588288,-6055.5793113207,-38090.255926877966,0.0,0.0,0.0,193.0,0.0,194.0,0.0,1.0,0.0,179.0,194.0,1.0,179.0,1744420343.2131424,0.0,2025-04-11 21:12:23.213,STOP,6
122.0,28211.142505543532,30465.56180305026,-32184.410951663373,-29719.281759176465,-36383.566127248545,-32335.419337203424,-6389.380263016255,-38066.60778124425,0.0,0.0,0.0,193.0,0.0,194.0,0.0,1.0,0.0,179.0,194.0,1.0,179.0,1744420343.213188,0.0,2025-04-11 21:12:23.213,STOP,6
123.0,28225.022938850278,30482.23620441392,-32165.903707254376,-29697.958194966104,-36364.65655143935,-32316.196836971863,-6487.683235130696,-38049.62045545822,0.0,0.0,0.0,193.0,0.0,194.0,0.0,1.0,0.0,180.0,194.0,1.0,180.0,1744420343.2132304,0.0,2025-04-11 21:12:23.213,STOP,6
124.0,28257.008285165823,30480.246899157395,-32189.104817998985,-29714.789058540948,-36389.86931918494,-32343.533020440704,-6024.465683038912,-38049.55340022485,0.0,0.0,0.0,193.0,0.0,194.0,0.0,1.0,0.0,179.0,194.0,1.0,179.0,1744420343.2132897,0.0,2025-04-11 21:12:23.213,STOP,6
125.0,28248.469918783896,30450.630837754114,-32198.425495436848,-29732.089308749357,-36398.22887161122,-32347.154003042462,-6008.037150864262,-38093.42987459062,0.0,0.0,0.0,193.0,0.0,194.0,0.0,1.0,0.0,180.0,194.0,1.0,180.0,1744420343.2133331,0.0,2025-04-11 21:12:23.213,STOP,6
126.0,28220.619645192583,30460.197384380983,-32191.295288955607,-29717.49361962004,-36387.94706916178,-32330.345491212072,-6350.376468941745,-38078.74477848349,0.0,0.0,0.0,193.0,0.0,194.0,0.0,1.0,0.0,179.0,194.0,1.0,179.0,1744420343.2133763,0.0,2025-04-11 21:12:23.213,STOP,6
127.0,28223.8606481386,30484.001992225887,-32171.55869860157,-29696.2594623875,-36368.76927241913,-32311.815895058622,-6527.379933283321,-38055.72248169452,0.0,0.0,0.0,193.0,0.0,194.0,0.0,1.0,0.0,179.0,194.0,1.0,179.0,1744420343.2134206,0.0,2025-04-11 21:12:23.213,STOP,6
128.0,28253.70022698644,30483.04086721431,-32187.00375402019,-29708.463514860097,-36385.644839482884,-32338.526229682713,-6113.470329459945,-38048.167592068625,0.0,0.0,0.0,193.0,0.0,194.0,0.0,1.0,0.0,179.0,194.0,1.0,179.0,1744420343.213464,0.0,2025-04-11 21:12:23.213,STOP,6
129.0,28249.900430429036,30456.06231165675,-32201.33122221604,-29736.51495415151,-36395.27844134312,-32354.619485690535,-5973.190781258439,-38101.945889228096,0.0,0.0,0.0,193.0,0.0,194.0,0.0,1.0,0.0,180.0,194.0,1.0,180.0,1744420343.2135265,0.0,2025-04-11 21:12:23.213,STOP,6
130.0,28221.089031826144,30455.525869789824,-32189.75301858819,-29719.102945220824,-36378.335819046,-32329.093793522574,-6277.8450581842735,-38066.54072601089,0.0,0.0,0.0,193.0,0.0,194.0,0.0,1.0,0.0,179.0,194.0,1.0,179.0,1744420343.2135966,0.0,2025-04-11 21:12:23.213,STOP,6
131.0,28211.38837473254,30474.211928154462,-32172.98921024671,-29701.1097909343,-36364.29892352807,-32317.426182916905,-6516.852261644872,-38057.465917762034,0.0,0.0,0.0,193.0,0.0,194.0,0.0,1.0,0.0,180.0,194.0,1.0,180.0,1744420343.2136405,0.0,2025-04-11 21:12:23.213,STOP,6
132.0,28239.149241346033,30476.357695622173,-32184.187434218817,-29704.84253225834,-36383.633182481906,-32344.136517540996,-6203.570211359288,-38060.57281024132,0.0,0.0,0.0,193.0,0.0,194.0,0.0,1.0,0.0,179.0,194.0,1.0,179.0,1744420343.213683,0.0,2025-04-11 21:12:23.213,STOP,6
133.0,28253.00732290832,30462.432558826516,-32194.201015734794,-29724.288549934456,-36397.71478148875,-32358.151061314475,-5945.720487322866,-38099.82247350484,0.0,0.0,0.0,193.0,0.0,194.0,0.0,1.0,0.0,180.0,194.0,1.0,180.0,1744420343.2137256,0.0,2025-04-11 21:12:23.213,STOP,6
134.0,28232.466069753897,30457.11284364615,-32185.461483652773,-29712.062145717402,-36388.90819417336,-32341.16373552844,-6234.683839641076,-38093.049894934884,0.0,0.0,0.0,193.0,0.0,194.0,0.0,1.0,0.0,179.0,194.0,1.0,179.0,1744420343.21377,0.0,2025-04-11 21:12:23.213,STOP,6
135.0,28216.998662590824,30477.788207267313,-32166.686018310313,-29690.760933251495,-36369.171603819326,-32319.34843294006,-6508.246840029578,-38065.44549053258,0.0,0.0,0.0,193.0,0.0,194.0,0.0,1.0,0.0,179.0,194.0,1.0,179.0,1744420343.2138135,0.0,2025-04-11 21:12:23.213,STOP,6
136.0,28235.77412793328,30486.25951841587,-32171.22342243474,-29691.476189074063,-36378.29111555709,-32331.597188901567,-6289.7585379789525,-38057.93530439559,0.0,0.0,0.0,193.0,0.0,194.0,0.0,1.0,0.0,179.0,194.0,1.0,179.0,1744420343.2139757,0.0,2025-04-11 21:12:23.213,STOP,6
137.0,28260.383398578575,30477.363524122662,-32188.680134854334,-29714.900817263228,-36400.06171465656,-32352.004331589265,-5927.168539424961,-38080.24234536199,0.0,0.0,0.0,193.0,0.0,194.0,0.0,1.0,0.0,179.0,194.0,1.0,179.0,1744420343.2140195,0.0,2025-04-11 21:12:23.214,STOP,6
138.0,28245.20656409342,30472.244974642395,-32171.84927127949,-29698.78520951095,-36384.259031326656,-32331.9324650684,-6177.575132557766,-38085.80792973136,0.0,0.0,0.0,193.0,0.0,194.0,0.0,1.0,0.0,179.0,194.0,1.0,179.0,1744420343.2140625,0.0,2025-04-11 21:12:23.214,STOP,6
139.0,28223.547723716227,30492.048620229798,-32156.426567605326,-29680.92616569116,-36368.05401659656,-32317.67205210591,-6489.0466915424695,-38069.692321979084,0.0,0.0,0.0,193.0,0.0,193.0,0.0,1.0,0.0,179.0,193.0,1.0,179.0,1744420343.214132,0.0,2025-04-11 21:12:23.214,STOP,6
140.0,28239.752738446325,30493.45678013048,-32156.717140283246,-29679.696819746117,-36365.97530436222,-32318.700232350857,-6364.122791781759,-38044.323092022314,0.0,0.0,0.0,193.0,0.0,193.0,0.0,1.0,0.0,178.0,193.0,1.0,178.0,1744420343.2141757,0.0,2025-04-11 21:12:23.214,STOP,6
141.0,28265.569003292207,30496.004878998385,-32176.14080621491,-29702.11561943479,-36388.88584242891,-32343.465965207335,-5926.945021980408,-38063.2326678315,0.0,0.0,0.0,193.0,0.0,193.0,0.0,1.0,0.0,179.0,193.0,1.0,179.0,1744420343.2142253,0.0,2025-04-11 21:12:23.214,STOP,6
142.0,28250.481575784874,30475.8436054997,-32166.306038654573,-29697.332346121355,-36380.906269658364,-32332.93829356889,-6095.320712962236,-38079.01299941695,0.0,0.0,0.0,193.0,0.0,193.0,0.0,0.0,0.0,179.0,193.0,0.0,179.0,1744420343.214268,0.0,2025-04-11 21:12:23.214,STOP,6
143.0,28226.609912706605,30486.25951841587,-32148.156422156862,-29677.752217978505,-36363.67307468332,-32311.994709014263,-6426.417103578699,-38054.56019098285,0.0,0.0,0.0,193.0,0.0,194.0,0.0,1.0,0.0,179.0,194.0,1.0,179.0,1744420343.2143104,0.0,2025-04-11 21:12:23.214,STOP,6
144.0,28237.428157022972,30496.250748187394,-32139.796869730577,-29671.605488253295,-36357.839269380485,-32310.005403757743,-6431.848577481339,-38039.80803964234,0.0,0.0,0.0,193.0,0.0,193.0,0.0,0.0,0.0,179.0,193.0,0.0,179.0,1744420343.2143748,0.0,2025-04-11 21:12:23.214,STOP,6
145.0,28262.529166046283,30492.562710352267,-32167.110701454963,-29702.07091594588,-36383.29790631508,-32347.9363140984,-5970.75444111281,-38068.97706615652,0.0,0.0,0.0,193.0,0.0,193.0,0.0,0.0,0.0,179.0,193.0,0.0,179.0,1744420343.214418,0.0,2025-04-11 21:12:23.214,STOP,6
146.0,28255.421311309496,30476.02241945534,-32161.65687580787,-29705.334270636355,-36378.045246368085,-32335.7322616258,-6061.05548871225,-38097.9896304595,0.0,0.0,0.0,193.0,0.0,193.0,0.0,0.0,0.0,179.0,193.0,0.0,179.0,1744420343.2144606,0.0,2025-04-11 21:12:23.214,STOP,6
147.0,28221.916046370992,30479.062256701265,-32158.12530018393,-29693.06316293039,-36373.53019398811,-32320.555427140647,-6396.868097408784,-38058.22587707351,0.0,0.0,0.0,193.0,0.0,194.0,0.0,0.0,0.0,179.0,194.0,0.0,179.0,1744420343.6885624,0.0,2025-04-11 21:12:23.688,STOP,6
148.0,28226.229933050865,30492.495655118903,-32143.26139012115,-29677.886328445238,-36355.09000481248,-32312.329985181095,-6490.208982254146,-38042.73611816599,0.0,0.0,0.0,193.0,0.0,194.0,0.0,1.0,0.0,180.0,194.0,1.0,180.0,1744420343.6887183,0.0,2025-04-11 21:12:23.688,STOP,6
149.0,28270.844014983657,30499.312937177772,-32154.280800137618,-29684.97183143757,-36367.49522298518,-32330.30078772316,-6026.723209228899,-38027.17930402509,0.0,0.0,0.0,193.0,0.0,194.0,0.0,0.0,0.0,179.0,194.0,0.0,179.0,1744420343.688771,0.0,2025-04-11 21:12:23.688,STOP,6
150.0,28260.942192189956,30470.546242063792,-32168.004771233176,-29706.02717471447,-36381.71093245875,-32339.532058183202,-5993.888496624052,-38075.213202859544,0.0,0.0,0.0,193.0,0.0,194.0,0.0,0.0,0.0,180.0,194.0,0.0,180.0,1744420343.6888204,0.0,2025-04-11 21:12:23.688,STOP,6
151.0,28229.515639485795,30474.726018276935,-32159.01936996214,-29690.112732662292,-36373.351380032465,-32321.96358704133,-6330.818692543351,-38051.96738862603,0.0,0.0,0.0,193.0,0.0,194.0,0.0,0.0,0.0,179.0,194.0,0.0,179.0,1744420343.6889172,0.0,2025-04-11 21:12:23.688,STOP,6
152.0,28224.911180128,30486.70655330498,-32148.536401812602,-29682.02140116947,-36365.930600873304,-32314.341642182073,-6526.709380949662,-38053.979045627006,0.0,0.0,0.0,193.0,0.0,194.0,0.0,0.0,0.0,179.0,194.0,0.0,179.0,1744420343.6889675,0.0,2025-04-11 21:12:23.688,STOP,6
153.0,28258.707017744426,30491.55688185178,-32161.008675218665,-29690.537415806943,-36378.22406032372,-32337.475697693313,-6129.183605812026,-38045.172458311616,0.0,0.0,0.0,193.0,0.0,194.0,0.0,0.0,0.0,179.0,194.0,0.0,179.0,1744420343.6890168,0.0,2025-04-11 21:12:23.689,STOP,6
154.0,28261.612744523616,30473.831948498722,-32170.016428234154,-29710.98926198355,-36386.89653717238,-32348.606866432056,-5961.076135763662,-38086.00909543146,0.0,0.0,0.0,193.0,0.0,194.0,0.0,0.0,0.0,179.0,194.0,0.0,179.0,1744420343.6890829,0.0,2025-04-11 21:12:23.689,STOP,6
155.0,28232.77899417627,30474.502500832383,-32159.913439740354,-29694.672488531174,-36378.738150446196,-32326.63510163249,-6284.014139653938,-38069.60291500127,0.0,0.0,0.0,193.0,0.0,194.0,0.0,0.0,0.0,180.0,194.0,0.0,180.0,1744420343.6891313,0.0,2025-04-11 21:12:23.689,STOP,6
156.0,28217.780973646757,30489.634631828623,-32148.826974490523,-29684.949479693114,-36368.456347996755,-32312.084115992086,-6540.9921456566035,-38052.369720026225,0.0,0.0,0.0,193.0,0.0,194.0,0.0,0.0,0.0,179.0,194.0,0.0,179.0,1744420343.68918,0.0,2025-04-11 21:12:23.689,STOP,6
157.0,28244.915991415503,30490.863977773664,-32160.06990195154,-29694.270157130977,-36378.29111555709,-32337.6321599045,-6234.214453007514,-38046.3794525122,0.0,0.0,0.0,193.0,0.0,194.0,0.0,0.0,0.0,179.0,194.0,0.0,179.0,1744420343.6892288,0.0,2025-04-11 21:12:23.689,STOP,6
158.0,28258.885831700067,30469.920393219043,-32177.37015215995,-29720.041718487948,-36395.12197913194,-32357.145232813986,-5956.203455472405,-38096.58147055882,0.0,0.0,0.0,193.0,0.0,194.0,0.0,0.0,0.0,180.0,194.0,0.0,180.0,1744420343.6892765,0.0,2025-04-11 21:12:23.689,STOP,6
159.0,28234.142450588042,30464.93595420551,-32167.065997966052,-29704.59666306933,-36383.96845864874,-32331.708947623843,-6244.831531623785,-38081.27052560694,0.0,0.0,0.0,193.0,0.0,194.0,0.0,0.0,0.0,180.0,194.0,0.0,180.0,1744420343.6893678,0.0,2025-04-11 21:12:23.689,STOP,6
160.0,28208.594406675627,30473.451968842983,-32160.31577114055,-29698.964023466593,-36379.162833590846,-32326.366880699028,-6546.937709681715,-38073.15684236966,0.0,0.0,0.0,193.0,0.0,194.0,0.0,0.0,0.0,180.0,194.0,0.0,180.0,1744420343.6894128,0.0,2025-04-11 21:12:23.689,STOP,6
161.0,28237.40580527852,30484.292564903804,-32156.851250749976,-29691.25267162951,-36379.1851853353,-32337.02866280421,-6345.7049543505855,-38072.59804875828,0.0,0.0,0.0,193.0,0.0,194.0,0.0,0.0,0.0,179.0,194.0,0.0,179.0,1744420343.689456,0.0,2025-04-11 21:12:23.689,STOP,6
162.0,28260.49515730085,30479.911622990567,-32175.202032947785,-29713.87263701828,-36401.40281932388,-32357.100529325075,-5964.585359643145,-38090.747665255985,0.0,0.0,0.0,193.0,0.0,194.0,0.0,0.0,0.0,179.0,194.0,0.0,179.0,1744420343.6894994,0.0,2025-04-11 21:12:23.689,STOP,6
163.0,28237.20463957842,30467.394646095592,-32166.59661133249,-29707.994128226535,-36388.99760115118,-32344.717662896834,-6202.519679369889,-38093.318115868344,0.0,0.0,0.0,193.0,0.0,194.0,0.0,0.0,0.0,180.0,194.0,0.0,180.0,1744420343.6895423,0.0,2025-04-11 21:12:23.689,STOP,6
164.0,28212.684775910948,30484.136102692617,-32154.236096648707,-29693.3090321194,-36371.63029570941,-32328.35618595555,-6513.857127887861,-38066.49602252198,0.0,0.0,0.0,193.0,0.0,194.0,0.0,0.0,0.0,179.0,194.0,0.0,179.0,1744420343.689585,0.0,2025-04-11 21:12:23.689,STOP,6
165.0,28234.29891279923,30492.09332371871,-32146.390634344894,-29683.518968047974,-36366.86937414043,-32330.323139467615,-6437.168292661702,-38064.77493819892,0.0,0.0,0.0,193.0,0.0,194.0,0.0,0.0,0.0,179.0,194.0,0.0,179.0,1744420343.689628,0.0,2025-04-11 21:12:23.689,STOP,6
166.0,28263.847918969146,30483.934936992522,-32163.489718853205,-29704.507256091507,-36383.81199643755,-32358.866317137043,-5986.870048865087,-38091.73114201202,0.0,0.0,0.0,193.0,0.0,194.0,0.0,0.0,0.0,180.0,194.0,0.0,180.0,1744420343.689687,0.0,2025-04-11 21:12:23.689,STOP,6
167.0,28244.40190129303,30465.159471650062,-32157.588858317,-29702.763820023993,-36374.93835388879,-32345.477622208313,-6127.484873233423,-38095.285069380414,0.0,0.0,0.0,193.0,0.0,194.0,0.0,0.0,0.0,180.0,194.0,0.0,180.0,1744420343.6897302,0.0,2025-04-11 21:12:23.689,STOP,6
168.0,28211.209560776897,30473.943707221,-32155.55484957157,-29694.091343175336,-36369.14925207487,-32337.296883737672,-6448.746496289551,-38079.86236570625,0.0,0.0,0.0,193.0,0.0,194.0,0.0,0.0,0.0,179.0,194.0,0.0,179.0,1744420343.6897733,0.0,2025-04-11 21:12:23.689,STOP,6
169.0,28221.87134288208,30487.354753894182,-32150.41394834685,-29685.86590121578,-36366.154118317856,-32336.000482559262,-6489.1584502647465,-38080.264697106446,0.0,0.0,0.0,193.0,0.0,194.0,0.0,0.0,0.0,180.0,194.0,0.0,180.0,1744420343.6898305,0.0,2025-04-11 21:12:23.689,STOP,6
170.0,28253.25319209733,30485.45485561548,-32166.909535754865,-29699.388706611244,-36388.170586606335,-32357.480508980814,-6027.349058073647,-38073.335656325304,0.0,0.0,0.0,193.0,0.0,194.0,0.0,0.0,0.0,179.0,194.0,0.0,179.0,1744420343.689874,0.0,2025-04-11 21:12:23.689,STOP,6
171.0,28241.71969195839,30458.431596569015,-32162.439186863805,-29704.037869457945,-36382.96263014825,-32346.237581519796,-6082.177887222515,-38084.2880111084,0.0,0.0,0.0,193.0,0.0,194.0,0.0,0.0,0.0,179.0,194.0,0.0,179.0,1744420343.689917,0.0,2025-04-11 21:12:23.689,STOP,6
172.0,28208.326185742164,30465.718265261447,-32157.722968783735,-29692.01263094099,-36376.011237622646,-32334.21234300284,-6415.285934839957,-38069.5358597679,0.0,0.0,0.0,193.0,0.0,194.0,0.0,0.0,0.0,180.0,194.0,0.0,180.0,1744420343.68996,0.0,2025-04-11 21:12:23.689,STOP,6
173.0,28204.39227871803,30474.636611299113,-32149.274009379627,-29685.35181109331,-36366.779967162605,-32330.904284823453,-6529.749218195584,-38065.44549053258,0.0,0.0,0.0,193.0,0.0,194.0,0.0,0.0,0.0,180.0,194.0,0.0,180.0,1744420343.690003,0.0,2025-04-11 21:12:23.690,STOP,6
174.0,28241.004436135823,30474.7930735103,-32165.300210154084,-29696.237110643044,-36384.326086560024,-32358.151061314475,-6073.7512795628645,-38066.60778124425,0.0,0.0,0.0,193.0,0.0,194.0,0.0,0.0,0.0,179.0,194.0,0.0,179.0,1744420343.690063,0.0,2025-04-11 21:12:23.690,STOP,6
175.0,28239.26100006831,30450.384968565104,-32167.870660766443,-29712.196256184132,-36386.561261005554,-32360.810918904655,-6023.0351713937725,-38105.90214799668,0.0,0.0,0.0,193.0,0.0,194.0,0.0,0.0,0.0,180.0,194.0,0.0,180.0,1744420343.6901066,0.0,2025-04-11 21:12:23.690,STOP,6
176.0,28206.940377585935,30454.765910478345,-32160.852213007478,-29700.12631417827,-36376.61473472294,-32346.572857686624,-6347.5825008848315,-38086.701999509576,0.0,0.0,0.0,193.0,0.0,194.0,0.0,0.0,0.0,179.0,194.0,0.0,179.0,1744420343.6901493,0.0,2025-04-11 21:12:23.690,STOP,6
177.0,28201.06186879419,30468.244012384894,-32147.217648889742,-29684.0554099149,-36360.58853394849,-32333.675901135914,-6555.856055719382,-38083.192775630094,0.0,0.0,0.0,193.0,0.0,194.0,0.0,0.0,0.0,179.0,194.0,0.0,179.0,1744420343.6901927,0.0,2025-04-11 21:12:23.690,STOP,6
178.0,28235.505906999817,30470.948573463986,-32159.84638450699,-29689.308069861898,-36380.05690336906,-32350.193840288382,-6170.467277820979,-38068.95471441206,0.0,0.0,0.0,193.0,0.0,194.0,0.0,0.0,0.0,180.0,194.0,0.0,180.0,1744420343.6902356,0.0,2025-04-11 21:12:23.690,STOP,6
179.0,28242.032616380766,30449.468547042437,-32171.692809068303,-29713.26913991799,-36395.43490355431,-32359.87214563753,-5995.810746647209,-38100.940060727604,0.0,0.0,0.0,193.0,0.0,194.0,0.0,0.0,0.0,179.0,194.0,0.0,179.0,1744420343.6902783,0.0,2025-04-11 21:12:23.690,STOP,6
180.0,28213.221217777875,30447.568648763736,-32164.339085142507,-29699.969851967082,-36380.36982779144,-32343.555372185157,-6290.317331590335,-38074.27442959243,0.0,0.0,0.0,193.0,0.0,194.0,0.0,0.0,0.0,179.0,194.0,0.0,179.0,1744420343.6903439,0.0,2025-04-11 21:12:23.690,STOP,6
181.0,28200.324261227164,30472.289678131307,-32146.88237272291,-29682.043752913924,-36361.99669384917,-32327.21624698833,-6538.8240264444385,-38062.83033643131,0.0,0.0,0.0,193.0,0.0,194.0,0.0,0.0,0.0,179.0,194.0,0.0,179.0,1744420343.6903875,0.0,2025-04-11 21:12:23.690,STOP,6
182.0,28229.090956341144,30482.83970151421,-32149.095195423986,-29682.244918614022,-36365.19299330628,-32339.97909307231,-6252.162903805126,-38047.78761241289,0.0,0.0,0.0,193.0,0.0,194.0,0.0,0.0,0.0,180.0,194.0,0.0,180.0,1744420343.6904304,0.0,2025-04-11 21:12:23.690,STOP,6
183.0,28238.344578545642,30457.403416324072,-32175.60436434798,-29718.231227187065,-36388.84113894,-32373.238488821804,-5952.493065892824,-38105.008078218474,0.0,0.0,0.0,193.0,0.0,194.0,0.0,0.0,0.0,179.0,194.0,0.0,179.0,1744420343.6904736,0.0,2025-04-11 21:12:23.690,STOP,6
184.0,28210.91898809898,30441.936009161,-32169.725855556233,-29709.849323016326,-36380.52629000262,-32358.97807585932,-6230.392304705657,-38104.650450307185,0.0,0.0,0.0,193.0,0.0,194.0,0.0,0.0,0.0,179.0,194.0,0.0,179.0,1744420343.69053,0.0,2025-04-11 21:12:23.690,STOP,6
185.0,28194.088124524133,30464.041884427297,-32149.36341635745,-29686.715267505082,-36362.57783920501,-32324.66814812042,-6524.876537904327,-38056.50479275046,0.0,0.0,0.0,193.0,0.0,194.0,0.0,0.0,0.0,180.0,194.0,0.0,180.0,1744420343.6905732,0.0,2025-04-11 21:12:23.690,STOP,6
186.0,28216.931607357456,30473.653134543078,-32153.207916403764,-29686.379991338254,-36373.75371143266,-32336.849848848564,-6342.35219268229,-38046.222990301016,0.0,0.0,0.0,193.0,0.0,194.0,0.0,0.0,0.0,179.0,194.0,0.0,179.0,1744420343.690616,0.0,2025-04-11 21:12:23.690,STOP,6
187.0,28244.15603210402,30472.75906476487,-32173.16802420235,-29715.280796918967,-36396.977173921725,-32366.108282340563,-5959.779734585254,-38085.83028147582,0.0,0.0,0.0,193.0,0.0,194.0,0.0,0.0,0.0,179.0,194.0,0.0,179.0,1744420343.6906586,0.0,2025-04-11 21:12:23.690,STOP,6
188.0,28226.140526073043,30459.079797158218,-32160.40517811837,-29703.322613635377,-36382.157967347855,-32346.50580245326,-6185.733519283953,-38087.12668265423,0.0,0.0,0.0,193.0,0.0,194.0,0.0,0.0,0.0,179.0,194.0,0.0,179.0,1744420343.6907017,0.0,2025-04-11 21:12:23.690,STOP,6
189.0,28188.991926788323,30458.588058780202,-32155.867773993945,-29696.34886936532,-36376.927659145316,-32340.023796561218,-6507.285715018001,-38076.30843833786,0.0,0.0,0.0,193.0,0.0,193.0,0.0,0.0,0.0,179.0,193.0,0.0,179.0,1744420343.6907585,0.0,2025-04-11 21:12:23.690,STOP,6
190.0,28206.850970608113,30468.758102507367,-32146.32357911153,-29685.01653492648,-36368.36694101893,-32337.900380837964,-6428.741685002052,-38054.64959796066,0.0,0.0,0.0,193.0,0.0,194.0,0.0,0.0,0.0,179.0,194.0,0.0,179.0,1744420343.690802,0.0,2025-04-11 21:12:23.690,STOP,6
191.0,28236.332921544665,30466.768797250847,-32168.65297182238,-29706.585968325853,-36393.78087446462,-32365.147157328985,-5967.714603866888,-38067.41244404465,0.0,0.0,0.0,193.0,0.0,194.0,0.0,0.0,0.0,180.0,194.0,0.0,180.0,1744420343.6908448,0.0,2025-04-11 21:12:23.690,STOP,6
192.0,28213.332976500154,30440.416090538038,-32170.731684056722,-29714.789058540948,-36394.02674365363,-32361.45911949386,-6121.9416406085065,-38095.53093856942,0.0,0.0,0.0,193.0,0.0,193.0,0.0,0.0,0.0,179.0,193.0,0.0,179.0,1744420343.6908877,0.0,2025-04-11 21:12:23.690,STOP,6
193.0,28187.740229098825,30456.576401779224,-32160.89691649639,-29698.87461648877,-36383.61083073745,-32343.06363380714,-6466.940816276171,-38073.425063303126,0.0,0.0,0.0,193.0,0.0,194.0,0.0,0.0,0.0,180.0,194.0,0.0,180.0,1744420343.6909301,0.0,2025-04-11 21:12:23.690,STOP,6
194.0,28195.54098791373,30467.752274006878,-32155.040759449097,-29694.717192020085,-36378.447577768275,-32345.8352501196,-6495.036959056492,-38074.11796738124,0.0,0.0,0.0,193.0,0.0,194.0,0.0,0.0,0.0,179.0,194.0,0.0,179.0,1744420343.6909988,0.0,2025-04-11 21:12:23.690,STOP,6
195.0,28233.58365697666,30472.60260255368,-32172.251602679684,-29709.78226778296,-36401.20165362378,-32373.238488821804,-6035.060409910729,-38089.78654024441,0.0,0.0,0.0,193.0,0.0,194.0,0.0,0.0,0.0,179.0,194.0,0.0,179.0,1744420343.6910598,0.0,2025-04-11 21:12:23.691,STOP,6
196.0,28227.436927251452,30459.59388728069,-32167.84830902199,-29711.704517806116,-36392.372714563935,-32358.84396539259,-6087.050567513772,-38105.52216834095,0.0,0.0,0.0,193.0,0.0,194.0,0.0,0.0,0.0,180.0,194.0,0.0,180.0,1744420343.6911037,0.0,2025-04-11 21:12:23.691,STOP,6
197.0,28204.52638918476,30474.301335132284,-32152.51501232565,-29690.40330534021,-36367.42816775181,-32334.234694747294,-6412.469615038588,-38069.20058360107,0.0,0.0,0.0,193.0,0.0,194.0,0.0,0.0,0.0,179.0,194.0,0.0,179.0,1744420343.6911469,0.0,2025-04-11 21:12:23.691,STOP,6
198.0,28196.993851303323,30477.184710167017,-32149.810451246554,-29688.77162799497,-36363.76248166114,-32336.179296514907,-6531.112674607358,-38071.6369237467,0.0,0.0,0.0,193.0,0.0,194.0,0.0,0.0,0.0,180.0,194.0,0.0,180.0,1744420343.6911895,0.0,2025-04-11 21:12:23.691,STOP,6
199.0,28225.514677228293,30470.635649041615,-32172.251602679684,-29708.59762532683,-36385.98011564972,-32363.35901777256,-6084.457765156957,-38066.25015333297,0.0,0.0,0.0,193.0,0.0,194.0,0.0,0.0,0.0,179.0,194.0,0.0,179.0,1744420343.691247,0.0,2025-04-11 21:12:23.691,STOP,6
200.0,28222.653653938014,30445.869916185133,-32180.119416727954,-29728.155401725224,-36391.948031419284,-32368.656381208468,-6017.76015970232,-38108.80787477588,0.0,0.0,0.0,193.0,0.0,194.0,0.0,0.0,0.0,179.0,194.0,0.0,179.0,1744420343.69129,0.0,2025-04-11 21:12:23.691,STOP,6
201.0,28204.638147907037,30458.185727380005,-32161.07573045203,-29701.713288034596,-36370.17743231981,-32341.096680295075,-6331.176320454636,-38068.39592080068,0.0,0.0,0.0,193.0,0.0,194.0,0.0,0.0,0.0,179.0,194.0,0.0,179.0,1744420343.6913366,0.0,2025-04-11 21:12:23.691,STOP,6
202.0,28203.274691495266,30478.682277045522,-32144.736605255202,-29683.809540725895,-36356.54286820208,-32326.188066743383,-6530.91150890726,-38050.46982174752,0.0,0.0,0.0,193.0,0.0,194.0,0.0,0.0,0.0,179.0,194.0,0.0,179.0,1744420343.69138,0.0,2025-04-11 21:12:23.691,STOP,6
203.0,28224.24062779434,30476.447102599992,-32171.93867825731,-29701.93680547915,-36382.96263014825,-32362.576706716623,-6161.772449227864,-38061.10925210825,0.0,0.0,0.0,193.0,0.0,194.0,0.0,0.0,0.0,179.0,194.0,0.0,179.0,1744420343.691423,0.0,2025-04-11 21:12:23.691,STOP,6
204.0,28224.978235361366,30454.989427922897,-32186.243794708706,-29727.93188428067,-36396.37367682144,-32376.658305723467,-5979.561028428201,-38112.898244011194,0.0,0.0,0.0,193.0,0.0,193.0,0.0,0.0,0.0,179.0,193.0,0.0,179.0,1744420343.6914804,0.0,2025-04-11 21:12:23.691,STOP,6
205.0,28202.604139161605,30457.157547135062,-32169.591745089503,-29709.335232893853,-36378.69344695729,-32348.74097689879,-6300.643837528687,-38086.23261287601,0.0,0.0,0.0,193.0,0.0,194.0,0.0,0.0,0.0,179.0,194.0,0.0,179.0,1744420343.6915236,0.0,2025-04-11 21:12:23.691,STOP,6
206.0,28185.952089542403,30473.139044420608,-32164.450843864783,-29702.83087525736,-36375.05011261107,-32344.11416579654,-6561.354584855389,-38084.0868454083,0.0,0.0,0.0,193.0,0.0,193.0,0.0,0.0,0.0,179.0,193.0,0.0,179.0,1744420343.6915667,0.0,2025-04-11 21:12:23.691,STOP,6
207.0,28218.87620912507,30486.907719005078,-32165.724893298735,-29702.54030257944,-36379.05107486857,-32362.621410205535,-6291.7031397465635,-38080.488214551,0.0,0.0,0.0,193.0,0.0,193.0,0.0,0.0,0.0,179.0,193.0,0.0,179.0,1744420343.69161,0.0,2025-04-11 21:12:23.691,STOP,6
208.0,28234.58948547715,30456.73286399041,-32185.08150399703,-29728.915361036703,-36400.06171465656,-32385.286079083216,-5974.710699881399,-38118.083848724826,0.0,0.0,0.0,193.0,0.0,193.0,0.0,0.0,0.0,179.0,193.0,0.0,179.0,1744420343.6916528,0.0,2025-04-11 21:12:23.691,STOP,6
209.0,28212.841238122135,30442.517154516838,-32179.00182950519,-29717.583026597862,-36391.612755252456,-32359.82744214862,-6241.814046122318,-38092.33463911231,0.0,0.0,0.0,193.0,0.0,193.0,0.0,0.0,0.0,179.0,193.0,0.0,179.0,1744420343.6916957,0.0,2025-04-11 21:12:23.691,STOP,6
210.0,28191.025935533755,30459.97386693643,-32165.9931142322,-29701.869750245784,-36371.183260820304,-32341.431956461904,-6532.945517652693,-38064.99845564347,0.0,0.0,0.0,193.0,0.0,193.0,0.0,0.0,0.0,179.0,193.0,0.0,179.0,1744420343.691753,0.0,2025-04-11 21:12:23.691,STOP,6
211.0,28212.885941611046,30471.373256608636,-32168.720027055744,-29697.466456588085,-36383.25320282617,-32352.943104856386,-6359.451277190599,-38064.37260679872,0.0,0.0,0.0,193.0,0.0,193.0,0.0,0.0,0.0,179.0,193.0,0.0,179.0,1744420343.6917963,0.0,2025-04-11 21:12:23.691,STOP,6
212.0,28237.226991322877,30464.22069838294,-32189.730666843734,-29723.662701089706,-36409.87413047244,-32377.373561546035,-5971.179124257461,-38097.69905778159,0.0,0.0,0.0,193.0,0.0,193.0,0.0,0.0,0.0,178.0,193.0,0.0,178.0,1744420343.6918395,0.0,2025-04-11 21:12:23.691,STOP,6
213.0,28215.970482345878,30447.903924930564,-32180.78996906161,-29715.32550040788,-36393.04326689759,-32361.07913983812,-6180.570266314777,-38097.92257522614,0.0,0.0,0.0,193.0,0.0,193.0,0.0,0.0,0.0,179.0,193.0,0.0,179.0,1744420343.6918824,0.0,2025-04-11 21:12:23.691,STOP,6
214.0,28192.165874500977,30467.282887373316,-32168.9435445003,-29698.807561255406,-36381.21919408074,-32345.969360586332,-6500.602543425864,-38087.99840068798,0.0,0.0,0.0,193.0,0.0,193.0,0.0,0.0,0.0,178.0,193.0,0.0,178.0,1744420343.691939,0.0,2025-04-11 21:12:23.691,STOP,6
215.0,28208.23677876434,30477.922317734043,-32162.774463030633,-29689.308069861898,-36376.4359207673,-32344.605904174558,-6447.003060222038,-38080.91289769565,0.0,0.0,0.0,193.0,0.0,193.0,0.0,0.0,0.0,179.0,193.0,0.0,179.0,1744420343.6919825,0.0,2025-04-11 21:12:23.691,STOP,6
216.0,28235.77412793328,30470.367428108148,-32189.149521487896,-29715.660776574707,-36403.03449666912,-32370.399817275982,-5983.18201102996,-38084.10919715276,0.0,0.0,0.0,193.0,0.0,193.0,0.0,0.0,0.0,178.0,193.0,0.0,178.0,1744420343.6920252,0.0,2025-04-11 21:12:23.692,STOP,6
217.0,28221.044328337233,30450.16145112055,-32183.919213285353,-29719.304110920923,-36396.50778728817,-32364.096625339585,-6119.5947074406995,-38112.18298818862,0.0,0.0,0.0,193.0,0.0,193.0,0.0,0.0,0.0,179.0,193.0,0.0,179.0,1744420343.692068,0.0,2025-04-11 21:12:23.692,STOP,6
218.0,28191.495322167317,30457.26930585734,-32174.866756780957,-29703.59083456884,-36381.398008036376,-32353.07721532312,-6450.266414912512,-38098.30255488188,0.0,0.0,0.0,193.0,0.0,193.0,0.0,0.0,0.0,179.0,193.0,0.0,179.0,1744420343.6921108,0.0,2025-04-11 21:12:23.692,STOP,6
219.0,28200.100743782612,30466.947611206488,-32166.03781772111,-29693.800770497415,-36372.56906897653,-32346.4834507088,-6506.816328384439,-38090.83707223381,0.0,0.0,0.0,193.0,0.0,193.0,0.0,0.0,0.0,178.0,193.0,0.0,178.0,1744420343.6921673,0.0,2025-04-11 21:12:23.692,STOP,6
220.0,28227.660444696005,30470.74740776389,-32189.50714939918,-29715.12433470778,-36403.07920015803,-32371.763273687757,-6034.3675058326135,-38081.24817386248,0.0,0.0,0.0,193.0,0.0,193.0,0.0,0.0,0.0,179.0,193.0,0.0,179.0,1744420343.6922102,0.0,2025-04-11 21:12:23.692,STOP,6
221.0,28223.50302022732,30453.558916277758,-32182.13107372893,-29718.231227187065,-36398.47474080024,-32362.397892760982,-6068.67743357151,-38106.66210730816,0.0,0.0,0.0,193.0,0.0,193.0,0.0,0.0,0.0,179.0,193.0,0.0,179.0,1744420343.692253,0.0,2025-04-11 21:12:23.692,STOP,6
222.0,28188.29902271021,30456.710512245958,-32177.772483560144,-29705.043697958434,-36392.95385991977,-32351.87022112253,-6398.343312542834,-38089.36185709976,0.0,0.0,0.0,193.0,0.0,193.0,0.0,0.0,0.0,179.0,193.0,0.0,179.0,1744420343.692296,0.0,2025-04-11 21:12:23.692,STOP,6
223.0,28188.43313317694,30468.534585062815,-32163.713236297757,-29689.933918706647,-36382.5379470036,-32337.654511648958,-6551.25159636159,-38089.20539488857,0.0,0.0,0.0,193.0,0.0,193.0,0.0,0.0,0.0,179.0,193.0,0.0,179.0,1744420343.6923387,0.0,2025-04-11 21:12:23.692,STOP,6
224.0,28218.71974691388,30469.808634496767,-32180.477044639236,-29698.02525019947,-36405.82846472603,-32364.521308484236,-6128.334239522725,-38083.8409762193,0.0,0.0,0.0,193.0,0.0,194.0,0.0,0.0,0.0,179.0,194.0,0.0,179.0,1744420343.6923816,0.0,2025-04-11 21:12:23.692,STOP,6
225.0,28216.551627701716,30448.97680866442,-32184.7462278302,-29712.59858758433,-36403.9956216807,-32374.736055700312,-6041.34125010267,-38129.59499711931,0.0,0.0,0.0,193.0,0.0,194.0,0.0,0.0,0.0,179.0,194.0,0.0,179.0,1744420343.6924384,0.0,2025-04-11 21:12:23.692,STOP,6
226.0,28184.968612786368,30447.009855152355,-32178.89007078291,-29696.103000176314,-36393.19972910878,-32358.061654336652,-6333.500901877988,-38092.37934260123,0.0,0.0,0.0,193.0,0.0,194.0,0.0,0.0,0.0,179.0,194.0,0.0,179.0,1744420343.6924815,0.0,2025-04-11 21:12:23.692,STOP,6
227.0,28177.704295838394,30461.89611695959,-32161.36630312995,-29682.06610465838,-36378.06759811254,-32345.58938093059,-6552.123314395347,-38086.03144717592,0.0,0.0,0.0,193.0,0.0,194.0,0.0,0.0,0.0,179.0,194.0,0.0,179.0,1744420343.6925244,0.0,2025-04-11 21:12:23.692,STOP,6
228.0,28207.76739213078,30470.210965896964,-32168.854137522478,-29683.563671536886,-36390.204595351766,-32365.59419221809,-6211.795653318841,-38079.92942093962,0.0,0.0,0.0,193.0,0.0,193.0,0.0,0.0,0.0,179.0,193.0,0.0,179.0,1744420343.692567,0.0,2025-04-11 21:12:23.692,STOP,6
229.0,28216.551627701716,30444.864087684644,-32181.125245228443,-29708.575273582373,-36402.989793180204,-32380.16752960295,-5995.296656524737,-38125.012889505975,0.0,0.0,0.0,193.0,0.0,193.0,0.0,0.0,0.0,179.0,193.0,0.0,179.0,1744420343.6926236,0.0,2025-04-11 21:12:23.692,STOP,6
230.0,28194.24458673532,30441.64543648308,-32165.009637476163,-29689.509235561996,-36381.97915339222,-32354.150099056973,-6284.483526287499,-38096.73793277001,0.0,0.0,0.0,193.0,0.0,193.0,0.0,0.0,0.0,179.0,193.0,0.0,179.0,1744420343.6926672,0.0,2025-04-11 21:12:23.692,STOP,6
231.0,28174.060961492178,30449.937933676,-32160.248715907186,-29682.62489826976,-36375.385388777904,-32348.651569920967,-6540.612166000863,-38091.59703154529,0.0,0.0,0.0,193.0,0.0,194.0,0.0,0.0,0.0,179.0,194.0,0.0,179.0,1744420343.69271,0.0,2025-04-11 21:12:23.692,STOP,6
232.0,28197.9549763149,30450.608486009656,-32169.390579389405,-29686.022363426968,-36385.82365343853,-32361.012084604754,-6282.7177384755305,-38073.335656325304,0.0,0.0,0.0,193.0,0.0,193.0,0.0,0.0,0.0,179.0,193.0,0.0,179.0,1744420343.692753,0.0,2025-04-11 21:12:23.692,STOP,6
233.0,28225.35821501711,30447.8368696972,-32173.7938730471,-29696.125351920768,-36394.07144714254,-32365.16950907344,-5967.200513744416,-38090.255926877966,0.0,0.0,0.0,193.0,0.0,193.0,0.0,0.0,0.0,179.0,193.0,0.0,179.0,1744420343.692796,0.0,2025-04-11 21:12:23.692,STOP,6
234.0,28201.173627516466,30439.41026203755,-32167.535384599614,-29686.82702622736,-36388.90819417336,-32351.69140716689,-6231.599298906243,-38099.420142104645,0.0,0.0,0.0,193.0,0.0,193.0,0.0,0.0,0.0,179.0,193.0,0.0,179.0,1744420343.6928833,0.0,2025-04-11 21:12:23.692,STOP,6
235.0,28178.464255149873,30454.02830291132,-32158.773500773135,-29675.137063877235,-36381.599173736475,-32343.041282062684,-6536.298279320989,-38090.99353444499,0.0,0.0,0.0,193.0,0.0,193.0,0.0,0.0,0.0,179.0,193.0,0.0,179.0,1744420343.6929271,0.0,2025-04-11 21:12:23.692,STOP,6
236.0,28200.368964716075,30463.103111160173,-32158.058244950564,-29669.616182996775,-36381.398008036376,-32347.10929955355,-6382.78649840194,-38066.563077755345,0.0,0.0,0.0,193.0,0.0,193.0,0.0,0.0,0.0,179.0,193.0,0.0,179.0,1744420343.692989,0.0,2025-04-11 21:12:23.692,STOP,6
237.0,28228.375700518573,30459.705646002967,-32173.905631769376,-29687.96696519458,-36399.41351406735,-32371.048017865185,-5966.440554432936,-38091.84290073429,0.0,0.0,0.0,193.0,0.0,193.0,0.0,0.0,0.0,179.0,193.0,0.0,179.0,1744420343.6930327,0.0,2025-04-11 21:12:23.693,STOP,6
238.0,28204.749906629313,30445.378177807117,-32171.55869860157,-29687.49757856102,-36401.8945577019,-32365.638895707,-6173.797687744819,-38121.078982481835,0.0,0.0,0.0,193.0,0.0,193.0,0.0,0.0,0.0,179.0,193.0,0.0,179.0,1744420343.6930757,0.0,2025-04-11 21:12:23.693,STOP,6
239.0,28184.499226152806,30466.008837939364,-32151.08450068051,-29662.933011404635,-36383.141444103894,-32337.87802909351,-6515.198232555179,-38089.36185709976,0.0,0.0,0.0,193.0,0.0,193.0,0.0,0.0,0.0,179.0,193.0,0.0,179.0,1744420343.6931188,0.0,2025-04-11 21:12:23.693,STOP,6
240.0,28196.323298969663,30468.82515774073,-32151.55388731407,-29660.67548521465,-36385.2872115716,-32344.091814052084,-6465.398545908755,-38072.46393829155,0.0,0.0,0.0,193.0,0.0,193.0,0.0,0.0,0.0,179.0,193.0,0.0,179.0,1744420343.6931815,0.0,2025-04-11 21:12:23.693,STOP,6
241.0,28230.00737786381,30466.277058872827,-32171.402236390382,-29681.417904069174,-36408.01893568265,-32373.953744644376,-6002.248049050338,-38092.93813621261,0.0,0.0,0.0,193.0,0.0,194.0,0.0,0.0,0.0,179.0,194.0,0.0,179.0,1744420343.693225,0.0,2025-04-11 21:12:23.693,STOP,6
242.0,28216.886903868548,30446.27224758533,-32165.83665202101,-29683.11663664778,-36397.4912640442,-32362.97903811682,-6122.232213286426,-38120.654299337184,0.0,0.0,0.0,193.0,0.0,193.0,0.0,0.0,0.0,179.0,193.0,0.0,179.0,1744420343.6932676,0.0,2025-04-11 21:12:23.693,STOP,6
243.0,28187.650822121006,30456.911677946053,-32155.644256549393,-29666.509290517486,-36388.77408370663,-32340.627293661513,-6453.909749258727,-38090.36768560025,0.0,0.0,0.0,193.0,0.0,194.0,0.0,0.0,0.0,179.0,194.0,0.0,179.0,1744420343.6933105,0.0,2025-04-11 21:12:23.693,STOP,6
244.0,28197.82086584817,30471.417960097548,-32141.093270908987,-29652.897078144204,-36380.66040046935,-32328.311482466637,-6538.8240264444385,-38076.844880204786,0.0,0.0,0.0,193.0,0.0,194.0,0.0,0.0,0.0,179.0,194.0,0.0,179.0,1744420343.6933734,0.0,2025-04-11 21:12:23.693,STOP,6
245.0,28232.24255230934,30470.680352530522,-32158.08059669502,-29668.140967862724,-36396.01604891015,-32358.128709570017,-6063.894160258074,-38068.21710684503,0.0,0.0,0.0,193.0,0.0,193.0,0.0,0.0,0.0,179.0,193.0,0.0,179.0,1744420343.6934168,0.0,2025-04-11 21:12:23.693,STOP,6
246.0,28226.520505728782,30452.26251509935,-32158.259410650662,-29679.674468001664,-36393.02091515314,-32356.9887706028,-6048.762029261831,-38098.5931275598,0.0,0.0,0.0,193.0,0.0,193.0,0.0,0.0,0.0,179.0,193.0,0.0,179.0,1744420343.69346,0.0,2025-04-11 21:12:23.693,STOP,6
247.0,28196.52446466976,30456.73286399041,-32153.25261989267,-29669.124444618756,-36388.39410405089,-32347.578686187113,-6384.440527491633,-38088.020752432436,0.0,0.0,0.0,193.0,0.0,194.0,0.0,0.0,0.0,179.0,194.0,0.0,179.0,1744420343.6935852,0.0,2025-04-11 21:12:23.693,STOP,6
248.0,28199.139618771034,30469.294544374294,-32138.12048889643,-29655.132252589734,-36374.06663585504,-32335.419337203424,-6560.3487563549,-38081.71756049604,0.0,0.0,0.0,193.0,0.0,194.0,0.0,0.0,0.0,179.0,194.0,0.0,179.0,1744420343.6936345,0.0,2025-04-11 21:12:23.693,STOP,6
249.0,28229.38152901906,30473.519024076348,-32156.091291438497,-29667.269249828965,-36391.70216223028,-32360.11801482654,-6131.26231804637,-38066.71953996653,0.0,0.0,0.0,193.0,0.0,193.0,0.0,0.0,0.0,179.0,193.0,0.0,179.0,1744420343.6938825,0.0,2025-04-11 21:12:23.693,STOP,6
250.0,28232.73429068736,30460.46560531445,-32161.07573045203,-29684.837720970838,-36397.267746599646,-32367.807014919166,-6030.4335988084795,-38115.17812194564,0.0,0.0,0.0,193.0,0.0,194.0,0.0,0.0,0.0,179.0,194.0,0.0,179.0,1744420343.6939273,0.0,2025-04-11 21:12:23.693,STOP,6
251.0,28199.407839704498,30448.350959819672,-32153.610247803957,-29671.49372953102,-36385.8907086719,-32351.378482744516,-6354.668003877164,-38097.252022892484,0.0,0.0,0.0,193.0,0.0,193.0,0.0,0.0,0.0,179.0,193.0,0.0,179.0,1744420343.6939707,0.0,2025-04-11 21:12:23.693,STOP,6
252.0,28189.39425818852,30463.818366982745,-32135.728852239714,-29649.834889153826,-36368.746920674675,-32329.943159811875,-6577.358433885388,-38070.9887231575,0.0,0.0,0.0,193.0,0.0,193.0,0.0,0.0,0.0,178.0,193.0,0.0,178.0,1744420343.694028,0.0,2025-04-11 21:12:23.694,STOP,6
253.0,28214.852895123113,30466.18765189501,-32153.856116992967,-29661.189575337125,-36385.8907086719,-32356.519383969237,-6223.306801713325,-38068.59708650078,0.0,0.0,0.0,193.0,0.0,193.0,0.0,0.0,0.0,179.0,193.0,0.0,179.0,1744420343.69407,0.0,2025-04-11 21:12:23.694,STOP,6
254.0,28219.09972656962,30444.97584640692,-32170.843442779,-29687.452875072107,-36399.838197212004,-32372.344419043595,-5998.783528659765,-38115.87102602375,0.0,0.0,0.0,193.0,0.0,193.0,0.0,0.0,0.0,178.0,193.0,0.0,178.0,1744420343.6941116,0.0,2025-04-11 21:12:23.694,STOP,6
255.0,28191.987060545336,30438.806764937257,-32166.50720435467,-29677.036962155937,-36394.07144714254,-32357.569915958637,-6288.976226923016,-38106.57270033034,0.0,0.0,0.0,193.0,0.0,193.0,0.0,0.0,0.0,178.0,193.0,0.0,178.0,1744420343.6941788,0.0,2025-04-11 21:12:23.694,STOP,6
0.0,28184.409819174984,30462.87959371562,-32145.87654422242,-29654.841679911817,-36378.469929512736,-32332.133630768494,-6578.498372852609,-38091.12764491173,0.0,0.0,0.0,193.0,0.0,193.0,0.0,0.0,0.0,179.0,193.0,0.0,179.0,1744420343.6942208,0.0,2025-04-11 21:12:23.694,STOP,6
1.0,28209.24260726483,30462.477262315428,-32152.626771047926,-29652.427691510642,-36388.01412439515,-32341.029625061707,-6332.875053033239,-38066.831298688805,0.0,0.0,0.0,193.0,0.0,193.0,0.0,0.0,0.0,178.0,193.0,0.0,178.0,1744420343.6942625,0.0,2025-04-11 21:12:23.694,STOP,6
2.0,28231.214372064398,30451.010817409853,-32169.055303222576,-29676.835796455838,-36401.045191412595,-32365.147157328985,-5988.389967488047,-38113.881720767225,0.0,0.0,0.0,193.0,0.0,193.0,0.0,0.0,0.0,179.0,193.0,0.0,179.0,1744420343.6943045,0.0,2025-04-11 21:12:23.694,STOP,6
3.0,28202.11240078359,30439.142041104085,-32169.74820730069,-29673.237165598533,-36400.8440257125,-32351.87022112253,-6240.160017032626,-38112.09358121081,0.0,0.0,0.0,193.0,0.0,193.0,0.0,0.0,0.0,179.0,193.0,0.0,179.0,1744420343.6943643,0.0,2025-04-11 21:12:23.694,STOP,6
4.0,28180.76648482877,30459.61623902515,-32155.331332127018,-29654.774624678448,-36384.66136272685,-32324.48933416478,-6550.2681196055555,-38063.74675795397,0.0,0.0,0.0,193.0,0.0,193.0,0.0,0.0,0.0,179.0,193.0,0.0,179.0,1744420343.6944067,0.0,2025-04-11 21:12:23.694,STOP,6
5.0,28197.843217592625,30462.70077975998,-32156.448919349783,-29654.126424089245,-36386.11422611645,-32338.839154105088,-6422.7737692324845,-38066.3842637997,0.0,0.0,0.0,193.0,0.0,193.0,0.0,0.0,0.0,179.0,193.0,0.0,179.0,1744420343.6944487,0.0,2025-04-11 21:12:23.694,STOP,6
6.0,28223.63713069405,30451.144927876587,-32177.37015215995,-29680.680296502152,-36406.834293226515,-32370.153948086972,-6002.359807772614,-38103.890490995705,0.0,0.0,0.0,193.0,0.0,193.0,0.0,0.0,0.0,179.0,193.0,0.0,179.0,1744420343.69449,0.0,2025-04-11 21:12:23.694,STOP,6
7.0,28196.703278625406,30427.854410154156,-32178.778312060633,-29683.474264559063,-36409.74002000571,-32361.012084604754,-6202.139699714148,-38119.98374700353,0.0,0.0,0.0,193.0,0.0,194.0,0.0,0.0,0.0,180.0,194.0,0.0,180.0,1744420343.694532,0.0,2025-04-11 21:12:23.694,STOP,6
8.0,28168.96476375637,30443.72414871742,-32169.100006711487,-29670.01851439697,-36398.27357510014,-32341.92369483992,-6537.7064392216735,-38094.63686879121,0.0,0.0,0.0,193.0,0.0,194.0,0.0,0.0,0.0,180.0,194.0,0.0,180.0,1744420343.6945908,0.0,2025-04-11 21:12:23.694,STOP,6
9.0,28189.371906444063,30461.426730326028,-32154.638428048904,-29656.763929934972,-36376.48062425621,-32338.481526193802,-6508.738578407595,-38077.06839764934,0.0,0.0,0.0,193.0,0.0,194.0,0.0,0.0,0.0,179.0,194.0,0.0,179.0,1744420343.6946747,0.0,2025-04-11 21:12:23.694,STOP,6
10.0,28221.334901015154,30460.867936714643,-32178.219518449252,-29681.484959302543,-36402.20748212427,-32369.97513413133,-6019.302430069737,-38087.193737887595,0.0,0.0,0.0,193.0,0.0,193.0,0.0,0.0,0.0,179.0,193.0,0.0,179.0,1744420343.6947184,0.0,2025-04-11 21:12:23.694,STOP,6
11.0,28212.550665444218,30444.327645817717,-32170.46346312326,-29680.076799401857,-36396.12780763242,-32354.328913012614,-6127.149597066593,-38109.746648042994,0.0,0.0,0.0,193.0,0.0,194.0,0.0,0.0,0.0,180.0,194.0,0.0,180.0,1744420343.6947615,0.0,2025-04-11 21:12:23.694,STOP,6
12.0,28184.18630173043,30456.17407037903,-32159.01936996214,-29661.144871848213,-36384.99663889368,-32337.02866280421,-6460.771734806506,-38088.24426987699,0.0,0.0,0.0,193.0,0.0,193.0,0.0,0.0,0.0,179.0,193.0,0.0,179.0,1744420344.168074,0.0,2025-04-11 21:12:24.168,STOP,6
13.0,28187.181435487444,30461.493785559393,-32152.51501232565,-29655.28871480092,-36380.839214424996,-32336.738090126288,-6547.7423724821065,-38084.802101230875,0.0,0.0,0.0,193.0,0.0,193.0,0.0,0.0,0.0,179.0,193.0,0.0,179.0,1744420344.1681857,0.0,2025-04-11 21:12:24.168,STOP,6
14.0,28218.004491091313,30464.51127106086,-32172.542175357605,-29673.1030551318,-36398.9888309227,-32369.952782386874,-6096.68416937401,-38096.17913915862,0.0,0.0,0.0,193.0,0.0,193.0,0.0,0.0,0.0,179.0,193.0,0.0,179.0,1744420344.1683927,0.0,2025-04-11 21:12:24.168,STOP,6
15.0,28209.756697387304,30443.36652080614,-32180.074713239042,-29692.526721063463,-36402.11807514645,-32378.6923144689,-6100.215744997949,-38145.755308360494,0.0,0.0,0.0,193.0,0.0,194.0,0.0,0.0,0.0,179.0,194.0,0.0,179.0,1744420344.168456,0.0,2025-04-11 21:12:24.168,STOP,6
16.0,28180.073580750657,30451.301390087774,-32172.586878846512,-29678.333363334343,-36391.813920952554,-32357.525212469725,-6427.445283823644,-38111.378325388236,0.0,0.0,0.0,193.0,0.0,193.0,0.0,0.0,0.0,179.0,193.0,0.0,179.0,1744420344.168509,0.0,2025-04-11 21:12:24.168,STOP,6
17.0,28177.726647582847,30456.576401779224,-32155.420739104837,-29664.09530211631,-36368.38929276339,-32341.901343095466,-6569.267102392567,-38082.67868550762,0.0,0.0,0.0,193.0,0.0,193.0,0.0,0.0,0.0,179.0,193.0,0.0,179.0,1744420344.1685672,0.0,2025-04-11 21:12:24.168,STOP,6
18.0,28200.145447271523,30448.418015053037,-32178.264221938163,-29681.797883724917,-36393.266784342144,-32373.97609638883,-6150.93185316704,-38085.852633220275,0.0,0.0,0.0,193.0,0.0,194.0,0.0,0.0,0.0,179.0,194.0,0.0,179.0,1744420344.1687255,0.0,2025-04-11 21:12:24.168,STOP,6
19.0,28203.34174672863,30430.64837821107,-32181.03583825062,-29694.87365423127,-36391.83627269701,-32375.7418842008,-6037.027363422795,-38124.27528193895,0.0,0.0,0.0,193.0,0.0,193.0,0.0,0.0,0.0,179.0,193.0,0.0,179.0,1744420344.1688275,0.0,2025-04-11 21:12:24.168,STOP,6
20.0,28171.49051087982,30428.16733457653,-32175.403198647884,-29680.702648246606,-36386.985944150205,-32361.570878216135,-6349.102419507793,-38109.38902013171,0.0,0.0,0.0,193.0,0.0,193.0,0.0,0.0,0.0,179.0,193.0,0.0,179.0,1744420344.1689343,0.0,2025-04-11 21:12:24.168,STOP,6
21.0,28159.53232759623,30444.618218495634,-32163.98145723122,-29666.665752728673,-36380.61569698044,-32351.132613555506,-6600.268971952078,-38109.36666838726,0.0,0.0,0.0,193.0,0.0,193.0,0.0,0.0,0.0,179.0,193.0,0.0,179.0,1744420344.1690235,0.0,2025-04-11 21:12:24.169,STOP,6
22.0,28198.714935626384,30454.095358144685,-32163.80264327558,-29658.95440089159,-36384.70606621577,-32358.307523525662,-6274.7381657049855,-38083.66216226365,0.0,0.0,0.0,193.0,0.0,193.0,0.0,0.0,0.0,178.0,193.0,0.0,178.0,1744420344.1691267,0.0,2025-04-11 21:12:24.169,STOP,6
23.0,28211.947168343922,30438.806764937257,-32175.09027422551,-29681.373200580267,-36396.37367682144,-32370.958610887363,-6007.165432830505,-38116.00513649049,0.0,0.0,0.0,193.0,0.0,194.0,0.0,0.0,0.0,179.0,194.0,0.0,179.0,1744420344.1693196,0.0,2025-04-11 21:12:24.169,STOP,6
24.0,28187.136731998533,30437.26449456984,-32170.865794523455,-29672.454854542597,-36391.43394129681,-32354.619485690535,-6288.19391586708,-38109.09844745379,0.0,0.0,0.0,193.0,0.0,193.0,0.0,0.0,0.0,179.0,193.0,0.0,179.0,1744420344.1694329,0.0,2025-04-11 21:12:24.169,STOP,6
25.0,28173.815092303168,30455.771738978834,-32156.13599492741,-29654.416996767166,-36379.60986847995,-32334.704081380856,-6585.270951422567,-38104.78456077392,0.0,0.0,0.0,193.0,0.0,193.0,0.0,0.0,0.0,180.0,193.0,0.0,180.0,1744420344.1695557,0.0,2025-04-11 21:12:24.169,STOP,6
26.0,28196.189188502933,30454.676503500523,-32167.445977621792,-29658.10503460229,-36397.04422915509,-32353.747767656776,-6370.716556396074,-38108.6961160536,0.0,0.0,0.0,193.0,0.0,193.0,0.0,0.0,0.0,179.0,193.0,0.0,179.0,1744420344.1697044,0.0,2025-04-11 21:12:24.169,STOP,6
27.0,28215.59050269014,30444.707625473457,-32182.17577721784,-29677.238127856035,-36417.049040442595,-32366.26474455175,-6024.018648149807,-38120.676651081645,0.0,0.0,0.0,193.0,0.0,193.0,0.0,0.0,0.0,179.0,193.0,0.0,179.0,1744420344.1697755,0.0,2025-04-11 21:12:24.169,STOP,6
28.0,28191.405915189498,30432.54827648977,-32173.570355602547,-29669.079741129848,-36406.141389148404,-32350.797337388678,-6266.982110378995,-38119.201435947594,0.0,0.0,0.0,193.0,0.0,193.0,0.0,0.0,0.0,182.0,193.0,0.0,182.0,1744420344.1698291,0.0,2025-04-11 21:12:24.169,STOP,6
29.0,28173.703333580892,30455.235297111907,-32150.391596602392,-29642.3470547613,-36377.888784156894,-32319.259025962238,-6557.465381320165,-38065.66900797713,0.0,0.0,0.0,193.0,0.0,193.0,0.0,0.0,0.0,180.0,193.0,0.0,180.0,1744420344.1700306,0.0,2025-04-11 21:12:24.170,STOP,6
30.0,28193.328165212653,30462.27609661533,-32148.379939601415,-29638.346092503798,-36384.54960400458,-32331.7312993683,-6429.278126868979,-38061.042196874885,0.0,0.0,0.0,193.0,0.0,193.0,0.0,0.0,0.0,180.0,193.0,0.0,180.0,1744420344.170087,0.0,2025-04-11 21:12:24.170,STOP,6
31.0,28208.929682842456,30449.11091913115,-32180.36528591696,-29676.0534853999,-36419.53008407713,-32374.31137255566,-6005.824328163187,-38108.427895120134,0.0,0.0,0.0,193.0,0.0,194.0,0.0,0.0,0.0,180.0,194.0,0.0,180.0,1744420344.170135,0.0,2025-04-11 21:12:24.170,STOP,6
32.0,28196.658575136495,30442.40539579456,-32167.311867155062,-29666.509290517486,-36406.72253450424,-32355.06652057964,-6204.307818926313,-38127.31511918487,0.0,0.0,0.0,193.0,0.0,194.0,0.0,0.0,0.0,179.0,194.0,0.0,179.0,1744420344.1701818,0.0,2025-04-11 21:12:24.170,STOP,6
33.0,28179.224214461356,30463.728960004923,-32149.9892652022,-29646.72799667454,-36389.33287731801,-32331.172505756917,-6535.58302349842,-38093.116950168245,0.0,0.0,0.0,193.0,0.0,193.0,0.0,0.0,0.0,179.0,193.0,0.0,179.0,1744420344.1702478,0.0,2025-04-11 21:12:24.170,STOP,6
34.0,28200.43601994944,30474.569556065748,-32137.718157496234,-29638.547258203896,-36372.39025502089,-32327.752688855257,-6516.516985478042,-38072.01690340244,0.0,0.0,0.0,193.0,0.0,194.0,0.0,0.0,0.0,179.0,194.0,0.0,179.0,1744420344.1702921,0.0,2025-04-11 21:12:24.170,STOP,6
35.0,28226.09582258413,30465.651210028078,-32162.774463030633,-29665.034075383435,-36396.03840065461,-32360.49799448228,-6034.836892466175,-38076.688417993595,0.0,0.0,0.0,193.0,0.0,193.0,0.0,0.0,0.0,179.0,193.0,0.0,179.0,1744420344.1703353,0.0,2025-04-11 21:12:24.170,STOP,6
36.0,28209.82375262067,30444.886439429098,-32167.311867155062,-29675.785264466438,-36399.30175534508,-32359.626276448522,-6129.78710291232,-38113.5464446004,0.0,0.0,0.0,193.0,0.0,194.0,0.0,0.0,0.0,179.0,194.0,0.0,179.0,1744420344.1703787,0.0,2025-04-11 21:12:24.170,STOP,6
37.0,28180.29709819521,30451.480204043415,-32157.722968783735,-29659.088511358324,-36388.10353137297,-32341.566066928634,-6469.80183956645,-38090.5912030448,0.0,0.0,0.0,193.0,0.0,194.0,0.0,0.0,0.0,180.0,194.0,0.0,180.0,1744420344.1704228,0.0,2025-04-11 21:12:24.170,STOP,6
38.0,28186.265013964778,30455.436462812006,-32147.709387267758,-29648.359674019775,-36377.82172892353,-32335.844020348075,-6560.371108099354,-38083.81862447484,0.0,0.0,0.0,193.0,0.0,194.0,0.0,0.0,0.0,180.0,194.0,0.0,180.0,1744420344.1704893,0.0,2025-04-11 21:12:24.170,STOP,6
39.0,28216.126944557065,30451.279038343317,-32173.07861722453,-29669.459720785588,-36405.98492693721,-32373.909041155464,-6105.222535755937,-38096.73793277001,0.0,0.0,0.0,193.0,0.0,194.0,0.0,0.0,0.0,179.0,194.0,0.0,179.0,1744420344.170534,0.0,2025-04-11 21:12:24.170,STOP,6
40.0,28211.47778171036,30431.989482878387,-32171.402236390382,-29681.39555232472,-36407.34838334899,-32371.271535309737,-6102.316808976747,-38139.541523401924,0.0,0.0,0.0,193.0,0.0,194.0,0.0,0.0,0.0,179.0,194.0,0.0,179.0,1744420344.170585,0.0,2025-04-11 21:12:24.170,STOP,6
41.0,28184.20865347489,30440.192573093485,-32154.571372815535,-29660.25080207,-36386.78477845011,-32339.576761672113,-6416.559984273909,-38089.47361582203,0.0,0.0,0.0,193.0,0.0,194.0,0.0,0.0,0.0,179.0,194.0,0.0,179.0,1744420344.170628,0.0,2025-04-11 21:12:24.170,STOP,6
42.0,28175.446769648406,30450.56378252075,-32146.100061666973,-29651.712435688074,-36377.15117658987,-32335.709909881345,-6587.148497956812,-38087.48431056551,0.0,0.0,0.0,193.0,0.0,193.0,0.0,0.0,0.0,179.0,193.0,0.0,179.0,1744420344.1706717,0.0,2025-04-11 21:12:24.170,STOP,6
43.0,28203.878188595558,30456.531698290313,-32163.646181064392,-29661.770720692963,-36397.088932644,-32355.06652057964,-6183.5206965828775,-38078.5883162723,0.0,0.0,0.0,193.0,0.0,193.0,0.0,0.0,0.0,179.0,193.0,0.0,179.0,1744420344.1707149,0.0,2025-04-11 21:12:24.170,STOP,6
44.0,28209.264959009288,30440.997235893876,-32170.619925334446,-29676.344058077822,-36401.87220595744,-32359.380407259516,-6047.979718205896,-38119.55906385888,0.0,0.0,0.0,193.0,0.0,193.0,0.0,0.0,0.0,179.0,193.0,0.0,179.0,1744420344.1707752,0.0,2025-04-11 21:12:24.170,STOP,6
45.0,28177.77135107176,30439.16439284854,-32166.775425288135,-29665.123482361258,-36387.611792994954,-32350.372654244027,-6353.908044565684,-38106.907976497176,0.0,0.0,0.0,193.0,0.0,193.0,0.0,0.0,0.0,178.0,193.0,0.0,178.0,1744420344.170819,0.0,2025-04-11 21:12:24.170,STOP,6
46.0,28165.880223021537,30452.709549988456,-32151.442128591792,-29651.86889789926,-36367.42816775181,-32334.838191847586,-6587.237904934634,-38095.59799380279,0.0,0.0,0.0,193.0,0.0,193.0,0.0,0.0,0.0,179.0,193.0,0.0,179.0,1744420344.170862,0.0,2025-04-11 21:12:24.170,STOP,6
47.0,28198.58082515965,30455.12353838963,-32159.60051531798,-29652.80767116638,-36378.13465334591,-32344.02475881872,-6274.492296515978,-38066.47367077752,0.0,0.0,0.0,193.0,0.0,193.0,0.0,0.0,0.0,179.0,193.0,0.0,179.0,1744420344.1709049,0.0,2025-04-11 21:12:24.170,STOP,6
48.0,28212.34949974412,30443.813555695244,-32177.481910882227,-29677.595755767317,-36399.1899966228,-32355.848831635576,-6002.024531605784,-38097.11791242575,0.0,0.0,0.0,193.0,0.0,193.0,0.0,0.0,0.0,179.0,193.0,0.0,179.0,1744420344.170963,0.0,2025-04-11 21:12:24.170,STOP,6
49.0,28191.71883961187,30438.73970970389,-32163.713236297757,-29660.854299170293,-36385.309563316056,-32331.418374945926,-6294.00536942546,-38085.092673908795,0.0,0.0,0.0,193.0,0.0,193.0,0.0,0.0,0.0,179.0,193.0,0.0,179.0,1744420344.171006,0.0,2025-04-11 21:12:24.171,STOP,6
50.0,28171.66932483546,30447.41218655255,-32154.481965837716,-29649.946647876102,-36376.52532774512,-32323.461153919838,-6581.471154865165,-38082.701037252074,0.0,0.0,0.0,193.0,0.0,193.0,0.0,0.0,0.0,178.0,193.0,0.0,178.0,1744420344.1710489,0.0,2025-04-11 21:12:24.171,STOP,6
51.0,28193.752848357304,30448.8874016866,-32164.9425822428,-29654.573458978353,-36391.746865719186,-32341.275494250716,-6376.528009954454,-38082.499871551976,0.0,0.0,0.0,193.0,0.0,193.0,0.0,0.0,0.0,178.0,193.0,0.0,178.0,1744420344.1710916,0.0,2025-04-11 21:12:24.171,STOP,6
52.0,28215.523447456773,30442.159526605552,-32178.73360857172,-29672.745427220518,-36401.64868851288,-32353.479546723313,-5997.688293181454,-38087.30549660987,0.0,0.0,0.0,193.0,0.0,193.0,0.0,0.0,0.0,179.0,193.0,0.0,179.0,1744420344.1711347,0.0,2025-04-11 21:12:24.171,STOP,6
53.0,28193.48462742384,30434.06819511273,-32172.296306168595,-29663.178880593645,-36393.02091515314,-32341.431956461904,-6222.166862746104,-38093.67574377963,0.0,0.0,0.0,193.0,0.0,193.0,0.0,0.0,0.0,179.0,193.0,0.0,179.0,1744420344.171193,0.0,2025-04-11 21:12:24.171,STOP,6
54.0,28169.747074812305,30453.894192444586,-32162.75211128618,-29645.319836773855,-36382.3367813035,-32327.797392344168,-6546.825950959439,-38088.06545592135,0.0,0.0,0.0,193.0,0.0,193.0,0.0,0.0,0.0,179.0,193.0,0.0,179.0,1744420344.171236,0.0,2025-04-11 21:12:24.171,STOP,6
55.0,28186.24266222032,30463.818366982745,-32160.561640329557,-29639.68719717112,-36386.695371472284,-32338.839154105088,-6460.65997608423,-38094.12277866874,0.0,0.0,0.0,193.0,0.0,193.0,0.0,0.0,0.0,179.0,193.0,0.0,179.0,1744420344.1712794,0.0,2025-04-11 21:12:24.171,STOP,6
56.0,28214.115287556087,30450.764948220844,-32179.091236483007,-29660.63078172574,-36411.662270028864,-32361.794395660687,-6019.593002747656,-38106.72916254153,0.0,0.0,0.0,193.0,0.0,194.0,0.0,0.0,0.0,179.0,194.0,0.0,179.0,1744420344.1713228,0.0,2025-04-11 21:12:24.171,STOP,6
57.0,28198.893749582025,30433.554104990257,-32169.12235845594,-29657.434482268633,-36397.55831927757,-32341.767232628732,-6180.07852793676,-38108.092618953306,0.0,0.0,0.0,193.0,0.0,194.0,0.0,0.0,0.0,179.0,194.0,0.0,179.0,1744420344.171366,0.0,2025-04-11 21:12:24.171,STOP,6
58.0,28167.243679433308,30443.29946557277,-32163.087387453008,-29647.957342619582,-36391.612755252456,-32327.529171410704,-6504.201174283168,-38072.41923480263,0.0,0.0,0.0,193.0,0.0,193.0,0.0,0.0,0.0,179.0,193.0,0.0,179.0,1744420344.171409,0.0,2025-04-11 21:12:24.171,STOP,6
59.0,28174.597403359105,30449.468547042437,-32161.634524063415,-29645.319836773855,-36393.82557795353,-32333.519438924726,-6523.200157070179,-38081.382284329215,0.0,0.0,0.0,193.0,0.0,193.0,0.0,0.0,0.0,179.0,193.0,0.0,179.0,1744420344.1714659,0.0,2025-04-11 21:12:24.171,STOP,6
60.0,28212.617720677583,30457.17989887952,-32173.23507943572,-29655.266363056468,-36406.49901705969,-32354.284209523707,-6073.214837695938,-38088.803063488376,0.0,0.0,0.0,193.0,0.0,193.0,0.0,0.0,0.0,179.0,193.0,0.0,179.0,1744420344.1715088,0.0,2025-04-11 21:12:24.171,STOP,6
61.0,28203.855836851104,30437.242142825384,-32170.821091034544,-29663.804729438394,-36402.989793180204,-32349.523287954726,-6141.410010029079,-38121.39190690421,0.0,0.0,0.0,193.0,0.0,193.0,0.0,0.0,0.0,179.0,193.0,0.0,179.0,1744420344.1715517,0.0,2025-04-11 21:12:24.171,STOP,6
62.0,28178.687772594425,30449.803823209266,-32159.93579148481,-29646.660941441172,-36393.75852272016,-32333.20651450235,-6478.071985014914,-38098.1907961596,0.0,0.0,0.0,193.0,0.0,193.0,0.0,0.0,0.0,179.0,193.0,0.0,179.0,1744420344.1715944,0.0,2025-04-11 21:12:24.171,STOP,6
63.0,28180.274746450752,30461.806709981767,-32151.308018125063,-29637.273208769944,-36389.846967440484,-32324.981072542796,-6578.878352508349,-38083.751569241474,0.0,0.0,0.0,193.0,0.0,193.0,0.0,0.0,0.0,179.0,193.0,0.0,179.0,1744420344.1716533,0.0,2025-04-11 21:12:24.171,STOP,6
64.0,28222.072508582176,30467.37229435114,-32160.293419396094,-29646.348017018798,-36401.15695013487,-32351.624351933522,-6137.476103004945,-38089.38420884421,0.0,0.0,0.0,193.0,0.0,193.0,0.0,0.0,0.0,179.0,193.0,0.0,179.0,1744420344.1716964,0.0,2025-04-11 21:12:24.171,STOP,6
65.0,28216.573979446173,30442.31598881674,-32169.658800322868,-29664.989371894524,-36411.81873224005,-32360.02860784872,-6106.764806123353,-38137.239293723025,0.0,0.0,0.0,193.0,0.0,194.0,0.0,0.0,0.0,179.0,194.0,0.0,179.0,1744420344.171739,0.0,2025-04-11 21:12:24.171,STOP,6
66.0,28182.95695578539,30442.07011962773,-32163.80264327558,-29656.562764234874,-36399.05588615607,-32352.317256011636,-6442.488007842066,-38124.87877903924,0.0,0.0,0.0,193.0,0.0,194.0,0.0,0.0,0.0,179.0,194.0,0.0,179.0,1744420344.171782,0.0,2025-04-11 21:12:24.171,STOP,6
67.0,28171.49051087982,30451.41314881005,-32154.727835026722,-29648.15850831968,-36381.84504292549,-32340.15790702795,-6612.227155235667,-38098.48136883752,0.0,0.0,0.0,193.0,0.0,193.0,0.0,0.0,0.0,179.0,193.0,0.0,179.0,1744420344.1718247,0.0,2025-04-11 21:12:24.171,STOP,6
68.0,28196.792685603225,30446.316951074237,-32173.480948624725,-29657.278020057445,-36398.00535416667,-32361.839099149598,-6200.552725857821,-38077.02369416043,0.0,0.0,0.0,193.0,0.0,194.0,0.0,0.0,0.0,179.0,194.0,0.0,179.0,1744420344.1718812,0.0,2025-04-11 21:12:24.171,STOP,6
69.0,28194.06577277968,30423.272302540816,-32186.60142261999,-29681.68612500264,-36411.3940490954,-32376.03245687872,-6030.187729619472,-38129.14796223021,0.0,0.0,0.0,193.0,0.0,193.0,0.0,0.0,0.0,179.0,193.0,0.0,179.0,1744420344.1719244,0.0,2025-04-11 21:12:24.171,STOP,6
70.0,28175.022086503755,30435.632817224603,-32166.529556099125,-29658.3509037913,-36390.137540118405,-32348.897439109976,-6355.763239355474,-38116.27335742395,0.0,0.0,0.0,193.0,0.0,193.0,0.0,0.0,0.0,179.0,193.0,0.0,179.0,1744420344.1719816,0.0,2025-04-11 21:12:24.171,STOP,6
71.0,28158.817071773658,30446.048730140774,-32155.577201316024,-29646.839755396817,-36378.335819046,-32333.87706683601,-6610.215498234689,-38106.550348585886,0.0,0.0,0.0,193.0,0.0,193.0,0.0,0.0,0.0,179.0,193.0,0.0,179.0,1744420344.1720233,0.0,2025-04-11 21:12:24.172,STOP,6
72.0,28187.47200816536,30447.903924930564,-32157.946486228288,-29645.43159549613,-36377.888784156894,-32339.12972678301,-6299.079215416815,-38065.62430448822,0.0,0.0,0.0,193.0,0.0,193.0,0.0,0.0,0.0,179.0,193.0,0.0,179.0,1744420344.1720655,0.0,2025-04-11 21:12:24.172,STOP,6
73.0,28196.502112925307,30427.563837476235,-32174.6432393364,-29672.857185942794,-36393.982040164716,-32357.435805491903,-5997.867107137097,-38099.241328149,0.0,0.0,0.0,193.0,0.0,193.0,0.0,0.0,0.0,178.0,193.0,0.0,178.0,1744420344.1721067,0.0,2025-04-11 21:12:24.172,STOP,6
74.0,28171.982249257835,30420.21011355044,-32164.98728573171,-29657.16626133517,-36385.041342382596,-32331.06074703464,-6280.706081474553,-38086.612592531754,0.0,0.0,0.0,193.0,0.0,193.0,0.0,0.0,0.0,179.0,193.0,0.0,179.0,1744420344.1722727,0.0,2025-04-11 21:12:24.172,STOP,6
75.0,28159.465272362864,30444.21588709544,-32147.08353842301,-29635.14979304669,-36364.18716480579,-32309.24544444626,-6560.840494732916,-38058.53880149589,0.0,0.0,0.0,193.0,0.0,193.0,0.0,0.0,0.0,179.0,193.0,0.0,179.0,1744420344.1723156,0.0,2025-04-11 21:12:24.172,STOP,6
76.0,28182.77814182975,30458.453948313472,-32151.330369869516,-29635.216848280055,-36371.63029570941,-32324.087002764587,-6362.088783036325,-38055.498964249964,0.0,0.0,0.0,193.0,0.0,193.0,0.0,0.0,0.0,179.0,193.0,0.0,179.0,1744420344.172357,0.0,2025-04-11 21:12:24.172,STOP,6
77.0,28203.54291242873,30440.01375913784,-32172.586878846512,-29662.91065966018,-36395.3902000654,-32352.674883922922,-5988.188801787949,-38092.75932225696,0.0,0.0,0.0,193.0,0.0,193.0,0.0,0.0,0.0,180.0,193.0,0.0,180.0,1744420344.172399,0.0,2025-04-11 21:12:24.172,STOP,6
78.0,28180.811188317683,30422.9817298629,-32166.328390399027,-29658.462662513575,-36389.24347034019,-32342.124860540018,-6231.219319250503,-38111.19951143259,0.0,0.0,0.0,193.0,0.0,194.0,0.0,0.0,0.0,180.0,194.0,0.0,180.0,1744420344.1724565,0.0,2025-04-11 21:12:24.172,STOP,6
79.0,28156.492490350305,30439.007930637352,-32152.47030883674,-29639.329569259833,-36378.35817079046,-32322.365918441526,-6551.586872528419,-38094.27924087992,0.0,0.0,0.0,193.0,0.0,193.0,0.0,0.0,0.0,179.0,193.0,0.0,179.0,1744420344.1725025,0.0,2025-04-11 21:12:24.172,STOP,6
80.0,28179.581842372638,30451.524907532326,-32144.378977343917,-29624.28684524141,-36375.027760866615,-32317.627348617003,-6473.445173912665,-38072.86626969174,0.0,0.0,0.0,193.0,0.0,193.0,0.0,0.0,0.0,179.0,193.0,0.0,179.0,1744420344.172544,0.0,2025-04-11 21:12:24.172,STOP,6
81.0,28204.861665351593,30441.48897427189,-32170.97755324573,-29651.287752543423,-36400.91108094586,-32346.863430364545,-6021.805825448731,-38080.57762152882,0.0,0.0,0.0,193.0,0.0,193.0,0.0,0.0,0.0,179.0,193.0,0.0,179.0,1744420344.1725852,0.0,2025-04-11 21:12:24.172,STOP,6
82.0,28180.364153428574,30409.83890412318,-32174.017390491652,-29658.3509037913,-36403.95091819178,-32340.806107617154,-6185.5100018394,-38104.71750554055,0.0,0.0,0.0,193.0,0.0,194.0,0.0,0.0,0.0,179.0,194.0,0.0,179.0,1744420344.1726267,0.0,2025-04-11 21:12:24.172,STOP,6
83.0,28152.625638559537,30425.50747698635,-32160.583992074015,-29638.748423903995,-36388.84113894,-32313.849903804054,-6512.851299387372,-38062.3833015422,0.0,0.0,0.0,193.0,0.0,194.0,0.0,0.0,0.0,179.0,194.0,0.0,179.0,1744420344.1726816,0.0,2025-04-11 21:12:24.172,STOP,6
84.0,28158.347685140096,30439.142041104085,-32154.996055960186,-29634.72510990204,-36376.25710681166,-32320.421316673914,-6520.987334369103,-38059.701092207564,0.0,0.0,0.0,193.0,0.0,193.0,0.0,1.0,0.0,179.0,193.0,1.0,179.0,1744420344.1727238,0.0,2025-04-11 21:12:24.172,STOP,6
85.0,28198.692583881926,30444.21588709544,-32174.352666658484,-29653.992313622515,-36397.17833962182,-32351.557296700157,-6051.310128129737,-38079.4376825616,0.0,0.0,0.0,193.0,0.0,193.0,0.0,2.0,0.0,179.0,193.0,2.0,179.0,1744420344.1727664,0.0,2025-04-11 21:12:24.172,STOP,6
86.0,28186.48853140933,30421.5288664733,-32177.683076582325,-29666.933973662137,-36400.06171465656,-32352.69723566738,-6117.337181250713,-38118.77675280294,0.0,0.0,0.0,193.0,0.0,193.0,0.0,3.0,0.0,179.0,193.0,3.0,179.0,1744420344.172809,0.0,2025-04-11 21:12:24.172,STOP,6
87.0,28158.57120258465,30433.665863712537,-32170.150538700884,-29651.511269987976,-36392.68563898631,-32337.654511648958,-6467.454906398643,-38102.839959006305,0.0,0.0,0.0,193.0,0.0,193.0,0.0,5.0,0.0,179.0,193.0,5.0,179.0,1744420344.1728508,0.0,2025-04-11 21:12:24.172,STOP,6
88.0,28165.254374176788,30452.195459865983,-32156.7394920277,-29634.881572113227,-36380.77215919163,-32327.529171410704,-6595.820974805471,-38098.52607232644,0.0,0.0,0.0,193.0,0.0,193.0,0.0,6.0,0.0,179.0,193.0,6.0,179.0,1744420344.1728928,0.0,2025-04-11 21:12:24.172,STOP,6
89.0,28204.839313607135,30457.78339597981,-32169.524689856138,-29638.457851226074,-36398.56414777805,-32342.236619262294,-6143.086390863227,-38072.19571735808,0.0,0.0,0.0,193.0,0.0,193.0,0.0,7.0,0.0,179.0,193.0,7.0,179.0,1744420344.172948,0.0,2025-04-11 21:12:24.172,STOP,6
90.0,28207.43211596395,30440.46079402695,-32167.17775668833,-29646.929162374636,-36398.027705911125,-32334.63702614749,-6082.691977344987,-38099.911880482665,0.0,0.0,0.0,193.0,0.0,193.0,0.0,8.0,0.0,179.0,193.0,8.0,179.0,1744420344.1729903,0.0,2025-04-11 21:12:24.172,STOP,6
91.0,28175.13384522603,30443.321817317228,-32164.249678164684,-29638.211982037068,-36393.31148783106,-32325.36105219854,-6406.881678924761,-38086.21026113156,0.0,0.0,0.0,193.0,0.0,193.0,0.0,9.0,0.0,179.0,193.0,9.0,179.0,1744420344.173032,0.0,2025-04-11 21:12:24.173,STOP,6
92.0,28161.320467152655,30452.754253477367,-32157.45474785027,-29634.076909312837,-36385.26485982715,-32324.93636905389,-6596.804451561506,-38083.39394133019,0.0,0.0,0.0,193.0,0.0,193.0,0.0,9.0,0.0,180.0,193.0,9.0,180.0,1744420344.173074,0.0,2025-04-11 21:12:24.173,STOP,6
93.0,28194.468104179872,30458.230430868916,-32163.199146175284,-29636.446194225096,-36393.87028144244,-32343.331854740605,-6222.32332495729,-38077.26956334944,0.0,0.0,0.0,193.0,0.0,193.0,0.0,10.0,0.0,179.0,193.0,10.0,179.0,1744420344.1731284,0.0,2025-04-11 21:12:24.173,STOP,6
94.0,28204.48168569585,30436.92921840301,-32166.954239243776,-29653.58998222232,-36402.38629607991,-32349.947971099376,-6040.380125091091,-38115.0440114789,0.0,0.0,0.0,193.0,0.0,194.0,0.0,10.0,0.0,180.0,194.0,10.0,180.0,1744420344.1731713,0.0,2025-04-11 21:12:24.173,STOP,6
95.0,28172.608098102584,30429.240218310384,-32159.824032762535,-29641.877668127738,-36394.25026109818,-32338.54858142717,-6344.833236316828,-38102.30351713938,0.0,0.0,0.0,193.0,0.0,193.0,0.0,11.0,0.0,179.0,193.0,11.0,179.0,1744420344.1732132,0.0,2025-04-11 21:12:24.173,STOP,6
96.0,28164.181490442934,30447.680407486012,-32134.208933616752,-29616.82136259334,-36368.27753404111,-32307.63611884548,-6608.047379022525,-38071.97219991353,0.0,0.0,0.0,193.0,0.0,193.0,0.0,11.0,0.0,179.0,193.0,11.0,179.0,1744420344.1732557,0.0,2025-04-11 21:12:24.173,STOP,6
97.0,28192.970537301368,30457.224602368427,-32141.897933709377,-29618.43068819412,-36379.20753707976,-32325.405755687447,-6312.780834767918,-38064.2831998209,0.0,0.0,0.0,193.0,0.0,193.0,0.0,12.0,0.0,179.0,193.0,12.0,179.0,1744420344.173298,0.0,2025-04-11 21:12:24.173,STOP,6
98.0,28203.90054034001,30447.903924930564,-32161.74628278569,-29648.382025764233,-36397.37950532192,-32350.81968913313,-6021.135273115072,-38110.30544165438,0.0,0.0,0.0,193.0,0.0,193.0,0.0,12.0,0.0,179.0,193.0,12.0,179.0,1744420344.1733537,0.0,2025-04-11 21:12:24.173,STOP,6
99.0,28181.213519717876,30433.777622434813,-32152.425605347828,-29636.602656436284,-36387.7906069506,-32339.26383724974,-6295.033549670405,-38107.28795615291,0.0,0.0,0.0,193.0,0.0,193.0,0.0,12.0,0.0,179.0,193.0,12.0,179.0,1744420344.1733966,0.0,2025-04-11 21:12:24.173,STOP,6
100.0,28166.28255442173,30453.938895933497,-32134.700671994768,-29615.23438873701,-36370.691522442285,-32315.749802082755,-6596.446823650221,-38080.64467676219,0.0,0.0,0.0,193.0,0.0,193.0,0.0,13.0,0.0,179.0,193.0,13.0,179.0,1744420344.1734388,0.0,2025-04-11 21:12:24.173,STOP,6
101.0,28192.76937160127,30461.918468704043,-32134.007767916653,-29609.04295552289,-36370.356246275456,-32318.454363161847,-6403.819489934384,-38058.382339284704,0.0,0.0,0.0,193.0,0.0,194.0,0.0,13.0,0.0,180.0,194.0,13.0,180.0,1744420344.1734815,0.0,2025-04-11 21:12:24.173,STOP,6
102.0,28214.607025934107,30448.239201097396,-32156.31480888305,-29638.05551982588,-36392.57388026403,-32346.036415819697,-6007.90304039753,-38092.96048795706,0.0,0.0,0.0,193.0,0.0,194.0,0.0,13.0,0.0,180.0,194.0,13.0,180.0,1744420344.173524,0.0,2025-04-11 21:12:24.173,STOP,6
103.0,28188.254319221298,30427.340320031682,-32157.96883797274,-29638.659016926173,-36393.065618642046,-32336.134593025996,-6221.6751243680865,-38105.25394740748,0.0,0.0,0.0,193.0,0.0,194.0,0.0,14.0,0.0,180.0,194.0,14.0,180.0,1744420344.1735845,0.0,2025-04-11 21:12:24.173,STOP,6
104.0,28166.796644544203,30447.479241785913,-32139.282779608107,-29614.876760825726,-36372.725531187716,-32305.33388916658,-6540.880386934327,-38065.11021436575,0.0,0.0,0.0,193.0,0.0,194.0,0.0,14.0,0.0,180.0,194.0,14.0,180.0,1744420344.1736512,0.0,2025-04-11 21:12:24.173,STOP,6
105.0,28184.409819174984,30457.023436668333,-32135.482983050704,-29607.76890608894,-36367.115243329434,-32304.842150788565,-6462.693984829662,-38049.151068824656,0.0,0.0,0.0,193.0,0.0,194.0,0.0,14.0,0.0,180.0,194.0,14.0,180.0,1744420344.1736944,0.0,2025-04-11 21:12:24.173,STOP,6
106.0,28206.649804908015,30451.100224387676,-32163.020332219643,-29633.47341221254,-36394.42907505382,-32333.96647381383,-6017.246069579848,-38061.64569397517,0.0,0.0,0.0,193.0,0.0,194.0,0.0,14.0,0.0,180.0,194.0,14.0,180.0,1744420344.1737368,0.0,2025-04-11 21:12:24.173,STOP,6
107.0,28187.62847037655,30430.536619488794,-32161.813338019056,-29636.647359925195,-36389.93637441831,-32326.6798051214,-6163.784106228842,-38088.19956638808,0.0,0.0,0.0,193.0,0.0,194.0,0.0,14.0,0.0,180.0,194.0,14.0,180.0,1744420344.1737795,0.0,2025-04-11 21:12:24.173,STOP,6
108.0,28156.85011826159,30437.59977073667,-32154.660779793358,-29624.979749319526,-36382.76146444815,-32313.916959037422,-6499.015569569537,-38066.51837426643,0.0,0.0,0.0,193.0,0.0,194.0,0.0,14.0,0.0,180.0,194.0,14.0,180.0,1744420344.1738367,0.0,2025-04-11 21:12:24.173,STOP,6
109.0,28168.875356778546,30447.725110974923,-32144.535439555104,-29615.100278270278,-36376.368865533936,-32307.34554616756,-6550.156360883279,-38059.857554418755,0.0,0.0,0.0,193.0,0.0,194.0,0.0,15.0,0.0,179.0,194.0,15.0,179.0,1744420344.1738796,0.0,2025-04-11 21:12:24.173,STOP,6
110.0,28205.19694151842,30449.64736099808,-32166.03781772111,-29634.52394420194,-36399.078237900525,-32334.59232265858,-6094.516050161845,-38065.378435299215,0.0,0.0,0.0,193.0,0.0,193.0,0.0,15.0,0.0,179.0,193.0,15.0,179.0,1744420344.1739223,0.0,2025-04-11 21:12:24.173,STOP,6
111.0,28191.182397744942,30428.50261074336,-32168.474157866738,-29646.996217608004,-36399.838197212004,-32330.50195342326,-6132.692829691509,-38093.78750250191,0.0,0.0,0.0,193.0,0.0,193.0,0.0,15.0,0.0,179.0,193.0,15.0,179.0,1744420344.173965,0.0,2025-04-11 21:12:24.173,STOP,6
112.0,28164.33795265412,30444.662921984545,-32156.56067807206,-29629.271284254944,-36389.846967440484,-32310.49714213576,-6470.695909344663,-38070.22876384601,0.0,0.0,0.0,193.0,0.0,193.0,0.0,15.0,0.0,179.0,193.0,15.0,179.0,1744420344.174008,0.0,2025-04-11 21:12:24.174,STOP,6
113.0,28157.699484550893,30451.54725927678,-32150.570410558037,-29624.309196985865,-36383.074388870526,-32310.899473535956,-6601.051283008013,-38070.139356868196,0.0,0.0,0.0,193.0,0.0,193.0,0.0,15.0,0.0,179.0,193.0,15.0,179.0,1744420344.174064,0.0,2025-04-11 21:12:24.174,STOP,6
114.0,28192.076467523155,30452.374273821628,-32163.35560838647,-29634.322778501843,-36397.80418846657,-32336.87220059302,-6179.475030836467,-38071.2345923465,0.0,0.0,0.0,193.0,0.0,193.0,0.0,15.0,0.0,179.0,193.0,15.0,179.0,1744420344.1741068,0.0,2025-04-11 21:12:24.174,STOP,6
115.0,28190.1542175,30434.604636979657,-32167.26716366615,-29651.511269987976,-36394.25026109818,-32340.761404128243,-6090.179811737516,-38100.62713630523,0.0,0.0,0.0,193.0,0.0,193.0,0.0,15.0,0.0,179.0,193.0,15.0,179.0,1744420344.1741493,0.0,2025-04-11 21:12:24.174,STOP,6
116.0,28160.56050784117,30439.745538204377,-32159.8910879959,-29640.87183962725,-36383.87905167092,-32325.025776031707,-6398.052739864915,-38079.46003430606,0.0,0.0,0.0,193.0,0.0,193.0,0.0,15.0,0.0,180.0,193.0,15.0,180.0,1744420344.1741917,0.0,2025-04-11 21:12:24.174,STOP,6
117.0,28151.28453389222,30451.59196276569,-32151.240962891694,-29636.37913899173,-36377.01706612314,-32322.321214952615,-6617.256297738111,-38082.76809248544,0.0,0.0,0.0,193.0,0.0,193.0,0.0,15.0,0.0,179.0,193.0,15.0,179.0,1744420344.174234,0.0,2025-04-11 21:12:24.174,STOP,6
118.0,28181.77231332926,30448.08273888621,-32165.210803176262,-29645.945685618604,-36392.864452941954,-32349.992674588288,-6257.57202596331,-38078.14128138319,0.0,0.0,0.0,193.0,0.0,194.0,0.0,15.0,0.0,180.0,194.0,15.0,180.0,1744420344.1742764,0.0,2025-04-11 21:12:24.174,STOP,6
119.0,28194.803380346704,30431.900075900565,-32166.618963076948,-29661.68131371514,-36399.1899966228,-32359.89449738199,-6067.984529493396,-38120.6990028261,0.0,0.0,0.0,193.0,0.0,194.0,0.0,16.0,0.0,180.0,194.0,16.0,180.0,1744420344.1743317,0.0,2025-04-11 21:12:24.174,STOP,6
120.0,28163.935621253924,30430.536619488794,-32163.243849664195,-29654.10407234479,-36393.46795004224,-32352.294904267183,-6362.714631881075,-38111.646546321695,0.0,0.0,0.0,193.0,0.0,194.0,0.0,16.0,0.0,180.0,194.0,16.0,180.0,1744420344.1743743,0.0,2025-04-11 21:12:24.174,STOP,6
121.0,28150.502222836283,30453.469509299935,-32145.40715758886,-29636.62500818074,-36374.42426376632,-32328.35618595555,-6632.924870601281,-38089.898298966684,0.0,0.0,0.0,193.0,0.0,194.0,0.0,16.0,0.0,180.0,194.0,16.0,180.0,1744420344.1744168,0.0,2025-04-11 21:12:24.174,STOP,6
122.0,28178.374848172054,30453.245991855383,-32147.12824191192,-29634.009854079468,-36382.24737432568,-32337.67686339341,-6371.007129073993,-38073.04508364738,0.0,0.0,0.0,193.0,0.0,193.0,0.0,16.0,0.0,179.0,193.0,16.0,179.0,1744420344.174472,0.0,2025-04-11 21:12:24.174,STOP,6
123.0,28193.842255335127,30437.59977073667,-32160.382826373916,-29655.936915390124,-36395.70312448777,-32359.492165981792,-6050.594872307167,-38111.55713934388,0.0,0.0,0.0,193.0,0.0,193.0,0.0,16.0,0.0,179.0,193.0,16.0,179.0,1744420344.1745243,0.0,2025-04-11 21:12:24.174,STOP,6
124.0,28168.294211422708,30428.79318342128,-32151.531535569615,-29642.95055186159,-36383.1861475928,-32344.851773363567,-6301.582610795809,-38101.83413050582,0.0,0.0,0.0,193.0,0.0,193.0,0.0,16.0,0.0,179.0,193.0,16.0,179.0,1744420344.1745667,0.0,2025-04-11 21:12:24.174,STOP,6
125.0,28148.2446966463,30444.528811517815,-32144.624846532926,-29631.90879010067,-36377.37469403442,-32333.58649415809,-6603.018236520081,-38091.55232805638,0.0,0.0,0.0,193.0,0.0,193.0,0.0,16.0,0.0,179.0,193.0,16.0,179.0,1744420344.1746097,0.0,2025-04-11 21:12:24.174,STOP,6
126.0,28168.182452700432,30451.59196276569,-32143.39550058788,-29623.90686558567,-36378.49228125719,-32338.481526193802,-6449.148827689747,-38083.326886096824,0.0,0.0,0.0,193.0,0.0,193.0,0.0,16.0,0.0,179.0,193.0,16.0,179.0,1744420344.174652,0.0,2025-04-11 21:12:24.174,STOP,6
127.0,28190.556548900197,30442.338340561193,-32163.17679443083,-29649.365502520264,-36398.944127433795,-32361.146195071484,-6040.402476835547,-38095.24036589151,0.0,0.0,0.0,193.0,0.0,193.0,0.0,16.0,0.0,179.0,193.0,16.0,179.0,1744420344.1746948,0.0,2025-04-11 21:12:24.174,STOP,6
128.0,28174.373885914552,30425.88745664209,-32155.6889600383,-29645.655112940683,-36391.16572036335,-32353.188974045395,-6255.76153466243,-38116.474523124045,0.0,0.0,0.0,193.0,0.0,193.0,0.0,16.0,0.0,179.0,193.0,16.0,179.0,1744420344.1747668,0.0,2025-04-11 21:12:24.174,STOP,6
129.0,28151.32923738113,30445.534640018304,-32141.495602309184,-29627.036109809414,-36378.112301601446,-32334.234694747294,-6579.168925186268,-38094.05572343537,0.0,0.0,0.0,193.0,0.0,194.0,0.0,16.0,0.0,180.0,194.0,16.0,180.0,1744420344.174811,0.0,2025-04-11 21:12:24.174,STOP,6
130.0,28167.28838292222,30457.11284364615,-32136.712328995745,-29620.397641706186,-36376.4359207673,-32331.26191273474,-6527.514043750053,-38069.5358597679,0.0,0.0,0.0,193.0,0.0,194.0,0.0,16.0,0.0,179.0,194.0,16.0,179.0,1744420344.1748548,0.0,2025-04-11 21:12:24.174,STOP,6
131.0,28192.545854156717,30448.55212551977,-32162.416835119348,-29649.007874608982,-36405.56024379256,-32365.25891605126,-6061.994261979373,-38088.646601277185,0.0,0.0,0.0,193.0,0.0,194.0,0.0,16.0,0.0,179.0,194.0,16.0,179.0,1744420344.1748986,0.0,2025-04-11 21:12:24.174,STOP,6
132.0,28174.77621731475,30424.322834530216,-32157.61121006146,-29651.645380454705,-36400.419342567846,-32355.06652057964,-6204.08430148176,-38119.603767347784,0.0,0.0,0.0,193.0,0.0,194.0,0.0,16.0,0.0,180.0,194.0,16.0,180.0,1744420344.6491015,0.0,2025-04-11 21:12:24.649,STOP,6
133.0,28151.597458314594,30440.036110882298,-32142.143802898387,-29630.277112755433,-36383.3873132929,-32330.25608423425,-6544.456666047176,-38094.99449670249,0.0,0.0,0.0,193.0,0.0,193.0,0.0,16.0,0.0,179.0,193.0,16.0,179.0,1744420344.6493099,0.0,2025-04-11 21:12:24.649,STOP,6
134.0,28159.15234794049,30453.335398833206,-32129.045680647574,-29615.703775370574,-36370.065673597535,-32319.191970728873,-6595.306884682999,-38083.66216226365,0.0,0.0,0.0,193.0,0.0,194.0,0.0,16.0,0.0,180.0,194.0,16.0,180.0,1744420344.6496031,0.0,2025-04-11 21:12:24.649,STOP,6
135.0,28196.211540247386,30457.716340746447,-32146.25652387816,-29627.28197899842,-36392.931508175316,-32343.622427418522,-6132.178739569037,-38075.39201681519,0.0,0.0,0.0,193.0,0.0,193.0,0.0,16.0,0.0,179.0,193.0,16.0,179.0,1744420344.6496673,0.0,2025-04-11 21:12:24.649,STOP,6
136.0,28176.20672895989,30427.519133987327,-32161.45571010777,-29650.326627531842,-36410.119999661445,-32355.625314191024,-6170.914312710084,-38120.87781678174,0.0,0.0,0.0,193.0,0.0,193.0,0.0,16.0,0.0,179.0,193.0,16.0,179.0,1744420344.6497226,0.0,2025-04-11 21:12:24.649,STOP,6
137.0,28150.30105713619,30437.800936436768,-32146.524744811624,-29628.19840052109,-36393.37854306442,-32329.45142143386,-6489.247857242568,-38071.167537113135,0.0,0.0,0.0,193.0,0.0,193.0,0.0,16.0,0.0,179.0,193.0,16.0,179.0,1744420344.6498396,0.0,2025-04-11 21:12:24.649,STOP,6
138.0,28156.604249072585,30452.016645910342,-32127.257541091152,-29611.211074735056,-36372.81493816554,-32317.180313727895,-6615.646972137329,-38061.86921141973,0.0,0.0,0.0,193.0,0.0,193.0,0.0,16.0,0.0,179.0,193.0,16.0,179.0,1744420344.6498933,0.0,2025-04-11 21:12:24.649,STOP,6
139.0,28191.517673911774,30457.91750644654,-32142.79200348759,-29621.738746373507,-36387.85766218396,-32341.096680295075,-6184.437118105545,-38059.74579569647,0.0,0.0,0.0,193.0,0.0,193.0,0.0,16.0,0.0,180.0,193.0,16.0,180.0,1744420344.6499517,0.0,2025-04-11 21:12:24.649,STOP,6
140.0,28197.35147921461,30439.745538204377,-32142.724948254225,-29634.52394420194,-36380.280420813615,-32339.040319805186,-6089.39750068158,-38091.32881061183,0.0,0.0,0.0,193.0,0.0,193.0,0.0,17.0,0.0,179.0,193.0,17.0,179.0,1744420344.6500075,0.0,2025-04-11 21:12:24.650,STOP,6
141.0,28158.302981651188,30429.843715410676,-32148.26818087914,-29635.641531424706,-36383.74494120418,-32337.766270371234,-6398.991513132038,-38080.97995292902,0.0,0.0,0.0,193.0,0.0,194.0,0.0,17.0,0.0,180.0,194.0,17.0,180.0,1744420344.6500647,0.0,2025-04-11 21:12:24.650,STOP,6
142.0,28140.578048298128,30441.086642871698,-32145.854192477967,-29633.47341221254,-36384.4378452823,-32334.838191847586,-6631.203786278223,-38091.75349375648,0.0,0.0,0.0,193.0,0.0,194.0,0.0,17.0,0.0,179.0,194.0,17.0,179.0,1744420344.6501665,0.0,2025-04-11 21:12:24.650,STOP,6
143.0,28177.972516771857,30451.614314510145,-32147.821145990034,-29627.95253133208,-36387.7906069506,-32345.4329187194,-6296.128785148715,-38082.16459538515,0.0,0.0,0.0,193.0,0.0,194.0,0.0,16.0,0.0,180.0,194.0,16.0,180.0,1744420344.6502216,0.0,2025-04-11 21:12:24.650,STOP,6
144.0,28186.130903498044,30436.325721302717,-32156.717140283246,-29648.002046108493,-36392.59623200849,-32357.704026425366,-6068.051584726762,-38115.4463428791,0.0,0.0,0.0,193.0,0.0,193.0,0.0,17.0,0.0,179.0,193.0,17.0,179.0,1744420344.6502721,0.0,2025-04-11 21:12:24.650,STOP,6
145.0,28153.162080426468,30432.123593345117,-32152.246791392183,-29639.86601112676,-36387.81295869505,-32346.863430364545,-6355.964405055572,-38109.143150942706,0.0,0.0,0.0,193.0,0.0,193.0,0.0,17.0,0.0,179.0,193.0,17.0,179.0,1744420344.6503265,0.0,2025-04-11 21:12:24.650,STOP,6
146.0,28134.878353462023,30441.31016031625,-32137.762860985145,-29622.364595218256,-36370.89268814238,-32330.412546445437,-6633.684829912762,-38094.01101994646,0.0,0.0,0.0,193.0,0.0,193.0,0.0,17.0,0.0,179.0,193.0,17.0,179.0,1744420344.65038,0.0,2025-04-11 21:12:24.650,STOP,6
147.0,28158.52649909574,30442.9865411504,-32145.02717793312,-29625.158563275167,-36379.3863510354,-32346.192878030884,-6367.408498216689,-38082.3881128297,0.0,0.0,0.0,193.0,0.0,193.0,0.0,17.0,0.0,179.0,193.0,17.0,179.0,1744420344.650433,0.0,2025-04-11 21:12:24.650,STOP,6
148.0,28175.670287092962,30430.380157277606,-32164.473195609236,-29651.77949092144,-36400.620508267944,-32363.135500328008,-6021.068217881706,-38094.07807517983,0.0,0.0,0.0,193.0,0.0,193.0,0.0,17.0,0.0,179.0,193.0,17.0,179.0,1744420344.6504836,0.0,2025-04-11 21:12:24.650,STOP,6
149.0,28161.454577619385,30425.328663030705,-32150.41394834685,-29635.77564189144,-36387.65649648386,-32340.56023842815,-6287.456308300056,-38087.12668265423,0.0,0.0,0.0,193.0,0.0,193.0,0.0,17.0,0.0,180.0,193.0,17.0,180.0,1744420344.6505728,0.0,2025-04-11 21:12:24.650,STOP,6
150.0,28142.075615176633,30439.432613782003,-32136.04177666209,-29618.25187423848,-36371.5855922205,-32325.025776031707,-6604.02406502057,-38076.554307526865,0.0,0.0,0.0,193.0,0.0,194.0,0.0,17.0,0.0,180.0,194.0,17.0,180.0,1744420344.650622,0.0,2025-04-11 21:12:24.650,STOP,6
151.0,28151.016312958756,30437.622122481123,-32148.044663434586,-29625.24797025299,-36384.6390109824,-32344.963532085843,-6458.067173727414,-38081.49404305149,0.0,0.0,0.0,193.0,0.0,194.0,0.0,17.0,0.0,180.0,194.0,17.0,180.0,1744420344.650669,0.0,2025-04-11 21:12:24.650,STOP,6
152.0,28179.268917950263,30429.754308432857,-32166.6413148214,-29650.39368276521,-36403.3921245804,-32365.8400614071,-6046.191578649471,-38100.56008107187,0.0,0.0,0.0,193.0,0.0,194.0,0.0,17.0,0.0,180.0,194.0,17.0,180.0,1744420344.6512911,0.0,2025-04-11 21:12:24.651,STOP,6
153.0,28159.15234794049,30414.063383825232,-32158.482928095214,-29645.521002473954,-36392.97621166423,-32349.12095655453,-6252.006441593939,-38110.93129049913,0.0,0.0,0.0,193.0,0.0,194.0,0.0,17.0,0.0,179.0,194.0,17.0,179.0,1744420344.651342,0.0,2025-04-11 21:12:24.651,STOP,6
154.0,28135.48185056232,30432.749442189866,-32145.384805844405,-29625.42678420863,-36380.36982779144,-32322.544732397168,-6576.039680962525,-38074.22972610351,0.0,0.0,0.0,193.0,0.0,194.0,0.0,17.0,0.0,180.0,194.0,17.0,180.0,1744420344.6513875,0.0,2025-04-11 21:12:24.651,STOP,6
155.0,28160.62756307454,30451.21198310995,-32127.54811376907,-29603.29855719788,-36365.662379939844,-32311.055935747143,-6545.596605014397,-38052.4814787485,0.0,0.0,0.0,193.0,0.0,193.0,0.0,17.0,0.0,179.0,193.0,17.0,179.0,1744420344.6514325,0.0,2025-04-11 21:12:24.651,STOP,6
156.0,28185.43799941993,30442.427747539015,-32159.8910879959,-29633.92044710165,-36400.6428600124,-32353.188974045395,-6069.6385585830885,-38085.785577986906,0.0,0.0,0.0,193.0,0.0,194.0,0.0,17.0,0.0,180.0,194.0,17.0,180.0,1744420344.6514783,0.0,2025-04-11 21:12:24.651,STOP,6
157.0,28171.49051087982,30419.94189261698,-32161.94744848579,-29639.128403559735,-36399.569976278544,-32343.60007567407,-6185.6888157950425,-38108.31613639786,0.0,0.0,0.0,193.0,0.0,193.0,0.0,17.0,0.0,179.0,193.0,17.0,179.0,1744420344.6515732,0.0,2025-04-11 21:12:24.651,STOP,6
158.0,28137.47115581884,30425.46277349744,-32156.158346671862,-29623.929217330126,-36393.557357020065,-32329.362014456037,-6520.473244246632,-38087.86429022125,0.0,0.0,0.0,193.0,0.0,193.0,0.0,17.0,0.0,179.0,193.0,17.0,179.0,1744420344.6516416,0.0,2025-04-11 21:12:24.651,STOP,6
159.0,28144.266086133255,30435.49870675787,-32140.445070319784,-29611.568702646342,-36381.398008036376,-32323.461153919838,-6596.8715067948715,-38079.2365168615,0.0,0.0,0.0,193.0,0.0,193.0,0.0,17.0,0.0,179.0,193.0,17.0,179.0,1744420344.6517005,0.0,2025-04-11 21:12:24.651,STOP,6
160.0,28174.95503127039,30434.761099190844,-32161.03102696312,-29631.90879010067,-36407.92952870483,-32355.69236942439,-6137.364344282669,-38083.058665163364,0.0,0.0,0.0,193.0,0.0,193.0,0.0,17.0,0.0,179.0,193.0,17.0,179.0,1744420344.6517577,0.0,2025-04-11 21:12:24.651,STOP,6
161.0,28171.691676579914,30420.79125890628,-32157.074768194532,-29636.513249458465,-36405.6943542593,-32346.572857686624,-6156.3409753252245,-38113.747610300496,0.0,0.0,0.0,193.0,0.0,193.0,0.0,17.0,0.0,179.0,193.0,17.0,179.0,1744420344.6518185,0.0,2025-04-11 21:12:24.651,STOP,6
162.0,28139.683978519915,30422.132363573597,-32154.727835026722,-29627.10316504278,-36402.69922050228,-32336.849848848564,-6486.297426974467,-38091.954659456576,0.0,0.0,0.0,193.0,0.0,193.0,0.0,17.0,0.0,179.0,193.0,17.0,179.0,1744420344.651873,0.0,2025-04-11 21:12:24.651,STOP,6
163.0,28139.303998864176,30434.425823024016,-32141.383843586904,-29614.407374192164,-36390.18224360731,-32331.26191273474,-6649.621623709396,-38098.14609267069,0.0,0.0,0.0,193.0,0.0,193.0,0.0,17.0,0.0,179.0,193.0,17.0,179.0,1744420344.651924,0.0,2025-04-11 21:12:24.651,STOP,6
164.0,28178.91129003898,30444.72997721791,-32153.94552397079,-29620.017662050446,-36403.548586791585,-32352.160793800453,-6236.673144897598,-38093.38517110171,0.0,0.0,0.0,193.0,0.0,193.0,0.0,17.0,0.0,179.0,193.0,17.0,179.0,1744420344.6519945,0.0,2025-04-11 21:12:24.651,STOP,6
165.0,28183.560452885682,30428.860238654644,-32160.06990195154,-29638.413147737167,-36404.196787380795,-32356.206459546862,-6101.892125832096,-38114.105238211785,0.0,0.0,0.0,193.0,0.0,193.0,0.0,17.0,0.0,180.0,193.0,17.0,180.0,1744420344.6520424,0.0,2025-04-11 21:12:24.652,STOP,6
166.0,28147.44003384591,30426.714471186933,-32153.006750703666,-29628.019586565446,-36389.06465638455,-32342.63895066249,-6416.247059851535,-38097.609650803766,0.0,0.0,0.0,193.0,0.0,193.0,0.0,17.0,0.0,180.0,193.0,17.0,180.0,1744420344.6520884,0.0,2025-04-11 21:12:24.652,STOP,6
167.0,28135.504202306773,30436.884514914098,-32137.919323196333,-29616.396679448688,-36375.43009226681,-32327.35035745506,-6642.4243619947865,-38085.852633220275,0.0,0.0,0.0,193.0,0.0,194.0,0.0,17.0,0.0,180.0,194.0,17.0,180.0,1744420344.6521583,0.0,2025-04-11 21:12:24.652,STOP,6
168.0,28164.22619393184,30437.532715503305,-32148.17877390132,-29622.05167079588,-36391.72451397473,-32352.27255252273,-6304.778910252919,-38082.47751980752,0.0,0.0,0.0,193.0,0.0,194.0,0.0,17.0,0.0,180.0,194.0,17.0,180.0,1744420344.6522057,0.0,2025-04-11 21:12:24.652,STOP,6
169.0,28170.685848079425,30423.54052347428,-32157.03006470562,-29641.67650242764,-36400.79932222358,-32355.625314191024,-6069.593855094177,-38105.276299151934,0.0,0.0,0.0,193.0,0.0,193.0,0.0,17.0,0.0,179.0,193.0,17.0,179.0,1744420344.6522515,0.0,2025-04-11 21:12:24.652,STOP,6
170.0,28144.95899021137,30417.930235616,-32146.70355876727,-29628.511324943465,-36383.990810393196,-32334.748784869767,-6350.443524175111,-38078.67772325012,0.0,0.0,0.0,193.0,0.0,193.0,0.0,17.0,0.0,179.0,193.0,17.0,179.0,1744420344.6522985,0.0,2025-04-11 21:12:24.652,STOP,6
171.0,28125.267103346243,30431.229523566908,-32139.55100054157,-29625.136211530713,-36372.367903276434,-32332.558313913145,-6623.648896652329,-38082.835147718804,0.0,0.0,0.0,193.0,0.0,193.0,0.0,17.0,0.0,179.0,193.0,17.0,179.0,1744420344.6523476,0.0,2025-04-11 21:12:24.652,STOP,6
172.0,28146.925943723436,30435.342244546682,-32146.167116900342,-29624.152734774678,-36379.56516499104,-32345.00823557475,-6388.8438211493285,-38077.40367381617,0.0,0.0,0.0,193.0,0.0,193.0,0.0,17.0,0.0,179.0,193.0,17.0,179.0,1744420344.6524162,0.0,2025-04-11 21:12:24.652,STOP,6
173.0,28169.657667834483,30432.861200912143,-32161.165137429853,-29644.470470484554,-36396.93247043282,-32364.186032317408,-6043.129389659094,-38112.78648528892,0.0,0.0,0.0,193.0,0.0,193.0,0.0,17.0,0.0,179.0,193.0,17.0,179.0,1744420344.6524627,0.0,2025-04-11 21:12:24.652,STOP,6
174.0,28145.920115222947,30417.952587360454,-32153.25261989267,-29632.53463894542,-36386.561261005554,-32345.03058731921,-6294.72062524803,-38110.26073816547,0.0,0.0,0.0,193.0,0.0,193.0,0.0,17.0,0.0,179.0,193.0,17.0,179.0,1744420344.6525087,0.0,2025-04-11 21:12:24.652,STOP,6
175.0,28123.61307425655,30431.743613689378,-32142.143802898387,-29615.077926525824,-36375.810071922555,-32323.997595786765,-6600.939524285737,-38081.650505262674,0.0,0.0,0.0,193.0,0.0,193.0,0.0,17.0,0.0,179.0,193.0,17.0,179.0,1744420344.6525545,0.0,2025-04-11 21:12:24.652,STOP,6
176.0,28148.401158857487,30435.342244546682,-32140.69093950879,-29609.91467355665,-36379.1851853353,-32325.67397662091,-6484.509287418043,-38068.306513822856,0.0,0.0,0.0,193.0,0.0,193.0,0.0,17.0,0.0,179.0,193.0,17.0,179.0,1744420344.6525989,0.0,2025-04-11 21:12:24.652,STOP,6
177.0,28177.14550222701,30432.391814278584,-32162.573297330535,-29636.893229114205,-36403.36977283595,-32354.239506034795,-6062.262482912837,-38091.61938328974,0.0,0.0,0.0,193.0,0.0,193.0,0.0,17.0,0.0,179.0,193.0,17.0,179.0,1744420344.6526797,0.0,2025-04-11 21:12:24.652,STOP,6
178.0,28165.14261545451,30431.765965433835,-32145.764785500145,-29626.253798753478,-36382.82851968152,-32335.665206392434,-6240.025906565894,-38101.81177876137,0.0,0.0,0.0,193.0,0.0,193.0,0.0,17.0,0.0,179.0,193.0,17.0,179.0,1744420344.6527624,0.0,2025-04-11 21:12:24.652,STOP,6
179.0,28140.42158608694,30446.004026651866,-32133.046642905076,-29607.031298521913,-36370.78092942011,-32313.916959037422,-6564.841456990416,-38075.10144413727,0.0,0.0,0.0,193.0,0.0,193.0,0.0,17.0,0.0,179.0,193.0,17.0,179.0,1744420344.6528144,0.0,2025-04-11 21:12:24.652,STOP,6
180.0,28146.724778023337,30444.439404539993,-32132.35373882696,-29600.86221705225,-36378.29111555709,-32319.437839917882,-6563.321538367455,-38077.44837730508,0.0,0.0,0.0,193.0,0.0,193.0,0.0,17.0,0.0,180.0,193.0,17.0,180.0,1744420344.652872,0.0,2025-04-11 21:12:24.652,STOP,6
181.0,28175.670287092962,30444.864087684644,-32150.860983235954,-29618.743612616494,-36401.35811583497,-32346.97518908682,-6112.039817814805,-38090.3900373447,0.0,0.0,0.0,193.0,0.0,193.0,0.0,17.0,0.0,179.0,193.0,17.0,179.0,1744420344.6529229,0.0,2025-04-11 21:12:24.652,STOP,6
182.0,28151.57510657014,30414.64452918107,-32154.638428048904,-29633.071080812348,-36401.02283966814,-32350.707930410856,-6179.385623858646,-38117.90503476918,0.0,0.0,0.0,193.0,0.0,194.0,0.0,17.0,0.0,180.0,194.0,17.0,180.0,1744420344.6529937,0.0,2025-04-11 21:12:24.652,STOP,6
183.0,28134.341911595096,30428.457907254447,-32133.024291160622,-29606.360746188253,-36377.620563223434,-32324.087002764587,-6521.926107636226,-38096.78263625892,0.0,0.0,0.0,193.0,0.0,193.0,0.0,17.0,0.0,179.0,193.0,17.0,179.0,1744420344.6530435,0.0,2025-04-11 21:12:24.653,STOP,6
184.0,28141.85209773208,30442.271285327828,-32119.143857853876,-29591.966222759038,-36369.77510091962,-32312.19587471436,-6609.008504034103,-38075.03438890391,0.0,0.0,0.0,193.0,0.0,193.0,0.0,17.0,0.0,179.0,193.0,17.0,179.0,1744420344.6530888,0.0,2025-04-11 21:12:24.653,STOP,6
185.0,28174.262127192276,30449.02151215333,-32136.287645851095,-29607.031298521913,-36389.62344999593,-32336.87220059302,-6154.7540014688975,-38067.79242370038,0.0,0.0,0.0,193.0,0.0,194.0,0.0,17.0,0.0,179.0,194.0,17.0,179.0,1744420344.6531336,0.0,2025-04-11 21:12:24.653,STOP,6
186.0,28168.070693978156,30422.199418806962,-32141.964988942742,-29622.789278362907,-36389.4893395292,-32341.275494250716,-6118.700637662487,-38106.95267998608,0.0,0.0,0.0,193.0,0.0,193.0,0.0,17.0,0.0,179.0,193.0,17.0,179.0,1744420344.653178,0.0,2025-04-11 21:12:24.653,STOP,6
187.0,28146.74712976779,30429.97782587741,-32123.45774453375,-29600.772810074428,-36373.37373177693,-32317.984976528285,-6458.894188272261,-38084.10919715276,0.0,0.0,0.0,193.0,0.0,193.0,0.0,17.0,0.0,179.0,193.0,17.0,179.0,1744420344.6532836,0.0,2025-04-11 21:12:24.653,STOP,6
188.0,28141.583876798617,30437.286846314295,-32113.5782734845,-29594.961356516047,-36365.64002819539,-32315.191008471375,-6637.842254381449,-38082.276354107424,0.0,0.0,0.0,193.0,0.0,193.0,0.0,17.0,0.0,179.0,193.0,17.0,179.0,1744420344.653344,0.0,2025-04-11 21:12:24.653,STOP,6
189.0,28167.51190036677,30438.516192259336,-32137.65110226287,-29611.568702646342,-36391.83627269701,-32343.085985551596,-6216.981258032472,-38064.01497888744,0.0,0.0,0.0,193.0,0.0,193.0,0.0,17.0,0.0,179.0,193.0,17.0,179.0,1744420344.653398,0.0,2025-04-11 21:12:24.653,STOP,6
190.0,28169.52355736775,30427.49678224287,-32143.127279654418,-29630.299464499887,-36396.37367682144,-32349.21036353235,-6090.090404759694,-38104.248118906995,0.0,0.0,0.0,193.0,0.0,193.0,0.0,17.0,0.0,179.0,193.0,17.0,179.0,1744420344.653454,0.0,2025-04-11 21:12:24.653,STOP,6
191.0,28140.980379698325,30419.338395516683,-32133.024291160622,-29616.262568981954,-36380.52629000262,-32333.899418580466,-6413.386036561255,-38085.96439194255,0.0,0.0,0.0,193.0,0.0,193.0,0.0,17.0,0.0,179.0,193.0,17.0,179.0,1744420344.6535068,0.0,2025-04-11 21:12:24.653,STOP,6
192.0,28129.625693515027,30430.134288088597,-32121.043756132574,-29604.930234543113,-36363.44955723877,-32327.64093013298,-6638.937489859759,-38088.803063488376,0.0,0.0,0.0,193.0,0.0,193.0,0.0,17.0,0.0,179.0,193.0,17.0,179.0,1744420344.653557,0.0,2025-04-11 21:12:24.653,STOP,6
193.0,28151.932734481423,30434.090546857187,-32138.187544129796,-29614.58618814781,-36381.9344499033,-32353.278381023218,-6302.364921851746,-38088.75835999946,0.0,0.0,0.0,193.0,0.0,193.0,0.0,17.0,0.0,179.0,193.0,17.0,179.0,1744420344.6536164,0.0,2025-04-11 21:12:24.653,STOP,6
194.0,28172.228118446845,30426.043918853276,-32144.64719827738,-29629.271284254944,-36389.19876685128,-32347.288113509196,-6046.057468182739,-38092.89343272369,0.0,0.0,0.0,193.0,0.0,193.0,0.0,17.0,0.0,179.0,193.0,17.0,179.0,1744420344.6536608,0.0,2025-04-11 21:12:24.653,STOP,6
195.0,28153.899687993493,30422.17706706251,-32133.35956732745,-29613.803877091872,-36376.838252167494,-32330.05491853415,-6348.58832938532,-38085.89733670918,0.0,0.0,0.0,193.0,0.0,193.0,0.0,17.0,0.0,180.0,193.0,17.0,180.0,1744420344.6537051,0.0,2025-04-11 21:12:24.653,STOP,6
196.0,28127.882257447513,30430.64837821107,-32131.414965559838,-29608.394754933688,-36371.63029570941,-32321.717717852323,-6636.45644622522,-38073.35800806976,0.0,0.0,0.0,193.0,0.0,193.0,0.0,17.0,0.0,179.0,193.0,17.0,179.0,1744420344.6537495,0.0,2025-04-11 21:12:24.653,STOP,6
197.0,28146.635371045515,30429.329625288206,-32140.288608108596,-29612.216903235545,-36381.86739466994,-32339.152078527462,-6416.448225551632,-38069.491156278986,0.0,0.0,0.0,193.0,0.0,193.0,0.0,17.0,0.0,179.0,193.0,17.0,179.0,1744420344.653808,0.0,2025-04-11 21:12:24.653,STOP,6
198.0,28172.071656235657,30427.005043864854,-32152.716178025745,-29631.953493589583,-36396.61954601044,-32354.64183743499,-6054.551131075756,-38093.51928156844,0.0,0.0,0.0,193.0,0.0,193.0,0.0,17.0,0.0,179.0,193.0,17.0,179.0,1744420344.6538527,0.0,2025-04-11 21:12:24.653,STOP,6
199.0,28148.401158857487,30415.225674536905,-32145.965951200244,-29621.358766717767,-36391.67981048582,-32330.43489818989,-6296.464061315544,-38088.2889733659,0.0,0.0,0.0,193.0,0.0,193.0,0.0,17.0,0.0,179.0,193.0,17.0,179.0,1744420344.6538973,0.0,2025-04-11 21:12:24.653,STOP,6
200.0,28127.256408602767,30429.79901192177,-32133.06899464953,-29606.271339210434,-36374.64778121088,-32311.838246803076,-6610.349608701421,-38063.45618527606,0.0,0.0,0.0,193.0,0.0,193.0,0.0,17.0,0.0,179.0,193.0,17.0,179.0,1744420344.6539412,0.0,2025-04-11 21:12:24.653,STOP,6
201.0,28142.701464021382,30435.386948035593,-32134.96889292823,-29603.969109531536,-36372.54671723208,-32321.38244168549,-6488.309083975445,-38055.90129565016,0.0,0.0,0.0,193.0,0.0,194.0,0.0,17.0,0.0,180.0,194.0,17.0,180.0,1744420344.6539855,0.0,2025-04-11 21:12:24.653,STOP,6
202.0,28175.111493481578,30431.855372411654,-32153.25261989267,-29624.175086519135,-36396.19486286579,-32346.6846164089,-6062.7765730353085,-38083.4386448191,0.0,0.0,0.0,193.0,0.0,194.0,0.0,17.0,0.0,180.0,194.0,17.0,180.0,1744420344.654044,0.0,2025-04-11 21:12:24.654,STOP,6
203.0,28152.223307159344,30410.777677390302,-32153.342026870494,-29627.14786853169,-36398.00535416667,-32340.381424472504,-6233.856825096229,-38103.71167704006,0.0,0.0,0.0,193.0,0.0,194.0,0.0,17.0,0.0,180.0,194.0,17.0,180.0,1744420344.6541092,0.0,2025-04-11 21:12:24.654,STOP,6
204.0,28123.657777745462,30423.249950796362,-32145.004826188666,-29613.267435224945,-36387.142406361396,-32321.985938785787,-6572.150477427302,-38082.499871551976,0.0,0.0,0.0,193.0,0.0,194.0,0.0,17.0,0.0,180.0,194.0,17.0,180.0,1744420344.6541548,0.0,2025-04-11 21:12:24.654,STOP,6
205.0,28138.700501763884,30441.600732994168,-32126.877561435413,-29591.85446403676,-36371.20561256476,-32310.25127294675,-6578.58777983043,-38067.90418242266,0.0,0.0,0.0,193.0,0.0,194.0,0.0,17.0,0.0,179.0,194.0,17.0,179.0,1744420344.654199,0.0,2025-04-11 21:12:24.654,STOP,6
206.0,28167.556603855683,30437.55506724776,-32151.240962891694,-29614.58618814781,-36397.78183672212,-32349.16566004344,-6115.191413783004,-38083.34923784128,0.0,0.0,0.0,193.0,0.0,194.0,0.0,17.0,0.0,179.0,194.0,17.0,179.0,1744420344.654243,0.0,2025-04-11 21:12:24.654,STOP,6
207.0,28149.04935944669,30407.134343044087,-32158.684093795313,-29630.724147644538,-36402.11807514645,-32354.843003135087,-6194.182478688059,-38123.604729605286,0.0,0.0,0.0,193.0,0.0,193.0,0.0,17.0,0.0,179.0,193.0,17.0,179.0,1744420344.6542869,0.0,2025-04-11 21:12:24.654,STOP,6
208.0,28124.015405656744,30418.89136062758,-32144.02134943263,-29609.087659011802,-36386.11422611645,-32330.50195342326,-6538.578157255431,-38101.3423921278,0.0,0.0,0.0,193.0,0.0,193.0,0.0,17.0,0.0,179.0,193.0,17.0,179.0,1744420344.6543512,0.0,2025-04-11 21:12:24.654,STOP,6
209.0,28125.401213812976,30428.16733457653,-32134.253637105663,-29598.828208306815,-36379.498109757675,-32323.327043453104,-6633.93069910177,-38093.899261224185,0.0,0.0,0.0,193.0,0.0,193.0,0.0,17.0,0.0,179.0,193.0,17.0,179.0,1744420344.654396,0.0,2025-04-11 21:12:24.654,STOP,6
210.0,28163.980324742835,30435.275189313317,-32145.340102355494,-29606.80778107736,-36391.41158955236,-32341.49901169527,-6180.123231425671,-38073.98385691451,0.0,0.0,0.0,193.0,0.0,193.0,0.0,17.0,0.0,179.0,193.0,17.0,179.0,1744420344.65444,0.0,2025-04-11 21:12:24.654,STOP,6
211.0,28154.279667649233,30413.10225881365,-32155.197221660284,-29628.556028432376,-36400.50874954567,-32347.086947809097,-6146.483856020433,-38100.24715664949,0.0,0.0,0.0,193.0,0.0,194.0,0.0,17.0,0.0,180.0,194.0,17.0,180.0,1744420344.6545,0.0,2025-04-11 21:12:24.654,STOP,6
212.0,28124.70830973486,30415.851523381654,-32144.803660488567,-29612.820400335837,-36391.813920952554,-32329.339662711584,-6478.496668159565,-38075.16849937064,0.0,0.0,0.0,193.0,0.0,193.0,0.0,17.0,0.0,179.0,193.0,17.0,179.0,1744420344.6545446,0.0,2025-04-11 21:12:24.654,STOP,6
213.0,28122.651949244973,30427.630892709603,-32130.69970973727,-29599.81168506285,-36380.79451093609,-32324.73520335379,-6659.299929058544,-38086.67964776512,0.0,0.0,0.0,193.0,0.0,194.0,0.0,17.0,0.0,180.0,194.0,17.0,180.0,1744420344.6545887,0.0,2025-04-11 21:12:24.654,STOP,6
214.0,28149.71991178035,30426.625064209114,-32148.55875355706,-29616.508438170964,-36404.39795308089,-32357.100529325075,-6271.027776125405,-38093.69809552409,0.0,0.0,0.0,193.0,0.0,194.0,0.0,17.0,0.0,180.0,194.0,17.0,180.0,1744420344.654633,0.0,2025-04-11 21:12:24.654,STOP,6
215.0,28153.9443914824,30405.10033429865,-32156.046587949586,-29638.793127392906,-36411.12582816194,-32360.87797413802,-6129.474178489945,-38119.69317432561,0.0,0.0,0.0,193.0,0.0,194.0,0.0,17.0,0.0,180.0,194.0,17.0,180.0,1744420344.6546772,0.0,2025-04-11 21:12:24.654,STOP,6
216.0,28134.833649973116,30415.8291716372,-32142.74729999868,-29616.642548637697,-36394.49613028719,-32332.044223790675,-6425.679496011674,-38079.79531047289,0.0,0.0,0.0,193.0,0.0,194.0,0.0,17.0,0.0,180.0,194.0,17.0,180.0,1744420344.6547213,0.0,2025-04-11 21:12:24.654,STOP,6
217.0,28122.27196958923,30428.59201772118,-32127.659872491346,-29603.29855719788,-36375.318333544536,-32317.649700361457,-6664.329071560988,-38069.44645279008,0.0,0.0,0.0,193.0,0.0,194.0,0.0,17.0,0.0,179.0,194.0,17.0,179.0,1744420344.6547797,0.0,2025-04-11 21:12:24.654,STOP,6
218.0,28154.100853693588,30429.21786656593,-32134.03011966111,-29605.37726943222,-36381.86739466994,-32339.375595972015,-6362.826390603351,-38073.58152551431,0.0,0.0,0.0,193.0,0.0,194.0,0.0,17.0,0.0,180.0,194.0,17.0,180.0,1744420344.6548245,0.0,2025-04-11 21:12:24.654,STOP,6
219.0,28155.509013594274,30407.804895377743,-32160.382826373916,-29638.077871570335,-36405.96257519276,-32365.281267795715,-6082.982550022906,-38120.92252027065,0.0,0.0,0.0,193.0,0.0,193.0,0.0,17.0,0.0,179.0,193.0,17.0,179.0,1744420344.6548688,0.0,2025-04-11 21:12:24.654,STOP,6
220.0,28121.735527722303,30393.700944626446,-32157.45474785027,-29627.77371737644,-36398.519444289144,-32349.880915866008,-6361.775858613952,-38105.79038927441,0.0,0.0,0.0,193.0,0.0,193.0,0.0,17.0,0.0,179.0,193.0,17.0,179.0,1744420344.6549127,0.0,2025-04-11 21:12:24.654,STOP,6
221.0,28107.676280459917,30413.10225881365,-32139.372186585926,-29608.37240318923,-36379.67692371332,-32330.524305167713,-6651.856798154927,-38084.77974948642,0.0,0.0,0.0,193.0,0.0,193.0,0.0,17.0,0.0,179.0,193.0,17.0,179.0,1744420344.6549566,0.0,2025-04-11 21:12:24.654,STOP,6
222.0,28135.839478473605,30422.489991484883,-32141.450898820272,-29606.740725843996,-36383.72258945973,-32340.470831450326,-6439.023487451493,-38074.76616797044,0.0,0.0,0.0,193.0,0.0,193.0,0.0,17.0,0.0,179.0,193.0,17.0,179.0,1744420344.6550004,0.0,2025-04-11 21:12:24.655,STOP,6
223.0,28150.52457458074,30403.44630520896,-32163.467367108748,-29638.144926803703,-36406.61077578196,-32368.097587597083,-6071.761974306342,-38116.63098533523,0.0,0.0,0.0,193.0,0.0,193.0,0.0,17.0,0.0,179.0,193.0,17.0,179.0,1744420344.6550572,0.0,2025-04-11 21:12:24.655,STOP,6
224.0,28143.416719843954,30402.663994153023,-32137.74050924069,-29615.077926525824,-36384.0355138821,-32331.396023201472,-6312.490262089999,-38101.47650259453,0.0,0.0,0.0,193.0,0.0,193.0,0.0,17.0,0.0,179.0,193.0,17.0,179.0,1744420344.6551015,0.0,2025-04-11 21:12:24.655,STOP,6
225.0,28117.511048020253,30416.365613504127,-32129.02332890312,-29600.86221705225,-36377.978191134716,-32316.845037561066,-6628.83450136596,-38083.17042388564,0.0,0.0,0.0,193.0,0.0,193.0,0.0,17.0,0.0,180.0,193.0,17.0,180.0,1744420344.655146,0.0,2025-04-11 21:12:24.655,STOP,6
226.0,28129.201010370376,30419.87483738361,-32134.387747572393,-29600.2363682075,-36386.337743561,-32330.747822612266,-6545.529549781031,-38093.78750250191,0.0,0.0,0.0,193.0,0.0,194.0,0.0,17.0,0.0,180.0,194.0,17.0,180.0,1744420344.6552036,0.0,2025-04-11 21:12:24.655,STOP,6
227.0,28161.655743319483,30422.02060485132,-32150.41394834685,-29617.089583526802,-36401.671040257344,-32352.473718222824,-6099.120509519638,-38099.710714782566,0.0,0.0,0.0,193.0,0.0,194.0,0.0,17.0,0.0,180.0,194.0,17.0,180.0,1744420344.6552484,0.0,2025-04-11 21:12:24.655,STOP,6
228.0,28135.66066451796,30397.523092928303,-32151.777404758624,-29621.33641497331,-36398.40768556687,-32343.465965207335,-6251.201778793547,-38109.43372362062,0.0,0.0,0.0,193.0,0.0,194.0,0.0,17.0,0.0,180.0,194.0,17.0,180.0,1744420344.6552968,0.0,2025-04-11 21:12:24.655,STOP,6
229.0,28115.14176310799,30422.668805440524,-32132.823125460523,-29596.123647227723,-36378.22406032372,-32320.19779922936,-6583.549867099508,-38083.46099656355,0.0,0.0,0.0,193.0,0.0,193.0,0.0,17.0,0.0,179.0,193.0,17.0,179.0,1744420344.6553411,0.0,2025-04-11 21:12:24.655,STOP,6
230.0,28126.65291150247,30434.381119535105,-32127.16813411333,-29588.345240157276,-36374.24544981068,-32320.264854462726,-6591.954123014703,-38079.46003430606,0.0,0.0,0.0,193.0,0.0,194.0,0.0,17.0,0.0,180.0,194.0,17.0,180.0,1744420344.6553853,0.0,2025-04-11 21:12:24.655,STOP,6
231.0,28159.08529270712,30430.067232855232,-32147.195297145285,-29605.51137989895,-36395.41255180986,-32345.58938093059,-6131.172911068548,-38083.79627273038,0.0,0.0,0.0,193.0,0.0,193.0,0.0,17.0,0.0,179.0,193.0,17.0,179.0,1744420344.6555588,0.0,2025-04-11 21:12:24.655,STOP,6
232.0,28141.136841909512,30401.859331352633,-32150.74922451368,-29618.09541202729,-36398.63120301142,-32345.70113965287,-6199.122214212682,-38117.390944646715,0.0,0.0,0.0,193.0,0.0,193.0,0.0,17.0,0.0,179.0,193.0,17.0,179.0,1744420344.655604,0.0,2025-04-11 21:12:24.655,STOP,6
233.0,28113.644196229485,30415.426840237003,-32139.17102088583,-29600.549292629876,-36388.86349068445,-32325.338700454082,-6537.10294212138,-38086.72435125403,0.0,0.0,0.0,193.0,0.0,193.0,0.0,17.0,0.0,179.0,193.0,17.0,179.0,1744420344.6556482,0.0,2025-04-11 21:12:24.655,STOP,6
234.0,28114.1359346075,30429.79901192177,-32129.939750425787,-29594.179045460114,-36379.095778357485,-32323.572912642114,-6649.956899876225,-38082.701037252074,0.0,0.0,0.0,193.0,0.0,193.0,0.0,17.0,0.0,179.0,193.0,17.0,179.0,1744420344.6556923,0.0,2025-04-11 21:12:24.655,STOP,6
235.0,28151.53040308123,30430.7824886778,-32146.815317489545,-29607.701850855574,-36396.66424949935,-32349.858564121554,-6204.665446837598,-38081.35993258475,0.0,0.0,0.0,193.0,0.0,194.0,0.0,17.0,0.0,180.0,194.0,17.0,180.0,1744420344.6557364,0.0,2025-04-11 21:12:24.655,STOP,6
236.0,28142.790870999204,30404.832113365188,-32162.17096593034,-29630.232409266522,-36412.10930491797,-32356.02764559122,-6158.374984070657,-38116.407467890676,0.0,0.0,0.0,193.0,0.0,194.0,0.0,17.0,0.0,179.0,194.0,17.0,179.0,1744420344.6557803,0.0,2025-04-11 21:12:24.655,STOP,6
237.0,28115.09705961908,30416.097392570664,-32145.87654422242,-29606.80778107736,-36392.01508665265,-32333.20651450235,-6484.755156607051,-38095.95562171407,0.0,0.0,0.0,193.0,0.0,194.0,0.0,17.0,0.0,180.0,194.0,17.0,180.0,1744420344.6558244,0.0,2025-04-11 21:12:24.655,STOP,6
238.0,28106.983376381802,30428.97199737692,-32130.6326545039,-29594.156693715657,-36377.620563223434,-32321.762421341235,-6681.651673513851,-38097.810816503865,0.0,0.0,0.0,193.0,0.0,194.0,0.0,17.0,0.0,180.0,194.0,17.0,180.0,1744420344.655884,0.0,2025-04-11 21:12:24.655,STOP,6
239.0,28138.119356408046,30432.972959634422,-32145.608323288958,-29601.555121130365,-36395.72547623223,-32340.671997150424,-6279.230866340503,-38071.99455165798,0.0,0.0,0.0,193.0,0.0,194.0,0.0,17.0,0.0,180.0,194.0,17.0,180.0,1744420344.655943,0.0,2025-04-11 21:12:24.655,STOP,6
240.0,28144.37784485553,30415.046860581264,-32157.7900240171,-29623.86216209676,-36406.990755437706,-32355.06652057964,-6103.188527010504,-38111.75830504397,0.0,0.0,0.0,193.0,0.0,194.0,0.0,17.0,0.0,180.0,194.0,17.0,180.0,1744420344.655985,0.0,2025-04-11 21:12:24.655,STOP,6
241.0,28111.923111906424,30401.859331352633,-32157.32063738354,-29618.05070853838,-36406.074333915036,-32347.601037931567,-6423.801949477429,-38112.562967844366,0.0,0.0,0.0,193.0,0.0,193.0,0.0,17.0,0.0,179.0,193.0,17.0,179.0,1744420344.6560457,0.0,2025-04-11 21:12:24.656,STOP,6
242.0,28105.64227171448,30418.93606411649,-32137.159363884854,-29598.738801328996,-36389.93637441831,-32327.864447577533,-6691.195868396267,-38103.4434561066,0.0,0.0,0.0,193.0,0.0,193.0,0.0,17.0,0.0,179.0,193.0,17.0,179.0,1744420344.6560884,0.0,2025-04-11 21:12:24.656,STOP,6
243.0,28138.61109478606,30425.708642686444,-32143.127279654418,-29599.76698157394,-36393.91498493135,-32342.79541287368,-6388.128565326759,-38084.64563901969,0.0,0.0,0.0,193.0,0.0,193.0,0.0,17.0,0.0,179.0,193.0,17.0,179.0,1744420344.6561308,0.0,2025-04-11 21:12:24.656,STOP,6
244.0,28157.923001995445,30414.711584414435,-32154.996055960186,-29621.649339395684,-36406.18609263731,-32355.69236942439,-6088.749300092376,-38114.105238211785,0.0,0.0,0.0,193.0,0.0,193.0,0.0,17.0,0.0,179.0,193.0,17.0,179.0,1744420344.6561737,0.0,2025-04-11 21:12:24.656,STOP,6
245.0,28130.676225504427,30407.894302355566,-32152.358550114463,-29615.927292815126,-36400.30758384557,-32344.24827626327,-6360.881788835739,-38103.30934563987,0.0,0.0,0.0,193.0,0.0,193.0,0.0,17.0,0.0,179.0,193.0,17.0,179.0,1744420344.656216,0.0,2025-04-11 21:12:24.656,STOP,6
246.0,28115.879370675015,30432.07888985621,-32133.270160349628,-29595.184873960603,-36380.548641747075,-32324.846962076066,-6666.541894262064,-38095.10625542477,0.0,0.0,0.0,193.0,0.0,193.0,0.0,17.0,0.0,179.0,193.0,17.0,179.0,1744420344.6562705,0.0,2025-04-11 21:12:24.656,STOP,6
247.0,28142.366187854554,30438.963227148444,-32128.933921925298,-29585.484216866997,-36382.42618828132,-32326.59039814358,-6479.726014104607,-38074.944981926084,0.0,0.0,0.0,193.0,0.0,193.0,0.0,17.0,0.0,180.0,193.0,17.0,180.0,1744420344.6563134,0.0,2025-04-11 21:12:24.656,STOP,6
248.0,28161.164004941467,30420.478334483905,-32156.828899005523,-29620.174124261634,-36408.71183976076,-32360.967381115843,-6075.315901674736,-38109.277261409436,0.0,0.0,0.0,193.0,0.0,193.0,0.0,17.0,0.0,179.0,193.0,17.0,179.0,1744420344.656356,0.0,2025-04-11 21:12:24.656,STOP,6
249.0,28137.00176918528,30403.24513950886,-32156.672436794335,-29624.152734774678,-36407.460142071264,-32353.45719497886,-6305.24829688648,-38134.35591868829,0.0,0.0,0.0,193.0,0.0,194.0,0.0,17.0,0.0,180.0,194.0,17.0,180.0,1744420344.6563985,0.0,2025-04-11 21:12:24.656,STOP,6
250.0,28124.149516123478,30429.97782587741,-32129.626826003412,-29595.29663268288,-36384.326086560024,-32318.879046306498,-6640.278594527077,-38090.63590653371,0.0,0.0,0.0,193.0,0.0,194.0,0.0,17.0,0.0,180.0,194.0,17.0,180.0,1744420344.656441,0.0,2025-04-11 21:12:24.656,STOP,6
251.0,28138.588743041604,30433.375291034616,-32134.141878383387,-29595.09546698278,-36393.31148783106,-32331.954816812853,-6556.414849330766,-38085.11502565325,0.0,0.0,0.0,193.0,0.0,194.0,0.0,17.0,0.0,180.0,194.0,17.0,180.0,1744420344.6564837,0.0,2025-04-11 21:12:24.656,STOP,6
252.0,28162.7956822867,30425.06044209724,-32160.494585096192,-29624.309196985865,-36420.31239513307,-32369.237526564306,-6111.011637569862,-38115.69221206811,0.0,0.0,0.0,193.0,0.0,194.0,0.0,17.0,0.0,179.0,194.0,17.0,179.0,1744420345.1284337,0.0,2025-04-11 21:12:25.128,STOP,6
253.0,28150.345760625096,30410.576511690204,-32151.576239058526,-29625.382080719723,-36409.82942698353,-32363.69429393939,-6283.9470844205725,-38155.81359336538,0.0,0.0,0.0,193.0,0.0,193.0,0.0,17.0,0.0,179.0,193.0,17.0,179.0,1744420345.1286054,0.0,2025-04-11 21:12:25.128,STOP,6
254.0,28128.999844670278,30428.860238654644,-32134.58891327249,-29601.465714152542,-36390.204595351766,-32334.525267425215,-6620.720818128684,-38115.02165973445,0.0,0.0,0.0,193.0,0.0,193.0,0.0,17.0,0.0,179.0,193.0,17.0,179.0,1744420345.1287,0.0,2025-04-11 21:12:25.128,STOP,6
255.0,28130.51976329324,30431.40833752255,-32134.097174894476,-29597.777676317415,-36389.511691273656,-32332.73712786879,-6636.50114971413,-38092.93813621261,0.0,0.0,0.0,193.0,0.0,193.0,0.0,17.0,0.0,179.0,193.0,17.0,179.0,1744420345.1287768,0.0,2025-04-11 21:12:25.128,STOP,6
0.0,28155.95604848338,30422.668805440524,-32161.992151974697,-29623.57158941884,-36422.860494000975,-32368.857546908566,-6173.305949366802,-38111.4453806216,0.0,0.0,0.0,193.0,0.0,193.0,0.0,17.0,0.0,179.0,193.0,17.0,179.0,1744420345.128892,0.0,2025-04-11 21:12:25.128,STOP,6
1.0,28147.61884780155,30403.602767420147,-32155.59955306048,-29626.1420400312,-36415.95380496428,-32355.848831635576,-6235.108522785727,-38137.999253034504,0.0,0.0,0.0,193.0,0.0,193.0,0.0,17.0,0.0,179.0,193.0,17.0,179.0,1744420345.1289616,0.0,2025-04-11 21:12:25.128,STOP,6
2.0,28118.762745709748,30418.82430539421,-32145.27304712213,-29608.595920633787,-36401.00048792368,-32340.895514594977,-6561.578102299942,-38110.43955212111,0.0,0.0,0.0,193.0,0.0,193.0,0.0,18.0,0.0,179.0,193.0,18.0,179.0,1744420345.129037,0.0,2025-04-11 21:12:25.129,STOP,6
3.0,28117.46634453134,30428.681424699003,-32139.26042786365,-29602.695060097583,-36393.982040164716,-32341.767232628732,-6684.110365403934,-38120.319023170356,0.0,0.0,0.0,193.0,0.0,194.0,0.0,17.0,0.0,180.0,194.0,17.0,180.0,1744420345.1291125,0.0,2025-04-11 21:12:25.129,STOP,6
4.0,28155.553717083185,30437.35390154766,-32150.45865183576,-29607.791257833396,-36404.55441529208,-32358.64279969249,-6237.701325142542,-38106.84092126381,0.0,0.0,0.0,193.0,0.0,193.0,0.0,17.0,0.0,179.0,193.0,17.0,179.0,1744420345.1291928,0.0,2025-04-11 21:12:25.129,STOP,6
5.0,28145.987170456312,30416.991462348877,-32161.723931041233,-29626.209095264567,-36412.62339504044,-32360.74386367129,-6172.613045288688,-38132.03133726494,0.0,0.0,0.0,193.0,0.0,194.0,0.0,17.0,0.0,180.0,194.0,17.0,180.0,1744420345.129368,0.0,2025-04-11 21:12:25.129,STOP,6
6.0,28113.554789251662,30415.739764659378,-32155.644256549393,-29615.61436839275,-36405.023801925636,-32346.416395475437,-6490.834831098894,-38110.596014332295,0.0,0.0,0.0,193.0,0.0,194.0,0.0,17.0,0.0,180.0,194.0,17.0,180.0,1744420345.12944,0.0,2025-04-11 21:12:25.129,STOP,6
7.0,28115.007652641256,30438.20326783696,-32131.034985904098,-29594.961356516047,-36380.2357173247,-32326.79156384368,-6696.761452765639,-38096.469711836544,0.0,0.0,0.0,193.0,0.0,194.0,0.0,17.0,0.0,180.0,194.0,17.0,180.0,1744420345.1295173,0.0,2025-04-11 21:12:25.129,STOP,6
8.0,28141.986208198814,30434.336416046193,-32153.140861170396,-29608.2382927225,-36404.2414908697,-32354.664189179446,-6308.802224254874,-38089.96535420005,0.0,0.0,0.0,193.0,0.0,194.0,0.0,17.0,0.0,180.0,194.0,17.0,180.0,1744420345.1295857,0.0,2025-04-11 21:12:25.129,STOP,6
9.0,28143.10379542158,30412.387002991083,-32164.80847177607,-29629.494801699497,-36417.4960753317,-32362.59905846108,-6121.360495252668,-38135.49585765551,0.0,0.0,0.0,193.0,0.0,194.0,0.0,17.0,0.0,179.0,194.0,17.0,179.0,1744420345.1296587,0.0,2025-04-11 21:12:25.129,STOP,6
10.0,28114.56061775215,30410.911787857032,-32154.057282693066,-29615.547313159386,-36409.20357813878,-32347.13165129801,-6441.415124108211,-38125.05759299488,0.0,0.0,0.0,193.0,0.0,193.0,0.0,17.0,0.0,179.0,193.0,17.0,179.0,1744420345.129738,0.0,2025-04-11 21:12:25.129,STOP,6
11.0,28106.290472303688,30428.457907254447,-32141.719119753736,-29600.81751356334,-36397.267746599646,-32331.843058090577,-6721.191909455289,-38109.09844745379,0.0,0.0,0.0,193.0,0.0,193.0,0.0,17.0,0.0,179.0,193.0,17.0,179.0,1744420345.12981,0.0,2025-04-11 21:12:25.129,STOP,6
12.0,28139.080481419624,30436.258666069352,-32142.79200348759,-29598.895263540184,-36390.51751977414,-32339.152078527462,-6422.349086087834,-38077.69424649409,0.0,0.0,0.0,193.0,0.0,193.0,0.0,17.0,0.0,179.0,193.0,17.0,179.0,1744420345.1299725,0.0,2025-04-11 21:12:25.129,STOP,6
13.0,28148.28940013521,30413.035203580286,-32169.07765496703,-29633.361653490265,-36416.490246831214,-32366.622372463036,-6083.7872128232975,-38116.16159870167,0.0,0.0,0.0,193.0,0.0,193.0,0.0,17.0,0.0,179.0,193.0,17.0,179.0,1744420345.1300488,0.0,2025-04-11 21:12:25.130,STOP,6
14.0,28126.541152780195,30406.620252921613,-32159.824032762535,-29621.515228928954,-36406.18609263731,-32350.372654244027,-6358.870131834761,-38123.671784838654,0.0,0.0,0.0,193.0,0.0,193.0,0.0,17.0,0.0,179.0,193.0,17.0,179.0,1744420345.1301253,0.0,2025-04-11 21:12:25.130,STOP,6
15.0,28112.548960751174,30431.25187531136,-32143.104927909964,-29600.459885652053,-36390.49516802969,-32330.703119123355,-6673.60504550994,-38115.08871496782,0.0,0.0,0.0,193.0,0.0,193.0,0.0,17.0,0.0,179.0,193.0,17.0,179.0,1744420345.130257,0.0,2025-04-11 21:12:25.130,STOP,6
16.0,28132.66553076095,30441.86895392763,-32148.446994834783,-29598.180007717612,-36400.95578443477,-32337.430994204402,-6510.325552263922,-38094.90508972467,0.0,0.0,0.0,193.0,0.0,193.0,0.0,17.0,0.0,179.0,193.0,17.0,179.0,1744420345.1303332,0.0,2025-04-11 21:12:25.130,STOP,6
17.0,28153.0950251931,30423.58522696319,-32170.843442779,-29627.70666214307,-36424.55922657958,-32365.817709662642,-6119.818224885253,-38123.537674371924,0.0,0.0,0.0,193.0,0.0,193.0,0.0,17.0,0.0,179.0,193.0,17.0,179.0,1744420345.1304128,0.0,2025-04-11 21:12:25.130,STOP,6
18.0,28128.10577489207,30400.8758545966,-32165.523727598636,-29625.024452808437,-36419.574787566045,-32356.251163035773,-6339.692335092108,-38135.33939544432,0.0,0.0,0.0,193.0,0.0,193.0,0.0,17.0,0.0,180.0,193.0,17.0,180.0,1744420345.130491,0.0,2025-04-11 21:12:25.130,STOP,6
19.0,28108.413888026942,30417.729069915902,-32144.133108154907,-29602.739763586495,-36393.60206050898,-32334.458212191847,-6671.056946642036,-38111.49008411051,0.0,0.0,0.0,193.0,0.0,193.0,0.0,17.0,0.0,180.0,193.0,17.0,180.0,1744420345.1305676,0.0,2025-04-11 21:12:25.130,STOP,6
20.0,28116.393460797484,30419.181933305495,-32145.295398866583,-29602.113914741745,-36394.87610994293,-32342.41543321794,-6587.0143874900805,-38097.58729905931,0.0,0.0,0.0,193.0,0.0,194.0,0.0,17.0,0.0,180.0,194.0,17.0,180.0,1744420345.1306753,0.0,2025-04-11 21:12:25.130,STOP,6
21.0,28142.85792623257,30413.370479747115,-32169.45763462277,-29626.5443714314,-36422.48051434523,-32371.249183565284,-6127.060190088772,-38111.06540096586,0.0,0.0,0.0,193.0,0.0,194.0,0.0,17.0,0.0,179.0,194.0,17.0,179.0,1744420345.1308632,0.0,2025-04-11 21:12:25.130,STOP,6
22.0,28131.793812727192,30396.986651061376,-32163.422663619836,-29625.67265339764,-36416.4455433423,-32363.56018347266,-6279.230866340503,-38147.67755838365,0.0,0.0,0.0,193.0,0.0,194.0,0.0,17.0,0.0,180.0,194.0,17.0,180.0,1744420345.1309395,0.0,2025-04-11 21:12:25.130,STOP,6
23.0,28115.119411363532,30420.478334483905,-32143.663721521345,-29599.275243195923,-36395.3902000654,-32332.334796468593,-6598.503184140109,-38104.71750554055,0.0,0.0,0.0,193.0,0.0,193.0,0.0,18.0,0.0,179.0,193.0,18.0,179.0,1744420345.131008,0.0,2025-04-11 21:12:25.131,STOP,6
24.0,28130.698577248884,30438.65030272607,-32128.732756225203,-29580.835054020296,-36383.47672027072,-32314.341642182073,-6635.607079935919,-38075.794348215386,0.0,0.0,0.0,193.0,0.0,193.0,0.0,17.0,0.0,179.0,193.0,17.0,179.0,1744420345.1310775,0.0,2025-04-11 21:12:25.131,STOP,6
25.0,28157.65478106198,30441.220753338428,-32155.219573404742,-29603.924406042628,-36411.55051130659,-32351.26672402224,-6176.211676145992,-38092.04406643439,0.0,0.0,0.0,193.0,0.0,193.0,0.0,17.0,0.0,179.0,193.0,17.0,179.0,1744420345.1311584,0.0,2025-04-11 21:12:25.131,STOP,6
26.0,28146.724778023337,30413.795162891765,-32158.482928095214,-29614.80970559236,-36410.43292408382,-32350.01502633274,-6211.125100985182,-38122.5989011048,0.0,0.0,0.0,193.0,0.0,193.0,0.0,18.0,0.0,179.0,193.0,18.0,179.0,1744420345.131379,0.0,2025-04-11 21:12:25.131,STOP,6
27.0,28119.142725365487,30417.39379374907,-32147.776442501123,-29596.034240249905,-36397.78183672212,-32333.273569735717,-6539.963965411659,-38101.76707527245,0.0,0.0,0.0,193.0,0.0,193.0,0.0,17.0,0.0,179.0,193.0,17.0,179.0,1744420345.13145,0.0,2025-04-11 21:12:25.131,STOP,6
28.0,28121.199085855376,30435.096375357676,-32133.35956732745,-29578.264603407933,-36389.13171161791,-32321.78477308569,-6682.568095036519,-38099.487197338014,0.0,0.0,0.0,193.0,0.0,193.0,0.0,17.0,0.0,179.0,193.0,17.0,179.0,1744420345.1315236,0.0,2025-04-11 21:12:25.131,STOP,6
29.0,28162.773330542248,30446.719282474434,-32144.669550021834,-29582.3326208988,-36408.71183976076,-32339.9343895834,-6251.157075304637,-38085.3385430978,0.0,0.0,0.0,193.0,0.0,193.0,0.0,17.0,0.0,179.0,193.0,17.0,179.0,1744420345.131595,0.0,2025-04-11 21:12:25.131,STOP,6
