Sample Index,EXG Channel 0,EXG Channel 1,EXG Channel 2,EXG Channel 3,EXG Channel 4,EXG Channel 5,EXG Channel 6,EXG Channel 7,Accel Channel 0,Accel Channel 1,Accel Channel 2,Not Used,Digital Channel 0 (D11),Digital Channel 1 (D12),Digital Channel 2 (D13),Digital Channel 3 (D17),Not Used,Digital Channel 4 (D18),Analog Channel 0,Analog Channel 1,Analog Channel 2,Timestamp,Marker Channel,Timestamp (Formatted),Stimulus_Direction,Stimulus_Number
154.0,7311.21090784203,-9169.736107556357,-21200.070822247366,-23669.78212234761,15162.730534402197,14109.404576945852,31965.85559437938,51676.09324170271,0.0,0.0,0.0,193.0,0.0,193.0,0.0,1.0,0.0,179.0,193.0,1.0,179.0,1744418870.266757,0.0,2025-04-11 20:47:50.266,STOP,43
155.0,7311.188556097574,-9170.33960465665,-21241.622715189784,-23686.903558600374,15095.250617891625,13925.203850889666,32047.05948198551,51534.87492023408,0.0,0.0,0.0,193.0,0.0,193.0,0.0,1.0,0.0,179.0,193.0,1.0,179.0,1744418870.2667897,0.0,2025-04-11 20:47:50.266,STOP,43
156.0,7309.44512003006,-9150.066572435686,-21276.133808628776,-23653.15242447286,14978.552160090467,14108.957542056745,31834.002653837524,51560.22179844639,0.0,0.0,0.0,193.0,0.0,193.0,0.0,1.0,0.0,179.0,193.0,1.0,179.0,1744418870.266822,0.0,2025-04-11 20:47:50.266,STOP,43
157.0,7316.821195700311,-9146.37853460056,-21257.44775026414,-23640.143709199874,14970.30436638646,14244.118540777987,31638.961331720515,51662.05634618478,0.0,0.0,0.0,193.0,0.0,193.0,0.0,1.0,0.0,179.0,193.0,1.0,179.0,1744418870.26691,0.0,2025-04-11 20:47:50.266,STOP,43
158.0,7298.82804141379,-9178.788564060756,-21205.34583393882,-23662.7860263331,15136.847214322952,14154.443342023294,31909.88682626329,51700.16607048107,0.0,0.0,0.0,193.0,0.0,193.0,0.0,1.0,0.0,179.0,193.0,1.0,179.0,1744418870.2669427,0.0,2025-04-11 20:47:50.266,STOP,43
159.0,7296.5034599904375,-9177.313348926706,-21234.760729642003,-23681.405029464368,15107.409966875312,13937.85493825137,32073.05456078703,51572.425850919,0.0,0.0,0.0,193.0,0.0,193.0,0.0,1.0,0.0,179.0,193.0,1.0,179.0,1744418870.266975,0.0,2025-04-11 20:47:50.266,STOP,43
160.0,7317.78232071189,-9138.398961830017,-21254.765540929504,-23625.838592748474,14999.942779534196,14063.40468685683,31868.98313391008,51536.6630597905,0.0,0.0,0.0,193.0,0.0,193.0,0.0,1.0,0.0,179.0,193.0,1.0,179.0,1744418870.2670076,0.0,2025-04-11 20:47:50.267,STOP,43
161.0,7328.421751072616,-9123.065665133676,-21249.624639704783,-23608.33717683997,14969.790276263986,14262.223453786786,31656.060416228822,51650.85812221267,0.0,0.0,0.0,193.0,0.0,193.0,0.0,1.0,0.0,178.0,193.0,1.0,178.0,1744418870.2670543,0.0,2025-04-11 20:47:50.267,STOP,43
162.0,7317.0447131448645,-9156.660337050002,-21207.692767106626,-23646.558659858547,15122.832670549473,14189.021490695655,31855.102700603333,51699.160241980586,0.0,0.0,0.0,193.0,0.0,192.0,0.0,1.0,0.0,178.0,192.0,1.0,178.0,1744418870.2670872,0.0,2025-04-11 20:47:50.267,STOP,43
163.0,7303.097224604753,-9184.82353506369,-21232.100872051822,-23688.98227083472,15140.982287047183,13961.771304818549,32100.122523322407,51599.87379311011,0.0,0.0,0.0,193.0,0.0,192.0,0.0,1.0,0.0,178.0,192.0,1.0,178.0,1744418870.2671192,0.0,2025-04-11 20:47:50.267,STOP,43
164.0,7303.8348321717785,-9167.478581366371,-21265.87435792379,-23655.722875085223,15020.059349543972,14016.287209545042,31924.482515392607,51527.655306775014,0.0,0.0,0.0,193.0,0.0,193.0,0.0,1.0,0.0,179.0,193.0,1.0,179.0,1744418870.2671516,0.0,2025-04-11 20:47:50.267,STOP,43
165.0,7325.918355693621,-9130.307630337194,-21256.084293852367,-23619.334235111983,14955.015773179028,14233.479110417262,31661.64835234265,51625.75711318936,0.0,0.0,0.0,193.0,0.0,193.0,0.0,1.0,0.0,179.0,193.0,1.0,179.0,1744418870.267187,0.0,2025-04-11 20:47:50.267,STOP,43
166.0,7326.365390582728,-9141.081171164653,-21192.940615766125,-23626.285627637582,15095.27296963608,14222.213831211786,31761.38183610223,51682.597599339206,0.0,0.0,0.0,193.0,0.0,193.0,0.0,1.0,0.0,179.0,193.0,1.0,179.0,1744418870.2672236,0.0,2025-04-11 20:47:50.267,STOP,43
167.0,7314.943649166066,-9169.043203478243,-21198.685014091137,-23670.16210200335,15170.151313561359,14020.422282269274,32077.234337000173,51615.98940086239,0.0,0.0,0.0,193.0,0.0,193.0,0.0,1.0,0.0,179.0,193.0,1.0,179.0,1744418870.267256,0.0,2025-04-11 20:47:50.267,STOP,43
168.0,7311.568535753315,-9154.38045911556,-21242.226212290076,-23652.615982605934,15040.913527120772,13980.926749816746,31951.125794783333,51510.9585536669,0.0,0.0,0.0,193.0,0.0,193.0,0.0,1.0,0.0,179.0,193.0,1.0,179.0,1744418870.267288,0.0,2025-04-11 20:47:50.267,STOP,43
169.0,7336.758951754446,-9115.75664469679,-21240.43807273365,-23608.270121606605,14956.647450524266,14207.61814208247,31676.087579260777,51599.69497915447,0.0,0.0,0.0,193.0,0.0,193.0,0.0,1.0,0.0,179.0,193.0,1.0,179.0,1744418870.26732,0.0,2025-04-11 20:47:50.267,STOP,43
170.0,7347.331326881806,-9123.400941300504,-21199.042642002423,-23626.39738635986,15061.678297719753,14222.571459123072,31682.055495030345,51665.56557006426,0.0,0.0,0.0,193.0,0.0,193.0,0.0,1.0,0.0,179.0,193.0,1.0,179.0,1744418870.267352,0.0,2025-04-11 20:47:50.267,STOP,43
171.0,7340.335230867295,-9158.180255672964,-21198.752069324502,-23674.855968338965,15168.743153660675,14044.785683725559,32042.164449949796,51637.625889495124,0.0,0.0,0.0,193.0,0.0,193.0,0.0,1.0,0.0,179.0,193.0,1.0,179.0,1744418870.2673845,0.0,2025-04-11 20:47:50.267,STOP,43
172.0,7330.299297606862,-9151.787656758745,-21228.90457259471,-23648.413854648337,15067.93678616724,13962.084229240923,31978.909013141278,51514.82540545767,0.0,0.0,0.0,193.0,0.0,193.0,0.0,1.0,0.0,179.0,193.0,1.0,179.0,1744418870.2675683,0.0,2025-04-11 20:47:50.267,STOP,43
173.0,7321.8279864583,-9140.254156619807,-21238.806395388412,-23603.889179693364,14967.86802624083,14211.753214806702,31737.353710812775,51605.037046079284,0.0,0.0,0.0,193.0,0.0,193.0,0.0,1.0,0.0,178.0,193.0,1.0,178.0,1744418870.2676015,0.0,2025-04-11 20:47:50.267,STOP,43
174.0,7330.92514645161,-9131.894604193521,-21197.29920593491,-23599.172961613294,15029.380026981835,14274.9192446374,31660.79898605335,51686.24093368542,0.0,0.0,0.0,193.0,0.0,193.0,0.0,1.0,0.0,178.0,193.0,1.0,178.0,1744418870.2676342,0.0,2025-04-11 20:47:50.267,STOP,43
175.0,7310.719169464013,-9155.252177149318,-21178.255519658986,-23647.497433125667,15180.589578221987,14127.50948995465,32025.646510797324,51680.87651501614,0.0,0.0,0.0,193.0,0.0,192.0,0.0,1.0,0.0,178.0,192.0,1.0,178.0,1744418870.2676663,0.0,2025-04-11 20:47:50.267,STOP,43
176.0,7301.510250748426,-9154.648680049024,-21232.972590085577,-23665.49058741219,15087.382803843357,13966.554578131983,32044.511383117606,51545.38024012807,0.0,0.0,0.0,193.0,0.0,192.0,0.0,1.0,0.0,178.0,192.0,1.0,178.0,1744418870.2677135,0.0,2025-04-11 20:47:50.267,STOP,43
177.0,7304.594791483259,-9130.397037315017,-21257.335991541862,-23625.14568867036,14981.502590358567,14167.832036952024,31803.537226144937,51598.622095420615,0.0,0.0,0.0,193.0,0.0,193.0,0.0,1.0,0.0,179.0,193.0,1.0,179.0,1744418870.267746,0.0,2025-04-11 20:47:50.267,STOP,43
178.0,7316.4635677890265,-9121.56809825517,-21221.707310880105,-23614.550961798544,15011.722148862142,14274.472209748294,31650.383073137175,51692.83469829973,0.0,0.0,0.0,193.0,0.0,193.0,0.0,1.0,0.0,179.0,193.0,1.0,179.0,1744418870.2677782,0.0,2025-04-11 20:47:50.267,STOP,43
179.0,7299.565648980814,-9138.801293230212,-21167.370220109253,-23636.388616131382,15190.044366126582,14153.683382711815,31959.03831232051,51695.98629426793,0.0,0.0,0.0,193.0,0.0,193.0,0.0,1.0,0.0,179.0,193.0,1.0,179.0,1744418870.2678103,0.0,2025-04-11 20:47:50.267,STOP,43
180.0,7298.582172224781,-9150.513607324792,-21213.593627642826,-23662.02606702162,15125.313714184012,13956.272775682542,32066.34903745044,51557.56194085621,0.0,0.0,0.0,193.0,0.0,193.0,0.0,1.0,0.0,179.0,193.0,1.0,179.0,1744418870.2678425,0.0,2025-04-11 20:47:50.267,STOP,43
181.0,7312.775529953901,-9132.56515652718,-21253.223270562088,-23627.04558694906,14998.44521265569,14115.551306671061,31853.314561046907,51573.185810230476,0.0,0.0,0.0,193.0,0.0,193.0,0.0,1.0,0.0,179.0,193.0,1.0,179.0,1744418870.2678747,0.0,2025-04-11 20:47:50.267,STOP,43
182.0,7320.173957368607,-9112.292124306217,-21235.520688953482,-23612.740470497665,14985.235331682603,14283.323500552595,31668.152709979146,51700.18842222553,0.0,0.0,0.0,193.0,0.0,193.0,0.0,1.0,0.0,179.0,193.0,1.0,179.0,1744418870.2679076,0.0,2025-04-11 20:47:50.267,STOP,43
183.0,7310.897983419655,-9139.315383352683,-21188.783191297436,-23644.614058090934,15151.3758482189,14187.300406372597,31922.89554153628,51729.87153886218,0.0,0.0,0.0,193.0,0.0,193.0,0.0,1.0,0.0,178.0,193.0,1.0,178.0,1744418870.2679398,0.0,2025-04-11 20:47:50.267,STOP,43
184.0,7330.992201684976,-9146.7585142563,-21217.14755501122,-23670.363267703447,15143.910365570828,13973.28245321303,32104.54816872456,51602.73481640039,0.0,0.0,0.0,193.0,0.0,193.0,0.0,1.0,0.0,179.0,193.0,1.0,179.0,1744418870.267972,0.0,2025-04-11 20:47:50.267,STOP,43
185.0,7339.888195978188,-9121.836319188633,-21255.570203729894,-23630.91243873983,15027.21190776967,14089.332710424986,31922.672024091724,51574.45985966443,0.0,0.0,0.0,193.0,0.0,193.0,0.0,1.0,0.0,179.0,193.0,1.0,179.0,1744418870.2680042,0.0,2025-04-11 20:47:50.268,STOP,43
186.0,7339.396457600172,-9102.680874190435,-21250.026971104977,-23613.187505386773,14964.917595972729,14276.260349304719,31680.98261129649,51679.24483767091,0.0,0.0,0.0,193.0,0.0,193.0,0.0,1.0,0.0,179.0,193.0,1.0,179.0,1744418870.2680361,0.0,2025-04-11 20:47:50.268,STOP,43
187.0,7325.6724865046135,-9128.117159380576,-21188.42556338615,-23631.314770140027,15121.446862393244,14226.997104525222,31845.334988276365,51718.315686978785,0.0,0.0,0.0,193.0,0.0,193.0,0.0,1.0,0.0,179.0,193.0,1.0,179.0,1744418870.2680824,0.0,2025-04-11 20:47:50.268,STOP,43
188.0,7300.906753648133,-9160.415430118494,-21218.645121889727,-23679.661593396857,15146.324353972,14027.01604688359,32124.463573034238,51640.30809882976,0.0,0.0,0.0,193.0,0.0,193.0,0.0,1.0,0.0,178.0,193.0,1.0,178.0,1744418870.268115,0.0,2025-04-11 20:47:50.268,STOP,43
189.0,7303.901887405144,-9137.370781585072,-21262.812168933415,-23649.285572682093,15021.109881533372,14057.63793678736,31966.347332757396,51570.81652531821,0.0,0.0,0.0,193.0,0.0,193.0,0.0,1.0,0.0,178.0,193.0,1.0,178.0,1744418870.2681472,0.0,2025-04-11 20:47:50.268,STOP,43
190.0,7321.582117269292,-9095.662426431469,-21261.962802644113,-23615.042700176564,14943.996363162561,14269.755991668224,31703.423762729617,51676.96495973646,0.0,0.0,0.0,193.0,0.0,193.0,0.0,0.0,0.0,179.0,193.0,0.0,179.0,1744418870.2681797,0.0,2025-04-11 20:47:50.268,STOP,43
191.0,7334.4790738200045,-9096.265923531762,-21191.91243552118,-23615.892066465865,15081.593702029431,14248.991221069244,31765.47220533755,51715.09703577722,0.0,0.0,0.0,193.0,0.0,193.0,0.0,1.0,0.0,179.0,193.0,1.0,179.0,1744418870.2682247,0.0,2025-04-11 20:47:50.268,STOP,43
192.0,7324.107864392742,-9135.180310628451,-21198.126220479753,-23669.178625247318,15160.473008212211,14056.319183864498,32099.228453544198,51661.13992466211,0.0,0.0,0.0,193.0,0.0,193.0,0.0,1.0,0.0,179.0,193.0,1.0,179.0,1744418870.2682571,0.0,2025-04-11 20:47:50.268,STOP,43
193.0,7346.638422803691,-9118.908240664989,-21235.699502909127,-23644.25643017965,15044.400399255801,14005.714834417682,31978.70784744118,51540.14993192553,0.0,0.0,0.0,193.0,0.0,193.0,0.0,1.0,0.0,178.0,193.0,1.0,178.0,1744418870.26829,0.0,2025-04-11 20:47:50.268,STOP,43
194.0,7345.11850418073,-9099.506926477781,-21263.817997433904,-23622.48583108018,14939.816586949419,14241.235165743252,31726.602521729772,51640.33045057422,0.0,0.0,0.0,193.0,0.0,193.0,0.0,1.0,0.0,179.0,193.0,1.0,179.0,1744418870.2683222,0.0,2025-04-11 20:47:50.268,STOP,43
195.0,7354.21566417404,-9093.85193513059,-21207.1563252397,-23623.53636306958,15026.4966519471,14265.307994521618,31696.964108582037,51705.955172295,0.0,0.0,0.0,193.0,0.0,193.0,0.0,0.0,0.0,178.0,193.0,0.0,178.0,1744418870.2683544,0.0,2025-04-11 20:47:50.268,STOP,43
196.0,7344.179730913607,-9128.050104147209,-21185.743354051516,-23663.993020533686,15163.445790224767,14091.299663937052,32055.329627433974,51680.36242489367,0.0,0.0,0.0,193.0,0.0,192.0,0.0,0.0,0.0,178.0,192.0,0.0,178.0,1744418870.2683861,0.0,2025-04-11 20:47:50.268,STOP,43
197.0,7345.967870470032,-9116.963638897376,-21231.87735460727,-23658.002753019664,15065.612204743888,13978.28924397102,32003.518283786572,51542.47451334888,0.0,0.0,0.0,193.0,0.0,192.0,0.0,0.0,0.0,178.0,192.0,0.0,178.0,1744418870.268418,0.0,2025-04-11 20:47:50.268,STOP,43
198.0,7327.527681294404,-9099.08224333313,-21263.08038986688,-23624.38572935888,14959.039087180983,14212.714339818282,31760.063083179368,51626.96410738994,0.0,0.0,0.0,193.0,0.0,193.0,0.0,0.0,0.0,179.0,193.0,0.0,179.0,1744418870.2684495,0.0,2025-04-11 20:47:50.268,STOP,43
199.0,7332.646230774669,-9090.56622869566,-21220.634427146248,-23613.634540275878,15006.335378448413,14280.998919129244,31642.381148622175,51706.201041484004,0.0,0.0,0.0,193.0,0.0,193.0,0.0,0.0,0.0,178.0,193.0,0.0,178.0,1744418870.2684815,0.0,2025-04-11 20:47:50.268,STOP,43
200.0,7321.425655058105,-9116.404845285993,-21178.590795825818,-23645.597534846966,15168.474932727211,14137.791292404092,31987.335620800928,51702.289486204325,0.0,0.0,0.0,193.0,0.0,192.0,0.0,0.0,0.0,178.0,192.0,0.0,178.0,1744418870.2685132,0.0,2025-04-11 20:47:50.268,STOP,43
201.0,7336.714248265535,-9119.37762729855,-21217.19225850013,-23648.235040692693,15085.147629397827,13958.396191405796,32014.314176358486,51554.14212395455,0.0,0.0,0.0,193.0,0.0,193.0,0.0,0.0,0.0,179.0,193.0,0.0,179.0,1744418870.268545,0.0,2025-04-11 20:47:50.268,STOP,43
202.0,7344.380896613705,-9117.097749364108,-21247.25535479252,-23612.986339686675,14965.029354695005,14164.27810958363,31789.075647482354,51598.39857797606,0.0,0.0,0.0,193.0,0.0,193.0,0.0,0.0,0.0,179.0,193.0,0.0,179.0,1744418870.2685902,0.0,2025-04-11 20:47:50.268,STOP,43
203.0,7349.991184471987,-9104.8489934026,-21211.827839830858,-23597.943615668253,14988.990424751095,14300.02025366071,31633.88748572916,51708.592678140725,0.0,0.0,0.0,193.0,0.0,193.0,0.0,0.0,0.0,179.0,193.0,0.0,179.0,1744418870.268627,0.0,2025-04-11 20:47:50.268,STOP,43
204.0,7339.150588411163,-9125.122025623563,-21166.118522419754,-23635.44984286426,15174.219331052225,14184.439383082317,31945.85078309188,51729.826835373264,0.0,0.0,0.0,193.0,0.0,193.0,0.0,0.0,0.0,178.0,193.0,0.0,178.0,1744418870.268659,0.0,2025-04-11 20:47:50.268,STOP,43
205.0,7345.878463492211,-9131.201700115407,-21208.497429907016,-23664.64122112289,15127.392426418357,13975.405868936286,32065.745540350144,51592.36360697313,0.0,0.0,0.0,193.0,0.0,193.0,0.0,0.0,0.0,178.0,193.0,0.0,178.0,1744418870.2686937,0.0,2025-04-11 20:47:50.268,STOP,43
206.0,7330.656925518147,-9115.063740618676,-21249.892860638247,-23632.56646782952,14999.115764989348,14132.538632457094,31865.809186197424,51606.668723424526,0.0,0.0,0.0,193.0,0.0,192.0,0.0,0.0,0.0,178.0,192.0,0.0,178.0,1744418870.268749,0.0,2025-04-11 20:47:50.268,STOP,43
207.0,7355.869693263733,-9070.784934852712,-21217.952217811613,-23594.90377842233,14975.087639699894,14284.105811608531,31629.97593044948,51698.98142802494,0.0,0.0,0.0,193.0,0.0,193.0,0.0,0.0,0.0,179.0,193.0,0.0,179.0,1744418870.2687814,0.0,2025-04-11 20:47:50.268,STOP,43
208.0,7336.758951754446,-9102.747929423802,-21166.453798586583,-23617.613150788922,15156.38263897689,14209.607447338993,31868.2231745986,51728.28456500585,0.0,0.0,0.0,193.0,0.0,193.0,0.0,0.0,0.0,179.0,193.0,0.0,179.0,1744418870.2688131,0.0,2025-04-11 20:47:50.268,STOP,43
209.0,7313.4684340320155,-9128.430083802949,-21215.560581154896,-23670.20680549226,15137.026028278593,13993.846058111914,32092.746447652156,51625.958278889455,0.0,0.0,0.0,193.0,0.0,193.0,0.0,0.0,0.0,179.0,193.0,0.0,179.0,1744418870.268845,0.0,2025-04-11 20:47:50.268,STOP,43
210.0,7332.176844141108,-9100.266885789262,-21250.406950760716,-23628.00671196064,15011.297465717491,14064.946957224245,31887.848006230357,51562.92635952549,0.0,0.0,0.0,193.0,0.0,193.0,0.0,0.0,0.0,179.0,193.0,0.0,179.0,1744418870.2688768,0.0,2025-04-11 20:47:50.268,STOP,43
211.0,7343.665640791135,-9076.752850622279,-21244.707255924615,-23599.776458713586,14962.324793615913,14268.191369556353,31644.638674812162,51671.444078856,0.0,0.0,0.0,193.0,0.0,193.0,0.0,0.0,0.0,178.0,193.0,0.0,178.0,1744418870.2689085,0.0,2025-04-11 20:47:50.268,STOP,43
212.0,7345.207911158552,-9084.017167570253,-21178.277871403443,-23610.281778607583,15117.512955369111,14228.628781870459,31785.499368369507,51716.415788700084,0.0,0.0,0.0,193.0,0.0,192.0,0.0,0.0,0.0,178.0,192.0,0.0,178.0,1744418870.2689404,0.0,2025-04-11 20:47:50.268,STOP,43
213.0,7330.7239807515125,-9129.52531928126,-21196.0028047565,-23665.937622301295,15163.401086735856,14030.189994596243,32085.86211035992,51643.95143317598,0.0,0.0,0.0,193.0,0.0,192.0,0.0,0.0,0.0,179.0,192.0,0.0,179.0,1744418870.2689722,0.0,2025-04-11 20:47:50.268,STOP,43
214.0,7327.326515594306,-9127.491310535826,-21239.83457563336,-23649.7326075712,15029.849413615397,14047.669058760293,31947.102480781377,51574.16928698651,0.0,0.0,0.0,193.0,0.0,193.0,0.0,0.0,0.0,178.0,193.0,0.0,178.0,1744418870.269004,0.0,2025-04-11 20:47:50.269,STOP,43
215.0,7337.541262810381,-9103.619647457559,-21251.122206583288,-23616.33910135497,14939.704828227143,14278.584930728071,31702.84261737378,51703.80940482729,0.0,0.0,0.0,193.0,0.0,193.0,0.0,0.0,0.0,179.0,193.0,0.0,179.0,1744418870.2690358,0.0,2025-04-11 20:47:50.269,STOP,43
216.0,7368.654891092168,-9083.927760592433,-21176.065048702367,-23604.58208377148,15078.911492694795,14258.691878162846,31730.89405666519,51739.683954678054,0.0,0.0,0.0,193.0,0.0,193.0,0.0,0.0,0.0,179.0,193.0,0.0,179.0,1744418870.2690675,0.0,2025-04-11 20:47:50.269,STOP,43
217.0,7333.182672641597,-9116.807176686189,-21180.04365921541,-23651.029008749607,15193.687700472798,14080.861399276424,32080.385932968373,51688.47610813095,0.0,0.0,0.0,193.0,0.0,193.0,0.0,0.0,0.0,178.0,193.0,0.0,178.0,1744418870.2691128,0.0,2025-04-11 20:47:50.269,STOP,43
218.0,7325.873652204711,-9117.142452853019,-21232.749072641025,-23638.243810921173,15066.059239632994,14015.974285122667,31980.116007341865,51568.51429563932,0.0,0.0,0.0,193.0,0.0,193.0,0.0,0.0,0.0,179.0,193.0,0.0,179.0,1744418870.2691448,0.0,2025-04-11 20:47:50.269,STOP,43
219.0,7328.064123161331,-9094.723653164347,-21255.30198279643,-23609.074784406996,14961.00604069305,14250.131160036464,31727.474239763527,51667.04078519831,0.0,0.0,0.0,193.0,0.0,193.0,0.0,0.0,0.0,178.0,193.0,0.0,178.0,1744418870.2691765,0.0,2025-04-11 20:47:50.269,STOP,43
220.0,7346.794885014879,-9087.057004816175,-21193.320595421865,-23598.10007787944,15062.572367497965,14273.689898692359,31668.711503590526,51728.0610475613,0.0,0.0,0.0,193.0,0.0,193.0,0.0,0.0,0.0,178.0,193.0,0.0,178.0,1744418870.2692125,0.0,2025-04-11 20:47:50.269,STOP,43
221.0,7323.034980658887,-9134.286240850239,-21184.178731939643,-23648.033874992594,15201.331997076511,14110.164536257333,32037.850563269923,51712.39247469813,0.0,0.0,0.0,193.0,0.0,192.0,0.0,0.0,0.0,178.0,192.0,0.0,178.0,1744418870.2692668,0.0,2025-04-11 20:47:50.269,STOP,43
222.0,7328.913489450632,-9117.880060420044,-21235.274819764476,-23651.58780236099,15083.761821241596,13972.81306657947,32009.687365256235,51577.16442074352,0.0,0.0,0.0,193.0,0.0,192.0,0.0,0.0,0.0,179.0,192.0,0.0,179.0,1744418870.2693677,0.0,2025-04-11 20:47:50.269,STOP,43
223.0,7336.378972098705,-9079.524466934738,-21252.887994395256,-23612.136973397373,14969.276186141515,14193.603598308993,31766.165109415666,51645.91838668804,0.0,0.0,0.0,193.0,0.0,193.0,0.0,0.0,0.0,179.0,193.0,0.0,179.0,1744418870.2694075,0.0,2025-04-11 20:47:50.269,STOP,43
224.0,7361.390574144194,-9064.504094660771,-21209.123278751766,-23603.24097910416,15012.325645962435,14276.930901638378,31639.58718056526,51722.204890514,0.0,0.0,0.0,193.0,0.0,193.0,0.0,0.0,0.0,179.0,193.0,0.0,179.0,1744418870.2694445,0.0,2025-04-11 20:47:50.269,STOP,43
225.0,7342.302184379361,-9111.576868483648,-21181.518874349462,-23651.230174449705,15176.4321537533,14150.08475185451,31985.055742866487,51725.915280093584,0.0,0.0,0.0,193.0,0.0,193.0,0.0,0.0,0.0,179.0,193.0,0.0,179.0,1744418870.2694917,0.0,2025-04-11 20:47:50.269,STOP,43
226.0,7328.935841195088,-9120.070531376665,-21228.636351661247,-23669.58095664751,15105.487716852156,13969.706174100182,32039.459888870704,51585.50162142535,0.0,0.0,0.0,193.0,0.0,193.0,0.0,0.0,0.0,178.0,193.0,0.0,178.0,1744418870.2695284,0.0,2025-04-11 20:47:50.269,STOP,43
227.0,7325.091341148775,-9108.827603915644,-21273.58570976087,-23645.284610424595,14982.128439203316,14156.186778090809,31812.790848349436,51624.773636433325,0.0,0.0,0.0,193.0,0.0,193.0,0.0,0.0,0.0,178.0,193.0,0.0,178.0,1744418870.269564,0.0,2025-04-11 20:47:50.269,STOP,43
228.0,7339.843492489278,-9090.856801373578,-21239.00756108851,-23622.06114793553,14988.856314284363,14283.457611019328,31616.564883776296,51721.51198643589,0.0,0.0,0.0,193.0,0.0,193.0,0.0,0.0,0.0,179.0,193.0,0.0,179.0,1744418870.269606,0.0,2025-04-11 20:47:50.269,STOP,43
229.0,7324.890175448678,-9130.687609992936,-21184.58106333984,-23643.943505757274,15173.079392085005,14180.304310358086,31898.9791749691,51745.80833265881,0.0,0.0,0.0,193.0,0.0,193.0,0.0,0.0,0.0,179.0,193.0,0.0,179.0,1744418870.746421,0.0,2025-04-11 20:47:50.746,STOP,43
230.0,7317.02236140041,-9143.29399386573,-21222.9590085696,-23674.386581705403,15133.561507888022,13966.174598476244,32032.709662045203,51605.126453057106,0.0,0.0,0.0,193.0,0.0,193.0,0.0,0.0,0.0,179.0,193.0,0.0,179.0,1744418870.746596,0.0,2025-04-11 20:47:50.746,STOP,43
231.0,7324.957230682044,-9111.263944061273,-21253.20091881763,-23630.465403850725,15009.084643016417,14111.46093743574,31823.609092665803,51587.982665059884,0.0,0.0,0.0,193.0,0.0,193.0,0.0,0.0,0.0,179.0,193.0,0.0,179.0,1744418870.7466533,0.0,2025-04-11 20:47:50.746,STOP,43
232.0,7348.4489141045715,-9070.449658685882,-21240.952162856123,-23609.410060573824,14971.399601864769,14284.530494753182,31596.358906788697,51690.5995238542,0.0,0.0,0.0,193.0,0.0,193.0,0.0,0.0,0.0,178.0,193.0,0.0,178.0,1744418870.7467003,0.0,2025-04-11 20:47:50.746,STOP,43
233.0,7359.490675865492,-9075.568208166147,-21178.166112681167,-23630.130127683893,15134.90261255534,14205.651188570404,31802.64315636673,51718.76272186789,0.0,0.0,0.0,193.0,0.0,192.0,0.0,0.0,0.0,178.0,192.0,0.0,178.0,1744418870.7469444,0.0,2025-04-11 20:47:50.746,STOP,43
234.0,7339.083533177797,-9111.554516739192,-21204.25059846051,-23668.97745954722,15149.18537726228,13991.230904010643,32016.661109526292,51612.14490081608,0.0,0.0,0.0,193.0,0.0,193.0,0.0,0.0,0.0,179.0,193.0,0.0,179.0,1744418870.7469954,0.0,2025-04-11 20:47:50.746,STOP,43
235.0,7331.774512740912,-9119.265868576273,-21237.19706978763,-23630.95714222874,15032.777492139041,14071.071335205,31814.556636161404,51563.64161534806,0.0,0.0,0.0,193.0,0.0,193.0,0.0,0.0,0.0,179.0,193.0,0.0,179.0,1744418870.7470365,0.0,2025-04-11 20:47:50.747,STOP,43
236.0,7346.616071059236,-9093.918990363954,-21243.96964835759,-23612.136973397373,14964.269395383526,14283.748183697247,31553.48826092342,51684.85512552919,0.0,0.0,0.0,193.0,0.0,193.0,0.0,0.0,0.0,179.0,193.0,0.0,179.0,1744418870.747351,0.0,2025-04-11 20:47:50.747,STOP,43
237.0,7360.943539255088,-9099.819850900156,-21184.178731939643,-23623.648121791855,15109.667493065297,14244.275002989174,31651.478308615486,51732.73256215246,0.0,0.0,0.0,193.0,0.0,193.0,0.0,0.0,0.0,178.0,193.0,0.0,178.0,1744418870.7473917,0.0,2025-04-11 20:47:50.747,STOP,43
238.0,7352.785152528901,-9135.314421095183,-21189.945482009112,-23667.323430457527,15170.263072283635,14042.77402672458,31938.742928355092,51650.9922326794,0.0,0.0,0.0,193.0,0.0,192.0,0.0,0.0,0.0,178.0,192.0,0.0,178.0,1744418870.7474332,0.0,2025-04-11 20:47:50.747,STOP,43
239.0,7342.458646590549,-9114.527298751747,-21232.972590085577,-23643.71998831272,15040.891175376319,14043.243413358143,31797.23403420854,51561.02646124679,0.0,0.0,0.0,193.0,0.0,192.0,0.0,0.0,0.0,178.0,192.0,0.0,178.0,1744418870.7474732,0.0,2025-04-11 20:47:50.747,STOP,43
240.0,7341.966908212532,-9088.353405994583,-21249.267011793498,-23615.512086810126,14952.646488266766,14269.8677503905,31545.016949774857,51669.9465119775,0.0,0.0,0.0,193.0,0.0,193.0,0.0,0.0,0.0,179.0,193.0,0.0,179.0,1744418870.7475102,0.0,2025-04-11 20:47:50.747,STOP,43
241.0,7352.3828211287055,-9101.697397434402,-21195.086383233833,-23617.81431648902,15069.166132112281,14257.753104895724,31555.231696990933,51713.420654943075,0.0,0.0,0.0,193.0,0.0,193.0,0.0,0.0,0.0,179.0,193.0,0.0,179.0,1744418870.747548,0.0,2025-04-11 20:47:50.747,STOP,43
242.0,7339.284698877896,-9140.43297057545,-21186.458609874084,-23656.907517541353,15184.098802101471,14082.515428366118,31908.0316314735,51671.93581723402,0.0,0.0,0.0,193.0,0.0,193.0,0.0,0.0,0.0,179.0,193.0,0.0,179.0,1744418870.7475855,0.0,2025-04-11 20:47:50.747,STOP,43
243.0,7341.184597156596,-9122.216298844374,-21223.897781836724,-23638.28851441008,15072.98828041414,14012.666226943282,31827.699461901128,51549.96234774141,0.0,0.0,0.0,193.0,0.0,193.0,0.0,0.0,0.0,179.0,193.0,0.0,179.0,1744418870.7476227,0.0,2025-04-11 20:47:50.747,STOP,43
244.0,7335.954288954054,-9103.351426524094,-21251.882165894767,-23611.01938617461,14972.785410020997,14250.48878794775,31589.340459029732,51652.668613513546,0.0,0.0,0.0,193.0,0.0,193.0,0.0,0.0,0.0,178.0,193.0,0.0,178.0,1744418870.7476592,0.0,2025-04-11 20:47:50.747,STOP,43
245.0,7344.067972191331,-9099.32811252214,-21212.498392164518,-23617.121412410906,15035.012666584573,14278.83079991708,31520.787658785306,51726.87640510517,0.0,0.0,0.0,193.0,0.0,193.0,0.0,0.0,0.0,178.0,193.0,0.0,178.0,1744418870.747696,0.0,2025-04-11 20:47:50.747,STOP,43
246.0,7319.279887590395,-9141.662316520491,-21194.169961711166,-23665.26706996764,15171.157142061847,14112.086786280488,31871.44182580016,51710.67139037507,0.0,0.0,0.0,193.0,0.0,193.0,0.0,0.0,0.0,179.0,193.0,0.0,179.0,1744418870.7477343,0.0,2025-04-11 20:47:50.747,STOP,43
247.0,7323.616126014725,-9132.252232104807,-21240.169851800187,-23669.938584558797,15072.474190291667,13960.81017980697,31852.845174413345,51569.63188286208,0.0,0.0,0.0,193.0,0.0,193.0,0.0,0.0,0.0,179.0,193.0,0.0,179.0,1744418870.7477672,0.0,2025-04-11 20:47:50.747,STOP,43
248.0,7340.625803545214,-9096.981179354332,-21264.421494534196,-23628.878429994398,14968.896206485773,14190.47435408525,31619.761183233404,51642.05153489728,0.0,0.0,0.0,193.0,0.0,193.0,0.0,0.0,0.0,179.0,193.0,0.0,179.0,1744418870.7478209,0.0,2025-04-11 20:47:50.747,STOP,43
249.0,7357.769591542434,-9080.776164624234,-21224.43422370365,-23615.400328087846,14999.473392900634,14292.107736123531,31483.929632178504,51730.02800107336,0.0,0.0,0.0,193.0,0.0,193.0,0.0,0.0,0.0,178.0,193.0,0.0,178.0,1744418870.7478547,0.0,2025-04-11 20:47:50.747,STOP,43
250.0,7336.133102909697,-9136.454360062404,-21187.643252330214,-23656.572241374524,15161.903519857351,14159.986574648212,31815.83068559536,51730.51973945138,0.0,0.0,0.0,193.0,0.0,193.0,0.0,0.0,0.0,178.0,193.0,0.0,178.0,1744418870.7478895,0.0,2025-04-11 20:47:50.747,STOP,43
251.0,7336.647193032169,-9151.564139314192,-21236.884145365257,-23682.947299831787,15095.563542314,13963.045354252501,31891.44663708766,51583.95935105793,0.0,0.0,0.0,193.0,0.0,193.0,0.0,0.0,0.0,179.0,193.0,0.0,179.0,1744418870.747925,0.0,2025-04-11 20:47:50.747,STOP,43
252.0,7333.003858685954,-9124.362066312084,-21275.1726836172,-23650.179642460305,14971.354898375857,14138.908879626857,31677.518090905916,51614.11185432814,0.0,0.0,0.0,193.0,0.0,193.0,0.0,0.0,0.0,179.0,193.0,0.0,179.0,1744418870.7479775,0.0,2025-04-11 20:47:50.747,STOP,43
253.0,7359.26715842094,-9076.350519222084,-21232.123223796276,-23613.120450153405,14968.359764618846,14276.796791171646,31464.88594590258,51696.99212276842,0.0,0.0,0.0,193.0,0.0,193.0,0.0,0.0,0.0,178.0,193.0,0.0,178.0,1744418870.748011,0.0,2025-04-11 20:47:50.748,STOP,43
254.0,7353.07572520682,-9110.414577771971,-21181.42946737164,-23642.781215045597,15150.66059239633,14191.658996541382,31743.1428126267,51721.735503880445,0.0,0.0,0.0,193.0,0.0,193.0,0.0,0.0,0.0,178.0,193.0,0.0,178.0,1744418870.7480462,0.0,2025-04-11 20:47:50.748,STOP,43
255.0,7347.331326881806,-9129.592374514625,-21225.216534759587,-23681.405029464368,15118.541135614054,13988.772212120559,31919.386317656794,51607.294572269275,0.0,0.0,0.0,193.0,0.0,192.0,0.0,0.0,0.0,178.0,192.0,0.0,178.0,1744418870.7480886,0.0,2025-04-11 20:47:50.748,STOP,43
0.0,7340.670507034124,-9108.917010893467,-21270.00943064802,-23648.525613370613,14983.648357826276,14112.578524658506,31722.66861470564,51597.079825053195,0.0,0.0,0.0,193.0,0.0,193.0,0.0,0.0,0.0,179.0,193.0,0.0,179.0,1744418870.7481244,0.0,2025-04-11 20:47:50.748,STOP,43
1.0,7360.049469476876,-9074.472972687838,-21248.887032137758,-23614.86388622092,14946.76797947502,14289.716099466814,31481.068608888225,51702.37889318215,0.0,0.0,0.0,193.0,0.0,193.0,0.0,0.0,0.0,179.0,193.0,0.0,179.0,1744418870.7481575,0.0,2025-04-11 20:47:50.748,STOP,43
2.0,7354.662699063147,-9094.902467119988,-21192.51593262147,-23637.7297207987,15109.4663273652,14219.933953277345,31672.488948403472,51740.55567271182,0.0,0.0,0.0,193.0,0.0,193.0,0.0,0.0,0.0,178.0,193.0,0.0,178.0,1744418870.7481916,0.0,2025-04-11 20:47:50.748,STOP,43
3.0,7349.655908305158,-9112.247420817306,-21212.073709019867,-23676.085314284006,15123.592629860954,13994.807183123492,31910.64678557477,51632.105008614664,0.0,0.0,0.0,193.0,0.0,192.0,0.0,0.0,0.0,178.0,192.0,0.0,178.0,1744418870.748226,0.0,2025-04-11 20:47:50.748,STOP,43
4.0,7346.54901582587,-9100.51275497827,-21256.665439208205,-23651.92307852782,14997.193514966193,14048.317259349496,31747.76962372895,51576.62797887659,0.0,0.0,0.0,193.0,0.0,192.0,0.0,0.0,0.0,178.0,192.0,0.0,178.0,1744418870.7482588,0.0,2025-04-11 20:47:50.748,STOP,43
5.0,7363.469286378538,-9068.102725518076,-21263.125093355786,-23626.218572404217,14926.539650742967,14258.133084551464,31491.484521804396,51688.40905289758,0.0,0.0,0.0,193.0,0.0,193.0,0.0,0.0,0.0,179.0,193.0,0.0,179.0,1744418870.7482939,0.0,2025-04-11 20:47:50.748,STOP,43
6.0,7370.912417282155,-9079.569170423647,-21196.561598367884,-23635.53924984208,15082.42071657428,14222.504403889705,31577.404627490596,51725.37883822666,0.0,0.0,0.0,193.0,0.0,193.0,0.0,0.0,0.0,179.0,193.0,0.0,179.0,1744418870.7483275,0.0,2025-04-11 20:47:50.748,STOP,43
7.0,7356.942576997588,-9115.153147596497,-21203.44593566012,-23679.81805560804,15152.828711608496,14026.703122461215,31898.956823224646,51661.00581419538,0.0,0.0,0.0,193.0,0.0,193.0,0.0,0.0,0.0,179.0,193.0,0.0,179.0,1744418870.74839,0.0,2025-04-11 20:47:50.748,STOP,43
8.0,7360.74237355499,-9112.180365583941,-21246.316581525396,-23659.410912920346,15033.537451450522,14015.750767678115,31780.87255726726,51564.8709612931,0.0,0.0,0.0,193.0,0.0,193.0,0.0,0.0,0.0,179.0,193.0,0.0,179.0,1744418870.7484243,0.0,2025-04-11 20:47:50.748,STOP,43
9.0,7364.7656875569455,-9088.46516471686,-21263.05803812242,-23628.34198812747,14939.302496826947,14251.606375170515,31522.84401927519,51662.19045665151,0.0,0.0,0.0,193.0,0.0,193.0,0.0,0.0,0.0,179.0,193.0,0.0,179.0,1744418870.7484567,0.0,2025-04-11 20:47:50.748,STOP,43
10.0,7370.197161459585,-9087.593446683102,-21216.007616044,-23633.63935156338,15037.337248007923,14257.127256050975,31518.19485642849,51715.61112589969,0.0,0.0,0.0,193.0,0.0,193.0,0.0,0.0,0.0,178.0,193.0,0.0,178.0,1744418870.7484891,0.0,2025-04-11 20:47:50.748,STOP,43
11.0,7352.293414150884,-9125.010266901287,-21211.939598553134,-23683.79666612109,15152.784008119585,14076.301643407542,31873.29702058995,51680.92121850506,0.0,0.0,0.0,193.0,0.0,193.0,0.0,0.0,0.0,179.0,193.0,0.0,179.0,1744418870.7485375,0.0,2025-04-11 20:47:50.748,STOP,43
12.0,7356.339079897294,-9110.816909172167,-21243.053226834923,-23669.02216303613,15049.854224902896,13977.506932915085,31800.653851110204,51545.38024012807,0.0,0.0,0.0,193.0,0.0,193.0,0.0,0.0,0.0,179.0,193.0,0.0,179.0,1744418870.748571,0.0,2025-04-11 20:47:50.748,STOP,43
13.0,7363.044603233887,-9077.401051211484,-21261.44871252164,-23633.19231667427,14943.549328273455,14220.157470721899,31554.2482202349,51631.210938836455,0.0,0.0,0.0,193.0,0.0,193.0,0.0,0.0,0.0,179.0,193.0,0.0,179.0,1744418870.7486036,0.0,2025-04-11 20:47:50.748,STOP,43
14.0,7390.961932058565,-9062.090106259599,-21201.724851337058,-23617.970778700208,15016.572477408943,14284.821067431101,31463.433082512987,51699.361407680684,0.0,0.0,0.0,193.0,0.0,193.0,0.0,0.0,0.0,179.0,193.0,0.0,179.0,1744418870.7486358,0.0,2025-04-11 20:47:50.748,STOP,43
15.0,7361.390574144194,-9111.263944061273,-21177.294394647408,-23664.775331589623,15168.676098427308,14142.485158739706,31840.372901007286,51701.68598910404,0.0,0.0,0.0,193.0,0.0,193.0,0.0,0.0,0.0,178.0,193.0,0.0,178.0,1744418870.7486696,0.0,2025-04-11 20:47:50.748,STOP,43
16.0,7355.802638030367,-9109.94519113841,-21228.368130727784,-23674.431285194314,15066.774495455564,13986.894665586313,31851.92875289068,51562.59108335866,0.0,0.0,0.0,193.0,0.0,192.0,0.0,0.0,0.0,178.0,192.0,0.0,178.0,1744418870.7487023,0.0,2025-04-11 20:47:50.748,STOP,43
17.0,7361.368222399738,-9083.9948158258,-21262.02985787748,-23639.6296190774,14955.39575283477,14203.885400758434,31623.1139449017,51625.26537481134,0.0,0.0,0.0,193.0,0.0,192.0,0.0,0.0,0.0,178.0,192.0,0.0,178.0,1744418870.7487347,0.0,2025-04-11 20:47:50.748,STOP,43
18.0,7385.821030833845,-9050.98128926531,-21222.422566702673,-23622.977569458195,14983.111915959349,14298.634445504482,31458.046312099257,51705.597544383716,0.0,0.0,0.0,193.0,0.0,193.0,0.0,0.0,0.0,179.0,193.0,0.0,179.0,1744418870.748768,0.0,2025-04-11 20:47:50.748,STOP,43
19.0,7356.74141129749,-9111.666275461468,-21191.19717969861,-23669.558604903057,15147.687810383775,14168.189664863308,31785.208795691586,51717.93570732304,0.0,0.0,0.0,193.0,0.0,193.0,0.0,0.0,0.0,179.0,193.0,0.0,179.0,1744418870.7488017,0.0,2025-04-11 20:47:50.748,STOP,43
20.0,7347.957175726554,-9131.76049372679,-21235.54304069794,-23693.45261972578,15085.549960798022,13965.9957845206,31881.656573016237,51585.25575223634,0.0,0.0,0.0,193.0,0.0,193.0,0.0,0.0,0.0,179.0,193.0,0.0,179.0,1744418870.7488344,0.0,2025-04-11 20:47:50.748,STOP,43
21.0,7361.45762937756,-9112.359179539584,-21262.745113700046,-23652.370113416924,14969.455000097156,14131.622210934427,31661.64835234265,51599.98555183239,0.0,0.0,0.0,193.0,0.0,193.0,0.0,0.0,0.0,178.0,193.0,0.0,178.0,1744418870.7488673,0.0,2025-04-11 20:47:50.748,STOP,43
22.0,7383.183524988119,-9086.22999027133,-21233.19610753013,-23625.324502626005,14961.609537793343,14282.652948218936,31449.530297461784,51693.25938144438,0.0,0.0,0.0,193.0,0.0,193.0,0.0,0.0,0.0,179.0,193.0,0.0,179.0,1744418870.7489169,0.0,2025-04-11 20:47:50.748,STOP,43
23.0,7365.547998612881,-9110.101653349597,-21174.165150423665,-23651.654857594356,15141.42932193629,14190.47435408525,31704.541349952386,51712.079550275754,0.0,0.0,0.0,193.0,0.0,193.0,0.0,0.0,0.0,179.0,193.0,0.0,179.0,1744418870.7489495,0.0,2025-04-11 20:47:50.748,STOP,43
24.0,7350.348812383272,-9129.055932647698,-21208.43037467365,-23692.15621854737,15125.4701763952,13975.048241025,31893.570052810916,51592.810641862234,0.0,0.0,0.0,193.0,0.0,193.0,0.0,0.0,0.0,179.0,193.0,0.0,179.0,1744418870.748983,0.0,2025-04-11 20:47:50.748,STOP,43
25.0,7356.294376408384,-9108.894659149011,-21250.898689138736,-23660.707314098756,14998.311102188958,14084.772954556103,31713.146771567677,51572.15762998553,0.0,0.0,0.0,193.0,0.0,193.0,0.0,0.0,0.0,179.0,193.0,0.0,179.0,1744418870.749015,0.0,2025-04-11 20:47:50.749,STOP,43
26.0,7370.331271926317,-9088.755737394778,-21240.68394192266,-23636.589781831477,14942.945831173163,14277.981433627778,31479.213414098434,51687.93966626402,0.0,0.0,0.0,193.0,0.0,193.0,0.0,0.0,0.0,179.0,193.0,0.0,179.0,1744418870.7490687,0.0,2025-04-11 20:47:50.749,STOP,43
27.0,7373.639330105702,-9101.160955567475,-21177.42850511414,-23642.334180156493,15107.633484319866,14218.637552098937,31644.661026556616,51728.776303383864,0.0,0.0,0.0,193.0,0.0,193.0,0.0,0.0,0.0,178.0,193.0,0.0,178.0,1744418870.749101,0.0,2025-04-11 20:47:50.749,STOP,43
28.0,7371.806487060367,-9114.124967351552,-21185.117505206767,-23675.370058461438,15140.937583558272,14000.19395353722,31907.517541351026,51627.74641844588,0.0,0.0,0.0,193.0,0.0,193.0,0.0,0.0,0.0,178.0,193.0,0.0,178.0,1744418870.749133,0.0,2025-04-11 20:47:50.749,STOP,43
29.0,7373.616978361247,-9094.634246186524,-21224.367168470286,-23645.7316453137,15012.616218640354,14038.929526678268,31761.33713261332,51561.20527520243,0.0,0.0,0.0,193.0,0.0,192.0,0.0,0.0,0.0,178.0,192.0,0.0,178.0,1744418870.7491655,0.0,2025-04-11 20:47:50.749,STOP,43
30.0,7383.071766265842,-9047.226196196818,-21239.67811342217,-23620.8765054794,14930.361799044824,14264.860959632511,31510.95289122497,51678.41782312606,0.0,0.0,0.0,193.0,0.0,193.0,0.0,0.0,0.0,179.0,193.0,0.0,179.0,1744418870.7491984,0.0,2025-04-11 20:47:50.749,STOP,43
31.0,7387.475059923538,-9060.257263214262,-21175.10392369079,-23624.318674125516,15066.618033244376,14243.068008788588,31569.000371575403,51723.680105648054,0.0,0.0,0.0,193.0,0.0,193.0,0.0,0.0,0.0,179.0,193.0,0.0,179.0,1744418870.749231,0.0,2025-04-11 20:47:50.749,STOP,43
32.0,7371.6947283380905,-9111.196888827908,-21178.546092336906,-23669.7374188587,15155.466217454223,14051.938241951257,31902.06371570393,51668.15837242107,0.0,0.0,0.0,193.0,0.0,193.0,0.0,0.0,0.0,179.0,193.0,0.0,179.0,1744418870.7492633,0.0,2025-04-11 20:47:50.749,STOP,43
33.0,7380.389556931205,-9098.635208444024,-21211.00082528601,-23641.44011037828,15031.056407815982,14010.967494364679,31780.693743311615,51545.983737228365,0.0,0.0,0.0,193.0,0.0,193.0,0.0,0.0,0.0,179.0,193.0,0.0,179.0,1744418870.7492957,0.0,2025-04-11 20:47:50.749,STOP,43
34.0,7390.134917513718,-9067.096897017587,-21225.842383604337,-23606.839609961466,14941.872947439308,14258.87069211849,31539.272551449845,51649.27114835634,0.0,0.0,0.0,193.0,0.0,193.0,0.0,0.0,0.0,178.0,193.0,0.0,178.0,1744418870.749328,0.0,2025-04-11 20:47:50.749,STOP,43
35.0,7405.691731654612,-9057.865626557545,-21180.133066193233,-23610.7735169856,15038.164262552771,14282.362375541017,31519.848885518182,51709.5538031523,0.0,0.0,0.0,193.0,0.0,192.0,0.0,0.0,0.0,178.0,192.0,0.0,178.0,1744418870.7493608,0.0,2025-04-11 20:47:50.749,STOP,43
36.0,7384.390519188705,-9089.470993217348,-21166.18557765312,-23656.77340707462,15163.311679758035,14105.98476004419,31875.867471202313,51673.008700967875,0.0,0.0,0.0,193.0,0.0,192.0,0.0,0.0,0.0,178.0,192.0,0.0,178.0,1744418870.7493932,0.0,2025-04-11 20:47:50.749,STOP,43
37.0,7378.959045286066,-9090.387414740017,-21211.04552877492,-23655.052322751562,15051.776474926053,13994.449555212208,31825.888970600245,51537.15479816852,0.0,0.0,0.0,193.0,0.0,193.0,0.0,0.0,0.0,179.0,193.0,0.0,179.0,1744418870.7494411,0.0,2025-04-11 20:47:50.749,STOP,43
38.0,7373.684033594613,-9076.216408755352,-21245.646029191736,-23628.29728463856,14940.62124974981,14229.612258626494,31598.48232251195,51630.786255691804,0.0,0.0,0.0,193.0,0.0,193.0,0.0,0.0,0.0,179.0,193.0,0.0,179.0,1744418870.7494743,0.0,2025-04-11 20:47:50.749,STOP,43
39.0,7395.052301293887,-9062.537141148703,-21202.216589715077,-23619.781270001087,14989.035128240006,14285.73748895377,31496.401905584564,51710.894907819624,0.0,0.0,0.0,193.0,0.0,193.0,0.0,0.0,0.0,179.0,193.0,0.0,179.0,1744418870.7495065,0.0,2025-04-11 20:47:50.749,STOP,43
40.0,7373.616978361247,-9105.22897305834,-21176.266214402465,-23666.407008934857,15145.944374316261,14141.121702327931,31850.364130778806,51715.432311944045,0.0,0.0,0.0,193.0,0.0,193.0,0.0,0.0,0.0,179.0,193.0,0.0,179.0,1744418870.7495387,0.0,2025-04-11 20:47:50.749,STOP,43
41.0,7377.617940618747,-9093.539010708215,-21211.49256366403,-23668.575128147022,15073.524722281067,13971.494313656607,31865.719779219602,51566.27912119379,0.0,0.0,0.0,193.0,0.0,193.0,0.0,0.0,0.0,178.0,193.0,0.0,178.0,1744418870.7495854,0.0,2025-04-11 20:47:50.749,STOP,43
42.0,7381.238923220507,-9067.946263306889,-21241.220383789587,-23622.754052013643,14969.097372185872,14187.90390347289,31647.119718446702,51616.12351132912,0.0,0.0,0.0,193.0,0.0,192.0,0.0,0.0,0.0,178.0,192.0,0.0,178.0,1744418870.7496183,0.0,2025-04-11 20:47:50.749,STOP,43
43.0,7396.616923405758,-9053.484684644305,-21208.43037467365,-23606.14670588335,14972.96422397664,14306.323445597107,31476.307687319244,51709.66556187458,0.0,0.0,0.0,193.0,0.0,192.0,0.0,0.0,0.0,178.0,192.0,0.0,178.0,1744418870.7496507,0.0,2025-04-11 20:47:50.749,STOP,43
44.0,7377.439126663105,-9093.60606594158,-21156.015533925955,-23639.33904639948,15152.292269741569,14188.507400573184,31773.563536830374,51712.303067720306,0.0,0.0,0.0,193.0,0.0,193.0,0.0,0.0,0.0,178.0,193.0,0.0,178.0,1744418870.7496834,0.0,2025-04-11 20:47:50.749,STOP,43
45.0,7377.260312707462,-9106.413615514472,-21195.600473356306,-23664.663572867343,15105.398309874334,13990.090965043422,31891.8266167434,51573.43167941948,0.0,0.0,0.0,193.0,0.0,193.0,0.0,0.0,0.0,179.0,193.0,0.0,179.0,1744418870.749715,0.0,2025-04-11 20:47:50.749,STOP,43
46.0,7389.46436518006,-9080.686757646414,-21236.30300000942,-23630.35364512845,14984.095392715382,14157.483179269217,31691.66674514613,51586.28393248128,0.0,0.0,0.0,193.0,0.0,193.0,0.0,0.0,0.0,179.0,193.0,0.0,179.0,1744418870.7497475,0.0,2025-04-11 20:47:50.749,STOP,43
47.0,7412.777234646945,-9050.467199142839,-21217.10285152231,-23611.511124552624,14954.121703400817,14320.561506815136,31477.984068153393,51694.30991343378,0.0,0.0,0.0,193.0,0.0,193.0,0.0,0.0,0.0,179.0,193.0,0.0,179.0,1744418870.7497792,0.0,2025-04-11 20:47:50.749,STOP,43
48.0,7410.743225901512,-9073.422440698438,-21149.242955356,-23628.185525916284,15139.596478890953,14242.620973899482,31708.989347098992,51718.785073612344,0.0,0.0,0.0,193.0,0.0,193.0,0.0,0.0,0.0,178.0,193.0,0.0,178.0,1744418870.7498116,0.0,2025-04-11 20:47:50.749,STOP,43
49.0,7387.922094812643,-9103.641999202013,-21189.43139188664,-23674.945375316787,15117.580010602476,14030.413512040795,31920.034518246,51608.50156646986,0.0,0.0,0.0,193.0,0.0,192.0,0.0,0.0,0.0,178.0,192.0,0.0,178.0,1744418870.7498453,0.0,2025-04-11 20:47:50.749,STOP,43
50.0,7387.944446557099,-9064.057059771665,-21216.924037566667,-23630.174831172804,14986.710546816654,14125.229612020208,31734.13505961121,51569.16249622852,0.0,0.0,0.0,193.0,0.0,193.0,0.0,0.0,0.0,178.0,193.0,0.0,178.0,1744418870.749878,0.0,2025-04-11 20:47:50.749,STOP,43
51.0,7391.163097758663,-9036.49735885827,-21210.44203167463,-23601.76576397011,14935.726217714098,14331.424454620417,31507.309556878754,51690.28659943183,0.0,0.0,0.0,193.0,0.0,193.0,0.0,0.0,0.0,179.0,193.0,0.0,179.0,1744418870.74991,0.0,2025-04-11 20:47:50.749,STOP,43
52.0,7393.644141393202,-9054.17758872242,-21150.494653045494,-23616.76378449962,15082.778344485563,14269.420715501396,31651.9700469935,51729.44685571753,0.0,0.0,0.0,193.0,0.0,193.0,0.0,0.0,0.0,179.0,193.0,0.0,179.0,1744418870.7499523,0.0,2025-04-11 20:47:50.749,STOP,43
53.0,7385.709272111568,-9087.325225749639,-21162.229318884532,-23657.578069875013,15136.355475944934,14052.787608240558,31931.612721873847,51639.21286335145,0.0,0.0,0.0,193.0,0.0,193.0,0.0,0.0,0.0,179.0,193.0,0.0,179.0,1744418870.7500012,0.0,2025-04-11 20:47:50.750,STOP,43
54.0,7396.616923405758,-9074.808248854668,-21200.093173991823,-23619.334235111983,15025.133195535327,14073.082992205978,31783.197138690608,51551.996356486845,0.0,0.0,0.0,193.0,0.0,193.0,0.0,0.0,0.0,179.0,193.0,0.0,179.0,1744418870.7500348,0.0,2025-04-11 20:47:50.750,STOP,43
55.0,7415.392388748216,-9038.844292026079,-21205.703461850102,-23583.86201666141,14940.62124974981,14306.725776997302,31532.365862413153,51656.42370658204,0.0,0.0,0.0,193.0,0.0,193.0,0.0,0.0,0.0,178.0,193.0,0.0,178.0,1744418870.7500713,0.0,2025-04-11 20:47:50.750,STOP,43
56.0,7423.930755130144,-9049.64018459799,-21154.987353681012,-23599.932920924773,15056.045658117017,14296.488678036772,31590.167473574576,51714.94057356603,0.0,0.0,0.0,193.0,0.0,193.0,0.0,0.0,0.0,178.0,193.0,0.0,178.0,1744418870.750105,0.0,2025-04-11 20:47:50.750,STOP,43
57.0,7409.715045656568,-9092.644940930002,-21161.648173528694,-23656.549889630067,15148.850101095451,14102.45318442025,31935.99366378709,51665.23029389743,0.0,0.0,0.0,193.0,0.0,193.0,0.0,0.0,0.0,178.0,193.0,0.0,178.0,1744418870.750152,0.0,2025-04-11 20:47:50.750,STOP,43
58.0,7391.99011230351,-9087.436984471917,-21212.52074390897,-23647.16215695884,15024.909678090773,14032.06754113049,31838.45065098413,51549.85058901914,0.0,0.0,0.0,193.0,0.0,193.0,0.0,0.0,0.0,179.0,193.0,0.0,179.0,1744418870.7501855,0.0,2025-04-11 20:47:50.750,STOP,43
59.0,7388.391481446205,-9059.854931814067,-21228.34577898333,-23606.95136868374,14925.131490842283,14266.9173201224,31581.472644981463,51645.873683199134,0.0,0.0,0.0,193.0,0.0,193.0,0.0,0.0,0.0,179.0,193.0,0.0,179.0,1744418870.7502184,0.0,2025-04-11 20:47:50.750,STOP,43
60.0,7400.41671996316,-9050.69071658739,-21173.00285971199,-23601.832819203475,15020.30521873298,14309.07271016511,31543.25116196289,51715.47701543296,0.0,0.0,0.0,193.0,0.0,193.0,0.0,0.0,0.0,179.0,193.0,0.0,179.0,1744418870.7502513,0.0,2025-04-11 20:47:50.750,STOP,43
61.0,7375.69569059559,-9097.070586332153,-21165.135045663723,-23656.371075674426,15154.728609887197,14148.028391364622,31910.60208208586,51695.91923903456,0.0,0.0,0.0,193.0,0.0,193.0,0.0,0.0,0.0,178.0,193.0,0.0,178.0,1744418870.750285,0.0,2025-04-11 20:47:50.750,STOP,43
62.0,7376.478001651526,-9098.65756018848,-21222.91430508069,-23664.26124146715,15041.986410854628,14017.293038045531,31877.946183436656,51565.273292693295,0.0,0.0,0.0,193.0,0.0,192.0,0.0,0.0,0.0,178.0,192.0,0.0,178.0,1744418870.7503176,0.0,2025-04-11 20:47:50.750,STOP,43
63.0,7399.366187973761,-9058.200902724375,-21235.945372098133,-23614.10392690944,14944.666915496222,14246.130197778964,31626.511410058905,51628.484026012906,0.0,0.0,0.0,193.0,0.0,193.0,0.0,0.0,0.0,179.0,193.0,0.0,179.0,1744418870.7503507,0.0,2025-04-11 20:47:50.750,STOP,43
64.0,7413.581897447336,-9047.047382241177,-21187.19621744111,-23600.871694191897,14996.187686465704,14334.64310582198,31512.85278950367,51711.52075666437,0.0,0.0,0.0,193.0,0.0,193.0,0.0,0.0,0.0,179.0,193.0,0.0,179.0,1744418870.7503848,0.0,2025-04-11 20:47:50.750,STOP,43
65.0,7384.2564087219735,-9097.763490410267,-21155.76966473695,-23645.798700547064,15161.501188457154,14198.230409411242,31872.425302556196,51718.98623931244,0.0,0.0,0.0,193.0,0.0,193.0,0.0,0.0,0.0,179.0,193.0,0.0,179.0,1744418870.7504187,0.0,2025-04-11 20:47:50.750,STOP,43
66.0,7382.356510443272,-9106.36891202556,-21204.362357182785,-23661.95901178825,15078.196236872225,14015.951933378212,31921.733250824604,51579.86898182261,0.0,0.0,0.0,193.0,0.0,193.0,0.0,0.0,0.0,179.0,193.0,0.0,179.0,1744418870.7504518,0.0,2025-04-11 20:47:50.750,STOP,43
67.0,7393.062996037364,-9070.60612089707,-21234.894840108736,-23619.401290345348,14958.726162758609,14223.666694601381,31691.711448635037,51619.319810786226,0.0,0.0,0.0,193.0,0.0,193.0,0.0,0.0,0.0,178.0,193.0,0.0,178.0,1744418870.7504845,0.0,2025-04-11 20:47:50.750,STOP,43
68.0,7418.678095183146,-9038.464312370339,-21200.76372632548,-23597.898912179342,14967.733915774097,14351.183396718909,31506.974280711926,51714.91822182158,0.0,0.0,0.0,193.0,0.0,193.0,0.0,0.0,0.0,179.0,193.0,0.0,179.0,1744418870.750533,0.0,2025-04-11 20:47:50.750,STOP,43
69.0,7408.508051455981,-9065.934606305911,-21142.448025041584,-23616.20499088824,15152.694601141764,14244.900851833923,31799.223339465065,51728.82100687278,0.0,0.0,0.0,193.0,0.0,193.0,0.0,0.0,0.0,179.0,193.0,0.0,179.0,1744418870.750566,0.0,2025-04-11 20:47:50.750,STOP,43
70.0,7391.498373925492,-9089.739214150812,-21179.082534203833,-23643.228249934706,15109.309865154013,14035.44265454324,31933.020881774533,51589.56963891621,0.0,0.0,0.0,193.0,0.0,193.0,0.0,0.0,0.0,178.0,193.0,0.0,178.0,1744418870.7505984,0.0,2025-04-11 20:47:50.750,STOP,43
71.0,7403.992999076009,-9061.218388225841,-21208.653892118204,-23600.067031391507,14986.621139838833,14176.079830656032,31724.344995539785,51581.768880101314,0.0,0.0,0.0,193.0,0.0,193.0,0.0,0.0,0.0,178.0,193.0,0.0,178.0,1744418870.7506304,0.0,2025-04-11 20:47:50.750,STOP,43
72.0,7430.032781366442,-9037.167911191931,-21192.314766921376,-23576.552996224524,14961.274261626515,14357.374829933027,31515.959681982957,51695.69572159001,0.0,0.0,0.0,193.0,0.0,192.0,0.0,0.0,0.0,178.0,192.0,0.0,178.0,1744418870.7506769,0.0,2025-04-11 20:47:50.750,STOP,43
73.0,7423.774292918956,-9066.448696428382,-21144.66084774266,-23604.91735993831,15130.678132853287,14279.16607608391,31737.309007323864,51724.127140537166,0.0,0.0,0.0,193.0,0.0,193.0,0.0,0.0,0.0,179.0,193.0,0.0,179.0,1744418870.7507095,0.0,2025-04-11 20:47:50.750,STOP,43
74.0,7399.969685074054,-9081.55847568017,-21177.875540003246,-23656.035799507597,15131.974534031695,14059.247262388142,31967.822547891446,51615.8329386512,0.0,0.0,0.0,193.0,0.0,193.0,0.0,0.0,0.0,179.0,193.0,0.0,179.0,1744418870.750742,0.0,2025-04-11 20:47:50.750,STOP,43
75.0,7391.185449503118,-9074.048289543187,-21220.96970331308,-23632.097081195963,15001.373291179336,14135.243193536186,31793.76951381797,51569.85540030663,0.0,0.0,0.0,193.0,0.0,193.0,0.0,0.0,0.0,179.0,193.0,0.0,179.0,1744418870.750774,0.0,2025-04-11 20:47:50.750,STOP,43
76.0,7409.290362511917,-9040.252451926763,-21215.515877665985,-23603.419793059802,14947.125607386304,14336.207727933852,31541.3959671731,51676.47322135845,0.0,0.0,0.0,193.0,0.0,193.0,0.0,0.0,0.0,179.0,193.0,0.0,179.0,1744418870.750806,0.0,2025-04-11 20:47:50.750,STOP,43
77.0,7417.582859704836,-9040.207748437851,-21156.686086259615,-23610.706461752234,15099.631559804864,14292.755936712736,31662.87769828769,51721.57904166926,0.0,0.0,0.0,193.0,0.0,193.0,0.0,0.0,0.0,178.0,193.0,0.0,178.0,1744418870.750838,0.0,2025-04-11 20:47:50.750,STOP,43
78.0,7416.375865504249,-9072.88599883151,-21164.732714263526,-23646.022217991616,15157.455522710745,14093.73600408268,31961.608762932872,51646.03014541032,0.0,0.0,0.0,193.0,0.0,193.0,0.0,0.0,0.0,178.0,193.0,0.0,178.0,1744418870.75087,0.0,2025-04-11 20:47:50.750,STOP,43
79.0,7422.142615573718,-9061.8889405595,-21202.842438559823,-23618.61897928941,15040.06416083147,14101.000321030657,31824.59256942184,51557.2713681783,0.0,0.0,0.0,193.0,0.0,193.0,0.0,0.0,0.0,178.0,193.0,0.0,178.0,1744418870.750902,0.0,2025-04-11 20:47:50.750,STOP,43
80.0,7421.069731839863,-9042.398219394472,-21211.224342730566,-23587.795923685542,14959.642584281277,14338.152329701465,31578.34340075772,51670.147677677596,0.0,0.0,0.0,193.0,0.0,192.0,0.0,0.0,0.0,178.0,192.0,0.0,178.0,1744418870.7509341,0.0,2025-04-11 20:47:50.750,STOP,43
81.0,7418.678095183146,-9053.864664300045,-21159.65886827217,-23595.75314471163,15071.155437368803,14331.603268576058,31608.674717983573,51731.14558829613,0.0,0.0,0.0,193.0,0.0,192.0,0.0,0.0,0.0,178.0,192.0,0.0,178.0,1744418870.7509663,0.0,2025-04-11 20:47:50.750,STOP,43
82.0,7408.552754944892,-9083.346615236595,-21151.41107456816,-23636.72389229821,15182.847104411972,14145.904975641368,31950.097614538387,51681.77058479436,0.0,0.0,0.0,193.0,0.0,193.0,0.0,0.0,0.0,179.0,193.0,0.0,179.0,1744418870.7509985,0.0,2025-04-11 20:47:50.750,STOP,43
83.0,7399.612057162769,-9079.65857740147,-21209.883238063245,-23639.450805121756,15053.989297627128,14074.468800362207,31877.856776458833,51566.882618294076,0.0,0.0,0.0,193.0,0.0,193.0,0.0,0.0,0.0,179.0,193.0,0.0,179.0,1744418870.7510452,0.0,2025-04-11 20:47:50.751,STOP,43
84.0,7411.100853812797,-9048.969632264332,-21231.050340062422,-23606.414926816815,14941.425912550201,14300.176715871898,31623.270407112886,51661.251683384384,0.0,0.0,0.0,193.0,0.0,193.0,0.0,0.0,0.0,179.0,193.0,0.0,179.0,1744418870.7510772,0.0,2025-04-11 20:47:50.751,STOP,43
85.0,7430.189243577629,-9030.529443088704,-21174.61218531277,-23597.47422903469,15027.658942658776,14334.173719188419,31552.750653356394,51720.9084893356,0.0,0.0,0.0,193.0,0.0,193.0,0.0,0.0,0.0,178.0,193.0,0.0,178.0,1744418870.7511091,0.0,2025-04-11 20:47:50.751,STOP,43
86.0,7407.5022229554925,-9073.265978487252,-21153.95917343607,-23642.82591853451,15176.34274677548,14173.531731788127,31917.397012400274,51701.44011991502,0.0,0.0,0.0,193.0,0.0,193.0,0.0,0.0,0.0,179.0,193.0,0.0,179.0,1744418870.7511415,0.0,2025-04-11 20:47:50.751,STOP,43
87.0,7404.887068854221,-9076.015243055253,-21200.026118758455,-23646.670418580823,15072.429486802755,14038.370733066886,31901.54962558146,51562.59108335866,0.0,0.0,0.0,193.0,0.0,193.0,0.0,0.0,0.0,179.0,193.0,0.0,179.0,1744418870.751188,0.0,2025-04-11 20:47:50.751,STOP,43
88.0,7417.940487616121,-9053.037649755199,-21218.779232356457,-23601.072859891996,14959.441418581178,14261.977584597778,31665.06816924431,51629.243985324385,0.0,0.0,0.0,193.0,0.0,193.0,0.0,0.0,0.0,179.0,193.0,0.0,179.0,1744418870.7512207,0.0,2025-04-11 20:47:50.751,STOP,43
89.0,7451.37869732126,-9024.047437196665,-21164.710362519072,-23580.039868359552,14995.628892854322,14346.735399572302,31521.1899901855,51705.82106182827,0.0,0.0,0.0,193.0,0.0,193.0,0.0,0.0,0.0,178.0,193.0,0.0,178.0,1744418870.751253,0.0,2025-04-11 20:47:50.751,STOP,43
90.0,7428.199938321107,-9055.898673045478,-21126.332417289308,-23618.216647889218,15172.386488006889,14217.184688709342,31861.54000300646,51714.02415204336,0.0,0.0,0.0,193.0,0.0,193.0,0.0,0.0,0.0,178.0,193.0,0.0,178.0,1744418870.7512848,0.0,2025-04-11 20:47:50.751,STOP,43
91.0,7414.94535385911,-9068.12507726253,-21178.970775481557,-23640.568392344525,15091.942559712239,14026.926639905769,31935.680739364714,51582.327673712694,0.0,0.0,0.0,193.0,0.0,193.0,0.0,0.0,0.0,178.0,193.0,0.0,178.0,1744418870.751317,0.0,2025-04-11 20:47:50.751,STOP,43
92.0,7416.197051548607,-9045.92979501841,-21209.905589807702,-23598.27889183508,14970.01379370854,14200.398528623407,31708.989347098992,51609.57445020371,0.0,0.0,0.0,193.0,0.0,193.0,0.0,0.0,0.0,179.0,193.0,0.0,179.0,1744418870.7513492,0.0,2025-04-11 20:47:50.751,STOP,43
93.0,7437.274746569961,-9022.013428451231,-21182.681165061138,-23580.777475926578,14966.951604718162,14334.64310582198,31507.108391178655,51698.89202104712,0.0,0.0,0.0,193.0,0.0,193.0,0.0,0.0,0.0,179.0,193.0,0.0,179.0,1744418871.226594,0.0,2025-04-11 20:47:51.226,STOP,43
94.0,7441.029839638453,-9027.73547503179,-21130.64630396918,-23607.398403572846,15149.587708662477,14241.928069821368,31785.700534069605,51721.3555242247,0.0,0.0,0.0,193.0,0.0,193.0,0.0,0.0,0.0,179.0,193.0,0.0,179.0,1744418871.2267432,0.0,2025-04-11 20:47:51.226,STOP,43
95.0,7439.6663832266795,-9032.161120433942,-21165.246804386,-23641.216592933728,15120.284571681568,14034.213308598199,31947.437756948206,51597.280990753294,0.0,0.0,0.0,193.0,0.0,193.0,0.0,0.0,0.0,178.0,193.0,0.0,178.0,1744418871.2267916,0.0,2025-04-11 20:47:51.226,STOP,43
96.0,7432.893804656721,-9037.50318735876,-21205.502296150007,-23610.05826116303,14986.598788094378,14160.075981626032,31749.55776328537,51583.75818535784,0.0,0.0,0.0,193.0,0.0,192.0,0.0,0.0,0.0,178.0,192.0,0.0,178.0,1744418871.2268393,0.0,2025-04-11 20:47:51.226,STOP,43
97.0,7436.8500634253105,-9044.655745584458,-21184.53635985093,-23577.75999042511,14950.701886499153,14342.46621638134,31515.356184882665,51691.51594537687,0.0,0.0,0.0,193.0,0.0,192.0,0.0,0.0,0.0,178.0,192.0,0.0,178.0,1744418871.2268815,0.0,2025-04-11 20:47:51.226,STOP,43
98.0,7426.434150509138,-9071.880170331022,-21123.113766087743,-23596.177827856285,15122.340932171457,14281.535360996171,31711.045707588877,51726.47407370497,0.0,0.0,0.0,193.0,0.0,193.0,0.0,0.0,0.0,179.0,193.0,0.0,179.0,1744418871.2270818,0.0,2025-04-11 20:47:51.227,STOP,43
99.0,7413.693656169612,-9098.99283635531,-21156.864900215256,-23645.30696216905,15137.4730631677,14065.326936879987,31962.27931526653,51627.433494023506,0.0,0.0,0.0,193.0,0.0,193.0,0.0,0.0,0.0,179.0,193.0,0.0,179.0,1744418871.227124,0.0,2025-04-11 20:47:51.227,STOP,43
100.0,7420.957973117587,-9078.429231456426,-21195.689880334125,-23608.873618706897,15009.174049994237,14113.092614780977,31782.638345079227,51556.26553967781,0.0,0.0,0.0,193.0,0.0,193.0,0.0,0.0,0.0,179.0,193.0,0.0,179.0,1744418871.2271657,0.0,2025-04-11 20:47:51.227,STOP,43
101.0,7445.321374573872,-9036.430303624906,-21197.254502445998,-23578.743467181142,14942.521148028512,14342.913251270444,31539.76428982786,51672.60636956768,0.0,0.0,0.0,193.0,0.0,192.0,0.0,0.0,0.0,178.0,192.0,0.0,178.0,1744418871.2272081,0.0,2025-04-11 20:47:51.227,STOP,43
102.0,7442.482703028048,-9048.522597375226,-21140.23520234051,-23600.201141858237,15086.309920109503,14317.767538758224,31659.1226052192,51732.19612028553,0.0,0.0,0.0,193.0,0.0,192.0,0.0,0.0,0.0,178.0,192.0,0.0,178.0,1744418871.227312,0.0,2025-04-11 20:47:51.227,STOP,43
103.0,7421.628525451247,-9097.204696798884,-21149.98056292302,-23650.179642460305,15158.774275633608,14109.941018812779,31971.17530955974,51660.8940554731,0.0,0.0,0.0,193.0,0.0,193.0,0.0,0.0,0.0,178.0,193.0,0.0,178.0,1744418871.2273605,0.0,2025-04-11 20:47:51.227,STOP,43
104.0,7424.824824908355,-9090.365062995561,-21196.91922627917,-23633.57229633001,15035.817329384963,14090.047966247555,31841.758709163514,51557.85251353413,0.0,0.0,0.0,193.0,0.0,192.0,0.0,0.0,0.0,178.0,192.0,0.0,178.0,1744418871.227416,0.0,2025-04-11 20:47:51.227,STOP,43
105.0,7437.811188436889,-9043.493454872782,-21203.66945310467,-23591.975699898685,14949.651354509755,14328.78694877469,31581.472644981463,51656.647224026594,0.0,0.0,0.0,193.0,0.0,192.0,0.0,0.0,0.0,178.0,192.0,0.0,178.0,1744418871.2274833,0.0,2025-04-11 20:47:51.227,STOP,43
106.0,7451.4681042990815,-9044.633393840002,-21147.231298355022,-23593.58502549947,15068.160303611792,14339.9851727468,31592.87203465367,51714.65000088811,0.0,0.0,0.0,193.0,0.0,192.0,0.0,0.0,0.0,178.0,192.0,0.0,178.0,1744418871.227543,0.0,2025-04-11 20:47:51.227,STOP,43
107.0,7430.122188344263,-9094.813060142167,-21152.819234468847,-23655.477005896213,15177.616796209431,14150.665897210349,31954.925591340732,51679.04367197081,0.0,0.0,0.0,193.0,0.0,192.0,0.0,0.0,0.0,179.0,192.0,0.0,179.0,1744418871.2276108,0.0,2025-04-11 20:47:51.227,STOP,43
108.0,7414.677132925646,-9101.697397434402,-21207.044566517423,-23653.375941917413,15051.731771437142,14046.573823281984,31885.568128295916,51550.3646791416,0.0,0.0,0.0,193.0,0.0,193.0,0.0,0.0,0.0,179.0,193.0,0.0,179.0,1744418871.227686,0.0,2025-04-11 20:47:51.227,STOP,43
109.0,7417.493452727014,-9083.883057103521,-21225.0600725484,-23613.76865074261,14944.689267240676,14275.679203948881,31633.909837473613,51637.20120635047,0.0,0.0,0.0,193.0,0.0,193.0,0.0,0.0,0.0,179.0,193.0,0.0,179.0,1744418871.227743,0.0,2025-04-11 20:47:51.227,STOP,43
110.0,7440.359287304794,-9067.36511795105,-21168.264289887466,-23597.22835984568,15020.841660599908,14332.36322788754,31553.1976882455,51712.079550275754,0.0,0.0,0.0,193.0,0.0,193.0,0.0,0.0,0.0,178.0,193.0,0.0,178.0,1744418871.2277882,0.0,2025-04-11 20:47:51.227,STOP,43
111.0,7430.256298810995,-9103.776109668745,-21141.66571398565,-23641.037778978083,15170.57599670601,14174.537560288616,31908.32220415142,51694.06404424478,0.0,0.0,0.0,193.0,0.0,193.0,0.0,0.0,0.0,178.0,193.0,0.0,178.0,1744418871.227821,0.0,2025-04-11 20:47:51.227,STOP,43
112.0,7429.608098221791,-9096.355330509583,-21185.51983660696,-23646.35749415845,15073.301204836513,14021.96455263669,31909.104515207353,51552.80101928723,0.0,0.0,0.0,193.0,0.0,192.0,0.0,0.0,0.0,178.0,192.0,0.0,178.0,1744418871.2278545,0.0,2025-04-11 20:47:51.227,STOP,43
113.0,7437.386505292238,-9061.307795203662,-21210.710252608093,-23601.654005247834,14966.973956462618,14246.286659990152,31669.247945457453,51613.59776420567,0.0,0.0,0.0,193.0,0.0,192.0,0.0,0.0,0.0,178.0,192.0,0.0,178.0,1744418871.2279692,0.0,2025-04-11 20:47:51.227,STOP,43
114.0,7460.654671270213,-9049.014335753243,-21172.71228703407,-23589.449952775238,14998.668730100242,14356.726629343824,31516.80904827226,51708.592678140725,0.0,0.0,0.0,193.0,0.0,192.0,0.0,0.0,0.0,178.0,192.0,0.0,178.0,1744418871.2280252,0.0,2025-04-11 20:47:51.228,STOP,43
115.0,7449.635261253747,-9088.688682161413,-21133.99906563748,-23633.102909696452,15171.760639162141,14223.934915534845,31832.77330789248,51714.739407865934,0.0,0.0,0.0,193.0,0.0,193.0,0.0,0.0,0.0,179.0,193.0,0.0,179.0,1744418871.2280595,0.0,2025-04-11 20:47:51.228,STOP,43
116.0,7432.245604067517,-9097.875249132545,-21181.273005160452,-23661.57903213251,15107.566429086499,14034.34741906493,31928.8858090503,51585.92630457,0.0,0.0,0.0,193.0,0.0,193.0,0.0,0.0,0.0,179.0,193.0,0.0,179.0,1744418871.2280936,0.0,2025-04-11 20:47:51.228,STOP,43
117.0,7426.545909231414,-9062.22421672633,-21220.187392257143,-23625.704482281744,14982.173142692227,14211.172069450864,31712.766791911938,51613.03897059429,0.0,0.0,0.0,193.0,0.0,193.0,0.0,0.0,0.0,179.0,193.0,0.0,179.0,1744418871.2281587,0.0,2025-04-11 20:47:51.228,STOP,43
118.0,7444.114380373286,-9044.07460022862,-21205.9046275502,-23611.48877280817,14960.603709292855,14350.289326940696,31505.56612081124,51715.52171892187,0.0,0.0,0.0,193.0,0.0,193.0,0.0,0.0,0.0,179.0,193.0,0.0,179.0,1744418871.2281916,0.0,2025-04-11 20:47:51.228,STOP,43
119.0,7446.23779609654,-9081.84904835809,-21148.103016388777,-23630.9794939732,15134.880260810884,14239.804654098112,31743.455737049073,51722.45075970302,0.0,0.0,0.0,193.0,0.0,193.0,0.0,0.0,0.0,178.0,193.0,0.0,178.0,1744418871.228226,0.0,2025-04-11 20:47:51.228,STOP,43
120.0,7433.340839545827,-9104.08903409112,-21174.67924054614,-23661.869604810432,15120.37397865939,14025.831404427458,31922.560265369448,51593.77176687381,0.0,0.0,0.0,193.0,0.0,192.0,0.0,0.0,0.0,178.0,192.0,0.0,178.0,1744418871.2282631,0.0,2025-04-11 20:47:51.228,STOP,43
121.0,7437.162987847685,-9080.70910939087,-21212.163115997686,-23626.263275893125,15001.999140024083,14139.221804049232,31739.499478280486,51571.80000207425,0.0,0.0,0.0,193.0,0.0,193.0,0.0,0.0,0.0,179.0,193.0,0.0,179.0,1744418871.228302,0.0,2025-04-11 20:47:51.228,STOP,43
122.0,7449.5905577648355,-9054.535216633703,-21215.24765673252,-23612.025214675097,14945.918613185719,14335.112492455542,31515.155019182566,51694.8016518118,0.0,0.0,0.0,193.0,0.0,193.0,0.0,0.0,0.0,178.0,193.0,0.0,178.0,1744418871.2283604,0.0,2025-04-11 20:47:51.228,STOP,43
123.0,7455.849046212322,-9069.913216818955,-21153.154510635675,-23627.380863115894,15107.544077342043,14270.001860857232,31680.93790780758,51732.218472029985,0.0,0.0,0.0,193.0,0.0,193.0,0.0,0.0,0.0,179.0,193.0,0.0,179.0,1744418871.228402,0.0,2025-04-11 20:47:51.228,STOP,43
124.0,7432.983211634542,-9104.580772469137,-21178.56844408136,-23671.81613109304,15137.696580612253,14056.83327398697,31947.437756948206,51637.58118600622,0.0,0.0,0.0,193.0,0.0,193.0,0.0,0.0,0.0,179.0,193.0,0.0,179.0,1744418871.2284408,0.0,2025-04-11 20:47:51.228,STOP,43
125.0,7425.674191197657,-9100.959789867376,-21229.73158713956,-23654.649991351365,14993.080793986415,14096.775841328603,31787.220452692563,51573.09640325265,0.0,0.0,0.0,193.0,0.0,193.0,0.0,0.0,0.0,179.0,193.0,0.0,179.0,1744418871.2284791,0.0,2025-04-11 20:47:51.228,STOP,43
126.0,7453.94914793362,-9061.732478348313,-21229.39631097273,-23614.595665287456,14923.075130352394,14314.191259645375,31521.838190774703,51683.02228248386,0.0,0.0,0.0,193.0,0.0,192.0,0.0,1.0,0.0,178.0,192.0,1.0,178.0,1744418871.228524,0.0,2025-04-11 20:47:51.228,STOP,43
127.0,7461.995775937531,-9056.993908523787,-21152.930993191123,-23610.52764779659,15072.429486802755,14290.54311401166,31593.319069542777,51722.651925403115,0.0,0.0,0.0,193.0,0.0,192.0,0.0,2.0,0.0,178.0,192.0,2.0,178.0,1744418871.2285697,0.0,2025-04-11 20:47:51.228,STOP,43
128.0,7442.795627450422,-9083.65953965897,-21151.52283329044,-23657.555718130556,15154.058057553537,14088.416288902317,31926.471820649127,51650.701660001476,0.0,0.0,0.0,193.0,0.0,193.0,0.0,3.0,0.0,178.0,193.0,3.0,178.0,1744418871.2286165,0.0,2025-04-11 20:47:51.228,STOP,43
129.0,7450.462275798593,-9073.735365120812,-21201.367223425776,-23644.167023201826,15032.64338167231,14066.042192702556,31822.603264165315,51549.85058901914,0.0,0.0,0.0,193.0,0.0,192.0,0.0,4.0,0.0,178.0,192.0,4.0,178.0,1744418871.228757,0.0,2025-04-11 20:47:51.228,STOP,43
130.0,7462.107534659807,-9056.233949212306,-21217.661645133692,-23612.00286293064,14933.312229312925,14298.88031469349,31561.24431624941,51645.71722098794,0.0,0.0,0.0,193.0,0.0,193.0,0.0,5.0,0.0,179.0,193.0,5.0,179.0,1744418871.2288022,0.0,2025-04-11 20:47:51.228,STOP,43
131.0,7464.946206205632,-9059.050269013676,-21163.883347974224,-23617.00965368863,15029.983524082128,14312.40312008895,31544.927542797035,51706.69277986202,0.0,0.0,0.0,193.0,0.0,193.0,0.0,6.0,0.0,179.0,193.0,6.0,179.0,1744418871.2288508,0.0,2025-04-11 20:47:51.228,STOP,43
132.0,7457.19015087964,-9086.520562949248,-21150.740522234504,-23665.356476945457,15155.779141876596,14130.638734178394,31902.1307709373,51673.99217772391,0.0,0.0,0.0,193.0,0.0,193.0,0.0,7.0,0.0,179.0,193.0,7.0,179.0,1744418871.2288928,0.0,2025-04-11 20:47:51.228,STOP,43
133.0,7461.839313726344,-9071.544894164193,-21198.305034435398,-23657.7345320862,15046.5014632346,14022.098663103423,31847.167831321698,51540.90989123701,0.0,0.0,0.0,193.0,0.0,193.0,0.0,8.0,0.0,179.0,193.0,8.0,179.0,1744418871.228998,0.0,2025-04-11 20:47:51.228,STOP,43
134.0,7471.942302220143,-9040.8335972826,-21209.86088631879,-23607.063127406018,14944.555156773944,14254.690915905347,31596.895348655624,51618.49279624138,0.0,0.0,0.0,193.0,0.0,193.0,0.0,9.0,0.0,179.0,193.0,9.0,179.0,1744418871.2290378,0.0,2025-04-11 20:47:51.229,STOP,43
135.0,7477.843162756344,-9036.296193158174,-21164.464493330062,-23600.33525232497,15004.815459825453,14323.936620227889,31500.492274819884,51693.72876807795,0.0,0.0,0.0,193.0,0.0,193.0,0.0,10.0,0.0,178.0,193.0,10.0,178.0,1744418871.229076,0.0,2025-04-11 20:47:51.229,STOP,43
136.0,7450.439924054137,-9088.778089139234,-21140.212850596054,-23653.308886684048,15164.4292669808,14177.443287067807,31867.01618039801,51692.857050044186,0.0,0.0,0.0,193.0,0.0,192.0,0.0,10.0,0.0,178.0,192.0,10.0,178.0,1744418871.229122,0.0,2025-04-11 20:47:51.229,STOP,43
137.0,7471.115287675297,-9084.263036759263,-21175.819179513357,-23652.414816905835,15081.191370629236,14004.284322772543,31878.08029390339,51538.18297841346,0.0,0.0,0.0,193.0,0.0,192.0,0.0,11.0,0.0,178.0,192.0,11.0,178.0,1744418871.2291715,0.0,2025-04-11 20:47:51.229,STOP,43
138.0,7483.364043636804,-9053.507036388759,-21206.306958950398,-23610.505296052135,14969.969090219629,14224.828985313057,31647.03031146888,51582.59589464616,0.0,0.0,0.0,193.0,0.0,193.0,0.0,11.0,0.0,179.0,193.0,11.0,179.0,1744418871.2292104,0.0,2025-04-11 20:47:51.229,STOP,43
139.0,7476.278540644472,-9047.673231085924,-21187.933825008135,-23611.4217175748,14985.615311338344,14345.662515838447,31499.195873641478,51689.70545407599,0.0,0.0,0.0,193.0,0.0,193.0,0.0,12.0,0.0,179.0,193.0,12.0,179.0,1744418871.2292476,0.0,2025-04-11 20:47:51.229,STOP,43
140.0,7463.71686026059,-9073.534199420716,-21148.974734422536,-23647.34097091448,15148.80539760654,14218.391682909929,31797.09992374181,51699.33905593623,0.0,0.0,0.0,193.0,0.0,193.0,0.0,12.0,0.0,179.0,193.0,12.0,179.0,1744418871.2292902,0.0,2025-04-11 20:47:51.229,STOP,43
141.0,7470.690604530645,-9079.412708212461,-21186.927996507646,-23672.44197993779,15091.294359123036,14007.950008863212,31893.50299757755,51553.24805417634,0.0,0.0,0.0,193.0,0.0,193.0,0.0,12.0,0.0,179.0,193.0,12.0,179.0,1744418871.2293308,0.0,2025-04-11 20:47:51.229,STOP,43
142.0,7476.233837155562,-9050.109571231553,-21215.515877665985,-23634.01933121912,14963.308270371946,14161.059458382066,31673.11479724822,51549.895292508045,0.0,0.0,0.0,193.0,0.0,192.0,0.0,13.0,0.0,179.0,192.0,13.0,179.0,1744418871.2293682,0.0,2025-04-11 20:47:51.229,STOP,43
143.0,7494.204639697628,-9028.204861665352,-21194.214665200077,-23614.997996687653,14945.248060852058,14319.667437036926,31454.447681241953,51646.790104721804,0.0,0.0,0.0,193.0,0.0,193.0,0.0,13.0,0.0,179.0,193.0,13.0,179.0,1744418871.2294059,0.0,2025-04-11 20:47:51.229,STOP,43
144.0,7480.212447668607,-9065.912254561455,-21144.95142042058,-23638.33321789899,15123.61498160541,14245.906680334412,31699.758076638947,51682.53054410584,0.0,0.0,0.0,193.0,0.0,193.0,0.0,13.0,0.0,178.0,193.0,13.0,178.0,1744418871.2295225,0.0,2025-04-11 20:47:51.229,STOP,43
145.0,7470.24356964154,-9085.8947141045,-21183.172903439154,-23677.22525325123,15113.400234389333,14028.290096317542,31901.102590692353,51576.06918526521,0.0,0.0,0.0,193.0,0.0,193.0,0.0,14.0,0.0,179.0,193.0,14.0,179.0,1744418871.229565,0.0,2025-04-11 20:47:51.229,STOP,43
146.0,7483.609912825813,-9059.765524836246,-21214.934732310147,-23638.176755687804,14996.92529403273,14119.194641017277,31704.13901855219,51530.53868180975,0.0,0.0,0.0,193.0,0.0,192.0,0.0,14.0,0.0,179.0,192.0,14.0,179.0,1744418871.2296052,0.0,2025-04-11 20:47:51.229,STOP,43
147.0,7488.750814050533,-9037.391428636483,-21215.068842776876,-23619.49069732317,14941.358857316836,14323.131957427498,31471.88204191709,51652.84742746919,0.0,0.0,0.0,193.0,0.0,192.0,0.0,14.0,0.0,178.0,192.0,14.0,178.0,1744418871.229652,0.0,2025-04-11 20:47:51.229,STOP,43
148.0,7485.666273315701,-9059.586710880603,-21160.485882817018,-23638.757901043642,15086.198161387225,14259.407133985416,31615.73786923145,51687.09029997472,0.0,0.0,0.0,193.0,0.0,192.0,0.0,14.0,0.0,178.0,192.0,14.0,178.0,1744418871.2297592,0.0,2025-04-11 20:47:51.229,STOP,43
149.0,7485.643921571246,-9079.65857740147,-21181.273005160452,-23681.49443644219,15128.822938063497,14051.580614039973,31899.40385811375,51598.51033669834,0.0,0.0,0.0,193.0,0.0,193.0,0.0,14.0,0.0,179.0,193.0,14.0,179.0,1744418871.2298007,0.0,2025-04-11 20:47:51.229,STOP,43
150.0,7498.987913011064,-9053.439981155394,-21217.661645133692,-23648.279744181604,15015.20902099717,14076.323995151997,31754.0951674098,51517.97700142587,0.0,0.0,0.0,193.0,0.0,193.0,0.0,14.0,0.0,179.0,193.0,14.0,179.0,1744418871.229841,0.0,2025-04-11 20:47:51.229,STOP,43
151.0,7500.530183378481,-9023.756864518746,-21225.2612382485,-23618.686034522776,14940.420084049712,14300.042605405166,31502.481580076408,51627.701714956966,0.0,0.0,0.0,193.0,0.0,193.0,0.0,15.0,0.0,179.0,193.0,15.0,179.0,1744418871.2298832,0.0,2025-04-11 20:47:51.229,STOP,43
152.0,7499.099671733341,-9035.69269605788,-21163.74923750749,-23632.25354340715,15066.729791966653,14277.936730138867,31552.348321956197,51677.07671845874,0.0,0.0,0.0,193.0,0.0,193.0,0.0,15.0,0.0,179.0,193.0,15.0,179.0,1744418871.2299263,0.0,2025-04-11 20:47:51.229,STOP,43
153.0,7483.431098870171,-9084.46420245936,-21162.9445747071,-23683.193169020793,15155.466217454223,14082.783649299581,31890.59727079836,51622.35964803215,0.0,0.0,0.0,193.0,0.0,193.0,0.0,15.0,0.0,179.0,193.0,15.0,179.0,1744418871.2299688,0.0,2025-04-11 20:47:51.229,STOP,43
154.0,7485.800383782433,-9070.65082438598,-21208.81035432939,-23669.692715369787,15038.231317786136,14033.788625453548,31799.648022609716,51510.08683563314,0.0,0.0,0.0,193.0,0.0,193.0,0.0,15.0,0.0,179.0,193.0,15.0,179.0,1744418871.2300096,0.0,2025-04-11 20:47:51.230,STOP,43
155.0,7495.00930249802,-9045.236890940296,-21230.670360406682,-23635.87452600891,14938.989572404573,14269.912453879411,31545.888667808613,51603.87475536761,0.0,0.0,0.0,193.0,0.0,193.0,0.0,15.0,0.0,179.0,193.0,15.0,179.0,1744418871.2300513,0.0,2025-04-11 20:47:51.230,STOP,43
156.0,7508.912087549221,-9043.962841506343,-21178.970775481557,-23638.19910743226,15028.664771159265,14291.101907623042,31506.840170245192,51668.538352076815,0.0,0.0,0.0,193.0,0.0,193.0,0.0,15.0,0.0,179.0,193.0,15.0,179.0,1744418871.230094,0.0,2025-04-11 20:47:51.230,STOP,43
157.0,7490.449546629137,-9076.395222710995,-21162.00580143998,-23686.769448133644,15162.350554746457,14112.064434536032,31864.40102629674,51641.71625873045,0.0,0.0,0.0,193.0,0.0,193.0,0.0,15.0,0.0,179.0,193.0,15.0,179.0,1744418871.2301393,0.0,2025-04-11 20:47:51.230,STOP,43
158.0,7495.970427509597,-9071.500190675282,-21202.976549026556,-23675.884148583908,15056.112713350381,13985.330043474441,31824.994900822036,51501.61552448458,0.0,0.0,0.0,193.0,0.0,193.0,0.0,15.0,0.0,179.0,193.0,15.0,179.0,1744418871.2301831,0.0,2025-04-11 20:47:51.230,STOP,43
159.0,7487.253247172028,-9055.898673045478,-21239.43224423316,-23642.602401089956,14938.900165426752,14226.505366147205,31599.53285450135,51596.185755274986,0.0,0.0,0.0,193.0,0.0,193.0,0.0,15.0,0.0,179.0,193.0,15.0,179.0,1744418871.2302892,0.0,2025-04-11 20:47:51.230,STOP,43
160.0,7515.416445185715,-9021.58874530658,-21188.202045941598,-23617.166115899818,14980.876741513819,14296.086346636575,31462.159033079035,51663.79978225229,0.0,0.0,0.0,193.0,0.0,193.0,0.0,15.0,0.0,179.0,193.0,15.0,179.0,1744418871.230347,0.0,2025-04-11 20:47:51.230,STOP,43
161.0,7508.86738406031,-9062.179513237419,-21151.589888523806,-23656.63929660789,15149.878281340396,14155.18094959032,31798.48573189804,51647.88534020011,0.0,0.0,0.0,193.0,0.0,193.0,0.0,15.0,0.0,179.0,193.0,15.0,179.0,1744418871.2303882,0.0,2025-04-11 20:47:51.230,STOP,43
162.0,7505.067587502907,-9075.076469788131,-21196.025156500957,-23673.894843327387,15071.110733879894,13982.580778906438,31841.82576439688,51504.185975096945,0.0,0.0,0.0,193.0,0.0,193.0,0.0,15.0,0.0,179.0,193.0,15.0,179.0,1744418871.230434,0.0,2025-04-11 20:47:51.230,STOP,43
163.0,7509.940267794164,-9048.343783419585,-21230.178622028663,-23634.10873819694,14962.503607571556,14183.411202837373,31623.873904213182,51554.18682744346,0.0,0.0,0.0,193.0,0.0,193.0,0.0,16.0,0.0,178.0,193.0,16.0,178.0,1744418871.2305639,0.0,2025-04-11 20:47:51.230,STOP,43
164.0,7526.257041246538,-9029.680076799403,-21201.61309261478,-23620.85415373494,14970.72904953111,14310.279704365696,31446.915143360515,51651.14869489059,0.0,0.0,0.0,193.0,0.0,193.0,0.0,16.0,0.0,179.0,193.0,16.0,179.0,1744418871.230659,0.0,2025-04-11 20:47:51.230,STOP,43
165.0,7515.908183563732,-9063.65472837147,-21151.165205379155,-23656.840462307988,15140.647010880353,14204.71241530328,31741.734652726016,51668.58305556572,0.0,0.0,0.0,193.0,0.0,193.0,0.0,16.0,0.0,179.0,193.0,16.0,179.0,1744418871.2307007,0.0,2025-04-11 20:47:51.230,STOP,43
166.0,7514.187099240673,-9069.667347629947,-21189.9007785202,-23681.248567253184,15094.781231258063,13991.096793543911,31875.196918868653,51530.58338529866,0.0,0.0,0.0,193.0,0.0,193.0,0.0,16.0,0.0,179.0,193.0,16.0,179.0,1744418871.2307408,0.0,2025-04-11 20:47:51.230,STOP,43
167.0,7509.716750349611,-9043.381696150505,-21228.077558049867,-23639.808433033042,14970.326718130913,14133.522109213127,31668.487986145974,51519.34045783764,0.0,0.0,0.0,193.0,0.0,193.0,0.0,16.0,0.0,179.0,193.0,16.0,179.0,1744418871.2307816,0.0,2025-04-11 20:47:51.230,STOP,43
168.0,7526.1899860131725,-9014.011503936232,-21210.374976441264,-23614.14863039835,14946.365648074825,14309.095061909566,31452.03369284078,51620.77267417582,0.0,0.0,0.0,193.0,0.0,193.0,0.0,16.0,0.0,179.0,193.0,16.0,179.0,1744418871.2308214,0.0,2025-04-11 20:47:51.230,STOP,43
169.0,7531.017962815519,-9028.182509920896,-21148.81827221135,-23635.785119031087,15118.787004803064,14231.825081327568,31678.0768845173,51651.551026290785,0.0,0.0,0.0,193.0,0.0,193.0,0.0,16.0,0.0,179.0,193.0,16.0,179.0,1744418871.2308564,0.0,2025-04-11 20:47:51.230,STOP,43
170.0,7530.01213431503,-9041.057114727153,-21179.708383048583,-23676.800570106578,15115.098966967937,14014.0073316106,31902.35428838185,51544.82144651669,0.0,0.0,0.0,193.0,0.0,193.0,0.0,16.0,0.0,179.0,193.0,16.0,179.0,1744418871.230894,0.0,2025-04-11 20:47:51.230,STOP,43
171.0,7533.25313726105,-9029.657725054947,-21214.510049165496,-23649.7326075712,14996.29944518798,14098.094594251466,31724.70262345107,51497.905134905,0.0,0.0,0.0,193.0,0.0,193.0,0.0,16.0,0.0,179.0,193.0,16.0,179.0,1744418871.23093,0.0,2025-04-11 20:47:51.230,STOP,43
172.0,7537.947003596664,-9015.866698726022,-21211.604322386305,-23626.06211019303,14938.654296237744,14306.479907808294,31482.834396700193,51618.31398228574,0.0,0.0,0.0,193.0,0.0,193.0,0.0,16.0,0.0,179.0,193.0,16.0,179.0,1744418871.2309651,0.0,2025-04-11 20:47:51.230,STOP,43
173.0,7533.946041339164,-9035.715047802336,-21153.936821691612,-23639.92019175532,15083.761821241596,14252.455741459817,31601.075124868767,51656.17783739303,0.0,0.0,0.0,193.0,0.0,193.0,0.0,16.0,0.0,179.0,193.0,16.0,179.0,1744418871.230999,0.0,2025-04-11 20:47:51.230,STOP,43
174.0,7518.121006264807,-9069.577940652125,-21178.277871403443,-23693.11734355895,15134.768502088607,14035.889689432346,31896.676945290204,51576.56092364323,0.0,0.0,0.0,193.0,0.0,193.0,0.0,16.0,0.0,178.0,193.0,16.0,178.0,1744418871.2310612,0.0,2025-04-11 20:47:51.231,STOP,43
175.0,7531.286183748983,-9042.21940543883,-21219.606246901305,-23664.037724022597,15017.77947160953,14049.613660527904,31758.163184900666,51492.80893716919,0.0,0.0,0.0,193.0,0.0,193.0,0.0,16.0,0.0,179.0,193.0,16.0,179.0,1744418871.231096,0.0,2025-04-11 20:47:51.231,STOP,43
176.0,7532.336715738383,-9020.78408250619,-21241.53330821196,-23637.573258587512,14923.231592563581,14288.442050032862,31508.024812701326,51611.16142406004,0.0,0.0,0.0,193.0,0.0,193.0,0.0,16.0,0.0,179.0,193.0,16.0,179.0,1744418871.2311313,0.0,2025-04-11 20:47:51.231,STOP,43
177.0,7536.069457062418,-9022.326352873606,-21182.189426683122,-23638.221459176715,15035.63851542932,14278.674337705892,31527.917865266547,51661.676366529035,0.0,0.0,0.0,193.0,0.0,193.0,0.0,16.0,0.0,179.0,193.0,16.0,179.0,1744418871.2311673,0.0,2025-04-11 20:47:51.231,STOP,43
178.0,7525.921765079709,-9052.79178056619,-21170.030077699434,-23682.522616687136,15150.794702863062,14085.868190034413,31877.11916889181,51612.323714771715,0.0,0.0,0.0,193.0,0.0,193.0,0.0,16.0,0.0,179.0,193.0,16.0,179.0,1744418871.2312229,0.0,2025-04-11 20:47:51.231,STOP,43
179.0,7537.745837896567,-9042.55468160566,-21217.326368966864,-23671.25733748166,15028.061274058971,14007.078290829455,31794.082438240344,51490.23848655683,0.0,0.0,0.0,193.0,0.0,193.0,0.0,16.0,0.0,179.0,193.0,16.0,179.0,1744418871.2312605,0.0,2025-04-11 20:47:51.231,STOP,43
180.0,7557.5941869728795,-9017.83365223809,-21229.932752839657,-23631.091252695474,14919.163575072716,14240.229337242763,31529.90717052307,51574.16928698651,0.0,0.0,0.0,193.0,0.0,193.0,0.0,16.0,0.0,179.0,193.0,16.0,179.0,1744418871.2312949,0.0,2025-04-11 20:47:51.231,STOP,43
181.0,7561.170466085729,-9005.584896276581,-21170.164188166167,-23621.144726412862,15003.720224347142,14294.231151846785,31472.977277395403,51638.184683106505,0.0,0.0,0.0,193.0,0.0,193.0,0.0,16.0,0.0,179.0,193.0,16.0,179.0,1744418871.2313285,0.0,2025-04-11 20:47:51.231,STOP,43
182.0,7530.7273901376,-9045.661574084947,-21153.199214124586,-23670.16210200335,15148.626583650897,14138.864176137946,31846.40787201022,51625.7347614449,0.0,0.0,0.0,193.0,0.0,193.0,0.0,16.0,0.0,179.0,193.0,16.0,179.0,1744418871.2313616,0.0,2025-04-11 20:47:51.231,STOP,43
183.0,7543.981974599597,-9053.55173987767,-21205.39053742773,-23672.553738660066,15048.222547557658,14003.569066949973,31841.02110159649,51498.48628026084,0.0,0.0,0.0,193.0,0.0,193.0,0.0,16.0,0.0,179.0,193.0,16.0,179.0,1744418871.2313955,0.0,2025-04-11 20:47:51.231,STOP,43
184.0,7556.811875916944,-9027.668419798425,-21232.011465074,-23631.851212006954,14943.14699687326,14224.359598679495,31595.107209099202,51562.43462114747,0.0,0.0,0.0,193.0,0.0,193.0,0.0,16.0,0.0,178.0,193.0,16.0,178.0,1744418871.2314296,0.0,2025-04-11 20:47:51.231,STOP,43
185.0,7562.444515519681,-9009.407044578438,-21186.23509242953,-23618.44016533377,14990.376232907323,14313.006617189243,31458.51569873282,51640.33045057422,0.0,0.0,0.0,193.0,0.0,192.0,0.0,17.0,0.0,178.0,192.0,17.0,178.0,1744418871.231462,0.0,2025-04-11 20:47:51.231,STOP,43
186.0,7544.607823444346,-9041.772370549723,-21145.867841943247,-23654.11354948444,15162.149389046359,14181.42189758085,31796.2058539636,51643.504398286874,0.0,0.0,0.0,193.0,0.0,193.0,0.0,17.0,0.0,178.0,193.0,17.0,178.0,1744418871.231495,0.0,2025-04-11 20:47:51.231,STOP,43
187.0,7546.574776956413,-9038.084332714598,-21189.699612820103,-23669.87152932543,15092.635463790353,13997.131764546844,31868.089064131866,51505.90705942,0.0,0.0,0.0,193.0,0.0,193.0,0.0,16.0,0.0,179.0,193.0,16.0,179.0,1744418871.2315288,0.0,2025-04-11 20:47:51.231,STOP,43
188.0,7555.984861372097,-8994.699596726847,-21223.562505669895,-23633.102909696452,14971.712526287143,14182.51713305916,31650.651294070638,51539.43467610296,0.0,0.0,0.0,193.0,0.0,193.0,0.0,17.0,0.0,179.0,193.0,17.0,179.0,1744418871.231562,0.0,2025-04-11 20:47:51.231,STOP,43
189.0,7575.07325113693,-8986.608265234026,-21200.271987947464,-23621.971740957706,14960.29078487048,14320.829727748602,31462.717826690416,51639.48108428492,0.0,0.0,0.0,193.0,0.0,193.0,0.0,17.0,0.0,179.0,193.0,17.0,179.0,1744418871.2316105,0.0,2025-04-11 20:47:51.231,STOP,43
190.0,7571.519323768535,-9025.612059308536,-21150.584060023317,-23653.130072728407,15131.214574720214,14217.028226498154,31740.929989925626,51657.72010776045,0.0,0.0,0.0,193.0,0.0,193.0,0.0,17.0,0.0,178.0,193.0,17.0,178.0,1744418871.2316444,0.0,2025-04-11 20:47:51.231,STOP,43
191.0,7555.671936949723,-9040.766542049234,-21186.81623778537,-23682.16498877585,15106.605304074921,14003.881991372347,31899.69443079167,51532.03624868825,0.0,0.0,0.0,193.0,0.0,192.0,0.0,17.0,0.0,179.0,192.0,17.0,179.0,1744418871.231677,0.0,2025-04-11 20:47:51.231,STOP,43
192.0,7567.697175466678,-9018.191280149375,-21218.153383511708,-23640.18841268878,14985.235331682603,14134.639696435894,31696.070038803824,51518.60285027062,0.0,0.0,0.0,193.0,0.0,193.0,0.0,17.0,0.0,178.0,193.0,17.0,178.0,1744418871.2317102,0.0,2025-04-11 20:47:51.231,STOP,43
193.0,7590.942989700197,-8994.96781766031,-21200.56256062538,-23610.86292396342,14952.62413652231,14315.711178268335,31462.0249226123,51626.11474110064,0.0,0.0,0.0,193.0,0.0,192.0,0.0,17.0,0.0,178.0,192.0,17.0,178.0,1744418871.2317576,0.0,2025-04-11 20:47:51.231,STOP,43
194.0,7580.571780272935,-9017.274858626706,-21140.302257573876,-23626.598552059957,15122.407987404822,14241.034000043155,31650.94186674856,51657.206017637975,0.0,0.0,0.0,193.0,0.0,192.0,0.0,17.0,0.0,178.0,192.0,17.0,178.0,1744418871.2317915,0.0,2025-04-11 20:47:51.231,STOP,43
195.0,7569.664128978745,-9040.431265882406,-21170.99120271101,-23673.9395468163,15137.4730631677,14015.706064189204,31888.250337630554,51554.365641399105,0.0,0.0,0.0,193.0,0.0,193.0,0.0,17.0,0.0,179.0,193.0,17.0,179.0,1744418871.2318249,0.0,2025-04-11 20:47:51.231,STOP,43
196.0,7582.181105873717,-9008.468271311316,-21203.356528682296,-23635.49454635317,15013.398529696291,14082.11309696592,31721.014585615947,51498.5533354942,0.0,0.0,0.0,193.0,0.0,193.0,0.0,17.0,0.0,179.0,193.0,17.0,179.0,1744418871.231858,0.0,2025-04-11 20:47:51.231,STOP,43
197.0,7593.513440312558,-8985.468326266806,-21203.356528682296,-23609.34300534046,14946.142130630271,14316.918172468922,31488.623498514116,51624.840691666686,0.0,0.0,0.0,193.0,0.0,193.0,0.0,17.0,0.0,179.0,193.0,17.0,179.0,1744418871.2318919,0.0,2025-04-11 20:47:51.231,STOP,43
198.0,7596.195649647195,-8995.30309382714,-21144.70555123157,-23625.033929948084,15086.22051313168,14280.663642962414,31594.14608408762,51674.90859924658,0.0,0.0,0.0,193.0,0.0,193.0,0.0,17.0,0.0,179.0,193.0,17.0,179.0,1744418871.2319248,0.0,2025-04-11 20:47:51.231,STOP,43
199.0,7572.100469124373,-9024.561527319138,-21164.24097588551,-23681.136808530904,15149.543005173566,14070.289024149064,31918.089916478388,51616.01175260684,0.0,0.0,0.0,193.0,0.0,193.0,0.0,17.0,0.0,179.0,193.0,17.0,179.0,1744418871.2319586,0.0,2025-04-11 20:47:51.231,STOP,43
200.0,7575.877913937321,-9013.743283002768,-21208.56448514038,-23661.690790854787,15021.713378633665,14040.963535423702,31781.163129945176,51513.260783345795,0.0,0.0,0.0,193.0,0.0,193.0,0.0,17.0,0.0,178.0,193.0,17.0,178.0,1744418871.2319915,0.0,2025-04-11 20:47:51.231,STOP,43
201.0,7588.104318154374,-8993.582009504082,-21212.52074390897,-23619.311883367525,14938.587241004378,14267.140837566953,31514.70798429346,51605.70759841295,0.0,0.0,0.0,193.0,0.0,192.0,0.0,17.0,0.0,178.0,192.0,17.0,178.0,1744418871.2320244,0.0,2025-04-11 20:47:51.232,STOP,43
202.0,7602.7894142615105,-8990.564524002615,-21146.31487683235,-23616.09323216596,15058.057315117994,14276.573273727094,31521.726432052426,51660.87170372864,0.0,0.0,0.0,193.0,0.0,193.0,0.0,17.0,0.0,179.0,193.0,17.0,179.0,1744418871.232057,0.0,2025-04-11 20:47:51.232,STOP,43
203.0,7583.11987914084,-9028.137806431987,-21143.61031575326,-23669.7374188587,15173.682889185297,14109.382225201396,31884.808168984437,51626.11474110064,0.0,0.0,0.0,193.0,0.0,193.0,0.0,17.0,0.0,179.0,193.0,17.0,179.0,1744418871.23209,0.0,2025-04-11 20:47:51.232,STOP,43
204.0,7583.566914029946,-9019.64414353897,-21198.372089668763,-23667.323430457527,15048.803692913496,14023.752692193115,31820.25633099751,51507.71755072088,0.0,0.0,0.0,193.0,0.0,193.0,0.0,17.0,0.0,179.0,193.0,17.0,179.0,1744418871.2321377,0.0,2025-04-11 20:47:51.232,STOP,43
205.0,7592.462908323158,-8985.222457077796,-21216.81227884439,-23622.977569458195,14941.783540461487,14265.866788133,31572.084912310234,51604.992342590376,0.0,0.0,0.0,193.0,0.0,193.0,0.0,17.0,0.0,179.0,193.0,17.0,179.0,1744418871.2321713,0.0,2025-04-11 20:47:51.232,STOP,43
206.0,7603.482318339625,-8989.916323413412,-21165.269156130453,-23613.34396759796,15012.951494807185,14322.863736494033,31488.824664214215,51680.09420396021,0.0,0.0,0.0,193.0,0.0,193.0,0.0,17.0,0.0,179.0,193.0,17.0,179.0,1744418871.2322044,0.0,2025-04-11 20:47:51.232,STOP,43
207.0,7580.549428528479,-9031.468216355826,-21143.006818652968,-23661.914308299343,15161.791761135073,14161.573548504539,31851.660531957215,51670.12532593314,0.0,0.0,0.0,193.0,0.0,193.0,0.0,17.0,0.0,179.0,193.0,17.0,179.0,1744418871.232237,0.0,2025-04-11 20:47:51.232,STOP,43
208.0,7589.333664099416,-9015.26320162573,-21183.463476117075,-23665.155311245362,15062.08062911995,13998.741090147627,31838.83063063987,51513.46194904589,0.0,0.0,0.0,193.0,0.0,193.0,0.0,17.0,0.0,179.0,193.0,17.0,179.0,1744418871.2322843,0.0,2025-04-11 20:47:51.232,STOP,43
209.0,7603.236449150616,-8984.39544253295,-21206.306958950398,-23623.648121791855,14947.237366108582,14223.286714945642,31604.986680148446,51574.95159804244,0.0,0.0,0.0,193.0,0.0,193.0,0.0,17.0,0.0,179.0,193.0,17.0,179.0,1744418871.2323172,0.0,2025-04-11 20:47:51.232,STOP,43
210.0,7620.179071447739,-8965.016480090198,-21168.91249047667,-23614.841534476465,14982.061383969949,14327.088216196087,31465.243573813867,51667.59957880969,0.0,0.0,0.0,193.0,0.0,192.0,0.0,17.0,0.0,178.0,192.0,17.0,178.0,1744418871.2323544,0.0,2025-04-11 20:47:51.232,STOP,43
211.0,7600.844812493899,-9013.564469047125,-21143.073873886333,-23663.166005988838,15150.370019718412,14193.268322142163,31791.95902251709,51676.18264868053,0.0,0.0,0.0,193.0,0.0,192.0,0.0,17.0,0.0,179.0,192.0,17.0,179.0,1744418871.2323868,0.0,2025-04-11 20:47:51.232,STOP,43
212.0,7601.716530527656,-9018.347742360562,-21185.09515346231,-23679.59453816349,15089.975606200172,13994.114279045378,31862.232907084577,51528.012934686296,0.0,0.0,0.0,193.0,0.0,192.0,0.0,17.0,0.0,178.0,192.0,17.0,178.0,1744418871.2324195,0.0,2025-04-11 20:47:51.232,STOP,43
213.0,7593.178164145728,-8996.890067683467,-21216.655816633203,-23637.930886498798,14984.073040970927,14180.796048736102,31656.060416228822,51556.71257456691,0.0,0.0,0.0,193.0,0.0,193.0,0.0,17.0,0.0,179.0,193.0,17.0,179.0,1744418871.7070093,0.0,2025-04-11 20:47:51.707,STOP,43
214.0,7615.7087225566775,-8971.006747604222,-21193.834685544334,-23621.815278746522,14974.417087366235,14328.988114474789,31472.41848378402,51678.01549172586,0.0,0.0,0.0,193.0,0.0,193.0,0.0,17.0,0.0,179.0,193.0,17.0,179.0,1744418871.7071881,0.0,2025-04-11 20:47:51.707,STOP,43
215.0,7612.467719610659,-9001.986265419277,-21140.771644207438,-23649.86671803793,15155.019182565116,14228.405264425906,31741.19821085909,51706.29044846183,0.0,0.0,0.0,193.0,0.0,193.0,0.0,17.0,0.0,179.0,193.0,17.0,179.0,1744418871.7072687,0.0,2025-04-11 20:47:51.707,STOP,43
216.0,7603.482318339625,-9016.626658037503,-21175.349792879795,-23681.82971260902,15129.404083419335,14014.990808366634,31921.375622913318,51581.701824867945,0.0,0.0,0.0,193.0,0.0,193.0,0.0,17.0,0.0,180.0,193.0,17.0,180.0,1744418871.7073298,0.0,2025-04-11 20:47:51.707,STOP,43
217.0,7597.492050825603,-9002.54505903066,-21217.572238155873,-23647.363322658937,14997.215866710649,14130.0352370781,31729.0388618754,51560.378260657584,0.0,0.0,0.0,193.0,0.0,193.0,0.0,17.0,0.0,179.0,193.0,17.0,179.0,1744418871.7073905,0.0,2025-04-11 20:47:51.707,STOP,43
218.0,7615.7087225566775,-8983.076689610087,-21207.737470595537,-23618.596627544957,14938.363723559825,14306.725776997302,31470.675047716508,51661.832828740226,0.0,0.0,0.0,193.0,0.0,193.0,0.0,17.0,0.0,179.0,193.0,17.0,179.0,1744418871.7074578,0.0,2025-04-11 20:47:51.707,STOP,43
219.0,7619.7543883030885,-8992.799698448145,-21141.66571398565,-23634.891049252874,15103.297245895536,14247.650116401926,31640.995340465946,51699.67433210306,0.0,0.0,0.0,193.0,0.0,193.0,0.0,17.0,0.0,178.0,193.0,17.0,178.0,1744418871.7075849,0.0,2025-04-11 20:47:51.707,STOP,43
220.0,7610.456062609681,-9013.743283002768,-21162.966926451558,-23682.835541109507,15128.711179341219,14029.161814351299,31906.511712850537,51606.802833891255,0.0,0.0,0.0,193.0,0.0,193.0,0.0,17.0,0.0,179.0,193.0,17.0,179.0,1744418871.7076352,0.0,2025-04-11 20:47:51.707,STOP,43
221.0,7615.395798134304,-8997.493564783761,-21205.9046275502,-23656.460482652248,14999.987483023106,14075.139352695865,31743.723957982536,51536.596004557134,0.0,0.0,0.0,193.0,0.0,193.0,0.0,17.0,0.0,179.0,193.0,17.0,179.0,1744418871.7076707,0.0,2025-04-11 20:47:51.707,STOP,43
222.0,7631.3772954198475,-8968.458648736316,-21207.1563252397,-23627.939656727274,14929.423025777702,14297.494506537261,31485.13662637909,51641.51509303035,0.0,0.0,0.0,193.0,0.0,193.0,0.0,17.0,0.0,179.0,193.0,17.0,179.0,1744418871.7077053,0.0,2025-04-11 20:47:51.707,STOP,43
223.0,7624.9176412722645,-8991.458593780828,-21157.222528126542,-23648.19033720378,15058.16907384027,14273.019346358698,31574.163624544577,51691.404186654596,0.0,0.0,0.0,193.0,0.0,193.0,0.0,17.0,0.0,179.0,193.0,17.0,179.0,1744418871.707878,0.0,2025-04-11 20:47:51.707,STOP,43
224.0,7609.964324231663,-9011.485756812783,-21161.75993225097,-23689.094029556996,15135.617868377909,14065.014012457612,31886.21632888512,51614.33537177269,0.0,0.0,0.0,193.0,0.0,193.0,0.0,17.0,0.0,179.0,193.0,17.0,179.0,1744418871.7079132,0.0,2025-04-11 20:47:51.707,STOP,43
225.0,7617.809786535477,-8991.9726839033,-21206.463421161585,-23669.06686652504,15019.232334999126,14037.409608055308,31773.205908919088,51509.99742865532,0.0,0.0,0.0,193.0,0.0,193.0,0.0,17.0,0.0,179.0,193.0,17.0,179.0,1744418871.707947,0.0,2025-04-11 20:47:51.707,STOP,43
226.0,7636.004106522097,-8969.866808637002,-21230.648008662225,-23641.373055144915,14922.583391974378,14284.463439519817,31534.131650225125,51629.48985451339,0.0,0.0,0.0,193.0,0.0,193.0,0.0,17.0,0.0,179.0,193.0,17.0,179.0,1744418871.7079809,0.0,2025-04-11 20:47:51.707,STOP,43
227.0,7649.2810427285485,-8970.894988881944,-21173.8969294902,-23634.354607385947,15023.814442612464,14296.846305948056,31513.344527881687,51688.27494243085,0.0,0.0,0.0,193.0,0.0,193.0,0.0,17.0,0.0,179.0,193.0,17.0,179.0,1744418871.7080142,0.0,2025-04-11 20:47:51.708,STOP,43
228.0,7624.939993016719,-9005.942524187867,-21153.646249013695,-23669.759770603156,15156.293231999069,14120.491042195683,31863.59636349635,51647.70652624447,0.0,0.0,0.0,193.0,0.0,193.0,0.0,17.0,0.0,179.0,193.0,17.0,179.0,1744418871.7080476,0.0,2025-04-11 20:47:51.708,STOP,43
229.0,7631.980792520141,-8990.452765280339,-21191.1524762097,-23658.226270464216,15057.11854185087,14019.72937819116,31801.123237743766,51509.57274551067,0.0,0.0,0.0,193.0,0.0,193.0,0.0,17.0,0.0,179.0,193.0,17.0,179.0,1744418871.708081,0.0,2025-04-11 20:47:51.708,STOP,43
230.0,7638.8874815568315,-8959.9649858433,-21217.035796288943,-23627.649084049357,14947.639697508777,14262.335212509062,31563.881822095136,51602.26542976683,0.0,0.0,0.0,193.0,0.0,193.0,0.0,17.0,0.0,179.0,193.0,17.0,179.0,1744418871.7081144,0.0,2025-04-11 20:47:51.708,STOP,43
231.0,7659.18286552225,-8956.880445108467,-21163.682182274126,-23619.96008395673,15006.87182031534,14325.367131873028,31467.769320937317,51678.06019521478,0.0,0.0,0.0,193.0,0.0,193.0,0.0,17.0,0.0,180.0,193.0,17.0,180.0,1744418871.708148,0.0,2025-04-11 20:47:51.708,STOP,43
232.0,7642.0614292694845,-8998.49939328425,-21138.983504651012,-23669.11157001395,15163.490493713678,14169.620176508448,31822.938540332147,51670.348843377695,0.0,0.0,0.0,193.0,0.0,193.0,0.0,17.0,0.0,179.0,193.0,17.0,179.0,1744418871.7081814,0.0,2025-04-11 20:47:51.708,STOP,43
233.0,7637.904004800797,-8994.16315485992,-21193.253540188496,-23681.941471331298,15075.93871068224,13997.556447691495,31837.668339928194,51522.02266717228,0.0,0.0,0.0,193.0,0.0,193.0,0.0,17.0,0.0,179.0,193.0,17.0,179.0,1744418871.7082148,0.0,2025-04-11 20:47:51.708,STOP,43
234.0,7643.089609514429,-8961.909587610911,-21226.24471500453,-23640.456633622245,14958.547348802967,14199.057423956088,31594.43665676554,51562.30051068074,0.0,0.0,0.0,193.0,0.0,193.0,0.0,17.0,0.0,179.0,193.0,17.0,179.0,1744418871.708269,0.0,2025-04-11 20:47:51.708,STOP,43
235.0,7663.51910394658,-8940.697782122825,-21183.32936565034,-23616.652025777345,14987.96224450615,14322.059073693643,31434.12994553208,51652.4897995579,0.0,0.0,0.0,193.0,0.0,193.0,0.0,17.0,0.0,179.0,193.0,17.0,179.0,1744418871.7083027,0.0,2025-04-11 20:47:51.708,STOP,43
236.0,7649.079877028451,-8972.571369716094,-21139.09526337329,-23651.431340149804,15154.035705809083,14212.982560751745,31758.274943622942,51673.925122490546,0.0,0.0,0.0,193.0,0.0,193.0,0.0,17.0,0.0,179.0,193.0,17.0,179.0,1744418871.7083368,0.0,2025-04-11 20:47:51.708,STOP,43
237.0,7647.0458682830185,-8984.596608233049,-21182.43529587213,-23669.983288047708,15092.657815534809,14013.381482765852,31857.024950626488,51532.125655666074,0.0,0.0,0.0,193.0,0.0,193.0,0.0,17.0,0.0,180.0,193.0,17.0,180.0,1744418871.7083707,0.0,2025-04-11 20:47:51.708,STOP,43
238.0,7642.597871136412,-8978.673395952392,-21215.00178754351,-23634.82399401951,14974.193569921681,14178.829095224035,31647.58910508026,51545.53670233926,0.0,0.0,0.0,193.0,0.0,193.0,0.0,17.0,0.0,179.0,193.0,17.0,179.0,1744418871.7084205,0.0,2025-04-11 20:47:51.708,STOP,43
239.0,7661.306281245504,-8942.95530831281,-21184.245787173008,-23606.839609961466,14960.581357548399,14337.951164001366,31427.424422195487,51644.621985509635,0.0,0.0,0.0,193.0,0.0,193.0,0.0,17.0,0.0,179.0,193.0,17.0,179.0,1744418871.7084568,0.0,2025-04-11 20:47:51.708,STOP,43
240.0,7647.448199683214,-8964.301224267629,-21133.283809814908,-23639.070825466017,15133.941487543761,14246.86780534599,31667.079826245288,51662.95041596299,0.0,0.0,0.0,193.0,0.0,193.0,0.0,17.0,0.0,179.0,193.0,17.0,179.0,1744418871.708492,0.0,2025-04-11 20:47:51.708,STOP,43
241.0,7635.110036743884,-8995.30309382714,-21178.546092336906,-23691.30685225807,15121.916249026806,14027.261916072597,31869.720741477104,51548.73300179637,0.0,0.0,0.0,193.0,0.0,193.0,0.0,17.0,0.0,179.0,193.0,17.0,179.0,1744418871.7085295,0.0,2025-04-11 20:47:51.708,STOP,43
242.0,7646.062391526984,-8976.952311629333,-21220.835592846346,-23657.533366386102,15000.836849312407,14128.068283566034,31686.682306132592,51529.622260287084,0.0,0.0,0.0,193.0,0.0,193.0,0.0,17.0,0.0,179.0,193.0,17.0,179.0,1744418871.7085643,0.0,2025-04-11 20:47:51.708,STOP,43
243.0,7668.458839471203,-8943.62586064647,-21210.330272952353,-23625.257447392636,14956.692154013177,14327.445844107371,31442.042463069258,51637.24590983938,0.0,0.0,0.0,193.0,0.0,193.0,0.0,17.0,0.0,179.0,193.0,17.0,179.0,1744418871.7085989,0.0,2025-04-11 20:47:51.708,STOP,43
244.0,7656.724173632166,-8972.370204015995,-21154.741484492002,-23640.300171411058,15111.500336110634,14278.249654561241,31604.092610370233,51687.87261103065,0.0,0.0,0.0,193.0,0.0,193.0,0.0,17.0,0.0,179.0,193.0,17.0,179.0,1744418871.7086327,0.0,2025-04-11 20:47:51.708,STOP,43
245.0,7635.55707163299,-9007.775367233202,-21180.37893538224,-23685.182474277317,15150.705295885242,14068.143256681355,31891.60309929885,51608.479214725405,0.0,0.0,0.0,193.0,0.0,193.0,0.0,17.0,0.0,179.0,193.0,17.0,179.0,1744418871.7086718,0.0,2025-04-11 20:47:51.708,STOP,43
246.0,7655.003089309108,-8973.73366042777,-21218.48865967854,-23648.19033720378,15018.11474777636,14093.73600408268,31731.162277598654,51529.912832965,0.0,0.0,0.0,193.0,0.0,193.0,0.0,17.0,0.0,179.0,193.0,17.0,179.0,1744418871.70871,0.0,2025-04-11 20:47:51.708,STOP,43
247.0,7676.572522708479,-8935.445122175828,-21210.06205201889,-23603.553903526536,14948.019677164517,14327.31173364064,31473.1784430955,51639.391677307096,0.0,0.0,0.0,193.0,0.0,193.0,0.0,17.0,0.0,179.0,193.0,17.0,179.0,1744418871.7087512,0.0,2025-04-11 20:47:51.708,STOP,43
248.0,7684.529743734568,-8943.759971113202,-21143.543260519895,-23607.174886128294,15077.860960705395,14314.124204412008,31526.53205711032,51685.48097437394,0.0,0.0,0.0,193.0,0.0,193.0,0.0,17.0,0.0,179.0,193.0,17.0,179.0,1744418871.7087913,0.0,2025-04-11 20:47:51.708,STOP,43
249.0,7661.485095201147,-8987.010596634222,-21154.13798739171,-23668.95510780276,15155.466217454223,14114.79134735958,31869.899555432745,51632.19441559249,0.0,0.0,0.0,193.0,0.0,193.0,0.0,17.0,0.0,179.0,193.0,17.0,179.0,1744418871.7088804,0.0,2025-04-11 20:47:51.708,STOP,43
250.0,7660.143990533828,-8974.180695316874,-21204.29530194942,-23656.751055330165,15033.537451450522,14069.819637515502,31773.138853685723,51528.32585910867,0.0,0.0,0.0,193.0,0.0,193.0,0.0,17.0,0.0,179.0,193.0,17.0,179.0,1744418871.70892,0.0,2025-04-11 20:47:51.708,STOP,43
251.0,7666.491885959135,-8954.064125307099,-21238.091139565844,-23633.885220752385,14926.182022831683,14304.915285696423,31528.81193504476,51638.49760752888,0.0,0.0,0.0,193.0,0.0,193.0,0.0,17.0,0.0,178.0,193.0,17.0,178.0,1744418871.708961,0.0,2025-04-11 20:47:51.708,STOP,43
252.0,7685.066185601496,-8938.820235588579,-21177.71907779206,-23629.191354416773,15014.314951218958,14322.819033005124,31481.73916122188,51692.9017535331,0.0,0.0,0.0,193.0,0.0,192.0,0.0,17.0,0.0,178.0,192.0,17.0,178.0,1744418871.7090068,0.0,2025-04-11 20:47:51.709,STOP,43
253.0,7671.141048805839,-8971.520837726694,-21157.691914760104,-23674.096009027482,15149.006563306639,14156.65616472437,31842.652778941727,51662.68219502953,0.0,0.0,0.0,193.0,0.0,193.0,0.0,17.0,0.0,179.0,193.0,17.0,179.0,1744418871.7091026,0.0,2025-04-11 20:47:51.709,STOP,43
254.0,7684.954426879219,-8960.00968933221,-21199.28851119143,-23661.914308299343,15051.910585392785,14036.91786967729,31801.033830765944,51524.39195208454,0.0,0.0,0.0,193.0,0.0,193.0,0.0,17.0,0.0,179.0,193.0,17.0,179.0,1744418871.7091508,0.0,2025-04-11 20:47:51.709,STOP,43
255.0,7667.318900503982,-8950.845474105534,-21242.1144535678,-23634.39931087486,14932.14993860125,14262.849302631534,31570.67675240955,51614.000095605865,0.0,0.0,0.0,193.0,0.0,192.0,0.0,17.0,0.0,178.0,192.0,17.0,178.0,1744418871.7091932,0.0,2025-04-11 20:47:51.709,STOP,43
0.0,7689.223610070183,-8929.231337217252,-21190.72779306505,-23621.256485135138,14977.903959501262,14323.288419638684,31449.64205618406,51693.59465761121,0.0,0.0,0.0,193.0,0.0,193.0,0.0,17.0,0.0,179.0,193.0,17.0,179.0,1744418871.7092388,0.0,2025-04-11 20:47:51.709,STOP,43
1.0,7680.931112877263,-8962.021346333187,-21152.08162690182,-23663.8365583225,15146.167891760815,14182.85240922599,31804.408944178696,51694.08639598923,0.0,0.0,0.0,193.0,0.0,193.0,0.0,17.0,0.0,179.0,193.0,17.0,179.0,1744418871.7093055,0.0,2025-04-11 20:47:51.709,STOP,43
2.0,7682.5627902225015,-8963.138933555952,-21191.62186284326,-23676.97938406222,15062.862940175884,14012.44270949873,31846.609037710317,51548.06244946271,0.0,0.0,0.0,193.0,0.0,193.0,0.0,17.0,0.0,179.0,193.0,17.0,179.0,1744418871.7093613,0.0,2025-04-11 20:47:51.709,STOP,43
3.0,7688.486002503158,-8947.962099070799,-21224.523630681473,-23641.797738289566,14957.00507843555,14225.901869046911,31622.219875123486,51583.55701965774,0.0,0.0,0.0,193.0,0.0,193.0,0.0,17.0,0.0,179.0,193.0,17.0,179.0,1744418871.7094076,0.0,2025-04-11 20:47:51.709,STOP,43
4.0,7695.839726428953,-8931.66767736288,-21207.40219442871,-23634.779290530598,14964.559968061445,14351.719838585836,31460.057969100235,51686.3973958966,0.0,0.0,0.0,193.0,0.0,192.0,0.0,17.0,0.0,179.0,192.0,17.0,179.0,1744418871.709454,0.0,2025-04-11 20:47:51.709,STOP,43
5.0,7682.696900689233,-8964.703555667826,-21162.117560162256,-23668.73159035821,15135.014371277615,14225.074854502065,31756.12917615523,51700.25547745889,0.0,0.0,0.0,193.0,0.0,193.0,0.0,17.0,0.0,179.0,193.0,17.0,179.0,1744418871.7095025,0.0,2025-04-11 20:47:51.709,STOP,43
6.0,7689.424775770281,-8970.000919103733,-21194.281720433442,-23684.556625432568,15088.232170132658,14011.034549598045,31872.514709534018,51558.54541761225,0.0,0.0,0.0,193.0,0.0,193.0,0.0,17.0,0.0,179.0,193.0,17.0,179.0,1744418871.7095482,0.0,2025-04-11 20:47:51.709,STOP,43
7.0,7701.070034631495,-8941.34598271203,-21222.19904925812,-23636.388616131382,14971.712526287143,14176.862141711968,31673.51712864842,51566.033252004774,0.0,0.0,0.0,193.0,0.0,193.0,0.0,17.0,0.0,179.0,193.0,17.0,179.0,1744418871.7095969,0.0,2025-04-11 20:47:51.709,STOP,43
8.0,7719.197299384749,-8912.981618998245,-21199.892008291725,-23610.415889074313,14951.171273132715,14342.577975103615,31447.22806778289,51666.638453798114,0.0,0.0,0.0,193.0,0.0,193.0,0.0,17.0,0.0,178.0,193.0,17.0,178.0,1744418871.709741,0.0,2025-04-11 20:47:51.709,STOP,43
9.0,7706.85913644542,-8926.504424393705,-21138.0894348728,-23631.471232351214,15129.538193886066,14264.793904399146,31676.02052402741,51695.13692797863,0.0,0.0,0.0,193.0,0.0,193.0,0.0,17.0,0.0,178.0,193.0,17.0,178.0,1744418871.7098312,0.0,2025-04-11 20:47:51.709,STOP,43
10.0,7703.685188732767,-8947.20213975932,-21162.51989156245,-23669.20097699177,15127.794757818552,14048.1160936494,31894.754695267045,51573.25286546384,0.0,0.0,0.0,193.0,0.0,192.0,0.0,17.0,0.0,179.0,192.0,17.0,179.0,1744418871.7098656,0.0,2025-04-11 20:47:51.709,STOP,43
11.0,7695.169174095295,-8945.279889736163,-21206.463421161585,-23646.11162496944,14997.931122533219,14133.745626657681,31729.46354502005,51539.05469644722,0.0,0.0,0.0,193.0,0.0,192.0,0.0,17.0,0.0,178.0,192.0,17.0,178.0,1744418871.7099004,0.0,2025-04-11 20:47:51.709,STOP,43
12.0,7709.407235313325,-8920.29063943513,-21202.685976348635,-23618.99895894515,14933.826319435397,14341.281573925207,31481.023905399314,51658.63652928311,0.0,0.0,0.0,193.0,0.0,193.0,0.0,17.0,0.0,179.0,193.0,17.0,179.0,1744418871.709954,0.0,2025-04-11 20:47:51.709,STOP,43
13.0,7723.0641511755175,-8929.521909895171,-21136.86008892776,-23633.080557951995,15089.193295144236,14294.812297202623,31603.1091336142,51696.99212276842,0.0,0.0,0.0,193.0,0.0,193.0,0.0,17.0,0.0,179.0,193.0,17.0,179.0,1744418871.709989,0.0,2025-04-11 20:47:51.709,STOP,43
14.0,7717.230345872682,-8944.966965313788,-21151.992219924,-23677.337011973505,15149.252432495647,14080.727288809692,31890.731381265094,51614.558889217245,0.0,0.0,0.0,193.0,0.0,193.0,0.0,17.0,0.0,179.0,193.0,17.0,179.0,1744418871.7100239,0.0,2025-04-11 20:47:51.710,STOP,43
15.0,7720.828976729987,-8914.85916553249,-21191.599511098804,-23645.597534846966,15028.68712290372,14099.256884963143,31748.75310048498,51528.996411442335,0.0,0.0,0.0,193.0,0.0,193.0,0.0,17.0,0.0,179.0,193.0,17.0,179.0,1744418871.7100594,0.0,2025-04-11 20:47:51.710,STOP,43
16.0,7732.295421635559,-8881.890342460913,-21192.38182215474,-23607.890141950866,14944.219880607116,14333.637277321492,31494.971393939424,51638.810531951254,0.0,0.0,0.0,193.0,0.0,192.0,0.0,17.0,0.0,179.0,192.0,17.0,179.0,1744418871.7100945,0.0,2025-04-11 20:47:51.710,STOP,43
17.0,7742.8454450184645,-8886.628912285438,-21129.305199301863,-23611.95815944173,15070.462533290689,14325.12126268402,31530.84594379019,51695.49455588991,0.0,0.0,0.0,193.0,0.0,192.0,0.0,17.0,0.0,179.0,192.0,17.0,179.0,1744418871.7101283,0.0,2025-04-11 20:47:51.710,STOP,43
18.0,7738.643317060866,-8917.139043466932,-21124.812498666346,-23656.21461346324,15176.34274677548,14127.50948995465,31873.274668845497,51643.25852909786,0.0,0.0,0.0,193.0,0.0,193.0,0.0,17.0,0.0,179.0,193.0,17.0,179.0,1744418871.7101629,0.0,2025-04-11 20:47:51.710,STOP,43
19.0,7736.050514704051,-8908.779491040646,-21176.04269695791,-23644.882279024398,15054.436332516234,14057.749695509638,31786.77341780346,51524.235489873354,0.0,0.0,0.0,193.0,0.0,193.0,0.0,17.0,0.0,179.0,193.0,17.0,179.0,1744418871.7101984,0.0,2025-04-11 20:47:51.710,STOP,43
20.0,7729.859081489931,-8895.748424023202,-21203.66945310467,-23618.931903711786,14944.130473629293,14296.645140247958,31543.407624174077,51628.46167426845,0.0,0.0,0.0,193.0,0.0,193.0,0.0,17.0,0.0,179.0,193.0,17.0,179.0,1744418871.7102349,0.0,2025-04-11 20:47:51.710,STOP,43
21.0,7741.169064184316,-8896.262514145674,-21156.350810092787,-23623.53636306958,15024.775567624041,14334.732512799803,31492.24448111588,51699.56257338078,0.0,0.0,0.0,193.0,0.0,193.0,0.0,17.0,0.0,179.0,193.0,17.0,179.0,1744418871.71027,0.0,2025-04-11 20:47:51.710,STOP,43
22.0,7730.037895445574,-8932.00295352971,-21143.56561226435,-23673.82778809402,15162.216444279724,14166.379173562429,31856.220287826098,51676.74144229191,0.0,0.0,0.0,193.0,0.0,193.0,0.0,17.0,0.0,178.0,193.0,17.0,178.0,1744418871.7103038,0.0,2025-04-11 20:47:51.710,STOP,43
23.0,7740.0291252170955,-8916.602601600003,-21193.410002399683,-23670.40797119236,15057.83379767344,14027.194860839232,31831.074575313876,51532.68444927746,0.0,0.0,0.0,193.0,0.0,192.0,0.0,17.0,0.0,178.0,192.0,17.0,178.0,1744418871.710355,0.0,2025-04-11 20:47:51.710,STOP,43
24.0,7739.6267938169,-8894.228505400242,-21221.0591102909,-23633.05820620754,14945.67274399671,14251.606375170515,31582.72434267096,51597.77272913131,0.0,0.0,0.0,193.0,0.0,193.0,0.0,17.0,0.0,179.0,193.0,17.0,179.0,1744418871.7103891,0.0,2025-04-11 20:47:51.710,STOP,43
25.0,7764.705451095754,-8871.720298733748,-21167.32551662034,-23614.550961798544,14992.67846258622,14337.884108768,31438.77910837878,51666.75021252039,0.0,0.0,0.0,193.0,0.0,193.0,0.0,17.0,0.0,179.0,193.0,17.0,179.0,1744418871.710425,0.0,2025-04-11 20:47:51.710,STOP,43
26.0,7751.048535233562,-8894.56378156707,-21126.578286478318,-23654.135901228896,15157.388467477378,14212.110842717988,31781.0513712229,51665.386756108615,0.0,0.0,0.0,193.0,0.0,193.0,0.0,17.0,0.0,179.0,193.0,17.0,179.0,1744418871.71046,0.0,2025-04-11 20:47:51.710,STOP,43
27.0,7750.042706733073,-8900.039958958621,-21175.640365557716,-23674.453636938768,15079.962024684195,14031.531099263562,31843.412738253206,51523.20730962841,0.0,0.0,0.0,193.0,0.0,192.0,0.0,17.0,0.0,179.0,192.0,17.0,179.0,1744418871.7105114,0.0,2025-04-11 20:47:51.710,STOP,43
28.0,7764.057250506551,-8886.226580885243,-21206.642235117226,-23636.388616131382,14964.112933172339,14226.550069636116,31628.008976937414,51562.479324636384,0.0,0.0,0.0,193.0,0.0,193.0,0.0,17.0,0.0,179.0,193.0,17.0,179.0,1744418871.7105467,0.0,2025-04-11 20:47:51.710,STOP,43
29.0,7766.404183674358,-8879.878685459935,-21178.9484237371,-23621.591761301966,14971.086677442394,14370.60706265057,31447.45158522744,51674.08158470173,0.0,0.0,0.0,193.0,0.0,193.0,0.0,17.0,0.0,179.0,193.0,17.0,179.0,1744418871.7105815,0.0,2025-04-11 20:47:51.710,STOP,43
30.0,7723.220613386705,-8932.740561096736,-21187.755011052494,-23674.900671827876,15092.009614945606,14255.406171727916,31665.023465755403,51702.55770713779,0.0,0.0,0.0,193.0,0.0,193.0,0.0,17.0,0.0,179.0,193.0,17.0,179.0,1744418871.7106175,0.0,2025-04-11 20:47:51.710,STOP,43
31.0,7736.631660059889,-8926.95145928281,-21199.087345491334,-23684.109590543463,15060.493655263623,14028.357151550908,31717.483009992007,51557.87486527859,0.0,0.0,0.0,193.0,0.0,193.0,0.0,17.0,0.0,179.0,193.0,17.0,179.0,1744418871.7106535,0.0,2025-04-11 20:47:51.710,STOP,43
32.0,7761.732669083199,-8888.171182652854,-21195.175790211655,-23640.568392344525,14995.606541109866,14167.161484618366,31569.91679309807,51537.75829526881,0.0,0.0,0.0,193.0,0.0,193.0,0.0,17.0,0.0,179.0,193.0,17.0,179.0,1744418871.7106907,0.0,2025-04-11 20:47:51.710,STOP,43
33.0,7773.668500622332,-8857.906920660367,-21182.1000197053,-23620.742395012665,14967.465694840634,14359.565300889648,31394.097971212625,51647.79593322229,0.0,0.0,0.0,193.0,0.0,193.0,0.0,17.0,0.0,179.0,193.0,17.0,179.0,1744418871.7107294,0.0,2025-04-11 20:47:51.710,STOP,43
34.0,7764.01254701764,-8887.388871596917,-21131.607428980762,-23644.09996796846,15124.151423472336,14293.001805901744,31633.2169333955,51685.436270885024,0.0,0.0,0.0,193.0,0.0,193.0,0.0,17.0,0.0,178.0,193.0,17.0,178.0,1744418871.710768,0.0,2025-04-11 20:47:51.710,STOP,43
35.0,7758.826942304009,-8921.631744102448,-21156.462568815063,-23679.572186419035,15142.211632992225,14078.11213470842,31893.726515022103,51584.227571991396,0.0,0.0,0.0,193.0,0.0,192.0,0.0,17.0,0.0,178.0,192.0,17.0,178.0,1744418871.7108047,0.0,2025-04-11 20:47:51.710,STOP,43
36.0,7764.414878417836,-8903.99621772721,-21196.136915223233,-23648.615020348432,15019.50055593259,14149.056571609566,31738.068966635346,51536.43954234595,0.0,0.0,0.0,193.0,0.0,193.0,0.0,17.0,0.0,179.0,193.0,17.0,179.0,1744418871.7108433,0.0,2025-04-11 20:47:51.710,STOP,43
37.0,7783.793840860587,-8873.32962433453,-21200.406098414194,-23626.15151717085,14951.171273132715,14358.671231111435,31498.79354224128,51654.50145655888,0.0,0.0,0.0,193.0,0.0,193.0,0.0,17.0,0.0,179.0,193.0,17.0,179.0,1744418871.7108853,0.0,2025-04-11 20:47:51.710,STOP,43
38.0,7790.387605474903,-8880.325720349041,-21141.017513396444,-23636.12039519792,15096.6140743034,14322.439053349382,31610.418154051087,51705.48578566144,0.0,0.0,0.0,193.0,0.0,193.0,0.0,17.0,0.0,179.0,193.0,17.0,179.0,1744418871.710926,0.0,2025-04-11 20:47:51.710,STOP,43
39.0,7775.903675067863,-8901.001083970199,-21152.863937957758,-23686.411820222358,15159.690697156275,14118.099405538966,31916.50294262206,51631.14388360309,0.0,0.0,0.0,193.0,0.0,193.0,0.0,17.0,0.0,178.0,193.0,17.0,178.0,1744418871.7110512,0.0,2025-04-11 20:47:51.711,STOP,43
40.0,7776.35070995697,-8892.015682699166,-21197.030985001446,-23668.329258958016,15035.59381194041,14112.958504314245,31789.276813182452,51536.8642254906,0.0,0.0,0.0,193.0,0.0,193.0,0.0,17.0,0.0,179.0,193.0,17.0,179.0,1744418871.7111096,0.0,2025-04-11 20:47:51.711,STOP,43
41.0,7785.090242038995,-8864.187760852308,-21203.892970549223,-23633.885220752385,14944.845729451863,14340.275745424718,31536.523286881842,51644.51022678736,0.0,0.0,0.0,193.0,0.0,193.0,0.0,17.0,0.0,179.0,193.0,17.0,179.0,1744418871.7111733,0.0,2025-04-11 20:47:51.711,STOP,43
42.0,7793.405090976369,-8847.356897277463,-21139.542298262393,-23621.994092702163,15051.754123181598,14335.514823855738,31537.1938392155,51689.1019569757,0.0,0.0,0.0,193.0,0.0,193.0,0.0,17.0,0.0,179.0,193.0,17.0,179.0,1744418871.7113504,0.0,2025-04-11 20:47:51.711,STOP,43
43.0,7757.9328725257965,-8895.502554834195,-21147.723036733038,-23679.68394514131,15148.067790039515,14141.188757561298,31896.676945290204,51649.82994196772,0.0,0.0,0.0,193.0,0.0,193.0,0.0,17.0,0.0,179.0,193.0,17.0,179.0,1744418871.7114024,0.0,2025-04-11 20:47:51.711,STOP,43
44.0,7763.96784352873,-8896.687197290326,-21193.231188444042,-23664.171834489327,15033.090416561416,14044.1151313919,31816.38947920674,51524.19078638444,0.0,0.0,0.0,193.0,0.0,193.0,0.0,17.0,0.0,179.0,193.0,17.0,179.0,1744418871.7114453,0.0,2025-04-11 20:47:51.711,STOP,43
45.0,7776.35070995697,-8872.144981878399,-21210.62084563027,-23622.7764037581,14943.549328273455,14306.815183975123,31581.58440370374,51631.43445628101,0.0,0.0,0.0,193.0,0.0,193.0,0.0,17.0,0.0,179.0,193.0,17.0,179.0,1744418871.7114816,0.0,2025-04-11 20:47:51.711,STOP,43
46.0,7791.639303164399,-8857.191664837797,-21157.356638593275,-23615.936769954777,15023.479166445633,14361.12992300152,31508.09186793469,51708.54797465182,0.0,0.0,0.0,193.0,0.0,193.0,0.0,17.0,0.0,179.0,193.0,17.0,179.0,1744418871.711517,0.0,2025-04-11 20:47:51.711,STOP,43
47.0,7767.3206051970255,-8899.481165347239,-21137.687103472603,-23665.356476945457,15175.493380486178,14203.594828080515,31864.64689548575,51697.21564021298,0.0,0.0,0.0,193.0,0.0,193.0,0.0,17.0,0.0,179.0,193.0,17.0,179.0,1744418871.711553,0.0,2025-04-11 20:47:51.711,STOP,43
48.0,7786.029015306118,-8887.99236869721,-21183.508179605982,-23669.379790947412,15076.899835693817,14050.127750650377,31849.626523211784,51547.25778666232,0.0,0.0,0.0,193.0,0.0,193.0,0.0,17.0,0.0,179.0,193.0,17.0,179.0,1744418871.7115872,0.0,2025-04-11 20:47:51.711,STOP,43
49.0,7793.069814809539,-8861.304385817575,-21217.169906755676,-23634.980456230696,14966.348107617869,14269.599529457037,31611.91572092959,51608.188642047484,0.0,0.0,0.0,193.0,0.0,193.0,0.0,17.0,0.0,178.0,193.0,17.0,178.0,1744418871.7116213,0.0,2025-04-11 20:47:51.711,STOP,43
50.0,7799.30595151257,-8847.915690888845,-21174.500426590494,-23615.400328087846,14993.058442241962,14367.455466682371,31458.225126054902,51692.52177387736,0.0,0.0,0.0,193.0,0.0,192.0,0.0,17.0,0.0,178.0,192.0,17.0,178.0,1744418871.7116551,0.0,2025-04-11 20:47:51.711,STOP,43
51.0,7770.91923605433,-8889.534639064626,-21135.22841158252,-23660.01441002064,15155.868548854418,14244.207947755809,31792.003726006,51702.82592807125,0.0,0.0,0.0,193.0,0.0,193.0,0.0,17.0,0.0,179.0,193.0,17.0,179.0,1744418871.7116888,0.0,2025-04-11 20:47:51.711,STOP,43
52.0,7773.0203000331285,-8891.658054787882,-21173.204025412088,-23676.420590450834,15084.834704975452,14041.857605201914,31865.74213096406,51552.35398439813,0.0,0.0,0.0,193.0,0.0,193.0,0.0,17.0,0.0,179.0,193.0,17.0,179.0,1744418871.7117236,0.0,2025-04-11 20:47:51.711,STOP,43
53.0,7776.01543379014,-8871.005042911178,-21212.230171231055,-23636.880354509398,14963.174159905215,14215.888287530934,31647.812622524816,51572.135278241076,0.0,0.0,0.0,193.0,0.0,193.0,0.0,17.0,0.0,179.0,193.0,17.0,179.0,1744418871.7117577,0.0,2025-04-11 20:47:51.711,STOP,43
54.0,7801.943457358296,-8847.870987399934,-21184.446952873106,-23614.685072265278,14957.206244135648,14354.334992687107,31438.55559093423,51668.02426195434,0.0,0.0,0.0,193.0,0.0,193.0,0.0,17.0,0.0,178.0,193.0,17.0,178.0,1744418871.7118597,0.0,2025-04-11 20:47:51.711,STOP,43
55.0,7783.838544349497,-8878.783449981625,-21135.720149960536,-23648.63737209289,15141.384618447379,14259.742410152247,31713.951434368068,51699.96490478097,0.0,0.0,0.0,193.0,0.0,193.0,0.0,17.0,0.0,178.0,193.0,17.0,178.0,1744418871.7119153,0.0,2025-04-11 20:47:51.711,STOP,43
56.0,7774.160239000349,-8890.898095476401,-21171.214720155564,-23683.327279487527,15112.774385544586,14039.331858078463,31887.400971341252,51575.622150376104,0.0,0.0,0.0,193.0,0.0,193.0,0.0,17.0,0.0,179.0,193.0,17.0,179.0,1744418871.7120335,0.0,2025-04-11 20:47:51.712,STOP,43
57.0,7782.832715849008,-8873.955473179278,-21210.374976441264,-23647.497433125667,14996.187686465704,14159.740705459202,31700.741553394982,51559.84181879066,0.0,0.0,0.0,193.0,0.0,193.0,0.0,17.0,0.0,179.0,193.0,17.0,179.0,1744418871.712113,0.0,2025-04-11 20:47:51.712,STOP,43
58.0,7798.367178245447,-8857.638699726904,-21210.06205201889,-23627.827898004998,14945.6280405078,14342.9356030149,31466.651733714552,51670.08062244423,0.0,0.0,0.0,193.0,0.0,193.0,0.0,17.0,0.0,178.0,193.0,17.0,178.0,1744418871.7122881,0.0,2025-04-11 20:47:51.712,STOP,43
59.0,7803.195155047793,-8867.428763798329,-21149.645286756193,-23647.452729636756,15096.167039414293,14269.510122479216,31629.64065428265,51691.71711107697,0.0,0.0,0.0,193.0,0.0,192.0,0.0,17.0,0.0,179.0,192.0,17.0,179.0,1744418871.7123551,0.0,2025-04-11 20:47:51.712,STOP,43
60.0,7787.2807129956145,-8885.37721459594,-21165.22445264154,-23684.333107988015,15117.55765885802,14060.230739144175,31883.757636995037,51586.105118525644,0.0,0.0,0.0,193.0,0.0,192.0,0.0,17.0,0.0,178.0,192.0,17.0,178.0,1744418871.7124133,0.0,2025-04-11 20:47:51.712,STOP,43
61.0,7773.646148877878,-8885.868952973957,-21211.06788051938,-23656.21461346324,14990.085660229404,14117.786481116591,31734.403280544673,51531.00806844331,0.0,0.0,0.0,193.0,0.0,193.0,0.0,17.0,0.0,179.0,193.0,17.0,179.0,1744418871.712469,0.0,2025-04-11 20:47:51.712,STOP,43
62.0,7793.516849698645,-8844.428818753817,-21208.989168285032,-23622.016444446617,14920.705845440132,14329.144576685976,31480.196890854466,51641.7386104749,0.0,0.0,0.0,193.0,0.0,193.0,0.0,17.0,0.0,179.0,193.0,17.0,179.0,1744418871.7125237,0.0,2025-04-11 20:47:51.712,STOP,43
63.0,7801.0717393245395,-8868.65810974337,-21144.772606464936,-23630.688921295277,15060.73952445263,14305.652893263448,31562.51836568336,51686.12917496314,0.0,0.0,0.0,193.0,0.0,193.0,0.0,17.0,0.0,179.0,193.0,17.0,179.0,1744418871.7125747,0.0,2025-04-11 20:47:51.712,STOP,43
64.0,7787.7500996291765,-8909.092415463021,-21148.304182088876,-23675.72768637272,15141.563432403022,14106.655312377849,31878.281459603484,51616.05645609575,0.0,0.0,0.0,193.0,0.0,193.0,0.0,17.0,0.0,179.0,193.0,17.0,179.0,1744418871.7126272,0.0,2025-04-11 20:47:51.712,STOP,43
65.0,7792.6227799204335,-8884.058461673078,-21191.375993654252,-23656.01344776314,15024.68616064622,14080.235550431677,31753.581077287326,51507.1587571095,0.0,0.0,0.0,193.0,0.0,193.0,0.0,17.0,0.0,178.0,193.0,17.0,178.0,1744418871.7126915,0.0,2025-04-11 20:47:51.712,STOP,43
66.0,7809.297181284092,-8834.012905837644,-21204.272950204962,-23619.133069411884,14935.748569458554,14321.097948682065,31491.573928782218,51603.025389078306,0.0,0.0,0.0,193.0,0.0,193.0,0.0,17.0,0.0,179.0,193.0,17.0,179.0,1744418871.7127495,0.0,2025-04-11 20:47:51.712,STOP,43
67.0,7821.076550612039,-8846.172254821331,-21155.836719970313,-23625.43626134828,15043.126349821849,14345.21548094934,31483.19202461148,51663.151581663085,0.0,0.0,0.0,193.0,0.0,193.0,0.0,17.0,0.0,180.0,193.0,17.0,180.0,1744418871.7128053,0.0,2025-04-11 20:47:51.712,STOP,43
68.0,7804.513907970657,-8899.436461858328,-21150.829929212327,-23680.712125386253,15153.275746497602,14161.03710663761,31836.77427014998,51626.91940390103,0.0,0.0,0.0,193.0,0.0,193.0,0.0,17.0,0.0,179.0,193.0,17.0,179.0,1744418871.7128713,0.0,2025-04-11 20:47:51.712,STOP,43
69.0,7813.074626097039,-8881.353900593986,-21192.046545987912,-23670.63148863691,15042.567556210466,14052.720553007193,31768.847318750304,51491.62429471306,0.0,0.0,0.0,193.0,0.0,193.0,0.0,18.0,0.0,179.0,193.0,18.0,179.0,1744418871.713017,0.0,2025-04-11 20:47:51.713,STOP,43
70.0,7833.258251340181,-8829.073170313022,-21207.75982233999,-23624.072804936506,14946.365648074825,14292.912398923923,31523.42516463103,51576.180943987485,0.0,0.0,0.0,193.0,0.0,193.0,0.0,17.0,0.0,179.0,193.0,17.0,179.0,1744418871.7130787,0.0,2025-04-11 20:47:51.713,STOP,43
71.0,7831.626573994944,-8812.041141038078,-21164.106865418777,-23620.764746757122,15004.346073191891,14358.157140988964,31442.26598051381,51658.547122305295,0.0,0.0,0.0,193.0,0.0,193.0,0.0,17.0,0.0,179.0,193.0,17.0,179.0,1744418871.7131329,0.0,2025-04-11 20:47:51.713,STOP,43
72.0,7800.602352690978,-8864.634795741415,-21141.933934919114,-23664.82003507853,15156.852025610451,14209.76390955018,31796.898758041712,51650.925177446035,0.0,0.0,0.0,193.0,0.0,193.0,0.0,17.0,0.0,179.0,193.0,17.0,179.0,1744418871.7131896,0.0,2025-04-11 20:47:51.713,STOP,43
73.0,7798.92597185683,-8885.958359951777,-21182.189426683122,-23670.92206131483,15071.31189957999,14040.024762156578,31809.19221749213,51499.53681225024,0.0,0.0,0.0,193.0,0.0,193.0,0.0,17.0,0.0,179.0,193.0,17.0,179.0,1744418871.713325,0.0,2025-04-11 20:47:51.713,STOP,43
74.0,7800.825870135531,-8867.629929498426,-21210.039700274432,-23634.779290530598,14953.607613278344,14244.073837289077,31580.82444439226,51548.844760518645,0.0,0.0,0.0,193.0,0.0,193.0,0.0,17.0,0.0,179.0,193.0,17.0,179.0,1744418871.7133987,0.0,2025-04-11 20:47:51.713,STOP,43
75.0,7825.2563268251815,-8849.256795556164,-21175.930938235633,-23626.82206950451,14971.220787909126,14357.866568311045,31421.814134337204,51643.8396744537,0.0,0.0,0.0,193.0,0.0,193.0,0.0,17.0,0.0,179.0,193.0,17.0,179.0,1744418871.7134671,0.0,2025-04-11 20:47:51.713,STOP,43
76.0,7819.668390711355,-8872.010871411667,-21130.42278652463,-23661.98136353271,15141.496377169655,14228.092340003532,31730.491725264994,51654.56851179225,0.0,0.0,0.0,193.0,0.0,193.0,0.0,17.0,0.0,180.0,193.0,17.0,180.0,1744418871.713538,0.0,2025-04-11 20:47:51.713,STOP,43
77.0,7812.560535974567,-8877.844676714501,-21173.069914945354,-23684.087238799006,15089.752088755618,14026.658418972305,31830.225209024575,51510.735036222344,0.0,0.0,0.0,193.0,0.0,193.0,0.0,17.0,0.0,179.0,193.0,17.0,179.0,1744418871.713607,0.0,2025-04-11 20:47:51.713,STOP,43
78.0,7808.045483594595,-8866.311176575564,-21217.86281083379,-23653.644162850876,14963.129456416305,14201.069080957066,31624.119773402188,51532.125655666074,0.0,0.0,0.0,193.0,0.0,193.0,0.0,17.0,0.0,179.0,193.0,17.0,179.0,1744418872.185584,0.0,2025-04-11 20:47:52.185,STOP,43
