Sample Index,EXG Channel 0,EXG Channel 1,EXG Channel 2,EXG Channel 3,EXG Channel 4,EXG Channel 5,EXG Channel 6,EXG Channel 7,Accel Channel 0,Accel Channel 1,Accel Channel 2,Not Used,Digital Channel 0 (D11),Digital Channel 1 (D12),Digital Channel 2 (D13),Digital Channel 3 (D17),Not Used,Digital Channel 4 (D18),Analog Channel 0,Analog Channel 1,Analog Channel 2,Timestamp,Marker Channel,Timestamp (Formatted),Stimulus_Direction,Stimulus_Number
72.0,18626.267448218758,3414.251317292609,-66190.98081481228,-64650.09625555233,-38581.83784268354,-36270.75687298261,-31771.82010076286,-22894.422458937464,0.0,0.0,0.0,193.0,1.0,155.0,0.0,10.0,3.0,251.0,411.0,10.0,1019.0,1744252605.2804356,0.0,2025-04-09 22:36:45.280,STOP,4
73.0,18711.04761493774,3460.966463204201,-66149.9653637368,-64664.49077898155,-38498.465835865245,-36179.67351432723,-32162.50624209717,-22822.539248769197,0.0,0.0,0.0,193.0,1.0,154.0,0.0,9.0,3.0,249.0,410.0,9.0,1017.0,1744252605.2804444,0.0,2025-04-09 22:36:45.280,STOP,4
74.0,18637.420968701957,3461.413498093307,-66120.01402616668,-64611.78536555593,-38463.10537613695,-36156.51710707154,-32059.129423991377,-22785.457704717843,0.0,0.0,0.0,193.0,1.0,155.0,0.0,8.0,3.0,251.0,411.0,8.0,1019.0,1744252605.2804532,0.0,2025-04-09 22:36:45.280,STOP,4
75.0,18548.170453091916,3438.5253117710727,-66164.82927379958,-64676.7171831986,-38490.73213228371,-36184.68030508522,-31970.795329904002,-22817.107774866556,0.0,0.0,0.0,193.0,1.0,154.0,0.0,8.0,3.0,249.0,410.0,8.0,1017.0,1744252605.2804615,0.0,2025-04-09 22:36:45.280,STOP,4
76.0,18588.001261711273,3410.406817246296,-66188.83504734458,-64654.678363165665,-38567.64448495442,-36263.31374207899,-31818.57995016336,-22891.38262169154,0.0,0.0,0.0,193.0,1.0,154.0,0.0,7.0,3.0,249.0,410.0,7.0,1017.0,1744252605.2804701,0.0,2025-04-09 22:36:45.280,STOP,4
77.0,18710.399414348532,3455.937320701757,-66168.9196430349,-64669.430514506166,-38527.7913245906,-36207.389677451814,-32025.110068930397,-22851.194185160897,0.0,0.0,0.0,193.0,1.0,154.0,0.0,7.0,3.0,248.0,410.0,7.0,1016.0,1744252605.2804787,0.0,2025-04-09 22:36:45.280,STOP,4
78.0,18667.707582438896,3488.615571095416,-66090.28620604113,-64580.984661696515,-38439.68074794779,-36119.45791476464,-32156.35951237196,-22757.383913681977,0.0,0.0,0.0,193.0,1.0,154.0,0.0,6.0,3.0,250.0,410.0,6.0,1018.0,1744252605.759312,0.0,2025-04-09 22:36:45.759,STOP,4
79.0,18581.876883730518,3466.35323361793,-66141.20347991031,-64642.787235115444,-38474.23654487569,-36157.21001114965,-31923.856666547857,-22795.27012053372,0.0,0.0,0.0,193.0,1.0,154.0,0.0,6.0,3.0,251.0,410.0,6.0,1019.0,1744252605.7593563,0.0,2025-04-09 22:36:45.759,STOP,4
80.0,18560.978002664808,3406.227041033154,-66183.26946297521,-64656.13122655526,-38559.86607788397,-36245.96878838167,-31889.50203532005,-22874.70822032788,0.0,0.0,0.0,193.0,1.0,155.0,0.0,6.0,3.0,252.0,411.0,6.0,1020.0,1744252605.759375,0.0,2025-04-09 22:36:45.759,STOP,4
81.0,18705.593789290644,3447.600120019927,-66183.73884960877,-64672.55975872991,-38564.71640643077,-36240.58201796794,-31906.690526806182,-22880.67613609745,0.0,0.0,0.0,193.0,1.0,155.0,0.0,5.0,3.0,251.0,411.0,5.0,1019.0,1744252605.7593925,0.0,2025-04-09 22:36:45.759,STOP,4
82.0,18677.832922677153,3492.1024432304434,-66088.52041822916,-64594.77568802544,-38444.75459393914,-36123.14595259976,-32261.18919386735,-22768.246861487256,0.0,0.0,0.0,193.0,1.0,155.0,0.0,5.0,3.0,252.0,411.0,5.0,1020.0,1744252605.7594092,0.0,2025-04-09 22:36:45.759,STOP,4
83.0,18592.851590258073,3473.30462614353,-66139.30358163161,-64640.485005436545,-38483.154890913356,-36165.033121709006,-31913.239587931585,-22807.31771079513,0.0,0.0,0.0,193.0,1.0,155.0,0.0,5.0,3.0,252.0,411.0,5.0,1020.0,1744252605.7594268,0.0,2025-04-09 22:36:45.759,STOP,4
84.0,18538.223926809304,3404.6624189212826,-66182.10717226352,-64674.97374713108,-38550.14306904591,-36235.19524755421,-31973.924574127745,-22870.886072026024,0.0,0.0,0.0,193.0,1.0,155.0,0.0,5.0,3.0,252.0,411.0,5.0,1020.0,1744252605.7594435,0.0,2025-04-09 22:36:45.759,STOP,4
85.0,18685.74544021433,3426.835349420947,-66197.50752419324,-64678.304157054925,-38583.91655491788,-36268.43229155926,-31805.77240059047,-22901.351499718607,0.0,0.0,0.0,193.0,1.0,155.0,0.0,5.0,3.0,252.0,411.0,5.0,1020.0,1744252605.7594526,0.0,2025-04-09 22:36:45.759,STOP,4
86.0,18665.31594578218,3459.670062025793,-66119.16465987738,-64635.90289782321,-38464.982922671195,-36149.230438379105,-32303.90337752144,-22792.632614687995,0.0,0.0,0.0,193.0,1.0,155.0,0.0,4.0,3.0,251.0,411.0,4.0,1019.0,1744252605.759462,0.0,2025-04-09 22:36:45.759,STOP,4
87.0,18584.357927365058,3446.281367097064,-66159.24133768574,-64655.70654341061,-38493.771969529625,-36185.708485330164,-31910.959709997143,-22821.823992946625,0.0,0.0,0.0,193.0,1.0,155.0,0.0,4.0,3.0,252.0,411.0,4.0,1020.0,1744252605.7595615,0.0,2025-04-09 22:36:45.759,STOP,4
88.0,18518.397929477447,3403.522479954062,-66183.4706286753,-64684.69675596914,-38529.512408913666,-36215.88334034483,-32013.15188564681,-22857.89970849749,0.0,0.0,0.0,193.0,1.0,155.0,0.0,4.0,3.0,250.0,411.0,4.0,1018.0,1744252605.7595708,0.0,2025-04-09 22:36:45.759,STOP,4
89.0,18667.707582438896,3427.1482738433215,-66193.03717530218,-64656.913537611195,-38582.9554299063,-36263.89488743483,-31742.18168761512,-22901.999700307813,0.0,0.0,0.0,193.0,1.0,154.0,0.0,4.0,3.0,250.0,410.0,4.0,1018.0,1744252605.7595797,0.0,2025-04-09 22:36:45.759,STOP,4
90.0,18678.54817849972,3459.1112684144105,-66126.58543903654,-64643.480139193554,-38474.86239372044,-36146.59293253338,-32298.96364199682,-22801.0815740921,0.0,0.0,0.0,193.0,1.0,154.0,0.0,4.0,3.0,249.0,410.0,4.0,1017.0,1744252605.7595885,0.0,2025-04-09 22:36:45.759,STOP,4
91.0,18602.887523518508,3449.0306316650667,-66139.75061652072,-64628.32565645286,-38485.166547914334,-36169.65993281126,-31937.9382655547,-22802.914417137436,0.0,0.0,0.0,193.0,1.0,154.0,0.0,4.0,3.0,249.0,410.0,4.0,1017.0,1744252605.7595973,0.0,2025-04-09 22:36:45.759,STOP,4
92.0,18516.922714343396,3405.5341369550392,-66175.53575939366,-64685.34495655834,-38517.688336096806,-36207.389677451814,-32018.091621171432,-22842.119376912044,0.0,0.0,0.0,193.0,1.0,154.0,0.0,4.0,3.0,251.0,410.0,4.0,1019.0,1744252605.7596064,0.0,2025-04-09 22:36:45.759,STOP,4
93.0,18639.67849489194,3412.0161428470783,-66190.31026247863,-64652.95727884261,-38586.28583983015,-36277.08241666346,-31733.531562510918,-22897.685813627937,0.0,0.0,0.0,193.0,1.0,154.0,0.0,4.0,3.0,249.0,410.0,4.0,1017.0,1744252605.7596173,0.0,2025-04-09 22:36:45.759,STOP,4
94.0,18685.27605358077,3448.1142101423993,-66152.11113120451,-64671.21865406259,-38500.56689984404,-36183.763883562555,-32226.923969617364,-22822.405138302463,0.0,0.0,0.0,193.0,1.0,154.0,0.0,4.0,3.0,249.0,410.0,4.0,1017.0,1744252605.759626,0.0,2025-04-09 22:36:45.759,STOP,4
95.0,18627.295628463704,3470.935341231268,-66127.72537800377,-64611.964179511575,-38473.90126870886,-36163.24498215258,-32000.9031296853,-22788.966928597325,0.0,0.0,0.0,193.0,1.0,154.0,0.0,4.0,3.0,249.0,410.0,4.0,1017.0,1744252605.7596393,0.0,2025-04-09 22:36:45.759,STOP,4
96.0,18542.962496633827,3444.604986262916,-66167.57853836758,-64674.258491308516,-38502.46679812274,-36193.062209255964,-31988.52026325706,-22825.914362181946,0.0,0.0,0.0,193.0,1.0,154.0,0.0,4.0,3.0,248.0,410.0,4.0,1016.0,1744252605.759648,0.0,2025-04-09 22:36:45.759,STOP,4
97.0,18611.35883466707,3414.2066138036985,-66189.52795142269,-64650.00684857451,-38582.93307816185,-36276.79184398554,-31769.406112361685,-22896.52352291626,0.0,0.0,0.0,193.0,1.0,154.0,0.0,4.0,3.0,249.0,410.0,4.0,1017.0,1744252605.759657,0.0,2025-04-09 22:36:45.759,STOP,4
98.0,18698.64239676504,3450.505846799117,-66160.73890456425,-64675.04080236445,-38518.22477796373,-36203.38871519431,-32114.539398496083,-22842.02996993422,0.0,0.0,0.0,193.0,1.0,154.0,0.0,3.0,3.0,252.0,410.0,3.0,1020.0,1744252605.7596655,0.0,2025-04-09 22:36:45.759,STOP,4
99.0,18634.82816634514,3463.156934160821,-66111.34154931802,-64609.25961843248,-38464.29001859308,-36161.658008296254,-32081.056485302033,-22793.906664121947,0.0,0.0,0.0,193.0,1.0,155.0,0.0,3.0,3.0,252.0,411.0,3.0,1020.0,1744252605.7596743,0.0,2025-04-09 22:36:45.759,STOP,4
100.0,18540.302639043646,3425.2260238201648,-66158.16845395189,-64677.61125297681,-38494.7330945412,-36196.23615696862,-31940.79928884498,-22834.09510065259,0.0,0.0,0.0,193.0,1.0,155.0,0.0,3.0,3.0,252.0,411.0,3.0,1020.0,1744252605.7596831,0.0,2025-04-09 22:36:45.759,STOP,4
101.0,18577.987680195296,3406.3611514998856,-66165.45512264433,-64645.42474096117,-38556.33450226003,-36252.87547741836,-31822.53620893195,-22880.787894819725,0.0,0.0,0.0,193.0,1.0,155.0,0.0,3.0,3.0,252.0,411.0,3.0,1020.0,1744252605.759692,0.0,2025-04-09 22:36:45.759,STOP,4
102.0,18701.302254355225,3445.700221741226,-66160.13540746397,-64668.5140929835,-38538.00607180668,-36220.197227024706,-31953.13745178431,-22860.358400387577,0.0,0.0,0.0,193.0,1.0,155.0,0.0,3.0,3.0,252.0,411.0,3.0,1020.0,1744252605.7597067,0.0,2025-04-09 22:36:45.759,STOP,4
103.0,18652.240175275823,3468.990739463656,-66088.22984555124,-64595.334481636826,-38449.04612887456,-36139.46272605214,-32149.36341635745,-22780.719134893316,0.0,0.0,0.0,193.0,1.0,155.0,0.0,3.0,3.0,253.0,411.0,3.0,1021.0,1744252605.7597156,0.0,2025-04-09 22:36:45.759,STOP,4
104.0,18564.82250271112,3444.3367653294526,-66142.18695666635,-64657.09235156684,-38487.84875724897,-36177.77361604853,-31877.320334591906,-22812.011577130746,0.0,0.0,0.0,193.0,1.0,155.0,0.0,3.0,3.0,251.0,411.0,3.0,1019.0,1744252605.7597244,0.0,2025-04-09 22:36:45.759,STOP,4
105.0,18551.657325226945,3403.7683491430703,-66160.76125630872,-64652.21967127558,-38544.733946887725,-36232.84831438641,-31871.777101966993,-22862.347705644097,0.0,0.0,0.0,193.0,1.0,155.0,0.0,3.0,3.0,251.0,411.0,3.0,1019.0,1744252605.7597327,0.0,2025-04-09 22:36:45.759,STOP,4
106.0,18703.693891011942,3444.4932275406395,-66162.6164510985,-64657.49468296704,-38550.79126963512,-36229.56260795148,-31808.38755469174,-22866.10279871259,0.0,0.0,0.0,193.0,1.0,155.0,0.0,3.0,3.0,251.0,411.0,3.0,1019.0,1744252605.7597415,0.0,2025-04-09 22:36:45.759,STOP,4
107.0,18656.12937881105,3458.999509692134,-66098.3998892784,-64615.6522173467,-38454.209381843735,-36135.64057775028,-32207.165027518873,-22778.17103602541,0.0,0.0,0.0,193.0,1.0,155.0,0.0,3.0,3.0,250.0,411.0,3.0,1018.0,1744252605.7597504,0.0,2025-04-09 22:36:45.759,STOP,4
108.0,18585.229645398813,3452.2716346110865,-66132.86627922849,-64642.83193860435,-38474.9294489538,-36165.05547345346,-31853.135747091266,-22798.242902546277,0.0,0.0,0.0,193.0,1.0,154.0,0.0,3.0,3.0,248.0,410.0,3.0,1016.0,1744252605.7597592,0.0,2025-04-09 22:36:45.759,STOP,4
109.0,18529.305580771637,3398.0463025625113,-66167.2209104563,-64671.28570929596,-38534.54155141611,-36225.11461080487,-31926.36006192685,-22856.37978987453,0.0,0.0,0.0,193.0,1.0,154.0,0.0,3.0,3.0,250.0,410.0,3.0,1018.0,1744252605.759768,0.0,2025-04-09 22:36:45.759,STOP,4
110.0,18680.872759923073,3423.750808686115,-66180.09551526255,-64664.08844758135,-38578.574487993064,-36261.771471711574,-31722.243931560988,-22893.90836881499,0.0,0.0,0.0,193.0,1.0,154.0,0.0,3.0,3.0,249.0,410.0,3.0,1017.0,1744252605.7597766,0.0,2025-04-09 22:36:45.759,STOP,4
111.0,18671.820303418674,3462.575788804983,-66098.33283404504,-64626.09048200733,-38454.67876847729,-36137.92045568472,-32246.705263460313,-22782.194350027366,0.0,0.0,0.0,193.0,1.0,155.0,0.0,3.0,3.0,249.0,411.0,3.0,1017.0,1744252605.7597857,0.0,2025-04-09 22:36:45.759,STOP,4
112.0,18604.5415526082,3460.966463204201,-66122.36095933449,-64628.660932619685,-38469.27445760661,-36166.37422637633,-31844.865601642803,-22797.66175719044,0.0,0.0,0.0,193.0,1.0,154.0,0.0,3.0,3.0,250.0,410.0,3.0,1018.0,1744252605.759794,0.0,2025-04-09 22:36:45.759,STOP,4
113.0,18525.483432469777,3408.216346289676,-66161.52121562019,-64678.147694843734,-38514.33557442851,-36210.78714260902,-31939.793460344492,-22846.343856614098,0.0,0.0,0.0,193.0,1.0,154.0,0.0,3.0,3.0,249.0,410.0,3.0,1017.0,1744252605.7598023,0.0,2025-04-09 22:36:45.759,STOP,4
114.0,18662.49962598081,3423.795512175025,-66178.1732652394,-64653.98545908755,-38577.43454902584,-36271.60623927191,-31658.653218585638,-22898.043441539223,0.0,0.0,0.0,193.0,1.0,155.0,0.0,3.0,3.0,250.0,411.0,3.0,1018.0,1744252605.7598112,0.0,2025-04-09 22:36:45.759,STOP,4
115.0,18687.086544881648,3465.347405117441,-66119.72345348877,-64651.526767197465,-38476.11409140994,-36158.8863919838,-32211.300100243105,-22805.641329960985,0.0,0.0,0.0,193.0,1.0,155.0,0.0,3.0,3.0,251.0,411.0,3.0,1019.0,1744252605.75982,0.0,2025-04-09 22:36:45.759,STOP,4
116.0,18623.24996271729,3472.768184276603,-66114.94018017533,-64615.98749351353,-38469.162698884335,-36165.59191532039,-31889.233814386585,-22800.925111880915,0.0,0.0,0.0,193.0,1.0,156.0,0.0,3.0,3.0,252.0,412.0,3.0,1020.0,1744252605.759833,0.0,2025-04-09 22:36:45.759,STOP,4
117.0,18517.883839354974,3409.2668782790756,-66170.46191340231,-64689.636491493766,-38518.738868086206,-36217.20209326769,-31942.81094584596,-22857.318563141653,0.0,0.0,0.0,193.0,1.0,155.0,0.0,3.0,3.0,252.0,411.0,3.0,1020.0,1744252605.7598417,0.0,2025-04-09 22:36:45.759,STOP,4
118.0,18633.77763435574,3414.8324626484473,-66177.12273325,-64646.296458994926,-38581.793139194626,-36276.76949224109,-31685.296497976364,-22903.76548811978,0.0,0.0,0.0,193.0,1.0,156.0,0.0,3.0,3.0,251.0,412.0,3.0,1019.0,1744252605.7598503,0.0,2025-04-09 22:36:45.759,STOP,4
119.0,18694.79789671873,3450.125867143377,-66140.3094101321,-64664.513130726,-38503.91966151234,-36187.42956965322,-32132.823125460523,-22830.787042473203,0.0,0.0,0.0,193.0,1.0,155.0,0.0,3.0,3.0,251.0,411.0,3.0,1019.0,1744252605.7598588,0.0,2025-04-09 22:36:45.759,STOP,4
120.0,18629.68726512042,3458.7536405031256,-66117.37652032096,-64611.27127543346,-38477.58930654399,-36175.985476492104,-31965.14033855681,-22805.820143916626,0.0,0.0,0.0,193.0,1.0,155.0,0.0,3.0,3.0,250.0,411.0,3.0,1018.0,1744252605.7598672,0.0,2025-04-09 22:36:45.759,STOP,4
121.0,18535.988752363774,3425.2036720757096,-66162.75056156523,-64676.87364540978,-38502.91383301185,-36205.46742742866,-31919.095744978877,-22832.910458196457,0.0,0.0,0.0,193.0,1.0,154.0,0.0,3.0,3.0,249.0,410.0,3.0,1017.0,1744252605.7598765,0.0,2025-04-09 22:36:45.759,STOP,4
122.0,18595.578503081622,3404.7518258991036,-66177.81563732811,-64639.81445310289,-38568.851479155004,-36272.09797764993,-31722.020414116436,-22874.551758116693,0.0,0.0,0.0,193.0,1.0,154.0,0.0,3.0,3.0,250.0,410.0,3.0,1018.0,1744252605.7598848,0.0,2025-04-09 22:36:45.759,STOP,4
123.0,18691.802762961717,3438.7264774711703,-66168.13733197896,-64671.4645232516,-38526.9419583013,-36221.62773866984,-32003.361821575385,-22835.413853575454,0.0,0.0,0.0,193.0,1.0,154.0,0.0,3.0,3.0,249.0,410.0,3.0,1017.0,1744252605.7598934,0.0,2025-04-09 22:36:45.759,STOP,4
124.0,18640.438454203424,3465.3027016285305,-66105.39598529291,-64589.746545523,-38451.63893123138,-36158.84168849489,-32046.76890930759,-22768.179806253887,0.0,0.0,0.0,193.0,1.0,154.0,0.0,3.0,3.0,249.0,410.0,3.0,1017.0,1744252605.7599368,0.0,2025-04-09 22:36:45.759,STOP,4
125.0,18544.77298793471,3435.2619570805978,-66159.30839291912,-64655.12539805477,-38486.79822525957,-36199.3430494479,-31861.763520451015,-22807.51887649523,0.0,0.0,0.0,193.0,1.0,154.0,0.0,3.0,3.0,249.0,410.0,3.0,1017.0,1744252605.7599456,0.0,2025-04-09 22:36:45.759,STOP,4
126.0,18555.63593573999,3394.6935408942154,-66182.53185540818,-64635.254697234006,-38554.948694103805,-36264.76660546858,-31786.371086403262,-22855.709237540872,0.0,0.0,0.0,193.0,1.0,155.0,0.0,3.0,3.0,251.0,411.0,3.0,1019.0,1744252605.7599545,0.0,2025-04-09 22:36:45.759,STOP,4
127.0,18697.927140942473,3437.2959658260306,-66176.78745708316,-64646.430569461656,-38539.369528218456,-36237.251608044106,-31871.93356417818,-22835.90559195347,0.0,0.0,0.0,193.0,1.0,154.0,0.0,2.0,3.0,249.0,410.0,2.0,1017.0,1744252605.7599628,0.0,2025-04-09 22:36:45.759,STOP,4
128.0,18645.959335083884,3454.7526782456257,-66108.01113939419,-64578.056583172875,-38447.10152710695,-36151.82324073592,-32149.005788446164,-22750.007838011723,0.0,0.0,0.0,193.0,1.0,154.0,0.0,3.0,3.0,249.0,410.0,3.0,1017.0,1744252605.7599711,0.0,2025-04-09 22:36:45.759,STOP,4
129.0,18562.20734860985,3434.859625680402,-66158.03434348517,-64625.3528744403,-38481.27734437911,-36190.58116562142,-31858.857793671825,-22786.530588451697,0.0,0.0,0.0,193.0,1.0,154.0,0.0,2.0,3.0,250.0,410.0,2.0,1018.0,1744252605.7599797,0.0,2025-04-09 22:36:45.759,STOP,4
130.0,18527.830365637587,3382.5565436549837,-66189.75146886724,-64633.57831639986,-38548.46668821177,-36254.149526852314,-31891.491340576573,-22842.85698447907,0.0,0.0,0.0,193.0,1.0,154.0,0.0,2.0,3.0,252.0,410.0,2.0,1020.0,1744252605.7599888,0.0,2025-04-09 22:36:45.759,STOP,4
131.0,18687.243007092835,3429.226986077665,-66183.82825658658,-64621.01663601597,-38554.90399061489,-36253.56838149648,-31783.04067647942,-22843.66164727946,0.0,0.0,0.0,193.0,1.0,154.0,0.0,2.0,3.0,250.0,410.0,2.0,1018.0,1744252605.7600024,0.0,2025-04-09 22:36:45.760,STOP,4
132.0,18664.243062048325,3468.0072627076224,-66099.96451139028,-64563.4385422991,-38438.09377409146,-36134.97002541662,-32234.009472609698,-22741.55887860762,0.0,0.0,0.0,193.0,1.0,155.0,0.0,2.0,3.0,252.0,411.0,2.0,1020.0,1744252605.760011,0.0,2025-04-09 22:36:45.760,STOP,4
133.0,18590.929340234918,3458.9101027143124,-66132.5533548061,-64580.82819948533,-38462.256009847646,-36166.150708931775,-31856.913191904212,-22763.12831200699,0.0,0.0,0.0,193.0,1.0,155.0,0.0,2.0,3.0,252.0,411.0,2.0,1020.0,1744252605.7600195,0.0,2025-04-09 22:36:45.760,STOP,4
134.0,18521.303656256638,3398.0463025625113,-66168.29379419015,-64612.27710393395,-38514.872016295434,-36214.0504972995,-31939.03350103301,-22807.250655561766,0.0,0.0,0.0,193.0,1.0,155.0,0.0,2.0,3.0,251.0,411.0,2.0,1019.0,1744252605.760028,0.0,2025-04-09 22:36:45.760,STOP,4
135.0,18672.155579585502,3423.147311585821,-66183.04594553066,-64597.413193871165,-38561.14012731792,-36256.42940478676,-31698.66284116064,-22847.081464181123,0.0,0.0,0.0,193.0,1.0,155.0,0.0,2.0,3.0,251.0,411.0,2.0,1019.0,1744252605.7600365,0.0,2025-04-09 22:36:45.760,STOP,4
136.0,18674.994251131327,3462.9781202051786,-66105.44068878182,-64566.05369640037,-38437.37851826889,-36127.61630149082,-32246.39233903794,-22736.730901805273,0.0,0.0,0.0,193.0,1.0,155.0,0.0,2.0,3.0,251.0,411.0,2.0,1019.0,1744252605.7600453,0.0,2025-04-09 22:36:45.760,STOP,4
137.0,18600.406479883968,3461.994643449145,-66130.69816001633,-64562.49976903198,-38457.65155048985,-36153.65608378126,-31865.272744330498,-22751.59481186805,0.0,0.0,0.0,193.0,1.0,155.0,0.0,2.0,3.0,251.0,411.0,2.0,1019.0,1744252605.7600536,0.0,2025-04-09 22:36:45.760,STOP,4
138.0,18511.75946137422,3409.780968401548,-66175.6251663715,-64619.69788309311,-38502.019763233635,-36196.10204650188,-31972.0470275935,-22798.958158368845,0.0,0.0,0.0,193.0,1.0,155.0,0.0,2.0,3.0,251.0,411.0,2.0,1019.0,1744252605.7600622,0.0,2025-04-09 22:36:45.760,STOP,4
139.0,18642.4501112044,3417.4029132608075,-66191.4725531903,-64593.367528124756,-38565.16344131988,-36259.893925177326,-31695.645355659173,-22854.703409040383,0.0,0.0,0.0,193.0,1.0,155.0,0.0,2.0,3.0,252.0,411.0,2.0,1020.0,1744252605.7600708,0.0,2025-04-09 22:36:45.760,STOP,4
140.0,18670.278033051258,3444.6943932407376,-66144.01979971169,-64606.13037420874,-38472.26959136362,-36159.17696466172,-32233.71889993178,-22773.946556323357,0.0,0.0,0.0,193.0,1.0,155.0,0.0,2.0,3.0,252.0,411.0,2.0,1020.0,1744252605.7600796,0.0,2025-04-09 22:36:45.760,STOP,4
141.0,18598.417174627444,3443.1521228733213,-66144.01979971169,-64576.06727791635,-38469.83325121799,-36170.17402293373,-31954.858536107367,-22777.858111603036,0.0,0.0,0.0,193.0,1.0,155.0,0.0,2.0,3.0,249.0,411.0,2.0,1017.0,1744252605.760088,0.0,2025-04-09 22:36:45.760,STOP,4
142.0,18509.256065995225,3406.830538133447,-66182.86713157501,-64635.12058676727,-38494.84485326348,-36194.380962178824,-31992.208301092185,-22802.087402592588,0.0,0.0,0.0,193.0,1.0,155.0,0.0,2.0,3.0,252.0,411.0,2.0,1020.0,1744252605.7600963,0.0,2025-04-09 22:36:45.760,STOP,4
143.0,18600.697052561885,3398.8956688518133,-66198.625111416,-64601.77178403996,-38568.985589621734,-36267.73938748114,-31736.43728929011,-22866.259260923776,0.0,0.0,0.0,193.0,1.0,155.0,0.0,2.0,3.0,252.0,411.0,2.0,1020.0,1744252605.760105,0.0,2025-04-09 22:36:45.760,STOP,4
144.0,18676.22359707637,3443.956785673712,-66164.13636972145,-64623.274162205955,-38496.11890269743,-36186.490796386104,-32148.894029723888,-22805.88719914999,0.0,0.0,0.0,193.0,1.0,154.0,0.0,2.0,3.0,251.0,410.0,2.0,1019.0,1744252605.7601137,0.0,2025-04-09 22:36:45.760,STOP,4
145.0,18611.4929451338,3445.6555182523157,-66129.5582210491,-64564.846702199786,-38457.338626067474,-36163.04381645248,-32037.71645280319,-22770.817312099614,0.0,0.0,0.0,193.0,1.0,154.0,0.0,2.0,3.0,250.0,410.0,2.0,1018.0,1744252605.7601223,0.0,2025-04-09 22:36:45.760,STOP,4
146.0,18516.833307365574,3408.8868986233356,-66180.18492224037,-64637.53457516844,-38489.90511773886,-36196.83965406891,-31958.7924431315,-22808.27883580671,0.0,0.0,0.0,193.0,1.0,154.0,0.0,2.0,3.0,249.0,410.0,2.0,1017.0,1744252605.7601347,0.0,2025-04-09 22:36:45.760,STOP,4
147.0,18562.72143873232,3385.641084389816,-66195.00412881424,-64609.59489459931,-38555.30632201509,-36266.46533804719,-31798.53043538695,-22863.532348100227,0.0,0.0,0.0,193.0,1.0,155.0,0.0,2.0,3.0,251.0,411.0,2.0,1019.0,1744252605.7601433,0.0,2025-04-09 22:36:45.760,STOP,4
148.0,18685.611329747597,3435.1054948694104,-66171.80301806964,-64626.850441318806,-38512.10039998298,-36213.335241476925,-32020.86323748389,-22829.0883098946,0.0,0.0,0.0,193.0,1.0,155.0,0.0,2.0,3.0,252.0,411.0,2.0,1020.0,1744252605.7601516,0.0,2025-04-09 22:36:45.760,STOP,4
149.0,18628.92730580894,3451.154047388321,-66112.12386037396,-64557.47062652953,-38442.69823344925,-36149.90099071276,-32136.332349340006,-22761.630745128485,0.0,0.0,0.0,193.0,1.0,155.0,0.0,2.0,3.0,250.0,411.0,2.0,1018.0,1744252605.7601604,0.0,2025-04-09 22:36:45.760,STOP,4
150.0,18536.212269808326,3423.214366819187,-66165.99156451125,-64624.77172908447,-38476.56112629904,-36190.02237201004,-31911.07146871942,-22801.729774681306,0.0,0.0,0.0,193.0,1.0,155.0,0.0,2.0,3.0,251.0,411.0,2.0,1019.0,1744252605.7601688,0.0,2025-04-09 22:36:45.760,STOP,4
151.0,18536.77106341971,3384.5905524004165,-66188.11979152201,-64614.73579582403,-38542.00703406418,-36251.646131473324,-31872.134729878275,-22857.832653264126,0.0,0.0,0.0,193.0,1.0,154.0,0.0,2.0,3.0,249.0,410.0,2.0,1017.0,1744252605.7601776,0.0,2025-04-09 22:36:45.760,STOP,4
152.0,18677.631756977054,3421.873262151869,-66191.76312586822,-64632.21485998808,-38543.30343524259,-36244.22535231416,-31880.583689282383,-22856.0445137077,0.0,0.0,0.0,193.0,1.0,154.0,0.0,2.0,3.0,249.0,410.0,2.0,1017.0,1744252605.760186,0.0,2025-04-09 22:36:45.760,STOP,4
153.0,18639.857308847586,3449.9694049321897,-66110.78275570665,-64563.28208008791,-38438.60786421393,-36146.25765636655,-32212.46239095478,-22764.73763760777,0.0,0.0,0.0,193.0,1.0,154.0,0.0,2.0,3.0,250.0,410.0,2.0,1018.0,1744252605.7601943,0.0,2025-04-09 22:36:45.760,STOP,4
154.0,18555.971211906817,3435.1725501027763,-66158.23550918527,-64609.304321921394,-38471.84490821897,-36187.51897663104,-31876.761540980526,-22796.141838567477,0.0,0.0,0.0,193.0,1.0,154.0,0.0,2.0,3.0,249.0,410.0,2.0,1017.0,1744252605.760203,0.0,2025-04-09 22:36:45.760,STOP,4
155.0,18507.110298527517,3380.3437209539084,-66190.623186901,-64628.54917389741,-38531.81463859256,-36245.8570296594,-31925.68950959319,-22841.918211211945,0.0,0.0,0.0,193.0,1.0,154.0,0.0,2.0,3.0,249.0,410.0,2.0,1017.0,1744252605.7602115,0.0,2025-04-09 22:36:45.760,STOP,4
156.0,18657.761056156287,3408.551622456506,-66202.8719428625,-64627.09631050782,-38565.40931050889,-36269.61693401539,-31769.0484844504,-22862.280650410732,0.0,0.0,0.0,193.0,1.0,155.0,0.0,2.0,3.0,251.0,411.0,2.0,1019.0,1744252605.7602198,0.0,2025-04-09 22:36:45.760,STOP,4
157.0,18640.17023326996,3444.8508554519244,-66118.47175579927,-64577.65425177268,-38443.5252479941,-36148.045795922975,-32263.938458435354,-22762.88244281798,0.0,0.0,0.0,193.0,1.0,155.0,0.0,2.0,3.0,252.0,411.0,2.0,1020.0,1744252605.7602284,0.0,2025-04-09 22:36:45.760,STOP,4
158.0,18566.54358703418,3437.4971315261287,-66151.30646840412,-64592.85343800228,-38468.670960506315,-36180.053493982974,-31872.49235778956,-22790.822123387115,0.0,0.0,0.0,193.0,1.0,155.0,0.0,2.0,3.0,252.0,411.0,2.0,1020.0,1744252605.7602367,0.0,2025-04-09 22:36:45.760,STOP,4
159.0,18497.387289689457,3388.8820873358354,-66181.99541354126,-64625.82226107387,-38511.83217904952,-36216.77741012304,-31963.57571644494,-22821.46636503534,0.0,0.0,0.0,193.0,1.0,155.0,0.0,2.0,3.0,251.0,411.0,2.0,1019.0,1744252605.7602453,0.0,2025-04-09 22:36:45.760,STOP,4
160.0,18640.48315769233,3402.7848723870366,-66199.13920153848,-64610.82424054435,-38566.83982215403,-36270.443948560234,-31698.41697197163,-22868.650897580494,0.0,0.0,0.0,193.0,1.0,155.0,0.0,2.0,3.0,251.0,411.0,2.0,1019.0,1744252605.760254,0.0,2025-04-09 22:36:45.760,STOP,4
161.0,18655.74939915531,3445.6555182523157,-66124.43967156883,-64589.67949028963,-38449.49316376366,-36142.927246442705,-32257.121176376484,-22760.60256488354,0.0,0.0,0.0,193.0,1.0,154.0,0.0,2.0,3.0,249.0,410.0,2.0,1017.0,1744252605.7602665,0.0,2025-04-09 22:36:45.760,STOP,4
162.0,18584.089706431594,3440.9840036611563,-66141.29288688814,-64579.01770818445,-38465.69817849376,-36170.64340956729,-31891.558395809938,-22775.31001273513,0.0,0.0,0.0,193.0,1.0,154.0,0.0,2.0,3.0,251.0,410.0,2.0,1019.0,1744252605.760275,0.0,2025-04-09 22:36:45.760,STOP,4
163.0,18493.028699520673,3383.3388547109193,-66183.42592518638,-64639.725046125066,-38504.79137954609,-36214.676346144246,-31965.60972519037,-22820.70640572386,0.0,0.0,0.0,193.0,1.0,154.0,0.0,2.0,3.0,248.0,410.0,2.0,1016.0,1744252605.7602835,0.0,2025-04-09 22:36:45.760,STOP,4
164.0,18615.896238791494,3394.3135612384754,-66193.26069274673,-64604.16342069667,-38566.23632505373,-36276.523623052075,-31672.779521081393,-22875.423476150452,0.0,0.0,0.0,193.0,1.0,154.0,0.0,2.0,3.0,251.0,410.0,2.0,1019.0,1744252605.760292,0.0,2025-04-09 22:36:45.760,STOP,4
165.0,18665.293594037725,3437.541835015039,-66144.1092066895,-64614.132298723736,-38474.817690231524,-36173.79500553549,-32178.42068414935,-22797.862922890537,0.0,0.0,0.0,193.0,1.0,154.0,0.0,2.0,3.0,248.0,410.0,2.0,1016.0,1744252605.7603006,0.0,2025-04-09 22:36:45.760,STOP,4
166.0,18603.938055507908,3447.4213060642846,-66121.46688955628,-64563.237376599005,-38454.54465801056,-36164.25081065307,-31940.598123144882,-22774.550053423653,0.0,0.0,0.0,193.0,1.0,154.0,0.0,2.0,3.0,250.0,410.0,2.0,1018.0,1744252605.7603092,0.0,2025-04-09 22:36:45.760,STOP,4
167.0,18506.149173515936,3401.6896369087267,-66169.70195409084,-64636.5063949235,-38490.17333867232,-36202.58405239392,-31932.730309096612,-22812.860943420048,0.0,0.0,0.0,193.0,1.0,155.0,0.0,2.0,3.0,252.0,411.0,2.0,1020.0,1744252605.7603176,0.0,2025-04-09 22:36:45.760,STOP,4
168.0,18583.73207852031,3387.608037901883,-66188.99150955577,-64607.471478876054,-38562.05654884059,-36277.19417538574,-31694.773637625414,-22872.964784260366,0.0,0.0,0.0,193.0,1.0,155.0,0.0,2.0,3.0,252.0,411.0,2.0,1020.0,1744252605.7603264,0.0,2025-04-09 22:36:45.760,STOP,4
169.0,18672.334393541147,3427.707067454704,-66160.80595979762,-64628.951505297606,-38500.92452775533,-36201.60057563789,-32047.528868619072,-22814.71613820984,0.0,0.0,0.0,193.0,1.0,154.0,0.0,2.0,3.0,251.0,410.0,2.0,1019.0,1744252605.7603347,0.0,2025-04-09 22:36:45.760,STOP,4
170.0,18616.49973589179,3446.7731054750807,-66111.0062731512,-64557.40357129617,-38447.36974804041,-36155.75714776005,-32007.161618132788,-22768.805655098637,0.0,0.0,0.0,193.0,1.0,154.0,0.0,2.0,3.0,249.0,410.0,2.0,1017.0,1744252605.7603433,0.0,2025-04-09 22:36:45.760,STOP,4
171.0,18514.598132920044,3404.573011943461,-66175.2228349713,-64640.57441241437,-38496.208309675254,-36207.07675302944,-31881.321296849408,-22825.42262380393,0.0,0.0,0.0,193.0,1.0,154.0,0.0,2.0,3.0,250.0,410.0,2.0,1018.0,1744252605.7603517,0.0,2025-04-09 22:36:45.760,STOP,4
172.0,18551.187938593383,3381.438956432218,-66186.95750081033,-64613.61820860126,-38561.6989209293,-36268.58875377044,-31771.61893506276,-22872.160121459976,0.0,0.0,0.0,193.0,1.0,154.0,0.0,2.0,3.0,249.0,410.0,2.0,1017.0,1744252605.7603602,0.0,2025-04-09 22:36:45.760,STOP,4
173.0,18681.36449830109,3428.958765144201,-66167.60089011204,-64626.4034064297,-38526.33846120101,-36218.90082584629,-31920.61566360184,-22832.128147140524,0.0,0.0,0.0,193.0,1.0,154.0,0.0,2.0,3.0,249.0,410.0,2.0,1017.0,1744252605.7603686,0.0,2025-04-09 22:36:45.760,STOP,4
174.0,18619.673683604444,3437.7206489706814,-66113.93435167485,-64569.78643772441,-38456.75748071164,-36154.6842640262,-32094.847511630956,-22769.967945810313,0.0,0.0,0.0,193.0,1.0,155.0,0.0,2.0,3.0,250.0,411.0,2.0,1018.0,1744252605.7603772,0.0,2025-04-09 22:36:45.760,STOP,4
175.0,18537.62042970901,3423.460236008196,-66159.30839291912,-64625.17406048466,-38485.032437447604,-36188.18952896471,-31850.16296507871,-22806.31188229464,0.0,0.0,0.0,193.0,1.0,155.0,0.0,2.0,3.0,252.0,411.0,2.0,1020.0,1744252605.7603855,0.0,2025-04-09 22:36:45.760,STOP,4
176.0,18519.85079286704,3375.5380958960172,-66189.01386130022,-64629.89027856473,-38556.51331621568,-36256.49646002012,-31839.143555062245,-22870.506092370284,0.0,0.0,0.0,193.0,1.0,155.0,0.0,2.0,3.0,252.0,411.0,2.0,1020.0,1744252605.7603984,0.0,2025-04-09 22:36:45.760,STOP,4
177.0,18674.815437175686,3421.58268947395,-66185.66109963192,-64633.779482099955,-38562.01184535168,-36247.28754130453,-31802.53139764445,-22868.919118513957,0.0,0.0,0.0,193.0,1.0,155.0,0.0,2.0,3.0,252.0,411.0,2.0,1020.0,1744252605.7604067,0.0,2025-04-09 22:36:45.760,STOP,4
178.0,18637.3986169575,3451.2881578550528,-66107.76527020517,-64573.720344748544,-38453.56118125453,-36144.49186855458,-32182.689867340312,-22770.817312099614,0.0,0.0,0.0,193.0,1.0,155.0,0.0,2.0,3.0,251.0,411.0,2.0,1019.0,1744252605.7604153,0.0,2025-04-09 22:36:45.760,STOP,4
179.0,18555.077142128604,3425.5836517314497,-66159.82248304159,-64622.04481626092,-38493.079065451515,-36196.124398246335,-31826.894799100734,-22813.643254475985,0.0,0.0,0.0,193.0,1.0,154.0,0.0,2.0,3.0,249.0,410.0,2.0,1017.0,1744252605.7604237,0.0,2025-04-09 22:36:45.760,STOP,4
180.0,18508.13847877246,3380.768404098559,-66186.91279732142,-64642.34020022633,-38543.21402826477,-36245.23118081465,-31895.581709811893,-22861.18541493242,0.0,0.0,0.0,193.0,1.0,154.0,0.0,2.0,3.0,250.0,410.0,2.0,1018.0,1744252605.760432,0.0,2025-04-09 22:36:45.760,STOP,4
181.0,18665.919442882474,3420.643916206827,-66194.71355613632,-64629.26442971998,-38578.015694381684,-36270.82392821598,-31694.70658239205,-22882.91131054298,0.0,0.0,0.0,193.0,1.0,154.0,0.0,2.0,3.0,249.0,410.0,2.0,1017.0,1744252605.7604403,0.0,2025-04-09 22:36:45.760,STOP,4
182.0,18643.187718771427,3450.6176055213937,-66115.27545634216,-64585.96910071005,-38458.36680631242,-36142.56961853142,-32210.674251398355,-22767.576309153596,0.0,0.0,0.0,193.0,1.0,155.0,0.0,2.0,3.0,252.0,411.0,2.0,1020.0,1744252605.7604487,0.0,2025-04-09 22:36:45.760,STOP,4
183.0,18569.33755509109,3443.1521228733213,-66141.1140729325,-64591.71349903507,-38478.17045189982,-36172.923287501726,-31818.87052284128,-22789.056335575144,0.0,0.0,0.0,193.0,1.0,155.0,0.0,2.0,3.0,252.0,411.0,2.0,1020.0,1744252605.7604575,0.0,2025-04-09 22:36:45.760,STOP,4
184.0,18492.224036720283,3389.329122224942,-66180.02846002918,-64638.249830991015,-38521.35402218748,-36219.45961945768,-31914.02189898752,-22835.257391364266,0.0,0.0,0.0,193.0,1.0,155.0,0.0,2.0,3.0,252.0,411.0,2.0,1020.0,1744252605.7604659,0.0,2025-04-09 22:36:45.760,STOP,4
185.0,18632.21301224387,3407.612849189383,-66192.27721599069,-64609.371377154755,-38576.87575541446,-36268.43229155926,-31635.228590396477,-22880.43026690844,0.0,0.0,0.0,193.0,1.0,155.0,0.0,2.0,3.0,251.0,411.0,2.0,1019.0,1744252605.7604744,0.0,2025-04-09 22:36:45.760,STOP,4
186.0,18646.562832184176,3438.6594222378044,-66136.5096135747,-64610.22074344406,-38477.47754782171,-36160.36160711785,-32191.004716277686,-22794.17488505541,0.0,0.0,0.0,193.0,1.0,154.0,0.0,2.0,3.0,249.0,410.0,2.0,1017.0,1744252605.7604828,0.0,2025-04-09 22:36:45.760,STOP,4
187.0,18582.77095350873,3444.7614484741034,-66133.71564551779,-64579.26357737346,-38472.873088463915,-36170.755168289565,-31861.607058239828,-22794.75603041125,0.0,0.0,0.0,193.0,1.0,154.0,0.0,2.0,3.0,249.0,410.0,2.0,1017.0,1744252605.7604911,0.0,2025-04-09 22:36:45.760,STOP,4
188.0,18494.593321632543,3402.226078775654,-66171.04305875815,-64639.143900769224,-38504.32199291253,-36202.986383794116,-31917.88875077829,-22826.070824393133,0.0,0.0,0.0,193.0,1.0,154.0,0.0,2.0,3.0,250.0,410.0,2.0,1018.0,1744252605.7604997,0.0,2025-04-09 22:36:45.760,STOP,4
189.0,18612.945808523396,3409.6245061903605,-66172.65238435894,-64595.043908958905,-38560.35781626199,-36260.78799495554,-31644.437509112064,-22866.818054535157,0.0,0.0,0.0,193.0,1.0,154.0,0.0,2.0,3.0,250.0,410.0,2.0,1018.0,1744252605.7605083,0.0,2025-04-09 22:36:45.760,STOP,4
190.0,18668.579300472655,3443.710916484704,-66137.71660777529,-64620.480194149044,-38481.411454845846,-36175.76195904755,-32121.9825293997,-22797.79586765717,0.0,0.0,0.0,193.0,1.0,155.0,0.0,2.0,3.0,251.0,411.0,2.0,1019.0,1744252605.760517,0.0,2025-04-09 22:36:45.760,STOP,4
191.0,18602.77576479623,3454.7526782456257,-66114.13551737493,-64568.24416735699,-38457.338626067474,-36161.97093271863,-31948.57769591543,-22771.13023652199,0.0,0.0,0.0,193.0,1.0,155.0,0.0,2.0,3.0,252.0,411.0,2.0,1020.0,1744252605.7605293,0.0,2025-04-09 22:36:45.760,STOP,4
192.0,18520.700159156342,3434.770218702581,-66149.45127361432,-64628.37035994177,-38479.06452167803,-36185.708485330164,-31926.36006192685,-22801.528608981207,0.0,0.0,0.0,193.0,1.0,155.0,0.0,2.0,3.0,252.0,411.0,2.0,1020.0,1744252605.7605376,0.0,2025-04-09 22:36:45.760,STOP,4
193.0,18582.48038083081,3404.125977054355,-66173.27823320369,-64602.934074751625,-38558.21204879428,-36264.05134964602,-31732.816306688346,-22871.802493548694,0.0,0.0,0.0,193.0,1.0,155.0,0.0,2.0,3.0,250.0,411.0,2.0,1018.0,1744252605.760546,0.0,2025-04-09 22:36:45.760,STOP,4
194.0,18682.057402379203,3443.353288573419,-66152.26759341569,-64627.54334539692,-38506.780684802616,-36200.21476748166,-32040.644531326838,-22829.200068616876,0.0,0.0,0.0,193.0,1.0,154.0,0.0,2.0,3.0,250.0,410.0,2.0,1018.0,1744252605.7605543,0.0,2025-04-09 22:36:45.760,STOP,4
195.0,18626.73683485232,3462.642844038349,-66095.80708692159,-64556.01776313994,-38444.03933811657,-36146.145897644274,-32070.908793319322,-22766.615184142018,0.0,0.0,0.0,193.0,1.0,154.0,0.0,2.0,3.0,249.0,410.0,2.0,1017.0,1744252605.760563,0.0,2025-04-09 22:36:45.760,STOP,4
196.0,18532.837156395573,3427.7964744325254,-66152.9157940049,-64631.03021753195,-38482.12671066841,-36188.97184002064,-31907.20461692865,-22804.523742738216,0.0,0.0,0.0,193.0,1.0,154.0,0.0,2.0,3.0,249.0,410.0,2.0,1017.0,1744252605.7605712,0.0,2025-04-09 22:36:45.760,STOP,4
197.0,18545.600002479554,3390.8266891034473,-66177.45800941682,-64619.69788309311,-38553.898162114405,-36261.056215889,-31827.07361305638,-22866.393371390506,0.0,0.0,0.0,193.0,1.0,154.0,0.0,2.0,3.0,250.0,410.0,2.0,1018.0,1744252605.7605796,0.0,2025-04-09 22:36:45.760,STOP,4
198.0,18678.235254077346,3431.573919245472,-66169.88076804648,-64636.81931934587,-38534.22862699373,-36230.54608470751,-31921.88971303579,-22846.410911847463,0.0,0.0,0.0,193.0,1.0,154.0,0.0,2.0,3.0,249.0,410.0,2.0,1017.0,1744252606.2418728,0.0,2025-04-09 22:36:46.241,STOP,4
199.0,18623.11585225056,3447.3095473420085,-66111.11803187347,-64579.91177796266,-38455.30461732204,-36154.84072623739,-32174.017390491652,-22776.56171042463,0.0,0.0,0.0,193.0,1.0,154.0,0.0,2.0,3.0,250.0,410.0,2.0,1018.0,1744252606.2419124,0.0,2025-04-09 22:36:46.241,STOP,4
200.0,18542.49311000027,3433.9432041577347,-66157.34143940704,-64632.438377432634,-38483.646629291376,-36189.418874909745,-31897.481608090595,-22816.906609166457,0.0,0.0,0.0,193.0,1.0,154.0,0.0,2.0,3.0,250.0,410.0,2.0,1018.0,1744252606.241932,0.0,2025-04-09 22:36:46.241,STOP,4
201.0,18517.01212132122,3386.378691956841,-66176.74275359426,-64631.34314195433,-38533.826295593535,-36240.98434936814,-31905.617643072328,-22859.37492363154,0.0,0.0,0.0,193.0,1.0,154.0,0.0,2.0,3.0,251.0,410.0,2.0,1019.0,1744252606.2419496,0.0,2025-04-09 22:36:46.241,STOP,4
202.0,18664.77950391525,3418.7440179281257,-66188.65623338893,-64640.37324671427,-38558.25675228319,-36256.250590831114,-31804.744220345525,-22879.33503143013,0.0,0.0,0.0,193.0,1.0,155.0,0.0,2.0,3.0,252.0,411.0,2.0,1020.0,1744252606.241967,0.0,2025-04-09 22:36:46.241,STOP,4
203.0,18630.894259321005,3445.230835107665,-66113.15204061891,-64589.590083311814,-38454.56700975502,-36150.906819213254,-32253.835469941554,-22790.26332977573,0.0,0.0,0.0,193.0,1.0,155.0,0.0,2.0,3.0,251.0,411.0,2.0,1019.0,1744252606.2419844,0.0,2025-04-09 22:36:46.241,STOP,4
204.0,18556.41824679592,3437.0500966370223,-66147.12669219097,-64612.657083589685,-38480.67384727882,-36183.24979344008,-31889.278517875497,-22814.157344598454,0.0,0.0,0.0,193.0,1.0,155.0,0.0,2.0,3.0,251.0,411.0,2.0,1019.0,1744252606.242002,0.0,2025-04-09 22:36:46.242,STOP,4
205.0,18493.051051265127,3384.7917181005146,-66179.69318386236,-64643.8601188493,-38529.46770542475,-36235.709337676686,-31965.9450013572,-22861.073656210145,0.0,0.0,0.0,193.0,1.0,154.0,0.0,2.0,3.0,249.0,410.0,2.0,1017.0,1744252606.2420197,0.0,2025-04-09 22:36:46.242,STOP,4
206.0,18654.69886716591,3421.0685993514776,-66179.20144548434,-64620.770766826965,-38562.213011051776,-36267.06883514748,-31737.554876512873,-22891.919063558467,0.0,0.0,0.0,193.0,1.0,154.0,0.0,2.0,3.0,249.0,410.0,2.0,1017.0,1744252606.2420585,0.0,2025-04-09 22:36:46.242,STOP,4
207.0,18645.534651939233,3445.63316650786,-66113.01793015217,-64600.05069971689,-38456.06457663352,-36155.75714776005,-32276.544842308147,-22798.04173684618,0.0,0.0,0.0,193.0,1.0,154.0,0.0,2.0,3.0,249.0,410.0,2.0,1017.0,1744252606.242068,0.0,2025-04-09 22:36:46.242,STOP,4
208.0,18577.29477611718,3451.7575444886143,-66134.90028797391,-64596.6979380486,-38473.81186173104,-36179.3382381604,-31898.39802961326,-22810.290492807686,0.0,0.0,0.0,193.0,1.0,154.0,0.0,2.0,3.0,250.0,410.0,2.0,1018.0,1744252606.242077,0.0,2025-04-09 22:36:46.242,STOP,4
209.0,18495.934426299864,3404.908288110291,-66170.08193374658,-64642.094331037326,-38516.771914574136,-36215.39160196681,-31996.365725560874,-22850.23306014932,0.0,0.0,0.0,193.0,1.0,154.0,0.0,2.0,3.0,250.0,410.0,2.0,1018.0,1744252606.242086,0.0,2025-04-09 22:36:46.242,STOP,4
210.0,18634.627000645043,3416.665305693782,-66176.60864312752,-64604.9457317526,-38570.08082510005,-36262.9114106788,-31701.121533050722,-22883.537159387728,0.0,0.0,0.0,193.0,1.0,155.0,0.0,2.0,3.0,252.0,411.0,2.0,1020.0,1744252606.2420945,0.0,2025-04-09 22:36:46.242,STOP,4
211.0,18664.287765537236,3451.7575444886143,-66119.58934302203,-64608.678473076645,-38464.580591271,-36153.767842503534,-32218.854989869,-22796.47711473431,0.0,0.0,0.0,193.0,1.0,155.0,0.0,2.0,3.0,252.0,411.0,2.0,1020.0,1744252606.2421033,0.0,2025-04-09 22:36:46.242,STOP,4
212.0,18586.593101810588,3443.5097507846062,-66126.87601171447,-64588.38308911122,-38471.17435588531,-36172.61036307936,-31904.61181457184,-22806.803620672657,0.0,0.0,0.0,193.0,1.0,155.0,0.0,2.0,3.0,251.0,411.0,2.0,1019.0,1744252606.2421124,0.0,2025-04-09 22:36:46.242,STOP,4
213.0,18492.425202420378,3399.9238490967573,-66171.31127969161,-64656.46650272209,-38506.40070514688,-36205.13215126183,-31947.37070171484,-22842.90168796798,0.0,0.0,0.0,193.0,1.0,154.0,0.0,2.0,3.0,251.0,410.0,2.0,1019.0,1744252606.242121,0.0,2025-04-09 22:36:46.242,STOP,4
214.0,18595.66791005944,3399.5885729299275,-66182.44244843036,-64617.57446736986,-38576.51812750317,-36271.94151543874,-31693.45488470255,-22901.53031367425,0.0,0.0,0.0,193.0,1.0,154.0,0.0,2.0,3.0,249.0,410.0,2.0,1017.0,1744252606.2421296,0.0,2025-04-09 22:36:46.242,STOP,4
215.0,18669.585128973144,3443.263881595598,-66142.0081427107,-64633.93594431114,-38495.20248117477,-36179.78527304951,-32117.534532253092,-22826.584914515606,0.0,0.0,0.0,193.0,1.0,155.0,0.0,2.0,3.0,250.0,411.0,2.0,1018.0,1744252606.2421384,0.0,2025-04-09 22:36:46.242,STOP,4
216.0,18610.53182012222,3455.44558232374,-66106.22299983776,-64572.22277787004,-38454.92463766631,-36149.856287223854,-31980.786559675525,-22785.256539017744,0.0,0.0,0.0,193.0,1.0,154.0,0.0,2.0,3.0,250.0,410.0,2.0,1018.0,1744252606.242147,0.0,2025-04-09 22:36:46.242,STOP,4
217.0,18512.7205863858,3415.055980093,-66159.6660208304,-64648.48692995154,-38491.58149857301,-36189.4412266542,-31908.366907640328,-22827.47898429382,0.0,0.0,0.0,193.0,1.0,154.0,0.0,2.0,3.0,249.0,410.0,2.0,1017.0,1744252606.2421556,0.0,2025-04-09 22:36:46.242,STOP,4
218.0,18568.979927179807,3398.314523495975,-66171.0654105026,-64616.009845257984,-38555.73100515974,-36255.40122454181,-31737.823097446337,-22877.211615706878,0.0,0.0,0.0,193.0,1.0,155.0,0.0,2.0,3.0,251.0,411.0,2.0,1019.0,1744252606.2421644,0.0,2025-04-09 22:36:46.242,STOP,4
219.0,18685.36546055859,3445.1414281298435,-66150.21123292581,-64635.32175246737,-38508.23354819221,-36198.31486920296,-31974.885699139322,-22837.693731509895,0.0,0.0,0.0,193.0,1.0,155.0,0.0,2.0,3.0,251.0,411.0,2.0,1019.0,1744252606.2421732,0.0,2025-04-09 22:36:46.242,STOP,4
220.0,18617.751433581285,3451.422268321785,-66101.68559571334,-64573.45212381508,-38447.79443118506,-36144.04483366547,-32058.72709259118,-22781.479094204795,0.0,0.0,0.0,193.0,1.0,155.0,0.0,2.0,3.0,251.0,411.0,2.0,1019.0,1744252606.242182,0.0,2025-04-09 22:36:46.242,STOP,4
221.0,18519.493164955755,3418.4534452502066,-66160.06835223059,-64644.262450249495,-38489.83806250549,-36186.73666557511,-31864.222212341097,-22828.52951628322,0.0,0.0,0.0,193.0,1.0,155.0,0.0,2.0,3.0,251.0,411.0,2.0,1019.0,1744252606.2421951,0.0,2025-04-09 22:36:46.242,STOP,4
222.0,18515.13457478697,3371.090098749411,-66194.6241491585,-64646.31881073938,-38569.92436288886,-36265.99595141363,-31819.608130408305,-22899.719822373372,0.0,0.0,0.0,193.0,1.0,154.0,0.0,2.0,3.0,250.0,410.0,2.0,1018.0,1744252606.2422037,0.0,2025-04-09 22:36:46.242,STOP,4
223.0,18671.440323762934,3429.7857796890476,-66175.2228349713,-64645.312982238895,-38545.6950718993,-36230.14375330732,-31867.30675307593,-22874.28353718323,0.0,0.0,0.0,193.0,1.0,154.0,0.0,2.0,3.0,249.0,410.0,2.0,1017.0,1744252606.2422123,0.0,2025-04-09 22:36:46.242,STOP,4
224.0,18632.615343644065,3466.5991028069384,-66091.22497930824,-64569.674679002135,-38438.71962293621,-36124.263539822525,-32160.673399051837,-22771.55491966664,0.0,0.0,0.0,193.0,1.0,154.0,0.0,2.0,3.0,251.0,410.0,2.0,1019.0,1744252606.242221,0.0,2025-04-09 22:36:46.242,STOP,4
225.0,18543.029551867196,3438.9052914268127,-66147.28315440216,-64625.26346746248,-38482.037303690595,-36170.84457526739,-31836.506049216518,-22814.671434720927,0.0,0.0,0.0,193.0,1.0,154.0,0.0,2.0,3.0,250.0,410.0,2.0,1018.0,1744252606.24223,0.0,2025-04-09 22:36:46.242,STOP,4
226.0,18503.019929292193,3388.837383846925,-66174.1723029819,-64637.66868563517,-38541.42588870834,-36227.46154397268,-31888.809131241935,-22873.05419123819,0.0,0.0,0.0,193.0,1.0,154.0,0.0,2.0,3.0,250.0,410.0,2.0,1018.0,1744252606.2422383,0.0,2025-04-09 22:36:46.242,STOP,4
227.0,18654.36359099908,3421.96266912969,-66181.14604725195,-64636.86402283479,-38565.27520004215,-36245.4546982592,-31738.9406846691,-22886.48758965583,0.0,0.0,0.0,193.0,1.0,154.0,0.0,2.0,3.0,249.0,410.0,2.0,1017.0,1744252606.2422469,0.0,2025-04-09 22:36:46.242,STOP,4
228.0,18633.420006444456,3456.5631695465054,-66099.02573812315,-64588.87482748924,-38446.83330617348,-36126.90104566825,-32211.635376409937,-22781.41203897143,0.0,0.0,0.0,193.0,1.0,154.0,0.0,2.0,3.0,250.0,410.0,2.0,1018.0,1744252606.2422552,0.0,2025-04-09 22:36:46.242,STOP,4
229.0,18549.91388915943,3437.9441664152346,-66141.7175700328,-64618.803813314895,-38482.35022811297,-36172.40919737926,-31825.956025833613,-22818.80650744516,0.0,0.0,0.0,193.0,1.0,155.0,0.0,2.0,3.0,252.0,411.0,2.0,1020.0,1744252606.2422636,0.0,2025-04-09 22:36:46.242,STOP,4
230.0,18475.683745823353,3380.611941887372,-66178.4191344284,-64659.215767290094,-38532.30637697058,-36224.55581719349,-31925.041309003987,-22872.875377282548,0.0,0.0,0.0,193.0,1.0,155.0,0.0,2.0,3.0,251.0,411.0,2.0,1019.0,1744252606.2422721,0.0,2025-04-09 22:36:46.242,STOP,4
231.0,18630.089596520615,3408.7304364121483,-66183.26946297521,-64630.98551404304,-38574.61822922447,-36262.21850660068,-31665.246983199955,-22904.033709053245,0.0,0.0,0.0,193.0,1.0,155.0,0.0,2.0,3.0,251.0,411.0,2.0,1019.0,1744252606.2422807,0.0,2025-04-09 22:36:46.242,STOP,4
232.0,18640.147881525503,3450.34938458793,-66109.06167138359,-64607.069147475864,-38458.85854469044,-36137.98751091809,-32215.166952033873,-22802.42267875942,0.0,0.0,0.0,193.0,1.0,154.0,0.0,2.0,3.0,251.0,410.0,2.0,1019.0,1744252606.2422893,0.0,2025-04-09 22:36:46.242,STOP,4
233.0,18583.083877931105,3459.804172492525,-66112.81676445207,-64584.270368131445,-38457.04805338956,-36148.872810467816,-31844.53032547597,-22800.835704903093,0.0,0.0,0.0,193.0,1.0,154.0,0.0,2.0,3.0,249.0,410.0,2.0,1017.0,1744252606.242298,0.0,2025-04-09 22:36:46.242,STOP,4
234.0,18493.60984487651,3407.9481253562126,-66152.7146283048,-64640.507357181,-38496.94591724228,-36189.128302231824,-31919.16280021224,-22845.51684206925,0.0,0.0,0.0,193.0,1.0,154.0,0.0,2.0,3.0,249.0,410.0,2.0,1017.0,1744252606.2423065,0.0,2025-04-09 22:36:46.242,STOP,4
235.0,18610.35300616658,3409.6245061903605,-66173.7699715817,-64614.24405744601,-38570.21493556678,-36258.776337954565,-31631.45114558353,-22901.999700307813,0.0,0.0,0.0,193.0,1.0,155.0,0.0,2.0,3.0,250.0,411.0,2.0,1018.0,1744252606.2423148,0.0,2025-04-09 22:36:46.242,STOP,4
236.0,18656.241137533325,3454.283291612064,-66115.6554359979,-64612.992359756514,-38464.93821918228,-36147.06231916694,-32145.83184073351,-22811.721004452826,0.0,0.0,0.0,193.0,1.0,155.0,0.0,2.0,3.0,252.0,411.0,2.0,1020.0,1744252606.2423277,0.0,2025-04-09 22:36:46.242,STOP,4
237.0,18593.81271526965,3462.933416716268,-66098.91397940088,-64566.27721384492,-38448.59909398545,-36145.56475228843,-31887.199805641154,-22799.584007213594,0.0,0.0,0.0,193.0,1.0,155.0,0.0,2.0,3.0,252.0,411.0,2.0,1020.0,1744252606.2423365,0.0,2025-04-09 22:36:46.242,STOP,4
238.0,18486.52434188418,3403.924811354257,-66159.71072431932,-64648.799854373916,-38498.77876028762,-36192.16813947775,-31896.207558656643,-22851.395350860996,0.0,0.0,0.0,193.0,1.0,155.0,0.0,2.0,3.0,252.0,411.0,2.0,1020.0,1744252606.2423449,0.0,2025-04-09 22:36:46.242,STOP,4
239.0,18576.3336511056,3396.7275496396483,-66166.4162476559,-64608.320845165355,-38561.385996506935,-36255.11065186389,-31671.997210025456,-22896.836447338635,0.0,0.0,0.0,193.0,1.0,155.0,0.0,2.0,3.0,251.0,411.0,2.0,1019.0,1744252606.2423534,0.0,2025-04-09 22:36:46.242,STOP,4
240.0,18659.97387885736,3436.6477652368267,-66132.48629957275,-64629.59970588681,-38489.435731105295,-36177.99713349308,-32035.77185103558,-22835.90559195347,0.0,0.0,0.0,193.0,1.0,154.0,0.0,2.0,3.0,250.0,410.0,2.0,1018.0,1744252606.242362,0.0,2025-04-09 22:36:46.242,STOP,4
241.0,18596.450221115378,3444.87320719638,-66096.41058402188,-64573.18390288162,-38450.2754748196,-36151.532668058004,-31957.36193148636,-22807.09419335058,0.0,0.0,0.0,193.0,1.0,155.0,0.0,2.0,3.0,251.0,411.0,2.0,1019.0,1744252606.2423706,0.0,2025-04-09 22:36:46.242,STOP,4
242.0,18494.861542566006,3404.1483287988103,-66156.44736962883,-64654.119569554285,-38495.89538525288,-36193.263374956055,-31861.87527917329,-22845.38273160252,0.0,0.0,0.0,193.0,1.0,154.0,0.0,2.0,3.0,251.0,410.0,2.0,1019.0,1744252606.2423792,0.0,2025-04-09 22:36:46.242,STOP,4
243.0,18536.838118653075,3382.645950632805,-66164.82927379958,-64618.110909236784,-38555.03810108163,-36249.209791327696,-31731.1399258542,-22883.984194276836,0.0,0.0,0.0,193.0,1.0,154.0,0.0,2.0,3.0,249.0,410.0,2.0,1017.0,1744252606.2423878,0.0,2025-04-09 22:36:46.242,STOP,4
244.0,18661.091466080128,3425.9859831316453,-66151.82055852658,-64638.249830991015,-38522.091629754505,-36204.171026250246,-31905.304718649953,-22851.90944098347,0.0,0.0,0.0,193.0,1.0,154.0,0.0,2.0,3.0,249.0,410.0,2.0,1017.0,1744252606.2423964,0.0,2025-04-09 22:36:46.242,STOP,4
245.0,18604.563904352653,3444.023840907078,-66092.58843572003,-64574.05562091537,-38445.98393988418,-36138.278083596,-32052.40154891033,-22783.669565161417,0.0,0.0,0.0,193.0,1.0,154.0,0.0,2.0,3.0,250.0,410.0,2.0,1018.0,1744252606.2424052,0.0,2025-04-09 22:36:46.242,STOP,4
246.0,18517.66032191042,3426.2765558095643,-66142.25401189971,-64632.997171044015,-38477.2316786327,-36172.76682529054,-31819.20579900811,-22819.767632456736,0.0,0.0,0.0,193.0,1.0,154.0,0.0,2.0,3.0,250.0,410.0,2.0,1018.0,1744252606.2424138,0.0,2025-04-09 22:36:46.242,STOP,4
247.0,18507.89260958345,3385.417566945263,-66165.65628834443,-64627.610400630285,-38541.805868364085,-36235.619930698864,-31807.91816805818,-22877.368077918065,0.0,0.0,0.0,193.0,1.0,154.0,0.0,2.0,3.0,252.0,410.0,2.0,1020.0,1744252606.2424226,0.0,2025-04-09 22:36:46.242,STOP,4
248.0,18647.68041940694,3415.637125448838,-66174.84285531555,-64648.15165378471,-38554.70282491479,-36241.54314297952,-31785.029981735945,-22889.750944346302,0.0,0.0,0.0,193.0,1.0,155.0,0.0,2.0,3.0,251.0,411.0,2.0,1019.0,1744252606.2424314,0.0,2025-04-09 22:36:46.242,STOP,4
249.0,18604.094517719095,3432.8479686794244,-66101.9985201357,-64593.65810080268,-38458.32210282351,-36142.39080457578,-32162.841518264,-22794.17488505541,0.0,0.0,0.0,193.0,1.0,155.0,0.0,2.0,3.0,251.0,411.0,2.0,1019.0,1744252606.24244,0.0,2025-04-09 22:36:46.242,STOP,4
250.0,18536.882822141986,3430.29986981152,-66130.69816001633,-64616.143955724714,-38475.19766988727,-36166.575392076425,-31820.658662397705,-22815.27493182122,0.0,0.0,0.0,193.0,1.0,154.0,0.0,2.0,3.0,250.0,410.0,2.0,1018.0,1744252606.2424488,0.0,2025-04-09 22:36:46.242,STOP,4
251.0,18488.55835062961,3376.81214532997,-66161.43180864237,-64637.60163040181,-38528.41717343535,-36223.50528520409,-31878.54968053695,-22867.689772568916,0.0,0.0,0.0,193.0,1.0,154.0,0.0,2.0,3.0,249.0,410.0,2.0,1017.0,1744252606.2424617,0.0,2025-04-09 22:36:46.242,STOP,4
252.0,18643.902974593995,3412.6196399473715,-66169.74665757974,-64630.896107065215,-38564.53759247513,-36249.36625353888,-31698.506378949452,-22892.410801936487,0.0,0.0,0.0,193.0,1.0,154.0,0.0,2.0,3.0,248.0,410.0,2.0,1016.0,1744252606.2424705,0.0,2025-04-09 22:36:46.242,STOP,4
253.0,18627.452090674888,3445.7225734856816,-66093.46015375378,-64595.602702570286,-38450.498992264154,-36131.17022885921,-32211.0542310541,-22789.74923965326,0.0,0.0,0.0,193.0,1.0,154.0,0.0,2.0,3.0,250.0,410.0,2.0,1018.0,1744252606.2424788,0.0,2025-04-09 22:36:46.242,STOP,4
254.0,18557.267613085223,3445.297890341031,-66121.71275874529,-64604.275179418946,-38468.29098085058,-36159.69105478419,-31817.2611972405,-22807.116545095032,0.0,0.0,0.0,193.0,1.0,155.0,0.0,2.0,3.0,252.0,411.0,2.0,1020.0,1744252606.2424874,0.0,2025-04-09 22:36:46.242,STOP,4
255.0,18472.956832999807,3376.879200563336,-66166.6621168449,-64655.41597073269,-38522.33749894351,-36213.603462410385,-31920.83918104639,-22860.58191783213,0.0,0.0,0.0,193.0,1.0,155.0,0.0,2.0,3.0,251.0,411.0,2.0,1019.0,1744252606.242496,0.0,2025-04-09 22:36:46.242,STOP,4
0.0,18616.790308569707,3394.425319960752,-66179.15674199542,-64628.92915355315,-38580.27322057167,-36262.88905893434,-31656.976837751492,-22900.569188662674,0.0,0.0,0.0,193.0,1.0,155.0,0.0,2.0,3.0,251.0,411.0,2.0,1019.0,1744252606.2425044,0.0,2025-04-09 22:36:46.242,STOP,4
1.0,18622.467651661354,3426.388314531841,-66121.77981397866,-64625.531688395946,-38476.00233268766,-36151.06328142444,-32212.976481077254,-22807.921207895426,0.0,0.0,0.0,193.0,1.0,154.0,0.0,2.0,3.0,249.0,410.0,2.0,1017.0,1744252606.2425132,0.0,2025-04-09 22:36:46.242,STOP,4
2.0,18560.218043353325,3433.876148924369,-66121.44453781183,-64598.664891560664,-38469.922658195814,-36159.780461762006,-31872.26884034501,-22808.927036395915,0.0,0.0,0.0,193.0,1.0,154.0,0.0,2.0,3.0,250.0,410.0,2.0,1018.0,1744252606.2425215,0.0,2025-04-09 22:36:46.242,STOP,4
3.0,18475.90726326791,3392.6818838932377,-66153.51929110519,-64652.286726508944,-38499.44931262128,-36188.83772955391,-31935.054890519965,-22843.348722857085,0.0,0.0,0.0,193.0,1.0,154.0,0.0,2.0,3.0,250.0,410.0,2.0,1018.0,1744252606.2425306,0.0,2025-04-09 22:36:46.242,STOP,4
4.0,18587.397764610978,3394.1123955383773,-66168.78553256816,-64619.27319994846,-38567.465670998776,-36256.049425131016,-31655.859250528727,-22894.422458937464,0.0,0.0,0.0,193.0,1.0,155.0,0.0,2.0,3.0,252.0,411.0,2.0,1020.0,1744252606.2425392,0.0,2025-04-09 22:36:46.242,STOP,4
5.0,18641.757207126288,3433.25030007962,-66121.86922095648,-64633.57831639986,-38472.62721927491,-36157.72410127212,-32124.664738734336,-22811.94452189738,0.0,0.0,0.0,193.0,1.0,155.0,0.0,2.0,3.0,253.0,411.0,2.0,1021.0,1744252606.2425482,0.0,2025-04-09 22:36:46.242,STOP,4
6.0,18572.19857838137,3436.804227448014,-66108.39111904992,-64591.35587112378,-38456.39985280036,-36153.901952970264,-31914.871265276823,-22798.64523394647,0.0,0.0,0.0,193.0,1.0,155.0,0.0,2.0,3.0,252.0,411.0,2.0,1020.0,1744252606.2425568,0.0,2025-04-09 22:36:46.242,STOP,4
7.0,18473.448571377823,3394.514726938573,-66159.62131734149,-64665.51895922649,-38492.296754395575,-36191.78815982201,-31897.526311579506,-22834.60919077506,0.0,0.0,0.0,193.0,1.0,155.0,0.0,2.0,3.0,252.0,411.0,2.0,1020.0,1744252606.2425656,0.0,2025-04-09 22:36:46.242,STOP,4
8.0,18531.56310696162,3365.9715492691457,-66190.13144852298,-64646.69879039512,-38576.18285133634,-36278.490576564145,-31686.972878810513,-22909.800459122715,0.0,0.0,0.0,193.0,1.0,155.0,0.0,2.0,3.0,251.0,411.0,2.0,1019.0,1744252606.2425745,0.0,2025-04-09 22:36:46.242,STOP,4
9.0,18640.997247814805,3422.744980185626,-66149.5630323366,-64654.47719746557,-38503.04794347858,-36192.21284296666,-32018.67276652727,-22846.545022314196,0.0,0.0,0.0,193.0,1.0,155.0,0.0,2.0,3.0,251.0,411.0,2.0,1019.0,1744252606.242587,0.0,2025-04-09 22:36:46.242,STOP,4
10.0,18585.83314249911,3444.6273380073712,-66096.5446944886,-64580.17999889613,-38443.74876543865,-36143.79896447647,-32010.156751889797,-22792.27498677671,0.0,0.0,0.0,193.0,1.0,155.0,0.0,2.0,3.0,252.0,411.0,2.0,1020.0,1744252606.242596,0.0,2025-04-09 22:36:46.242,STOP,4
11.0,18485.98790001725,3409.222174790165,-66154.94980275033,-64658.07582832287,-38483.62427754692,-36184.97087776314,-31854.610962225317,-22828.0377779052,0.0,0.0,0.0,193.0,1.0,155.0,0.0,2.0,3.0,251.0,411.0,2.0,1019.0,1744252606.2426045,0.0,2025-04-09 22:36:46.242,STOP,4
12.0,18512.452365452333,3373.2358662171205,-66169.47843664628,-64638.16042401319,-38545.024519565646,-36249.74623319462,-31753.245801120498,-22883.470104154363,0.0,0.0,0.0,193.0,1.0,154.0,0.0,2.0,3.0,250.0,410.0,2.0,1018.0,1744252606.2426133,0.0,2025-04-09 22:36:46.242,STOP,4
13.0,18642.31600073767,3408.3951602453185,-66163.53287262117,-64660.04278183494,-38527.72426935724,-36220.465447958166,-31866.412683297716,-22870.260223181274,0.0,0.0,0.0,193.0,1.0,154.0,0.0,2.0,3.0,248.0,410.0,2.0,1016.0,1744252606.242622,0.0,2025-04-09 22:36:46.242,STOP,4
14.0,18585.274348887724,3428.087047110444,-66100.79152593511,-64593.88161824723,-38451.23659983118,-36140.71442374163,-32089.885424361877,-22792.99024259928,0.0,0.0,0.0,193.0,1.0,155.0,0.0,2.0,3.0,250.0,411.0,2.0,1018.0,1744252606.2426305,0.0,2025-04-09 22:36:46.242,STOP,4
15.0,18503.75753685922,3414.452482992707,-66145.47266310127,-64643.52484268247,-38482.0820071795,-36169.81639502244,-31822.49150544304,-22820.214667345845,0.0,0.0,0.0,193.0,1.0,155.0,0.0,2.0,3.0,251.0,411.0,2.0,1019.0,1744252606.2426388,0.0,2025-04-09 22:36:46.242,STOP,4
16.0,18487.61957736249,3373.280569706031,-66167.2209104563,-64642.11668278178,-38538.922493329344,-36229.60731144039,-31824.525514188474,-22877.457484895884,0.0,0.0,0.0,193.0,1.0,155.0,0.0,2.0,3.0,251.0,411.0,2.0,1019.0,1744252606.2426474,0.0,2025-04-09 22:36:46.242,STOP,4
17.0,18643.63475366053,3415.033628348545,-66165.45512264433,-64641.49083393703,-38546.79030737762,-36230.36727075187,-31745.825021961336,-22883.894787299014,0.0,0.0,0.0,193.0,1.0,155.0,0.0,2.0,3.0,252.0,411.0,2.0,1020.0,1744252606.2426565,0.0,2025-04-09 22:36:46.242,STOP,4
18.0,18614.175154468438,3448.3600793314076,-66082.50779897068,-64581.99049019701,-38438.540808980564,-36116.88746415228,-32166.66366656586,-22777.813408114125,0.0,0.0,0.0,193.0,1.0,155.0,0.0,2.0,3.0,252.0,411.0,2.0,1020.0,1744252606.2426653,0.0,2025-04-09 22:36:46.242,STOP,4
19.0,18532.345418017558,3433.451465779718,-66128.5076890597,-64620.279028448946,-38475.35413209845,-36163.624961808324,-31808.521665158474,-22818.51593476724,0.0,0.0,0.0,193.0,1.0,155.0,0.0,2.0,3.0,250.0,411.0,2.0,1018.0,1744252606.2426736,0.0,2025-04-09 22:36:46.242,STOP,4
20.0,18483.216283704794,3389.262066991576,-66150.63591607046,-64638.942735069126,-38514.55909187307,-36208.30609897448,-31894.46412258913,-22863.308830655675,0.0,0.0,0.0,193.0,1.0,154.0,0.0,2.0,3.0,250.0,410.0,2.0,1018.0,1744252606.2426825,0.0,2025-04-09 22:36:46.242,STOP,4
21.0,18631.6989221214,3411.747921913615,-66163.97990751028,-64630.896107065215,-38558.74849066121,-36247.578113982454,-31669.873794302202,-22894.802438593204,0.0,0.0,0.0,193.0,1.0,154.0,0.0,2.0,3.0,249.0,410.0,2.0,1017.0,1744252606.2426908,0.0,2025-04-09 22:36:46.242,STOP,4
22.0,18621.97591328334,3442.414515306296,-66090.75559267469,-64604.74456605251,-38445.31338755052,-36131.9301881707,-32209.243739753216,-22793.437277488385,0.0,0.0,0.0,193.0,1.0,154.0,0.0,2.0,3.0,249.0,410.0,2.0,1017.0,1744252606.2426996,0.0,2025-04-09 22:36:46.242,STOP,4
23.0,18545.555298990643,3431.931547156757,-66123.03151166814,-64614.24405744601,-38471.86725996343,-36170.755168289565,-31824.68197639966,-22824.349740070076,0.0,0.0,0.0,193.0,1.0,155.0,0.0,2.0,3.0,250.0,411.0,2.0,1018.0,1744252606.2427082,0.0,2025-04-09 22:36:46.242,STOP,4
24.0,18454.181367657347,3367.580874869928,-66170.73013433578,-64673.073848852386,-38523.700955355285,-36221.53833169202,-31925.89067529329,-22874.439999394417,0.0,0.0,0.0,193.0,1.0,155.0,0.0,2.0,3.0,249.0,411.0,2.0,1017.0,1744252606.2427208,0.0,2025-04-09 22:36:46.242,STOP,4
25.0,18595.645558314987,3387.4962791796065,-66178.97792803979,-64637.959258313094,-38576.69694145882,-36267.80644271451,-31646.180945179578,-22910.515714945283,0.0,0.0,0.0,193.0,1.0,155.0,0.0,2.0,3.0,250.0,411.0,2.0,1018.0,1744252606.2427297,0.0,2025-04-09 22:36:46.242,STOP,4
26.0,18632.011846543774,3437.743000715137,-66108.77109870566,-64624.79408082892,-38459.238524346176,-36142.41315632023,-32193.731629101236,-22809.776402685216,0.0,0.0,0.0,193.0,1.0,155.0,0.0,2.0,3.0,251.0,411.0,2.0,1019.0,1744252606.242738,0.0,2025-04-09 22:36:46.242,STOP,4
27.0,18562.855549199052,3436.2007303477208,-66109.32989231705,-64595.669757803655,-38459.21617260172,-36157.478232083115,-31873.945221179158,-22816.95131265537,0.0,0.0,0.0,193.0,1.0,155.0,0.0,2.0,3.0,250.0,411.0,2.0,1018.0,1744252606.242747,0.0,2025-04-09 22:36:46.242,STOP,4
28.0,18463.032658461652,3382.6683023772603,-66155.88857601746,-64662.68028768066,-38500.29867891058,-36193.553947633976,-31926.672986349226,-22851.216536905355,0.0,0.0,0.0,193.0,1.0,154.0,0.0,2.0,3.0,250.0,410.0,2.0,1018.0,1744252606.2427557,0.0,2025-04-09 22:36:46.242,STOP,4
29.0,18561.76031372074,3373.8617150618693,-66175.13342799347,-64630.15849949819,-38575.19937458031,-36261.03386414455,-31660.709579075527,-22901.1056305296,0.0,0.0,0.0,193.0,1.0,155.0,0.0,2.0,3.0,251.0,411.0,2.0,1019.0,1744252606.2427645,0.0,2025-04-09 22:36:46.242,STOP,4
30.0,18621.26065746077,3407.5904974449277,-66146.14321543495,-64657.71820041159,-38502.578556845016,-36176.20899393666,-32112.103058350454,-22836.106757653568,0.0,0.0,0.0,193.0,1.0,155.0,0.0,2.0,3.0,252.0,411.0,2.0,1020.0,1744252606.242773,0.0,2025-04-09 22:36:46.242,STOP,4
31.0,18565.71657248933,3428.668192466282,-66107.83232543855,-64591.55703682388,-38460.780794713595,-36146.995263933575,-31968.403693247285,-22800.79100141418,0.0,0.0,0.0,193.0,1.0,155.0,0.0,2.0,3.0,253.0,411.0,2.0,1021.0,1744252606.2427819,0.0,2025-04-09 22:36:46.242,STOP,4
32.0,18466.139550940938,3389.1056047803886,-66162.08000923158,-64667.70943018311,-38500.03045797711,-36185.39556090779,-31921.84500954688,-22844.063978679656,0.0,0.0,0.0,193.0,1.0,155.0,0.0,2.0,3.0,252.0,411.0,2.0,1020.0,1744252606.2427905,0.0,2025-04-09 22:36:46.242,STOP,4
33.0,18530.75844416123,3372.8558865613804,-66172.76414308121,-64631.27608672096,-38562.34712151851,-36249.92504715026,-31745.489745794508,-22899.652767140004,0.0,0.0,0.0,193.0,1.0,155.0,0.0,2.0,3.0,251.0,411.0,2.0,1019.0,1744252606.2427988,0.0,2025-04-09 22:36:46.242,STOP,4
34.0,18633.867041333564,3411.2338317911426,-66160.9624220088,-64660.93685161315,-38522.58336813252,-36197.174930235735,-32002.57951051945,-22868.829711536135,0.0,0.0,0.0,193.0,1.0,154.0,0.0,2.0,3.0,249.0,410.0,2.0,1017.0,1744252606.2428076,0.0,2025-04-09 22:36:46.242,STOP,4
35.0,18571.975060936817,3426.2318523206536,-66107.27353182716,-64593.367528124756,-38460.31140808003,-36139.06039465194,-32061.43165367027,-22804.546094482674,0.0,0.0,0.0,193.0,1.0,154.0,0.0,2.0,3.0,249.0,410.0,2.0,1017.0,1744252606.2428162,0.0,2025-04-09 22:36:46.242,STOP,4
36.0,18478.812990047096,3395.6323141613384,-66162.4152853984,-64661.83092139136,-38499.225795176724,-36176.29840091448,-31877.141520636265,-22837.9396006989,0.0,0.0,0.0,193.0,1.0,154.0,0.0,2.0,3.0,249.0,410.0,2.0,1017.0,1744252606.2428248,0.0,2025-04-09 22:36:46.242,STOP,4
37.0,18486.613748862,3358.8189910434476,-66182.48715191927,-64649.22453751857,-38564.53759247513,-36245.52175349257,-31821.48567694255,-22896.434115938442,0.0,0.0,0.0,193.0,1.0,154.0,0.0,2.0,3.0,251.0,410.0,2.0,1019.0,1744252606.2428331,0.0,2025-04-09 22:36:46.242,STOP,4
38.0,18625.01575052926,3399.677979907749,-66174.28406170417,-64663.552005714424,-38549.94190334582,-36222.298291003506,-31881.12013114931,-22882.173702975953,0.0,0.0,0.0,193.0,1.0,154.0,0.0,2.0,3.0,250.0,410.0,2.0,1018.0,1744252606.2428417,0.0,2025-04-09 22:36:46.242,STOP,4
39.0,18577.83121798411,3427.997640132623,-66100.65741546839,-64596.07208920385,-38453.98586439918,-36127.05750787944,-32169.36822764495,-22788.0281553302,0.0,0.0,0.0,193.0,1.0,154.0,0.0,2.0,3.0,252.0,410.0,2.0,1020.0,1744252606.2428544,0.0,2025-04-09 22:36:46.242,STOP,4
40.0,18501.790583347152,3421.0685993514776,-66139.75061652072,-64637.892203079726,-38475.64470477637,-36159.95927571765,-31856.667322715202,-22818.80650744516,0.0,0.0,0.0,193.0,1.0,155.0,0.0,2.0,3.0,251.0,411.0,2.0,1019.0,1744252606.2428632,0.0,2025-04-09 22:36:46.242,STOP,4
41.0,18468.240614919738,3370.039566760012,-66165.05279124413,-64646.02823806146,-38530.741754858704,-36219.5490264355,-31875.241622357564,-22875.110551728078,0.0,0.0,0.0,193.0,1.0,155.0,0.0,2.0,3.0,251.0,411.0,2.0,1019.0,1744252606.2428715,0.0,2025-04-09 22:36:46.242,STOP,4
42.0,18626.625076130043,3402.7848723870366,-66168.7184773348,-64644.061284549396,-38552.62411268045,-36231.19428529672,-31750.250667363485,-22890.53325540224,0.0,0.0,0.0,193.0,1.0,154.0,0.0,2.0,3.0,250.0,410.0,2.0,1018.0,1744252606.2428803,0.0,2025-04-09 22:36:46.242,STOP,4
43.0,18606.284988675714,3438.100628626422,-66088.14043857342,-64592.96519672456,-38442.117088093415,-36117.53566474148,-32218.072678813063,-22784.451876217354,0.0,0.0,0.0,193.0,1.0,154.0,0.0,2.0,3.0,250.0,410.0,2.0,1018.0,1744252606.2428887,0.0,2025-04-09 22:36:46.242,STOP,4
44.0,18523.38236849098,3422.253241807609,-66133.17920365086,-64623.36356918378,-38475.1306146539,-36162.01563620754,-31832.39332823674,-22818.158306855956,0.0,0.0,0.0,193.0,1.0,154.0,0.0,2.0,3.0,249.0,410.0,2.0,1017.0,1744252606.2428973,0.0,2025-04-09 22:36:46.242,STOP,4
45.0,18454.404885101903,3368.5419998815064,-66170.50661689123,-64660.266299279494,-38527.59015889051,-36212.709392632176,-31935.23370447561,-22867.980345246833,0.0,0.0,0.0,193.0,1.0,154.0,0.0,2.0,3.0,251.0,410.0,2.0,1019.0,1744252606.2429059,0.0,2025-04-09 22:36:46.242,STOP,4
46.0,18609.34717766609,3397.509860695584,-66174.59698612655,-64635.67938037866,-38569.49967974421,-36245.61116047039,-31696.405314970652,-22893.19311299242,0.0,0.0,0.0,193.0,1.0,154.0,0.0,2.0,3.0,249.0,410.0,2.0,1017.0,1744252606.2429144,0.0,2025-04-09 22:36:46.242,STOP,4
47.0,18614.041044001704,3435.0831431249553,-66101.12680210195,-64611.58419985583,-38451.79539344256,-36124.35294680035,-32245.34180704854,-22791.246806531766,0.0,0.0,0.0,193.0,1.0,154.0,0.0,2.0,3.0,249.0,410.0,2.0,1017.0,1744252606.242923,0.0,2025-04-09 22:36:46.242,STOP,4
48.0,18540.95083963285,3432.937375657246,-66122.62918026796,-64605.236304430524,-38471.48728030769,-36152.225572136114,-31869.40781705473,-22809.530533496207,0.0,0.0,0.0,193.0,1.0,154.0,0.0,2.0,3.0,249.0,410.0,2.0,1017.0,1744252606.2429316,0.0,2025-04-09 22:36:46.242,STOP,4
49.0,18442.17848088485,3369.972511526646,-66175.8710355605,-64673.5655872304,-38527.52310365714,-36206.07092452895,-31963.531012956028,-22865.47694986784,0.0,0.0,0.0,193.0,1.0,155.0,0.0,2.0,3.0,252.0,411.0,2.0,1020.0,1744252606.2429404,0.0,2025-04-09 22:36:46.242,STOP,4
50.0,18575.126656905017,3385.395215200808,-66181.3695646965,-64635.99230480103,-38582.01665663918,-36258.44106178774,-31686.481140432497,-22901.66442414098,0.0,0.0,0.0,193.0,1.0,155.0,0.0,2.0,3.0,251.0,411.0,2.0,1019.0,1744252606.242949,0.0,2025-04-09 22:36:46.242,STOP,4
51.0,18619.651331859986,3429.7857796890476,-66113.19674410782,-64628.99620878652,-38464.401777315354,-36137.54047602898,-32202.918196072365,-22797.2817775347,0.0,0.0,0.0,193.0,1.0,155.0,0.0,2.0,3.0,252.0,411.0,2.0,1020.0,1744252606.2429576,0.0,2025-04-09 22:36:46.242,STOP,4
52.0,18555.300659573157,3435.3066605695085,-66101.9985201357,-64586.438487343614,-38454.65641673284,-36141.56379003093,-31916.480590877607,-22791.827951887604,0.0,0.0,0.0,193.0,1.0,155.0,0.0,2.0,3.0,251.0,411.0,2.0,1019.0,1744252606.242966,0.0,2025-04-09 22:36:46.242,STOP,4
53.0,18453.22024264577,3384.411738444774,-66156.35796265102,-64662.90380512522,-38499.76223704365,-36188.50245338708,-31946.23076274762,-22845.874469980536,0.0,0.0,0.0,193.0,1.0,154.0,0.0,2.0,3.0,250.0,410.0,2.0,1018.0,1744252606.2429743,0.0,2025-04-09 22:36:46.242,STOP,4
54.0,18538.15687157594,3370.6207121158495,-66176.42982917187,-64632.46072917709,-38574.037083868636,-36260.56447751099,-31705.927158108614,-22900.61389215158,0.0,0.0,0.0,193.0,1.0,154.0,0.0,2.0,3.0,249.0,410.0,2.0,1017.0,1744252606.2429872,0.0,2025-04-09 22:36:46.242,STOP,4
55.0,18618.86902080405,3412.5302329695505,-66140.28705838765,-64650.56564218589,-38497.77293178713,-36173.68324681321,-32105.486941991683,-22827.03194940471,0.0,0.0,0.0,193.0,1.0,154.0,0.0,2.0,3.0,250.0,410.0,2.0,1018.0,1744252606.2429955,0.0,2025-04-09 22:36:46.242,STOP,4
56.0,18564.643688755477,3431.417457034285,-66096.14236308842,-64580.80584774088,-38448.196762585256,-36140.066223152426,-32004.501760542604,-22787.692879163373,0.0,0.0,0.0,193.0,1.0,155.0,0.0,2.0,3.0,252.0,411.0,2.0,1020.0,1744252606.243004,0.0,2025-04-09 22:36:46.243,STOP,4
57.0,18478.254196435715,3407.7246079116594,-66141.3599421215,-64643.54719442692,-38475.108262909445,-36168.34117988839,-31909.439791374185,-22825.959065670857,0.0,0.0,0.0,193.0,1.0,155.0,0.0,2.0,3.0,251.0,411.0,2.0,1019.0,1744252606.243013,0.0,2025-04-09 22:36:46.243,STOP,4
58.0,18518.777909133187,3377.1027180078886,-66168.78553256816,-64621.664836605174,-38555.216915037265,-36246.01349187058,-31761.51594656896,-22888.611005379084,0.0,0.0,0.0,193.0,1.0,155.0,0.0,1.0,3.0,251.0,411.0,1.0,1019.0,1744252606.2430212,0.0,2025-04-09 22:36:46.243,STOP,4
59.0,18638.851480347097,3424.3096022974973,-66152.58051783807,-64640.41795020318,-38516.369583173946,-36196.50437790208,-31972.069379337954,-22847.148519414488,0.0,0.0,0.0,193.0,1.0,154.0,0.0,2.0,3.0,249.0,410.0,2.0,1017.0,1744252606.24303,0.0,2025-04-09 22:36:46.243,STOP,4
60.0,18581.183979652404,3433.6302797353605,-66095.27064505465,-64571.59692902529,-38443.569951483005,-36137.00403416205,-32102.000069856655,-22782.954309338846,0.0,0.0,0.0,193.0,1.0,154.0,0.0,2.0,3.0,249.0,410.0,2.0,1017.0,1744252606.2430387,0.0,2025-04-09 22:36:46.243,STOP,4
61.0,18493.676900109876,3407.456386978196,-66148.89248000295,-64630.78434834294,-38477.18697514379,-36177.39363639279,-31877.58855552537,-22812.90564690896,0.0,0.0,0.0,193.0,1.0,154.0,0.0,2.0,3.0,250.0,410.0,2.0,1018.0,1744252606.243047,0.0,2025-04-09 22:36:46.243,STOP,4
62.0,18485.51851338369,3361.90353177828,-66181.66013737442,-64627.632752374746,-38551.1488975464,-36249.612122727885,-31854.49920350304,-22874.1494267165,0.0,0.0,0.0,193.0,1.0,155.0,0.0,2.0,3.0,251.0,411.0,2.0,1019.0,1744252606.2430556,0.0,2025-04-09 22:36:46.243,STOP,4
63.0,18632.794157599707,3405.19886078821,-66178.6203001285,-64632.59483964382,-38543.63871140942,-36233.98825335363,-31861.65176172874,-22860.604269576583,0.0,0.0,0.0,193.0,1.0,155.0,0.0,2.0,3.0,252.0,411.0,2.0,1020.0,1744252606.7198884,0.0,2025-04-09 22:36:46.719,STOP,4
64.0,18592.02457571323,3432.1327128568546,-66100.18802883483,-64562.43271379861,-38438.98784386967,-36130.4773247811,-32199.364268703972,-22762.480111417786,0.0,0.0,0.0,193.0,1.0,155.0,0.0,6.0,3.0,252.0,411.0,6.0,1020.0,1744252606.7199442,0.0,2025-04-09 22:36:46.719,STOP,4
65.0,18507.08794678306,3413.7595789145926,-66151.46293061531,-64605.57158059735,-38472.29194310808,-36169.45876711116,-31856.533212248472,-22795.672451933915,0.0,0.0,0.0,193.0,1.0,155.0,0.0,16.0,3.0,253.0,411.0,16.0,1021.0,1744252606.7199793,0.0,2025-04-09 22:36:46.719,STOP,4
66.0,18458.539957826135,3361.6576625892717,-66185.23641648727,-64622.26833370547,-38527.679565868326,-36226.14279104982,-31910.020936730023,-22847.081464181123,0.0,0.0,0.0,193.0,1.0,155.0,0.0,27.0,3.0,252.0,411.0,27.0,1020.0,1744252606.720009,0.0,2025-04-09 22:36:46.720,STOP,4
67.0,18626.289799963215,3405.57884044395,-66180.81077108512,-64600.922417750655,-38545.11392654347,-36240.15733482329,-31746.629684761727,-22861.341877143608,0.0,0.0,0.0,193.0,1.0,155.0,0.0,35.0,3.0,252.0,411.0,35.0,1020.0,1744252606.7200396,0.0,2025-04-09 22:36:46.720,STOP,4
68.0,18607.179058453927,3440.2016926052206,-66104.32310155906,-64553.76023694995,-38431.38825075486,-36122.05071712145,-32236.445812755326,-22758.59090788256,0.0,0.0,0.0,193.0,1.0,155.0,0.0,39.0,3.0,251.0,411.0,39.0,1019.0,1744252606.72007,0.0,2025-04-09 22:36:46.720,STOP,4
69.0,18524.99169409176,3422.9684976301787,-66149.1159974475,-64575.955519194074,-38469.90030645136,-36166.843613009885,-31855.05799711442,-22796.924149623414,0.0,0.0,0.0,193.0,1.0,154.0,0.0,39.0,3.0,250.0,410.0,39.0,1018.0,1744252606.7201893,0.0,2025-04-09 22:36:46.720,STOP,4
70.0,18445.46418731978,3363.356395167875,-66189.61735840052,-64616.25571444699,-38521.64459486539,-36216.28567174503,-31963.307495511475,-22845.42743509143,0.0,0.0,0.0,193.0,1.0,154.0,0.0,39.0,3.0,250.0,410.0,39.0,1018.0,1744252606.7202053,0.0,2025-04-09 22:36:46.720,STOP,4
71.0,18589.230607656315,3384.5905524004165,-66202.08963180658,-64588.9418827226,-38573.54534549062,-36261.12327112237,-31698.394620227176,-22881.257281453287,0.0,0.0,0.0,193.0,1.0,154.0,0.0,39.0,3.0,249.0,410.0,39.0,1017.0,1744252606.7202206,0.0,2025-04-09 22:36:46.720,STOP,4
72.0,18609.30247417718,3434.256128580109,-66123.94793319082,-64562.611527754256,-38448.3755765409,-36130.52202827001,-32255.891830431443,-22771.487864433275,0.0,0.0,0.0,193.0,1.0,154.0,0.0,38.0,3.0,249.0,410.0,38.0,1017.0,1744252606.720236,0.0,2025-04-09 22:36:46.720,STOP,4
73.0,18548.86335717003,3441.900425183824,-66123.23267736824,-64534.493033229475,-38444.70989045023,-36139.39567081877,-31888.295041119465,-22770.057352788135,0.0,0.0,0.0,193.0,1.0,155.0,0.0,38.0,3.0,252.0,411.0,38.0,1020.0,1744252606.720251,0.0,2025-04-09 22:36:46.720,STOP,4
74.0,18450.761550755687,3380.8801628208357,-66174.77580008219,-64602.44233637361,-38497.30354515357,-36184.85911904086,-31960.044140821,-22818.873562678524,0.0,0.0,0.0,193.0,1.0,155.0,0.0,39.0,3.0,251.0,411.0,39.0,1019.0,1744252606.720266,0.0,2025-04-09 22:36:46.720,STOP,4
75.0,18569.225796368813,3388.3679972133637,-66187.91862582191,-64569.09353364629,-38563.71057793028,-36249.679177961254,-31682.010791541434,-22867.95799350238,0.0,0.0,0.0,193.0,1.0,155.0,0.0,39.0,3.0,251.0,411.0,39.0,1019.0,1744252606.720281,0.0,2025-04-09 22:36:46.720,STOP,4
76.0,18617.840840559107,3431.350401800919,-66137.53779381965,-64576.804885483376,-38467.46396630573,-36145.788269732984,-32176.56548935956,-22784.384820983985,0.0,0.0,0.0,193.0,1.0,155.0,0.0,39.0,3.0,249.0,411.0,39.0,1017.0,1744252606.7202964,0.0,2025-04-09 22:36:46.720,STOP,4
77.0,18555.323011317614,3433.2726518240756,-66115.6554359979,-64523.026588323904,-38445.13457359488,-36136.33348182839,-31945.448451691682,-22767.799826598148,0.0,0.0,0.0,193.0,1.0,155.0,0.0,39.0,3.0,251.0,411.0,39.0,1019.0,1744252606.7203114,0.0,2025-04-09 22:36:46.720,STOP,4
78.0,18453.577870557056,3383.8976483223023,-66168.45025640134,-64600.430679372635,-38486.82057700403,-36175.96312474765,-31946.543687169993,-22810.60341723006,0.0,0.0,0.0,193.0,1.0,154.0,0.0,40.0,3.0,250.0,410.0,40.0,1018.0,1744252606.7203264,0.0,2025-04-09 22:36:46.720,STOP,4
79.0,18543.565993734122,3387.451575690696,-66168.02557325669,-64553.3355538053,-38542.96815907576,-36234.7035091762,-31727.630701974715,-22861.364228888062,0.0,0.0,0.0,193.0,1.0,154.0,0.0,40.0,3.0,250.0,410.0,40.0,1018.0,1744252606.7203412,0.0,2025-04-09 22:36:46.720,STOP,4
80.0,18640.416102458967,3431.8197884344804,-66134.92263971838,-64574.07797265983,-38473.70010300876,-36163.20027866367,-32061.83398507047,-22807.720042195328,0.0,0.0,0.0,193.0,1.0,154.0,0.0,40.0,3.0,249.0,410.0,40.0,1017.0,1744252606.7203565,0.0,2025-04-09 22:36:46.720,STOP,4
81.0,18580.31226161865,3443.2415298511423,-66088.87804614044,-64510.241390495474,-38423.34162275096,-36122.028365376995,-32021.354975861905,-22760.714323605815,0.0,0.0,0.0,193.0,1.0,154.0,0.0,40.0,3.0,250.0,410.0,40.0,1018.0,1744252606.7203712,0.0,2025-04-09 22:36:46.720,STOP,4
82.0,18489.5641791301,3416.8888231383353,-66137.1578141639,-64579.19652214009,-38457.2268673452,-36154.03606343699,-31893.279480133,-22794.018422844223,0.0,0.0,0.0,193.0,1.0,154.0,0.0,41.0,3.0,249.0,410.0,41.0,1017.0,1744252606.7203958,0.0,2025-04-09 22:36:46.720,STOP,4
83.0,18517.593266677057,3384.836421589425,-66156.38031439547,-64559.795207952884,-38525.71261235626,-36223.818209626465,-31780.783150289437,-22853.898746239993,0.0,0.0,0.0,193.0,1.0,154.0,0.0,41.0,3.0,250.0,410.0,41.0,1018.0,1744252606.7204108,0.0,2025-04-09 22:36:46.720,STOP,4
84.0,18636.83982334612,3422.096779596422,-66153.07225621608,-64587.46666758855,-38502.645612078384,-36191.69875284419,-31924.6836810927,-22833.22338261883,0.0,0.0,0.0,193.0,1.0,154.0,0.0,41.0,3.0,252.0,410.0,41.0,1020.0,1744252606.72044,0.0,2025-04-09 22:36:46.720,STOP,4
85.0,18577.920624961927,3432.8479686794244,-66093.28133979814,-64525.708797658546,-38426.40381174133,-36120.59785373186,-32128.106907380454,-22760.915489305913,0.0,0.0,0.0,193.0,1.0,155.0,0.0,41.0,3.0,251.0,411.0,41.0,1019.0,1744252606.7204552,0.0,2025-04-09 22:36:46.720,STOP,4
86.0,18495.867371066495,3410.7867969020367,-66142.74575027774,-64583.73392626452,-38460.87020169142,-36160.62982805131,-31873.31937233441,-22798.377013013007,0.0,0.0,0.0,193.0,1.0,155.0,0.0,41.0,3.0,252.0,411.0,41.0,1020.0,1744252606.7204711,0.0,2025-04-09 22:36:46.720,STOP,4
87.0,18471.61572833249,3355.2203601861434,-66179.626128629,-64597.07791770434,-38535.167400260856,-36236.31283477698,-31866.25622108653,-22865.253432423287,0.0,0.0,0.0,193.0,1.0,155.0,0.0,42.0,3.0,251.0,411.0,42.0,1019.0,1744252606.7204862,0.0,2025-04-09 22:36:46.720,STOP,4
88.0,18623.808756328675,3396.705197895193,-66181.14604725195,-64606.3985951422,-38543.1469730314,-36239.620892956365,-31818.512894929994,-22876.026973250744,0.0,0.0,0.0,193.0,1.0,155.0,0.0,42.0,3.0,250.0,411.0,42.0,1018.0,1744252606.7205012,0.0,2025-04-09 22:36:46.720,STOP,4
89.0,18585.028479698718,3428.7799511885587,-66102.73612770274,-64547.6358589692,-38435.07628858999,-36127.79511544647,-32214.161123533384,-22770.258518488234,0.0,0.0,0.0,193.0,1.0,155.0,0.0,42.0,3.0,251.0,411.0,42.0,1019.0,1744252606.7205162,0.0,2025-04-09 22:36:46.720,STOP,4
90.0,18513.011159063717,3425.5389482425394,-66138.74478802024,-64575.26261511596,-38458.50091677915,-36155.77949950451,-31857.67315121569,-22791.336213509585,0.0,0.0,0.0,193.0,1.0,154.0,0.0,42.0,3.0,250.0,410.0,42.0,1018.0,1744252606.7205312,0.0,2025-04-09 22:36:46.720,STOP,4
91.0,18454.114312423982,3362.551732367484,-66176.4745326608,-64602.531743351436,-38518.71651634175,-36217.89499734581,-31931.232742218108,-22858.547909086694,0.0,0.0,0.0,193.0,1.0,154.0,0.0,42.0,3.0,249.0,410.0,42.0,1017.0,1744252606.7205467,0.0,2025-04-09 22:36:46.720,STOP,4
92.0,18598.01484322725,3380.5672383984615,-66197.88750384898,-64604.45399337459,-38569.85730765549,-36261.83852694494,-31734.827963689324,-22902.46908694137,0.0,0.0,0.0,193.0,1.0,154.0,0.0,42.0,3.0,250.0,410.0,42.0,1018.0,1744252606.720562,0.0,2025-04-09 22:36:46.720,STOP,4
93.0,18590.81758151264,3419.6604394507935,-66120.34930233352,-64566.12075163374,-38452.667111476316,-36133.40540330474,-32271.96273469481,-22788.005803585747,0.0,0.0,0.0,193.0,1.0,154.0,0.0,42.0,3.0,249.0,410.0,42.0,1017.0,1744252606.7205772,0.0,2025-04-09 22:36:46.720,STOP,4
94.0,18529.596153449555,3425.471893009173,-66138.65538104241,-64561.11396087575,-38465.2287918602,-36154.952484959664,-31883.757636995037,-22794.55486471115,0.0,0.0,0.0,193.0,1.0,154.0,0.0,42.0,3.0,249.0,410.0,42.0,1017.0,1744252606.7205925,0.0,2025-04-09 22:36:46.720,STOP,4
95.0,18451.879137978452,3375.962779040668,-66172.20534946983,-64602.75526079599,-38505.61839409094,-36194.179796478726,-31976.33856252892,-22833.71512099685,0.0,0.0,0.0,193.0,1.0,154.0,0.0,43.0,3.0,249.0,410.0,43.0,1017.0,1744252606.7206075,0.0,2025-04-09 22:36:46.720,STOP,4
96.0,18591.15285767947,3392.6818838932377,-66184.9234920649,-64577.16251339466,-38559.10611857249,-36251.98140764015,-31687.26345148843,-22883.090124498623,0.0,0.0,0.0,193.0,1.0,155.0,0.0,43.0,3.0,252.0,411.0,43.0,1020.0,1744252606.7206225,0.0,2025-04-09 22:36:46.720,STOP,4
97.0,18610.598875355587,3429.0481721220226,-66122.53977329013,-64572.111019147764,-38451.90715216484,-36137.831048706896,-32232.087222586542,-22793.906664121947,0.0,0.0,0.0,193.0,1.0,155.0,0.0,42.0,3.0,252.0,411.0,42.0,1020.0,1744252606.7206376,0.0,2025-04-09 22:36:46.720,STOP,4
98.0,18540.928487888395,3427.1706255877766,-66126.31721810308,-64547.993486880485,-38456.42220454481,-36154.10311867036,-31906.64582331727,-22802.534437481696,0.0,0.0,0.0,193.0,1.0,155.0,0.0,43.0,3.0,252.0,411.0,43.0,1020.0,1744252606.7206523,0.0,2025-04-09 22:36:46.720,STOP,4
99.0,18455.79069325813,3387.9209623242573,-66163.39876215444,-64604.78926954142,-38487.401722359864,-36182.37807540633,-31972.739931671615,-22831.301132595676,0.0,0.0,0.0,193.0,1.0,155.0,0.0,43.0,3.0,252.0,411.0,43.0,1020.0,1744252606.7206757,0.0,2025-04-09 22:36:46.720,STOP,4
100.0,18562.073238143115,3386.1551745122883,-66180.0731635181,-64571.93220519212,-38558.994359850214,-36254.35069255241,-31701.41210572864,-22889.52742690175,0.0,0.0,0.0,193.0,1.0,155.0,0.0,43.0,3.0,251.0,411.0,43.0,1019.0,1744252606.7206905,0.0,2025-04-09 22:36:46.720,STOP,4
101.0,18619.137241737513,3421.180358073754,-66138.27540138667,-64589.43362110062,-38471.42022507432,-36161.188621662695,-32160.31577114055,-22816.70544346636,0.0,0.0,0.0,193.0,1.0,155.0,0.0,43.0,3.0,251.0,411.0,43.0,1019.0,1744252606.720706,0.0,2025-04-09 22:36:46.720,STOP,4
102.0,18559.234566597293,3437.0053931481116,-66106.44651728231,-64528.972152349015,-38438.36199502492,-36137.80869696244,-31971.97997236013,-22778.30514649214,0.0,0.0,0.0,193.0,1.0,155.0,0.0,43.0,3.0,249.0,411.0,43.0,1017.0,1744252606.7207212,0.0,2025-04-09 22:36:46.720,STOP,4
103.0,18457.869405492474,3396.2581630060868,-66161.14123596445,-64605.817449786366,-38479.55626005605,-36177.93007825972,-31934.294931208486,-22826.339045326597,0.0,0.0,0.0,193.0,1.0,155.0,0.0,43.0,3.0,251.0,411.0,43.0,1019.0,1744252606.720736,0.0,2025-04-09 22:36:46.720,STOP,4
104.0,18524.924638858396,3375.1804679847323,-66174.55228263764,-64572.602757525776,-38550.23247602373,-36246.88520990434,-31759.28077212343,-22885.749982088804,0.0,0.0,0.0,193.0,1.0,155.0,0.0,43.0,3.0,251.0,411.0,43.0,1019.0,1744252606.720751,0.0,2025-04-09 22:36:46.720,STOP,4
105.0,18627.697959863897,3418.386390016841,-66149.33951489205,-64593.859266502775,-38492.07323695102,-36181.036970739005,-32046.076005229475,-22832.441071562895,0.0,0.0,0.0,193.0,1.0,155.0,0.0,43.0,3.0,251.0,411.0,43.0,1019.0,1744252606.720766,0.0,2025-04-09 22:36:46.720,STOP,4
106.0,18570.969232436328,3433.607927990905,-66096.03060436614,-64527.519288959425,-38427.61080594192,-36130.991414903576,-32066.192575239253,-22777.165207524922,0.0,0.0,0.0,193.0,1.0,155.0,0.0,43.0,3.0,251.0,411.0,43.0,1019.0,1744252606.720781,0.0,2025-04-09 22:36:46.720,STOP,4
107.0,18479.32708016957,3404.125977054355,-66149.3171631476,-64597.86022876028,-38466.05580640505,-36169.19054617769,-31903.717744793626,-22821.488716779797,0.0,0.0,0.0,193.0,1.0,155.0,0.0,43.0,3.0,249.0,411.0,43.0,1017.0,1744252606.720796,0.0,2025-04-09 22:36:46.720,STOP,4
108.0,18497.90137981193,3372.945293539202,-66162.08000923158,-64577.11780990575,-38528.97596704674,-36229.964939351674,-31825.799563622426,-22876.38460116203,0.0,0.0,0.0,193.0,1.0,154.0,0.0,43.0,3.0,250.0,410.0,43.0,1018.0,1744252606.7208092,0.0,2025-04-09 22:36:46.720,STOP,4
109.0,18628.83789883112,3411.6361631913383,-66157.74377080724,-64597.97198748255,-38519.58823437551,-36208.64137514131,-31903.226006415607,-22872.897729027,0.0,0.0,0.0,193.0,1.0,154.0,0.0,43.0,3.0,249.0,410.0,43.0,1017.0,1744252606.7208178,0.0,2025-04-09 22:36:46.720,STOP,4
110.0,18573.15970339295,3430.1210558558773,-66091.73906943073,-64537.5328704754,-38433.98105311168,-36127.57159800191,-32165.546079343094,-22789.45866697534,0.0,0.0,0.0,193.0,1.0,154.0,0.0,43.0,3.0,249.0,410.0,43.0,1017.0,1744252606.7208269,0.0,2025-04-09 22:36:46.720,STOP,4
111.0,18480.489370881245,3406.0258753330563,-66148.84777651403,-64598.37431888274,-38475.01885593162,-36174.57731659142,-31879.376695081795,-22832.083443651612,0.0,0.0,0.0,193.0,1.0,154.0,0.0,43.0,3.0,249.0,410.0,43.0,1017.0,1744252606.7208357,0.0,2025-04-09 22:36:46.720,STOP,4
112.0,18453.242594390227,3356.2038369421766,-66179.60377688453,-64608.00792074298,-38538.90014158489,-36234.88232313184,-31906.936395995188,-22891.0026420358,0.0,0.0,0.0,193.0,1.0,154.0,0.0,43.0,3.0,249.0,410.0,43.0,1017.0,1744252606.7208445,0.0,2025-04-09 22:36:46.720,STOP,4
113.0,18621.886506305516,3408.9763056011566,-66168.87493954599,-64593.65810080268,-38541.40353696389,-36222.47710495914,-31801.14558948822,-22880.29615644171,0.0,0.0,0.0,193.0,1.0,154.0,0.0,44.0,3.0,250.0,410.0,44.0,1018.0,1744252606.720853,0.0,2025-04-09 22:36:46.720,STOP,4
114.0,18585.184941909905,3432.512692512595,-66097.84109566703,-64548.35111479177,-38439.77015492561,-36117.22274031911,-32229.628530696456,-22784.56363493963,0.0,0.0,0.0,193.0,1.0,154.0,0.0,43.0,3.0,248.0,410.0,43.0,1016.0,1744252606.720867,0.0,2025-04-09 22:36:46.720,STOP,4
115.0,18506.797374105143,3417.0899888384333,-66143.4163026114,-64583.95744370907,-38478.79630074457,-36164.474328097625,-31866.435035042174,-22831.547001784686,0.0,0.0,0.0,193.0,1.0,154.0,0.0,43.0,3.0,250.0,410.0,43.0,1018.0,1744252606.7208755,0.0,2025-04-09 22:36:46.720,STOP,4
116.0,18455.410713602392,3374.934598795724,-66160.24716618624,-64601.41415612867,-38514.67085059534,-36198.91836630325,-31954.053873306977,-22863.71116205587,0.0,0.0,0.0,193.0,1.0,154.0,0.0,43.0,3.0,250.0,410.0,43.0,1018.0,1744252606.7208877,0.0,2025-04-09 22:36:46.720,STOP,4
117.0,18612.78934631221,3411.5914597024275,-66163.13054122098,-64576.91664420565,-38551.43947022432,-36230.680195174245,-31704.831922630303,-22893.23781648133,0.0,0.0,0.0,193.0,1.0,154.0,0.0,44.0,3.0,249.0,410.0,44.0,1017.0,1744252606.7208965,0.0,2025-04-09 22:36:46.720,STOP,4
118.0,18601.63582582901,3441.2969280835305,-66101.86440966898,-64560.75633296446,-38447.43680327378,-36121.58133048789,-32241.698472702323,-22802.62384445952,0.0,0.0,0.0,193.0,1.0,155.0,0.0,43.0,3.0,251.0,411.0,43.0,1019.0,1744252606.7209053,0.0,2025-04-09 22:36:46.720,STOP,4
119.0,18537.799243664653,3436.893634425835,-66117.01889240967,-64553.20144333857,-38458.99265515717,-36144.3801098323,-31876.538023535973,-22817.75597545576,0.0,0.0,0.0,193.0,1.0,154.0,0.0,43.0,3.0,250.0,410.0,43.0,1018.0,1744252606.720914,0.0,2025-04-09 22:36:46.720,STOP,4
120.0,18453.577870557056,3382.355377954886,-66155.6650585729,-64605.92920850864,-38500.16456844385,-36186.87077604184,-31971.287068282018,-22858.838481764615,0.0,0.0,0.0,193.0,1.0,155.0,0.0,44.0,3.0,251.0,411.0,44.0,1019.0,1744252606.7209227,0.0,2025-04-09 22:36:46.720,STOP,4
121.0,18583.35209886457,3391.6537036482937,-66169.52314013519,-64577.9448244506,-38559.284932528135,-36243.93477963624,-31685.631774143196,-22904.413688708984,0.0,0.0,0.0,193.0,1.0,155.0,0.0,44.0,3.0,252.0,411.0,44.0,1020.0,1744252606.7209313,0.0,2025-04-09 22:36:46.720,STOP,4
122.0,18605.413270641955,3420.509805740095,-66127.21128788129,-64590.1935804121,-38470.41439657383,-36146.95056044466,-32213.71408864428,-22824.014463903244,0.0,0.0,0.0,193.0,1.0,155.0,0.0,44.0,3.0,252.0,411.0,44.0,1020.0,1744252606.72094,0.0,2025-04-09 22:36:46.720,STOP,4
123.0,18535.966400619316,3418.0958173389217,-66128.19476463733,-64559.392876552694,-38470.637914018385,-36158.104080927864,-31930.07045150643,-22820.549943512673,0.0,0.0,0.0,193.0,1.0,155.0,0.0,44.0,3.0,252.0,411.0,44.0,1020.0,1744252606.7209487,0.0,2025-04-09 22:36:46.720,STOP,4
124.0,18450.828605989052,3387.38452045733,-66158.92841326338,-64613.10411847879,-38491.246222406175,-36180.09819747188,-31976.33856252892,-22843.013446690256,0.0,0.0,0.0,193.0,1.0,155.0,0.0,44.0,3.0,252.0,411.0,44.0,1020.0,1744252606.7209575,0.0,2025-04-09 22:36:46.720,STOP,4
125.0,18544.28124955669,3379.6284651313385,-66174.12759949299,-64578.70478376208,-38560.49192672872,-36254.149526852314,-31721.483972249505,-22902.804363108204,0.0,0.0,0.0,193.0,1.0,155.0,0.0,44.0,3.0,251.0,411.0,44.0,1019.0,1744252606.720966,0.0,2025-04-09 22:36:46.720,STOP,4
126.0,18626.222744729846,3428.2435093216313,-66131.74869200573,-64590.908836234674,-38480.45032983427,-36159.7357582731,-32134.097174894476,-22830.719987239838,0.0,0.0,0.0,193.0,1.0,155.0,0.0,44.0,3.0,251.0,411.0,44.0,1019.0,1744252606.7209747,0.0,2025-04-09 22:36:46.720,STOP,4
127.0,18550.226813581805,3425.2483755646203,-66110.5592382621,-64544.506614745456,-38458.053881890046,-36150.63859827979,-32008.547426289017,-22817.04071963319,0.0,0.0,0.0,193.0,1.0,155.0,0.0,44.0,3.0,251.0,411.0,44.0,1019.0,1744252606.7209835,0.0,2025-04-09 22:36:46.720,STOP,4
128.0,18450.94036471133,3386.088119278922,-66159.24133768574,-64616.63569410273,-38488.16168167134,-36183.24979344008,-31937.64769287678,-22849.42839734893,0.0,0.0,0.0,193.0,1.0,155.0,0.0,44.0,3.0,251.0,411.0,44.0,1019.0,1744252606.7209923,0.0,2025-04-09 22:36:46.720,STOP,4
129.0,18497.65551062292,3361.255331189076,-66178.4191344284,-64590.55120832339,-38559.57550520605,-36250.61795122838,-31773.00474321899,-22895.92002581597,0.0,0.0,0.0,193.0,1.0,155.0,0.0,44.0,3.0,252.0,411.0,44.0,1020.0,1744252606.721006,0.0,2025-04-09 22:36:46.721,STOP,4
130.0,18619.092538248606,3414.653648692805,-66152.82638702707,-64604.85632477479,-38511.5416063716,-36188.43539815371,-32011.073173412464,-22856.603307319085,0.0,0.0,0.0,193.0,1.0,155.0,0.0,44.0,3.0,252.0,411.0,44.0,1020.0,1744252606.7210145,0.0,2025-04-09 22:36:46.721,STOP,4
131.0,18561.29092708718,3429.674020966771,-66092.92371188685,-64533.84483264027,-38439.65839620333,-36126.52106601251,-32108.280910048594,-22795.47128623382,0.0,0.0,0.0,193.0,1.0,155.0,0.0,44.0,3.0,251.0,411.0,44.0,1019.0,1744252606.721023,0.0,2025-04-09 22:36:46.721,STOP,4
132.0,18463.233824161747,3392.212497259676,-66153.27342191618,-64608.83493528783,-38481.52321356812,-36173.07974971292,-31891.938375465677,-22831.837574462603,0.0,0.0,0.0,193.0,1.0,155.0,0.0,44.0,3.0,251.0,411.0,44.0,1019.0,1744252606.721032,0.0,2025-04-09 22:36:46.721,STOP,4
133.0,18466.98891723024,3354.5051043635735,-66176.13925649396,-64600.005996227985,-38548.13141204493,-36233.74238416462,-31851.213497068107,-22878.10568548509,0.0,0.0,0.0,193.0,1.0,154.0,0.0,44.0,3.0,251.0,410.0,44.0,1019.0,1744252606.7210405,0.0,2025-04-09 22:36:46.721,STOP,4
134.0,18615.20333471338,3403.7236456541596,-66163.48816913225,-64603.716385807566,-38529.13242925792,-36209.78131410853,-31869.385465310275,-22860.537214343218,0.0,0.0,0.0,193.0,1.0,154.0,0.0,44.0,3.0,250.0,410.0,44.0,1018.0,1744252606.7210493,0.0,2025-04-09 22:36:46.721,STOP,4
135.0,18573.67379351542,3428.064695365989,-66086.62051995046,-64538.33753327579,-38429.13072456488,-36116.41807751871,-32174.486777125214,-22772.247823744754,0.0,0.0,0.0,193.0,1.0,154.0,0.0,44.0,3.0,249.0,410.0,44.0,1017.0,1744252606.721058,0.0,2025-04-09 22:36:46.721,STOP,4
136.0,18483.529208127165,3401.1755467862545,-66146.88082300196,-64597.68141480463,-38473.25306811966,-36169.30230489997,-31849.44770925614,-22823.790946458692,0.0,0.0,0.0,193.0,1.0,155.0,0.0,44.0,3.0,251.0,411.0,44.0,1019.0,1744252606.7210665,0.0,2025-04-09 22:36:46.721,STOP,4
137.0,18445.575946042056,3352.6275578293275,-66174.14995123744,-64609.77370855495,-38530.540589158605,-36225.4498869717,-31907.875169262312,-22880.609080864084,0.0,0.0,0.0,193.0,1.0,155.0,0.0,44.0,3.0,250.0,411.0,44.0,1018.0,1744252606.721075,0.0,2025-04-09 22:36:46.721,STOP,4
138.0,18605.837953786606,3392.9724565711567,-66177.39095418346,-64601.70472880659,-38553.92051385886,-36242.481916246645,-31760.86774597976,-22898.602235150604,0.0,0.0,0.0,193.0,1.0,155.0,0.0,44.0,3.0,250.0,411.0,44.0,1018.0,1744252606.7210836,0.0,2025-04-09 22:36:46.721,STOP,4
139.0,18588.96238672285,3429.226986077665,-66097.9528543893,-64556.33068756232,-38441.80416367104,-36126.43165903469,-32244.671254714878,-22799.360489769042,0.0,0.0,0.0,193.0,1.0,154.0,0.0,44.0,3.0,250.0,410.0,44.0,1018.0,1744252606.721092,0.0,2025-04-09 22:36:46.721,STOP,4
140.0,18517.43680446587,3421.5603377294947,-66133.53683156215,-64577.38603083921,-38468.42509131731,-36161.70271178517,-31864.892764674758,-22824.57325751463,0.0,0.0,0.0,193.0,1.0,154.0,0.0,44.0,3.0,248.0,410.0,44.0,1016.0,1744252606.7211008,0.0,2025-04-09 22:36:46.721,STOP,4
141.0,18445.866518719973,3372.0959272499,-66168.7184773348,-64614.10994697928,-38513.77678081713,-36206.137979762316,-31954.70207389618,-22864.67228706745,0.0,0.0,0.0,193.0,1.0,154.0,0.0,44.0,3.0,249.0,410.0,44.0,1017.0,1744252606.7211094,0.0,2025-04-09 22:36:46.721,STOP,4
142.0,18586.570750066134,3386.803375101492,-66187.62805314398,-64600.83301077283,-38568.605609966,-36257.52464026507,-31699.623966172217,-22908.30289224421,0.0,0.0,0.0,193.0,1.0,154.0,0.0,44.0,3.0,249.0,410.0,44.0,1017.0,1744252606.7211182,0.0,2025-04-09 22:36:46.721,STOP,4
143.0,18596.271407159737,3421.7167999406815,-66115.36486331998,-64579.42003958465,-38452.01891088711,-36134.478287038604,-32252.80728969661,-22804.948425882867,0.0,0.0,0.0,193.0,1.0,154.0,0.0,44.0,3.0,249.0,410.0,44.0,1017.0,1744252606.721131,0.0,2025-04-09 22:36:46.721,STOP,4
144.0,18533.150080817948,3428.936413399746,-66123.29973260162,-64559.37052480823,-38455.59518999996,-36148.872810467816,-31888.16093065273,-22809.41877477393,0.0,0.0,0.0,193.0,1.0,154.0,0.0,44.0,3.0,250.0,410.0,44.0,1018.0,1744252606.72114,0.0,2025-04-09 22:36:46.721,STOP,4
145.0,18444.301896608104,3380.902514565291,-66162.6164510985,-64612.76884231196,-38493.79432127409,-36184.881470785316,-31966.90612636878,-22848.780196759726,0.0,0.0,0.0,193.0,1.0,154.0,0.0,44.0,3.0,251.0,410.0,44.0,1019.0,1744252606.7211485,0.0,2025-04-09 22:36:46.721,STOP,4
146.0,18564.86720620003,3389.127956524844,-66178.86616931751,-64582.54928380839,-38565.78929016463,-36253.12134660737,-31687.777541610903,-22909.174610277965,0.0,0.0,0.0,193.0,1.0,155.0,0.0,44.0,3.0,252.0,411.0,44.0,1020.0,1744252606.7211573,0.0,2025-04-09 22:36:46.721,STOP,4
147.0,18609.92832302193,3419.280459795053,-66129.357055349,-64594.01572871396,-38469.90030645136,-36151.48796456909,-32199.543082659613,-22830.94350468439,0.0,0.0,0.0,193.0,1.0,155.0,0.0,44.0,3.0,252.0,411.0,44.0,1020.0,1744252606.721166,0.0,2025-04-09 22:36:46.721,STOP,4
148.0,18552.57374674961,3431.6856779677487,-66104.99365389271,-64541.5338327329,-38442.18414332678,-36143.01665342053,-31950.41053896076,-22817.308940566654,0.0,0.0,0.0,193.0,1.0,155.0,0.0,44.0,3.0,251.0,411.0,44.0,1019.0,1744252606.7211747,0.0,2025-04-09 22:36:46.721,STOP,4
149.0,18444.547765797113,3379.226133731143,-66161.1635877089,-64622.000112772,-38487.08879793749,-36187.09429348639,-31950.36583547185,-22857.027990463735,0.0,0.0,0.0,193.0,1.0,155.0,0.0,44.0,3.0,252.0,411.0,44.0,1020.0,1744252606.7211833,0.0,2025-04-09 22:36:46.721,STOP,4
150.0,18527.942124359863,3366.0162527580565,-66174.35111693754,-64587.35490886628,-38555.17221154836,-36252.763718696086,-31724.613216473248,-22907.43117421045,0.0,0.0,0.0,193.0,1.0,155.0,0.0,44.0,3.0,251.0,411.0,44.0,1019.0,1744252606.721192,0.0,2025-04-09 22:36:46.721,STOP,4
151.0,18615.87388704704,3407.5681457004725,-66142.32106713307,-64609.21491494357,-38489.99452471668,-36176.20899393666,-32090.801845884544,-22853.675228795437,0.0,0.0,0.0,193.0,1.0,155.0,0.0,44.0,3.0,251.0,411.0,44.0,1019.0,1744252606.7212005,0.0,2025-04-09 22:36:46.721,STOP,4
152.0,18551.85849092704,3423.795512175025,-66097.9528543893,-64542.83023391131,-38443.48054450519,-36139.10509814085,-32034.654263812816,-22811.162210841445,0.0,0.0,0.0,193.0,1.0,155.0,0.0,44.0,3.0,251.0,411.0,44.0,1019.0,1744252606.7212088,0.0,2025-04-09 22:36:46.721,STOP,4
153.0,18448.88400422144,3383.2270959886428,-66156.82734928458,-64622.62596161675,-38486.440597348286,-36185.03793299651,-31919.721593823626,-22859.486682353818,0.0,0.0,0.0,193.0,1.0,154.0,0.0,44.0,3.0,250.0,410.0,44.0,1018.0,1744252606.7212176,0.0,2025-04-09 22:36:46.721,STOP,4
154.0,18493.408679176413,3364.0045957570787,-66162.97407900979,-64588.36073736677,-38539.973025318744,-36242.32545403546,-31798.86571155378,-22901.73147937435,0.0,0.0,0.0,193.0,1.0,155.0,0.0,44.0,3.0,252.0,411.0,44.0,1020.0,1744252606.7212265,0.0,2025-04-09 22:36:46.721,STOP,4
155.0,18620.92538129394,3407.1434625558213,-66147.0149334687,-64604.610455585775,-38505.2384144352,-36196.25850871307,-31952.533954684015,-22868.986173747322,0.0,0.0,0.0,193.0,1.0,155.0,0.0,44.0,3.0,251.0,411.0,44.0,1019.0,1744252606.7212353,0.0,2025-04-09 22:36:46.721,STOP,4
156.0,18562.296755587668,3418.5652039724832,-66094.26481655418,-64547.45704501356,-38438.071422347006,-36134.81356320543,-32119.16620959833,-22810.938693396893,0.0,0.0,0.0,193.0,1.0,155.0,0.0,44.0,3.0,252.0,411.0,44.0,1020.0,1744252606.7212439,0.0,2025-04-09 22:36:46.721,STOP,4
157.0,18473.113295210995,3397.3086949954863,-66148.75836953621,-64610.779537055445,-38472.76132974164,-36171.71629330114,-31883.84704397286,-22849.540156071205,0.0,0.0,0.0,193.0,1.0,155.0,0.0,44.0,3.0,251.0,411.0,44.0,1019.0,1744252606.7212524,0.0,2025-04-09 22:36:46.721,STOP,4
158.0,18464.865501506985,3356.516761364551,-66168.89729129044,-64602.77761254044,-38531.43465893682,-36225.09225906042,-31868.960782165625,-22894.087182770632,0.0,0.0,0.0,193.0,1.0,155.0,0.0,44.0,3.0,252.0,411.0,44.0,1020.0,1744252606.7212656,0.0,2025-04-09 22:36:46.721,STOP,4
159.0,18612.275256189736,3393.0395118045226,-66174.23935821526,-64613.72996732354,-38539.25776949618,-36222.54416019251,-31830.82870612487,-22892.343746703118,0.0,0.0,0.0,193.0,1.0,155.0,0.0,44.0,3.0,252.0,411.0,44.0,1020.0,1744252606.7212744,0.0,2025-04-09 22:36:46.721,STOP,4
160.0,18567.34824983457,3417.4029132608075,-66101.3503195465,-64557.738847463,-38440.95479738174,-36123.90591191124,-32210.696603142813,-22806.04366136118,0.0,0.0,0.0,193.0,1.0,154.0,0.0,44.0,3.0,249.0,410.0,44.0,1017.0,1744252606.7212827,0.0,2025-04-09 22:36:46.721,STOP,4
161.0,18486.099658739528,3408.998657345612,-66141.69521828834,-64592.47345834655,-38468.06746340603,-36152.42673783621,-31868.379636809786,-22830.85409770657,0.0,0.0,0.0,193.0,1.0,154.0,0.0,44.0,3.0,249.0,410.0,44.0,1017.0,1744252606.7212913,0.0,2025-04-09 22:36:46.721,STOP,4
162.0,18435.919992437364,3359.1766189547325,-66173.38999192596,-64617.10508073629,-38523.276272210634,-36210.183645508725,-31924.594274114883,-22881.413743664474,0.0,0.0,0.0,193.0,1.0,154.0,0.0,44.0,3.0,251.0,410.0,44.0,1019.0,1744252606.7213001,0.0,2025-04-09 22:36:46.721,STOP,4
163.0,18593.365680380546,3382.5565436549837,-66181.92835830788,-64608.03027248744,-38556.44626098231,-36239.755003423095,-31711.045707588877,-22914.136697547045,0.0,0.0,0.0,193.0,1.0,154.0,0.0,44.0,3.0,251.0,410.0,44.0,1019.0,1744252606.7213087,0.0,2025-04-09 22:36:46.721,STOP,4
164.0,18577.272424372724,3411.345590513419,-66109.57576150606,-64571.99926042548,-38445.20162882825,-36125.09055436737,-32193.686925612325,-22817.37599580002,0.0,0.0,0.0,193.0,1.0,154.0,0.0,44.0,3.0,250.0,410.0,44.0,1018.0,1744252606.7213173,0.0,2025-04-09 22:36:46.721,STOP,4
165.0,18498.884856567962,3401.8237473754584,-66145.98675322375,-64586.55024606589,-38474.14713789787,-36161.90387748526,-31797.278737697452,-22840.018312933247,0.0,0.0,0.0,193.0,1.0,155.0,0.0,44.0,3.0,252.0,411.0,44.0,1020.0,1744252606.721326,0.0,2025-04-09 22:36:46.721,STOP,4
166.0,18427.40397779989,3358.28254917652,-66173.1664744814,-64621.1507464827,-38513.66502209485,-36196.414970924256,-31894.08414293339,-22871.48956912632,0.0,0.0,0.0,193.0,1.0,155.0,0.0,44.0,3.0,253.0,411.0,44.0,1021.0,1744252606.7213347,0.0,2025-04-09 22:36:46.721,STOP,4
167.0,18575.57369179412,3385.283456478531,-66175.37929718249,-64590.95353972358,-38561.20718255129,-36246.393471526324,-31610.373450562176,-22910.403956223006,0.0,0.0,0.0,193.0,1.0,154.0,0.0,44.0,3.0,249.0,410.0,44.0,1017.0,1744252606.7213433,0.0,2025-04-09 22:36:46.721,STOP,4
168.0,18592.471610602333,3421.493282496129,-66112.74970921871,-64583.80098149789,-38453.51647776562,-36134.679452738696,-32158.706445539767,-22823.075690636124,0.0,0.0,0.0,193.0,1.0,154.0,0.0,44.0,3.0,249.0,410.0,44.0,1017.0,1744252606.721352,0.0,2025-04-09 22:36:46.721,STOP,4
169.0,18512.586475919066,3412.999619603112,-66131.4581193278,-64572.78157148142,-38472.247239619166,-36159.06520593944,-31832.59449393684,-22835.436205319907,0.0,0.0,0.0,193.0,1.0,154.0,0.0,44.0,3.0,251.0,410.0,44.0,1019.0,1744252606.7213607,0.0,2025-04-09 22:36:46.721,STOP,4
170.0,18423.335960309025,3370.6654156047603,-66170.88659654696,-64634.02535128896,-38505.596042346486,-36194.0903895009,-31901.393163370274,-22871.690734826414,0.0,0.0,0.0,193.0,1.0,154.0,0.0,44.0,3.0,250.0,410.0,44.0,1018.0,1744252606.7213693,0.0,2025-04-09 22:36:46.721,STOP,4
171.0,18548.930412403395,3386.1998780011986,-66167.0644482451,-64583.376298353236,-38553.898162114405,-36246.952265137705,-31616.274311098376,-22915.05311906971,0.0,0.0,0.0,193.0,1.0,154.0,0.0,44.0,3.0,250.0,410.0,44.0,1018.0,1744252606.721378,0.0,2025-04-09 22:36:46.721,STOP,4
172.0,18597.52310484923,3414.005448103601,-66133.87210772898,-64607.337368409324,-38479.80212924506,-36164.96606647564,-32088.49961620565,-22856.648010807992,0.0,0.0,0.0,193.0,1.0,155.0,0.0,44.0,3.0,252.0,411.0,44.0,1020.0,1744252606.7213864,0.0,2025-04-09 22:36:46.721,STOP,4
173.0,18535.4746622413,3424.1978435752208,-66106.51357251569,-64551.59211773779,-38452.46594577622,-36147.59876103386,-31901.907253492744,-22826.964894171346,0.0,0.0,0.0,193.0,1.0,155.0,0.0,44.0,3.0,251.0,411.0,44.0,1019.0,1744252606.7213998,0.0,2025-04-09 22:36:46.721,STOP,4
174.0,18444.525414052656,3386.1998780011986,-66148.95953523631,-64617.127432480745,-38479.06452167803,-36175.940773003196,-31868.0220088985,-22854.837519507113,0.0,0.0,0.0,193.0,1.0,155.0,0.0,44.0,3.0,252.0,411.0,44.0,1020.0,1744252606.7214084,0.0,2025-04-09 22:36:46.721,STOP,4
175.0,18510.351301473536,3362.4399736452074,-66170.0148785132,-64589.12069667825,-38556.46861272676,-36254.283637319044,-31656.350988906743,-22919.67993017196,0.0,0.0,0.0,193.0,1.0,155.0,0.0,44.0,3.0,251.0,411.0,44.0,1019.0,1744252606.7214172,0.0,2025-04-09 22:36:46.721,STOP,4
176.0,18606.620264842542,3406.4282067332515,-66147.05963695761,-64613.774670812454,-38500.52219635513,-36185.88729928581,-31978.238460807617,-22872.00365924879,0.0,0.0,0.0,193.0,1.0,155.0,0.0,44.0,3.0,252.0,411.0,44.0,1020.0,1744252606.7214262,0.0,2025-04-09 22:36:46.721,STOP,4
177.0,18544.393008278967,3420.6662679512824,-66095.56121773258,-64544.148986834174,-38438.831381658485,-36133.18188586019,-31985.7486469446,-22804.814315416137,0.0,0.0,0.0,193.0,1.0,154.0,0.0,44.0,3.0,251.0,410.0,44.0,1019.0,1744252606.7214346,0.0,2025-04-09 22:36:46.721,STOP,4
178.0,18452.5049868232,3386.937485568224,-66147.08198870206,-64613.50644987899,-38472.381350085896,-36167.06713045444,-31824.324348488375,-22839.683036766415,0.0,0.0,0.0,193.0,1.0,154.0,0.0,44.0,3.0,249.0,410.0,44.0,1017.0,1744252606.7214432,0.0,2025-04-09 22:36:46.721,STOP,4
179.0,18471.839245777042,3351.129990950822,-66169.50078839074,-64600.09540320581,-38547.952598089294,-36240.872590645864,-31731.989292143502,-22904.748964875816,0.0,0.0,0.0,193.0,1.0,154.0,0.0,44.0,3.0,250.0,410.0,44.0,1018.0,1744252606.7214518,0.0,2025-04-09 22:36:46.721,STOP,4
180.0,18604.139221208003,3394.0453403050115,-66164.89632903294,-64622.89418255022,-38535.94971131679,-36212.95526182118,-31851.1687935792,-22890.33208970214,0.0,0.0,0.0,193.0,1.0,154.0,0.0,45.0,3.0,249.0,410.0,45.0,1017.0,1744252606.7214603,0.0,2025-04-09 22:36:46.721,STOP,4
181.0,18558.407552052446,3419.6604394507935,-66089.5485984741,-64549.468702014536,-38439.50193399214,-36126.498714268055,-32086.197386526754,-22805.79779217217,0.0,0.0,0.0,193.0,1.0,154.0,0.0,44.0,3.0,249.0,410.0,44.0,1017.0,1744252606.7214692,0.0,2025-04-09 22:36:46.721,STOP,4
182.0,18474.454399878312,3403.2095555316873,-66139.39298860944,-64602.30822590688,-38472.62721927491,-36165.39074962029,-31792.607223106294,-22842.409949589965,0.0,0.0,0.0,193.0,1.0,154.0,0.0,44.0,3.0,252.0,410.0,44.0,1020.0,1744252606.7214775,0.0,2025-04-09 22:36:46.721,STOP,4
183.0,18456.103617680506,3364.518685879551,-66158.39197139644,-64598.754298538486,-38525.73496410072,-36217.962052579176,-31801.0561825104,-22887.359307689585,0.0,0.0,0.0,193.0,1.0,155.0,0.0,44.0,3.0,252.0,411.0,44.0,1020.0,1744252606.7582884,0.0,2025-04-09 22:36:46.758,STOP,4
184.0,18608.00607299877,3402.9189828537683,-66159.97894525278,-64600.073051461346,-38536.17322876135,-36215.61511941136,-31705.927158108614,-22885.884092555534,0.0,0.0,0.0,193.0,1.0,155.0,0.0,44.0,3.0,251.0,411.0,44.0,1019.0,1744252606.7583177,0.0,2025-04-09 22:36:46.758,STOP,4
185.0,18574.567863293632,3430.970422145179,-66083.91595887137,-64546.76414093544,-38430.18125655428,-36108.259690792525,-32135.259465606152,-22790.822123387115,0.0,0.0,0.0,193.0,1.0,155.0,0.0,44.0,3.0,251.0,411.0,44.0,1019.0,1744252606.7583287,0.0,2025-04-09 22:36:46.758,STOP,4
186.0,18483.775077316175,3409.222174790165,-66134.83323274055,-64587.51137107747,-38469.49797505116,-36157.09825242737,-31767.930897227634,-22829.982379672812,0.0,0.0,0.0,193.0,1.0,154.0,0.0,44.0,3.0,250.0,410.0,44.0,1018.0,1744252606.7583387,0.0,2025-04-09 22:36:46.758,STOP,4
187.0,18424.945285909806,3354.035717730012,-66167.95851802331,-64618.35677842579,-38522.20338847678,-36212.93291007673,-31854.521555247495,-22886.599348378106,0.0,0.0,0.0,193.0,1.0,154.0,0.0,44.0,3.0,250.0,410.0,44.0,1018.0,1744252606.7583477,0.0,2025-04-09 22:36:46.758,STOP,4
188.0,18582.52508431972,3384.6352558893273,-66174.84285531555,-64604.342234652315,-38557.51914471616,-36250.305026806,-31624.49975305793,-22922.049215084222,0.0,0.0,0.0,193.0,1.0,154.0,0.0,44.0,3.0,249.0,410.0,44.0,1017.0,1744252606.7583833,0.0,2025-04-09 22:36:46.758,STOP,4
189.0,18568.845816713074,3415.5253667265615,-66109.84398243952,-64584.203312898084,-38450.163716097326,-36138.76982197402,-32162.416835119348,-22825.534382526206,0.0,0.0,0.0,193.0,1.0,154.0,0.0,44.0,3.0,252.0,410.0,44.0,1020.0,1744252606.7583923,0.0,2025-04-09 22:36:46.758,STOP,4
190.0,18498.929560056873,3411.3679422578743,-66127.32304660357,-64578.324804106334,-38463.351245325954,-36156.87473498282,-31787.220452692563,-22826.51785928224,0.0,0.0,0.0,193.0,1.0,154.0,0.0,44.0,3.0,250.0,410.0,44.0,1018.0,1744252606.860271,0.0,2025-04-09 22:36:46.860,STOP,4
191.0,18417.815079428565,3357.1873136982103,-66166.19273021135,-64628.72798785305,-38506.87009178044,-36201.62292738234,-31880.717799749113,-22871.06488598167,0.0,0.0,0.0,193.0,1.0,155.0,0.0,44.0,3.0,252.0,411.0,44.0,1020.0,1744252606.8603003,0.0,2025-04-09 22:36:46.860,STOP,4
192.0,18553.19959559436,3370.9559882826793,-66180.58725364057,-64602.48703986252,-38571.220764067264,-36262.822003700974,-31596.87299691117,-22929.849973899123,0.0,0.0,0.0,193.0,1.0,155.0,0.0,44.0,3.0,251.0,411.0,44.0,1019.0,1744252606.860311,0.0,2025-04-09 22:36:46.860,STOP,4
193.0,18576.601872039064,3404.237735776632,-66124.97611343577,-64604.610455585775,-38471.80020473006,-36151.331502357905,-32136.913494695844,-22842.18643214541,0.0,0.0,0.0,193.0,1.0,155.0,0.0,44.0,3.0,251.0,411.0,44.0,1019.0,1744252606.8603213,0.0,2025-04-09 22:36:46.860,STOP,4
194.0,18516.14040328746,3414.67600043726,-66116.46009879828,-64566.83600745631,-38461.2278296027,-36151.84559248038,-31836.751918405524,-22828.8871441945,0.0,0.0,0.0,193.0,1.0,155.0,0.0,44.0,3.0,251.0,411.0,44.0,1019.0,1744252606.8603306,0.0,2025-04-09 22:36:46.860,STOP,4
195.0,18423.335960309025,3371.023043516045,-66162.0129539982,-64632.59483964382,-38499.9857544882,-36189.6423923543,-31877.722665992103,-22873.188301704922,0.0,0.0,0.0,193.0,1.0,154.0,0.0,44.0,3.0,249.0,410.0,44.0,1017.0,1744252606.8603396,0.0,2025-04-09 22:36:46.860,STOP,4
196.0,18526.153984803437,3370.061918504467,-66176.1169047495,-64596.07208920385,-38567.39861576541,-36254.66361697479,-31623.091593157245,-22931.034616355257,0.0,0.0,0.0,193.0,1.0,155.0,0.0,44.0,3.0,251.0,411.0,44.0,1019.0,1744252606.8603485,0.0,2025-04-09 22:36:46.860,STOP,4
197.0,18591.845761757584,3405.131805554844,-66141.7622735217,-64617.060377247384,-38489.34632412748,-36165.21193566465,-32056.96130477921,-22861.00660097678,0.0,0.0,0.0,193.0,1.0,155.0,0.0,44.0,3.0,251.0,411.0,44.0,1019.0,1744252606.8603573,0.0,2025-04-09 22:36:46.860,STOP,4
198.0,18524.701121413844,3409.57980270145,-66115.61073250898,-64564.95846092206,-38457.763309212125,-36146.92820870021,-31917.866399033835,-22825.355568570565,0.0,0.0,0.0,193.0,1.0,154.0,0.0,44.0,3.0,251.0,410.0,44.0,1019.0,1744252606.860366,0.0,2025-04-09 22:36:46.860,STOP,4
199.0,18425.213506843273,3369.1678487262548,-66168.9196430349,-64642.6084211598,-38496.70004805327,-36187.16134871976,-31851.68288370167,-22865.0969702121,0.0,0.0,0.0,193.0,1.0,154.0,0.0,44.0,3.0,249.0,410.0,44.0,1017.0,1744252606.8603747,0.0,2025-04-09 22:36:46.860,STOP,4
200.0,18479.148266213928,3345.296185647987,-66186.84574208806,-64617.127432480745,-38568.2032785658,-36263.51490777909,-31679.820320584815,-22929.738215176847,0.0,0.0,0.0,193.0,1.0,154.0,0.0,45.0,3.0,249.0,410.0,45.0,1017.0,1744252606.8603835,0.0,2025-04-09 22:36:46.860,STOP,4
201.0,18593.63390131401,3391.810165859481,-66162.05765748712,-64635.254697234006,-38516.3919349184,-36202.65110762729,-31934.093765508387,-22888.901578057,0.0,0.0,0.0,193.0,1.0,154.0,0.0,44.0,3.0,250.0,410.0,44.0,1018.0,1744252606.8603923,0.0,2025-04-09 22:36:46.860,STOP,4
202.0,18540.19088032137,3420.129826084355,-66101.88676141344,-64562.477417287526,-38448.330873051986,-36138.92628418521,-32012.9060164578,-22821.622827246527,0.0,0.0,0.0,193.0,1.0,154.0,0.0,44.0,3.0,250.0,410.0,44.0,1018.0,1744252606.860432,0.0,2025-04-09 22:36:46.860,STOP,4
203.0,18454.404885101903,3396.6381426618273,-66149.40657012541,-64627.23042097455,-38478.57278330002,-36177.50539511507,-31817.283548984953,-22860.291345154208,0.0,0.0,0.0,193.0,1.0,155.0,0.0,44.0,3.0,252.0,411.0,44.0,1020.0,1744252606.8604417,0.0,2025-04-09 22:36:46.860,STOP,4
204.0,18466.877158507963,3360.80829629997,-66160.9624220088,-64607.471478876054,-38537.179057261834,-36237.20690455519,-31756.33034185533,-22909.174610277965,0.0,0.0,0.0,193.0,1.0,155.0,0.0,44.0,3.0,252.0,411.0,44.0,1020.0,1744252606.8604543,0.0,2025-04-09 22:36:46.860,STOP,4
205.0,18605.16740145295,3402.963686342679,-66156.78264579567,-64622.91653429467,-38528.1936559908,-36218.40908746828,-31789.366220160275,-22893.86366532608,0.0,0.0,0.0,193.0,1.0,155.0,0.0,44.0,3.0,252.0,411.0,44.0,1020.0,1744252606.8604636,0.0,2025-04-09 22:36:46.860,STOP,4
206.0,18558.273441585712,3422.1414830853323,-66087.20166530629,-64561.47158878703,-38434.69630893425,-36133.02542364901,-32085.280965004084,-22814.671434720927,0.0,0.0,0.0,193.0,1.0,155.0,0.0,44.0,3.0,251.0,411.0,44.0,1019.0,1744252606.8604722,0.0,2025-04-09 22:36:46.860,STOP,4
207.0,18478.097734224528,3407.9928288451233,-66133.13450016195,-64605.392766641715,-38467.978056428205,-36167.044778709984,-31770.56840307336,-22845.293324624698,0.0,0.0,0.0,193.0,1.0,154.0,0.0,44.0,3.0,249.0,410.0,44.0,1017.0,1744252606.860481,0.0,2025-04-09 22:36:46.860,STOP,4
208.0,18434.400073814402,3350.526493850529,-66168.13733197896,-64622.02246451646,-38535.39091770541,-36225.51694220507,-31809.080458769855,-22895.629453138048,0.0,0.0,0.0,193.0,1.0,155.0,0.0,44.0,3.0,251.0,411.0,44.0,1019.0,1744252606.8604896,0.0,2025-04-09 22:36:46.860,STOP,4
209.0,18593.969177480838,3389.999674558601,-66170.30545119113,-64617.68622609213,-38554.74752840371,-36240.246741801115,-31678.590974639774,-22916.505982459305,0.0,0.0,0.0,193.0,1.0,154.0,0.0,45.0,3.0,249.0,410.0,45.0,1017.0,1744252606.860499,0.0,2025-04-09 22:36:46.860,STOP,4
210.0,18570.72336324732,3425.9412796427346,-66091.02381360815,-64568.2888708459,-38441.357128781936,-36121.469571765614,-32152.22443964773,-22807.295359050677,0.0,0.0,0.0,193.0,1.0,154.0,0.0,44.0,3.0,249.0,410.0,44.0,1017.0,1744252606.8605075,0.0,2025-04-09 22:36:46.860,STOP,4
211.0,18495.19681873284,3415.994753360123,-66131.12284316098,-64592.47345834655,-38469.90030645136,-36158.81933675043,-31771.261307151475,-22837.51491755425,0.0,0.0,0.0,193.0,1.0,154.0,0.0,44.0,3.0,251.0,410.0,44.0,1019.0,1744252606.8605163,0.0,2025-04-09 22:36:46.860,STOP,4
212.0,18421.257248074682,3354.3039386634755,-66170.93130003588,-64633.13128151075,-38526.092592012,-36212.150599020795,-31856.510860504015,-22889.34861294611,0.0,0.0,0.0,193.0,1.0,155.0,0.0,44.0,3.0,252.0,411.0,44.0,1020.0,1744252606.860525,0.0,2025-04-09 22:36:46.860,STOP,4
213.0,18568.599947524064,3375.0910610069113,-66184.45410543133,-64615.58516211333,-38577.591011237026,-36255.93766640874,-31608.719421472484,-22931.705168688914,0.0,0.0,0.0,193.0,1.0,155.0,0.0,44.0,3.0,252.0,411.0,44.0,1020.0,1744252606.8605337,0.0,2025-04-09 22:36:46.860,STOP,4
214.0,18577.741811006286,3416.8217679049694,-66106.1559446044,-64587.6454815442,-38456.444556289265,-36128.82329569141,-32164.294381653595,-22823.36626331404,0.0,0.0,0.0,193.0,1.0,155.0,0.0,44.0,3.0,251.0,411.0,44.0,1019.0,1744252606.860542,0.0,2025-04-09 22:36:46.860,STOP,4
215.0,18505.791545604654,3409.6692096792713,-66130.8099187386,-64583.018670441954,-38481.27734437911,-36156.87473498282,-31796.563481874884,-22841.404121089476,0.0,0.0,0.0,193.0,1.0,154.0,0.0,44.0,3.0,251.0,410.0,44.0,1019.0,1744252607.1948638,0.0,2025-04-09 22:36:47.194,STOP,4
216.0,18428.298047578104,3371.1348022383218,-66159.62131734149,-64628.48211866405,-38512.70389708327,-36183.09333122889,-31900.990831970077,-22877.524540129252,0.0,0.0,0.0,193.0,1.0,154.0,0.0,44.0,3.0,249.0,410.0,44.0,1017.0,1744252607.194899,0.0,2025-04-09 22:36:47.194,STOP,4
217.0,18556.68646772939,3382.6683023772603,-66171.04305875815,-64594.44041185861,-38574.88645015794,-36247.13107909335,-31607.959462161,-22927.324226775676,0.0,0.0,0.0,193.0,1.0,154.0,0.0,45.0,3.0,251.0,410.0,45.0,1019.0,1744252607.1949496,0.0,2025-04-09 22:36:47.194,STOP,4
218.0,18589.5882355676,3417.6264307053607,-66126.04899716962,-64607.22560968705,-38480.629143789905,-36147.48700231159,-32131.12439288192,-22842.72287401234,0.0,0.0,0.0,193.0,1.0,155.0,0.0,44.0,3.0,252.0,411.0,44.0,1020.0,1744252607.1949675,0.0,2025-04-09 22:36:47.194,STOP,4
219.0,18514.50872594222,3407.3669800003745,-66127.14423264793,-64577.073106416836,-38477.52225131062,-36159.48988908409,-31866.9714769091,-22837.984304187812,0.0,0.0,0.0,193.0,1.0,155.0,0.0,44.0,3.0,252.0,411.0,44.0,1020.0,1744252607.1949773,0.0,2025-04-09 22:36:47.194,STOP,4
220.0,18419.089128862517,3365.2115899576656,-66170.64072735795,-64646.430569461656,-38506.53481561361,-36195.02916276803,-31889.569090553417,-22877.368077918065,0.0,0.0,0.0,193.0,1.0,154.0,0.0,44.0,3.0,251.0,410.0,44.0,1019.0,1744252607.194986,0.0,2025-04-09 22:36:47.194,STOP,4
221.0,18504.718661870796,3356.159133453266,-66181.70484086333,-64612.232400445035,-38571.84661291201,-36269.23695435965,-31640.950636977035,-22939.68474145946,0.0,0.0,0.0,193.0,1.0,154.0,0.0,45.0,3.0,250.0,410.0,45.0,1018.0,1744252607.1949952,0.0,2025-04-09 22:36:47.194,STOP,4
222.0,18588.381241367013,3400.5944014304164,-66143.8633375005,-64628.77269134196,-38499.5387195991,-36183.65212484028,-32024.48422008565,-22871.221348192856,0.0,0.0,0.0,193.0,1.0,154.0,0.0,45.0,3.0,249.0,410.0,45.0,1017.0,1744252607.195004,0.0,2025-04-09 22:36:47.195,STOP,4
223.0,18529.059711582628,3415.3689045153747,-66103.87606666995,-64566.523083033935,-38461.13842262488,-36153.54432505898,-31945.828431347425,-22835.927943697923,0.0,0.0,0.0,193.0,1.0,154.0,0.0,44.0,3.0,249.0,410.0,44.0,1017.0,1744252607.1950128,0.0,2025-04-09 22:36:47.195,STOP,4
224.0,18436.769358726666,3385.708139623182,-66147.68548580236,-64631.72312161006,-38487.826405504515,-36180.344066660895,-31851.705235446127,-22861.453635865884,0.0,0.0,0.0,193.0,1.0,155.0,0.0,44.0,3.0,251.0,411.0,44.0,1019.0,1744252607.195022,0.0,2025-04-09 22:36:47.195,STOP,4
225.0,18481.450495892823,3366.865619047358,-66155.77681729518,-64594.57452232535,-38546.00799632168,-36236.29048303253,-31701.680326662106,-22904.257226497797,0.0,0.0,0.0,193.0,1.0,155.0,0.0,44.0,3.0,252.0,411.0,44.0,1020.0,1744252607.195031,0.0,2025-04-09 22:36:47.195,STOP,4
226.0,18605.323863664136,3410.518575968573,-66141.82932875506,-64615.22753420205,-38510.2899086821,-36188.94948827619,-31884.58465153988,-22872.830673793636,0.0,0.0,0.0,193.0,1.0,155.0,0.0,44.0,3.0,251.0,411.0,44.0,1019.0,1744252607.19504,0.0,2025-04-09 22:36:47.195,STOP,4
227.0,18549.220985081316,3425.829520920458,-66084.31829027156,-64549.5357572479,-38438.71962293621,-36123.03419387749,-32033.67078705678,-22807.675338706416,0.0,0.0,0.0,193.0,1.0,155.0,0.0,44.0,3.0,252.0,411.0,44.0,1020.0,1744252607.1950488,0.0,2025-04-09 22:36:47.195,STOP,4
228.0,18461.26687064968,3408.9539538567014,-66134.0062181957,-64608.0973277208,-38470.39204482938,-36159.80281350647,-31804.610109878795,-22846.254449636275,0.0,0.0,0.0,193.0,1.0,155.0,0.0,44.0,3.0,252.0,411.0,44.0,1020.0,1744252607.1950576,0.0,2025-04-09 22:36:47.195,STOP,4
229.0,18455.209547902294,3371.872409805347,-66160.13540746397,-64603.87284801875,-38538.520161929155,-36228.24385502862,-31773.496481597005,-22911.34272949013,0.0,0.0,0.0,193.0,1.0,155.0,0.0,44.0,3.0,251.0,411.0,44.0,1019.0,1744252607.1950665,0.0,2025-04-09 22:36:47.195,STOP,4
230.0,18598.059546716162,3400.2144217746763,-66164.9633842663,-64620.144917982216,-38545.18098177684,-36223.549988693,-31761.113615168768,-22907.788802121737,0.0,0.0,0.0,193.0,1.0,155.0,0.0,45.0,3.0,251.0,411.0,45.0,1019.0,1744252607.1950753,0.0,2025-04-09 22:36:47.195,STOP,4
231.0,18552.797264194163,3417.000581860612,-66092.9013601424,-64565.09257138879,-38445.60396022844,-36130.276159081004,-32119.635596231892,-22815.498449265775,0.0,0.0,0.0,193.0,1.0,154.0,0.0,44.0,3.0,250.0,410.0,44.0,1018.0,1744252607.1950839,0.0,2025-04-09 22:36:47.195,STOP,4
232.0,18478.254196435715,3409.5350992125395,-66132.53100306165,-64602.77761254044,-38472.09077740798,-36163.87083099733,-31778.9503072441,-22846.545022314196,0.0,0.0,0.0,193.0,1.0,154.0,0.0,44.0,3.0,249.0,410.0,44.0,1017.0,1744252607.1950977,0.0,2025-04-09 22:36:47.195,STOP,4
233.0,18444.257193119192,3367.469116147651,-66150.25593641472,-64608.320845165355,-38517.53187388562,-36204.99804079509,-31833.332101503864,-22883.179531476442,0.0,0.0,0.0,193.0,1.0,154.0,0.0,45.0,3.0,250.0,410.0,45.0,1018.0,1744252607.1951065,0.0,2025-04-09 22:36:47.195,STOP,4
234.0,18592.650424557974,3393.508898438084,-66166.52800637818,-64608.522010865454,-38557.742662160716,-36238.16802956677,-31654.249924927943,-22918.763508649292,0.0,0.0,0.0,193.0,1.0,154.0,0.0,45.0,3.0,250.0,410.0,45.0,1018.0,1744252607.195115,0.0,2025-04-09 22:36:47.195,STOP,4
235.0,18565.783627722696,3420.778026673559,-66097.37170903345,-64577.02840292793,-38451.03543413108,-36126.14108635677,-32174.240907936208,-22820.996978401778,0.0,0.0,0.0,193.0,1.0,154.0,0.0,44.0,3.0,250.0,410.0,44.0,1018.0,1744252607.1951237,0.0,2025-04-09 22:36:47.195,STOP,4
236.0,18488.893626796442,3408.931602112246,-66125.64666576943,-64588.00310945549,-38466.90517269435,-36153.61138029234,-31784.53824335793,-22834.47508030833,0.0,0.0,0.0,193.0,1.0,155.0,0.0,44.0,3.0,252.0,411.0,44.0,1020.0,1744252607.1951325,0.0,2025-04-09 22:36:47.195,STOP,4
237.0,18405.476916489235,3346.324365892931,-66170.93130003588,-64639.03214204695,-38521.19755997629,-36208.01552629656,-31871.397122311253,-22889.81799957967,0.0,0.0,0.0,193.0,1.0,155.0,0.0,44.0,3.0,252.0,411.0,44.0,1020.0,1744252607.1951413,0.0,2025-04-09 22:36:47.195,STOP,4
238.0,18562.654383498953,3382.1765639992436,-66171.51244539171,-64603.89519976321,-38566.16926982037,-36250.28267506155,-31607.087744127246,-22927.2124680534,0.0,0.0,0.0,193.0,1.0,155.0,0.0,45.0,3.0,252.0,411.0,45.0,1020.0,1744252607.19515,0.0,2025-04-09 22:36:47.195,STOP,4
239.0,18575.037249927194,3418.274631294564,-66107.94408416082,-64595.178019425635,-38455.86341093342,-36133.31599632693,-32156.068939694043,-22831.79287097369,0.0,0.0,0.0,193.0,1.0,155.0,0.0,44.0,3.0,251.0,411.0,44.0,1019.0,1744252607.1951585,0.0,2025-04-09 22:36:47.195,STOP,4
240.0,18504.271626981692,3416.218270804676,-66120.68457850034,-64580.87290297424,-38466.61460001643,-36151.35385410236,-31807.180560491153,-22841.24765887829,0.0,0.0,0.0,193.0,1.0,155.0,0.0,44.0,3.0,251.0,411.0,44.0,1019.0,1744252607.1951675,0.0,2025-04-09 22:36:47.195,STOP,4
241.0,18404.001701355184,3359.020156743545,-66172.83119831457,-64651.61617417529,-38516.03430700711,-36198.91836630325,-31880.91896544921,-22893.975424048356,0.0,0.0,0.0,193.0,1.0,155.0,0.0,44.0,3.0,252.0,411.0,44.0,1020.0,1744252607.195176,0.0,2025-04-09 22:36:47.195,STOP,4
242.0,18529.350284260545,3369.5925318709055,-66177.368602439,-64609.3490254103,-38574.68528445784,-36253.50132626311,-31607.06539238279,-22928.173593064977,0.0,0.0,0.0,193.0,1.0,155.0,0.0,45.0,3.0,251.0,411.0,45.0,1019.0,1744252607.1951847,0.0,2025-04-09 22:36:47.195,STOP,4
243.0,18589.744697778788,3411.2785352800533,-66122.33860759003,-64614.35581616829,-38476.315257110036,-36145.92238019972,-32099.0272878441,-22840.890030967003,0.0,0.0,0.0,193.0,1.0,155.0,0.0,44.0,3.0,251.0,411.0,44.0,1019.0,1744252607.1951933,0.0,2025-04-09 22:36:47.195,STOP,4
244.0,18523.650589424444,3418.0734655944666,-66104.43486028134,-64565.62901325572,-38457.18216385629,-36139.41802256322,-31878.482625303583,-22827.47898429382,0.0,0.0,0.0,193.0,1.0,155.0,0.0,44.0,3.0,252.0,411.0,44.0,1020.0,1744252607.1952024,0.0,2025-04-09 22:36:47.195,STOP,4
245.0,18431.784919713133,3382.511840166073,-66146.65730555741,-64632.572487899364,-38487.91581248234,-36170.196374678184,-31871.06184614442,-22860.067827709656,0.0,0.0,0.0,193.0,1.0,155.0,0.0,44.0,3.0,250.0,411.0,44.0,1018.0,1744252607.1952112,0.0,2025-04-09 22:36:47.195,STOP,4
246.0,18505.210400248816,3369.033738259523,-66160.56009060862,-64599.02251947195,-38555.28397027063,-36244.76179418109,-31648.59493358075,-22924.150279063022,0.0,0.0,0.0,193.0,1.0,155.0,0.0,45.0,3.0,250.0,411.0,45.0,1018.0,1744252607.19522,0.0,2025-04-09 22:36:47.195,STOP,4
247.0,18594.282101903213,3404.930639854746,-66140.44352059884,-64628.86209831978,-38502.39974288938,-36181.595764350386,-31977.500853240595,-22874.685868583427,0.0,0.0,0.0,193.0,1.0,155.0,0.0,45.0,3.0,251.0,411.0,45.0,1019.0,1744252607.195233,0.0,2025-04-09 22:36:47.195,STOP,4
248.0,18535.586420963577,3418.319334783475,-66090.04033685212,-64559.661097486154,-38446.587436984475,-36130.142048614274,-31965.22974553463,-22812.48096376431,0.0,0.0,0.0,193.0,1.0,155.0,0.0,44.0,3.0,252.0,411.0,44.0,1020.0,1744252607.1952417,0.0,2025-04-09 22:36:47.195,STOP,4
