Sample Index,EXG Channel 0,EXG Channel 1,EXG Channel 2,EXG Channel 3,EXG Channel 4,EXG Channel 5,EXG Channel 6,EXG Channel 7,Accel Channel 0,Accel Channel 1,Accel Channel 2,Not Used,Digital Channel 0 (D11),Digital Channel 1 (D12),Digital Channel 2 (D13),Digital Channel 3 (D17),Not Used,Digital Channel 4 (D18),Analog Channel 0,Analog Channel 1,Analog Channel 2,Timestamp,Marker Channel,Timestamp (Formatted),Stimulus_Direction,Stimulus_Number
250.0,8767.762335272115,-6708.876098260414,-20292.187665961705,-23433.658293921744,13698.355996412754,14973.29950014347,31894.46412258913,51562.32286242519,0.0,0.0,0.0,193.0,0.0,193.0,0.0,1.0,0.0,179.0,193.0,1.0,179.0,1744418902.4411397,0.0,2025-04-11 20:48:22.441,STOP,47
251.0,8762.800248003035,-6705.724502292216,-20338.902811873297,-23408.043194775964,13572.761544318384,15011.073948272939,31734.291521822397,51487.42216675546,0.0,0.0,0.0,193.0,0.0,193.0,0.0,1.0,0.0,178.0,193.0,1.0,178.0,1744418902.441173,0.0,2025-04-11 20:48:22.441,STOP,47
252.0,8775.764259787114,-6678.790650223572,-20342.568497963966,-23372.928604236677,13497.033834103804,15233.406750369877,31477.760550708837,51605.59583969067,0.0,0.0,0.0,193.0,0.0,193.0,0.0,1.0,0.0,178.0,193.0,1.0,178.0,1744418902.441224,0.0,2025-04-11 20:48:22.441,STOP,47
253.0,8786.44839363675,-6681.9869496806805,-20271.86993025183,-23374.314412392905,13641.582565496275,15212.127889648425,31553.73413011243,51660.201151394984,0.0,0.0,0.0,193.0,0.0,192.0,0.0,1.0,0.0,178.0,192.0,1.0,178.0,1744418902.4412577,0.0,2025-04-11 20:48:22.441,STOP,47
254.0,8762.196750902744,-6722.085979233501,-20285.124514713825,-23426.706901396145,13717.71260711105,15018.450023943189,31899.672079047214,51606.89224086908,0.0,0.0,0.0,193.0,0.0,192.0,0.0,1.0,0.0,178.0,192.0,1.0,178.0,1744418902.4412904,0.0,2025-04-11 20:48:22.441,STOP,47
255.0,8771.472724851696,-6694.459223086742,-20333.11371005937,-23403.237569718072,13592.49813467242,14977.501628101067,31773.496481597005,51489.2550098008,0.0,0.0,0.0,193.0,0.0,192.0,0.0,1.0,0.0,178.0,192.0,1.0,178.0,1744418902.4413235,0.0,2025-04-11 20:48:22.441,STOP,47
0.0,8784.906123269335,-6672.979196665192,-20348.447006755712,-23363.29500237644,13503.761709184851,15222.029712442127,31515.4902953494,51588.0273685488,0.0,0.0,0.0,193.0,0.0,192.0,0.0,1.0,0.0,178.0,192.0,1.0,178.0,1744418902.4414299,0.0,2025-04-11 20:48:22.441,STOP,47
1.0,8790.851687294447,-6673.582693765485,-20289.796029304987,-23369.821711757388,13603.361082477699,15243.755608052685,31504.023850443824,51654.970843192445,0.0,0.0,0.0,193.0,0.0,192.0,0.0,1.0,0.0,178.0,192.0,1.0,178.0,1744418902.4414635,0.0,2025-04-11 20:48:22.441,STOP,47
2.0,8767.985852716667,-6715.983952997202,-20279.044840221984,-23429.009131075043,13727.905002582671,15071.513065280089,31882.684753261183,51633.06613362624,0.0,0.0,0.0,193.0,0.0,193.0,0.0,1.0,0.0,179.0,193.0,1.0,179.0,1744418902.4414964,0.0,2025-04-11 20:48:22.441,STOP,47
3.0,8773.909064997324,-6713.055874473557,-20321.960189576173,-23422.10244203835,13616.660370428608,14966.146941917772,31831.365147991797,51500.49793726182,0.0,0.0,0.0,193.0,0.0,193.0,0.0,1.0,0.0,179.0,193.0,1.0,179.0,1744418902.4415293,0.0,2025-04-11 20:48:22.441,STOP,47
4.0,8761.503846824628,-6685.138545648879,-20350.5033672456,-23392.15110446824,13505.795717930285,15201.10847963196,31579.304525769297,51580.96421730092,0.0,0.0,0.0,193.0,0.0,193.0,0.0,1.0,0.0,179.0,193.0,1.0,179.0,1744418902.441562,0.0,2025-04-11 20:48:22.441,STOP,47
5.0,8779.78757378907,-6664.194961094256,-20297.105049741873,-23379.030630472975,13567.374773904656,15271.158846754892,31461.08614934518,51657.0942589157,0.0,0.0,0.0,193.0,0.0,193.0,0.0,1.0,0.0,178.0,193.0,1.0,178.0,1744418902.4415953,0.0,2025-04-11 20:48:22.441,STOP,47
6.0,8773.953768486235,-6704.271638902622,-20257.743627756077,-23409.853686076844,13736.28690675341,15129.538193886066,31812.8579035828,51642.72208723093,0.0,0.0,0.0,193.0,0.0,193.0,0.0,1.0,0.0,179.0,193.0,1.0,179.0,1744418902.4416277,0.0,2025-04-11 20:48:22.441,STOP,47
7.0,8769.192846917254,-6710.75364479466,-20311.477221426634,-23424.136450783786,13639.973239895493,14963.688250027688,31854.38744478076,51504.52125126377,0.0,0.0,0.0,193.0,0.0,193.0,0.0,1.0,0.0,179.0,193.0,1.0,179.0,1744418902.441661,0.0,2025-04-11 20:48:22.441,STOP,47
8.0,8776.59127433196,-6690.570019551518,-20347.642343955322,-23387.501941621536,13512.68005522252,15160.607118678943,31624.097421657734,51557.96427225641,0.0,0.0,0.0,193.0,0.0,193.0,0.0,1.0,0.0,178.0,193.0,1.0,178.0,1744418902.441694,0.0,2025-04-11 20:48:22.441,STOP,47
9.0,8802.765167089125,-6660.171647092301,-20313.86885808335,-23371.16281642471,13529.53327054182,15266.107352507992,31443.964713092413,51648.466485555946,0.0,0.0,0.0,193.0,0.0,193.0,0.0,1.0,0.0,179.0,193.0,1.0,179.0,1744418902.4417267,0.0,2025-04-11 20:48:22.441,STOP,47
10.0,8790.0246727496,-6696.1356039208895,-20271.78052327401,-23413.11704076732,13715.723301854528,15149.408894706834,31754.72101625455,51662.88336072962,0.0,0.0,0.0,193.0,0.0,193.0,0.0,1.0,0.0,179.0,193.0,1.0,179.0,1744418902.4417598,0.0,2025-04-11 20:48:22.441,STOP,47
11.0,8796.59608561946,-6700.315380134032,-20311.656035382275,-23432.54070669898,13664.023716929403,14942.029409650495,31859.97538089459,51517.44055955894,0.0,0.0,0.0,193.0,0.0,193.0,0.0,1.0,0.0,178.0,193.0,1.0,178.0,1744418902.4418144,0.0,2025-04-11 20:48:22.441,STOP,47
12.0,8776.121887698398,-6675.773164722105,-20348.044675355515,-23396.688508592666,13542.832558492728,15104.861868007407,31660.64252384216,51531.43275158796,0.0,0.0,0.0,193.0,0.0,192.0,0.0,1.0,0.0,178.0,192.0,1.0,178.0,1744418902.4418485,0.0,2025-04-11 20:48:22.441,STOP,47
13.0,8782.782707546081,-6658.964652891714,-20330.722073402652,-23377.354249638825,13515.406968046067,15269.415410687378,31449.977332350893,51646.18660762151,0.0,0.0,0.0,193.0,0.0,193.0,0.0,1.0,0.0,178.0,193.0,1.0,178.0,1744418902.4418817,0.0,2025-04-11 20:48:22.441,STOP,47
14.0,8765.907140482324,-6693.475746330709,-20272.473427352124,-23405.226874974596,13693.304502165855,15186.110459102449,31691.51028293494,51676.696738803,0.0,0.0,0.0,193.0,0.0,192.0,0.0,1.0,0.0,178.0,192.0,1.0,178.0,1744418902.4419148,0.0,2025-04-11 20:48:22.441,STOP,47
15.0,8762.532027069572,-6719.359066409954,-20303.520000400546,-23438.083939323897,13680.89928399316,14964.939947717185,31910.60208208586,51565.832086304676,0.0,0.0,0.0,193.0,0.0,193.0,0.0,1.0,0.0,179.0,193.0,1.0,179.0,1744418902.4420214,0.0,2025-04-11 20:48:22.442,STOP,47
16.0,8765.124829426388,-6703.466976102231,-20348.894041644817,-23404.981005785587,13552.77908477534,15058.727867451653,31726.37900428522,51524.25784161781,0.0,0.0,0.0,193.0,0.0,193.0,0.0,1.0,0.0,179.0,193.0,1.0,179.0,1744418902.4420552,0.0,2025-04-11 20:48:22.442,STOP,47
17.0,8783.319149413008,-6659.791667436561,-20342.747311919607,-23377.466008361105,13491.602360201165,15258.619518115464,31471.680876216997,51631.16623534754,0.0,0.0,0.0,193.0,0.0,193.0,0.0,1.0,0.0,179.0,193.0,1.0,179.0,1744418902.4420884,0.0,2025-04-11 20:48:22.442,STOP,47
18.0,8783.430908135284,-6676.84604845596,-20279.78244778901,-23393.760430069022,13656.915862192614,15215.81592748355,31624.83502922476,51676.0485382138,0.0,0.0,0.0,193.0,0.0,193.0,0.0,1.0,0.0,179.0,193.0,1.0,179.0,1744418902.4421213,0.0,2025-04-11 20:48:22.442,STOP,47
19.0,8766.532989327072,-6718.956735009759,-20308.035052780517,-23445.750587672068,13694.533848110897,15000.032186512017,31928.59523637238,51599.85144136566,0.0,0.0,0.0,193.0,0.0,193.0,0.0,1.0,0.0,179.0,193.0,1.0,179.0,1744418902.4421542,0.0,2025-04-11 20:48:22.442,STOP,47
20.0,8766.82356200499,-6708.965505238236,-20357.946498149216,-23419.62139840381,13564.178474447546,15007.117689504348,31772.17772867414,51514.98186766885,0.0,0.0,0.0,193.0,0.0,192.0,0.0,1.0,0.0,178.0,192.0,1.0,178.0,1744418902.4421868,0.0,2025-04-11 20:48:22.442,STOP,47
21.0,8775.563094087016,-6683.1045369034455,-20363.042695885026,-23386.496113121048,13483.600435686165,15232.4456253583,31505.320251622234,51621.487929998395,0.0,0.0,0.0,193.0,0.0,193.0,0.0,1.0,0.0,179.0,193.0,1.0,179.0,1744418902.4422195,0.0,2025-04-11 20:48:22.442,STOP,47
22.0,8782.045099979056,-6682.746908992161,-20284.00692749106,-23380.036458973464,13632.440702014053,15216.464128072756,31544.90519105258,51662.68219502953,0.0,0.0,0.0,193.0,0.0,192.0,0.0,1.0,0.0,178.0,192.0,1.0,178.0,1744418902.4422524,0.0,2025-04-11 20:48:22.442,STOP,47
23.0,8758.441657834252,-6718.04031348709,-20281.280014667514,-23432.093671809875,13737.806825376372,15025.78139612453,31907.182265184198,51611.09436882668,0.0,0.0,0.0,193.0,0.0,193.0,0.0,1.0,0.0,179.0,193.0,1.0,179.0,1744418902.4422853,0.0,2025-04-11 20:48:22.442,STOP,47
24.0,8769.617530061905,-6699.153089422356,-20326.609352422878,-23418.63792164778,13606.803251123816,14957.183892391193,31796.228205708052,51480.962512607875,0.0,0.0,0.0,193.0,0.0,192.0,0.0,1.0,0.0,178.0,192.0,1.0,178.0,1744418902.4423184,0.0,2025-04-11 20:48:22.442,STOP,47
25.0,8784.816716291514,-6665.26784482811,-20345.54127997652,-23384.797380542444,13513.708235467462,15201.779031965618,31549.37553994364,51581.94769405696,0.0,0.0,0.0,193.0,0.0,193.0,0.0,1.0,0.0,179.0,193.0,1.0,179.0,1744418902.442351,0.0,2025-04-11 20:48:22.442,STOP,47
26.0,8781.665120323316,-6670.811077453027,-20299.764907332054,-23392.195807957152,13594.286274228845,15228.332904378523,31515.020908715836,51663.08452642972,0.0,0.0,0.0,193.0,0.0,192.0,0.0,1.0,0.0,179.0,192.0,1.0,179.0,1744418902.442384,0.0,2025-04-11 20:48:22.442,STOP,47
27.0,8761.749716013637,-6710.194851183278,-20281.861160023353,-23438.575677701912,13728.642610149696,15053.430504015745,31879.801378226446,51644.64433725409,0.0,0.0,0.0,193.0,0.0,193.0,0.0,1.0,0.0,179.0,193.0,1.0,179.0,1744418902.4424329,0.0,2025-04-11 20:48:22.442,STOP,47
28.0,8770.668062051303,-6709.367836638432,-20331.392625736313,-23436.184041045195,13616.660370428608,14918.694188439154,31838.92003761769,51501.99550414032,0.0,0.0,0.0,193.0,0.0,193.0,0.0,1.0,0.0,179.0,193.0,1.0,179.0,1744418902.442466,0.0,2025-04-11 20:48:22.442,STOP,47
29.0,8766.085954437965,-6679.841182212971,-20359.041733627528,-23396.509694637025,13496.251523047868,15155.488569198676,31591.240357308434,51579.466650422415,0.0,0.0,0.0,193.0,0.0,193.0,0.0,1.0,0.0,179.0,193.0,1.0,179.0,1744418902.4424992,0.0,2025-04-11 20:48:22.442,STOP,47
30.0,8773.037346963567,-6664.440830283264,-20314.539410417012,-23380.796418284943,13543.637221293118,15248.672991832853,31468.350466293155,51677.344939392206,0.0,0.0,0.0,193.0,0.0,193.0,0.0,1.0,0.0,179.0,193.0,1.0,179.0,1744418902.442532,0.0,2025-04-11 20:48:22.442,STOP,47
31.0,8765.080125937477,-6718.286182676099,-20271.132322684804,-23415.39691870176,13717.936124555603,15115.23307743467,31825.598397922327,51685.70449181849,0.0,0.0,0.0,193.0,0.0,193.0,0.0,1.0,0.0,179.0,193.0,1.0,179.0,1744418902.4426527,0.0,2025-04-11 20:48:22.442,STOP,47
32.0,8761.459143335718,-6723.717656578739,-20318.562724418967,-23430.082014808897,13628.640905456652,14934.72038921361,31875.688657246672,51538.27238539128,0.0,0.0,0.0,193.0,0.0,193.0,0.0,1.0,0.0,178.0,193.0,1.0,178.0,1744418902.4426873,0.0,2025-04-11 20:48:22.442,STOP,47
33.0,8758.888692723358,-6687.865458472426,-20347.619992210864,-23387.837217788365,13509.036720876304,15131.61690612041,31646.02448296839,51568.53664738377,0.0,0.0,0.0,193.0,0.0,193.0,0.0,1.0,0.0,179.0,193.0,1.0,179.0,1744418902.44272,0.0,2025-04-11 20:48:22.442,STOP,47
34.0,8773.171457430299,-6670.855780941937,-20326.609352422878,-23382.85277877483,13511.540116255299,15263.02281177316,31467.590506981673,51671.13115443363,0.0,0.0,0.0,193.0,0.0,193.0,0.0,1.0,0.0,179.0,193.0,1.0,179.0,1744418902.442753,0.0,2025-04-11 20:48:22.442,STOP,47
35.0,8766.421230604796,-6705.746854036672,-20287.091468225895,-23427.01982581852,13677.121839180212,15138.970630046206,31751.725882497536,51683.80459353979,0.0,0.0,0.0,193.0,0.0,193.0,0.0,1.0,0.0,179.0,193.0,1.0,179.0,1744418902.442786,0.0,2025-04-11 20:48:22.442,STOP,47
36.0,8783.319149413008,-6692.4922695746745,-20317.55689591848,-23446.01880860553,13637.760417194417,14921.28699079597,31876.336857835875,51538.54060632475,0.0,0.0,0.0,193.0,0.0,193.0,0.0,0.0,0.0,179.0,193.0,0.0,179.0,1744418902.442819,0.0,2025-04-11 20:48:22.442,STOP,47
37.0,8780.838105778468,-6680.623493268907,-20345.608335209887,-23396.77791557049,13539.032761935327,15089.126239910871,31695.041858558878,51547.794228529245,0.0,0.0,0.0,193.0,0.0,193.0,0.0,1.0,0.0,179.0,193.0,1.0,179.0,1744418902.442852,0.0,2025-04-11 20:48:22.442,STOP,47
38.0,8774.534913842072,-6673.470935043209,-20322.67544539874,-23367.05009544493,13501.52653473932,15264.945061796316,31469.378646538098,51658.256549627375,0.0,0.0,0.0,193.0,0.0,193.0,0.0,0.0,0.0,179.0,193.0,0.0,179.0,1744418902.4428852,0.0,2025-04-11 20:48:22.442,STOP,47
39.0,8774.154934186332,-6688.044272428068,-20259.375305101312,-23388.731287566578,13670.528074565897,15188.189171336791,31677.160462994634,51679.98244523793,0.0,0.0,0.0,193.0,0.0,193.0,0.0,0.0,0.0,179.0,193.0,0.0,179.0,1744418902.442918,0.0,2025-04-11 20:48:22.442,STOP,47
40.0,8780.9722162452,-6704.718673791728,-20284.275148424524,-23432.92068635472,13673.61261530073,14971.846636753875,31913.910140265245,51570.5706561292,0.0,0.0,0.0,193.0,0.0,193.0,0.0,1.0,0.0,178.0,193.0,1.0,178.0,1744418902.4429505,0.0,2025-04-11 20:48:22.442,STOP,47
41.0,8783.87794302439,-6682.121060147412,-20325.581172177932,-23399.996566772053,13549.225157406945,15043.081646332937,31735.073832878334,51518.53579503725,0.0,0.0,0.0,193.0,0.0,193.0,0.0,0.0,0.0,178.0,193.0,0.0,178.0,1744418902.4429834,0.0,2025-04-11 20:48:22.442,STOP,47
42.0,8789.354120415941,-6655.254263312133,-20329.26921001306,-23374.314412392905,13489.456592733455,15248.672991832853,31491.395114826577,51631.65797372556,0.0,0.0,0.0,193.0,0.0,193.0,0.0,0.0,0.0,178.0,193.0,0.0,178.0,1744418902.443032,0.0,2025-04-11 20:48:22.443,STOP,47
43.0,8791.522239628106,-6670.028766397091,-20266.63962204929,-23389.737116067066,13639.682667217574,15203.00837791066,31611.356927318207,51675.6462068136,0.0,0.0,0.0,193.0,0.0,192.0,0.0,0.0,0.0,178.0,192.0,0.0,178.0,1744418902.4430647,0.0,2025-04-11 20:48:22.443,STOP,47
44.0,8776.658329565327,-6697.409653354843,-20286.4879711256,-23441.8837358813,13696.120821967224,14995.986520765606,31926.918855538235,51611.474348482414,0.0,0.0,0.0,193.0,0.0,192.0,0.0,0.0,0.0,178.0,192.0,0.0,178.0,1744418902.4430976,0.0,2025-04-11 20:48:22.443,STOP,47
45.0,8790.561114616528,-6676.734289733683,-20320.88730584232,-23408.95961629863,13568.984099505436,14998.087584744406,31782.370124145764,51518.06640840369,0.0,0.0,0.0,193.0,0.0,193.0,0.0,0.0,0.0,179.0,193.0,0.0,179.0,1744418902.44313,0.0,2025-04-11 20:48:22.443,STOP,47
46.0,8795.769071074614,-6659.925777903292,-20337.338189761424,-23378.404781628225,13485.612092687143,15241.2969161626,31535.696272336994,51635.16719760504,0.0,0.0,0.0,193.0,0.0,193.0,0.0,0.0,0.0,179.0,193.0,0.0,179.0,1744418902.4432473,0.0,2025-04-11 20:48:22.443,STOP,47
47.0,8799.859440309936,-6657.623548224396,-20277.569625087934,-23380.282328162473,13604.702187145018,15229.718712534752,31553.86824057916,51690.75598606539,0.0,0.0,0.0,193.0,0.0,193.0,0.0,0.0,0.0,179.0,193.0,0.0,179.0,1744418902.443281,0.0,2025-04-11 20:48:22.443,STOP,47
48.0,8779.608759833427,-6687.619589283418,-20267.5336918275,-23424.20350601715,13715.231563476511,15045.428579500745,31911.31733790843,51647.617119266644,0.0,0.0,0.0,193.0,0.0,193.0,0.0,0.0,0.0,179.0,193.0,0.0,179.0,1744418902.4433136,0.0,2025-04-11 20:48:22.443,STOP,47
49.0,8781.285140667575,-6676.1754961223005,-20319.345035474904,-23419.44258444817,13590.97821604946,14972.67365129872,31836.55075270543,51530.5610335542,0.0,0.0,0.0,193.0,0.0,193.0,0.0,0.0,0.0,179.0,193.0,0.0,179.0,1744418902.443346,0.0,2025-04-11 20:48:22.443,STOP,47
50.0,8794.69618734076,-6630.063847311002,-20345.87655614335,-23385.043249731454,13482.080517063203,15200.616741253942,31580.39976124761,51619.520976486325,0.0,0.0,0.0,193.0,0.0,193.0,0.0,0.0,0.0,179.0,193.0,0.0,179.0,1744418902.4433784,0.0,2025-04-11 20:48:22.443,STOP,47
51.0,8815.326847473008,-6629.50505369962,-20286.91265427025,-23373.666211803702,13567.598291349208,15240.045218473104,31505.85669348916,51681.949398749995,0.0,0.0,0.0,193.0,0.0,193.0,0.0,0.0,0.0,179.0,193.0,0.0,179.0,1744418902.443411,0.0,2025-04-11 20:48:22.443,STOP,47
52.0,8794.539725129573,-6681.9869496806805,-20260.44818883517,-23416.11217452433,13719.23252573401,15079.179713628258,31871.419474055707,51656.4907618154,0.0,0.0,0.0,193.0,0.0,193.0,0.0,0.0,0.0,179.0,193.0,0.0,179.0,1744418902.4434435,0.0,2025-04-11 20:48:22.443,STOP,47
53.0,8800.015902521123,-6668.687661729773,-20304.905808556774,-23418.459107692135,13611.005379081415,14943.437569551179,31853.0686918579,51504.63300998605,0.0,0.0,0.0,193.0,0.0,193.0,0.0,0.0,0.0,178.0,193.0,0.0,178.0,1744418902.4434764,0.0,2025-04-11 20:48:22.443,STOP,47
54.0,8807.146109002366,-6646.246510296644,-20338.54518396201,-23383.210406686117,13492.42937474601,15166.396220492867,31616.721345987484,51570.48124915138,0.0,0.0,0.0,193.0,0.0,193.0,0.0,0.0,0.0,178.0,193.0,0.0,178.0,1744418902.443509,0.0,2025-04-11 20:48:22.443,STOP,47
55.0,8819.46192019724,-6632.410780478809,-20297.552084630977,-23366.80422625592,13526.269915851346,15253.858596546484,31462.360198779133,51646.70069774398,0.0,0.0,0.0,193.0,0.0,192.0,0.0,0.0,0.0,178.0,192.0,0.0,178.0,1744418902.4435415,0.0,2025-04-11 20:48:22.443,STOP,47
56.0,8794.383262918385,-6677.293083345066,-20254.86025272134,-23405.562151141425,13710.314179696345,15129.51584214161,31798.35162143131,51648.60059602268,0.0,0.0,0.0,193.0,0.0,192.0,0.0,0.0,0.0,178.0,192.0,0.0,178.0,1744418902.443574,0.0,2025-04-11 20:48:22.443,STOP,47
57.0,8790.44935589425,-6691.866420729926,-20312.03601503802,-23435.759357900544,13638.766245694906,14945.315116085425,31882.237718372075,51509.95272516641,0.0,0.0,0.0,193.0,0.0,193.0,0.0,0.0,0.0,179.0,193.0,0.0,179.0,1744418902.4436224,0.0,2025-04-11 20:48:22.443,STOP,47
58.0,8786.940132014768,-6666.385432050876,-20358.21471908268,-23406.657386619736,13518.871488436638,15129.068807252504,31665.582259366784,51539.99346971434,0.0,0.0,0.0,193.0,0.0,193.0,0.0,0.0,0.0,179.0,193.0,0.0,179.0,1744418902.4436555,0.0,2025-04-11 20:48:22.443,STOP,47
59.0,8792.639826850871,-6648.12405683089,-20334.298352515503,-23395.839142303364,13505.57220048573,15263.73806759573,31464.1259865911,51644.487875042905,0.0,0.0,0.0,193.0,0.0,193.0,0.0,0.0,0.0,179.0,193.0,0.0,179.0,1744418902.443688,0.0,2025-04-11 20:48:22.443,STOP,47
60.0,8790.002321005144,-6673.761507721128,-20271.333488384902,-23419.330825725894,13690.242313175479,15150.213557507224,31722.780373427915,51651.59572977969,0.0,0.0,0.0,193.0,0.0,193.0,0.0,0.0,0.0,179.0,193.0,0.0,179.0,1744418902.4437206,0.0,2025-04-11 20:48:22.443,STOP,47
61.0,8787.364815159419,-6684.691510759772,-20303.184724233713,-23451.83026216391,13670.349260610255,14934.183947346683,31894.50882607804,51519.72043749338,0.0,0.0,0.0,193.0,0.0,193.0,0.0,0.0,0.0,179.0,193.0,0.0,179.0,1744418902.4438207,0.0,2025-04-11 20:48:22.443,STOP,47
62.0,8784.772012802603,-6653.711992944717,-20341.182689807738,-23415.7768983575,13537.19991888999,15056.962079639683,31690.280936989897,51491.33372203514,0.0,0.0,0.0,193.0,0.0,193.0,0.0,0.0,0.0,179.0,193.0,0.0,179.0,1744418902.443854,0.0,2025-04-11 20:48:22.443,STOP,47
63.0,8782.872114523901,-6647.9452428752475,-20342.344980519414,-23398.990738271565,13486.52851420981,15250.707000578286,31465.444739513965,51608.12158681412,0.0,0.0,0.0,193.0,0.0,193.0,0.0,0.0,0.0,179.0,193.0,0.0,179.0,1744418902.4438868,0.0,2025-04-11 20:48:22.443,STOP,47
64.0,8783.721480813203,-6664.485533772175,-20281.056497222962,-23416.78272685799,13650.36680106721,15181.617758466931,31646.762090535416,51638.31879357324,0.0,0.0,0.0,193.0,0.0,193.0,0.0,0.0,0.0,179.0,193.0,0.0,179.0,1744418902.4439192,0.0,2025-04-11 20:48:22.443,STOP,47
65.0,8787.901257026346,-6674.074432143501,-20292.344128172892,-23451.137358085794,13683.13445843869,14964.112933172339,31896.36402086783,51528.571728297684,0.0,0.0,0.0,193.0,0.0,193.0,0.0,0.0,0.0,179.0,193.0,0.0,179.0,1744418902.4439516,0.0,2025-04-11 20:48:22.443,STOP,47
66.0,8788.057719237533,-6675.147315877356,-20332.331399003437,-23412.714709367123,13561.116285457168,15021.914544333762,31731.497553765483,51462.7458408768,0.0,0.0,0.0,193.0,0.0,193.0,0.0,0.0,0.0,178.0,193.0,0.0,178.0,1744418902.4439843,0.0,2025-04-11 20:48:22.443,STOP,47
67.0,8795.16557397432,-6654.9860423786695,-20337.11467231687,-23390.519427123003,13487.735508410397,15240.738122551218,31477.693495475472,51579.10902251113,0.0,0.0,0.0,193.0,0.0,193.0,0.0,0.0,0.0,178.0,193.0,0.0,178.0,1744418902.4440236,0.0,2025-04-11 20:48:22.444,STOP,47
68.0,8802.69811185576,-6660.909254659326,-20275.91559599824,-23404.846895318857,13627.478614744976,15207.47872680172,31572.1519675436,51633.22259583743,0.0,0.0,0.0,193.0,0.0,193.0,0.0,0.0,0.0,179.0,193.0,0.0,179.0,1744418902.4440565,0.0,2025-04-11 20:48:22.444,STOP,47
69.0,8785.442565136262,-6684.758565993138,-20281.34706990088,-23452.769035431033,13703.072214492824,15006.268323215047,31900.946128481166,51570.59300787366,0.0,0.0,0.0,193.0,0.0,193.0,0.0,0.0,0.0,179.0,193.0,0.0,179.0,1744418902.444089,0.0,2025-04-11 20:48:22.444,STOP,47
70.0,8790.158783216331,-6666.050155884047,-20332.487861214624,-23433.859459621843,13582.55160838981,14985.794125293985,31775.57519383135,51465.316291489165,0.0,0.0,0.0,193.0,0.0,193.0,0.0,0.0,0.0,178.0,193.0,0.0,178.0,1744418902.4441216,0.0,2025-04-11 20:48:22.444,STOP,47
71.0,8798.227762964698,-6646.939414374759,-20356.001896381607,-23405.91977905271,13483.645139175074,15222.119119419947,31511.936367981005,51566.43558340497,0.0,0.0,0.0,193.0,0.0,193.0,0.0,0.0,0.0,178.0,193.0,0.0,178.0,1744418902.444154,0.0,2025-04-11 20:48:22.444,STOP,47
72.0,8800.21706822122,-6644.391315506854,-20299.183761976215,-23411.306549466437,13578.818867065773,15236.245421915703,31513.52334183733,51633.24494758189,0.0,0.0,0.0,193.0,0.0,192.0,0.0,0.0,0.0,178.0,192.0,0.0,178.0,1744418902.4442024,0.0,2025-04-11 20:48:22.444,STOP,47
73.0,8770.623358562394,-6687.776051494605,-20287.314985670448,-23460.703904712667,13699.562990613342,15056.760913939586,31885.389314340275,51604.61236293463,0.0,0.0,0.0,193.0,0.0,192.0,0.0,0.0,0.0,178.0,192.0,0.0,178.0,1744418902.444235,0.0,2025-04-11 20:48:22.444,STOP,47
74.0,8777.440640621262,-6673.917969932315,-20336.667637427767,-23450.712674941144,13584.11623050168,14942.677610239698,31811.405040193207,51467.7973351237,0.0,0.0,0.0,193.0,0.0,193.0,0.0,0.0,0.0,179.0,193.0,0.0,179.0,1744418902.4442675,0.0,2025-04-11 20:48:22.444,STOP,47
75.0,8793.533896629084,-6643.966632362203,-20357.477111515655,-23410.323072710406,13476.984319327394,15170.151313561359,31549.688464366016,51546.38606862856,0.0,0.0,0.0,193.0,0.0,193.0,0.0,0.0,0.0,179.0,193.0,0.0,179.0,1744418902.4443,0.0,2025-04-11 20:48:22.444,STOP,47
76.0,8808.17428924731,-6644.033687595569,-20307.096279513393,-23402.030575517485,13541.647916036596,15228.15409042288,31452.011341096324,51618.22457530792,0.0,0.0,0.0,193.0,0.0,193.0,0.0,0.0,0.0,179.0,193.0,0.0,179.0,1744418902.4443853,0.0,2025-04-11 20:48:22.444,STOP,47
77.0,8781.799230790048,-6696.068548687524,-20281.905863512264,-23446.68936093919,13692.768060298928,15079.693803750732,31819.898703086223,51618.17987181901,0.0,0.0,0.0,193.0,0.0,193.0,0.0,0.0,0.0,178.0,193.0,0.0,178.0,1744418902.4444184,0.0,2025-04-11 20:48:22.444,STOP,47
78.0,8776.323053398497,-6700.449490600764,-20338.79105315102,-23462.559099502458,13593.97334980647,14919.18592681717,31837.556581205918,51486.5057452328,0.0,0.0,0.0,193.0,0.0,193.0,0.0,0.0,0.0,178.0,193.0,0.0,178.0,1744418902.444451,0.0,2025-04-11 20:48:22.444,STOP,47
79.0,8789.376472160397,-6661.7362692041725,-20369.12237037687,-23423.73411938359,13470.61407215763,15121.536269371067,31588.222871806967,51536.39483885704,0.0,0.0,0.0,193.0,0.0,193.0,0.0,0.0,0.0,178.0,193.0,0.0,178.0,1744418902.4444835,0.0,2025-04-11 20:48:22.444,STOP,47
80.0,8811.482347426694,-6629.281536255066,-20324.68710239972,-23402.96934878461,13494.441031746988,15218.811061240562,31415.80151507873,51615.49766248437,0.0,0.0,0.0,193.0,0.0,193.0,0.0,0.0,0.0,179.0,193.0,0.0,179.0,1744418902.4445164,0.0,2025-04-11 20:48:22.444,STOP,47
81.0,8779.78757378907,-6683.573923537007,-20281.4364768787,-23439.514450969036,13680.742821781972,15107.342911641947,31748.216658618054,51630.38392429161,0.0,0.0,0.0,193.0,0.0,193.0,0.0,0.0,0.0,179.0,193.0,0.0,179.0,1744418902.4445488,0.0,2025-04-11 20:48:22.444,STOP,47
82.0,8770.243378906653,-6690.748833507161,-20331.5490879475,-23469.689305983702,13610.111309303202,14904.970217343596,31846.989017366057,51494.70883544789,0.0,0.0,0.0,193.0,0.0,193.0,0.0,0.0,0.0,178.0,193.0,0.0,178.0,1744418902.444581,0.0,2025-04-11 20:48:22.444,STOP,47
83.0,8782.290969168063,-6664.3737750498985,-20363.5567860075,-23424.33761648388,13489.702461922463,15072.384783313846,31613.703860486017,51501.794338440224,0.0,0.0,0.0,193.0,0.0,192.0,0.0,0.0,0.0,178.0,192.0,0.0,178.0,1744418902.4446137,0.0,2025-04-11 20:48:22.444,STOP,47
84.0,8805.827356079502,-6641.262071283111,-20341.40620725229,-23403.304624951437,13472.692784391975,15229.4951950902,31397.204863691913,51605.39467399057,0.0,0.0,0.0,193.0,0.0,192.0,0.0,0.0,0.0,178.0,192.0,0.0,178.0,1744418902.444646,0.0,2025-04-11 20:48:22.444,STOP,47
85.0,8806.989646791179,-6654.516655745108,-20281.369421645337,-23426.617494418326,13657.765228481918,15140.691714369264,31660.396654653152,51635.16719760504,0.0,0.0,0.0,193.0,0.0,193.0,0.0,0.0,0.0,179.0,193.0,0.0,179.0,1744418902.4446783,0.0,2025-04-11 20:48:22.444,STOP,47
86.0,8807.235515980186,-6667.055984384535,-20315.008797050574,-23463.319058813937,13641.627268985185,14931.76995894551,31858.79073843846,51515.920640935976,0.0,0.0,0.0,193.0,0.0,193.0,0.0,0.0,0.0,179.0,193.0,0.0,179.0,1744418902.4447112,0.0,2025-04-11 20:48:22.444,STOP,47
87.0,8804.55330664555,-6650.2251208096895,-20360.69576271722,-23435.73700615609,13507.181526086513,15038.03015208604,31666.677494845095,51486.550448721704,0.0,0.0,0.0,193.0,0.0,193.0,0.0,0.0,0.0,179.0,193.0,0.0,179.0,1744418902.4447436,0.0,2025-04-11 20:48:22.444,STOP,47
88.0,8817.539670174083,-6619.580879161463,-20341.249745041103,-23394.25216844704,13463.975604054405,15231.551555580087,31421.143582003544,51598.08565355369,0.0,0.0,0.0,193.0,0.0,193.0,0.0,0.0,0.0,179.0,193.0,0.0,179.0,1744418902.4448235,0.0,2025-04-11 20:48:22.444,STOP,47
89.0,8799.054777509544,-6658.428211024787,-20282.129380956816,-23417.54268616947,13622.337713520255,15172.006508351149,31600.58338649075,51646.87951169962,0.0,0.0,0.0,193.0,0.0,193.0,0.0,0.0,0.0,179.0,193.0,0.0,179.0,1744418902.4448566,0.0,2025-04-11 20:48:22.444,STOP,47
90.0,8794.137393729377,-6688.983045695191,-20300.189590476704,-23462.380285546817,13656.379420325688,14948.265546353525,31878.30381134794,51550.811714030715,0.0,0.0,0.0,193.0,0.0,193.0,0.0,0.0,0.0,178.0,193.0,0.0,178.0,1744418902.4448893,0.0,2025-04-11 20:48:22.444,STOP,47
91.0,8811.482347426694,-6670.520504775108,-20350.615125967877,-23443.31424752644,13523.073616394237,14975.713488544643,31716.27601579142,51465.651567655994,0.0,0.0,0.0,193.0,0.0,193.0,0.0,0.0,0.0,178.0,193.0,0.0,178.0,1744418902.4449215,0.0,2025-04-11 20:48:22.444,STOP,47
92.0,8830.146054046876,-6629.482701955164,-20358.41588478278,-23412.49119192257,13449.46932190291,15204.19302036679,31453.84418414166,51580.29366496726,0.0,0.0,0.0,193.0,0.0,192.0,0.0,0.0,0.0,178.0,192.0,0.0,178.0,1744418902.445004,0.0,2025-04-11 20:48:22.445,STOP,47
93.0,8813.404597449851,-6653.533178989074,-20300.390756176803,-23422.035386804986,13585.12205900217,15195.699357473775,31521.86054251916,51644.912558187556,0.0,0.0,0.0,193.0,0.0,192.0,0.0,0.0,0.0,178.0,192.0,0.0,178.0,1744418902.9199283,0.0,2025-04-11 20:48:22.919,STOP,47
94.0,8783.006224990633,-6701.812947012538,-20303.274131211536,-23472.93030892972,13666.840036730771,14992.544352119488,31858.67897971618,51587.78149935979,0.0,0.0,0.0,193.0,0.0,193.0,0.0,0.0,0.0,179.0,193.0,0.0,179.0,1744418902.9201407,0.0,2025-04-11 20:48:22.920,STOP,47
95.0,8784.324977913497,-6683.976254937203,-20341.16033806328,-23449.93036388521,13545.984154460926,14943.214052106627,31741.667597492647,51466.836210112124,0.0,0.0,0.0,193.0,0.0,193.0,0.0,0.0,0.0,179.0,193.0,0.0,179.0,1744418902.920194,0.0,2025-04-11 20:48:22.920,STOP,47
96.0,8778.938207499768,-6659.948129647748,-20352.760893435585,-23407.998491287053,13456.130141750591,15190.24553182668,31488.75760898085,51569.22955146188,0.0,0.0,0.0,193.0,0.0,193.0,0.0,0.0,0.0,179.0,193.0,0.0,179.0,1744418902.9202423,0.0,2025-04-11 20:48:22.920,STOP,47
97.0,8792.773937317603,-6649.621623709396,-20297.105049741873,-23408.512581409526,13555.237776665423,15222.789671753608,31456.302876031743,51629.42279928003,0.0,0.0,0.0,193.0,0.0,193.0,0.0,0.0,0.0,179.0,193.0,0.0,179.0,1744418902.9202833,0.0,2025-04-11 20:48:22.920,STOP,47
98.0,8773.506733597129,-6678.030690912091,-20283.224616435127,-23453.73016044261,13689.728223053005,15058.102018606904,31821.195104264632,51595.828127363704,0.0,0.0,0.0,193.0,0.0,193.0,0.0,0.0,0.0,179.0,193.0,0.0,179.0,1744418902.920325,0.0,2025-04-11 20:48:22.920,STOP,47
99.0,8760.92270146879,-6691.2629236296325,-20334.387759493322,-23450.533860985503,13577.857742054195,14945.896261441263,31777.989182232523,51458.29784373019,0.0,0.0,0.0,193.0,0.0,193.0,0.0,0.0,0.0,178.0,193.0,0.0,178.0,1744418902.920378,0.0,2025-04-11 20:48:22.920,STOP,47
100.0,8767.650576549839,-6674.99085366617,-20358.92997490525,-23410.546590154958,13468.892987834572,15175.895711886373,31525.459173376465,51533.22089114439,0.0,0.0,0.0,193.0,0.0,193.0,0.0,0.0,0.0,178.0,193.0,0.0,178.0,1744418902.920427,0.0,2025-04-11 20:48:22.920,STOP,47
101.0,8773.30556789703,-6679.707071746239,-20316.707529629177,-23406.277406963996,13529.086235652714,15246.996610998704,31421.74707910384,51618.73866543039,0.0,0.0,0.0,193.0,0.0,192.0,0.0,0.0,0.0,178.0,192.0,0.0,178.0,1744418902.9204764,0.0,2025-04-11 20:48:22.920,STOP,47
102.0,8750.171512385788,-6717.28035417561,-20284.54336935799,-23444.342427771382,13696.657263834151,15109.779251787575,31794.037734751433,51631.345049303185,0.0,0.0,0.0,193.0,0.0,192.0,0.0,0.0,0.0,178.0,192.0,0.0,178.0,1744418902.920524,0.0,2025-04-11 20:48:22.920,STOP,47
103.0,8744.471817549684,-6710.75364479466,-20333.873669370852,-23458.848709922877,13604.076338300269,14941.895299183763,31833.2650462705,51492.69717844691,0.0,0.0,0.0,193.0,0.0,192.0,0.0,0.0,0.0,178.0,192.0,0.0,178.0,1744418902.9208183,0.0,2025-04-11 20:48:22.920,STOP,47
104.0,8753.501922309628,-6680.645845013362,-20369.189425610235,-23417.676796636202,13479.845342617673,15140.334086457979,31594.794284676827,51533.35500161112,0.0,0.0,0.0,193.0,0.0,193.0,0.0,0.0,0.0,179.0,193.0,0.0,179.0,1744418902.9208586,0.0,2025-04-11 20:48:22.920,STOP,47
105.0,8778.200599932743,-6661.445696526253,-20327.995160579107,-23393.089877735365,13494.329273024712,15258.440704159822,31409.45361965342,51620.437398008995,0.0,0.0,0.0,193.0,0.0,193.0,0.0,0.0,0.0,179.0,193.0,0.0,179.0,1744418902.9208918,0.0,2025-04-11 20:48:22.920,STOP,47
106.0,8762.39791660284,-6699.197792911267,-20271.087619195892,-23428.45033746366,13673.567911811819,15145.072656282504,31720.768716426937,51641.895072686086,0.0,0.0,0.0,193.0,0.0,193.0,0.0,0.0,0.0,179.0,193.0,0.0,179.0,1744418902.9209251,0.0,2025-04-11 20:48:22.920,STOP,47
107.0,8752.741962998149,-6707.020903470624,-20312.3936429493,-23455.16067208775,13623.79057690985,14938.542537515466,31852.487546502063,51514.89246069104,0.0,0.0,0.0,193.0,0.0,193.0,0.0,0.0,0.0,179.0,193.0,0.0,179.0,1744418902.9210563,0.0,2025-04-11 20:48:22.921,STOP,47
108.0,8739.666192491793,-6692.760490508139,-20353.856128913896,-23417.945017569666,13491.71411892344,15083.135972396849,31641.710596288514,51524.526062551275,0.0,0.0,0.0,193.0,0.0,193.0,0.0,0.0,0.0,179.0,193.0,0.0,179.0,1744418902.9210892,0.0,2025-04-11 20:48:22.921,STOP,47
109.0,8746.505826295117,-6682.568095036519,-20340.22156479616,-23398.744869082555,13464.534397665788,15252.003401756694,31423.334052960166,51637.0894476282,0.0,0.0,0.0,193.0,0.0,193.0,0.0,0.0,0.0,179.0,193.0,0.0,179.0,1744418902.9211216,0.0,2025-04-11 20:48:22.921,STOP,47
110.0,8749.724477496682,-6692.0228829411135,-20272.71929654113,-23418.21323850313,13645.449417287044,15172.09591532897,31652.752358049438,51668.247779398895,0.0,0.0,0.0,193.0,0.0,193.0,0.0,0.0,0.0,179.0,193.0,0.0,179.0,1744418902.921154,0.0,2025-04-11 20:48:22.921,STOP,47
111.0,8746.997564673135,-6698.191964410778,-20298.937892787206,-23453.238422064594,13655.105370891735,14960.603709292855,31870.726569977593,51557.15960945602,0.0,0.0,0.0,193.0,0.0,193.0,0.0,0.0,0.0,179.0,193.0,0.0,179.0,1744418902.921186,0.0,2025-04-11 20:48:22.921,STOP,47
112.0,8739.420323302786,-6702.572906324018,-20349.855166656394,-23430.193773531173,13522.872450694138,15044.802730655996,31691.934966079592,51517.5076147923,0.0,0.0,0.0,193.0,0.0,193.0,0.0,0.0,0.0,178.0,193.0,0.0,178.0,1744418902.921218,0.0,2025-04-11 20:48:22.921,STOP,47
113.0,8753.25605312062,-6678.254208356644,-20340.512137474077,-23399.638938860768,13455.481941161388,15240.626363828942,31425.770393105795,51620.862081153646,0.0,0.0,0.0,193.0,0.0,193.0,0.0,0.0,0.0,178.0,193.0,0.0,178.0,1744418902.92125,0.0,2025-04-11 20:48:22.921,STOP,47
114.0,8758.419306089796,-6680.2211618687115,-20270.573529073423,-23409.004319787542,13620.013132096903,15193.10655511696,31546.8944963091,51649.94170069,0.0,0.0,0.0,193.0,0.0,192.0,0.0,0.0,0.0,178.0,192.0,0.0,178.0,1744418902.9212816,0.0,2025-04-11 20:48:22.921,STOP,47
115.0,8747.243433862142,-6703.534031335596,-20283.559892601956,-23450.600916218867,13680.787525270884,14983.849523526374,31857.471985515596,51572.04587126325,0.0,0.0,0.0,193.0,0.0,193.0,0.0,0.0,0.0,179.0,193.0,0.0,179.0,1744418902.921314,0.0,2025-04-11 20:48:22.921,STOP,47
116.0,8750.752657741627,-6678.678891501295,-20328.553954190487,-23418.034424547484,13549.202805662491,15003.854334813874,31728.345957797286,51500.050902372706,0.0,0.0,0.0,193.0,0.0,193.0,0.0,0.0,0.0,179.0,193.0,0.0,179.0,1744418902.921346,0.0,2025-04-11 20:48:22.921,STOP,47
117.0,8760.654480535326,-6660.261054070122,-20335.147718804805,-23381.310508407416,13471.374031469111,15246.035485987126,31481.56034726624,51617.30815378525,0.0,0.0,0.0,193.0,0.0,193.0,0.0,0.0,0.0,179.0,193.0,0.0,179.0,1744418902.9213793,0.0,2025-04-11 20:48:22.921,STOP,47
118.0,8765.862436993413,-6673.113307131924,-20276.809665776454,-23389.714764322613,13592.609893394696,15230.121043934947,31517.814876772747,51667.957206720974,0.0,0.0,0.0,193.0,0.0,193.0,0.0,0.0,0.0,179.0,193.0,0.0,179.0,1744418902.9214487,0.0,2025-04-11 20:48:22.921,STOP,47
119.0,8751.087933908455,-6702.215278412733,-20261.364610357836,-23429.858497364345,13701.909923781148,15041.114692820871,31866.1221106198,51615.00592410636,0.0,0.0,0.0,193.0,0.0,193.0,0.0,0.0,0.0,179.0,193.0,0.0,179.0,1744418902.9214852,0.0,2025-04-11 20:48:22.921,STOP,47
120.0,8746.639936761849,-6696.448528343264,-20311.11959351535,-23422.638883905278,13577.678928098552,14981.30142465847,31777.47509211005,51500.676751217456,0.0,0.0,0.0,193.0,0.0,193.0,0.0,0.0,0.0,179.0,193.0,0.0,179.0,1744418902.921521,0.0,2025-04-11 20:48:22.921,STOP,47
121.0,8753.457218820718,-6670.587560008474,-20333.426634481744,-23385.49028462056,13470.882293091094,15215.123023405436,31513.791562770795,51597.05747330874,0.0,0.0,0.0,193.0,0.0,193.0,0.0,0.0,0.0,179.0,193.0,0.0,179.0,1744418902.9215608,0.0,2025-04-11 20:48:22.921,STOP,47
122.0,8768.58934981696,-6661.490400015164,-20275.736782042597,-23382.361040396816,13553.047305708804,15244.40380864189,31454.000646352848,51665.43145959753,0.0,0.0,0.0,193.0,0.0,193.0,0.0,0.0,0.0,179.0,193.0,0.0,179.0,1744418902.9217048,0.0,2025-04-11 20:48:22.921,STOP,47
123.0,8741.454332048217,-6699.577772567007,-20250.4793108081,-23428.45033746366,13703.47454589302,15078.352699083413,31832.080403814365,51649.025279167334,0.0,0.0,0.0,193.0,0.0,193.0,0.0,0.0,0.0,178.0,193.0,0.0,178.0,1744418902.921739,0.0,2025-04-11 20:48:22.921,STOP,47
124.0,8738.101570379922,-6700.404787111854,-20302.335357944412,-23433.97121834412,13597.92960857506,14944.28693584048,31819.49637168603,51515.51830953578,0.0,0.0,0.0,193.0,0.0,192.0,0.0,0.0,0.0,178.0,192.0,0.0,178.0,1744418902.9217713,0.0,2025-04-11 20:48:22.921,STOP,47
125.0,8752.943128698245,-6668.553551263041,-20329.4480239687,-23387.859569532822,13474.659737904041,15164.675136169808,31564.127691284146,51577.47734516589,0.0,0.0,0.0,193.0,0.0,192.0,0.0,0.0,0.0,178.0,192.0,0.0,178.0,1744418902.9218035,0.0,2025-04-11 20:48:22.921,STOP,47
126.0,8771.763297529615,-6646.0006411076365,-20284.118686213336,-23371.676906547178,13519.363226814656,15255.132645980437,31424.630454138573,51658.63652928311,0.0,0.0,0.0,193.0,0.0,192.0,0.0,0.0,0.0,178.0,192.0,0.0,178.0,1744418902.9218352,0.0,2025-04-11 20:48:22.921,STOP,47
127.0,8754.328936854476,-6685.630284026895,-20247.975915429106,-23416.983892558088,13698.154830712658,15124.84432755045,31774.81523451987,51668.873628243644,0.0,0.0,0.0,193.0,0.0,193.0,0.0,0.0,0.0,178.0,193.0,0.0,178.0,1744418902.921867,0.0,2025-04-11 20:48:22.921,STOP,47
128.0,8745.075314649977,-6698.057853944047,-20297.4403259087,-23436.720482912122,13618.984951851959,14944.91278468523,31836.34958700533,51529.57755679817,0.0,0.0,0.0,193.0,0.0,193.0,0.0,0.0,0.0,179.0,193.0,0.0,179.0,1744418902.9218993,0.0,2025-04-11 20:48:22.921,STOP,47
129.0,8751.803189731025,-6677.382490322887,-20327.123442545348,-23388.127790466286,13500.498354494377,15137.137787000871,31601.320994057776,51555.550283855235,0.0,0.0,0.0,193.0,0.0,193.0,0.0,0.0,0.0,179.0,193.0,0.0,179.0,1744418902.9219325,0.0,2025-04-11 20:48:22.921,STOP,47
130.0,8774.31139639752,-6653.242606311155,-20293.282901440016,-23368.19003441215,13509.751976698873,15271.02473628816,31403.619814350586,51644.063191898254,0.0,0.0,0.0,193.0,0.0,193.0,0.0,0.0,0.0,179.0,193.0,0.0,179.0,1744418902.921965,0.0,2025-04-11 20:48:22.921,STOP,47
131.0,8752.294928109042,-6683.998606681658,-20244.690208994176,-23404.846895318857,13680.340490381777,15168.117304815925,31704.206073785554,51669.87945674414,0.0,0.0,0.0,193.0,0.0,193.0,0.0,0.0,0.0,179.0,193.0,0.0,179.0,1744418902.9219985,0.0,2025-04-11 20:48:22.921,STOP,47
132.0,8751.713782753204,-6691.687606774284,-20279.625985577823,-23430.484346209094,13647.371667310199,14950.43366556569,31861.11531986181,51537.35596386862,0.0,0.0,0.0,193.0,0.0,193.0,0.0,0.0,0.0,179.0,193.0,0.0,179.0,1744418902.9220335,0.0,2025-04-11 20:48:22.922,STOP,47
133.0,8754.328936854476,-6667.614777995918,-20320.239105253113,-23393.894540535755,13517.642142491597,15087.092231165438,31655.568677850806,51525.353077096115,0.0,0.0,0.0,193.0,0.0,193.0,0.0,0.0,0.0,179.0,193.0,0.0,179.0,1744418902.9221132,0.0,2025-04-11 20:48:22.922,STOP,47
134.0,8771.226855662688,-6644.704239929229,-20298.4908578981,-23360.6127930418,13486.90849386555,15270.756515354697,31424.541047160754,51637.51413077285,0.0,0.0,0.0,193.0,0.0,193.0,0.0,0.0,0.0,178.0,193.0,0.0,178.0,1744418902.9221578,0.0,2025-04-11 20:48:22.922,STOP,47
135.0,8757.927567711778,-6673.60504550994,-20235.458938534135,-23383.09864796384,13666.594167541763,15204.796517467084,31644.638674812162,51681.882343516634,0.0,0.0,0.0,193.0,0.0,193.0,0.0,0.0,0.0,178.0,193.0,0.0,178.0,1744418902.9221935,0.0,2025-04-11 20:48:22.922,STOP,47
136.0,8744.807093716514,-6702.662313301839,-20264.806779003953,-23432.496003210068,13670.125743165701,14982.664881070243,31894.46412258913,51582.52883941279,0.0,0.0,0.0,193.0,0.0,192.0,0.0,0.0,0.0,178.0,192.0,0.0,178.0,1744418902.922232,0.0,2025-04-11 20:48:22.922,STOP,47
137.0,8752.339631597952,-6682.769260736616,-20307.87859056933,-23401.248264461552,13541.334991614223,15044.936841122728,31716.03014660241,51522.44735031693,0.0,0.0,0.0,193.0,0.0,193.0,0.0,0.0,0.0,178.0,193.0,0.0,178.0,1744418902.9223585,0.0,2025-04-11 20:48:22.922,STOP,47
138.0,8771.226855662688,-6651.633280710374,-20306.783355091018,-23364.367886110293,13477.00667107185,15258.150131481903,31467.076416859203,51638.117627873144,0.0,0.0,0.0,193.0,0.0,193.0,0.0,0.0,0.0,179.0,193.0,0.0,179.0,1744418902.9223917,0.0,2025-04-11 20:48:22.922,STOP,47
139.0,8773.059698708023,-6664.641995983362,-20244.220822360614,-23377.10838044982,13625.98104786647,15224.734273521219,31586.16651131708,51690.957151765484,0.0,0.0,0.0,193.0,0.0,193.0,0.0,0.0,0.0,179.0,193.0,0.0,179.0,1744418902.922424,0.0,2025-04-11 20:48:22.922,STOP,47
140.0,8765.482457337674,-6683.46216481473,-20246.25483110605,-23415.441622190672,13694.913827766637,15015.454890186178,31887.35626785234,51606.311095513236,0.0,0.0,0.0,193.0,0.0,193.0,0.0,0.0,0.0,179.0,193.0,0.0,179.0,1744418902.9224555,0.0,2025-04-11 20:48:22.922,STOP,47
141.0,8755.200654888231,-6672.822734454005,-20303.78822133401,-23403.662252862723,13566.860683782183,15016.170146008748,31762.789996002914,51518.91577469299,0.0,0.0,0.0,193.0,0.0,193.0,0.0,0.0,0.0,179.0,193.0,0.0,179.0,1744418902.9224875,0.0,2025-04-11 20:48:22.922,STOP,47
142.0,8763.761373014615,-6653.533178989074,-20316.05932903997,-23368.793531512445,13462.768609853818,15234.792558526107,31489.159940381047,51617.17404331852,0.0,0.0,0.0,193.0,0.0,192.0,0.0,0.0,0.0,178.0,192.0,0.0,178.0,1744418902.9225197,0.0,2025-04-11 20:48:22.922,STOP,47
143.0,8767.985852716667,-6659.903426158837,-20248.847633462865,-23362.065656431398,13581.456372911498,15231.082168946527,31487.52826303581,51663.017471196355,0.0,0.0,0.0,193.0,0.0,192.0,0.0,0.0,0.0,178.0,192.0,0.0,178.0,1744418902.9225512,0.0,2025-04-11 20:48:22.922,STOP,47
144.0,8741.499035537128,-6695.375644609409,-20239.638714747278,-23407.7749738425,13706.849659305772,15059.487826763134,31855.59443898135,51629.95924114696,0.0,0.0,0.0,193.0,0.0,193.0,0.0,0.0,0.0,179.0,193.0,0.0,179.0,1744418902.9225829,0.0,2025-04-11 20:48:22.922,STOP,47
145.0,8749.120980396388,-6684.222124126211,-20285.750363558574,-23395.14623822525,13582.193980478523,14981.68140431421,31775.798711275904,51504.25303033031,0.0,0.0,0.0,193.0,0.0,193.0,0.0,0.0,0.0,179.0,193.0,0.0,179.0,1744418902.9226148,0.0,2025-04-11 20:48:22.922,STOP,47
146.0,8767.985852716667,-6653.309661544521,-20312.304235971482,-23363.652630287725,13469.362374468134,15213.178421637826,31517.56900758374,51589.323769727205,0.0,0.0,0.0,193.0,0.0,193.0,0.0,0.0,0.0,179.0,193.0,0.0,179.0,1744418902.9226463,0.0,2025-04-11 20:48:22.922,STOP,47
147.0,8788.437698893273,-6634.556547946519,-20268.24894765007,-23366.781874511467,13541.022067191849,15254.663259346875,31436.74509963335,51661.43049734003,0.0,0.0,0.0,193.0,0.0,192.0,0.0,0.0,0.0,178.0,192.0,0.0,178.0,1744418902.922678,0.0,2025-04-11 20:48:22.922,STOP,47
148.0,8768.768163772604,-6672.934493176281,-20228.641656475265,-23401.82940981739,13701.306426680856,15096.569370814488,31790.260289938487,51643.34793607568,0.0,0.0,0.0,193.0,0.0,192.0,0.0,0.0,0.0,178.0,192.0,0.0,178.0,1744418902.9227297,0.0,2025-04-11 20:48:22.922,STOP,47
149.0,8762.196750902744,-6679.796478724061,-20256.693095766677,-23397.29200569296,13619.208469296513,14961.542482559978,31781.61016483428,51488.2044778114,0.0,0.0,0.0,193.0,0.0,192.0,0.0,0.0,0.0,179.0,192.0,0.0,179.0,1744418902.922762,0.0,2025-04-11 20:48:22.922,STOP,47
150.0,8757.97227120069,-6662.049193626546,-20296.658014852765,-23364.77021751049,13503.694653951485,15186.736307947196,31552.30361846729,51549.470609363394,0.0,0.0,0.0,193.0,0.0,192.0,0.0,0.0,0.0,179.0,192.0,0.0,179.0,1744418902.9227936,0.0,2025-04-11 20:48:22.922,STOP,47
151.0,8758.575768300983,-6658.718783702706,-20269.567700572934,-23363.29500237644,13523.811223961262,15282.558236427098,31416.874398812583,51640.017526151845,0.0,0.0,0.0,193.0,0.0,193.0,0.0,0.0,0.0,179.0,193.0,0.0,179.0,1744418902.922825,0.0,2025-04-11 20:48:22.922,STOP,47
152.0,8735.262898834098,-6695.509755076141,-20229.692188464665,-23402.455258662136,13692.768060298928,15150.86175809643,31751.56942028635,51645.739572732404,0.0,0.0,0.0,193.0,0.0,193.0,0.0,0.0,0.0,179.0,193.0,0.0,179.0,1744418902.9229584,0.0,2025-04-11 20:48:22.922,STOP,47
153.0,8726.858642918902,-6704.696322047273,-20274.753305286566,-23420.649578648758,13629.55732697932,14959.82139823692,31831.096927058334,51499.24623957232,0.0,0.0,0.0,193.0,0.0,193.0,0.0,0.0,0.0,179.0,193.0,0.0,179.0,1744418902.9229913,0.0,2025-04-11 20:48:22.922,STOP,47
154.0,8726.523366752073,-6696.604990554451,-20314.539410417012,-23383.00924098602,13507.181526086513,15139.887051568872,31606.216026093487,51519.63103051556,0.0,0.0,0.0,193.0,0.0,193.0,0.0,0.0,0.0,178.0,193.0,0.0,178.0,1744418902.9230227,0.0,2025-04-11 20:48:22.923,STOP,47
155.0,8745.1647216278,-6682.411632825331,-20284.342203657892,-23359.87518547478,13505.728662696918,15288.392041729932,31405.989099262846,51624.93009864451,0.0,0.0,0.0,193.0,0.0,193.0,0.0,0.0,0.0,178.0,193.0,0.0,178.0,1744418902.923054,0.0,2025-04-11 20:48:22.923,STOP,47
156.0,8712.397064256318,-6730.713752593249,-20235.883621678786,-23402.991700529063,13681.972167727015,15196.235799340702,31694.684230647592,51667.37606136514,0.0,0.0,0.0,193.0,0.0,193.0,0.0,0.0,0.0,179.0,193.0,0.0,179.0,1744418902.9230857,0.0,2025-04-11 20:48:22.923,STOP,47
157.0,8688.123069777856,-6764.755459398682,-20283.00109899057,-23442.911916126242,13647.282260332378,14975.91465424474,31876.292154346964,51550.92347275299,0.0,0.0,0.0,193.0,0.0,193.0,0.0,0.0,0.0,178.0,193.0,0.0,178.0,1744418902.9231172,0.0,2025-04-11 20:48:22.923,STOP,47
158.0,8678.757688851081,-6741.174368998333,-20320.26145699757,-23403.25992146253,13522.760691971862,15092.814277745996,31673.56183213733,51525.44248407394,0.0,0.0,0.0,193.0,0.0,193.0,0.0,0.0,0.0,179.0,193.0,0.0,179.0,1744418902.9231486,0.0,2025-04-11 20:48:22.923,STOP,47
159.0,8683.160982508776,-6719.180252454312,-20317.98157906313,-23384.10447646433,13474.391516970578,15281.239483504234,31435.2698844993,51638.542311017794,0.0,0.0,0.0,193.0,0.0,193.0,0.0,0.0,0.0,179.0,193.0,0.0,179.0,1744418902.92318,0.0,2025-04-11 20:48:22.923,STOP,47
160.0,8694.113337291878,-6724.432912401308,-20250.188738130182,-23397.180246970685,13643.08013237478,15215.659465272363,31606.998337149424,51665.20794215297,0.0,0.0,0.0,193.0,0.0,193.0,0.0,0.0,0.0,179.0,193.0,0.0,179.0,1744418902.923211,0.0,2025-04-11 20:48:22.923,STOP,47
161.0,8674.108526004378,-6749.377459213431,-20281.503532112067,-23445.92940162771,13666.728278008495,15010.358692450369,31882.30477360544,51579.44429867796,0.0,0.0,0.0,193.0,0.0,193.0,0.0,0.0,0.0,178.0,193.0,0.0,178.0,1744418902.9232428,0.0,2025-04-11 20:48:22.923,STOP,47
162.0,8682.937465064224,-6733.775941583627,-20327.01168382307,-23412.759412856034,13523.207726860968,15051.620012714866,31701.635623173195,51507.471681531875,0.0,0.0,0.0,193.0,0.0,192.0,0.0,0.0,0.0,178.0,192.0,0.0,178.0,1744418902.923274,0.0,2025-04-11 20:48:22.923,STOP,47
163.0,8703.925753107756,-6705.880964503403,-20322.31781748746,-23371.52044433599,13449.961060280928,15268.700154864808,31431.22421875289,51610.513223470836,0.0,0.0,0.0,193.0,0.0,192.0,0.0,0.0,0.0,178.0,192.0,0.0,178.0,1744418902.9233208,0.0,2025-04-11 20:48:22.923,STOP,47
164.0,8700.595343183917,-6717.190947197789,-20259.57647080141,-23387.613700343813,13596.49909692992,15244.604974341986,31524.69921406498,51666.23612239792,0.0,0.0,0.0,193.0,0.0,193.0,0.0,0.0,0.0,179.0,193.0,0.0,179.0,1744418902.923353,0.0,2025-04-11 20:48:22.923,STOP,47
165.0,8690.380595967841,-6742.493121921197,-20271.534654085,-23442.0849015814,13684.52026659492,15042.656963188287,31856.041473870457,51601.5278221998,0.0,0.0,0.0,193.0,0.0,193.0,0.0,0.0,0.0,179.0,193.0,0.0,179.0,1744418902.923385,0.0,2025-04-11 20:48:22.923,STOP,47
166.0,8698.941314094223,-6725.28227869061,-20324.620047166354,-23427.891543852278,13546.185320161025,15014.761986108064,31730.26820782044,51501.52611750676,0.0,0.0,0.0,193.0,0.0,193.0,0.0,0.0,0.0,178.0,193.0,0.0,178.0,1744418902.9234166,0.0,2025-04-11 20:48:22.923,STOP,47
167.0,8703.188145540733,-6696.359121365443,-20346.79297766602,-23394.185113213673,13439.500443875844,15254.26092794668,31470.764454694327,51613.731874672405,0.0,0.0,0.0,193.0,0.0,193.0,0.0,0.0,0.0,179.0,193.0,0.0,179.0,1744418902.9236124,0.0,2025-04-11 20:48:22.923,STOP,47
168.0,8717.739131181137,-6687.910161961337,-20285.459790880657,-23392.70989807962,13543.614869548665,15260.854692560995,31453.687721930473,51673.72395679045,0.0,0.0,0.0,193.0,0.0,193.0,0.0,0.0,0.0,179.0,193.0,0.0,179.0,1744418902.9236467,0.0,2025-04-11 20:48:22.923,STOP,47
169.0,8690.201782012198,-6723.784711812104,-20270.43941860669,-23439.000360846563,13673.590263556274,15081.88427470735,31820.524551930972,51639.6375464961,0.0,0.0,0.0,193.0,0.0,193.0,0.0,0.0,0.0,179.0,193.0,0.0,179.0,1744418902.9236789,0.0,2025-04-11 20:48:22.923,STOP,47
170.0,8691.207610512687,-6723.8964705343815,-20318.36155871887,-23428.15976478574,13564.200826192002,14984.095392715382,31772.736522285526,51516.79235896974,0.0,0.0,0.0,193.0,0.0,193.0,0.0,0.0,0.0,178.0,193.0,0.0,178.0,1744418902.92371,0.0,2025-04-11 20:48:22.923,STOP,47
171.0,8693.912171591779,-6710.910107005848,-20347.30706778849,-23387.546645110448,13452.531510893288,15214.899505960884,31524.27453092033,51604.79117689028,0.0,0.0,0.0,193.0,0.0,193.0,0.0,0.0,0.0,178.0,193.0,0.0,178.0,1744418902.9237418,0.0,2025-04-11 20:48:22.923,STOP,47
172.0,8709.379578754852,-6695.442699842775,-20294.176971218225,-23374.42617111518,13519.832613448218,15272.87993107795,31418.64018662455,51673.567494579256,0.0,0.0,0.0,193.0,0.0,192.0,0.0,0.0,0.0,178.0,192.0,0.0,178.0,1744418902.9237735,0.0,2025-04-11 20:48:22.923,STOP,47
173.0,8689.039491300522,-6738.179235241322,-20257.788331244985,-23419.509639681535,13684.766135783928,15125.09019673946,31777.989182232523,51661.89988397359,0.0,0.0,0.0,193.0,0.0,193.0,0.0,0.0,0.0,179.0,193.0,0.0,179.0,1744418902.9238052,0.0,2025-04-11 20:48:22.923,STOP,47
174.0,8688.681863389238,-6729.462054903753,-20297.507381142066,-23428.360930485836,13593.772184106372,14966.459866340145,31802.82197032237,51517.9099461925,0.0,0.0,0.0,193.0,0.0,193.0,0.0,0.0,0.0,179.0,193.0,0.0,179.0,1744418902.9238367,0.0,2025-04-11 20:48:22.923,STOP,47
175.0,8701.042378073023,-6690.860592229437,-20320.417919208758,-23381.355211896327,13475.3302902377,15176.163932819836,31573.87305186666,51572.85053406365,0.0,0.0,0.0,193.0,0.0,193.0,0.0,0.0,0.0,179.0,193.0,0.0,179.0,1744418902.9238684,0.0,2025-04-11 20:48:22.923,STOP,47
176.0,8728.780892942059,-6669.693490230262,-20276.183816931705,-23363.33970586535,13507.114470853146,15285.26279750619,31407.73253533036,51661.58695955121,0.0,0.0,0.0,193.0,0.0,193.0,0.0,0.0,0.0,178.0,193.0,0.0,178.0,1744418902.9239,0.0,2025-04-11 20:48:22.923,STOP,47
177.0,8709.49133747713,-6713.592316340485,-20239.750473469554,-23412.804116344945,13683.693252050072,15169.704278672252,31740.684120736616,51683.066985972764,0.0,0.0,0.0,193.0,0.0,193.0,0.0,0.0,0.0,179.0,193.0,0.0,179.0,1744418902.9239316,0.0,2025-04-11 20:48:22.923,STOP,47
178.0,8703.210497285187,-6727.696267091784,-20294.2887299405,-23445.527070227512,13618.783786151862,14960.179026148204,31849.425357511685,51544.41911511649,0.0,0.0,0.0,193.0,0.0,193.0,0.0,0.0,0.0,178.0,193.0,0.0,178.0,1744418902.9239633,0.0,2025-04-11 20:48:22.923,STOP,47
179.0,8696.683787904238,-6708.630229071407,-20329.559782690976,-23403.751659840545,13493.681072435507,15117.647065835843,31627.628997281674,51552.08576346467,0.0,0.0,0.0,193.0,0.0,193.0,0.0,0.0,0.0,178.0,193.0,0.0,178.0,1744418902.9240108,0.0,2025-04-11 20:48:22.924,STOP,47
180.0,8717.940296881236,-6669.8946559303595,-20292.21001770616,-23366.67011578919,13477.498409449865,15266.375573441455,31392.645107823028,51634.45194178247,0.0,0.0,0.0,193.0,0.0,193.0,0.0,0.0,0.0,179.0,193.0,0.0,179.0,1744418902.9240427,0.0,2025-04-11 20:48:22.924,STOP,47
181.0,8701.735282151138,-6712.050045973068,-20237.023560646005,-23399.01309001602,13649.2715655889,15183.67411895682,31645.26452365691,51656.0437269263,0.0,0.0,0.0,193.0,0.0,193.0,0.0,0.0,0.0,178.0,193.0,0.0,178.0,1744418902.9240742,0.0,2025-04-11 20:48:22.924,STOP,47
182.0,8688.927732578246,-6739.09565676399,-20276.25087216507,-23436.698131167668,13632.50775724742,14978.306290901459,31863.775177451993,51560.42296414649,0.0,0.0,0.0,193.0,0.0,193.0,0.0,0.0,0.0,178.0,193.0,0.0,178.0,1744418902.924106,0.0,2025-04-11 20:48:22.924,STOP,47
183.0,8703.232849029642,-6700.85182200096,-20303.40824167827,-23382.9198340082,13504.72283419643,15073.010632158594,31650.383073137175,51512.29965833422,0.0,0.0,0.0,193.0,0.0,193.0,0.0,0.0,0.0,178.0,193.0,0.0,178.0,1744418902.924214,0.0,2025-04-11 20:48:22.924,STOP,47
184.0,8719.370808526375,-6674.32030133251,-20291.383003161314,-23354.980153439064,13461.069877275215,15272.790524100128,31405.78793356275,51622.85138641017,0.0,0.0,0.0,193.0,0.0,193.0,0.0,0.0,0.0,178.0,193.0,0.0,178.0,1744418902.9242463,0.0,2025-04-11 20:48:22.924,STOP,47
185.0,8728.982058642157,-6679.572961279508,-20225.95944714063,-23371.453389102626,13630.406693268622,15219.079282174025,31567.145176785612,51665.96790146446,0.0,0.0,0.0,193.0,0.0,192.0,0.0,0.0,0.0,179.0,192.0,0.0,179.0,1744418902.924278,0.0,2025-04-11 20:48:22.924,STOP,47
186.0,8716.845061402924,-6706.797386026071,-20252.62507827581,-23423.82352636141,13667.264719875422,15005.910695303763,31852.040511612955,51579.01961553331,0.0,0.0,0.0,193.0,0.0,193.0,0.0,0.0,0.0,178.0,193.0,0.0,178.0,1744418902.92431,0.0,2025-04-11 20:48:22.924,STOP,47
187.0,8708.686674676737,-6707.065606959535,-20304.81640157895,-23397.515523137514,13537.177567145536,15033.760968895074,31699.914538850135,51503.00133264081,0.0,0.0,0.0,193.0,0.0,192.0,0.0,0.0,0.0,179.0,192.0,0.0,179.0,1744418902.9243417,0.0,2025-04-11 20:48:22.924,STOP,47
188.0,8711.72651192266,-6684.825621226504,-20321.334340731424,-23373.82267401489,13452.75502833784,15261.525244894654,31445.171707293,51623.20901432145,0.0,0.0,0.0,193.0,0.0,193.0,0.0,0.0,0.0,179.0,193.0,0.0,179.0,1744418902.9243731,0.0,2025-04-11 20:48:22.924,STOP,47
189.0,8719.661381204294,-6684.3338828484875,-20258.213014389636,-23383.702145064133,13583.40097467911,15249.164730210869,31506.013155700348,51681.77058479436,0.0,0.0,0.0,193.0,0.0,193.0,0.0,0.0,0.0,179.0,193.0,0.0,179.0,1744418902.9244046,0.0,2025-04-11 20:48:22.924,STOP,47
190.0,8696.90730534879,-6720.56606061054,-20258.97297370112,-23433.434776477192,13678.75351652545,15055.285698805536,31855.505032003526,51632.06030512576,0.0,0.0,0.0,193.0,0.0,193.0,0.0,0.0,0.0,179.0,193.0,0.0,179.0,1744418902.924436,0.0,2025-04-11 20:48:22.924,STOP,47
191.0,8702.607000184895,-6709.412540127342,-20306.157506246273,-23416.33569196888,13550.275689396345,15001.507401646068,31746.383815572717,51516.99352466983,0.0,0.0,0.0,193.0,0.0,193.0,0.0,0.0,0.0,179.0,193.0,0.0,179.0,1744418902.9244676,0.0,2025-04-11 20:48:22.924,STOP,47
192.0,8727.462140019195,-6671.503981531141,-20316.372253462345,-23369.844063501845,13453.179711482491,15230.836299757517,31471.45735877244,51599.113833798634,0.0,0.0,0.0,193.0,0.0,193.0,0.0,0.0,0.0,178.0,193.0,0.0,178.0,1744418902.924499,0.0,2025-04-11 20:48:22.924,STOP,47
193.0,8735.39700930083,-6665.446658783753,-20263.15274991426,-23378.471836861594,13551.505035341388,15258.910090793383,31445.35052124864,51666.146715420095,0.0,0.0,0.0,193.0,0.0,193.0,0.0,0.0,0.0,178.0,193.0,0.0,178.0,1744418902.9245305,0.0,2025-04-11 20:48:22.924,STOP,47
194.0,8706.518555464572,-6713.27939191811,-20246.567755528424,-23430.461994464637,13690.398775386666,15087.852190476919,31821.262159497997,51644.42081980954,0.0,0.0,0.0,193.0,0.0,193.0,0.0,0.0,0.0,179.0,193.0,0.0,179.0,1744418902.9245768,0.0,2025-04-11 20:48:22.924,STOP,47
195.0,8696.81789837097,-6724.231746701211,-20299.094354998393,-23433.546535199468,13574.236759452435,14961.475427326612,31778.81619677737,51503.71658846338,0.0,0.0,0.0,193.0,0.0,193.0,0.0,0.0,0.0,179.0,193.0,0.0,179.0,1744418902.9246087,0.0,2025-04-11 20:48:22.924,STOP,47
196.0,8715.571011968972,-6687.887810216882,-20318.16039301877,-23386.09378172085,13468.624766901108,15200.616741253942,31528.342548411198,51577.0750137657,0.0,0.0,0.0,193.0,0.0,193.0,0.0,0.0,0.0,179.0,193.0,0.0,179.0,1744418902.9246402,0.0,2025-04-11 20:48:22.924,STOP,47
197.0,8727.573898741472,-6671.928664675792,-20286.711488570152,-23384.35034565334,13515.161098857057,15285.240445761734,31419.623663380586,51663.79978225229,0.0,0.0,0.0,193.0,0.0,193.0,0.0,0.0,0.0,178.0,193.0,0.0,178.0,1744418902.9246716,0.0,2025-04-11 20:48:22.924,STOP,47
198.0,8696.348511737408,-6717.593278597985,-20262.839825491887,-23435.49113696708,13673.165580411624,15142.502205670144,31773.742350786015,51663.576264807736,0.0,0.0,0.0,193.0,0.0,192.0,0.0,0.0,0.0,178.0,192.0,0.0,178.0,1744418902.924752,0.0,2025-04-11 20:48:22.924,STOP,47
199.0,8697.041415815524,-6715.894546019381,-20302.022433522037,-23436.340503256382,13590.620588138174,14962.928290716207,31801.43616216614,51511.04796064472,0.0,0.0,0.0,193.0,0.0,193.0,0.0,0.0,0.0,178.0,193.0,0.0,178.0,1744418902.9247844,0.0,2025-04-11 20:48:22.924,STOP,47
200.0,8701.847040873414,-6692.425214341309,-20334.03013158204,-23390.564130611914,13475.062069304237,15173.414668251833,31578.186938546532,51557.24901643384,0.0,0.0,0.0,193.0,0.0,193.0,0.0,0.0,0.0,179.0,193.0,0.0,179.0,1744418902.9248164,0.0,2025-04-11 20:48:22.924,STOP,47
201.0,8717.157985825299,-6679.528257790596,-20307.25274172458,-23381.712839807613,13479.264197261835,15293.577646443564,31404.603291106618,51657.138962404606,0.0,0.0,0.0,193.0,0.0,193.0,0.0,0.0,0.0,179.0,193.0,0.0,179.0,1744418902.924848,0.0,2025-04-11 20:48:22.924,STOP,47
202.0,8702.852869373903,-6712.407673884353,-20251.932174197696,-23417.54268616947,13659.888644205172,15184.724650946218,31707.22355928702,51681.45766037198,0.0,0.0,0.0,193.0,0.0,193.0,0.0,0.0,0.0,179.0,193.0,0.0,179.0,1744418902.92488,0.0,2025-04-11 20:48:22.924,STOP,47
203.0,8700.260067017087,-6725.2375752017,-20294.624006107333,-23450.779730174512,13605.708015645507,14971.556064075956,31833.510915459505,51540.28404239226,0.0,0.0,0.0,193.0,0.0,193.0,0.0,0.0,0.0,179.0,193.0,0.0,179.0,1744418902.9249113,0.0,2025-04-11 20:48:22.924,STOP,47
204.0,8715.883936391347,-6693.207525397244,-20326.96698033416,-23407.015014531018,13483.555732197254,15118.250562936135,31622.53279954586,51533.82438824468,0.0,0.0,0.0,193.0,0.0,193.0,0.0,0.0,0.0,178.0,193.0,0.0,178.0,1744418902.9249425,0.0,2025-04-11 20:48:22.924,STOP,47
205.0,8732.1113028659,-6671.101650130946,-20306.761003346564,-23379.857645017823,13458.745295851862,15283.631120160953,31392.622756078574,51633.69198247099,0.0,0.0,0.0,193.0,0.0,192.0,0.0,0.0,0.0,178.0,192.0,0.0,178.0,1744418902.924974,0.0,2025-04-11 20:48:22.924,STOP,47
206.0,8713.335837523442,-6705.255115658655,-20243.505566538046,-23394.7215550806,13648.243385343956,15210.518564047643,31626.086726914255,51670.37119512215,0.0,0.0,0.0,193.0,0.0,192.0,0.0,0.0,0.0,178.0,192.0,0.0,178.0,1744418902.9250057,0.0,2025-04-11 20:48:22.925,STOP,47
207.0,8692.951046580201,-6736.301688707076,-20280.7882762895,-23440.810852147442,13651.50674003443,15002.35676793537,31865.96564840861,51570.25773170683,0.0,0.0,0.0,193.0,0.0,192.0,0.0,0.0,0.0,178.0,192.0,0.0,178.0,1744418902.9250374,0.0,2025-04-11 20:48:22.925,STOP,47
208.0,8698.091947804922,-6707.177365681811,-20324.038901810516,-23405.45039241915,13518.223287847435,15087.248693376625,31684.111855520234,51523.65434451751,0.0,0.0,0.0,193.0,0.0,192.0,0.0,0.0,0.0,178.0,192.0,0.0,178.0,1744418902.9250689,0.0,2025-04-11 20:48:22.925,STOP,47
209.0,8707.077349075955,-6674.2755978436,-20326.564648933967,-23382.45044737464,13456.107790006137,15293.912922610394,31428.854933840626,51630.585089991706,0.0,0.0,0.0,193.0,0.0,193.0,0.0,0.0,0.0,179.0,193.0,0.0,179.0,1744418902.925116,0.0,2025-04-11 20:48:22.925,STOP,47
210.0,8717.314448036486,-6686.166725893823,-20253.943831198674,-23389.6700608337,13616.213335539502,15243.643849330409,31545.776909086337,51662.48102932943,0.0,0.0,0.0,193.0,0.0,193.0,0.0,0.0,0.0,179.0,193.0,0.0,179.0,1744418902.925148,0.0,2025-04-11 20:48:22.925,STOP,47
211.0,8700.774157139558,-6721.99657225568,-20265.857310993353,-23434.619418933326,13678.686461292084,15034.252707273092,31849.961799378612,51583.53466791328,0.0,0.0,0.0,193.0,0.0,193.0,0.0,0.0,0.0,179.0,193.0,0.0,179.0,1744418902.9251792,0.0,2025-04-11 20:48:22.925,STOP,47
212.0,8706.742072909126,-6716.922726264325,-20313.62298889434,-23414.25697973454,13546.855872494683,15042.88048063284,31715.583111713306,51504.47654777486,0.0,0.0,0.0,193.0,0.0,193.0,0.0,0.0,0.0,179.0,193.0,0.0,179.0,1744418902.9252107,0.0,2025-04-11 20:48:22.925,STOP,47
213.0,8716.196860813721,-6681.070528158013,-20318.272151741046,-23377.91304325021,13460.466380174921,15281.485352693244,31449.575000950696,51611.04966533776,0.0,0.0,0.0,193.0,0.0,193.0,0.0,0.0,0.0,179.0,193.0,0.0,179.0,1744418903.400879,0.0,2025-04-11 20:48:23.400,STOP,47
214.0,8720.130767837854,-6682.635150269884,-20250.4793108081,-23382.316336907905,13589.614759637685,15280.188951514836,31477.42527454201,51661.49755257339,0.0,0.0,0.0,193.0,0.0,193.0,0.0,0.0,0.0,179.0,193.0,0.0,179.0,1744418903.4010606,0.0,2025-04-11 20:48:23.401,STOP,47
215.0,8709.334875265942,-6716.408636141853,-20248.087674151382,-23429.97025608662,13698.691272579585,15086.108754409404,31831.54396194744,51610.714389170935,0.0,0.0,0.0,193.0,0.0,193.0,0.0,0.0,0.0,179.0,193.0,0.0,179.0,1744418903.4011164,0.0,2025-04-11 20:48:23.401,STOP,47
216.0,8719.460215504196,-6705.121005191923,-20307.25274172458,-23424.270561250516,13563.619680836164,15009.934009305718,31735.766736956448,51482.795355653216,0.0,0.0,0.0,193.0,0.0,193.0,0.0,0.0,0.0,178.0,193.0,0.0,178.0,1744418903.4011643,0.0,2025-04-11 20:48:23.401,STOP,47
217.0,8711.838270644936,-6686.010263682636,-20327.279904756535,-23388.083086977374,13447.882348046584,15252.025753501148,31488.869367703126,51588.49675518236,0.0,0.0,0.0,193.0,0.0,193.0,0.0,0.0,0.0,178.0,193.0,0.0,178.0,1744418903.4012072,0.0,2025-04-11 20:48:23.401,STOP,47
218.0,8704.395139741318,-6687.3290166054985,-20264.896185981775,-23374.761447282013,13531.030837420325,15292.862390620994,31424.429288438478,51655.686099015016,0.0,0.0,0.0,193.0,0.0,192.0,0.0,1.0,0.0,178.0,192.0,1.0,178.0,1744418903.401252,0.0,2025-04-11 20:48:23.401,STOP,47
219.0,8690.268837245565,-6722.622421100428,-20246.6795142507,-23424.896410095265,13681.458077604542,15133.405045676835,31797.30108944191,51638.92229067353,0.0,0.0,0.0,193.0,0.0,193.0,0.0,2.0,0.0,179.0,193.0,2.0,179.0,1744418903.4012935,0.0,2025-04-11 20:48:23.401,STOP,47
220.0,8706.049168831012,-6709.121967449423,-20291.718279328143,-23422.996511816564,13576.606044364697,14993.34901491988,31771.61893506276,51493.23362031384,0.0,0.0,0.0,193.0,0.0,193.0,0.0,3.0,0.0,179.0,193.0,3.0,179.0,1744418903.4013329,0.0,2025-04-11 20:48:23.401,STOP,47
221.0,8705.691540919726,-6675.147315877356,-20321.2449337536,-23381.95870899662,13459.885234819083,15224.175479909836,31529.48248737842,51562.904007781035,0.0,0.0,0.0,193.0,0.0,193.0,0.0,4.0,0.0,179.0,193.0,4.0,179.0,1744418903.4013712,0.0,2025-04-11 20:48:23.401,STOP,47
222.0,8714.475776490663,-6656.3942022793535,-20289.81838104944,-23379.075333961886,13491.267084034334,15323.149004357936,31406.525541129777,51661.76577350686,0.0,0.0,0.0,193.0,0.0,193.0,0.0,5.0,0.0,179.0,193.0,5.0,179.0,1744418903.401421,0.0,2025-04-11 20:48:23.401,STOP,47
223.0,8694.448613458708,-6707.780862782105,-20247.61828751782,-23417.453279191646,13658.055801159837,15189.329110304012,31747.210830117565,51674.03688121282,0.0,0.0,0.0,193.0,0.0,193.0,0.0,6.0,0.0,178.0,193.0,6.0,178.0,1744418903.401464,0.0,2025-04-11 20:48:23.401,STOP,47
224.0,8692.235790757632,-6721.147205966378,-20292.612349106355,-23442.531936470503,13584.764431090884,14999.093413244895,31807.739354102538,51531.298641121226,0.0,0.0,0.0,193.0,0.0,193.0,0.0,7.0,0.0,179.0,193.0,7.0,179.0,1744418903.4016657,0.0,2025-04-11 20:48:23.401,STOP,47
225.0,8711.279477033553,-6688.111327661434,-20327.45871871218,-23397.269653948504,13464.243824987869,15181.841275911484,31573.02368557736,51554.656214077026,0.0,0.0,0.0,193.0,0.0,193.0,0.0,8.0,0.0,179.0,193.0,8.0,179.0,1744418903.4017167,0.0,2025-04-11 20:48:23.401,STOP,47
226.0,8735.240547089643,-6663.882036671882,-20306.336320201914,-23377.24249091655,13459.527606907799,15316.622294976985,31371.16508140148,51647.88534020011,0.0,0.0,0.0,193.0,0.0,193.0,0.0,9.0,0.0,179.0,193.0,9.0,179.0,1744418903.4017577,0.0,2025-04-11 20:48:23.401,STOP,47
227.0,8727.573898741472,-6694.32511262001,-20256.11195041084,-23415.7768983575,13652.93725167957,15210.29504660309,31656.976837751492,51664.64914854159,0.0,0.0,0.0,193.0,0.0,193.0,0.0,10.0,0.0,179.0,193.0,10.0,179.0,1744418903.4018009,0.0,2025-04-11 20:48:23.401,STOP,47
228.0,8709.603096199406,-6699.980103967203,-20296.792125319498,-23450.86913715233,13619.163765807602,15005.083680758917,31823.78790662145,51546.09549595064,0.0,0.0,0.0,193.0,0.0,193.0,0.0,10.0,0.0,179.0,193.0,10.0,179.0,1744418903.4019015,0.0,2025-04-11 20:48:23.401,STOP,47
229.0,8711.972381111667,-6680.489382802175,-20330.722073402652,-23407.39499418676,13490.373014256122,15131.371036931401,31607.35596506071,51524.10137940662,0.0,0.0,0.0,193.0,0.0,193.0,0.0,11.0,0.0,179.0,193.0,11.0,179.0,1744418903.401944,0.0,2025-04-11 20:48:23.401,STOP,47
230.0,8721.941259138735,-6665.93839716177,-20311.946608060196,-23376.8178077719,13454.543167894266,15308.016873361692,31364.325447598156,51624.12543584412,0.0,0.0,0.0,193.0,0.0,193.0,0.0,11.0,0.0,178.0,193.0,11.0,178.0,1744418903.4019864,0.0,2025-04-11 20:48:23.401,STOP,47
231.0,8714.67694219076,-6687.641941027873,-20240.890412436773,-23390.29590967845,13629.490271745954,15246.326058665045,31562.428958705543,51651.260453612864,0.0,0.0,0.0,193.0,0.0,193.0,0.0,12.0,0.0,178.0,193.0,12.0,178.0,1744418903.40203,0.0,2025-04-11 20:48:23.402,STOP,47
232.0,8690.470002945662,-6725.684610090806,-20283.090505968394,-23448.119872584328,13635.3687805377,15039.326553264447,31833.82383988188,51566.614397360616,0.0,0.0,0.0,193.0,0.0,193.0,0.0,12.0,0.0,179.0,193.0,12.0,179.0,1744418903.4020724,0.0,2025-04-11 20:48:23.402,STOP,47
233.0,8703.63518042984,-6699.823641756016,-20326.385834978322,-23416.15687801324,13504.72283419643,15084.767649742085,31651.92534350459,51505.88470767555,0.0,0.0,0.0,193.0,0.0,193.0,0.0,12.0,0.0,179.0,193.0,12.0,179.0,1744418903.4021156,0.0,2025-04-11 20:48:23.402,STOP,47
234.0,8715.01221835759,-6667.659481484829,-20332.487861214624,-23388.6195288443,13437.824063041695,15297.511553467699,31397.808360792205,51617.06228459624,0.0,0.0,0.0,193.0,0.0,193.0,0.0,13.0,0.0,179.0,193.0,13.0,179.0,1744418903.4021604,0.0,2025-04-11 20:48:23.402,STOP,47
235.0,8720.175471326766,-6674.454411799242,-20266.237290649093,-23397.00143301504,13585.300872957812,15254.529148880143,31491.66333576004,51650.9922326794,0.0,0.0,0.0,193.0,0.0,193.0,0.0,13.0,0.0,179.0,193.0,13.0,179.0,1744418903.4022028,0.0,2025-04-11 20:48:23.402,STOP,47
236.0,8700.774157139558,-6713.748778551671,-20272.898110496775,-23440.766148658535,13658.234615115478,15055.643326716821,31809.549845403417,51578.125545755094,0.0,0.0,0.0,193.0,0.0,193.0,0.0,13.0,0.0,179.0,193.0,13.0,179.0,1744418903.4022453,0.0,2025-04-11 20:48:23.402,STOP,47
237.0,8717.940296881236,-6688.714824761728,-20314.07002378345,-23408.669043620714,13534.025971177338,15043.573384710955,31673.91946004861,51467.57381767915,0.0,0.0,0.0,193.0,0.0,193.0,0.0,13.0,0.0,179.0,193.0,13.0,179.0,1744418903.4022868,0.0,2025-04-11 20:48:23.402,STOP,47
238.0,8715.950991624713,-6677.896580445359,-20334.87949787134,-23383.411572386216,13451.212757970425,15289.710794652796,31437.03567231127,51583.33350221319,0.0,0.0,0.0,193.0,0.0,193.0,0.0,14.0,0.0,179.0,193.0,14.0,179.0,1744418903.4023275,0.0,2025-04-11 20:48:23.402,STOP,47
239.0,8708.396101998818,-6688.9159904618255,-20279.447171622178,-23393.983947513574,13551.236814407923,15287.475620207266,31441.394262480055,51648.48883730041,0.0,0.0,0.0,193.0,0.0,193.0,0.0,14.0,0.0,179.0,193.0,14.0,179.0,1744418903.4024072,0.0,2025-04-11 20:48:23.402,STOP,47
240.0,8690.849982601403,-6724.701133334772,-20260.895223724274,-23441.861384136842,13665.051897174348,15100.346815627434,31798.821008064868,51608.45686298095,0.0,0.0,0.0,193.0,0.0,193.0,0.0,14.0,0.0,179.0,193.0,14.0,179.0,1744418903.4024465,0.0,2025-04-11 20:48:23.402,STOP,47
241.0,8701.422357728763,-6702.2376301571885,-20304.83875332341,-23435.69230266718,13550.432151607532,15008.369387193847,31726.311949051855,51475.41927998296,0.0,0.0,0.0,193.0,0.0,193.0,0.0,14.0,0.0,178.0,193.0,14.0,178.0,1744418903.4024837,0.0,2025-04-11 20:48:23.402,STOP,47
242.0,8713.984038112645,-6663.479705271686,-20324.418881466256,-23390.586482356368,13449.022287013804,15244.247346430702,31472.619649484117,51555.72909781088,0.0,0.0,0.0,193.0,0.0,192.0,0.0,14.0,0.0,178.0,192.0,14.0,178.0,1744418903.4025226,0.0,2025-04-11 20:48:23.402,STOP,47
243.0,8731.306640065508,-6658.562321491519,-20273.72512504162,-23380.86347351831,13526.918116440549,15293.912922610394,31393.092142712136,51631.38975279209,0.0,0.0,0.0,193.0,0.0,192.0,0.0,15.0,0.0,178.0,192.0,15.0,178.0,1744418903.402594,0.0,2025-04-11 20:48:23.402,STOP,47
244.0,8712.978209612156,-6702.8858307463925,-20241.58331651489,-23425.00816881754,13693.036281232391,15139.015333535115,31764.42167334815,51626.584127734204,0.0,0.0,0.0,193.0,0.0,192.0,0.0,15.0,0.0,178.0,192.0,15.0,178.0,1744418903.402628,0.0,2025-04-11 20:48:23.402,STOP,47
245.0,8699.72362515016,-6700.8294702565045,-20292.746459573085,-23432.58541018789,13593.12398351717,14982.463715370146,31770.680161795637,51485.85754464359,0.0,0.0,0.0,193.0,0.0,193.0,0.0,15.0,0.0,179.0,193.0,15.0,179.0,1744418903.402664,0.0,2025-04-11 20:48:23.402,STOP,47
246.0,8701.735282151138,-6672.733327476183,-20326.922276845253,-23395.81679055891,13475.777325126806,15192.681871972309,31536.09860373719,51551.236397175366,0.0,0.0,0.0,193.0,0.0,193.0,0.0,15.0,0.0,179.0,193.0,15.0,179.0,1744418903.4026995,0.0,2025-04-11 20:48:23.402,STOP,47
247.0,8722.34359053893,-6661.512751759619,-20288.25375893757,-23379.34355489535,13501.392424272588,15286.670957406874,31372.550889557708,51637.64824123958,0.0,0.0,0.0,193.0,0.0,193.0,0.0,15.0,0.0,180.0,193.0,15.0,180.0,1744418903.402732,0.0,2025-04-11 20:48:23.402,STOP,47
248.0,8709.893668877325,-6700.024807456113,-20240.689246736678,-23413.49702042306,13681.458077604542,15161.456484968245,31697.589957426782,51641.0904098857,0.0,0.0,0.0,193.0,0.0,193.0,0.0,15.0,0.0,179.0,193.0,15.0,179.0,1744418903.4027672,0.0,2025-04-11 20:48:23.402,STOP,47
249.0,8704.618657185873,-6702.550554579563,-20277.88254951031,-23432.361892743338,13614.93928610555,14969.075020441416,31788.270984681963,51496.80989942669,0.0,0.0,0.0,193.0,0.0,193.0,0.0,15.0,0.0,179.0,193.0,15.0,179.0,1744418903.402802,0.0,2025-04-11 20:48:23.402,STOP,47
250.0,8707.122052564866,-6675.437888555275,-20303.989387034107,-23386.54081660996,13496.028005603315,15147.084313283482,31566.832252363238,51513.52900427926,0.0,0.0,0.0,193.0,0.0,193.0,0.0,15.0,0.0,178.0,193.0,15.0,178.0,1744418903.4028363,0.0,2025-04-11 20:48:23.402,STOP,47
251.0,8717.49326199213,-6657.914120902315,-20282.464657123644,-23367.586537311858,13480.404136229055,15296.013986589192,31367.611154033086,51624.66187771105,0.0,0.0,0.0,193.0,0.0,192.0,0.0,15.0,0.0,179.0,192.0,15.0,179.0,1744418903.4028695,0.0,2025-04-11 20:48:23.402,STOP,47
252.0,8714.520479979574,-6683.238647370177,-20226.6747029632,-23392.86636029081,13659.709830249529,15202.069604643537,31632.63578803966,51656.6919275155,0.0,0.0,0.0,193.0,0.0,193.0,0.0,15.0,0.0,179.0,193.0,15.0,179.0,1744418903.4029033,0.0,2025-04-11 20:48:23.402,STOP,47
253.0,8707.412625242785,-6693.922781219814,-20262.30338362496,-23428.07035780792,13644.309478319821,14981.212017680647,31813.081421027357,51532.57269055518,0.0,0.0,0.0,193.0,0.0,193.0,0.0,15.0,0.0,179.0,193.0,15.0,179.0,1744418903.402956,0.0,2025-04-11 20:48:23.402,STOP,47
254.0,8707.323218264964,-6674.163839121323,-20309.286750470015,-23390.966462012108,13516.569258757741,15092.210780645702,31612.20629360751,51502.39783554052,0.0,0.0,0.0,193.0,0.0,193.0,0.0,16.0,0.0,178.0,193.0,16.0,178.0,1744418903.403104,0.0,2025-04-11 20:48:23.403,STOP,47
255.0,8721.471872505173,-6649.062830098013,-20304.01173877856,-23369.307621634918,13465.227301743902,15280.188951514836,31370.874508723562,51612.323714771715,0.0,0.0,0.0,193.0,0.0,192.0,0.0,16.0,0.0,178.0,192.0,16.0,178.0,1744418903.4031436,0.0,2025-04-11 20:48:23.403,STOP,47
0.0,8712.307657278498,-6674.342653076966,-20244.511395038535,-23395.883845792276,13629.51262349041,15220.375683352433,31548.10149050969,51655.104953659174,0.0,0.0,0.0,193.0,0.0,193.0,0.0,16.0,0.0,179.0,193.0,16.0,179.0,1744418903.4031825,0.0,2025-04-11 20:48:23.403,STOP,47
1.0,8707.613790942883,-6699.667179544828,-20273.38984887479,-23439.53680271349,13654.881853447183,15003.474355158134,31820.30103448642,51566.21206596042,0.0,0.0,0.0,193.0,0.0,193.0,0.0,16.0,0.0,179.0,193.0,16.0,179.0,1744418903.4032211,0.0,2025-04-11 20:48:23.403,STOP,47
2.0,8718.364980025886,-6676.153144377845,-20301.575398632933,-23391.39114515676,13532.148424643092,15041.293506776514,31638.469593342496,51474.61461718257,0.0,0.0,0.0,193.0,0.0,193.0,0.0,16.0,0.0,179.0,193.0,16.0,179.0,1744418903.4033043,0.0,2025-04-11 20:48:23.403,STOP,47
3.0,8718.499090492618,-6653.197902822245,-20305.464602168155,-23364.14436866574,13467.14955176706,15272.343489211022,31387.571261831676,51582.64059813507,0.0,0.0,0.0,193.0,0.0,193.0,0.0,16.0,0.0,179.0,193.0,16.0,179.0,1744418903.4033403,0.0,2025-04-11 20:48:23.403,STOP,47
4.0,8721.829500416457,-6659.590501736463,-20245.6289822613,-23380.6176043293,13609.55251569182,15255.467922147265,31470.2280128274,51640.55396801877,0.0,0.0,0.0,193.0,0.0,193.0,0.0,16.0,0.0,178.0,193.0,16.0,178.0,1744418903.4033837,0.0,2025-04-11 20:48:23.403,STOP,47
5.0,8718.744959681626,-6683.015129925625,-20247.61828751782,-23426.148107784764,13689.772926541917,15059.890158163329,31801.838493566334,51580.092499267164,0.0,0.0,0.0,193.0,0.0,193.0,0.0,16.0,0.0,179.0,193.0,16.0,179.0,1744418903.4034314,0.0,2025-04-11 20:48:23.403,STOP,47
6.0,8720.242526560132,-6670.475801286198,-20303.63175912282,-23413.8770000788,13554.522520842853,15015.767814608553,31680.043838029367,51472.938236348426,0.0,0.0,0.0,193.0,0.0,193.0,0.0,16.0,0.0,179.0,193.0,16.0,179.0,1744418903.4034855,0.0,2025-04-11 20:48:23.403,STOP,47
7.0,8719.996657371123,-6655.969519134703,-20325.6482274113,-23382.45044737464,13450.698667847952,15233.429102114333,31414.75098308933,51574.54926664225,0.0,0.0,0.0,193.0,0.0,193.0,0.0,16.0,0.0,179.0,193.0,16.0,179.0,1744418903.40354,0.0,2025-04-11 20:48:23.403,STOP,47
8.0,8733.340648810941,-6664.731402961183,-20260.425837090712,-23368.704124534623,13554.947203987504,15261.726410594752,31394.03091597926,51637.357668561664,0.0,0.0,0.0,193.0,0.0,193.0,0.0,16.0,0.0,179.0,193.0,16.0,179.0,1744418903.403595,0.0,2025-04-11 20:48:23.403,STOP,47
9.0,8706.183279297744,-6704.092824946979,-20249.04879916296,-23416.134526268786,13682.218036916023,15096.167039414293,31766.634496049228,51612.70369442746,0.0,0.0,0.0,193.0,0.0,193.0,0.0,16.0,0.0,179.0,193.0,16.0,179.0,1744418903.4036467,0.0,2025-04-11 20:48:23.403,STOP,47
10.0,8702.450537973707,-6687.306664861044,-20302.40241317778,-23418.459107692135,13557.987041233426,14983.87187527083,31705.055440074855,51477.72150966186,0.0,0.0,0.0,193.0,0.0,193.0,0.0,16.0,0.0,179.0,193.0,16.0,179.0,1744418903.4037173,0.0,2025-04-11 20:48:23.403,STOP,47
11.0,8707.680846176248,-6657.400030779842,-20332.64432342581,-23386.7196305656,13442.093246232658,15213.379587337922,31460.773224922807,51566.10030723814,0.0,0.0,0.0,193.0,0.0,193.0,0.0,16.0,0.0,179.0,193.0,16.0,179.0,1744418903.4037912,0.0,2025-04-11 20:48:23.403,STOP,47
12.0,8721.561279482994,-6656.1036296014345,-20279.089543710896,-23373.755618781524,13511.160136599558,15268.16371299788,31353.48485153733,51640.30809882976,0.0,0.0,0.0,193.0,0.0,193.0,0.0,16.0,0.0,179.0,193.0,16.0,179.0,1744418903.4038515,0.0,2025-04-11 20:48:23.403,STOP,47
13.0,8703.43401472974,-6687.776051494605,-20239.66106649173,-23410.83716283288,13689.95174049756,15124.620810105898,31707.491780220484,51625.17596783352,0.0,0.0,0.0,193.0,0.0,193.0,0.0,16.0,0.0,178.0,193.0,16.0,178.0,1744418903.4040923,0.0,2025-04-11 20:48:23.404,STOP,47
14.0,8717.672075947772,-6677.382490322887,-20284.409258891257,-23418.97319781461,13606.222105767978,14965.431686095202,31724.56851298434,51474.391099738015,0.0,0.0,0.0,193.0,0.0,193.0,0.0,16.0,0.0,179.0,193.0,16.0,179.0,1744418903.4042206,0.0,2025-04-11 20:48:23.404,STOP,47
15.0,8721.494224249629,-6662.987966893669,-20315.32172147295,-23376.10255194933,13488.450764232966,15183.875284656917,31495.12785615061,51533.64557428904,0.0,0.0,0.0,193.0,0.0,193.0,0.0,16.0,0.0,179.0,193.0,16.0,179.0,1744418903.404307,0.0,2025-04-11 20:48:23.404,STOP,47
16.0,8727.417436530284,-6652.974385377692,-20275.177988431216,-23356.231851128563,13512.814165689251,15296.93040811186,31325.94750236839,51624.617174222134,0.0,0.0,0.0,193.0,0.0,193.0,0.0,16.0,0.0,178.0,193.0,16.0,178.0,1744418903.4043708,0.0,2025-04-11 20:48:23.404,STOP,47
17.0,8706.183279297744,-6686.457298571742,-20229.24515357556,-23398.387241171273,13695.226752189012,15175.918063630828,31647.70086380254,51640.419857552035,0.0,0.0,0.0,193.0,0.0,193.0,0.0,16.0,0.0,179.0,193.0,16.0,179.0,1744418903.4045584,0.0,2025-04-11 20:48:23.404,STOP,47
18.0,8692.459308202186,-6701.56707782353,-20281.905863512264,-23437.234573034595,13627.299800789333,14976.853427511864,31764.15345241469,51509.550393766214,0.0,0.0,0.0,193.0,0.0,192.0,0.0,16.0,0.0,178.0,192.0,16.0,178.0,1744418903.404606,0.0,2025-04-11 20:48:23.404,STOP,47
19.0,8691.47583144615,-6677.628359511896,-20326.02820706704,-23406.63503487528,13493.166982313036,15144.312696971023,31544.972246285946,51521.374466583075,0.0,0.0,0.0,193.0,0.0,193.0,0.0,16.0,0.0,179.0,193.0,16.0,179.0,1744418903.4046433,0.0,2025-04-11 20:48:23.404,STOP,47
20.0,8711.458290989196,-6666.810115195527,-20303.855276567374,-23382.38339214127,13474.659737904041,15298.182105801357,31322.01359534426,51622.940793387985,0.0,0.0,0.0,193.0,0.0,193.0,0.0,16.0,0.0,179.0,193.0,16.0,179.0,1744418903.4046843,0.0,2025-04-11 20:48:23.404,STOP,47
21.0,8696.124994292855,-6704.539859836085,-20240.778653714497,-23397.850799304342,13661.676783761595,15207.881058201918,31571.59317393222,51648.80176172278,0.0,0.0,0.0,193.0,0.0,193.0,0.0,17.0,0.0,178.0,193.0,17.0,178.0,1744418903.40472,0.0,2025-04-11 20:48:23.404,STOP,47
22.0,8688.748918622603,-6712.474729117719,-20272.942813985686,-23432.853631121354,13647.170501610102,14986.53173286101,31782.392475890218,51526.560071296706,0.0,0.0,0.0,193.0,0.0,192.0,0.0,17.0,0.0,178.0,192.0,17.0,178.0,1744418903.4047549,0.0,2025-04-11 20:48:23.404,STOP,47
23.0,8701.087081561933,-6676.242551355666,-20307.856238824876,-23388.664232333213,13517.172755858035,15090.735565511653,31596.090685855233,51489.09854758961,0.0,0.0,0.0,193.0,0.0,193.0,0.0,17.0,0.0,179.0,193.0,17.0,179.0,1744418903.4047887,0.0,2025-04-11 20:48:23.404,STOP,47
24.0,8706.160927553288,-6653.153199333335,-20303.76586958955,-23361.819787242388,13464.310880221234,15293.93527435485,31350.936752669426,51596.34221748617,0.0,0.0,0.0,193.0,0.0,193.0,0.0,17.0,0.0,179.0,193.0,17.0,179.0,1744418903.404822,0.0,2025-04-11 20:48:23.404,STOP,47
25.0,8701.91409610678,-6668.441792540764,-20240.555136269944,-23381.779895040978,13618.873193129682,15229.003456712182,31508.605958057164,51634.60840399366,0.0,0.0,0.0,193.0,0.0,193.0,0.0,17.0,0.0,179.0,193.0,17.0,179.0,1744418903.4048562,0.0,2025-04-11 20:48:23.404,STOP,47
26.0,8695.610904170384,-6691.017054440625,-20250.211089874636,-23418.794383858967,13665.70009776355,15022.965076323162,31796.138798730233,51543.72621103838,0.0,0.0,0.0,193.0,0.0,193.0,0.0,17.0,0.0,179.0,193.0,17.0,179.0,1744418903.404889,0.0,2025-04-11 20:48:23.404,STOP,47
27.0,8694.850944858903,-6681.718728747217,-20306.20220973518,-23401.136505739272,13531.991962431905,15050.323611536458,31648.393767880654,51472.088870059124,0.0,0.0,0.0,193.0,0.0,193.0,0.0,17.0,0.0,179.0,193.0,17.0,179.0,1744418903.404923,0.0,2025-04-11 20:48:23.404,STOP,47
28.0,8713.313485778986,-6648.772257420094,-20311.611331893368,-23358.288211618452,13450.51985389231,15279.965434070282,31381.24571815082,51584.31697896922,0.0,0.0,0.0,193.0,0.0,193.0,0.0,17.0,0.0,179.0,193.0,17.0,179.0,1744418903.404956,0.0,2025-04-11 20:48:23.404,STOP,47
29.0,8714.118148579377,-6663.9043884163375,-20246.6795142507,-23361.216290142096,13579.891750799627,15275.159809012392,31441.528372946785,51645.76192447686,0.0,0.0,0.0,193.0,0.0,193.0,0.0,17.0,0.0,179.0,193.0,17.0,179.0,1744418903.4050107,0.0,2025-04-11 20:48:23.405,STOP,47
30.0,8691.609941912882,-6704.338694135988,-20245.561927027935,-23411.999453544555,13670.572778054808,15073.70353623671,31784.71705731357,51590.083729038684,0.0,0.0,0.0,193.0,0.0,193.0,0.0,17.0,0.0,179.0,193.0,17.0,179.0,1744418903.4050472,0.0,2025-04-11 20:48:23.405,STOP,47
31.0,8710.430110744252,-6679.617664768418,-20283.40343039077,-23390.519427123003,13560.915119757072,15018.87470708784,31679.68621011808,51470.16662003596,0.0,0.0,0.0,193.0,0.0,193.0,0.0,17.0,0.0,179.0,193.0,17.0,179.0,1744418903.4050798,0.0,2025-04-11 20:48:23.405,STOP,47
32.0,8720.846023660424,-6657.712955202217,-20300.658977110266,-23355.47189181708,13461.226339486402,15258.328945437544,31424.138715760557,51567.6202258611,0.0,0.0,0.0,193.0,0.0,193.0,0.0,17.0,0.0,178.0,193.0,17.0,178.0,1744418903.4051275,0.0,2025-04-11 20:48:23.405,STOP,47
33.0,8710.161889810788,-6660.529275003586,-20248.601764273855,-23361.573918053382,13545.2465468939,15281.842980604528,31384.285555396746,51634.16136910455,0.0,0.0,0.0,193.0,0.0,193.0,0.0,17.0,0.0,178.0,193.0,17.0,178.0,1744418903.4051611,0.0,2025-04-11 20:48:23.405,STOP,47
34.0,8693.174564024755,-6688.245438128167,-20234.184889100183,-23410.83716283288,13683.46973460552,15114.361359400913,31752.262324364463,51613.48600548339,0.0,0.0,0.0,193.0,0.0,193.0,0.0,17.0,0.0,179.0,193.0,17.0,179.0,1744418903.4051936,0.0,2025-04-11 20:48:23.405,STOP,47
35.0,8705.91505836428,-6669.693490230262,-20276.764962287543,-23398.320185937904,13578.751811832406,14990.286825929503,31704.429591230106,51467.10443104558,0.0,0.0,0.0,193.0,0.0,193.0,0.0,17.0,0.0,179.0,193.0,17.0,179.0,1744418903.4052265,0.0,2025-04-11 20:48:23.405,STOP,47
36.0,8685.19499125421,-6668.0171093961135,-20317.892172085307,-23378.360078139314,13464.824970343707,15224.957790965771,31481.47094028842,51557.96427225641,0.0,0.0,0.0,193.0,0.0,193.0,0.0,17.0,0.0,179.0,193.0,17.0,179.0,1744418903.4052649,0.0,2025-04-11 20:48:23.405,STOP,47
37.0,8695.275628003554,-6665.513714017119,-20281.97291874563,-23379.857645017823,13507.583857486708,15288.369689985479,31361.799700474705,51641.17981686352,0.0,0.0,0.0,193.0,0.0,193.0,0.0,17.0,0.0,179.0,193.0,17.0,179.0,1744418903.405298,0.0,2025-04-11 20:48:23.405,STOP,47
38.0,8672.879180059335,-6704.2939906470765,-20248.422950318214,-23420.69428213767,13669.946929210058,15151.264089496624,31712.118591322735,51644.30906108726,0.0,0.0,0.0,193.0,0.0,193.0,0.0,17.0,0.0,179.0,193.0,17.0,179.0,1744418903.4053307,0.0,2025-04-11 20:48:23.405,STOP,47
39.0,8671.560427136472,-6706.104481947957,-20289.483104882613,-23427.958599085643,13580.048213010814,14981.435535125202,31747.70256849558,51501.07908261765,0.0,0.0,0.0,193.0,0.0,193.0,0.0,17.0,0.0,180.0,193.0,17.0,180.0,1744418903.4053648,0.0,2025-04-11 20:48:23.405,STOP,47
40.0,8691.207610512687,-6663.658519227329,-20311.812497593462,-23376.72840079408,13469.362374468134,15190.156124848858,31504.76145801085,51533.19853939993,0.0,0.0,0.0,193.0,0.0,193.0,0.0,17.0,0.0,178.0,193.0,17.0,178.0,1744418903.4053988,0.0,2025-04-11 20:48:23.405,STOP,47
41.0,8715.794529413526,-6650.068658598502,-20277.770790788032,-23353.303772604915,13484.270988019824,15323.12665261348,31321.47715347733,51630.27216556933,0.0,0.0,0.0,193.0,0.0,193.0,0.0,17.0,0.0,178.0,193.0,17.0,178.0,1744418903.4054325,0.0,2025-04-11 20:48:23.405,STOP,47
42.0,8696.393215226319,-6696.51558357663,-20232.19558384366,-23391.05586898993,13661.408562828132,15212.4408140708,31622.644558268137,51646.03014541032,0.0,0.0,0.0,193.0,0.0,193.0,0.0,17.0,0.0,179.0,193.0,17.0,179.0,1744418903.4054685,0.0,2025-04-11 20:48:23.405,STOP,47
43.0,8696.348511737408,-6713.592316340485,-20277.569625087934,-23426.103404295853,13611.295951759334,14999.49574464509,31757.38087384473,51509.908021677504,0.0,0.0,0.0,193.0,0.0,193.0,0.0,17.0,0.0,179.0,193.0,17.0,179.0,1744418903.4055035,0.0,2025-04-11 20:48:23.405,STOP,47
44.0,8697.264933260076,-6689.2289148842,-20312.505401671577,-23387.457238132625,13486.57321769872,15145.922022571805,31555.76813885786,51514.467777546386,0.0,0.0,0.0,193.0,0.0,193.0,0.0,17.0,0.0,179.0,193.0,17.0,179.0,1744418903.405556,0.0,2025-04-11 20:48:23.405,STOP,47
45.0,8689.307712233987,-6660.596330236952,-20299.87666605433,-23371.118112935797,13456.264252217325,15307.614541961497,31333.30122629419,51619.47627299742,0.0,0.0,0.0,193.0,0.0,193.0,0.0,17.0,0.0,179.0,193.0,17.0,179.0,1744418903.40559,0.0,2025-04-11 20:48:23.405,STOP,47
46.0,8674.24263647111,-6693.207525397244,-20237.67176123521,-23394.7215550806,13631.591335724752,15229.383436367922,31566.340513985222,51658.9941571944,0.0,0.0,0.0,193.0,0.0,193.0,0.0,17.0,0.0,179.0,193.0,17.0,179.0,1744418903.4056232,0.0,2025-04-11 20:48:23.405,STOP,47
47.0,8671.538075392018,-6713.547612851574,-20272.048744207474,-23432.92068635472,13623.611762954208,15013.219715740648,31798.821008064868,51554.83502803267,0.0,0.0,0.0,193.0,0.0,193.0,0.0,17.0,0.0,179.0,193.0,17.0,179.0,1744418903.4056587,0.0,2025-04-11 20:48:23.405,STOP,47
48.0,8674.510857404573,-6678.656539756839,-20309.085584769917,-23393.894540535755,13499.023139360326,15094.289492880047,31612.027479651868,51502.24137332933,0.0,0.0,0.0,193.0,0.0,193.0,0.0,17.0,0.0,179.0,193.0,17.0,179.0,1744418903.4057088,0.0,2025-04-11 20:48:23.405,STOP,47
49.0,8687.184296510732,-6647.9452428752475,-20307.20803823567,-23370.201691413127,13447.323554435201,15307.771004172684,31360.235078362835,51615.07297933972,0.0,0.0,0.0,193.0,0.0,193.0,0.0,17.0,0.0,178.0,193.0,17.0,178.0,1744418903.4057436,0.0,2025-04-11 20:48:23.405,STOP,47
50.0,8698.471927460663,-6668.173571607301,-20242.879717693297,-23383.590386341857,13602.69053014404,15261.078210005548,31483.57200426722,51652.802723980276,0.0,0.0,0.0,193.0,0.0,193.0,0.0,17.0,0.0,180.0,193.0,17.0,180.0,1744418903.4057786,0.0,2025-04-11 20:48:23.405,STOP,47
51.0,8694.895648347814,-6699.443662100275,-20258.034200433995,-23429.143241541773,13658.726353493495,15048.379009768845,31785.499368369507,51569.69893809545,0.0,0.0,0.0,193.0,0.0,193.0,0.0,17.0,0.0,179.0,193.0,17.0,179.0,1744418903.4058115,0.0,2025-04-11 20:48:23.405,STOP,47
52.0,8692.168735524267,-6698.7731097666165,-20307.722128358142,-23408.803154087444,13521.129014626626,15048.513120235577,31637.083785186267,51476.42510848345,0.0,0.0,0.0,193.0,0.0,193.0,0.0,17.0,0.0,179.0,193.0,17.0,179.0,1744418903.4058452,0.0,2025-04-11 20:48:23.405,STOP,47
53.0,8703.031683329546,-6671.414574553321,-20312.952436560685,-23378.047153716943,13435.56653685171,15278.981957314249,31370.96391570138,51580.47247892291,0.0,0.0,0.0,193.0,0.0,193.0,0.0,17.0,0.0,179.0,193.0,17.0,179.0,1744418903.4058785,0.0,2025-04-11 20:48:23.405,STOP,47
54.0,8698.538982694028,-6672.621568753907,-20262.571604558423,-23392.30756667943,13556.154198188091,15276.031527046149,31405.095029484637,51635.90480517207,0.0,0.0,0.0,193.0,0.0,193.0,0.0,17.0,0.0,179.0,193.0,17.0,179.0,1744418903.4059186,0.0,2025-04-11 20:48:23.405,STOP,47
55.0,8675.42727892724,-6709.747816294172,-20260.716409768633,-23431.333712498395,13660.93917619457,15082.085440407449,31757.55968780037,51589.2790662383,0.0,0.0,0.0,193.0,0.0,193.0,0.0,17.0,0.0,179.0,193.0,17.0,179.0,1744418903.4059536,0.0,2025-04-11 20:48:23.405,STOP,47
56.0,8673.952063793191,-6700.248324900666,-20303.810573078463,-23407.43969767567,13547.481721339433,15013.644398885299,31673.11479724822,51472.11122180358,0.0,0.0,0.0,193.0,0.0,193.0,0.0,17.0,0.0,179.0,193.0,17.0,179.0,1744418903.405989,0.0,2025-04-11 20:48:23.405,STOP,47
57.0,8682.57983715294,-6667.1900948512675,-20325.268247755557,-23367.452426845128,13438.919298520006,15246.750741809696,31419.713070358404,51569.318958439704,0.0,0.0,0.0,193.0,0.0,193.0,0.0,17.0,0.0,179.0,193.0,17.0,179.0,1744418903.4060287,0.0,2025-04-11 20:48:23.406,STOP,47
58.0,8693.95687508069,-6658.539969747063,-20268.3830581168,-23362.62445004278,13524.213555361457,15292.817687132085,31371.478005823854,51651.50632280187,0.0,0.0,0.0,193.0,0.0,193.0,0.0,17.0,0.0,178.0,193.0,17.0,178.0,1744418903.4060862,0.0,2025-04-11 20:48:23.406,STOP,47
59.0,8672.834476570426,-6698.996627211169,-20245.651334005754,-23411.038328532974,13670.349260610255,15136.221365478203,31739.09714688029,51645.538407032305,0.0,0.0,0.0,193.0,0.0,193.0,0.0,17.0,0.0,178.0,193.0,17.0,178.0,1744418903.4062014,0.0,2025-04-11 20:48:23.406,STOP,47
60.0,8677.126011505845,-6694.906257975848,-20294.847523551885,-23414.838125090377,13560.78100929034,14996.522962632533,31708.385849998696,51501.57082099567,0.0,0.0,0.0,193.0,0.0,193.0,0.0,17.0,0.0,179.0,193.0,17.0,179.0,1744418903.4062507,0.0,2025-04-11 20:48:23.406,STOP,47
61.0,8699.455404216696,-6652.527350488585,-20318.048634296494,-23372.168644925197,13445.893042790061,15217.648770528886,31456.526393476295,51557.60664434513,0.0,0.0,0.0,193.0,0.0,193.0,0.0,17.0,0.0,179.0,193.0,17.0,179.0,1744418903.4062865,0.0,2025-04-11 20:48:23.406,STOP,47
62.0,8732.804206944014,-6632.07550431198,-20264.33739237039,-23350.95683943711,13496.72090968143,15302.473640736776,31320.113697065557,51634.206072593464,0.0,0.0,0.0,193.0,0.0,193.0,0.0,17.0,0.0,179.0,193.0,17.0,179.0,1744418903.4063241,0.0,2025-04-11 20:48:23.406,STOP,47
63.0,8703.81399438548,-6676.823696711504,-20220.080938348885,-23387.72545906609,13677.546522324863,15187.630377725409,31679.350933951253,51647.013622166356,0.0,0.0,0.0,193.0,0.0,193.0,0.0,17.0,0.0,178.0,193.0,17.0,178.0,1744418903.4063866,0.0,2025-04-11 20:48:23.406,STOP,47
64.0,8683.071575530956,-6693.319284119521,-20270.05943895095,-23411.82063958891,13585.63614912464,15002.647340613288,31751.994103431,51505.12474836406,0.0,0.0,0.0,193.0,0.0,193.0,0.0,17.0,0.0,179.0,193.0,17.0,179.0,1744418903.40642,0.0,2025-04-11 20:48:23.406,STOP,47
65.0,8680.38936619632,-6674.610874010429,-20303.810573078463,-23371.52044433599,13464.154418010046,15189.19499983728,31527.649644333083,51533.62322254458,0.0,0.0,0.0,193.0,0.0,193.0,0.0,17.0,0.0,179.0,193.0,17.0,179.0,1744418903.4064538,0.0,2025-04-11 20:48:23.406,STOP,47
66.0,8689.24065700062,-6661.646862226351,-20281.4364768787,-23354.220194127585,13467.507179678343,15324.333646814066,31347.516935767766,51640.151636618575,0.0,0.0,0.0,193.0,0.0,193.0,0.0,17.0,0.0,179.0,193.0,17.0,179.0,1744418903.4064865,0.0,2025-04-11 20:48:23.406,STOP,47
67.0,8676.991901039113,-6686.032615427091,-20234.408406544735,-23390.765296312013,13645.494120775953,15210.607971025465,31638.290779386854,51663.33039561873,0.0,0.0,0.0,193.0,0.0,193.0,0.0,17.0,0.0,179.0,193.0,17.0,179.0,1744418903.4065192,0.0,2025-04-11 20:48:23.406,STOP,47
68.0,8673.169752737254,-6695.9567899652475,-20276.742610543086,-23430.238477020084,13599.762451620396,14994.35484342037,31790.23793819403,51532.37152485509,0.0,0.0,0.0,193.0,0.0,193.0,0.0,17.0,0.0,179.0,193.0,17.0,179.0,1744418903.4065528,0.0,2025-04-11 20:48:23.406,STOP,47
69.0,8673.437973670718,-6674.566170521519,-20313.980616805628,-23394.29687193595,13471.463438446932,15126.073673495493,31577.069351323767,51513.417245556986,0.0,0.0,0.0,193.0,0.0,193.0,0.0,17.0,0.0,179.0,193.0,17.0,179.0,1744418903.406586,0.0,2025-04-11 20:48:23.406,STOP,47
70.0,8683.518610420062,-6656.908292401826,-20306.604541135377,-23377.57776708338,13445.110731734125,15300.059652335603,31344.566505499664,51625.15361608906,0.0,0.0,0.0,193.0,0.0,193.0,0.0,17.0,0.0,179.0,193.0,17.0,179.0,1744418903.4066195,0.0,2025-04-11 20:48:23.406,STOP,47
71.0,8681.685767374727,-6684.311531104033,-20248.646467762766,-23400.53300863898,13614.268733771889,15221.426215341833,31544.52521139684,51661.02816593983,0.0,0.0,0.0,193.0,0.0,193.0,0.0,17.0,0.0,179.0,193.0,17.0,179.0,1744418903.4066522,0.0,2025-04-11 20:48:23.406,STOP,47
72.0,8674.33204344893,-6701.254153401155,-20272.048744207474,-23439.35798875785,13622.02478909788,15003.295541202491,31790.05912423839,51559.23832169036,0.0,0.0,0.0,193.0,0.0,193.0,0.0,17.0,0.0,179.0,193.0,17.0,179.0,1744418903.4066849,0.0,2025-04-11 20:48:23.406,STOP,47
73.0,8680.679938874238,-6677.2260281117,-20307.520962658044,-23401.29296795046,13497.95025562647,15066.573329755465,31608.78647670585,51496.8546029156,0.0,0.0,0.0,193.0,0.0,193.0,0.0,17.0,0.0,179.0,193.0,17.0,179.0,1744418903.4067173,0.0,2025-04-11 20:48:23.406,STOP,47
74.0,8691.542886679517,-6656.12598134589,-20310.73961385961,-23373.487397848057,13434.381894395578,15286.939178340339,31356.032950405235,51607.07105482472,0.0,0.0,0.0,193.0,0.0,193.0,0.0,17.0,0.0,179.0,193.0,17.0,179.0,1744418903.406766,0.0,2025-04-11 20:48:23.406,STOP,47
75.0,8689.978264567646,-6670.341690819466,-20241.873889192808,-23376.8178077719,13579.288253699335,15258.77598032665,31460.03561735578,51652.51215130236,0.0,0.0,0.0,193.0,0.0,193.0,0.0,17.0,0.0,179.0,193.0,17.0,179.0,1744418903.4068005,0.0,2025-04-11 20:48:23.406,STOP,47
76.0,8676.678976616739,-6693.9004294753595,-20249.071150907417,-23424.717596139624,13647.841053943761,15061.186559341737,31785.454664880595,51584.38403420259,0.0,0.0,0.0,193.0,0.0,193.0,0.0,17.0,0.0,179.0,193.0,17.0,179.0,1744418903.406833,0.0,2025-04-11 20:48:23.406,STOP,47
77.0,8678.757688851081,-6674.677929243795,-20293.4393636512,-23407.037366275476,13519.497337281387,15040.086512575926,31646.22564866849,51475.173410793956,0.0,0.0,0.0,193.0,0.0,193.0,0.0,17.0,0.0,179.0,193.0,17.0,179.0,1744418903.4068656,0.0,2025-04-11 20:48:23.406,STOP,47
78.0,8677.81891558396,-6657.489437757664,-20319.233276752624,-23385.043249731454,13425.999990224838,15281.641814904431,31398.210692192402,51591.916572084025,0.0,0.0,0.0,193.0,0.0,193.0,0.0,17.0,0.0,179.0,193.0,17.0,179.0,1744418903.8801475,0.0,2025-04-11 20:48:23.880,STOP,47
79.0,8693.174564024755,-6653.1084958444235,-20255.977839944106,-23380.63995607376,13540.262107880368,15284.681652150352,31398.30009917022,51647.79593322229,0.0,0.0,0.0,193.0,0.0,193.0,0.0,17.0,0.0,179.0,193.0,17.0,179.0,1744418903.8802936,0.0,2025-04-11 20:48:23.880,STOP,47
80.0,8684.926770320746,-6682.612798525429,-20232.508508266033,-23413.385261700783,13669.008155942936,15113.668455322797,31751.27884760843,51605.819357135224,0.0,0.0,0.0,193.0,0.0,193.0,0.0,17.0,0.0,179.0,193.0,17.0,179.0,1744418903.8803325,0.0,2025-04-11 20:48:23.880,STOP,47
81.0,8685.19499125421,-6686.278484616099,-20279.469523366635,-23402.34349993986,13554.008430720382,15036.331419507434,31682.211957241532,51478.61557944007,0.0,0.0,0.0,193.0,0.0,193.0,0.0,17.0,0.0,179.0,193.0,17.0,179.0,1744418903.8803704,0.0,2025-04-11 20:48:23.880,STOP,47
82.0,8665.056069499979,-6677.628359511896,-20328.46454721267,-23388.06073523292,13432.772568794797,15265.235634474235,31449.373835250597,51585.79219410327,0.0,0.0,0.0,193.0,0.0,193.0,0.0,17.0,0.0,179.0,193.0,17.0,179.0,1744418903.8804083,0.0,2025-04-11 20:48:23.880,STOP,47
83.0,8673.057994014978,-6654.918987145304,-20279.938910000197,-23385.71380206511,13500.09602309418,15306.072271594081,31363.16315688648,51660.58113105073,0.0,0.0,0.0,193.0,0.0,193.0,0.0,17.0,0.0,179.0,193.0,17.0,179.0,1744418903.8804567,0.0,2025-04-11 20:48:23.880,STOP,47
84.0,8668.073555001445,-6695.1968306537665,-20240.44337754767,-23419.68845363718,13659.75453373844,15151.040572052072,31718.71235593705,51640.2410435964,0.0,0.0,0.0,193.0,0.0,193.0,0.0,17.0,0.0,179.0,193.0,17.0,179.0,1744418903.8805,0.0,2025-04-11 20:48:23.880,STOP,47
85.0,8667.850037556891,-6708.294952904577,-20289.14782871578,-23430.014959575532,13562.435038380032,14998.758137078064,31727.720108952537,51497.7039692049,0.0,0.0,0.0,193.0,0.0,193.0,0.0,17.0,0.0,179.0,193.0,17.0,179.0,1744418903.8805335,0.0,2025-04-11 20:48:23.880,STOP,47
86.0,8678.087136517423,-6681.361100835932,-20315.589942406412,-23388.23954918856,13449.75989458083,15207.434023312811,31486.32126883522,51555.86320827761,0.0,0.0,0.0,193.0,0.0,193.0,0.0,17.0,0.0,179.0,193.0,17.0,179.0,1744418903.880566,0.0,2025-04-11 20:48:23.880,STOP,47
87.0,8699.254238516598,-6647.7664289196055,-20272.272261652026,-23369.10645593482,13478.683051905997,15309.134460584459,31330.797830915195,51642.00683140836,0.0,0.0,0.0,193.0,0.0,193.0,0.0,17.0,0.0,179.0,193.0,17.0,179.0,1744418903.8805983,0.0,2025-04-11 20:48:23.880,STOP,47
88.0,8681.171677252254,-6679.03651941258,-20222.919609894707,-23402.701127851145,13653.294879590856,15189.686738215298,31661.84951804275,51647.81828496674,0.0,0.0,0.0,193.0,0.0,192.0,0.0,17.0,0.0,178.0,192.0,17.0,178.0,1744418903.8806305,0.0,2025-04-11 20:48:23.880,STOP,47
89.0,8674.555560893485,-6690.391205595876,-20266.974898216118,-23422.12479378281,13591.827582338761,14994.53365737601,31754.69866451009,51509.30452457721,0.0,0.0,0.0,193.0,0.0,192.0,0.0,17.0,0.0,178.0,192.0,17.0,178.0,1744418903.8807087,0.0,2025-04-11 20:48:23.880,STOP,47
90.0,8681.708119119183,-6659.657556969829,-20302.938855044707,-23379.00827872852,13480.627653673608,15171.112438572936,31543.80995557427,51532.23741438835,0.0,0.0,0.0,193.0,0.0,193.0,0.0,17.0,0.0,179.0,193.0,17.0,179.0,1744418903.8807642,0.0,2025-04-11 20:48:23.880,STOP,47
91.0,8694.381558225341,-6649.889844642859,-20282.174084445727,-23364.59140355485,13470.52466517981,15321.383216545966,31347.673397978953,51640.911595930054,0.0,0.0,0.0,193.0,0.0,193.0,0.0,17.0,0.0,179.0,193.0,17.0,179.0,1744418903.8807976,0.0,2025-04-11 20:48:23.880,STOP,47
92.0,8669.548770135496,-6695.84503124297,-20231.882659421284,-23402.924645295698,13641.247289329445,15223.840203743006,31617.526008787874,51673.83571551272,0.0,0.0,0.0,193.0,0.0,193.0,0.0,17.0,0.0,179.0,193.0,17.0,179.0,1744418903.8808305,0.0,2025-04-11 20:48:23.880,STOP,47
93.0,8659.088153730412,-6710.75364479466,-20266.684325538197,-23434.373549744316,13609.485460458454,15007.855297071374,31795.602356863306,51549.35885064112,0.0,0.0,0.0,193.0,0.0,193.0,0.0,17.0,0.0,179.0,193.0,17.0,179.0,1744418903.8808892,0.0,2025-04-11 20:48:23.880,STOP,47
94.0,8664.13964797731,-6674.879094943893,-20299.63079686532,-23392.016994001508,13479.688880406486,15122.89972578284,31590.34628753022,51513.752521723814,0.0,0.0,0.0,193.0,0.0,192.0,0.0,17.0,0.0,179.0,192.0,17.0,179.0,1744418903.880922,0.0,2025-04-11 20:48:23.880,STOP,47
95.0,8683.160982508776,-6646.8276556524825,-20291.338299672403,-23367.43007510067,13434.448949628944,15314.722396698286,31352.099043381102,51623.432531766004,0.0,0.0,0.0,193.0,0.0,193.0,0.0,17.0,0.0,179.0,193.0,17.0,179.0,1744418903.8809545,0.0,2025-04-11 20:48:23.880,STOP,47
96.0,8688.52540117805,-6680.042347913069,-20236.934153668186,-23389.692412578155,13606.378567979165,15254.082113991037,31544.994598030404,51670.25943639987,0.0,0.0,0.0,193.0,0.0,193.0,0.0,17.0,0.0,179.0,193.0,17.0,179.0,1744418903.880987,0.0,2025-04-11 20:48:23.880,STOP,47
97.0,8674.086174259923,-6702.304685390554,-20263.085694680893,-23438.843898635376,13632.820681669795,15034.677390417743,31815.271891983975,51579.958388800434,0.0,0.0,0.0,193.0,0.0,193.0,0.0,17.0,0.0,179.0,193.0,17.0,179.0,1744418903.8810196,0.0,2025-04-11 20:48:23.881,STOP,47
98.0,8681.261084230076,-6669.514676274619,-20296.21097996366,-23401.58354062838,13517.686845980508,15069.702573979208,31630.042985682845,51490.86433540158,0.0,0.0,0.0,193.0,0.0,193.0,0.0,17.0,0.0,179.0,193.0,17.0,179.0,1744418903.8810537,0.0,2025-04-11 20:48:23.881,STOP,47
99.0,8683.518610420062,-6650.806266165527,-20314.561762161466,-23383.322165408394,13435.745350807352,15287.02858531816,31373.713180269384,51596.230458763894,0.0,0.0,0.0,193.0,0.0,193.0,0.0,17.0,0.0,179.0,193.0,17.0,179.0,1744418903.881086,0.0,2025-04-11 20:48:23.881,STOP,47
100.0,8686.133764521333,-6656.1036296014345,-20242.320924081912,-23383.7692002975,13573.029765251847,15266.420276930367,31454.112405075124,51644.10789538716,0.0,0.0,0.0,193.0,0.0,193.0,0.0,17.0,0.0,179.0,193.0,17.0,179.0,1744418903.8811195,0.0,2025-04-11 20:48:23.881,STOP,47
101.0,8665.10077298889,-6698.549592322063,-20241.069226392417,-23428.6291514193,13661.967356439514,15084.141800897338,31806.040621523935,51597.25863900884,0.0,0.0,0.0,193.0,0.0,193.0,0.0,17.0,0.0,179.0,193.0,17.0,179.0,1744418903.8811524,0.0,2025-04-11 20:48:23.881,STOP,47
102.0,8670.353432935886,-6690.592371295974,-20290.82420954993,-23410.367776199317,13526.225212362435,15046.926146379252,31681.161425252132,51485.2540475433,0.0,0.0,0.0,193.0,0.0,193.0,0.0,17.0,0.0,179.0,193.0,17.0,179.0,1744418903.8811867,0.0,2025-04-11 20:48:23.881,STOP,47
103.0,8677.416584183764,-6666.206618095233,-20308.5938463919,-23378.62829907278,13426.491728602854,15277.372631713466,31414.907445300516,51577.991435288364,0.0,0.0,0.0,193.0,0.0,193.0,0.0,17.0,0.0,179.0,193.0,17.0,179.0,1744418903.8812213,0.0,2025-04-11 20:48:23.881,STOP,47
104.0,8695.29797974801,-6647.654670197328,-20245.696037494665,-23372.258051903016,13526.806357718273,15299.433803490854,31394.679116568463,51639.92811917402,0.0,0.0,0.0,193.0,0.0,193.0,0.0,17.0,0.0,179.0,193.0,17.0,179.0,1744418903.881512,0.0,2025-04-11 20:48:23.881,STOP,47
105.0,8676.254293472088,-6692.2016968967555,-20237.872926935306,-23422.393014716272,13650.210338856023,15128.331199685479,31769.629629806237,51617.37520901862,0.0,0.0,0.0,193.0,0.0,193.0,0.0,17.0,0.0,179.0,193.0,17.0,179.0,1744418903.8815491,0.0,2025-04-11 20:48:23.881,STOP,47
106.0,8682.892761575313,-6692.849897485959,-20286.30915716996,-23414.30168322345,13537.088160167714,15018.15945126527,31718.041803603388,51488.56210572268,0.0,0.0,0.0,193.0,0.0,193.0,0.0,17.0,0.0,179.0,193.0,17.0,179.0,1744418903.8815832,0.0,2025-04-11 20:48:23.881,STOP,47
107.0,8689.888857589825,-6660.350461047943,-20313.69004412771,-23378.270671161496,13423.47424310139,15240.648715573398,31462.203736567946,51567.32965318319,0.0,0.0,0.0,193.0,0.0,193.0,0.0,17.0,0.0,179.0,193.0,17.0,179.0,1744418903.8816178,0.0,2025-04-11 20:48:23.881,STOP,47
108.0,8698.360168738385,-6640.725629416183,-20262.43749409169,-23374.761447282013,13491.244732289879,15305.200553560324,31361.375017330054,51644.778447720826,0.0,0.0,0.0,193.0,0.0,193.0,0.0,17.0,0.0,179.0,193.0,17.0,179.0,1744418903.8816833,0.0,2025-04-11 20:48:23.881,STOP,47
109.0,8660.228092697633,-6682.433984569787,-20226.89822040775,-23414.793421601466,13659.687478505073,15161.14356054587,31732.436327032607,51651.6404332686,0.0,0.0,0.0,193.0,0.0,193.0,0.0,17.0,0.0,180.0,193.0,17.0,180.0,1744418903.8817167,0.0,2025-04-11 20:48:23.881,STOP,47
110.0,8658.372897907842,-6692.872249230415,-20262.90688072525,-23408.132601753787,13575.577864119752,14998.422860911234,31754.542202298904,51506.66701873148,0.0,0.0,0.0,193.0,0.0,193.0,0.0,17.0,0.0,180.0,193.0,17.0,180.0,1744418903.881776,0.0,2025-04-11 20:48:23.881,STOP,47
111.0,8667.291243945509,-6670.3640425639205,-20293.97580551813,-23371.9674792251,13449.782246325285,15204.461241300254,31518.15015293958,51550.72230705289,0.0,0.0,0.0,193.0,0.0,193.0,0.0,17.0,0.0,179.0,193.0,17.0,179.0,1744418903.8818283,0.0,2025-04-11 20:48:23.881,STOP,47
112.0,8686.089061032422,-6649.152237075835,-20253.072113164915,-23354.175490638674,13472.491618691876,15323.014893891204,31350.601476502598,51640.643374996595,0.0,0.0,0.0,193.0,0.0,193.0,0.0,17.0,0.0,178.0,193.0,17.0,178.0,1744418903.881883,0.0,2025-04-11 20:48:23.881,STOP,47
113.0,8664.81020031097,-6682.143411891868,-20214.42594700169,-23396.263825448015,13651.41733305661,15203.544819777588,31673.762997837428,51660.80464849528,0.0,0.0,0.0,193.0,0.0,193.0,0.0,17.0,0.0,179.0,193.0,17.0,179.0,1744418903.8819296,0.0,2025-04-11 20:48:23.881,STOP,47
114.0,8656.942386262703,-6696.292066132077,-20264.33739237039,-23424.985817073088,13592.229913738956,15004.524887147534,31796.786999319436,51533.265594633296,0.0,0.0,0.0,193.0,0.0,193.0,0.0,17.0,0.0,178.0,193.0,17.0,178.0,1744418903.8819995,0.0,2025-04-11 20:48:23.881,STOP,47
115.0,8653.053182727479,-6687.574885794507,-20306.44807892419,-23388.95480501113,13457.448894673455,15162.842293124473,31583.260784537888,51547.77187678479,0.0,0.0,0.0,193.0,0.0,193.0,0.0,17.0,0.0,178.0,193.0,17.0,178.0,1744418903.8820417,0.0,2025-04-11 20:48:23.882,STOP,47
116.0,8675.248464971599,-6658.9199494028035,-20285.191569947194,-23365.61958379979,13430.202118182437,15314.70004495383,31350.06503463567,51640.710430229956,0.0,0.0,0.0,193.0,0.0,193.0,0.0,17.0,0.0,179.0,193.0,17.0,179.0,1744418903.8821,0.0,2025-04-11 20:48:23.882,STOP,47
117.0,8674.108526004378,-6676.89075194487,-20222.98666512807,-23390.139447467263,13616.07922507277,15237.318305649556,31585.317145027777,51657.5412938048,0.0,0.0,0.0,193.0,0.0,193.0,0.0,17.0,0.0,179.0,193.0,17.0,179.0,1744418903.8821523,0.0,2025-04-11 20:48:23.882,STOP,47
118.0,8670.666357358261,-6700.382435367398,-20259.643526034775,-23434.172384044217,13613.2629052714,15034.230355528636,31806.666470368684,51552.57750184268,0.0,0.0,0.0,193.0,0.0,193.0,0.0,17.0,0.0,179.0,193.0,17.0,179.0,1744418903.8822074,0.0,2025-04-11 20:48:23.882,STOP,47
119.0,8693.889819847325,-6659.076411613991,-20291.561817116955,-23386.943148010156,13485.545037453776,15128.621772363398,31609.702898228516,51507.76225420979,0.0,0.0,0.0,193.0,0.0,193.0,0.0,17.0,0.0,179.0,193.0,17.0,179.0,1744418903.8826437,0.0,2025-04-11 20:48:23.882,STOP,47
120.0,8681.372842952353,-6636.523501458586,-20283.179912946216,-23358.534080807458,13435.56653685171,15332.872013195994,31370.762750001282,51618.35868577465,0.0,0.0,0.0,193.0,0.0,193.0,0.0,17.0,0.0,179.0,193.0,17.0,179.0,1744418903.8827171,0.0,2025-04-11 20:48:23.882,STOP,47
121.0,8658.641118841306,-6664.329071560988,-20226.182964585183,-23380.975232240588,13587.804268336806,15277.193817757825,31532.075289735236,51666.16906716455,0.0,0.0,0.0,193.0,0.0,193.0,0.0,17.0,0.0,178.0,193.0,17.0,178.0,1744418903.882787,0.0,2025-04-11 20:48:23.882,STOP,47
122.0,8647.644060569293,-6689.698301517761,-20249.29466835197,-23422.661235649735,13630.429045013076,15064.36050705439,31820.97158682008,51580.42777543399,0.0,0.0,0.0,193.0,0.0,193.0,0.0,17.0,0.0,179.0,193.0,17.0,179.0,1744418903.882854,0.0,2025-04-11 20:48:23.882,STOP,47
123.0,8657.434124640718,-6679.75177523515,-20292.902921784273,-23393.045174246454,13498.866677149139,15081.325481095968,31659.033198241377,51489.52323073426,0.0,0.0,0.0,193.0,0.0,193.0,0.0,17.0,0.0,179.0,193.0,17.0,179.0,1744418903.883054,0.0,2025-04-11 20:48:23.883,STOP,47
124.0,8675.42727892724,-6645.844178896449,-20306.045747523993,-23369.508787335013,13418.780376765773,15310.900248396427,31408.581901619662,51599.58322043219,0.0,0.0,0.0,193.0,0.0,193.0,0.0,17.0,0.0,179.0,193.0,17.0,179.0,1744418903.8831172,0.0,2025-04-11 20:48:23.883,STOP,47
125.0,8689.419470956263,-6650.426286509787,-20248.691171251678,-23380.461142118114,13547.437017850521,15287.319157996079,31461.89081214557,51653.27211061384,0.0,0.0,0.0,193.0,0.0,193.0,0.0,17.0,0.0,179.0,193.0,17.0,179.0,1744418903.8831892,0.0,2025-04-11 20:48:23.883,STOP,47
126.0,8671.538075392018,-6693.2522288861555,-20247.975915429106,-23428.182116530195,13646.902280676637,15089.372109099879,31807.895816313725,51600.61140067714,0.0,0.0,0.0,193.0,0.0,193.0,0.0,17.0,0.0,179.0,193.0,17.0,179.0,1744418903.883258,0.0,2025-04-11 20:48:23.883,STOP,47
127.0,8670.107563746878,-6692.626380041406,-20301.240122466104,-23417.34152046937,13507.516802253343,15035.079721817938,31700.540387694884,51487.64568420001,0.0,0.0,0.0,193.0,0.0,193.0,0.0,17.0,0.0,178.0,193.0,17.0,178.0,1744418903.8833337,0.0,2025-04-11 20:48:23.883,STOP,47
128.0,8696.035587315035,-6647.274690541589,-20308.795012091996,-23367.988868712055,13408.811498738707,15272.83522758904,31416.44971566793,51568.8719235506,0.0,0.0,0.0,193.0,0.0,193.0,0.0,17.0,0.0,179.0,193.0,17.0,179.0,1744418903.883378,0.0,2025-04-11 20:48:23.883,STOP,47
129.0,8701.824689128958,-6632.07550431198,-20242.566793270922,-23356.030685428464,13514.647008734586,15312.800146675128,31369.801624989705,51629.378095791115,0.0,0.0,0.0,193.0,0.0,193.0,0.0,17.0,0.0,179.0,193.0,17.0,179.0,1744418903.8834195,0.0,2025-04-11 20:48:23.883,STOP,47
130.0,8655.511874617563,-6687.686644516783,-20235.078958878395,-23413.027633789497,13650.255042344934,15153.476912197699,31754.363388343263,51617.844595652175,0.0,0.0,0.0,193.0,0.0,193.0,0.0,17.0,0.0,178.0,193.0,17.0,178.0,1744418903.8834631,0.0,2025-04-11 20:48:23.883,STOP,47
131.0,8664.609034610872,-6690.368853851421,-20283.67165132423,-23411.01597678852,13533.333067099222,15026.094320546905,31713.213826801042,51482.504782975295,0.0,0.0,0.0,193.0,0.0,193.0,0.0,17.0,0.0,179.0,193.0,17.0,179.0,1744418903.8835049,0.0,2025-04-11 20:48:23.883,STOP,47
132.0,8695.610904170384,-6651.298004543544,-20299.653148609777,-23365.060790188407,13424.100091946137,15246.482520876232,31449.12796606159,51543.56974882719,0.0,0.0,0.0,193.0,0.0,193.0,0.0,17.0,0.0,179.0,193.0,17.0,179.0,1744418903.8835585,0.0,2025-04-11 20:48:23.883,STOP,47
133.0,8701.556468195495,-6637.037591581058,-20254.659087021242,-23354.756635994512,13484.896836864573,15332.246164351245,31331.311921037668,51630.31686905824,0.0,0.0,0.0,193.0,0.0,193.0,0.0,17.0,0.0,179.0,193.0,17.0,179.0,1744418903.8836524,0.0,2025-04-11 20:48:23.883,STOP,47
134.0,8668.967624779658,-6670.3640425639205,-20227.81464193042,-23406.9256075532,13646.298783576345,15192.905389416861,31692.8290358578,51642.945604675486,0.0,0.0,0.0,193.0,0.0,193.0,0.0,17.0,0.0,179.0,193.0,17.0,179.0,1744418903.8838837,0.0,2025-04-11 20:48:23.883,STOP,47
135.0,8679.115316762367,-6673.113307131924,-20267.980726716607,-23420.02372980401,13569.520541372365,15009.598733138888,31735.163239856156,51496.94400989342,0.0,0.0,0.0,193.0,0.0,193.0,0.0,17.0,0.0,179.0,193.0,17.0,179.0,1744418903.8839269,0.0,2025-04-11 20:48:23.883,STOP,47
136.0,8684.837363342926,-6658.2717488135995,-20304.41407017876,-23377.890691505756,13448.642307358064,15198.649787741875,31508.71771677944,51536.99833595733,0.0,0.0,0.0,193.0,0.0,193.0,0.0,17.0,0.0,179.0,193.0,17.0,179.0,1744418903.8839605,0.0,2025-04-11 20:48:23.883,STOP,47
137.0,8699.321293749965,-6634.400085735332,-20271.10997094035,-23358.779949996468,13452.285641704279,15317.002274632727,31321.25363603278,51630.585089991706,0.0,0.0,0.0,193.0,0.0,193.0,0.0,17.0,0.0,178.0,193.0,17.0,178.0,1744418903.883993,0.0,2025-04-11 20:48:23.883,STOP,47
138.0,8690.358244223386,-6662.362118048921,-20217.86811564781,-23390.966462012108,13641.359048051721,15205.310607589558,31620.49879080043,51646.11955238814,0.0,0.0,0.0,193.0,0.0,193.0,0.0,17.0,0.0,179.0,193.0,17.0,179.0,1744418903.8840468,0.0,2025-04-11 20:48:23.884,STOP,47
139.0,8680.724642363148,-6677.4048420673425,-20264.29268888148,-23429.59027643088,13597.750794619418,14997.528791133022,31766.0980541823,51519.51927179328,0.0,0.0,0.0,193.0,0.0,193.0,0.0,17.0,0.0,179.0,193.0,17.0,179.0,1744418903.8840797,0.0,2025-04-11 20:48:23.884,STOP,47
140.0,8674.354395193386,-6656.662423212818,-20304.525828901034,-23396.01795625901,13462.500388920354,15146.167891760815,31560.752577871393,51528.39291434204,0.0,0.0,0.0,193.0,0.0,193.0,0.0,17.0,0.0,179.0,193.0,17.0,179.0,1744418903.884112,0.0,2025-04-11 20:48:23.884,STOP,47
141.0,8691.654645401793,-6641.7761614055835,-20288.186703704203,-23373.062714703407,13427.94459199245,15321.629085734974,31334.307054794677,51637.60353775067,0.0,0.0,0.0,193.0,0.0,193.0,0.0,17.0,0.0,179.0,193.0,17.0,179.0,1744418903.8841443,0.0,2025-04-11 20:48:23.884,STOP,47
142.0,8677.416584183764,-6677.203676367245,-20229.8262989314,-23392.48638063507,13592.900466072615,15251.15403546739,31558.517403425863,51678.06019521478,0.0,0.0,0.0,193.0,0.0,193.0,0.0,17.0,0.0,179.0,193.0,17.0,179.0,1744418903.8841772,0.0,2025-04-11 20:48:23.884,STOP,47
143.0,8671.471020158651,-6675.437888555275,-20250.926345697208,-23422.862401349834,13602.578771421764,15038.276021275047,31783.73358055754,51568.134315983574,0.0,0.0,0.0,193.0,0.0,193.0,0.0,17.0,0.0,178.0,193.0,17.0,178.0,1744418903.88421,0.0,2025-04-11 20:48:23.884,STOP,47
144.0,8673.326214948442,-6654.941338889759,-20298.937892787206,-23396.15206672574,13474.57033092622,15114.18254544527,31603.48911326994,51517.14998688102,0.0,0.0,0.0,193.0,0.0,192.0,0.0,17.0,0.0,179.0,192.0,17.0,179.0,1744418903.8842425,0.0,2025-04-11 20:48:23.884,STOP,47
145.0,8682.088098774922,-6647.073524841491,-20293.573474117933,-23364.77021751049,13418.556859321221,15320.198574089834,31347.427528789944,51628.21580507944,0.0,0.0,0.0,193.0,0.0,193.0,0.0,17.0,0.0,179.0,193.0,17.0,179.0,1744418903.8842752,0.0,2025-04-11 20:48:23.884,STOP,47
146.0,8676.231941727632,-6666.564246006518,-20228.865173919818,-23379.477665362083,13583.222160723468,15276.612672401987,31474.921879163016,51677.769622536856,0.0,0.0,0.0,193.0,0.0,193.0,0.0,17.0,0.0,179.0,193.0,17.0,179.0,1744418903.8843153,0.0,2025-04-11 20:48:23.884,STOP,47
147.0,8668.744107335104,-6690.212391640233,-20243.14793862676,-23433.144203799275,13639.682667217574,15064.986355899138,31785.879348025246,51601.19254603297,0.0,0.0,0.0,193.0,0.0,193.0,0.0,17.0,0.0,179.0,193.0,17.0,179.0,1744418903.884349,0.0,2025-04-11 20:48:23.884,STOP,47
148.0,8671.873351558846,-6681.249342113655,-20294.82517180743,-23415.620436146313,13500.140726583091,15058.727867451653,31641.375320121686,51509.88566993304,0.0,0.0,0.0,193.0,0.0,193.0,0.0,17.0,0.0,180.0,193.0,17.0,180.0,1744418903.8843827,0.0,2025-04-11 20:48:23.884,STOP,47
149.0,8677.975377795146,-6644.860702140415,-20305.129326001326,-23375.923737993686,13416.3663883646,15295.321082511078,31383.50324434081,51627.23232832341,0.0,0.0,0.0,193.0,0.0,193.0,0.0,17.0,0.0,179.0,193.0,17.0,179.0,1744418903.884602,0.0,2025-04-11 20:48:23.884,STOP,47
150.0,8691.0511483015,-6642.960803861714,-20233.827261188897,-23367.43007510067,13548.465198095466,15301.959550614305,31408.246625452834,51681.681177816536,0.0,0.0,0.0,193.0,0.0,193.0,0.0,17.0,0.0,178.0,193.0,17.0,178.0,1744418903.8846369,0.0,2025-04-11 20:48:23.884,STOP,47
151.0,8657.881159529825,-6715.626325085917,-20241.426854303703,-23432.20543053215,13651.84201620126,15118.295266425046,31778.793845032913,51645.33724133221,0.0,0.0,0.0,193.0,0.0,193.0,0.0,17.0,0.0,179.0,193.0,17.0,179.0,1744418903.8846693,0.0,2025-04-11 20:48:23.884,STOP,47
152.0,8662.150342720788,-6697.119080676924,-20288.14200021529,-23416.223933246605,13518.826784947729,15028.97769558164,31682.636640386183,51516.99352466983,0.0,0.0,0.0,193.0,0.0,193.0,0.0,17.0,0.0,179.0,193.0,17.0,179.0,1744418903.8847024,0.0,2025-04-11 20:48:23.884,STOP,47
153.0,8666.173656722744,-6660.12694360339,-20303.184724233713,-23373.666211803702,13425.575307080187,15272.768172355674,31431.60419840863,51612.92721187201,0.0,0.0,0.0,193.0,0.0,193.0,0.0,17.0,0.0,179.0,193.0,17.0,179.0,1744418903.8847592,0.0,2025-04-11 20:48:23.884,STOP,47
154.0,8671.538075392018,-6658.517618002608,-20261.699886524664,-23378.807113028422,13494.172810813525,15306.564009972099,31368.34876160011,51689.07960523124,0.0,0.0,0.0,193.0,0.0,193.0,0.0,17.0,0.0,179.0,193.0,17.0,179.0,1744418903.884794,0.0,2025-04-11 20:48:23.884,STOP,47
155.0,8656.42829614023,-6692.939304463781,-20232.597915243856,-23422.147145527262,13647.952812666037,15152.068752297015,31738.873629435737,51679.20013418199,0.0,0.0,0.0,193.0,0.0,193.0,0.0,17.0,0.0,179.0,193.0,17.0,179.0,1744418903.8848348,0.0,2025-04-11 20:48:23.884,STOP,47
156.0,8652.583796093917,-6684.780917737594,-20277.72608729912,-23428.182116530195,13538.25045087939,15007.832945326918,31721.774544927426,51537.445370846435,0.0,0.0,0.0,193.0,0.0,193.0,0.0,17.0,0.0,179.0,193.0,17.0,179.0,1744418903.884868,0.0,2025-04-11 20:48:23.884,STOP,47
157.0,8658.507008374574,-6662.6750424712955,-20305.01756727905,-23391.525255623492,13420.501461088832,15222.499099075689,31463.723655190905,51592.69888313996,0.0,0.0,0.0,193.0,0.0,193.0,0.0,17.0,0.0,179.0,193.0,17.0,179.0,1744418903.8849,0.0,2025-04-11 20:48:23.884,STOP,47
158.0,8680.143497007311,-6642.625527694885,-20262.77277025852,-23380.259976418016,13459.23703422988,15316.376425787977,31309.071935304637,51667.89015148761,0.0,0.0,0.0,193.0,0.0,193.0,0.0,17.0,0.0,179.0,193.0,17.0,179.0,1744418903.8849328,0.0,2025-04-11 20:48:23.884,STOP,47
159.0,8669.414659668762,-6684.08801365948,-20230.653313476243,-23424.561133928437,13631.926611891582,15192.10072661647,31654.004055738937,51677.3002359033,0.0,0.0,0.0,193.0,0.0,193.0,0.0,17.0,0.0,179.0,193.0,17.0,179.0,1744418903.8849654,0.0,2025-04-11 20:48:23.884,STOP,47
160.0,8666.933616034225,-6702.841127257482,-20288.25375893757,-23452.701980197668,13550.119227185158,15000.568628378944,31726.021376373934,51533.7126295224,0.0,0.0,0.0,193.0,0.0,193.0,0.0,17.0,0.0,179.0,193.0,17.0,179.0,1744418903.884998,0.0,2025-04-11 20:48:23.884,STOP,47
161.0,8685.485563932129,-6666.787763451071,-20320.194401764205,-23408.40082268725,13430.716208304908,15178.980252621204,31496.647774773573,51556.53376061127,0.0,0.0,0.0,193.0,0.0,193.0,0.0,17.0,0.0,179.0,193.0,17.0,179.0,1744418903.88503,0.0,2025-04-11 20:48:23.885,STOP,47
162.0,8692.951046580201,-6649.50986498712,-20292.29942468398,-23383.031592730476,13434.694818817952,15327.284077082168,31302.52287417923,51658.07773567173,0.0,0.0,0.0,193.0,0.0,193.0,0.0,17.0,0.0,179.0,193.0,17.0,179.0,1744418903.8850625,0.0,2025-04-11 20:48:23.885,STOP,47
163.0,8656.942386262703,-6686.546705549563,-20232.62026698831,-23410.21131398813,13615.431024483565,15232.020942213649,31575.951764101002,51675.55679983578,0.0,0.0,0.0,193.0,0.0,193.0,0.0,17.0,0.0,180.0,193.0,17.0,180.0,1744418903.8850951,0.0,2025-04-11 20:48:23.885,STOP,47
164.0,8642.927842489224,-6691.933475963292,-20267.913671483242,-23444.096558582372,13582.73042234545,15024.484994946122,31748.909562696168,51557.7184030674,0.0,0.0,0.0,193.0,0.0,193.0,0.0,17.0,0.0,179.0,193.0,17.0,179.0,1744418903.8853004,0.0,2025-04-11 20:48:23.885,STOP,47
165.0,8648.493426858597,-6662.809152938027,-20312.01366329356,-23410.25601747704,13452.41975217101,15153.834540108985,31556.81867084726,51553.65038557653,0.0,0.0,0.0,193.0,0.0,193.0,0.0,17.0,0.0,179.0,193.0,17.0,179.0,1744418903.8853345,0.0,2025-04-11 20:48:23.885,STOP,47
166.0,8677.729508606137,-6634.623603179884,-20295.249854952082,-23377.555415338924,13413.862992985607,15328.580478260576,31308.647252159986,51656.40135483758,0.0,0.0,0.0,193.0,0.0,193.0,0.0,17.0,0.0,179.0,193.0,17.0,179.0,1744418903.885367,0.0,2025-04-11 20:48:23.885,STOP,47
167.0,8689.821802356459,-6652.952033633236,-20218.89629589275,-23381.042287473952,13587.133716003147,15257.300765192602,31485.538957779285,51674.7968405243,0.0,0.0,0.0,193.0,0.0,193.0,0.0,17.0,0.0,179.0,193.0,17.0,179.0,1744418903.885399,0.0,2025-04-11 20:48:23.885,STOP,47
168.0,8669.682880602228,-6699.287199889088,-20254.72614225461,-23437.50279396806,13607.652617413118,15045.652096945298,31756.82208023335,51582.953522557444,0.0,0.0,0.0,193.0,0.0,193.0,0.0,17.0,0.0,179.0,193.0,17.0,179.0,1744418903.8854508,0.0,2025-04-11 20:48:23.885,STOP,47
169.0,8685.999654054602,-6668.888827429871,-20295.763945074552,-23402.14233423976,13478.750107139364,15095.98822545865,31578.522214713365,51516.03239965825,0.0,0.0,0.0,193.0,0.0,193.0,0.0,17.0,0.0,179.0,193.0,17.0,179.0,1744418903.8854835,0.0,2025-04-11 20:48:23.885,STOP,47
170.0,8686.111412776878,-6654.717821445206,-20309.73378535912,-23384.327993908882,13400.764870734796,15318.79041418915,31333.792964672204,51632.06030512576,0.0,0.0,0.0,193.0,0.0,193.0,0.0,17.0,0.0,179.0,193.0,17.0,179.0,1744418903.8855157,0.0,2025-04-11 20:48:23.885,STOP,47
171.0,8675.941369049713,-6675.817868211016,-20258.704752767655,-23411.01597678852,13526.96281992946,15278.110239280491,31429.860762341115,51682.66465457257,0.0,0.0,0.0,193.0,0.0,193.0,0.0,17.0,0.0,179.0,193.0,17.0,179.0,1744418903.885548,0.0,2025-04-11 20:48:23.885,STOP,47
172.0,8656.003612995579,-6685.160897393334,-20261.454017335658,-23456.747645944077,13602.489364443943,15065.701611721708,31742.51696378195,51606.95929610245,0.0,0.0,0.0,193.0,0.0,193.0,0.0,18.0,0.0,179.0,193.0,18.0,179.0,1744418903.8855805,0.0,2025-04-11 20:48:23.885,STOP,47
173.0,8654.237825183609,-6667.860647184926,-20299.787259076507,-23434.284142766493,13486.595569443176,15046.613221956877,31614.10619188621,51497.18987908243,0.0,0.0,0.0,193.0,0.0,193.0,0.0,17.0,0.0,178.0,193.0,17.0,178.0,1744418903.8856137,0.0,2025-04-11 20:48:23.885,STOP,47
174.0,8655.33306066192,-6653.309661544521,-20325.335302988926,-23410.188962243672,13391.243027596836,15285.5086666952,31367.275877866257,51609.2838775258,0.0,0.0,0.0,193.0,0.0,193.0,0.0,18.0,0.0,179.0,193.0,18.0,179.0,1744418903.8856456,0.0,2025-04-11 20:48:23.885,STOP,47
