Sample Index,EXG Channel 0,EXG Channel 1,EXG Channel 2,EXG Channel 3,EXG Channel 4,EXG Channel 5,EXG Channel 6,EXG Channel 7,Accel Channel 0,Accel Channel 1,Accel Channel 2,Not Used,Digital Channel 0 (D11),Digital Channel 1 (D12),Digital Channel 2 (D13),Digital Channel 3 (D17),Not Used,Digital Channel 4 (D18),Analog Channel 0,Analog Channel 1,Analog Channel 2,Timestamp,Marker Channel,Timestamp (Formatted),Stimulus_Direction,Stimulus_Number
157.0,19498.454868609297,3633.790151332635,-66475.92085312854,-65065.950461143315,-38834.07727886168,-36475.87883184896,-33371.69091364037,-22747.638553099463,0.0,0.0,0.0,193.0,1.0,155.0,0.0,10.0,3.0,251.0,411.0,10.0,1019.0,1744252589.55123,0.0,2025-04-09 22:36:29.551,STOP,2
158.0,19446.598821472984,3647.558825917104,-66476.68081244003,-65046.34798125601,-38831.41742127149,-36483.56783194159,-32978.2331559936,-22748.018532755203,0.0,0.0,0.0,193.0,1.0,155.0,0.0,9.0,3.0,252.0,411.0,9.0,1020.0,1744252589.5512395,0.0,2025-04-09 22:36:29.551,STOP,2
159.0,19349.63695402586,3582.6270082744372,-66530.43675785503,-65110.56454307611,-38889.040218477276,-36538.374309346,-33061.22518315616,-22806.08836485009,0.0,0.0,0.0,193.0,1.0,155.0,0.0,8.0,3.0,251.0,411.0,8.0,1019.0,1744252589.5512483,0.0,2025-04-09 22:36:29.551,STOP,2
160.0,19483.03216493513,3591.2547816341857,-66553.6602203441,-65090.98441493326,-38958.66590245556,-36608.98347008032,-32804.895377742694,-22865.968688245855,0.0,0.0,0.0,193.0,1.0,154.0,0.0,8.0,3.0,250.0,410.0,8.0,1018.0,1744252589.551257,0.0,2025-04-09 22:36:29.551,STOP,2
161.0,19521.521868887172,3643.021421792677,-66481.32997528672,-65072.70068796882,-38839.620511486595,-36481.3103057516,-33329.2673026642,-22756.78041658168,0.0,0.0,0.0,193.0,1.0,155.0,0.0,7.0,3.0,251.0,411.0,7.0,1019.0,1744252589.5512657,0.0,2025-04-09 22:36:29.551,STOP,2
162.0,19452.834958176012,3640.629785135959,-66482.31345204276,-65045.27509752216,-38842.5709417547,-36493.3131925241,-33017.7957436795,-22752.779454324183,0.0,0.0,0.0,193.0,1.0,155.0,0.0,7.0,3.0,251.0,411.0,7.0,1019.0,1744252589.5512743,0.0,2025-04-09 22:36:29.551,STOP,2
163.0,19354.755503506127,3594.115804924465,-66528.26863864287,-65113.917304744406,-38880.14422418406,-36527.35489932953,-33062.83450875694,-22796.05243158966,0.0,0.0,0.0,193.0,1.0,155.0,0.0,7.0,3.0,251.0,411.0,7.0,1019.0,1744252589.5512831,0.0,2025-04-09 22:36:29.551,STOP,2
164.0,19463.742609470202,3597.9156014818673,-66538.1034062032,-65073.95238565832,-38949.725204673436,-36593.40430419496,-32836.90307580269,-22851.350647372084,0.0,0.0,0.0,193.0,1.0,155.0,0.0,6.0,3.0,251.0,411.0,6.0,1019.0,1744252589.551292,0.0,2025-04-09 22:36:29.551,STOP,2
165.0,19539.470319684784,3648.3858404619505,-66495.03159463783,-65084.50240904122,-38867.00139844434,-36499.817550160595,-33252.06437731557,-22775.779399368694,0.0,0.0,0.0,193.0,1.0,154.0,0.0,6.0,3.0,249.0,410.0,6.0,1017.0,1744252589.5513005,0.0,2025-04-09 22:36:29.551,STOP,2
166.0,19478.94179569981,3661.4169074793945,-66458.33003024221,-65024.95736181228,-38828.93637763696,-36474.00128531471,-33109.996689557636,-22742.54235536365,0.0,0.0,0.0,193.0,1.0,154.0,0.0,6.0,3.0,249.0,410.0,6.0,1017.0,1744252589.5513735,0.0,2025-04-09 22:36:29.551,STOP,2
167.0,19364.612622810917,3604.576421329549,-66528.51450783187,-65114.76667103371,-38878.333732883184,-36526.55023652914,-33030.67034848575,-22793.660794932937,0.0,0.0,0.0,193.0,1.0,154.0,0.0,5.0,3.0,250.0,410.0,5.0,1018.0,1744252589.5513828,0.0,2025-04-09 22:36:29.551,STOP,2
168.0,19403.0799750185,3571.7193569802475,-66560.58926112525,-65104.618979050996,-38961.48222225693,-36616.31484226166,-32895.37523929778,-22874.1494267165,0.0,0.0,0.0,193.0,1.0,154.0,0.0,5.0,3.0,249.0,410.0,5.0,1017.0,1744252589.5513916,0.0,2025-04-09 22:36:29.551,STOP,2
169.0,19519.845488053023,3619.9767732592554,-66536.42702536906,-65120.198144936345,-38910.855521065656,-36556.658036310444,-33148.151117342844,-22827.255466849267,0.0,0.0,0.0,193.0,1.0,154.0,0.0,5.0,3.0,249.0,410.0,5.0,1017.0,1744252589.5514004,0.0,2025-04-09 22:36:29.551,STOP,2
170.0,19462.356801313974,3627.308145440596,-66472.07635308223,-65048.270231279166,-38832.37854628307,-36488.79814014413,-33221.26367345615,-22749.337285678066,0.0,0.0,0.0,193.0,1.0,154.0,0.0,5.0,3.0,249.0,410.0,5.0,1017.0,1744252589.5514088,0.0,2025-04-09 22:36:29.551,STOP,2
171.0,19380.102381718443,3605.76106378568,-66512.68947275751,-65107.85998199702,-38852.51746803731,-36521.27522483769,-33002.55185396098,-22788.452838474852,0.0,0.0,0.0,193.0,1.0,154.0,0.0,5.0,3.0,249.0,410.0,5.0,1017.0,1744252589.5514176,0.0,2025-04-09 22:36:29.551,STOP,2
172.0,19380.415306140818,3567.047842389088,-66535.53295559084,-65100.84153423805,-38918.63392813611,-36590.833853582604,-32960.664684851734,-22850.65774329397,0.0,0.0,0.0,193.0,1.0,154.0,0.0,5.0,3.0,249.0,410.0,5.0,1017.0,1744252589.551426,0.0,2025-04-09 22:36:29.551,STOP,2
173.0,19525.969866033778,3608.2644591646745,-66531.62140031117,-65112.375034376986,-38911.8837013106,-36569.867917283525,-32995.756923646564,-22828.149536627476,0.0,0.0,0.0,193.0,1.0,154.0,0.0,4.0,3.0,249.0,410.0,4.0,1017.0,1744252589.5514348,0.0,2025-04-09 22:36:29.551,STOP,2
174.0,19475.65608926488,3633.3431164435287,-66453.68086739551,-65044.626896932954,-38810.71970590588,-36471.74375912473,-33296.92432843737,-22740.955381507323,0.0,0.0,0.0,193.0,1.0,154.0,0.0,4.0,3.0,250.0,410.0,4.0,1018.0,1744252589.5514436,0.0,2025-04-09 22:36:29.551,STOP,2
175.0,19400.509524406138,3620.379104659451,-66497.57969350573,-65085.9105689419,-38841.02867138728,-36504.33260254057,-32972.66757162423,-22773.387762711976,0.0,0.0,0.0,193.0,1.0,154.0,0.0,4.0,3.0,250.0,410.0,4.0,1018.0,1744252589.5514526,0.0,2025-04-09 22:36:29.551,STOP,2
176.0,19352.386218593863,3558.4647725182504,-66539.95860099299,-65112.12916518798,-38912.75541934436,-36569.37617890551,-33026.91525541726,-22831.122318640035,0.0,0.0,0.0,193.0,1.0,154.0,0.0,4.0,3.0,250.0,410.0,4.0,1018.0,1744252589.5514615,0.0,2025-04-09 22:36:29.551,STOP,2
177.0,19515.062214739588,3596.753310770191,-66551.17917670956,-65111.97270297679,-38938.79520163479,-36590.3868186935,-32896.17990209817,-22852.57999331713,0.0,0.0,0.0,193.0,1.0,155.0,0.0,4.0,3.0,249.0,411.0,4.0,1017.0,1744252589.5514722,0.0,2025-04-09 22:36:29.551,STOP,2
178.0,19483.322737613053,3629.655078608403,-66470.06469608124,-65064.22937682026,-38816.93349086446,-36468.39099745643,-33353.74246284276,-22742.74352106375,0.0,0.0,0.0,193.0,1.0,155.0,0.0,4.0,3.0,249.0,411.0,4.0,1017.0,1744252589.5514808,0.0,2025-04-09 22:36:29.551,STOP,2
179.0,19407.282102976096,3618.8144825475792,-66501.53595227432,-65082.84837995152,-38842.280369076776,-36500.15282632742,-32958.362455172835,-22763.97767829629,0.0,0.0,0.0,193.0,1.0,154.0,0.0,4.0,3.0,248.0,410.0,4.0,1016.0,1744252589.5514896,0.0,2025-04-09 22:36:29.551,STOP,2
180.0,19321.853735667915,3550.9322346368117,-66548.54167086384,-65133.43037765389,-38903.01005876184,-36560.54723984566,-33055.61489529788,-22824.685016236905,0.0,0.0,0.0,193.0,1.0,154.0,0.0,4.0,3.0,249.0,410.0,4.0,1017.0,1744252589.551514,0.0,2025-04-09 22:36:29.551,STOP,2
181.0,19490.85527549449,3588.527868810638,-66550.57567960926,-65105.13306917347,-38943.645530181595,-36598.99224030879,-32827.58239836483,-22857.877356753037,0.0,0.0,0.0,193.0,1.0,154.0,0.0,4.0,3.0,250.0,410.0,4.0,1018.0,1744252589.5515225,0.0,2025-04-09 22:36:29.551,STOP,2
182.0,19493.15750517339,3622.6589825938922,-66473.86449263865,-65077.19338860433,-38823.34844152313,-36471.69905563582,-33355.46354716582,-22737.78143379467,0.0,0.0,0.0,193.0,1.0,154.0,0.0,4.0,3.0,250.0,410.0,4.0,1018.0,1744252589.5515313,0.0,2025-04-09 22:36:29.551,STOP,2
183.0,19424.381187484407,3619.820311048068,-66488.21431257896,-65066.19633033232,-38839.17347659749,-36493.670820435385,-32981.16123451725,-22749.471396144796,0.0,0.0,0.0,193.0,1.0,154.0,0.0,3.0,3.0,249.0,410.0,3.0,1017.0,1744252589.5515401,0.0,2025-04-09 22:36:29.551,STOP,2
184.0,19324.223020580175,3560.5211330081383,-66539.24334517043,-65130.99403750826,-38892.75060805686,-36542.84465823706,-33068.08716870393,-22803.696728193372,0.0,0.0,0.0,193.0,1.0,154.0,0.0,3.0,3.0,250.0,410.0,3.0,1018.0,1744252589.5515487,0.0,2025-04-09 22:36:29.551,STOP,2
185.0,19463.69790598129,3580.4588890622726,-66545.18890919554,-65088.36926083199,-38947.37827150563,-36595.93005131841,-32816.56298834836,-22848.42256884844,0.0,0.0,0.0,193.0,1.0,154.0,0.0,3.0,3.0,250.0,410.0,3.0,1018.0,1744252589.5515575,0.0,2025-04-09 22:36:29.551,STOP,2
186.0,19505.339205901528,3625.341191928529,-66491.12003935815,-65088.12339164298,-38842.45918303242,-36480.97502958477,-33304.188645385344,-22757.853300315535,0.0,0.0,0.0,193.0,1.0,155.0,0.0,3.0,3.0,250.0,411.0,3.0,1018.0,1744252589.5515664,0.0,2025-04-09 22:36:29.551,STOP,2
187.0,19445.078902850022,3634.3936484329283,-66469.93058561452,-65039.01660907467,-38818.87809263207,-36468.011017800694,-33032.659653742274,-22731.45589011382,0.0,0.0,0.0,193.0,1.0,155.0,0.0,3.0,3.0,250.0,411.0,3.0,1018.0,1744252589.5515752,0.0,2025-04-09 22:36:29.551,STOP,2
188.0,19334.929506174267,3577.083775649521,-66527.64278979812,-65121.382787392475,-38862.5757530422,-36509.384096787464,-33035.744194477105,-22772.80661735614,0.0,0.0,0.0,193.0,1.0,154.0,0.0,3.0,3.0,250.0,410.0,3.0,1018.0,1744252589.5515838,0.0,2025-04-09 22:36:29.551,STOP,2
189.0,19420.73785313819,3565.2373510882085,-66548.4075603971,-65093.577217290076,-38940.359823746665,-36587.0340570252,-32834.08675600133,-22843.125205412533,0.0,0.0,0.0,193.0,1.0,154.0,0.0,3.0,3.0,251.0,410.0,3.0,1019.0,1744252589.5515928,0.0,2025-04-09 22:36:29.551,STOP,2
190.0,19503.99810123421,3608.107996953487,-66519.03736818282,-65113.53732508866,-38873.19283165847,-36509.94289039885,-33211.51831287364,-22785.79298088467,0.0,0.0,0.0,193.0,1.0,154.0,0.0,3.0,3.0,249.0,410.0,3.0,1017.0,1744252589.5516012,0.0,2025-04-09 22:36:29.551,STOP,2
191.0,19450.37626628593,3633.7454478437244,-66468.20950129147,-65042.92816435435,-38818.27459553177,-36465.79819509962,-33134.4718497362,-22732.819346525594,0.0,0.0,0.0,193.0,1.0,154.0,0.0,3.0,3.0,249.0,410.0,3.0,1017.0,1744252589.5516098,0.0,2025-04-09 22:36:29.551,STOP,2
192.0,19357.88474772987,3602.7435782842135,-66514.92464720305,-65112.017406465704,-38847.89065693506,-36500.97984087227,-33007.91627263025,-22772.046658044655,0.0,0.0,0.0,193.0,1.0,154.0,0.0,3.0,3.0,250.0,410.0,3.0,1018.0,1744252589.5516183,0.0,2025-04-09 22:36:29.551,STOP,2
193.0,19398.430812171795,3574.155697125876,-66534.46007185699,-65086.73758348675,-38922.56783516024,-36570.27024868372,-32894.54822475293,-22833.46925180784,0.0,0.0,0.0,193.0,1.0,154.0,0.0,3.0,3.0,249.0,410.0,3.0,1017.0,1744252589.5516267,0.0,2025-04-09 22:36:29.551,STOP,2
194.0,19526.126328244965,3618.85918603649,-66526.34638861971,-65107.52470583018,-38895.90220402506,-36531.28880635367,-33085.96856426818,-22803.65202470446,0.0,0.0,0.0,193.0,1.0,154.0,0.0,3.0,3.0,250.0,410.0,3.0,1018.0,1744252589.5516355,0.0,2025-04-09 22:36:29.551,STOP,2
195.0,19466.447170549294,3634.728924599758,-66462.71097215546,-65042.034094576135,-38815.30181351922,-36465.015884043685,-33225.063470013556,-22735.34509364904,0.0,0.0,0.0,193.0,1.0,154.0,0.0,3.0,3.0,250.0,410.0,3.0,1018.0,1744252589.5516646,0.0,2025-04-09 22:36:29.551,STOP,2
196.0,19374.536797349072,3605.112863196476,-66518.85855422719,-65111.30215064313,-38855.80317447224,-36512.267471822204,-32980.021295550025,-22784.94361459537,0.0,0.0,0.0,193.0,1.0,154.0,0.0,3.0,3.0,250.0,410.0,3.0,1018.0,1744252589.5516732,0.0,2025-04-09 22:36:29.551,STOP,2
197.0,19366.64663155635,3570.1323831239206,-66538.66219981459,-65105.02131045119,-38916.71167811295,-36571.052559739655,-32979.0825222829,-22840.130071655523,0.0,0.0,0.0,193.0,1.0,155.0,0.0,3.0,3.0,252.0,411.0,3.0,1020.0,1744252589.551682,0.0,2025-04-09 22:36:29.551,STOP,2
198.0,19509.049595481112,3601.1342526834314,-66552.87790928816,-65126.3225229171,-38934.52601844383,-36582.40724592296,-32957.177812716705,-22853.38465611752,0.0,0.0,0.0,193.0,1.0,155.0,0.0,3.0,3.0,251.0,411.0,3.0,1019.0,1744252589.5516903,0.0,2025-04-09 22:36:29.551,STOP,2
199.0,19471.18574037382,3634.9077385554006,-66466.80134139078,-65057.59090871703,-38820.9121013775,-36468.011017800694,-33319.83486650406,-22741.201250696333,0.0,0.0,0.0,193.0,1.0,155.0,0.0,3.0,3.0,252.0,411.0,3.0,1020.0,1744252589.5516992,0.0,2025-04-09 22:36:29.551,STOP,2
200.0,19403.83993432998,3631.890253053934,-66500.88775168512,-65085.32942358607,-38844.62730224458,-36496.64360244794,-32966.29732445447,-22765.274079474697,0.0,0.0,0.0,193.0,1.0,156.0,0.0,3.0,3.0,252.0,412.0,3.0,1020.0,1744252589.5517075,0.0,2025-04-09 22:36:29.551,STOP,2
201.0,19354.442579083752,3582.7834704856245,-66538.90806900359,-65108.999920964234,-38906.385172174596,-36559.34024564508,-33036.995892166604,-22825.981417415314,0.0,0.0,0.0,193.0,1.0,155.0,0.0,3.0,3.0,249.0,411.0,3.0,1017.0,1744252589.551716,0.0,2025-04-09 22:36:29.551,STOP,2
202.0,19529.568496891083,3627.8669390519785,-66547.44643538553,-65099.18750514836,-38942.28207376982,-36594.23131873981,-32873.24701228702,-22853.407007861973,0.0,0.0,0.0,193.0,1.0,155.0,0.0,3.0,3.0,251.0,411.0,3.0,1019.0,1744252589.5517244,0.0,2025-04-09 22:36:29.551,STOP,2
203.0,19504.065156467575,3655.8066196211125,-66458.6876581535,-65052.0029726032,-38812.37373499558,-36469.46388119029,-33372.51792818522,-22736.485032616263,0.0,0.0,0.0,193.0,1.0,155.0,0.0,3.0,3.0,252.0,411.0,3.0,1020.0,1744252589.551733,0.0,2025-04-09 22:36:29.551,STOP,2
204.0,19432.584277699505,3642.52968341466,-66474.0880100832,-65049.34311501302,-38818.855740887615,-36492.59793670153,-32962.25165870805,-22743.704646075326,0.0,0.0,0.0,193.0,1.0,155.0,0.0,3.0,3.0,252.0,411.0,3.0,1020.0,1744252589.5517416,0.0,2025-04-09 22:36:29.551,STOP,2
205.0,19340.718607988194,3575.2285808597308,-66526.2569816419,-65101.84736273854,-38878.78076777229,-36555.07106245412,-33047.81413648297,-22801.483905492296,0.0,0.0,0.0,193.0,1.0,155.0,0.0,3.0,3.0,252.0,411.0,3.0,1020.0,1744252589.5517502,0.0,2025-04-09 22:36:29.551,STOP,2
206.0,19494.610368562982,3601.7824532726354,-66539.10923470369,-65071.180769345854,-38932.179085276024,-36608.4917317023,-32804.78361902042,-22843.46048157936,0.0,0.0,0.0,193.0,1.0,155.0,0.0,3.0,3.0,253.0,411.0,3.0,1021.0,1744252589.5517585,0.0,2025-04-09 22:36:29.551,STOP,2
207.0,19498.387813375928,3627.330497185051,-66479.56418747475,-65060.273118051664,-38823.035517100754,-36501.67274495039,-33345.13704122747,-22755.036980514167,0.0,0.0,0.0,193.0,1.0,155.0,0.0,3.0,3.0,252.0,411.0,3.0,1020.0,1744252589.551767,0.0,2025-04-09 22:36:29.551,STOP,2
208.0,19442.284934793108,3637.3887821899393,-66473.6409751941,-65025.56085891258,-38814.228929785364,-36499.683439693865,-32998.86381612585,-22728.751329034727,0.0,0.0,0.0,193.0,1.0,155.0,0.0,3.0,3.0,250.0,411.0,3.0,1018.0,1744252589.5517757,0.0,2025-04-09 22:36:29.551,STOP,2
209.0,19349.30167785903,3588.304351366085,-66518.0538914268,-65082.46840029579,-38853.031558159775,-36533.05459416564,-33053.53618306353,-22754.008800269225,0.0,0.0,0.0,193.0,1.0,154.0,0.0,3.0,3.0,249.0,410.0,3.0,1017.0,1744252589.551784,0.0,2025-04-09 22:36:29.551,STOP,2
210.0,19470.358725828974,3594.47343283575,-66535.33178989074,-65046.862071378484,-38922.03139329331,-36605.943632834395,-32804.22482540904,-22817.46540277784,0.0,0.0,0.0,193.0,1.0,154.0,0.0,3.0,3.0,250.0,410.0,3.0,1018.0,1744252589.5517976,0.0,2025-04-09 22:36:29.551,STOP,2
211.0,19523.77939507716,3637.3887821899393,-66485.80032417779,-65046.727960911754,-38825.91889213549,-36502.29859379514,-33271.51039499169,-22739.30135241763,0.0,0.0,0.0,193.0,1.0,154.0,0.0,3.0,3.0,250.0,410.0,3.0,1018.0,1744252589.5518064,0.0,2025-04-09 22:36:29.551,STOP,2
212.0,19461.932118169323,3644.697802626825,-66464.94614660098,-64994.42487888633,-38803.92477559147,-36491.16742505639,-33056.374854609356,-22718.827154496572,0.0,0.0,0.0,193.0,1.0,154.0,0.0,3.0,3.0,250.0,410.0,3.0,1018.0,1744252589.5518148,0.0,2025-04-09 22:36:29.551,STOP,2
213.0,19355.02372443959,3590.6736362783477,-66527.93336247603,-65073.23712983575,-38851.10930813662,-36538.32960585709,-33026.06588912796,-22769.297393476652,0.0,0.0,0.0,193.0,1.0,154.0,0.0,3.0,3.0,248.0,410.0,3.0,1016.0,1744252589.5518231,0.0,2025-04-09 22:36:29.551,STOP,2
214.0,19430.349103253975,3581.75529024068,-66544.69717081753,-65038.5025189522,-38923.81953284974,-36607.0388683127,-32850.269418986965,-22827.635446505006,0.0,0.0,0.0,193.0,1.0,154.0,0.0,3.0,3.0,249.0,410.0,3.0,1017.0,1744252589.5518315,0.0,2025-04-09 22:36:29.551,STOP,2
215.0,19531.423691680873,3625.4753023952608,-66514.34350184721,-65049.70074292431,-38860.720558252404,-36533.9710156883,-33167.9771146747,-22769.94559406586,0.0,0.0,0.0,193.0,1.0,154.0,0.0,3.0,3.0,252.0,410.0,3.0,1020.0,1744252589.55184,0.0,2025-04-09 22:36:29.551,STOP,2
216.0,19463.876719936936,3628.0904564965317,-66470.42232399253,-64983.15959968086,-38809.78093263876,-36487.92642211037,-33151.21330633322,-22719.073023685578,0.0,0.0,0.0,193.0,1.0,154.0,0.0,2.0,3.0,249.0,410.0,2.0,1017.0,1744252589.5518486,0.0,2025-04-09 22:36:29.551,STOP,2
217.0,19375.632032827383,3605.537546341127,-66518.97031294946,-65045.744484155715,-38838.54762775274,-36518.54831201414,-32997.992098092094,-22754.612297369516,0.0,0.0,0.0,193.0,1.0,155.0,0.0,2.0,3.0,251.0,411.0,2.0,1019.0,1744252589.5518572,0.0,2025-04-09 22:36:29.551,STOP,2
218.0,19394.988643525678,3572.6804819918257,-66544.8536330287,-65032.10992003798,-38908.77680883132,-36593.11373151705,-32908.026326659485,-22818.113603367045,0.0,0.0,0.0,193.0,1.0,154.0,0.0,2.0,3.0,249.0,410.0,2.0,1017.0,1744252589.551866,0.0,2025-04-09 22:36:29.551,STOP,2
219.0,19533.14477600393,3623.418941905373,-66531.66610380007,-65041.49765270921,-38881.23945966238,-36552.52296358621,-33031.63147349733,-22792.543207710172,0.0,0.0,0.0,193.0,1.0,154.0,0.0,2.0,3.0,250.0,410.0,2.0,1018.0,1744252589.5518746,0.0,2025-04-09 22:36:29.551,STOP,2
220.0,19470.51518804016,3637.724058356769,-66469.30473676977,-64978.75630602316,-38802.24839475732,-36475.09652079303,-33239.882676587426,-22719.698872530327,0.0,0.0,0.0,193.0,1.0,154.0,0.0,2.0,3.0,250.0,410.0,2.0,1018.0,1744252589.5518835,0.0,2025-04-09 22:36:29.551,STOP,2
221.0,19385.690317832272,3614.0759127230544,-66522.39012985112,-65037.63080091844,-38839.2181800864,-36517.90011142494,-32962.676341852704,-22762.480111417786,0.0,0.0,0.0,193.0,1.0,154.0,0.0,2.0,3.0,249.0,410.0,2.0,1017.0,1744252589.551892,0.0,2025-04-09 22:36:29.551,STOP,2
222.0,19352.989715694155,3555.2684730611413,-66561.61744137018,-65055.51219648268,-38915.99642229038,-36592.13025476101,-32982.81526360694,-22830.60822851756,0.0,0.0,0.0,193.0,1.0,154.0,0.0,2.0,3.0,250.0,410.0,2.0,1018.0,1744252589.5519006,0.0,2025-04-09 22:36:29.551,STOP,2
223.0,19513.877572283458,3597.0662351925657,-66562.44445591503,-65057.36739127248,-38926.099410784176,-36594.76776060674,-32930.668643792706,-22841.962914700856,0.0,0.0,0.0,193.0,1.0,154.0,0.0,2.0,3.0,250.0,410.0,2.0,1018.0,1744252589.5519092,0.0,2025-04-09 22:36:29.551,STOP,2
224.0,19484.08269692453,3636.785285089646,-66465.16966404553,-64985.260663659654,-38797.35336272161,-36465.35116021051,-33331.34601489854,-22720.2129626528,0.0,0.0,0.0,193.0,1.0,155.0,0.0,2.0,3.0,252.0,411.0,2.0,1020.0,1744252589.5519176,0.0,2025-04-09 22:36:29.551,STOP,2
225.0,19412.89239083438,3626.302316940107,-66505.08987964272,-65016.97778904174,-38828.37758402558,-36497.98470711526,-32951.299303924956,-22745.2692681872,0.0,0.0,0.0,193.0,1.0,155.0,0.0,2.0,3.0,252.0,411.0,2.0,1020.0,1744252589.551931,0.0,2025-04-09 22:36:29.551,STOP,2
226.0,19334.102491629423,3557.1236678509317,-66556.25302270091,-65062.35183028601,-38901.66895409453,-36564.905830014446,-33034.000758409595,-22808.167077084432,0.0,0.0,0.0,193.0,1.0,155.0,0.0,2.0,3.0,251.0,411.0,2.0,1019.0,1744252589.5519392,0.0,2025-04-09 22:36:29.551,STOP,2
227.0,19493.71629878477,3586.046825176099,-66569.97699379647,-65052.89704238142,-38941.20919003597,-36603.507292688766,-32841.9992735385,-22845.33802811361,0.0,0.0,0.0,193.0,1.0,155.0,0.0,2.0,3.0,252.0,411.0,2.0,1020.0,1744252589.551948,0.0,2025-04-09 22:36:29.551,STOP,2
228.0,19486.161409158874,3624.2906599391295,-66484.41451602156,-65011.92629479484,-38810.943223350434,-36472.70488413631,-33356.26820996621,-22730.40535812442,0.0,0.0,0.0,193.0,1.0,155.0,0.0,2.0,3.0,252.0,411.0,2.0,1020.0,1744252589.5519564,0.0,2025-04-09 22:36:29.551,STOP,2
229.0,19413.40648095685,3613.7406365562247,-66513.06945241326,-65021.09051002152,-38834.07727886168,-36504.98080312977,-32962.98926627508,-22750.141948478456,0.0,0.0,0.0,193.0,1.0,154.0,0.0,2.0,3.0,251.0,410.0,2.0,1019.0,1744252589.5519648,0.0,2025-04-09 22:36:29.551,STOP,2
230.0,19324.424186280274,3560.1635050968534,-66554.53193837786,-65073.415943791384,-38878.66900905001,-36552.29944614165,-33062.00749421209,-22796.186542056388,0.0,0.0,0.0,193.0,1.0,154.0,0.0,2.0,3.0,249.0,410.0,2.0,1017.0,1744252589.5519733,0.0,2025-04-09 22:36:29.551,STOP,2
231.0,19471.163388629364,3584.795127486602,-66561.19275822553,-65040.87180386446,-38931.620291664636,-36605.63070841202,-32800.089752684806,-22839.459519321863,0.0,0.0,0.0,193.0,1.0,155.0,0.0,2.0,3.0,250.0,411.0,2.0,1018.0,1744252589.551982,0.0,2025-04-09 22:36:29.551,STOP,2
232.0,19491.369365616963,3622.077837238054,-66500.44071679602,-65032.44519620481,-38825.89654039103,-36489.535747711154,-33330.831924776074,-22744.621067597996,0.0,0.0,0.0,193.0,1.0,155.0,0.0,2.0,3.0,252.0,411.0,2.0,1020.0,1744252589.5519905,0.0,2025-04-09 22:36:29.551,STOP,2
233.0,19430.058530576054,3627.665773351881,-66491.85764692517,-64996.72710856523,-38818.855740887615,-36495.30249778062,-33005.99402260709,-22739.21194543981,0.0,0.0,0.0,193.0,1.0,155.0,0.0,2.0,3.0,249.0,411.0,2.0,1017.0,1744252590.0207353,0.0,2025-04-09 22:36:30.020,STOP,2
234.0,19318.81389842199,3562.3986795423843,-66552.29676393232,-65078.199217104826,-38872.2764101358,-36546.64445479446,-33050.78691849553,-22792.789076899182,0.0,0.0,0.0,193.0,1.0,155.0,0.0,2.0,3.0,252.0,411.0,2.0,1020.0,1744252590.020772,0.0,2025-04-09 22:36:30.020,STOP,2
235.0,19437.725178924225,3570.624121501937,-66558.2646797019,-65036.82613811805,-38933.83311436571,-36608.22351076883,-32824.11787797426,-22842.789929245704,0.0,0.0,0.0,193.0,1.0,155.0,0.0,2.0,3.0,252.0,411.0,2.0,1020.0,1744252590.020792,0.0,2025-04-09 22:36:30.020,STOP,2
236.0,19500.645339565915,3613.025380733655,-66518.2550571269,-65051.22066154727,-38849.65644474703,-36516.44724803534,-33252.62317092695,-22768.98446905428,0.0,0.0,0.0,193.0,1.0,155.0,0.0,2.0,3.0,252.0,411.0,2.0,1020.0,1744252590.020812,0.0,2025-04-09 22:36:30.020,STOP,2
237.0,19445.972972628235,3631.3985146759173,-66476.01026010636,-64983.20430316977,-38804.28240350275,-36480.68445690685,-33082.83932004444,-22722.716358031794,0.0,0.0,0.0,193.0,1.0,155.0,0.0,2.0,3.0,250.0,411.0,2.0,1018.0,1744252590.0208297,0.0,2025-04-09 22:36:30.020,STOP,2
238.0,19346.93239294677,3588.594924044004,-66531.71080728898,-65059.11082733999,-38845.275502833785,-36521.074059137594,-33019.78504893602,-22768.69389637636,0.0,0.0,0.0,193.0,1.0,154.0,0.0,2.0,3.0,250.0,410.0,2.0,1018.0,1744252590.020847,0.0,2025-04-09 22:36:30.020,STOP,2
239.0,19407.37150995392,3571.1382116244095,-66547.5581941078,-65026.67844613534,-38914.58826238969,-36589.00101053727,-32862.33936099283,-22823.299208080676,0.0,0.0,0.0,193.0,1.0,155.0,0.0,2.0,3.0,251.0,411.0,2.0,1019.0,1744252590.0208645,0.0,2025-04-09 22:36:30.020,STOP,2
240.0,19508.1555257029,3612.5559941000934,-66535.37649337966,-65054.57342321557,-38871.2258781464,-36537.03320467868,-33117.2163030167,-22782.440219216376,0.0,0.0,0.0,193.0,1.0,155.0,0.0,2.0,3.0,252.0,411.0,2.0,1020.0,1744252590.0209048,0.0,2025-04-09 22:36:30.020,STOP,2
241.0,19449.459844763263,3627.889290796434,-66477.97721361843,-64987.942872994296,-38806.02583957027,-36484.68541916435,-33175.30848685605,-22731.411186624908,0.0,0.0,0.0,193.0,1.0,155.0,0.0,2.0,3.0,251.0,411.0,2.0,1019.0,1744252590.0209146,0.0,2025-04-09 22:36:30.020,STOP,2
242.0,19361.371619864898,3595.725130525247,-66528.13452817613,-65052.941745870325,-38840.22400858689,-36518.03422189167,-32988.17968227621,-22767.46455043132,0.0,0.0,0.0,193.0,1.0,155.0,0.0,2.0,3.0,251.0,411.0,2.0,1019.0,1744252590.0209236,0.0,2025-04-09 22:36:30.020,STOP,2
243.0,19369.462951357717,3557.347185295485,-66553.19083371054,-65044.87276612196,-38913.20245423346,-36582.608411623056,-32940.41400437522,-22819.03002488971,0.0,0.0,0.0,193.0,1.0,155.0,0.0,2.0,3.0,249.0,411.0,2.0,1017.0,1744252590.0209327,0.0,2025-04-09 22:36:30.020,STOP,2
244.0,19513.184668205344,3603.7717585291575,-66545.457130129,-65058.52968198415,-38898.53970987078,-36560.12255670101,-33007.04455459649,-22805.90955089445,0.0,0.0,0.0,193.0,1.0,155.0,0.0,2.0,3.0,251.0,411.0,2.0,1019.0,1744252590.0209417,0.0,2025-04-09 22:36:30.020,STOP,2
245.0,19462.870891436447,3626.794055318124,-66468.25420478037,-64991.5415038516,-38803.16481627999,-36469.37447421247,-33276.74070319423,-22722.716358031794,0.0,0.0,0.0,193.0,1.0,155.0,0.0,2.0,3.0,251.0,411.0,2.0,1019.0,1744252590.0209508,0.0,2025-04-09 22:36:30.020,STOP,2
246.0,19384.908006776335,3607.705665553292,-66517.4056908376,-65043.509309710185,-38839.68756671996,-36511.99925088874,-32970.320638456426,-22767.732771364783,0.0,0.0,0.0,193.0,1.0,154.0,0.0,2.0,3.0,251.0,410.0,2.0,1019.0,1744252590.0209596,0.0,2025-04-09 22:36:30.020,STOP,2
247.0,19354.17435815029,3564.9467784102894,-66550.32981042025,-65056.987411616734,-38904.418218662526,-36573.019513251726,-33017.639281468306,-22822.76276621375,0.0,0.0,0.0,193.0,1.0,154.0,0.0,2.0,3.0,249.0,410.0,2.0,1017.0,1744252590.0209684,0.0,2025-04-09 22:36:30.020,STOP,2
248.0,19515.1069182285,3606.543374841616,-66554.5095866334,-65050.17012955787,-38925.36180321715,-36583.793054079186,-32903.24305334604,-22832.17285062943,0.0,0.0,0.0,193.0,1.0,154.0,0.0,2.0,3.0,249.0,410.0,2.0,1017.0,1744252590.0209775,0.0,2025-04-09 22:36:30.020,STOP,2
249.0,19481.109914911976,3640.1827502468527,-66458.77706513132,-64983.49487584769,-38796.32518247666,-36454.33175019405,-33335.659901578416,-22717.12842191797,0.0,0.0,0.0,193.0,1.0,154.0,0.0,2.0,3.0,250.0,410.0,2.0,1018.0,1744252590.0209863,0.0,2025-04-09 22:36:30.020,STOP,2
250.0,19397.13441099339,3619.529738370149,-66499.27842608433,-65011.65807386138,-38828.355232281116,-36496.28597453666,-32942.58212358739,-22750.521928134196,0.0,0.0,0.0,193.0,1.0,154.0,0.0,2.0,3.0,249.0,410.0,2.0,1017.0,1744252590.020995,0.0,2025-04-09 22:36:30.020,STOP,2
251.0,19330.16858460529,3570.333548824018,-66529.31917063227,-65040.26830676417,-38873.34929386965,-36539.93893145787,-33039.521639290055,-22789.503370464252,0.0,0.0,0.0,193.0,1.0,154.0,0.0,2.0,3.0,251.0,410.0,2.0,1019.0,1744252590.0210035,0.0,2025-04-09 22:36:30.021,STOP,2
252.0,19510.122479214966,3618.9932965032217,-66522.01015019538,-65005.17606796933,-38903.233576206396,-36566.22458293731,-32814.752497047484,-22807.787097428693,0.0,0.0,0.0,193.0,1.0,154.0,0.0,2.0,3.0,251.0,410.0,2.0,1019.0,1744252590.0210125,0.0,2025-04-09 22:36:30.021,STOP,2
253.0,19497.739612786725,3646.86592183899,-66454.17260577352,-64985.52888459312,-38792.52538591926,-36455.426985672355,-33335.302273667134,-22715.720262017283,0.0,0.0,0.0,193.0,1.0,154.0,0.0,2.0,3.0,251.0,410.0,2.0,1019.0,1744252590.0210214,0.0,2025-04-09 22:36:30.021,STOP,2
254.0,19421.98955082769,3637.2546717232076,-66480.52531248634,-64989.41808812835,-38820.64388044404,-36487.63584943245,-32965.85028956536,-22744.665771086904,0.0,0.0,0.0,193.0,1.0,154.0,0.0,2.0,3.0,249.0,410.0,2.0,1017.0,1744252590.0210302,0.0,2025-04-09 22:36:30.021,STOP,2
255.0,19337.768177720092,3588.594924044004,-66514.0976326582,-65039.28483000813,-38857.524258795296,-36521.69990798234,-33061.78397676754,-22783.669565161417,0.0,0.0,0.0,193.0,1.0,154.0,0.0,2.0,3.0,249.0,410.0,2.0,1017.0,1744252590.0210443,0.0,2025-04-09 22:36:30.021,STOP,2
0.0,19475.544330542605,3602.341246884018,-66525.76524326387,-65006.36071042546,-38919.41623919204,-36577.93689703189,-32791.909014214165,-22829.37888257252,0.0,0.0,0.0,193.0,1.0,154.0,0.0,2.0,3.0,250.0,410.0,2.0,1018.0,1744252590.021053,0.0,2025-04-09 22:36:30.021,STOP,2
1.0,19506.52384835766,3638.8416455795345,-66471.27169028184,-65007.09831799249,-38819.146313565536,-36468.145128267424,-33299.00304067171,-22738.183765194866,0.0,0.0,0.0,193.0,1.0,154.0,0.0,2.0,3.0,249.0,410.0,2.0,1017.0,1744252590.021062,0.0,2025-04-09 22:36:30.021,STOP,2
2.0,19421.833088616502,3621.451988393306,-66485.4426962665,-64994.26841667514,-38831.77504918278,-36495.056628591614,-33008.139790074805,-22748.51027113322,0.0,0.0,0.0,193.0,1.0,154.0,0.0,2.0,3.0,249.0,410.0,2.0,1017.0,1744252590.0210707,0.0,2025-04-09 22:36:30.021,STOP,2
3.0,19315.461136753696,3568.366595311951,-66539.98095273745,-65070.778437945664,-38872.20935490243,-36532.31698659861,-33040.32630209044,-22790.64330943147,0.0,0.0,0.0,193.0,1.0,154.0,0.0,2.0,3.0,250.0,410.0,2.0,1018.0,1744252590.0210798,0.0,2025-04-09 22:36:30.021,STOP,2
4.0,19426.661065418848,3585.085700164521,-66535.66706605758,-65016.77662334164,-38924.17716076102,-36578.875670299014,-32826.710680331074,-22830.09413839509,0.0,0.0,0.0,193.0,1.0,154.0,0.0,2.0,3.0,249.0,410.0,2.0,1017.0,1744252590.0210884,0.0,2025-04-09 22:36:30.021,STOP,2
5.0,19500.645339565915,3624.737694828236,-66507.90619944409,-65040.13419629743,-38860.027654174286,-36504.6678787074,-33214.11111523046,-22779.467437203817,0.0,0.0,0.0,193.0,1.0,154.0,0.0,2.0,3.0,250.0,410.0,2.0,1018.0,1744252590.021097,0.0,2025-04-09 22:36:30.021,STOP,2
6.0,19442.08376909301,3641.6803171253587,-66468.09774256918,-64979.22569265672,-38819.59334845464,-36473.88952659244,-33120.09967805143,-22746.163337965412,0.0,0.0,0.0,193.0,1.0,155.0,0.0,2.0,3.0,249.0,411.0,2.0,1017.0,1744252590.0211055,0.0,2025-04-09 22:36:30.021,STOP,2
7.0,19350.2180993817,3611.8183865330684,-66518.2550571269,-65050.080722580045,-38851.35517732563,-36508.914710153906,-33025.48474377212,-22784.228358772798,0.0,0.0,0.0,193.0,1.0,154.0,0.0,2.0,3.0,250.0,410.0,2.0,1018.0,1744252590.0211153,0.0,2025-04-09 22:36:30.021,STOP,2
8.0,19396.1285824929,3580.347130339996,-66541.61263008269,-65028.95832406978,-38924.490085183395,-36578.33922843209,-32891.530739251466,-22835.682074508917,0.0,0.0,0.0,193.0,1.0,155.0,0.0,2.0,3.0,249.0,411.0,2.0,1017.0,1744252590.021124,0.0,2025-04-09 22:36:30.021,STOP,2
9.0,19517.498554885216,3625.43059890635,-66529.11800493217,-65052.11473132548,-38887.721465554416,-36532.89813195445,-33094.21635797219,-22804.0320043602,0.0,0.0,0.0,193.0,1.0,154.0,0.0,2.0,3.0,250.0,410.0,2.0,1018.0,1744252590.0211325,0.0,2025-04-09 22:36:30.021,STOP,2
10.0,19462.446208291796,3648.497599184227,-66457.90534709756,-64979.695079290286,-38802.38250522405,-36460.254962474704,-33204.96925174824,-22734.719244804295,0.0,0.0,0.0,193.0,1.0,155.0,0.0,2.0,3.0,250.0,411.0,2.0,1018.0,1744252590.0211413,0.0,2025-04-09 22:36:30.021,STOP,2
11.0,19361.77395126509,3611.1254824549537,-66517.42804258205,-65052.58411795904,-38845.65548248953,-36507.97593688678,-32970.521804156524,-22776.49465519126,0.0,0.0,0.0,193.0,1.0,154.0,0.0,2.0,3.0,252.0,410.0,2.0,1020.0,1744252590.02115,0.0,2025-04-09 22:36:30.021,STOP,2
12.0,19355.64957328434,3565.7514412106802,-66545.23361268445,-65051.66769643637,-38913.873006567126,-36575.321742930624,-32956.551963871956,-22834.251562863778,0.0,0.0,0.0,193.0,1.0,155.0,0.0,2.0,3.0,252.0,411.0,2.0,1020.0,1744252590.0211587,0.0,2025-04-09 22:36:30.021,STOP,2
13.0,19512.089432727033,3615.7075900682917,-66538.84101377023,-65055.24397554922,-38904.977012273914,-36558.42382412241,-32967.57137388842,-22821.734585968803,0.0,0.0,0.0,193.0,1.0,155.0,0.0,2.0,3.0,250.0,411.0,2.0,1018.0,1744252590.0211673,0.0,2025-04-09 22:36:30.021,STOP,2
14.0,19454.8913186659,3630.1244652419646,-66472.45633273797,-65003.790259813104,-38812.88782511804,-36469.88856433494,-33294.197415613824,-22743.503480375228,0.0,0.0,0.0,193.0,1.0,155.0,0.0,2.0,3.0,250.0,411.0,2.0,1018.0,1744252590.0211809,0.0,2025-04-09 22:36:30.021,STOP,2
15.0,19380.325899162995,3618.0545232360987,-66515.08110941424,-65044.73865565523,-38842.52623826578,-36505.60665197452,-32967.12433899931,-22775.89115809097,0.0,0.0,0.0,193.0,1.0,155.0,0.0,2.0,3.0,251.0,411.0,2.0,1019.0,1744252590.0211892,0.0,2025-04-09 22:36:30.021,STOP,2
16.0,19323.038378124045,3553.2344643157085,-66558.73406633546,-65077.95334791581,-38911.12374199912,-36575.99229526428,-33025.127115860836,-22840.264182122253,0.0,0.0,0.0,193.0,1.0,154.0,0.0,2.0,3.0,249.0,410.0,2.0,1017.0,1744252590.021198,0.0,2025-04-09 22:36:30.021,STOP,2
17.0,19492.822229006557,3595.859240991979,-66561.90801404811,-65066.28573731014,-38935.97888183342,-36591.95144080537,-32879.4607972456,-22856.42449336344,0.0,0.0,0.0,193.0,1.0,154.0,0.0,2.0,3.0,249.0,410.0,2.0,1017.0,1744252590.0212064,0.0,2025-04-09 22:36:30.021,STOP,2
18.0,19478.673574766348,3638.953404301811,-66471.69637342649,-65010.47343140524,-38812.61960418458,-36461.998398542215,-33361.74438735776,-22742.899983274936,0.0,0.0,0.0,193.0,1.0,155.0,0.0,2.0,3.0,252.0,411.0,2.0,1020.0,1744252590.0212152,0.0,2025-04-09 22:36:30.021,STOP,2
19.0,19402.677643618303,3627.4869593962385,-66505.20163836499,-65029.13713802542,-38838.94995915294,-36498.476445493274,-32969.00188553356,-22765.497596919253,0.0,0.0,0.0,193.0,1.0,155.0,0.0,2.0,3.0,252.0,411.0,2.0,1020.0,1744252590.0212238,0.0,2025-04-09 22:36:30.021,STOP,2
20.0,19316.57872397646,3563.3598045539625,-66548.1616912081,-65077.0592781376,-38888.16850044352,-36551.338321130075,-33051.97156095166,-22811.095155608076,0.0,0.0,0.0,193.0,1.0,155.0,0.0,2.0,3.0,252.0,411.0,2.0,1020.0,1744252590.0212324,0.0,2025-04-09 22:36:30.021,STOP,2
21.0,19468.9952694172,3586.7620809986693,-66567.09361876173,-65063.156493086404,-38949.83696339571,-36610.391629981,-32821.36861340626,-22869.679077825436,0.0,0.0,0.0,193.0,1.0,155.0,0.0,2.0,3.0,251.0,411.0,2.0,1019.0,1744252590.021241,0.0,2025-04-09 22:36:30.021,STOP,2
22.0,19479.500589311196,3631.6220321204705,-66488.3484230457,-65035.06035030608,-38827.036479358256,-36480.14801503992,-33360.35857920153,-22756.959230537326,0.0,0.0,0.0,193.0,1.0,155.0,0.0,2.0,3.0,252.0,411.0,2.0,1020.0,1744252590.0212784,0.0,2025-04-09 22:36:30.021,STOP,2
23.0,19400.621283128417,3614.612354589982,-66512.17538263505,-65034.05452180559,-38847.085994134664,-36512.64745147794,-32990.86189161085,-22773.477169689795,0.0,0.0,0.0,193.0,1.0,155.0,0.0,2.0,3.0,251.0,411.0,2.0,1019.0,1744252590.0212874,0.0,2025-04-09 22:36:30.021,STOP,2
24.0,19299.34552900142,3557.5259992511274,-66559.3152116913,-65098.49460107024,-38887.430892876495,-36554.065233953625,-33066.38843612533,-22814.582027743105,0.0,0.0,0.0,193.0,1.0,155.0,0.0,2.0,3.0,251.0,411.0,2.0,1019.0,1744252590.021296,0.0,2025-04-09 22:36:30.021,STOP,2
25.0,19433.50069922217,3572.65813024737,-66567.11597050619,-65060.6083942185,-38948.2946930283,-36613.140894549004,-32817.21118893757,-22865.76752254576,0.0,0.0,0.0,193.0,1.0,155.0,0.0,2.0,3.0,252.0,411.0,2.0,1020.0,1744252590.0213046,0.0,2025-04-09 22:36:30.021,STOP,2
26.0,19478.785333488624,3610.0973022100097,-66515.1481646476,-65065.391667531934,-38853.00920641532,-36504.84669266304,-33302.9592994403,-22775.1759022684,0.0,0.0,0.0,193.0,1.0,155.0,0.0,2.0,3.0,251.0,411.0,2.0,1019.0,1744252590.0213132,0.0,2025-04-09 22:36:30.021,STOP,2
27.0,19415.731062380204,3616.981639502244,-66495.38922254911,-65018.67652162034,-38834.50196200633,-36494.94486986934,-33056.48661333163,-22756.087512503567,0.0,0.0,0.0,193.0,1.0,155.0,0.0,2.0,3.0,250.0,411.0,2.0,1018.0,1744252590.0213215,0.0,2025-04-09 22:36:30.021,STOP,2
28.0,19314.991750120134,3574.222752359242,-66544.4513016285,-65089.93388294386,-38870.95765721294,-36529.63477726398,-33047.92589520525,-22797.997033357267,0.0,0.0,0.0,193.0,1.0,154.0,0.0,2.0,3.0,250.0,410.0,2.0,1018.0,1744252590.0213363,0.0,2025-04-09 22:36:30.021,STOP,2
29.0,19396.575617382005,3569.8194587015464,-66561.17040648108,-65057.47914999475,-38944.87487612663,-36601.741504876794,-32852.95162832161,-22858.167929430954,0.0,0.0,0.0,193.0,1.0,154.0,0.0,2.0,3.0,249.0,410.0,2.0,1017.0,1744252590.0213513,0.0,2025-04-09 22:36:30.021,STOP,2
30.0,19494.610368562982,3619.0379999921324,-66520.62434203915,-65065.68224020985,-38869.54949731225,-36516.44724803534,-33195.51446384364,-22788.676355919404,0.0,0.0,0.0,193.0,1.0,154.0,0.0,2.0,3.0,250.0,410.0,2.0,1018.0,1744252590.02136,0.0,2025-04-09 22:36:30.021,STOP,2
31.0,19440.005056858667,3633.0972472545204,-66465.19201578999,-64994.42487888633,-38809.7138774054,-36465.440567188336,-33140.01508236111,-22728.460756356806,0.0,0.0,0.0,193.0,1.0,154.0,0.0,2.0,3.0,249.0,410.0,2.0,1017.0,1744252590.0213685,0.0,2025-04-09 22:36:30.021,STOP,2
32.0,19327.62048573738,3579.9224471953453,-66538.93042074805,-65086.73758348675,-38866.71082576643,-36525.36559407301,-33000.9872318491,-22788.60930068604,0.0,0.0,0.0,193.0,1.0,154.0,0.0,2.0,3.0,249.0,410.0,2.0,1017.0,1744252590.021377,0.0,2025-04-09 22:36:30.021,STOP,2
33.0,19360.991640209155,3551.4910282481947,-66560.05281925832,-65066.79982743262,-38937.90113185658,-36592.733751861306,-32925.03600418997,-22852.021199705745,0.0,0.0,0.0,193.0,1.0,154.0,0.0,2.0,3.0,250.0,410.0,2.0,1018.0,1744252590.021386,0.0,2025-04-09 22:36:30.021,STOP,2
34.0,19496.82319126406,3605.448139363306,-66542.23847892744,-65076.567539759584,-38902.56302387274,-36547.31500712812,-33074.52447110706,-22821.75693771326,0.0,0.0,0.0,193.0,1.0,154.0,0.0,2.0,3.0,249.0,410.0,2.0,1017.0,1744252590.0213945,0.0,2025-04-09 22:36:30.021,STOP,2
35.0,19436.38407425691,3624.178901216853,-66474.95972811696,-65010.093451749504,-38815.52533096377,-36470.26854399068,-33239.323882976045,-22739.480166373276,0.0,0.0,0.0,193.0,1.0,154.0,0.0,2.0,3.0,249.0,410.0,2.0,1017.0,1744252590.0214033,0.0,2025-04-09 22:36:30.021,STOP,2
36.0,19350.285154615063,3598.049711948599,-66528.78272876533,-65073.55005425812,-38853.85857270462,-36515.4190677904,-32971.23705997909,-22786.75410589625,0.0,0.0,0.0,193.0,1.0,154.0,0.0,2.0,3.0,249.0,410.0,2.0,1017.0,1744252590.021412,0.0,2025-04-09 22:36:30.021,STOP,2
37.0,19324.670055469283,3543.578510711016,-66565.66310711659,-65086.46936255329,-38927.976957318424,-36591.30324021617,-32985.60923166385,-22857.72089454185,0.0,0.0,0.0,193.0,1.0,154.0,0.0,2.0,3.0,249.0,410.0,2.0,1017.0,1744252590.0214436,0.0,2025-04-09 22:36:30.021,STOP,2
38.0,19492.442249350817,3597.8708979929565,-66554.68840058905,-65078.64625199393,-38924.17716076102,-36571.61135335104,-32952.99803650356,-22836.218516375844,0.0,0.0,0.0,193.0,1.0,154.0,0.0,2.0,3.0,249.0,410.0,2.0,1017.0,1744252590.0214527,0.0,2025-04-09 22:36:30.021,STOP,2
39.0,19457.394714044894,3632.2255292207637,-66467.3377832577,-65009.93698953831,-38812.03845882874,-36457.12571825096,-33328.28382590817,-22732.327608147574,0.0,0.0,0.0,193.0,1.0,155.0,0.0,2.0,3.0,250.0,411.0,2.0,1018.0,1744252590.0214615,0.0,2025-04-09 22:36:30.021,STOP,2
40.0,19375.810846783024,3612.690104566825,-66515.19286813651,-65052.2041383033,-38851.69045349246,-36502.477407750775,-32963.726873842104,-22777.0758005471,0.0,0.0,0.0,193.0,1.0,155.0,0.0,2.0,3.0,250.0,411.0,2.0,1018.0,1744252590.0214703,0.0,2025-04-09 22:36:30.021,STOP,2
41.0,19313.740052430636,3549.4570195027613,-66552.29676393232,-65084.904740441416,-38905.37934367411,-36562.78241429119,-33028.30106357349,-22833.201030874377,0.0,0.0,0.0,193.0,1.0,155.0,0.0,2.0,3.0,252.0,411.0,2.0,1020.0,1744252590.021479,0.0,2025-04-09 22:36:30.021,STOP,2
42.0,19484.23915913572,3589.1984211442973,-66551.51445287639,-65064.25172856471,-38932.40260272058,-36587.01170528075,-32831.4492501556,-22852.356475872573,0.0,0.0,0.0,193.0,1.0,155.0,0.0,2.0,3.0,252.0,411.0,2.0,1020.0,1744252590.0215144,0.0,2025-04-09 22:36:30.021,STOP,2
43.0,19466.17894961583,3626.1011512400096,-66472.1881118045,-65024.26445773416,-38817.1123048201,-36464.27827647666,-33344.332378427076,-22743.83875654206,0.0,0.0,0.0,193.0,1.0,155.0,0.0,2.0,3.0,252.0,411.0,2.0,1020.0,1744252590.0215492,0.0,2025-04-09 22:36:30.021,STOP,2
44.0,19400.375413939408,3624.983564017244,-66494.24928358188,-65028.131309524935,-38836.58067424067,-36494.162558813405,-32958.72008308412,-22770.683201632884,0.0,0.0,0.0,193.0,1.0,155.0,0.0,2.0,3.0,251.0,411.0,2.0,1019.0,1744252590.021564,0.0,2025-04-09 22:36:30.021,STOP,2
45.0,19318.903305399814,3576.524982038138,-66528.76037702088,-65072.70068796882,-38877.55142182725,-36536.586169789574,-33056.866592987375,-22815.297283565676,0.0,0.0,0.0,193.0,1.0,155.0,0.0,2.0,3.0,251.0,411.0,2.0,1019.0,1744252590.021573,0.0,2025-04-09 22:36:30.021,STOP,2
46.0,19462.937946669812,3592.439424090317,-66543.02078998338,-65049.54428071312,-38937.342338245195,-36595.885347829506,-32792.6913252701,-22861.52069109925,0.0,0.0,0.0,193.0,1.0,155.0,0.0,2.0,3.0,252.0,411.0,2.0,1020.0,1744252590.0215816,0.0,2025-04-09 22:36:30.021,STOP,2
47.0,19473.845597964002,3624.178901216853,-66478.2901380408,-65040.87180386446,-38827.68467994746,-36477.04112256064,-33328.2167706748,-22759.127349749488,0.0,0.0,0.0,193.0,1.0,155.0,0.0,2.0,3.0,252.0,411.0,2.0,1020.0,1744252590.021618,0.0,2025-04-09 22:36:30.021,STOP,2
48.0,19420.156707782353,3636.8746920674675,-66467.29307976879,-65006.38306216992,-38816.57586295317,-36482.31613425209,-32990.54896718848,-22753.137082235466,0.0,0.0,0.0,193.0,1.0,155.0,0.0,2.0,3.0,252.0,411.0,2.0,1020.0,1744252590.0216267,0.0,2025-04-09 22:36:30.021,STOP,2
49.0,19312.980093119157,3578.827211717035,-66523.41831009607,-65084.30124334112,-38865.146203654556,-36531.73584124277,-33040.996854424106,-22808.837629418093,0.0,0.0,0.0,193.0,1.0,154.0,0.0,2.0,3.0,250.0,410.0,2.0,1018.0,1744252590.0216353,0.0,2025-04-09 22:36:30.021,STOP,2
50.0,19430.2373445317,3580.1012611509877,-66533.94598173452,-65047.33145801204,-38929.07219279673,-36594.32072571763,-32806.68351729912,-22861.073656210145,0.0,0.0,0.0,193.0,1.0,155.0,0.0,2.0,3.0,252.0,411.0,2.0,1020.0,1744252590.0216439,0.0,2025-04-09 22:36:30.021,STOP,2
51.0,19497.449040108808,3627.8222355630683,-66483.63220496562,-65051.198309802814,-38834.68077596197,-36490.27335527818,-33259.7533774082,-22776.0252685577,0.0,0.0,0.0,193.0,1.0,155.0,0.0,2.0,3.0,251.0,411.0,2.0,1019.0,1744252590.0216525,0.0,2025-04-09 22:36:30.021,STOP,2
52.0,19429.119757308934,3632.2925844541296,-66458.4864924534,-65000.75042256719,-38807.12107504858,-36472.88369809195,-33060.50992733359,-22747.1691664659,0.0,0.0,0.0,193.0,1.0,155.0,0.0,2.0,3.0,251.0,411.0,2.0,1019.0,1744252590.0216613,0.0,2025-04-09 22:36:30.021,STOP,2
53.0,19313.53888673054,3573.1051651364764,-66525.74289151942,-65090.492676555245,-38860.34057859666,-36517.453076535836,-33016.3428802899,-22793.146704810468,0.0,0.0,0.0,193.0,1.0,155.0,0.0,2.0,3.0,251.0,411.0,2.0,1019.0,1744252590.0216696,0.0,2025-04-09 22:36:30.021,STOP,2
54.0,19387.32199517751,3565.125592365932,-66537.63401956964,-65055.40043776041,-38929.5415794303,-36585.91646980244,-32863.345189493324,-22852.28942063921,0.0,0.0,0.0,193.0,1.0,155.0,0.0,2.0,3.0,251.0,411.0,2.0,1019.0,1744252590.0216784,0.0,2025-04-09 22:36:30.021,STOP,2
55.0,19494.252740651697,3613.897098767412,-66507.70503374399,-65070.64432747893,-38869.79536650126,-36522.99630916075,-33156.488318024676,-22812.726832953314,0.0,0.0,0.0,193.0,1.0,154.0,0.0,2.0,3.0,251.0,410.0,2.0,1019.0,1744252590.0216873,0.0,2025-04-09 22:36:30.021,STOP,2
56.0,19437.23344054621,3632.6725641098697,-66446.2377364919,-64999.52107662214,-38798.225080755365,-36466.401692199914,-33160.91396342683,-22745.291619931653,0.0,0.0,0.0,193.0,1.0,155.0,0.0,2.0,3.0,251.0,411.0,2.0,1019.0,1744252590.021696,0.0,2025-04-09 22:36:30.021,STOP,2
57.0,19338.55048877603,3594.764005513669,-66505.80513546529,-65076.366374059486,-38839.93343590897,-36508.780599687176,-32974.09808326937,-22782.864902361027,0.0,0.0,0.0,193.0,1.0,155.0,0.0,2.0,3.0,249.0,411.0,2.0,1017.0,1744252590.021705,0.0,2025-04-09 22:36:30.021,STOP,2
58.0,19351.849776726936,3556.766039939647,-66536.47172885797,-65068.4091530334,-38920.06443978124,-36581.17789997791,-32920.09626866535,-22850.322467127142,0.0,0.0,0.0,193.0,1.0,154.0,0.0,2.0,3.0,249.0,410.0,2.0,1017.0,1744252590.0217133,0.0,2025-04-09 22:36:30.021,STOP,2
59.0,19503.081679711544,3615.014685990177,-66519.3502926052,-65072.58892924654,-38895.70103832496,-36542.397623347955,-33022.891941415306,-22824.79677495918,0.0,0.0,0.0,193.0,1.0,154.0,0.0,2.0,3.0,249.0,410.0,2.0,1017.0,1744252590.021727,0.0,2025-04-09 22:36:30.021,STOP,2
60.0,19442.910783637857,3628.8727675524674,-66456.16191103005,-65014.13911749591,-38812.19492103993,-36463.16068925389,-33254.143089549914,-22740.35188440703,0.0,0.0,0.0,193.0,1.0,154.0,0.0,2.0,3.0,249.0,410.0,2.0,1017.0,1744252590.021736,0.0,2025-04-09 22:36:30.021,STOP,2
61.0,19358.041209941057,3605.8728225079567,-66510.16372563408,-65073.61710949148,-38851.846915703645,-36509.965242143306,-32961.46934765212,-22788.0281553302,0.0,0.0,0.0,193.0,1.0,154.0,0.0,2.0,3.0,249.0,410.0,2.0,1017.0,1744252590.0217445,0.0,2025-04-09 22:36:30.021,STOP,2
62.0,19326.279381070064,3554.7543829386696,-66538.55044109232,-65084.055374152114,-38912.241329221884,-36572.304257429154,-32986.458597953155,-22849.22723164883,0.0,0.0,0.0,193.0,1.0,154.0,0.0,2.0,3.0,251.0,410.0,2.0,1019.0,1744252590.0217533,0.0,2025-04-09 22:36:30.021,STOP,2
63.0,19485.71437426977,3595.076929936043,-66542.86432777219,-65085.038850908146,-38927.55227417377,-36580.82027206663,-32899.95734691111,-22858.391446875507,0.0,0.0,0.0,193.0,1.0,154.0,0.0,2.0,3.0,251.0,410.0,2.0,1019.0,1744252590.0217617,0.0,2025-04-09 22:36:30.021,STOP,2
64.0,19461.61919374695,3638.439314179339,-66446.684771381,-65015.70373960779,-38799.141502278035,-36447.29095069062,-33323.58995957255,-22732.48407035876,0.0,0.0,0.0,193.0,1.0,154.0,0.0,2.0,3.0,250.0,410.0,2.0,1018.0,1744252590.0217705,0.0,2025-04-09 22:36:30.021,STOP,2
65.0,19388.50663763364,3628.470436152272,-66481.55349273128,-65041.430597475846,-38823.259034545306,-36481.869099362986,-32927.15941991322,-22756.623954370494,0.0,0.0,0.0,193.0,1.0,154.0,0.0,2.0,3.0,251.0,410.0,2.0,1019.0,1744252590.0217793,0.0,2025-04-09 22:36:30.021,STOP,2
66.0,19302.54182845853,3554.3296997940183,-66541.43381612704,-65098.65106328143,-38900.88664303859,-36561.17308869041,-33016.81226692346,-22837.827841976625,0.0,0.0,0.0,193.0,1.0,154.0,0.0,2.0,3.0,250.0,410.0,2.0,1018.0,1744252590.021788,0.0,2025-04-09 22:36:30.021,STOP,2
67.0,19465.351935070987,3586.627970531937,-66553.23553719945,-65081.37316481748,-38945.321911015744,-36598.589908908594,-32824.18493320762,-22874.641165094516,0.0,0.0,0.0,193.0,1.0,154.0,0.0,2.0,3.0,248.0,410.0,2.0,1016.0,1744252590.0217965,0.0,2025-04-09 22:36:30.021,STOP,2
68.0,19461.28391758012,3626.212909962286,-66469.30473676977,-65042.83875737653,-38816.888787375545,-36460.47847991926,-33351.30612269713,-22744.44225364235,0.0,0.0,0.0,193.0,1.0,154.0,0.0,2.0,3.0,249.0,410.0,2.0,1017.0,1744252590.0218053,0.0,2025-04-09 22:36:30.021,STOP,2
69.0,19390.898274290357,3622.6142791049815,-66489.71187945746,-65042.92816435435,-38831.48447650486,-36487.389980243446,-32950.56169635793,-22758.88148056048,0.0,0.0,0.0,193.0,1.0,154.0,0.0,2.0,3.0,250.0,410.0,2.0,1018.0,1744252590.021814,0.0,2025-04-09 22:36:30.021,STOP,2
70.0,19298.697328412214,3568.791278456602,-66534.81769976827,-65099.38867084846,-38878.98193347239,-36535.2227133778,-33042.516773047064,-22811.43043177491,0.0,0.0,0.0,193.0,1.0,154.0,0.0,2.0,3.0,250.0,410.0,2.0,1018.0,1744252590.0218225,0.0,2025-04-09 22:36:30.021,STOP,2
71.0,19449.459844763263,3589.511345566672,-66538.5057376034,-65059.088475595534,-38931.73205038691,-36581.35671393356,-32784.46588331054,-22850.389522360507,0.0,0.0,0.0,193.0,1.0,155.0,0.0,2.0,3.0,252.0,411.0,2.0,1020.0,1744252590.021831,0.0,2025-04-09 22:36:30.021,STOP,2
72.0,19493.828057507046,3642.6861456258475,-66458.75471338686,-65034.0992252945,-38807.67986865996,-36445.21223845628,-33301.99817442872,-22737.848489028038,0.0,0.0,0.0,193.0,1.0,155.0,0.0,2.0,3.0,252.0,411.0,2.0,1020.0,1744252590.0218396,0.0,2025-04-09 22:36:30.021,STOP,2
73.0,19429.544440453585,3644.0943055265316,-66454.01614356234,-64999.65518708887,-38807.523406448774,-36451.582485626044,-32987.218557264634,-22734.249858170733,0.0,0.0,0.0,193.0,1.0,155.0,0.0,2.0,3.0,252.0,411.0,2.0,1020.0,1744252590.021848,0.0,2025-04-09 22:36:30.021,STOP,2
74.0,19316.86929665438,3585.4656798202614,-66516.46691757046,-65083.02719390717,-38861.5252210528,-36505.80781767462,-33024.545970504994,-22794.04077458868,0.0,0.0,0.0,193.0,1.0,155.0,0.0,2.0,3.0,251.0,411.0,2.0,1019.0,1744252590.0218616,0.0,2025-04-09 22:36:30.021,STOP,2
75.0,19413.74175712368,3578.2684181056525,-66536.24821141342,-65054.39460925992,-38932.76023063186,-36583.81540582364,-32798.30161312838,-22858.257336408777,0.0,0.0,0.0,193.0,1.0,155.0,0.0,2.0,3.0,252.0,411.0,2.0,1020.0,1744252590.0218701,0.0,2025-04-09 22:36:30.021,STOP,2
76.0,19485.401449847395,3622.793093060624,-66497.82556269474,-65068.319746055575,-38852.11513663711,-36492.28501227916,-33216.99449026519,-22786.910568107436,0.0,0.0,0.0,193.0,1.0,155.0,0.0,2.0,3.0,249.0,411.0,2.0,1017.0,1744252590.0218787,0.0,2025-04-09 22:36:30.021,STOP,2
77.0,19419.061472304045,3630.6162036199817,-66465.30377451227,-65011.18868722781,-38818.87809263207,-36466.334636966545,-33088.382552669354,-22754.50053864724,0.0,0.0,0.0,193.0,1.0,154.0,0.0,2.0,3.0,250.0,410.0,2.0,1018.0,1744252590.0218873,0.0,2025-04-09 22:36:30.021,STOP,2
78.0,19315.34937803142,3586.315046109563,-66522.21131589547,-65089.88917945495,-38855.93728493897,-36508.08769560906,-33007.91627263025,-22796.36535601203,0.0,0.0,0.0,193.0,1.0,154.0,0.0,2.0,3.0,250.0,410.0,2.0,1018.0,1744252590.021896,0.0,2025-04-09 22:36:30.021,STOP,2
79.0,19364.478512344183,3554.4638102607505,-66549.48044413095,-65073.03596413565,-38934.70483239947,-36590.43152218241,-32858.89719234672,-22866.818054535157,0.0,0.0,0.0,193.0,1.0,154.0,0.0,2.0,3.0,249.0,410.0,2.0,1017.0,1744252590.0219045,0.0,2025-04-09 22:36:30.021,STOP,2
80.0,19486.206112647786,3605.0681597075654,-66522.41248159557,-65083.67539449637,-38884.03342771929,-36529.947701686346,-33098.15026499632,-22824.014463903244,0.0,0.0,0.0,193.0,1.0,154.0,0.0,2.0,3.0,249.0,410.0,2.0,1017.0,1744252590.0219128,0.0,2025-04-09 22:36:30.021,STOP,2
81.0,19427.868059619435,3625.8329303065457,-66459.29115525378,-65012.79801282859,-38813.49132221834,-36462.60189564251,-33180.76231250314,-22749.247878700244,0.0,0.0,0.0,193.0,1.0,154.0,0.0,2.0,3.0,250.0,410.0,2.0,1018.0,1744252590.0219212,0.0,2025-04-09 22:36:30.021,STOP,2
82.0,19336.583535263962,3594.6298950469372,-66515.63990302561,-65084.39065031894,-38850.48345929187,-36501.762151928204,-32962.899859297264,-22778.863940103525,0.0,0.0,0.0,193.0,1.0,154.0,0.0,2.0,3.0,250.0,410.0,2.0,1018.0,1744252590.0219297,0.0,2025-04-09 22:36:30.021,STOP,2
83.0,19339.690427743248,3559.582359741016,-66536.69524630252,-65072.946557157826,-38917.493989168885,-36563.922353258415,-32930.08749843687,-22834.89976345298,0.0,0.0,0.0,193.0,1.0,154.0,0.0,2.0,3.0,249.0,410.0,2.0,1017.0,1744252590.0219383,0.0,2025-04-09 22:36:30.021,STOP,2
84.0,19487.793086504113,3608.152700442398,-66528.76037702088,-65081.39551656193,-38906.36282043014,-36548.36553911752,-32972.555812901956,-22826.67432149343,0.0,0.0,0.0,193.0,1.0,154.0,0.0,2.0,3.0,250.0,410.0,2.0,1018.0,1744252590.0219471,0.0,2025-04-09 22:36:30.021,STOP,2
85.0,19434.819452145035,3628.7833605746464,-66453.16677727304,-65019.90586756538,-38805.46704595888,-36455.06935776107,-33255.97593259525,-22734.49572735974,0.0,0.0,0.0,193.0,1.0,154.0,0.0,2.0,3.0,249.0,410.0,2.0,1017.0,1744252590.0219557,0.0,2025-04-09 22:36:30.021,STOP,2
86.0,19351.894480215848,3606.6327818194372,-66501.69241448551,-65070.33140305655,-38837.36298529661,-36493.46965473529,-32929.46164959212,-22764.447064929853,0.0,0.0,0.0,193.0,1.0,154.0,0.0,2.0,3.0,250.0,410.0,2.0,1018.0,1744252590.0219643,0.0,2025-04-09 22:36:30.021,STOP,2
87.0,19305.604017448906,3548.2947287910856,-66538.5057376034,-65093.68897601235,-38901.57954711671,-36560.346074145564,-32981.80943510645,-22829.691806994895,0.0,0.0,0.0,193.0,1.0,154.0,0.0,2.0,3.0,250.0,410.0,2.0,1018.0,1744252590.0219731,0.0,2025-04-09 22:36:30.021,STOP,2
88.0,19475.589034031516,3591.6794647788365,-66541.07618821575,-65085.530589286165,-38920.82439909272,-36575.27703944171,-32856.55025917891,-22846.38856010301,0.0,0.0,0.0,193.0,1.0,155.0,0.0,2.0,3.0,250.0,411.0,2.0,1018.0,1744252590.0219817,0.0,2025-04-09 22:36:30.021,STOP,2
89.0,19451.98559188671,3628.0904564965317,-66451.57980341671,-65030.18767001482,-38793.28534523074,-36448.296779191114,-33318.516113581194,-22732.439366869854,0.0,0.0,0.0,193.0,1.0,155.0,0.0,2.0,3.0,252.0,411.0,2.0,1020.0,1744252590.0219946,0.0,2025-04-09 22:36:30.021,STOP,2
90.0,19376.906082261336,3617.0263429911547,-66490.0918591132,-65055.28867903813,-38825.74007817985,-36488.23934653275,-32923.00199544454,-22765.296431219154,0.0,0.0,0.0,193.0,1.0,154.0,0.0,2.0,3.0,249.0,410.0,2.0,1017.0,1744252590.0220032,0.0,2025-04-09 22:36:30.022,STOP,2
91.0,19296.238636522132,3557.0342608731107,-66531.77786252236,-65101.78030750517,-38881.910011996035,-36544.11870767101,-33026.55762750597,-22824.305036581165,0.0,0.0,0.0,193.0,1.0,155.0,0.0,2.0,3.0,251.0,411.0,2.0,1019.0,1744252590.0220115,0.0,2025-04-09 22:36:30.022,STOP,2
92.0,19449.57160348554,3574.6921389928034,-66547.78171155235,-65086.53641778665,-38938.23640802341,-36598.05346704167,-32794.03242993742,-22871.556624359684,0.0,0.0,0.0,193.0,1.0,155.0,0.0,2.0,3.0,251.0,411.0,2.0,1019.0,1744252590.02202,0.0,2025-04-09 22:36:30.022,STOP,2
93.0,19450.957411641768,3607.0351132196324,-66474.71385892795,-65063.17884483086,-38822.85670314512,-36468.59216315653,-33337.828020790585,-22755.774588081193,0.0,0.0,0.0,193.0,1.0,155.0,0.0,2.0,3.0,252.0,411.0,2.0,1020.0,1744252590.0220284,0.0,2025-04-09 22:36:30.022,STOP,2
94.0,19388.30547193354,3610.633744076937,-66485.75562068887,-65048.94078361282,-38831.59623522714,-36485.73595115375,-32967.012580277034,-22763.12831200699,0.0,0.0,0.0,193.0,1.0,155.0,0.0,2.0,3.0,251.0,411.0,2.0,1019.0,1744252590.022037,0.0,2025-04-09 22:36:30.022,STOP,2
95.0,19296.462153966684,3562.2869208201078,-66527.30751363128,-65107.07767094108,-38868.208392644934,-36527.13138188498,-33042.89675270281,-22806.624806717016,0.0,0.0,0.0,193.0,1.0,155.0,0.0,2.0,3.0,252.0,411.0,2.0,1020.0,1744252590.0220456,0.0,2025-04-09 22:36:30.022,STOP,2
96.0,19428.80683288656,3574.0662901480546,-66541.5008713604,-65075.181731603356,-38934.59307367719,-36591.05737102716,-32781.560156531355,-22859.039647464713,0.0,0.0,0.0,193.0,1.0,155.0,0.0,2.0,3.0,250.0,411.0,2.0,1018.0,1744252590.0220544,0.0,2025-04-09 22:36:30.022,STOP,2
97.0,19466.60363276048,3615.6181830904707,-66485.91208290006,-65075.02526939217,-38830.389241026554,-36481.89145110744,-33278.35002879501,-22765.296431219154,0.0,0.0,0.0,193.0,1.0,154.0,0.0,2.0,3.0,248.0,410.0,2.0,1016.0,1744252590.3747163,0.0,2025-04-09 22:36:30.374,STOP,2
98.0,19396.329748193,3618.233337191741,-66474.75856241686,-65036.35675148449,-38820.040383343745,-36482.65141041892,-33010.33026103142,-22751.617163612507,0.0,0.0,0.0,193.0,1.0,154.0,0.0,2.0,3.0,249.0,410.0,2.0,1017.0,1744252590.3747587,0.0,2025-04-09 22:36:30.374,STOP,2
99.0,19288.21436026268,3560.9681678972447,-66531.08495844423,-65116.711272801316,-38864.05096817624,-36528.58424527458,-33018.91333090226,-22802.51208573724,0.0,0.0,0.0,193.0,1.0,154.0,0.0,2.0,3.0,250.0,410.0,2.0,1018.0,1744252590.374778,0.0,2025-04-09 22:36:30.374,STOP,2
100.0,19389.870094045415,3561.951644653278,-66534.54947883482,-65070.73373445675,-38924.557140416764,-36585.38002793551,-32811.39973537919,-22849.607211304574,0.0,0.0,0.0,193.0,1.0,154.0,0.0,2.0,3.0,251.0,410.0,2.0,1019.0,1744252590.374798,0.0,2025-04-09 22:36:30.374,STOP,2
101.0,19473.13034214143,3603.6823515513365,-66505.49221104292,-65089.79977247713,-38860.74290999686,-36506.00898337472,-33182.77396950412,-22792.029117587703,0.0,0.0,0.0,193.0,1.0,155.0,0.0,2.0,3.0,252.0,411.0,2.0,1020.0,1744252590.3748186,0.0,2025-04-09 22:36:30.374,STOP,2
102.0,19409.047890788068,3614.4335406343394,-66460.20757677646,-65026.589039157516,-38810.45148497242,-36468.279238734154,-33110.30961398001,-22744.933992020367,0.0,0.0,0.0,193.0,1.0,155.0,0.0,2.0,3.0,252.0,411.0,2.0,1020.0,1744252590.3748353,0.0,2025-04-09 22:36:30.374,STOP,2
103.0,19309.71673842868,3576.435575060317,-66517.15982164859,-65107.815278508104,-38846.63895924556,-36514.167370100906,-32988.76082763205,-22795.672451933915,0.0,0.0,0.0,193.0,1.0,155.0,0.0,2.0,3.0,252.0,411.0,2.0,1020.0,1744252590.3748446,0.0,2025-04-09 22:36:30.374,STOP,2
104.0,19343.803148723026,3546.3277752790186,-66545.21126093999,-65092.16905738939,-38924.355974716666,-36588.71043785935,-32872.308239019905,-22853.362304373062,0.0,0.0,0.0,193.0,1.0,155.0,0.0,2.0,3.0,252.0,411.0,2.0,1020.0,1744252590.3748858,0.0,2025-04-09 22:36:30.374,STOP,2
105.0,19470.76105722917,3596.8203660035574,-66529.83326075473,-65106.921208729895,-38887.20737543194,-36539.26837912421,-33052.28448537403,-22812.95035039787,0.0,0.0,0.0,193.0,1.0,154.0,0.0,2.0,3.0,250.0,410.0,2.0,1018.0,1744252590.374895,0.0,2025-04-09 22:36:30.374,STOP,2
106.0,19419.55321068206,3621.451988393306,-66458.75471338686,-65032.735768882725,-38800.70612438991,-36460.70199736381,-33201.52708310212,-22741.290657674155,0.0,0.0,0.0,193.0,1.0,154.0,0.0,2.0,3.0,248.0,410.0,2.0,1016.0,1744252590.3749044,0.0,2025-04-09 22:36:30.374,STOP,2
107.0,19333.096663128934,3596.0380549476213,-66508.04030991082,-65094.69480451284,-38835.8654184181,-36503.32677404008,-32949.08648122388,-22784.250710517255,0.0,0.0,0.0,193.0,1.0,154.0,0.0,2.0,3.0,250.0,410.0,2.0,1018.0,1744252590.3749132,0.0,2025-04-09 22:36:30.374,STOP,2
108.0,19313.337721030442,3543.936138622301,-66542.73021730545,-65104.23899939525,-38909.7826373318,-36581.35671393356,-32944.169097443715,-22851.685923538917,0.0,0.0,0.0,193.0,1.0,154.0,0.0,2.0,3.0,250.0,410.0,2.0,1018.0,1744252590.3749223,0.0,2025-04-09 22:36:30.374,STOP,2
109.0,19468.011792661167,3590.0030839446886,-66539.22099342597,-65110.40808086492,-38907.4804076529,-36577.89219354298,-32931.42860310419,-22857.452673608386,0.0,0.0,0.0,193.0,1.0,155.0,0.0,2.0,3.0,252.0,411.0,2.0,1020.0,1744252590.374931,0.0,2025-04-09 22:36:30.374,STOP,2
110.0,19426.70576890776,3622.3907616604283,-66457.79358837528,-65048.65021093491,-38800.30379298971,-36474.26950624818,-33279.042932873126,-22761.49663466175,0.0,0.0,0.0,193.0,1.0,155.0,0.0,2.0,3.0,252.0,411.0,2.0,1020.0,1744252590.37494,0.0,2025-04-09 22:36:30.374,STOP,2
111.0,19348.20644238072,3599.1225956824537,-66507.5485715328,-65094.00190043473,-38842.83916268816,-36517.18485560237,-32928.38876585827,-22791.582082698595,0.0,0.0,0.0,193.0,1.0,155.0,0.0,2.0,3.0,251.0,411.0,2.0,1019.0,1744252590.3749485,0.0,2025-04-09 22:36:30.374,STOP,2
112.0,19288.19200851822,3536.1353798073987,-66547.6028975967,-65123.483851371275,-38909.9838030319,-36579.12153948803,-33007.62569995233,-22850.434225849418,0.0,0.0,0.0,193.0,1.0,155.0,0.0,2.0,3.0,252.0,411.0,2.0,1020.0,1744252590.374957,0.0,2025-04-09 22:36:30.374,STOP,2
113.0,19456.590051244504,3578.3578250834735,-66547.5581941078,-65102.92024647239,-38935.0401085663,-36591.817330338636,-32843.273322972454,-22857.117397441554,0.0,0.0,0.0,193.0,1.0,155.0,0.0,2.0,3.0,251.0,411.0,2.0,1019.0,1744252590.374966,0.0,2025-04-09 22:36:30.374,STOP,2
114.0,19432.69603642178,3608.443273120317,-66468.90240536958,-65061.65892620789,-38816.48645597535,-36471.31907598008,-33324.64049156195,-22749.516099633707,0.0,0.0,0.0,193.0,1.0,154.0,0.0,2.0,3.0,250.0,410.0,2.0,1018.0,1744252590.374975,0.0,2025-04-09 22:36:30.374,STOP,2
115.0,19357.661230285317,3596.015703203166,-66502.85470519718,-65077.50631302671,-38844.33672956666,-36508.64648922044,-32935.31780663941,-22782.440219216376,0.0,0.0,0.0,193.0,1.0,155.0,0.0,2.0,3.0,251.0,411.0,2.0,1019.0,1744252590.374984,0.0,2025-04-09 22:36:30.374,STOP,2
116.0,19281.642947392815,3551.2228073147307,-66534.41536836808,-65113.291455899656,-38882.87113700761,-36543.06817568161,-33042.40501432479,-22819.8346876901,0.0,0.0,0.0,193.0,1.0,155.0,0.0,2.0,3.0,252.0,411.0,2.0,1020.0,1744252590.3749952,0.0,2025-04-09 22:36:30.374,STOP,2
117.0,19434.528879467118,3576.770851227147,-66546.99940049641,-65086.06703115309,-38937.7893731343,-36596.10886527406,-32779.81672046384,-22865.655763823484,0.0,0.0,0.0,193.0,1.0,155.0,0.0,2.0,3.0,252.0,411.0,2.0,1020.0,1744252590.375004,0.0,2025-04-09 22:36:30.375,STOP,2
118.0,19454.444283776797,3623.6201076054704,-66470.04234433679,-65061.59187097453,-38817.91696762049,-36465.73113986625,-33316.16918041339,-22759.909660805424,0.0,0.0,0.0,193.0,1.0,155.0,0.0,2.0,3.0,251.0,411.0,2.0,1019.0,1744252590.375018,0.0,2025-04-09 22:36:30.375,STOP,2
119.0,19393.312262691532,3627.5540146296044,-66473.99860310538,-65037.92137359636,-38822.05204034472,-36480.48329120676,-32968.37603668881,-22765.207024241332,0.0,0.0,0.0,193.0,1.0,154.0,0.0,2.0,3.0,250.0,410.0,2.0,1018.0,1744252590.3750277,0.0,2025-04-09 22:36:30.375,STOP,2
120.0,19293.444668465218,3571.272322091141,-66520.82550773925,-65102.00382494972,-38864.74387225436,-36519.77765795918,-33032.614950253366,-22801.17098106992,0.0,0.0,0.0,193.0,1.0,154.0,0.0,2.0,3.0,249.0,410.0,2.0,1017.0,1744252590.3750362,0.0,2025-04-09 22:36:30.375,STOP,2
121.0,19422.45893746125,3585.7562524981804,-66529.74385377692,-65060.31782154058,-38932.603768420675,-36579.456815654856,-32780.59903151978,-22849.987190960313,0.0,0.0,0.0,193.0,1.0,155.0,0.0,2.0,3.0,252.0,411.0,2.0,1020.0,1744252590.3750448,0.0,2025-04-09 22:36:30.375,STOP,2
122.0,19477.24306312121,3627.665773351881,-66481.26292005336,-65065.12344659847,-38839.821677186694,-36477.734026638755,-33251.259714515174,-22766.905756819935,0.0,0.0,0.0,193.0,1.0,155.0,0.0,2.0,3.0,252.0,411.0,2.0,1020.0,1744252590.375054,0.0,2025-04-09 22:36:30.375,STOP,2
123.0,19406.589198897982,3625.5870611175374,-66468.52242571383,-65025.404396701386,-38826.053002602224,-36478.18106152786,-33029.68687172972,-22752.488881646263,0.0,0.0,0.0,193.0,1.0,155.0,0.0,2.0,3.0,250.0,411.0,2.0,1018.0,1744252590.3750627,0.0,2025-04-09 22:36:30.375,STOP,2
124.0,19298.965549345678,3575.7426709822025,-66522.4571850845,-65104.395461606444,-38863.514526309315,-36521.56579751561,-33014.48768550011,-22795.024251344712,0.0,0.0,0.0,193.0,1.0,155.0,0.0,2.0,3.0,250.0,411.0,2.0,1018.0,1744252590.3750715,0.0,2025-04-09 22:36:30.375,STOP,2
125.0,19372.16751243681,3558.017737629144,-66541.07618821575,-65075.382897303454,-38936.940006845,-36597.405266452464,-32829.70581408808,-22862.682981810925,0.0,0.0,0.0,193.0,1.0,155.0,0.0,2.0,3.0,252.0,411.0,2.0,1020.0,1744252590.3750803,0.0,2025-04-09 22:36:30.375,STOP,2
126.0,19472.70565899678,3606.699837052803,-66511.52718204584,-65091.40909807791,-38873.036369447276,-36522.43751554937,-33149.29105631007,-22810.201085829867,0.0,0.0,0.0,193.0,1.0,155.0,0.0,2.0,3.0,252.0,411.0,2.0,1020.0,1744252590.3750896,0.0,2025-04-09 22:36:30.375,STOP,2
127.0,19408.04206228758,3616.311087168585,-66459.31350699825,-65023.43744318932,-38812.351383251116,-36472.10138703601,-33129.420355489296,-22752.913564790913,0.0,0.0,0.0,193.0,1.0,155.0,0.0,2.0,3.0,251.0,411.0,2.0,1019.0,1744252590.3750982,0.0,2025-04-09 22:36:30.375,STOP,2
128.0,19315.505840242608,3585.5550867980824,-66510.61076052318,-65093.577217290076,-38843.77793595528,-36507.171274086395,-32975.23802223659,-22788.65400417495,0.0,0.0,0.0,193.0,1.0,154.0,0.0,2.0,3.0,251.0,410.0,2.0,1019.0,1744252590.3751073,0.0,2025-04-09 22:36:30.375,STOP,2
129.0,19335.756520719115,3549.3229090360296,-66534.63888581263,-65079.31680432759,-38914.52120715633,-36579.00978076575,-32885.3616577818,-22846.76853975875,0.0,0.0,0.0,193.0,1.0,154.0,0.0,2.0,3.0,251.0,410.0,2.0,1019.0,1744252590.3751156,0.0,2025-04-09 22:36:30.375,STOP,2
130.0,19470.492836295707,3594.048749691099,-66521.76428100637,-65092.861961467504,-38889.42019813302,-36540.94475995836,-33003.96001386166,-22820.95227491287,0.0,0.0,0.0,193.0,1.0,154.0,0.0,2.0,3.0,250.0,410.0,2.0,1018.0,1744252590.375124,0.0,2025-04-09 22:36:30.375,STOP,2
131.0,19414.479364690706,3611.7736830441577,-66453.27853599531,-65026.454928690786,-38803.880072102555,-36458.33271245155,-33206.6903360713,-22735.1662796934,0.0,0.0,0.0,193.0,1.0,155.0,0.0,2.0,3.0,249.0,411.0,2.0,1017.0,1744252590.3751328,0.0,2025-04-09 22:36:30.375,STOP,2
132.0,19337.410549808807,3603.0788544510433,-66494.4951527709,-65074.332365314054,-38829.85279915963,-36490.18394830036,-32928.81344900292,-22764.60352714104,0.0,0.0,0.0,193.0,1.0,154.0,0.0,2.0,3.0,250.0,410.0,2.0,1018.0,1744252590.3751416,0.0,2025-04-09 22:36:30.375,STOP,2
133.0,19307.079232582957,3555.290824805597,-66532.06843520027,-65087.54224628714,-38904.217052962435,-36561.7318823018,-32953.31096092593,-22831.681112251415,0.0,0.0,0.0,193.0,1.0,154.0,0.0,2.0,3.0,250.0,410.0,2.0,1018.0,1744252590.3751547,0.0,2025-04-09 22:36:30.375,STOP,2
134.0,19463.876719936936,3588.3267031105406,-66541.2550021714,-65094.24776962373,-38923.931291572015,-36568.77268180522,-32901.99135565655,-22842.02996993422,0.0,0.0,0.0,193.0,1.0,154.0,0.0,2.0,3.0,250.0,410.0,2.0,1018.0,1744252590.375164,0.0,2025-04-09 22:36:30.375,STOP,2
135.0,19427.644542174883,3617.3169156690738,-66456.63129766361,-65035.44032996182,-38804.48356920285,-36453.14710773792,-33304.68038376336,-22729.466584857295,0.0,0.0,0.0,193.0,1.0,155.0,0.0,2.0,3.0,251.0,411.0,2.0,1019.0,1744252590.3751726,0.0,2025-04-09 22:36:30.375,STOP,2
136.0,19356.364829106908,3610.991371988222,-66493.62343473714,-65066.73277219925,-38828.48934274785,-36486.94294535434,-32919.87275122079,-22758.21092822682,0.0,0.0,0.0,193.0,1.0,155.0,0.0,2.0,3.0,252.0,411.0,2.0,1020.0,1744252590.375181,0.0,2025-04-09 22:36:30.375,STOP,2
137.0,19284.66043289428,3544.4949322336834,-66541.56792659378,-65110.09515644255,-38892.30357316775,-36554.1769926759,-32996.606289935866,-22827.85896394956,0.0,0.0,0.0,193.0,1.0,155.0,0.0,5.0,3.0,252.0,411.0,5.0,1020.0,1744252590.3751895,0.0,2025-04-09 22:36:30.375,STOP,2
138.0,19445.99532437269,3576.055595404577,-66551.13447322065,-65101.44503133834,-38929.742745130396,-36589.76096984875,-32804.33658413131,-22864.828749278637,0.0,0.0,0.0,193.0,1.0,155.0,0.0,15.0,3.0,251.0,411.0,15.0,1019.0,1744252590.375198,0.0,2025-04-09 22:36:30.375,STOP,2
139.0,19434.215955044743,3608.1974039313086,-66468.32126001373,-65066.55395824361,-38807.0093163263,-36465.5076224217,-33314.00106120123,-22753.82998631358,0.0,0.0,0.0,193.0,1.0,155.0,0.0,26.0,3.0,251.0,411.0,26.0,1019.0,1744252590.3752067,0.0,2025-04-09 22:36:30.375,STOP,2
140.0,19361.863358242914,3602.3859503729286,-66492.01410913636,-65071.22547283477,-38828.37758402558,-36496.822416403586,-32924.67837627869,-22772.40428595594,0.0,0.0,0.0,193.0,1.0,155.0,0.0,35.0,3.0,251.0,411.0,35.0,1019.0,1744252590.3752155,0.0,2025-04-09 22:36:30.375,STOP,2
141.0,19267.829569319438,3539.376382753418,-66538.46103411449,-65126.65779908393,-38882.15588118504,-36547.426765850396,-33020.81322918096,-22821.578123757616,0.0,0.0,0.0,193.0,1.0,154.0,0.0,39.0,3.0,250.0,410.0,39.0,1018.0,1744252590.375224,0.0,2025-04-09 22:36:30.375,STOP,2
142.0,19420.961370582747,3566.176124355331,-66546.48531037394,-65091.65496726692,-38938.45992546796,-36599.57338566463,-32768.30557206936,-22869.500263869795,0.0,0.0,0.0,193.0,1.0,154.0,0.0,39.0,3.0,249.0,410.0,39.0,1017.0,1744252590.3752327,0.0,2025-04-09 22:36:30.375,STOP,2
143.0,19451.449150019784,3612.5783458445485,-66478.37954501863,-65078.28862408264,-38823.34844152313,-36476.54938418262,-33302.55696804011,-22768.73859986527,0.0,0.0,0.0,193.0,1.0,154.0,0.0,39.0,3.0,249.0,410.0,39.0,1017.0,1744252590.3752415,0.0,2025-04-09 22:36:30.375,STOP,2
144.0,19380.03532648508,3607.9515347423003,-66482.22404506494,-65053.992277859725,-38827.08118284716,-36487.63584943245,-32975.95327805916,-22763.821216085104,0.0,0.0,0.0,193.0,1.0,154.0,0.0,39.0,3.0,248.0,410.0,39.0,1016.0,1744252590.37525,0.0,2025-04-09 22:36:30.375,STOP,2
145.0,19268.85774956438,3546.528940979116,-66542.5066998609,-65137.31958118911,-38879.83129976169,-36539.313082613124,-33023.89776991579,-22815.029062632213,0.0,0.0,0.0,193.0,1.0,153.0,0.0,39.0,3.0,249.0,409.0,39.0,1017.0,1744252590.3752587,0.0,2025-04-09 22:36:30.375,STOP,2
146.0,19388.014899255624,3561.9069411643677,-66544.18308069505,-65092.8172579786,-38936.20239927797,-36597.96406006385,-32792.84778748128,-22863.018257977757,0.0,0.0,0.0,193.0,1.0,154.0,0.0,39.0,3.0,250.0,410.0,39.0,1018.0,1744252590.3752673,0.0,2025-04-09 22:36:30.375,STOP,2
147.0,19456.74651345569,3606.85629926399,-66497.46793478346,-65101.467383082796,-38845.38726155606,-36499.30346003812,-33222.604778123474,-22786.307071007144,0.0,0.0,0.0,193.0,1.0,154.0,0.0,39.0,3.0,251.0,410.0,39.0,1019.0,1744252590.3752759,0.0,2025-04-09 22:36:30.375,STOP,2
148.0,19395.2792162036,3616.66871507987,-66465.84021637919,-65045.811539389084,-38810.92087160598,-36476.86230860499,-33050.60810453989,-22751.88538454597,0.0,0.0,0.0,193.0,1.0,155.0,0.0,39.0,3.0,252.0,411.0,39.0,1020.0,1744252590.3753583,0.0,2025-04-09 22:36:30.375,STOP,2
149.0,19292.23767426463,3570.5570662685714,-66522.54659206231,-65122.5227263597,-38852.18219187047,-36517.47542828029,-32996.67334516923,-22796.45476298985,0.0,0.0,0.0,193.0,1.0,155.0,0.0,39.0,3.0,251.0,411.0,39.0,1019.0,1744252590.3753672,0.0,2025-04-09 22:36:30.375,STOP,2
150.0,19353.25793662762,3550.0158131141443,-66539.93624924854,-65094.13601090146,-38924.87006483914,-36589.96213554885,-32841.10520376029,-22857.162100930465,0.0,0.0,0.0,193.0,1.0,155.0,0.0,39.0,3.0,252.0,411.0,39.0,1020.0,1744252590.375376,0.0,2025-04-09 22:36:30.375,STOP,2
151.0,19466.938908927314,3600.9107352388783,-66509.0461384113,-65106.18360116287,-38866.64377053306,-36523.33158532758,-33099.871349319386,-22804.41198401594,0.0,0.0,0.0,193.0,1.0,155.0,0.0,40.0,3.0,249.0,411.0,40.0,1017.0,1744252590.3753848,0.0,2025-04-09 22:36:30.375,STOP,2
152.0,19400.64363487287,3617.76395055818,-66456.1842627745,-65041.98939108723,-38806.696391903926,-36470.08973003503,-33143.30078879604,-22745.626896098485,0.0,0.0,0.0,193.0,1.0,155.0,0.0,40.0,3.0,250.0,411.0,40.0,1018.0,1744252590.3753939,0.0,2025-04-09 22:36:30.375,STOP,2
153.0,19308.06270933899,3586.672674020848,-66508.442641311,-65110.139859931456,-38839.70991846442,-36507.52890199768,-32955.12145222681,-22783.624861672506,0.0,0.0,0.0,193.0,1.0,154.0,0.0,41.0,3.0,249.0,410.0,41.0,1017.0,1744252590.3754025,0.0,2025-04-09 22:36:30.375,STOP,2
154.0,19322.166660090286,3550.2616823031526,-66526.72636827546,-65095.097135913034,-38904.015887262336,-36572.97480976282,-32904.20417835763,-22840.66651352245,0.0,0.0,0.0,193.0,1.0,154.0,0.0,40.0,3.0,250.0,410.0,40.0,1018.0,1744252590.3754115,0.0,2025-04-09 22:36:30.375,STOP,2
155.0,19471.81158921857,3599.994313716211,-66518.12094666016,-65105.62480755148,-38886.26860216482,-36548.544353073165,-32967.794891332975,-22820.549943512673,0.0,0.0,0.0,193.0,1.0,154.0,0.0,41.0,3.0,249.0,410.0,41.0,1017.0,1744252590.37542,0.0,2025-04-09 22:36:30.375,STOP,2
156.0,19424.202373528766,3628.761008830191,-66438.23581197689,-65033.987466572224,-38783.607039881594,-36450.30843619209,-33231.344310205495,-22720.59294230854,0.0,0.0,0.0,193.0,1.0,154.0,0.0,41.0,3.0,249.0,410.0,41.0,1017.0,1744252590.375429,0.0,2025-04-09 22:36:30.375,STOP,2
157.0,19337.142328875343,3602.0059707171886,-66494.45044928198,-65091.610263778006,-38828.01995611429,-36500.33164028307,-32920.07391692089,-22767.59866089805,0.0,0.0,0.0,193.0,1.0,155.0,0.0,41.0,3.0,250.0,411.0,41.0,1018.0,1744252590.3754373,0.0,2025-04-09 22:36:30.375,STOP,2
158.0,19294.316386498976,3542.1703508103315,-66531.48728984443,-65111.950351232335,-38894.80696854675,-36570.44906263937,-32964.66564710923,-22829.267123850244,0.0,0.0,0.0,193.0,1.0,155.0,0.0,41.0,3.0,251.0,411.0,41.0,1019.0,1744252590.375446,0.0,2025-04-09 22:36:30.375,STOP,2
159.0,19460.814530946558,3586.2926943651078,-66527.26281014238,-65099.90276097092,-38906.720448341424,-36577.489862142786,-32850.917619576176,-22833.46925180784,0.0,0.0,0.0,193.0,1.0,156.0,0.0,41.0,3.0,252.0,412.0,41.0,1020.0,1744252590.375455,0.0,2025-04-09 22:36:30.375,STOP,2
160.0,19429.432681731305,3623.5530523721045,-66441.81209108974,-65039.12836779695,-38785.663400371486,-36454.9575990388,-33291.44815104582,-22722.246971398232,0.0,0.0,0.0,193.0,1.0,156.0,0.0,42.0,3.0,253.0,412.0,42.0,1021.0,1744252590.3754635,0.0,2025-04-09 22:36:30.375,STOP,2
161.0,19360.276384386587,3617.696895324814,-66475.85379789518,-65055.84747264952,-38809.08802856065,-36486.69707616533,-32908.07103014839,-22744.241087942253,0.0,0.0,0.0,193.0,1.0,155.0,0.0,42.0,3.0,251.0,411.0,42.0,1019.0,1744252590.3754723,0.0,2025-04-09 22:36:30.375,STOP,2
162.0,19282.313499726475,3554.150885838376,-66521.18313565054,-65095.70063301333,-38866.532011810785,-36543.60461754854,-32999.24379578159,-22796.141838567477,0.0,0.0,0.0,193.0,1.0,155.0,0.0,42.0,3.0,250.0,411.0,42.0,1018.0,1744252590.375481,0.0,2025-04-09 22:36:30.375,STOP,2
163.0,19443.290763293597,3584.728072253236,-66533.92362999007,-65076.8134089486,-38913.35891644465,-36589.67156287093,-32770.54074651489,-22828.261295349756,0.0,0.0,0.0,193.0,1.0,154.0,0.0,42.0,3.0,249.0,410.0,42.0,1017.0,1744252590.3754952,0.0,2025-04-09 22:36:30.375,STOP,2
164.0,19438.865117891448,3619.6191453479705,-66463.38152448912,-65050.1030743245,-38797.91215633299,-36474.090692292535,-33307.764924498195,-22728.572515079086,0.0,0.0,0.0,193.0,1.0,154.0,0.0,42.0,3.0,249.0,410.0,42.0,1017.0,1744252590.375504,0.0,2025-04-09 22:36:30.375,STOP,2
165.0,19377.688393317272,3621.6308023489482,-66477.32901302923,-65034.43450146133,-38808.909214605,-36492.2626605347,-32932.85911474933,-22733.668712814895,0.0,0.0,0.0,193.0,1.0,154.0,0.0,42.0,3.0,250.0,410.0,42.0,1018.0,1744252590.3755126,0.0,2025-04-09 22:36:30.375,STOP,2
166.0,19287.990842818122,3568.388947056407,-66520.51258331687,-65083.362470074,-38851.53399128127,-36530.88647495347,-33020.500304758585,-22775.89115809097,0.0,0.0,0.0,193.0,1.0,154.0,0.0,42.0,3.0,249.0,410.0,42.0,1017.0,1744252590.3755212,0.0,2025-04-09 22:36:30.375,STOP,2
167.0,19424.917629351334,3580.3024268510853,-66534.88475500164,-65047.64438243442,-38913.716544355935,-36591.32559196062,-32747.51844972592,-22821.980455157813,0.0,0.0,0.0,193.0,1.0,155.0,0.0,42.0,3.0,252.0,411.0,42.0,1020.0,1744252590.37553,0.0,2025-04-09 22:36:30.375,STOP,2
168.0,19455.89714716639,3614.6794098233477,-66484.3921642771,-65046.83971963403,-38814.72066816338,-36484.864233119995,-33260.222764041755,-22739.92720126238,0.0,0.0,0.0,193.0,1.0,155.0,0.0,42.0,3.0,252.0,411.0,42.0,1020.0,1744252590.3755388,0.0,2025-04-09 22:36:30.375,STOP,2
169.0,19395.2792162036,3621.206119204297,-66472.99277460489,-65000.34809116699,-38804.43886571394,-36483.098445308024,-32982.45763569565,-22731.522945347184,0.0,0.0,0.0,193.0,1.0,155.0,0.0,43.0,3.0,252.0,411.0,43.0,1020.0,1744252590.3755474,0.0,2025-04-09 22:36:30.375,STOP,2
170.0,19293.467020209675,3573.239275603208,-66523.5077170739,-65065.27990880966,-38845.409613300515,-36514.52499801219,-33006.91044412976,-22761.206061983834,0.0,0.0,0.0,193.0,1.0,155.0,0.0,43.0,3.0,250.0,411.0,43.0,1018.0,1744252590.375556,0.0,2025-04-09 22:36:30.375,STOP,2
171.0,19383.298681175555,3562.9127696648566,-66545.52418536236,-65032.82517586055,-38921.763172359846,-36590.47622567132,-32784.82351122183,-22825.80260345967,0.0,0.0,0.0,193.0,1.0,155.0,0.0,43.0,3.0,251.0,411.0,43.0,1019.0,1744252590.3755646,0.0,2025-04-09 22:36:30.375,STOP,2
172.0,19459.629888490428,3609.5608603430824,-66512.10832740169,-65046.079760322544,-38844.13556386656,-36507.50655025322,-33168.75942573064,-22763.463588173818,0.0,0.0,0.0,193.0,1.0,154.0,0.0,43.0,3.0,249.0,410.0,43.0,1017.0,1744252590.3755732,0.0,2025-04-09 22:36:30.375,STOP,2
173.0,19393.513428391627,3614.053560978599,-66478.4913037409,-64987.71935554974,-38802.94129883544,-36479.87979410646,-33056.59837205391,-22722.62695105397,0.0,0.0,0.0,193.0,1.0,154.0,0.0,43.0,3.0,249.0,410.0,43.0,1017.0,1744252590.3755815,0.0,2025-04-09 22:36:30.375,STOP,2
174.0,19298.563217945484,3575.3403395820073,-66524.55824906328,-65052.78528365914,-38831.05979336021,-36509.09352410955,-32964.66564710923,-22754.299372947142,0.0,0.0,0.0,193.0,1.0,154.0,0.0,43.0,3.0,251.0,410.0,43.0,1019.0,1744252590.3755903,0.0,2025-04-09 22:36:30.375,STOP,2
175.0,19339.60102076543,3544.60669095596,-66549.32398191976,-65032.10992003798,-38910.54259664328,-36585.49178665779,-32831.31513968887,-22820.66170223495,0.0,0.0,0.0,193.0,1.0,155.0,0.0,43.0,3.0,250.0,411.0,43.0,1018.0,1744252590.3755991,0.0,2025-04-09 22:36:30.375,STOP,2
176.0,19463.18381585882,3596.641552047915,-66530.32499913276,-65048.605507445995,-38869.70595952344,-36536.0720796671,-33046.07070041546,-22788.743411152773,0.0,0.0,0.0,193.0,1.0,155.0,0.0,43.0,3.0,252.0,411.0,43.0,1020.0,1744252590.3756075,0.0,2025-04-09 22:36:30.375,STOP,2
177.0,19404.957521552744,3616.020514490666,-66464.29794601178,-64975.38119261041,-38790.960763807394,-36468.88273583445,-33157.96353315873,-22718.73774751875,0.0,0.0,0.0,193.0,1.0,155.0,0.0,43.0,3.0,252.0,411.0,43.0,1020.0,1744252590.375616,0.0,2025-04-09 22:36:30.375,STOP,2
178.0,19302.318311013976,3574.3345110815185,-66532.33665613373,-65053.94757437082,-38839.911084164516,-36522.32575682709,-32929.685167036674,-22766.79399809766,0.0,0.0,0.0,193.0,1.0,155.0,0.0,43.0,3.0,251.0,411.0,43.0,1019.0,1744252590.375629,0.0,2025-04-09 22:36:30.375,STOP,2
179.0,19300.82074413547,3534.3919437398845,-66556.3647814232,-65046.90677486739,-38904.351163429164,-36584.17303373492,-32914.08364940687,-22822.628655747016,0.0,0.0,0.0,193.0,1.0,155.0,0.0,43.0,3.0,252.0,411.0,43.0,1020.0,1744252590.3756375,0.0,2025-04-09 22:36:30.375,STOP,2
180.0,19450.868004663946,3575.5862087710157,-66553.213185455,-65053.88051913745,-38899.14320697108,-36569.39853064997,-32920.92328321019,-22813.576199242616,0.0,0.0,0.0,193.0,1.0,155.0,0.0,43.0,3.0,252.0,411.0,43.0,1020.0,1744252590.375646,0.0,2025-04-09 22:36:30.375,STOP,2
181.0,19405.65042563086,3602.9447439843116,-66470.39997224808,-64985.841809015496,-38792.54773766372,-36463.87594507646,-33247.92930459134,-22713.73095676076,0.0,0.0,0.0,193.0,1.0,155.0,0.0,43.0,3.0,251.0,411.0,43.0,1019.0,1744252590.3756547,0.0,2025-04-09 22:36:30.375,STOP,2
182.0,19328.469852026683,3589.1984211442973,-66516.62337978165,-65030.54529792611,-38826.99177586935,-36506.45601826382,-32908.786285970964,-22758.099169504545,0.0,0.0,0.0,193.0,1.0,154.0,0.0,43.0,3.0,251.0,410.0,43.0,1019.0,1744252590.3756633,0.0,2025-04-09 22:36:30.375,STOP,2
183.0,19282.693479382215,3537.9011676193677,-66546.66412432959,-65048.29258302362,-38887.162671943035,-36561.44130962388,-32974.76863560303,-22812.83859167559,0.0,0.0,0.0,193.0,1.0,154.0,0.0,43.0,3.0,249.0,410.0,43.0,1017.0,1744252590.5217004,0.0,2025-04-09 22:36:30.521,STOP,2
184.0,19452.94671689829,3582.7164152522587,-66550.77684530936,-65041.02826607565,-38916.62227113513,-36585.20121397987,-32830.66693909966,-22835.90559195347,0.0,0.0,0.0,193.0,1.0,154.0,0.0,43.0,3.0,250.0,410.0,43.0,1018.0,1744252590.5217335,0.0,2025-04-09 22:36:30.521,STOP,2
185.0,19424.09061480649,3616.266383679674,-66466.95780360197,-64993.97784399723,-38790.469025429375,-36464.591200899034,-33295.62792725896,-22718.44717484083,0.0,0.0,0.0,193.0,1.0,154.0,0.0,44.0,3.0,249.0,410.0,44.0,1017.0,1744252590.5217445,0.0,2025-04-09 22:36:30.521,STOP,2
186.0,19353.079122671978,3607.437444619828,-66496.08212662723,-65010.54048663861,-38810.87616811707,-36496.44243674784,-32894.34705905284,-22742.274134430187,0.0,0.0,0.0,193.0,1.0,155.0,0.0,44.0,3.0,250.0,411.0,44.0,1018.0,1744252590.5217545,0.0,2025-04-09 22:36:30.521,STOP,2
187.0,19265.460284407174,3539.2422722866863,-66543.73604580594,-65064.74346694273,-38872.41052060253,-36555.89807699896,-32993.67821141222,-22801.729774681306,0.0,0.0,0.0,193.0,1.0,154.0,0.0,43.0,3.0,252.0,410.0,43.0,1020.0,1744252590.521764,0.0,2025-04-09 22:36:30.521,STOP,2
188.0,19428.896239864378,3575.8767814489347,-66546.7088278185,-65036.088530551024,-38915.57173914573,-36595.86299608505,-32759.76720568743,-22832.28460935171,0.0,0.0,0.0,193.0,1.0,155.0,0.0,43.0,3.0,252.0,411.0,43.0,1020.0,1744252590.5217736,0.0,2025-04-09 22:36:30.521,STOP,2
189.0,19433.411292244353,3608.7114940537804,-66474.55739671677,-65016.329588452536,-38795.34170572063,-36473.77776787016,-33289.168273111376,-22727.566686578597,0.0,0.0,0.0,193.0,1.0,155.0,0.0,44.0,3.0,252.0,411.0,44.0,1020.0,1744252590.521783,0.0,2025-04-09 22:36:30.521,STOP,2
190.0,19357.59417505195,3596.9321247258335,-66496.28329232732,-65012.82036457305,-38814.944185607936,-36503.818512418096,-32926.019480946,-22743.436425141863,0.0,0.0,0.0,193.0,1.0,155.0,0.0,44.0,3.0,251.0,411.0,44.0,1019.0,1744252590.521792,0.0,2025-04-09 22:36:30.521,STOP,2
191.0,19264.208586717676,3548.9876328692003,-66536.29291490233,-65070.48786526774,-38851.422232558994,-36538.217847134816,-33011.827827909925,-22778.3274982366,0.0,0.0,0.0,193.0,1.0,154.0,0.0,44.0,3.0,250.0,410.0,44.0,1018.0,1744252590.5218012,0.0,2025-04-09 22:36:30.521,STOP,2
192.0,19399.436640672284,3568.053670889577,-66539.46686261498,-65025.20323100129,-38910.140265243084,-36589.85037682657,-32756.257981807947,-22819.767632456736,0.0,0.0,0.0,193.0,1.0,155.0,0.0,43.0,3.0,251.0,411.0,43.0,1019.0,1744252590.52181,0.0,2025-04-09 22:36:30.521,STOP,2
193.0,19439.490966736194,3604.956400985289,-66495.09864987119,-65036.803786373595,-38818.095781576136,-36492.84380589054,-33236.01582479666,-22739.88249777347,0.0,0.0,0.0,193.0,1.0,154.0,0.0,44.0,3.0,250.0,410.0,44.0,1018.0,1744252590.5218468,0.0,2025-04-09 22:36:30.521,STOP,2
194.0,19369.26178565762,3602.7882817731243,-66486.31441430026,-64999.901056277886,-38807.34459249313,-36496.28597453666,-32989.14080728779,-22738.02730298368,0.0,0.0,0.0,193.0,1.0,154.0,0.0,44.0,3.0,250.0,410.0,44.0,1018.0,1744252590.5218556,0.0,2025-04-09 22:36:30.521,STOP,2
195.0,19274.66920312276,3561.146981852887,-66532.33665613373,-65071.09136236804,-38839.821677186694,-36529.43361156388,-32991.778313133516,-22781.590852927075,0.0,0.0,0.0,193.0,1.0,154.0,0.0,44.0,3.0,250.0,410.0,44.0,1018.0,1744252590.521865,0.0,2025-04-09 22:36:30.521,STOP,2
196.0,19357.25889888512,3550.149923580876,-66547.53584236334,-65038.92720209685,-38912.107218755154,-36601.02624905422,-32787.12574090072,-22835.302094853174,0.0,0.0,0.0,193.0,1.0,155.0,0.0,44.0,3.0,250.0,411.0,44.0,1018.0,1744252590.5218737,0.0,2025-04-09 22:36:30.521,STOP,2
197.0,19437.99339985769,3584.5492582975935,-66529.72150203247,-65067.000993132715,-38858.68654950697,-36534.30629185514,-33131.40966074582,-22776.248786002256,0.0,0.0,0.0,193.0,1.0,155.0,0.0,44.0,3.0,251.0,411.0,44.0,1019.0,1744252590.5218828,0.0,2025-04-09 22:36:30.521,STOP,2
198.0,19384.1256957204,3612.2654214221743,-66474.44563799449,-64993.55316085258,-38797.84510109963,-36484.77482614217,-33095.35629693941,-22726.672616800384,0.0,0.0,0.0,193.0,1.0,155.0,0.0,44.0,3.0,252.0,411.0,44.0,1020.0,1744252590.521892,0.0,2025-04-09 22:36:30.521,STOP,2
199.0,19300.664281924284,3590.606581044982,-66515.48344081444,-65054.975754615756,-38820.800342655224,-36509.29468980965,-32959.30122843996,-22759.26146021622,0.0,0.0,0.0,193.0,1.0,155.0,0.0,44.0,3.0,252.0,411.0,44.0,1020.0,1744252590.5219011,0.0,2025-04-09 22:36:30.521,STOP,2
200.0,19340.83036671047,3565.572627255038,-66522.39012985112,-65021.78341409963,-38877.23849740488,-36566.09047247058,-32853.979808566546,-22806.75891718375,0.0,0.0,0.0,193.0,1.0,155.0,0.0,44.0,3.0,252.0,411.0,44.0,1020.0,1744252590.52191,0.0,2025-04-09 22:36:30.521,STOP,2
201.0,19457.729990211727,3595.278095636141,-66525.16174616358,-65050.3042400246,-38866.77788099979,-36545.99625420526,-32995.91338585775,-22795.94067286738,0.0,0.0,0.0,193.0,1.0,155.0,0.0,44.0,3.0,252.0,411.0,44.0,1020.0,1744252590.5219188,0.0,2025-04-09 22:36:30.521,STOP,2
202.0,19408.757318110147,3619.9767732592554,-66446.7294748699,-64972.408410597855,-38773.23583045433,-36458.355064196,-33184.159777660345,-22710.132325903454,0.0,0.0,0.0,193.0,1.0,155.0,0.0,44.0,3.0,251.0,411.0,44.0,1019.0,1744252590.5219276,0.0,2025-04-09 22:36:30.521,STOP,2
203.0,19329.520384016083,3604.1964416738087,-66487.81198117876,-65023.236277489224,-38794.49233943133,-36492.44147449034,-32907.266367348,-22738.809614039616,0.0,0.0,0.0,193.0,1.0,154.0,0.0,44.0,3.0,250.0,410.0,44.0,1018.0,1744252590.5219364,0.0,2025-04-09 22:36:30.521,STOP,2
204.0,19298.742031901125,3545.053725845066,-66533.74481603442,-65045.23039403324,-38880.099520695156,-36580.73086508881,-32893.542396252444,-22816.481926021806,0.0,0.0,0.0,193.0,1.0,154.0,0.0,44.0,3.0,249.0,410.0,44.0,1017.0,1744252590.5219455,0.0,2025-04-09 22:36:30.521,STOP,2
205.0,19438.66395219135,3567.8525051894794,-66554.17431046657,-65074.332365314054,-38911.347259443675,-36603.61905141104,-32874.85633788781,-22844.66747577995,0.0,0.0,0.0,193.0,1.0,154.0,0.0,44.0,3.0,249.0,410.0,44.0,1017.0,1744252590.5219543,0.0,2025-04-09 22:36:30.521,STOP,2
206.0,19416.915704836334,3617.696895324814,-66444.27078297983,-64988.635777072406,-38773.88403104353,-36466.37934045545,-33271.06336010258,-22714.64737828343,0.0,0.0,0.0,193.0,1.0,154.0,0.0,44.0,3.0,249.0,410.0,44.0,1017.0,1744252590.5219631,0.0,2025-04-09 22:36:30.521,STOP,2
207.0,19342.372637077886,3606.923354497356,-66482.9393008875,-65021.51519316617,-38801.13080753456,-36500.95748912782,-32895.643460231244,-22744.665771086904,0.0,0.0,0.0,193.0,1.0,154.0,0.0,44.0,3.0,250.0,410.0,44.0,1018.0,1744252590.5219767,0.0,2025-04-09 22:36:30.521,STOP,2
208.0,19281.084153781434,3546.931272379312,-66520.73610076142,-65051.93591736984,-38861.569924541705,-36555.80867002114,-32970.85708032335,-22798.198199057366,0.0,0.0,0.0,193.0,1.0,154.0,0.0,44.0,3.0,251.0,410.0,44.0,1019.0,1744252590.5219855,0.0,2025-04-09 22:36:30.521,STOP,2
209.0,19445.727103439225,3581.822345474046,-66529.34152237672,-65039.664809663875,-38900.35020117166,-36586.31880120264,-32786.83516822281,-22828.350702327574,0.0,0.0,0.0,193.0,1.0,155.0,0.0,44.0,3.0,252.0,411.0,44.0,1020.0,1744252590.5219944,0.0,2025-04-09 22:36:30.521,STOP,2
210.0,19433.612457944448,3621.1614157153867,-66441.4768149229,-64994.11195446396,-38772.9005542875,-36455.33757869453,-33291.962241168294,-22709.35001484752,0.0,0.0,0.0,193.0,1.0,155.0,0.0,44.0,3.0,251.0,411.0,44.0,1019.0,1744252590.5220034,0.0,2025-04-09 22:36:30.522,STOP,2
211.0,19361.79630300955,3613.561822600582,-66467.62835593562,-65003.00794875717,-38796.973383065866,-36488.6640296774,-32892.447160774136,-22738.586096595063,0.0,0.0,0.0,193.0,1.0,155.0,0.0,44.0,3.0,252.0,411.0,44.0,1020.0,1744252590.5220122,0.0,2025-04-09 22:36:30.522,STOP,2
212.0,19270.28826120952,3551.3345660370073,-66517.4056908376,-65060.988373874236,-38854.48442154937,-36545.30335012714,-32995.756923646564,-22803.115582837534,0.0,0.0,0.0,193.0,1.0,154.0,0.0,44.0,3.0,251.0,410.0,44.0,1019.0,1744252590.5220208,0.0,2025-04-09 22:36:30.522,STOP,2
213.0,19413.831164101503,3567.673691233837,-66536.27056315787,-65043.218737032264,-38918.410410691555,-36603.75316187777,-32741.975217101008,-22846.23209789182,0.0,0.0,0.0,193.0,1.0,154.0,0.0,44.0,3.0,251.0,410.0,44.0,1019.0,1744252590.5220296,0.0,2025-04-09 22:36:30.522,STOP,2
214.0,19431.13141430991,3605.1352149409313,-66464.74498090088,-65026.27611473514,-38796.72751387686,-36474.11304403699,-33277.075979361056,-22731.992331980746,0.0,0.0,0.0,193.0,1.0,154.0,0.0,44.0,3.0,249.0,410.0,44.0,1017.0,1744252590.5220385,0.0,2025-04-09 22:36:30.522,STOP,2
215.0,19360.768122764603,3599.3908166159176,-66473.14923681608,-65010.45107966079,-38804.55062443622,-36496.91182338141,-32931.0709751929,-22742.721169319295,0.0,0.0,0.0,193.0,1.0,155.0,0.0,44.0,3.0,251.0,411.0,44.0,1019.0,1744252590.5220475,0.0,2025-04-09 22:36:30.522,STOP,2
216.0,19260.587604115917,3547.3559555239626,-66521.8983914731,-65080.277929339165,-38846.460145289915,-36539.603655291045,-32996.91921435824,-22791.671489676417,0.0,0.0,0.0,193.0,1.0,155.0,0.0,44.0,3.0,251.0,411.0,44.0,1019.0,1744252590.522056,0.0,2025-04-09 22:36:30.522,STOP,2
217.0,19383.633957342383,3557.0342608731107,-66527.21810665347,-65038.03313231863,-38909.51441639834,-36597.60643215256,-32752.927571884105,-22839.75009199978,0.0,0.0,0.0,193.0,1.0,154.0,0.0,44.0,3.0,249.0,410.0,44.0,1017.0,1744252590.5220652,0.0,2025-04-09 22:36:30.522,STOP,2
218.0,19442.910783637857,3595.1663369138646,-66484.3921642771,-65050.997144102716,-38825.87418864658,-36502.07507635058,-33211.987699507205,-22765.050562030145,0.0,0.0,0.0,193.0,1.0,154.0,0.0,44.0,3.0,251.0,410.0,44.0,1019.0,1744252590.5220737,0.0,2025-04-09 22:36:30.522,STOP,2
219.0,19384.55037886505,3610.2090609322863,-66453.09972203967,-64994.82721028653,-38793.15123476401,-36482.830224374564,-33015.00177562258,-22729.511288346206,0.0,0.0,0.0,193.0,1.0,154.0,0.0,44.0,3.0,250.0,410.0,44.0,1018.0,1744252590.5807388,0.0,2025-04-09 22:36:30.580,STOP,2
220.0,19281.039450292523,3564.9467784102894,-66511.01309192338,-65075.02526939217,-38833.9655201394,-36523.80097196114,-32965.67147560972,-22773.23130050079,0.0,0.0,0.0,193.0,1.0,154.0,0.0,44.0,3.0,248.0,410.0,44.0,1016.0,1744252590.5807736,0.0,2025-04-09 22:36:30.580,STOP,2
221.0,19345.74775049064,3545.478408989717,-66533.87892650114,-65051.51123422519,-38913.73889610039,-36599.68514438691,-32800.44738059609,-22842.834632734615,0.0,0.0,0.0,193.0,1.0,154.0,0.0,44.0,3.0,250.0,410.0,44.0,1018.0,1744252590.5807843,0.0,2025-04-09 22:36:30.580,STOP,2
222.0,19446.129434839422,3588.0137786881664,-66510.58840877873,-65072.47717052427,-38860.228819874384,-36535.80385873364,-33094.752799839116,-22792.36439375453,0.0,0.0,0.0,193.0,1.0,154.0,0.0,44.0,3.0,250.0,410.0,44.0,1018.0,1744252590.5808291,0.0,2025-04-09 22:36:30.580,STOP,2
223.0,19391.010033012633,3616.4228458908615,-66446.61771614764,-64995.60952134246,-38789.73141786235,-36474.78359637065,-33118.065669306,-22731.590000580552,0.0,0.0,0.0,193.0,1.0,155.0,0.0,44.0,3.0,252.0,411.0,44.0,1020.0,1744252590.5808399,0.0,2025-04-09 22:36:30.580,STOP,2
224.0,19286.001537561602,3567.7854499561136,-66512.08597565723,-65079.83089445006,-38836.13363935157,-36524.359765572524,-32937.39651887376,-22779.087457548078,0.0,0.0,0.0,193.0,1.0,155.0,0.0,44.0,3.0,251.0,411.0,44.0,1019.0,1744252590.5808492,0.0,2025-04-09 22:36:30.580,STOP,2
225.0,19309.314407028487,3534.6154611844377,-66527.1510514201,-65061.70362969681,-38898.338544170685,-36589.87272857103,-32870.22952678556,-22834.85505996407,0.0,0.0,0.0,193.0,1.0,155.0,0.0,44.0,3.0,252.0,411.0,44.0,1020.0,1744252590.5808587,0.0,2025-04-09 22:36:30.580,STOP,2
226.0,19449.50454825217,3581.956455940778,-66520.44552808351,-65075.22643509227,-38882.804081774244,-36565.598734092564,-32968.95718204465,-22821.51106852425,0.0,0.0,0.0,193.0,1.0,155.0,0.0,44.0,3.0,252.0,411.0,44.0,1020.0,1744252590.5808675,0.0,2025-04-09 22:36:30.580,STOP,2
227.0,19390.384184167884,3598.541450326616,-66455.22313776292,-65014.496745407196,-38795.654630143006,-36487.92642211037,-33209.19373145029,-22745.559840865117,0.0,0.0,0.0,193.0,1.0,155.0,0.0,44.0,3.0,251.0,411.0,44.0,1019.0,1744252590.5808773,0.0,2025-04-09 22:36:30.580,STOP,2
228.0,19316.444613509728,3586.7620809986693,-66496.90914117207,-65061.21189131879,-38821.716764177894,-36513.49681776724,-32919.29160586496,-22765.542300408164,0.0,0.0,0.0,193.0,1.0,154.0,0.0,44.0,3.0,251.0,410.0,44.0,1019.0,1744252590.580886,0.0,2025-04-09 22:36:30.580,STOP,2
229.0,19287.901435840304,3537.70000191927,-66522.9042199736,-65066.866882665985,-38881.21710791792,-36567.45392888236,-32939.36347238582,-22810.268141063232,0.0,0.0,0.0,193.0,1.0,154.0,0.0,44.0,3.0,249.0,410.0,44.0,1017.0,1744252590.5808952,0.0,2025-04-09 22:36:30.580,STOP,2
230.0,19444.587164472006,3576.3461680824958,-66532.64958055611,-65073.55005425812,-38901.691305838984,-36584.59771687957,-32847.54250616342,-22828.998902916777,0.0,0.0,0.0,193.0,1.0,154.0,0.0,44.0,3.0,249.0,410.0,44.0,1017.0,1744252590.580904,0.0,2025-04-09 22:36:30.580,STOP,2
231.0,19405.024576786112,3603.525889340149,-66451.19982376097,-65019.391777442914,-38790.8043015962,-36472.92840158086,-33279.75818869569,-22729.176012179378,0.0,0.0,0.0,193.0,1.0,155.0,0.0,44.0,3.0,251.0,411.0,44.0,1019.0,1744252590.5809128,0.0,2025-04-09 22:36:30.580,STOP,2
232.0,19331.97907590617,3592.5511828125937,-66487.1414288451,-65046.169167300366,-38818.989851354345,-36509.45115202083,-32905.634690002764,-22759.663791616418,0.0,0.0,0.0,193.0,1.0,154.0,0.0,44.0,3.0,250.0,410.0,44.0,1018.0,1744252591.0391617,0.0,2025-04-09 22:36:31.039,STOP,2
233.0,19272.456380421685,3548.160618324354,-66515.12581290315,-65071.337231557045,-38865.25796237683,-36554.847545009565,-32989.09610379888,-22802.154457825956,0.0,0.0,0.0,193.0,1.0,154.0,0.0,44.0,3.0,250.0,410.0,44.0,1018.0,1744252591.0392,0.0,2025-04-09 22:36:31.039,STOP,2
234.0,19439.2898010361,3585.733900753725,-66519.90908621659,-65048.87372837946,-38903.52414888432,-36591.10207451607,-32758.716673698033,-22830.049434906177,0.0,0.0,0.0,193.0,1.0,154.0,0.0,44.0,3.0,249.0,410.0,44.0,1017.0,1744252591.03922,0.0,2025-04-09 22:36:31.039,STOP,2
235.0,19422.61539967244,3608.398569631406,-66452.74209412839,-65026.812556602075,-38791.027819040755,-36477.08582604955,-33275.57841248255,-22726.91848598939,0.0,0.0,0.0,193.0,1.0,154.0,0.0,44.0,3.0,249.0,410.0,44.0,1017.0,1744252591.03924,0.0,2025-04-09 22:36:31.039,STOP,2
236.0,19352.207404638222,3601.0001422166997,-66475.5855769617,-65027.5501641691,-38809.982098338856,-36503.19266357335,-32894.257652075015,-22742.54235536365,0.0,0.0,0.0,193.0,1.0,154.0,0.0,44.0,3.0,251.0,410.0,44.0,1019.0,1744252591.0392604,0.0,2025-04-09 22:36:31.039,STOP,2
237.0,19252.317458667454,3535.2636617736416,-66530.05677819929,-65094.02425217918,-38867.090805422165,-36559.07202471161,-32997.56741494744,-22806.736565439292,0.0,0.0,0.0,193.0,1.0,155.0,0.0,44.0,3.0,252.0,411.0,44.0,1020.0,1744252591.0393057,0.0,2025-04-09 22:36:31.039,STOP,2
238.0,19400.55422789505,3563.605673742971,-66531.50964158888,-65052.98644935924,-38915.61644263464,-36605.384839223014,-32741.036443833884,-22843.885164724015,0.0,0.0,0.0,193.0,1.0,155.0,0.0,44.0,3.0,251.0,411.0,44.0,1019.0,1744252591.0393229,0.0,2025-04-09 22:36:31.039,STOP,2
239.0,19428.963295097747,3602.832985262035,-66468.47772222492,-65047.353809756496,-38807.4116477265,-36484.21603253079,-33262.68145593184,-22738.563744850606,0.0,0.0,0.0,193.0,1.0,155.0,0.0,44.0,3.0,252.0,411.0,44.0,1020.0,1744252591.039332,0.0,2025-04-09 22:36:31.039,STOP,2
240.0,19355.44840758424,3596.708607281281,-66470.86935888164,-65023.370387955954,-38809.33389774965,-36496.30832628111,-32953.13214697029,-22736.82030878309,0.0,0.0,0.0,193.0,1.0,155.0,0.0,44.0,3.0,251.0,411.0,44.0,1019.0,1744252591.0393412,0.0,2025-04-09 22:36:31.039,STOP,2
241.0,19248.316496409952,3542.438571743795,-66525.76524326387,-65100.17098190439,-38852.31630233721,-36540.721242513806,-32985.94450783068,-22787.64817567446,0.0,0.0,0.0,193.0,1.0,154.0,0.0,44.0,3.0,248.0,410.0,44.0,1016.0,1744252591.0393505,0.0,2025-04-09 22:36:31.039,STOP,2
242.0,19371.58636708097,3563.9633016542557,-66520.13260366114,-65045.29744926661,-38904.641736107085,-36590.00683903776,-32762.069435366328,-22835.90559195347,0.0,0.0,0.0,193.0,1.0,154.0,0.0,44.0,3.0,249.0,410.0,44.0,1017.0,1744252591.0393596,0.0,2025-04-09 22:36:31.039,STOP,2
243.0,19439.9380016253,3597.736787526225,-66485.5991584777,-65062.62005121948,-38832.557360238716,-36504.913747896404,-33164.28907683958,-22766.749294608748,0.0,0.0,0.0,193.0,1.0,154.0,0.0,44.0,3.0,249.0,410.0,44.0,1017.0,1744252591.0393686,0.0,2025-04-09 22:36:31.039,STOP,2
244.0,19358.35413436343,3584.4598513197725,-66471.3387455152,-65024.37621645645,-38815.078296074666,-36502.5668147286,-33025.73061296113,-22754.187614224866,0.0,0.0,0.0,193.0,1.0,154.0,0.0,45.0,3.0,250.0,410.0,45.0,1018.0,1744252591.039378,0.0,2025-04-09 22:36:31.039,STOP,2
245.0,19268.85774956438,3557.257778317664,-66513.22591462445,-65087.22932186477,-38840.53693300926,-36527.98074817428,-32962.072844752416,-22783.84837911706,0.0,0.0,0.0,193.0,1.0,154.0,0.0,44.0,3.0,251.0,410.0,44.0,1019.0,1744252591.0393872,0.0,2025-04-09 22:36:31.039,STOP,2
246.0,19320.758500189604,3533.3190600060298,-66534.70594104599,-65061.16718782988,-38915.72820135691,-36600.73567637631,-32814.3948691362,-22840.063016422155,0.0,0.0,0.0,193.0,1.0,154.0,0.0,44.0,3.0,250.0,410.0,44.0,1018.0,1744252591.039396,0.0,2025-04-09 22:36:31.039,STOP,2
247.0,19445.816510417048,3590.0030839446886,-66504.01699590887,-65068.99029838924,-38858.08305240668,-36531.624082520495,-33049.04348242802,-22781.948480838357,0.0,0.0,0.0,193.0,1.0,154.0,0.0,44.0,3.0,250.0,410.0,44.0,1018.0,1744252591.0394049,0.0,2025-04-09 22:36:31.039,STOP,2
248.0,19382.583425352983,3603.7270550402473,-66445.6342393916,-65004.77373656914,-38788.34560970612,-36473.93423008135,-33121.15021004083,-22725.398567366432,0.0,0.0,0.0,193.0,1.0,154.0,0.0,44.0,3.0,249.0,410.0,44.0,1017.0,1744252591.0394135,0.0,2025-04-09 22:36:31.039,STOP,2
249.0,19297.356223744897,3579.028377417133,-66494.67396672654,-65071.31487981259,-38818.11813332059,-36509.13822759846,-32905.94761442514,-22760.08847476107,0.0,0.0,0.0,193.0,1.0,154.0,0.0,44.0,3.0,250.0,410.0,44.0,1018.0,1744252591.0394225,0.0,2025-04-09 22:36:31.039,STOP,2
250.0,19293.623482420862,3531.4191617273286,-66524.84882174121,-65071.49369376823,-38891.74477955637,-36582.742522089786,-32864.3063145049,-22828.842440705594,0.0,0.0,0.0,193.0,1.0,154.0,0.0,44.0,3.0,251.0,410.0,44.0,1019.0,1744252591.039431,0.0,2025-04-09 22:36:31.039,STOP,2
251.0,19449.75041744118,3581.665883262859,-66509.87315295615,-65073.013612391194,-38873.393997358566,-36559.34024564508,-32907.89221619275,-22817.353644055565,0.0,0.0,0.0,193.0,1.0,154.0,0.0,44.0,3.0,252.0,410.0,44.0,1020.0,1744252591.03944,0.0,2025-04-09 22:36:31.039,STOP,2
252.0,19404.957521552744,3610.5443370991156,-66427.26110544933,-65000.75042256719,-38768.29609492971,-36457.68451186234,-33198.19667317828,-22714.915599216893,0.0,0.0,0.0,193.0,1.0,155.0,0.0,44.0,3.0,252.0,411.0,44.0,1020.0,1744252591.0394533,0.0,2025-04-09 22:36:31.039,STOP,2
253.0,19321.429052523265,3588.594924044004,-66478.58071071871,-65051.891213880925,-38806.405819226005,-36501.27041355019,-32861.86997435927,-22753.87468980249,0.0,0.0,0.0,193.0,1.0,155.0,0.0,44.0,3.0,251.0,411.0,44.0,1019.0,1744252591.0394619,0.0,2025-04-09 22:36:31.039,STOP,2
254.0,19266.734333841126,3523.998382568167,-66525.18409790803,-65081.10494388401,-38882.98289572989,-36573.75712081875,-32914.26246336252,-22819.924094667924,0.0,0.0,0.0,193.0,1.0,155.0,0.0,44.0,3.0,253.0,411.0,44.0,1021.0,1744252591.039471,0.0,2025-04-09 22:36:31.039,STOP,2
255.0,19428.628018930915,3561.7281272087253,-66530.25794389939,-65076.74635371523,-38909.112084998145,-36592.33142046111,-32794.72533401553,-22842.745225756793,0.0,0.0,0.0,193.0,1.0,155.0,0.0,44.0,3.0,251.0,411.0,44.0,1019.0,1744252591.0394797,0.0,2025-04-09 22:36:31.039,STOP,2
0.0,19401.828277329,3596.149813669898,-66442.81791959023,-65023.035111789126,-38788.32325796167,-36469.776805612666,-33265.676589688854,-22739.010779739714,0.0,0.0,0.0,193.0,1.0,155.0,0.0,44.0,3.0,251.0,411.0,44.0,1019.0,1744252591.0394886,0.0,2025-04-09 22:36:31.039,STOP,2
1.0,19325.00533163611,3581.017682673655,-66482.60402472067,-65051.37712375845,-38819.973328110376,-36511.55221599963,-32875.88451813275,-22768.917413820913,0.0,0.0,0.0,193.0,1.0,154.0,0.0,44.0,3.0,249.0,410.0,44.0,1017.0,1744252591.0394971,0.0,2025-04-09 22:36:31.039,STOP,2
2.0,19248.160034198765,3521.9196703338234,-66520.11025191669,-65093.08547891206,-38869.325979867695,-36557.932085744396,-32975.90857457025,-22812.123335853023,0.0,0.0,0.0,193.0,1.0,154.0,0.0,44.0,3.0,251.0,410.0,44.0,1019.0,1744252591.039506,0.0,2025-04-09 22:36:31.039,STOP,2
3.0,19393.245207458163,3536.738876907692,-66546.79823479631,-65088.72688874327,-38937.051765567274,-36620.71813591935,-32738.53304845489,-22866.23690917932,0.0,0.0,0.0,193.0,1.0,154.0,0.0,44.0,3.0,249.0,410.0,44.0,1017.0,1744252591.0395148,0.0,2025-04-09 22:36:31.039,STOP,2
4.0,19399.436640672284,3581.4870693072166,-66464.16383554504,-65058.23910930623,-38810.40678148351,-36488.440512232846,-33288.2071480998,-22755.439311914364,0.0,0.0,0.0,193.0,1.0,154.0,0.0,44.0,3.0,251.0,410.0,44.0,1019.0,1744252591.0395231,0.0,2025-04-09 22:36:31.039,STOP,2
5.0,19332.604924750918,3581.956455940778,-66478.55835897426,-65049.9019086244,-38822.54377872274,-36510.166407843404,-32912.18375112817,-22762.658925373427,0.0,0.0,0.0,193.0,1.0,154.0,0.0,44.0,3.0,252.0,410.0,44.0,1020.0,1744252591.039532,0.0,2025-04-09 22:36:31.039,STOP,2
6.0,19252.831548789927,3540.002231598167,-66506.00630116538,-65095.678281268876,-38846.77306971229,-36535.200361633346,-32996.69569691369,-22786.709402407338,0.0,0.0,0.0,193.0,1.0,155.0,0.0,44.0,3.0,252.0,411.0,44.0,1020.0,1744252591.0395403,0.0,2025-04-09 22:36:31.039,STOP,2
7.0,19381.26467243012,3543.5561589665604,-66519.28323737184,-65066.01751637668,-38911.190797232484,-36603.01555431075,-32721.61277790222,-22847.841423492602,0.0,0.0,0.0,193.0,1.0,155.0,0.0,44.0,3.0,249.0,411.0,44.0,1017.0,1744252591.0395496,0.0,2025-04-09 22:36:31.039,STOP,2
8.0,19418.92736183731,3581.420014073851,-66469.26003328087,-65073.39359204693,-38816.57586295317,-36497.62707920397,-33224.571731635544,-22763.843567829557,0.0,0.0,0.0,193.0,1.0,155.0,0.0,44.0,3.0,252.0,411.0,44.0,1020.0,1744252591.0395582,0.0,2025-04-09 22:36:31.039,STOP,2
9.0,19361.63984079836,3596.507441581183,-66449.09875978217,-65024.75619611218,-38797.465121443885,-36487.92642211037,-32962.51987964152,-22741.715340818806,0.0,0.0,0.0,193.0,1.0,155.0,0.0,44.0,3.0,250.0,411.0,44.0,1018.0,1744252591.0395672,0.0,2025-04-09 22:36:31.039,STOP,2
10.0,19265.929671040736,3555.5813974835155,-66496.30564407178,-65094.5159905572,-38833.71965095039,-36520.82818994858,-32968.46544366663,-22778.3274982366,0.0,0.0,0.0,193.0,1.0,155.0,0.0,44.0,3.0,251.0,411.0,44.0,1019.0,1744252591.039576,0.0,2025-04-09 22:36:31.039,STOP,2
11.0,19351.11216915991,3544.182007811309,-66515.57284779225,-65063.49176925323,-38910.76611408783,-36596.4888449298,-32759.901316154162,-22841.404121089476,0.0,0.0,0.0,193.0,1.0,155.0,0.0,44.0,3.0,251.0,411.0,44.0,1019.0,1744252591.039589,0.0,2025-04-09 22:36:31.039,STOP,2
12.0,19438.731007424714,3590.6959880228032,-66477.01608860685,-65075.181731603356,-38834.92664515098,-36511.68632646636,-33130.89557062335,-22780.205044770843,0.0,0.0,0.0,193.0,1.0,155.0,0.0,44.0,3.0,252.0,411.0,44.0,1020.0,1744252591.0395977,0.0,2025-04-09 22:36:31.039,STOP,2
13.0,19372.27927115909,3600.1954794163084,-66436.64883812057,-65015.21200122977,-38792.03364754125,-36478.561041183595,-33052.508002818584,-22741.60358209653,0.0,0.0,0.0,193.0,1.0,155.0,0.0,45.0,3.0,250.0,411.0,45.0,1018.0,1744252591.0396063,0.0,2025-04-09 22:36:31.039,STOP,2
14.0,19270.24355772061,3557.347185295485,-66492.01410913636,-65091.118525399994,-38827.90819739201,-36516.402544546436,-32931.56271357092,-22778.30514649214,0.0,0.0,0.0,193.0,1.0,154.0,0.0,45.0,3.0,249.0,410.0,45.0,1017.0,1744252591.0396152,0.0,2025-04-09 22:36:31.039,STOP,2
15.0,19301.938331358237,3519.1704057658203,-66521.71957751746,-65079.80854270561,-38907.81568381974,-36597.44996994138,-32816.45122962609,-22849.450749093387,0.0,0.0,0.0,193.0,1.0,154.0,0.0,44.0,3.0,250.0,410.0,44.0,1018.0,1744252591.0396237,0.0,2025-04-09 22:36:31.039,STOP,2
16.0,19430.773786398626,3570.534714524116,-66504.28521684233,-65095.521819057685,-38871.82937524669,-36550.1760304184,-33005.09995282888,-22813.397385286975,0.0,0.0,0.0,193.0,1.0,154.0,0.0,44.0,3.0,249.0,410.0,44.0,1017.0,1744252591.0396326,0.0,2025-04-09 22:36:31.039,STOP,2
17.0,19380.102381718443,3601.8495085060013,-66429.00454151686,-65016.77662334164,-38782.91413580348,-36468.279238734154,-33156.488318024676,-22726.717320289295,0.0,0.0,0.0,193.0,1.0,154.0,0.0,45.0,3.0,250.0,410.0,45.0,1018.0,1744252591.0396411,0.0,2025-04-09 22:36:31.039,STOP,2
18.0,19295.881008610846,3579.8777437064346,-66478.87128339664,-65074.37706880297,-38817.44758098693,-36505.98663163026,-32900.65025098923,-22767.621012642507,0.0,0.0,0.0,193.0,1.0,154.0,0.0,45.0,3.0,251.0,410.0,45.0,1019.0,1744252591.03965,0.0,2025-04-09 22:36:31.039,STOP,2
19.0,19277.1502467573,3527.5076064476502,-66512.93534194653,-65080.34498457253,-38891.275392922806,-36576.372274920024,-32889.11675085029,-22832.508126796263,0.0,0.0,0.0,193.0,1.0,155.0,0.0,44.0,3.0,251.0,411.0,44.0,1019.0,1744252591.0396585,0.0,2025-04-09 22:36:31.039,STOP,2
20.0,19434.104196322467,3574.267455848152,-66512.57771403524,-65086.13408638645,-38894.04700923527,-36572.728940573805,-32877.09151233334,-22839.81714723315,0.0,0.0,0.0,193.0,1.0,154.0,0.0,44.0,3.0,252.0,410.0,44.0,1020.0,1744252591.039668,0.0,2025-04-09 22:36:31.039,STOP,2
21.0,19399.950730794757,3613.8523952785013,-66419.23682918987,-65011.74748083919,-38773.280533943245,-36454.33175019405,-33231.25490322768,-22721.710529531305,0.0,0.0,0.0,193.0,1.0,155.0,0.0,44.0,3.0,251.0,411.0,44.0,1019.0,1744252591.0396807,0.0,2025-04-09 22:36:31.039,STOP,2
22.0,19312.935389630245,3590.4501188337945,-66474.4903414834,-65062.39653377492,-38819.72745892137,-36503.2150153178,-32873.470529731574,-22766.011687041722,0.0,0.0,0.0,193.0,1.0,155.0,0.0,44.0,3.0,252.0,411.0,44.0,1020.0,1744252591.0396895,0.0,2025-04-09 22:36:31.039,STOP,2
23.0,19257.301897680987,3531.530920449605,-66513.02474892435,-65090.78324923316,-38882.960543985435,-36562.84946952456,-32953.48977488158,-22822.718062724838,0.0,0.0,0.0,193.0,1.0,155.0,0.0,44.0,3.0,252.0,411.0,44.0,1020.0,1744252591.0396981,0.0,2025-04-09 22:36:31.039,STOP,2
24.0,19412.80298385656,3560.185856841309,-66530.01207471038,-65090.87265621098,-38922.590186904694,-36597.405266452464,-32782.70009549858,-22854.278725895732,0.0,0.0,0.0,193.0,1.0,155.0,0.0,44.0,3.0,252.0,411.0,44.0,1020.0,1744252591.0397067,0.0,2025-04-09 22:36:31.039,STOP,2
25.0,19405.203390741754,3611.684276066336,-66434.95010554197,-65037.2508212627,-38784.50110965981,-36462.53484040914,-33275.06432236008,-22733.55695409262,0.0,0.0,0.0,193.0,1.0,155.0,0.0,44.0,3.0,251.0,411.0,44.0,1019.0,1744252591.03972,0.0,2025-04-09 22:36:31.039,STOP,2
26.0,19337.611715508905,3603.3470753845068,-66464.09678031168,-65049.72309466876,-38811.83729312865,-36496.956526870315,-32876.53271872195,-22764.290602718665,0.0,0.0,0.0,193.0,1.0,155.0,0.0,45.0,3.0,252.0,411.0,45.0,1020.0,1744252591.0397289,0.0,2025-04-09 22:36:31.039,STOP,2
27.0,19259.492368637606,3544.27141478913,-66500.66423424057,-65093.89014171245,-38860.56409604122,-36541.39179484747,-32985.00573456356,-22808.56940848463,0.0,0.0,0.0,193.0,1.0,155.0,0.0,44.0,3.0,251.0,411.0,44.0,1019.0,1744252591.0397372,0.0,2025-04-09 22:36:31.039,STOP,2
28.0,19412.35594896745,3566.4890487777056,-66511.01309192338,-65070.107885612,-38913.9847652894,-36593.44900768388,-32729.14531578366,-22848.71314152636,0.0,0.0,0.0,193.0,1.0,154.0,0.0,44.0,3.0,251.0,410.0,44.0,1019.0,1744252591.039746,0.0,2025-04-09 22:36:31.039,STOP,2
29.0,19425.02938807361,3605.515194596672,-66436.85000382067,-65051.82415864756,-38790.312563218184,-36468.636866645444,-33256.646484928904,-22741.871803029993,0.0,0.0,0.0,193.0,1.0,154.0,0.0,44.0,3.0,250.0,410.0,44.0,1018.0,1744252591.0397549,0.0,2025-04-09 22:36:31.039,STOP,2
30.0,19347.871166213892,3592.171203156853,-66455.98309707441,-65044.15751029939,-38806.45052271492,-36497.40356175942,-32898.88446317726,-22756.400436925942,0.0,0.0,0.0,193.0,1.0,154.0,0.0,45.0,3.0,250.0,410.0,45.0,1018.0,1744252591.0397637,0.0,2025-04-09 22:36:31.039,STOP,2
31.0,19245.947211497692,3534.190778039787,-66506.6992052435,-65112.48679309926,-38852.338654081665,-36539.313082613124,-32975.416836192235,-22802.22151305932,0.0,0.0,0.0,193.0,1.0,154.0,0.0,44.0,3.0,250.0,410.0,44.0,1018.0,1744252591.0397725,0.0,2025-04-09 22:36:31.039,STOP,2
32.0,19369.26178565762,3542.7514961661695,-66517.22687688195,-65076.567539759584,-38918.45511418046,-36602.00972581026,-32729.949978584053,-22859.598441076094,0.0,0.0,0.0,193.0,1.0,154.0,0.0,44.0,3.0,250.0,410.0,44.0,1018.0,1744252591.0397809,0.0,2025-04-09 22:36:31.039,STOP,2
33.0,19420.961370582747,3581.5988280294932,-66471.22698679293,-65085.01649916369,-38827.99760436983,-36502.70092519533,-33200.81182727955,-22777.74635288076,0.0,0.0,0.0,193.0,1.0,154.0,0.0,45.0,3.0,249.0,410.0,45.0,1017.0,1744252591.0397894,0.0,2025-04-09 22:36:31.039,STOP,2
34.0,19355.60486979543,3590.4277670893393,-66451.02100980532,-65036.58026892904,-38807.09872330412,-36490.809797145106,-32987.39737122028,-22752.51123339072,0.0,0.0,0.0,193.0,1.0,154.0,0.0,45.0,3.0,250.0,410.0,45.0,1018.0,1744252591.039798,0.0,2025-04-09 22:36:31.039,STOP,2
35.0,19255.647868591295,3550.373441025429,-66498.80903945077,-65108.55288607513,-38837.92177890799,-36523.733916727775,-32953.42271964821,-22791.492675720772,0.0,0.0,0.0,193.0,1.0,154.0,0.0,45.0,3.0,250.0,410.0,45.0,1018.0,1744252591.0398068,0.0,2025-04-09 22:36:31.039,STOP,2
36.0,19329.989770649645,3534.6825164178035,-66517.02571118185,-65079.517970027686,-38911.347259443675,-36598.52285367523,-32756.861478908242,-22859.57608933164,0.0,0.0,0.0,193.0,1.0,155.0,0.0,44.0,3.0,251.0,411.0,44.0,1019.0,1744252591.0398154,0.0,2025-04-09 22:36:31.039,STOP,2
37.0,19430.2373445317,3579.475412306239,-66488.1919608345,-65097.824048736584,-38849.49998253584,-36526.79610571815,-33073.25042167311,-22806.31188229464,0.0,0.0,0.0,193.0,1.0,155.0,0.0,44.0,3.0,252.0,411.0,44.0,1020.0,1744252591.0398242,0.0,2025-04-09 22:36:31.039,STOP,2
38.0,19365.149064677844,3589.556049055582,-66439.39810268857,-65032.668713649364,-38794.06765628668,-36480.103311551014,-33060.26405814458,-22752.041846757158,0.0,0.0,0.0,193.0,1.0,155.0,0.0,44.0,3.0,252.0,411.0,44.0,1020.0,1744252591.0398328,0.0,2025-04-09 22:36:31.039,STOP,2
39.0,19263.91801403976,3549.769943925136,-66503.21233310847,-65114.29728440014,-38839.15112485303,-36527.73487898528,-32907.48988479256,-22803.517914237727,0.0,0.0,0.0,193.0,1.0,155.0,0.0,45.0,3.0,252.0,411.0,45.0,1020.0,1744252591.0398412,0.0,2025-04-09 22:36:31.039,STOP,2
40.0,19294.76342138808,3525.5183011911276,-66517.56215304877,-65091.252635866724,-38902.29480293927,-36587.81636808114,-32834.55614263489,-22849.875432238037,0.0,0.0,0.0,193.0,1.0,155.0,0.0,44.0,3.0,251.0,411.0,44.0,1019.0,1744252591.039854,0.0,2025-04-09 22:36:31.039,STOP,2
41.0,19430.550268954074,3571.1605633688646,-66505.87219069865,-65103.6131505505,-38875.472709592905,-36552.70177754185,-32945.487850366575,-22818.00184464477,0.0,0.0,0.0,193.0,1.0,155.0,0.0,44.0,3.0,251.0,411.0,44.0,1019.0,1744252591.0398629,0.0,2025-04-09 22:36:31.039,STOP,2
42.0,19375.29675666055,3594.182860157831,-66431.37382642912,-65032.735768882725,-38782.288286958734,-36466.98283755575,-33147.23469582018,-22731.07591045808,0.0,0.0,0.0,193.0,1.0,155.0,0.0,44.0,3.0,249.0,411.0,44.0,1017.0,1744252591.0398717,0.0,2025-04-09 22:36:31.039,STOP,2
43.0,19288.594339918418,3569.573589512538,-66488.10255385668,-65097.53347605866,-38823.951938623424,-36512.51334101121,-32865.31214300539,-22775.578233668595,0.0,0.0,0.0,193.0,1.0,155.0,0.0,44.0,3.0,251.0,411.0,44.0,1019.0,1744252591.0398805,0.0,2025-04-09 22:36:31.039,STOP,2
44.0,19267.136665241323,3529.5863186819934,-66510.92368494555,-65099.142801659444,-38884.12283469711,-36572.23720219579,-32892.80478868542,-22829.42358606143,0.0,0.0,0.0,193.0,1.0,155.0,0.0,44.0,3.0,251.0,411.0,44.0,1019.0,1744252591.0398893,0.0,2025-04-09 22:36:31.039,STOP,2
45.0,19424.984684584702,3574.3568628259736,-66513.98587393593,-65103.45668833932,-38895.74574181387,-36584.19538547938,-32822.21797969556,-22843.99692344629,0.0,0.0,0.0,193.0,1.0,154.0,0.0,45.0,3.0,251.0,410.0,45.0,1019.0,1744252591.0398984,0.0,2025-04-09 22:36:31.039,STOP,2
46.0,19388.618396355916,3602.609467817482,-66430.54681188427,-65044.15751029939,-38779.74018809083,-36471.4084829579,-33227.56686539255,-22744.710474575815,0.0,0.0,0.0,193.0,1.0,154.0,0.0,45.0,3.0,250.0,410.0,45.0,1018.0,1744252591.0399067,0.0,2025-04-09 22:36:31.039,STOP,2
47.0,19311.884857640845,3584.1916303863086,-66475.80909440626,-65078.75801071621,-38815.279461774764,-36509.13822759846,-32850.202363753604,-22772.627803400494,0.0,0.0,0.0,193.0,1.0,154.0,0.0,45.0,3.0,249.0,410.0,45.0,1017.0,1744252591.0399156,0.0,2025-04-09 22:36:31.039,STOP,2
48.0,19250.685781322216,3532.469693716728,-66511.7954029793,-65108.2176099083,-38870.48827057937,-36558.04384446667,-32936.50244909554,-22817.085423122102,0.0,0.0,0.0,193.0,1.0,154.0,0.0,44.0,3.0,249.0,410.0,44.0,1017.0,1744252591.0399246,0.0,2025-04-09 22:36:31.039,STOP,2
49.0,19406.36568145343,3558.5541794960714,-66528.38039736515,-65100.32744411557,-38917.762210102344,-36598.79107460869,-32730.776993128897,-22854.90457474048,0.0,0.0,0.0,193.0,1.0,155.0,0.0,44.0,3.0,250.0,411.0,44.0,1018.0,1744252591.0399334,0.0,2025-04-09 22:36:31.039,STOP,2
50.0,19405.516315164128,3604.9787527297444,-66433.94427704148,-65048.2031760458,-38782.24358346982,-36457.75156709571,-33262.79321465411,-22733.847526770536,0.0,0.0,0.0,193.0,1.0,154.0,0.0,45.0,3.0,249.0,410.0,45.0,1017.0,1744252591.0399425,0.0,2025-04-09 22:36:31.039,STOP,2
51.0,19333.87897418487,3596.753310770191,-66459.55937618726,-65053.38878075943,-38804.170644780475,-36490.720390167284,-32854.69506438912,-22754.411131669418,0.0,0.0,0.0,193.0,1.0,155.0,0.0,45.0,3.0,252.0,411.0,45.0,1020.0,1744252591.039951,0.0,2025-04-09 22:36:31.039,STOP,2
52.0,19235.486595092607,3532.916728605834,-66512.06362391278,-65117.31476990161,-38862.128718153086,-36546.71151002783,-32956.99899876106,-22813.687957964892,0.0,0.0,0.0,193.0,1.0,155.0,0.0,44.0,3.0,249.0,411.0,44.0,1017.0,1744252591.03996,0.0,2025-04-09 22:36:31.039,STOP,2
53.0,19384.84095154297,3554.955548638767,-66520.6019902947,-65083.94361542984,-38917.985727546904,-36599.34986822008,-32702.65849860412,-22857.318563141653,0.0,0.0,0.0,193.0,1.0,155.0,0.0,44.0,3.0,252.0,411.0,44.0,1020.0,1744252591.0399685,0.0,2025-04-09 22:36:31.039,STOP,2
54.0,19403.348195951963,3585.9127147093673,-66464.00737333386,-65083.60833926301,-38812.44079022894,-36488.52991921067,-33225.890484558404,-22765.899928319446,0.0,0.0,0.0,193.0,1.0,156.0,0.0,44.0,3.0,252.0,412.0,44.0,1020.0,1744252591.0399773,0.0,2025-04-09 22:36:31.039,STOP,2
55.0,19329.945067160734,3579.475412306239,-66472.16576006004,-65063.33530704204,-38818.922796120976,-36505.02550661868,-32915.000070929535,-22767.375143453497,0.0,0.0,0.0,193.0,1.0,155.0,0.0,45.0,3.0,252.0,411.0,45.0,1020.0,1744252591.03999,0.0,2025-04-09 22:36:31.039,STOP,2
56.0,19235.19602241469,3538.9069961198566,-66508.55440003329,-65123.483851371275,-38847.46597379041,-36531.93700694287,-32968.30898145545,-22799.584007213594,0.0,0.0,0.0,193.0,1.0,155.0,0.0,44.0,3.0,252.0,411.0,44.0,1020.0,1744252591.0399985,0.0,2025-04-09 22:36:31.039,STOP,2
57.0,19347.245317369143,3543.310289777552,-66516.62337978165,-65083.65304275192,-38911.74959084387,-36595.77358910723,-32722.640958147167,-22850.56833631615,0.0,0.0,0.0,193.0,1.0,155.0,0.0,44.0,3.0,252.0,411.0,44.0,1020.0,1744252591.040007,0.0,2025-04-09 22:36:31.040,STOP,2
58.0,19416.17809726931,3588.7513862551914,-66472.54573971579,-65092.996071934234,-38823.77312466778,-36503.2150153178,-33147.23469582018,-22777.03109705819,0.0,0.0,0.0,193.0,1.0,155.0,0.0,44.0,3.0,250.0,411.0,44.0,1018.0,1744252591.0400157,0.0,2025-04-09 22:36:31.040,STOP,2
59.0,19351.31333486001,3597.5132700816716,-66446.2824399808,-65038.07783580755,-38797.26395574379,-36483.27725926367,-32986.99503982008,-22753.092378746558,0.0,0.0,0.0,193.0,1.0,154.0,0.0,45.0,3.0,251.0,410.0,45.0,1019.0,1744252591.0400245,0.0,2025-04-09 22:36:31.040,STOP,2
60.0,19256.81015930297,3556.2966533060853,-66495.5456847603,-65108.91051398641,-38828.0646596032,-36515.39671604594,-32929.01461470302,-22786.41882972942,0.0,0.0,0.0,193.0,1.0,154.0,0.0,45.0,3.0,251.0,410.0,45.0,1019.0,1744252591.040033,0.0,2025-04-09 22:36:31.040,STOP,2
61.0,19313.96356987519,3529.0722285595216,-66521.205487395,-65087.49754279823,-38908.86621580913,-36600.847435098585,-32770.60780174826,-22862.61592657756,0.0,0.0,0.0,193.0,1.0,154.0,0.0,44.0,3.0,249.0,410.0,44.0,1017.0,1744252591.0400417,0.0,2025-04-09 22:36:31.040,STOP,2
62.0,19426.214030529743,3580.28007510663,-66498.16083886157,-65105.088365684554,-38857.524258795296,-36539.20132389085,-33044.95311319269,-22820.639350490495,0.0,0.0,0.0,193.0,1.0,154.0,0.0,44.0,3.0,251.0,410.0,44.0,1019.0,1744252591.0400505,0.0,2025-04-09 22:36:31.040,STOP,2
63.0,19364.59027106646,3600.28488639413,-66439.3757509441,-65033.54043168312,-38788.54677540622,-36475.25298300421,-33083.06283748899,-22745.179861209377,0.0,0.0,0.0,193.0,1.0,154.0,0.0,45.0,3.0,250.0,410.0,45.0,1018.0,1744252591.0400593,0.0,2025-04-09 22:36:31.040,STOP,2
64.0,19265.884967551825,3567.3607668114623,-66502.89940868609,-65112.509144843716,-38837.9664823969,-36524.024489405696,-32887.73094269406,-22797.46059149034,0.0,0.0,0.0,193.0,1.0,154.0,0.0,45.0,3.0,249.0,410.0,45.0,1017.0,1744252591.040068,0.0,2025-04-09 22:36:31.040,STOP,2
65.0,19280.637118892326,3530.346277993474,-66521.07137692826,-65095.521819057685,-38902.00423026136,-36585.871766313525,-32848.190706752626,-22852.781159017224,0.0,0.0,0.0,193.0,1.0,154.0,0.0,44.0,3.0,249.0,410.0,44.0,1017.0,1744252591.0400767,0.0,2025-04-09 22:36:31.040,STOP,2
66.0,19435.89233587889,3582.2693803631523,-66502.72059473045,-65094.80656323511,-38879.40661661704,-36552.52296358621,-32905.433524302665,-22830.161193628453,0.0,0.0,0.0,193.0,1.0,154.0,0.0,44.0,3.0,249.0,410.0,44.0,1017.0,1744252591.0400853,0.0,2025-04-09 22:36:31.040,STOP,2
67.0,19392.082916746487,3613.5841743450374,-66420.86850653512,-65020.41995768785,-38779.80724332419,-36452.67772110435,-33173.252126366155,-22728.706625545816,0.0,0.0,0.0,193.0,1.0,154.0,0.0,45.0,3.0,250.0,410.0,45.0,1018.0,1744252591.040094,0.0,2025-04-09 22:36:31.040,STOP,2
68.0,19308.643854694827,3592.8417554905127,-66472.97042286044,-65075.11467636999,-38818.52046472079,-36496.196567558836,-32859.83596561384,-22767.777474853694,0.0,0.0,0.0,193.0,1.0,154.0,0.0,45.0,3.0,249.0,410.0,45.0,1017.0,1744252591.0401027,0.0,2025-04-09 22:36:31.040,STOP,2
69.0,19256.854862791883,3524.154844779354,-66519.48440307194,-65106.09419418505,-38892.97412550141,-36576.305219686656,-32907.400477814735,-22847.28262988122,0.0,0.0,0.0,193.0,1.0,154.0,0.0,44.0,3.0,248.0,410.0,44.0,1016.0,1744252591.0401118,0.0,2025-04-09 22:36:31.040,STOP,2
70.0,19415.820469358026,3561.3928510418955,-66527.1063479312,-65108.038795952656,-38914.78942808979,-36594.410132695455,-32805.85650275427,-22869.23204293633,0.0,0.0,0.0,193.0,1.0,154.0,0.0,44.0,3.0,249.0,410.0,44.0,1017.0,1744252591.040125,0.0,2025-04-09 22:36:31.040,STOP,2
71.0,19392.39584116886,3602.2965433951076,-66429.33981768368,-65039.91067885288,-38780.544850891216,-36453.482383904746,-33253.29372326061,-22729.801861024127,0.0,0.0,0.0,193.0,1.0,154.0,0.0,45.0,3.0,249.0,410.0,45.0,1017.0,1744252591.0401337,0.0,2025-04-09 22:36:31.040,STOP,2
72.0,19314.812936164493,3588.0808339215323,-66471.09287632619,-65070.48786526774,-38816.28529027526,-36496.88947163695,-32854.91858183367,-22761.988373039767,0.0,0.0,0.0,193.0,1.0,154.0,0.0,45.0,3.0,249.0,410.0,45.0,1017.0,1744252591.0401423,0.0,2025-04-09 22:36:31.040,STOP,2
73.0,19234.61487705885,3523.216071512231,-66517.83037398224,-65116.95714199032,-38878.89252649457,-36560.010797978735,-32954.49560338206,-22826.27199009323,0.0,0.0,0.0,193.0,1.0,154.0,0.0,44.0,3.0,249.0,410.0,44.0,1017.0,1744252591.040151,0.0,2025-04-09 22:36:31.040,STOP,2
74.0,19393.379317924897,3551.379269525918,-66524.69235953002,-65095.34300510204,-38921.1373235151,-36600.31099323166,-32729.100612294747,-22856.71506604136,0.0,0.0,0.0,193.0,1.0,154.0,0.0,44.0,3.0,251.0,410.0,44.0,1019.0,1744252591.0401592,0.0,2025-04-09 22:36:31.040,STOP,2
75.0,19389.75833532314,3587.477336821239,-66445.2319079914,-65065.391667531934,-38797.599231910615,-36473.9118783369,-33256.1994500398,-22746.78918681016,0.0,0.0,0.0,193.0,1.0,155.0,0.0,44.0,3.0,252.0,411.0,44.0,1020.0,1744252591.040168,0.0,2025-04-09 22:36:31.040,STOP,2
76.0,19325.273552569575,3587.4326333323284,-66459.5370244428,-65057.568556972576,-38810.049153572225,-36496.531843725665,-32877.65030594472,-22761.764855595215,0.0,0.0,0.0,193.0,1.0,155.0,0.0,45.0,3.0,251.0,411.0,45.0,1019.0,1744252591.0401769,0.0,2025-04-09 22:36:31.040,STOP,2
77.0,19234.10078693638,3532.9837838392004,-66498.02672839483,-65111.056281454126,-38848.60591275763,-36533.61338777702,-32962.38576917479,-22802.735603181794,0.0,0.0,0.0,193.0,1.0,155.0,0.0,44.0,3.0,252.0,411.0,44.0,1020.0,1744252591.0401855,0.0,2025-04-09 22:36:31.040,STOP,2
