Sample Index,EXG Channel 0,EXG Channel 1,EXG Channel 2,EXG Channel 3,EXG Channel 4,EXG Channel 5,EXG Channel 6,EXG Channel 7,Accel Channel 0,Accel Channel 1,Accel Channel 2,Not Used,Digital Channel 0 (D11),Digital Channel 1 (D12),Digital Channel 2 (D13),Digital Channel 3 (D17),Not Used,Digital Channel 4 (D18),Analog Channel 0,Analog Channel 1,Analog Channel 2,Timestamp,Marker Channel,Timestamp (Formatted),Stimulus_Direction,Stimulus_Number
15.0,18962.102408659746,24946.111434234554,-31681.004963040945,-20642.618315532007,-35387.43828385333,-27159.157652754504,-14598.393690394603,-34394.39498119295,0.0,0.0,0.0,193.0,0.0,194.0,0.0,1.0,0.0,180.0,194.0,1.0,180.0,1744420575.9490826,0.0,2025-04-11 21:16:15.949,STOP,35
16.0,18976.049897199857,24955.87914656152,-31671.304305947342,-20632.64943750494,-35379.83869073852,-27156.65425737551,-14556.193596862984,-34370.97035300379,0.0,0.0,0.0,193.0,0.0,193.0,0.0,1.0,0.0,179.0,193.0,1.0,179.0,1744420575.94913,0.0,2025-04-11 21:16:15.949,STOP,35
17.0,18999.876856789215,24950.335913936608,-31684.581242153796,-20646.954553956337,-35393.4061996229,-27178.693077408443,-14085.59996910095,-34363.884850011455,0.0,0.0,0.0,193.0,0.0,193.0,0.0,1.0,0.0,179.0,193.0,1.0,179.0,1744420575.9491763,0.0,2025-04-11 21:16:15.949,STOP,35
18.0,18988.90215026166,24931.940428249887,-31687.71048637754,-20655.805844760638,-35391.841577511026,-27176.636716918554,-14205.405319381396,-34424.79335365217,0.0,0.0,0.0,193.0,0.0,194.0,0.0,1.0,0.0,179.0,194.0,1.0,179.0,1744420575.9492223,0.0,2025-04-11 21:16:15.949,STOP,35
19.0,18959.867234214216,24936.567239352138,-31685.341201465275,-20648.072141179102,-35385.896013485915,-27163.113911523094,-14555.523044529325,-34408.29776624415,0.0,0.0,0.0,193.0,0.0,194.0,0.0,1.0,0.0,180.0,194.0,1.0,180.0,1744420575.9492743,0.0,2025-04-11 21:16:15.949,STOP,35
20.0,18960.94011794807,24940.769367309735,-31680.624983385205,-20645.389931844467,-35380.75511226119,-27163.493891178834,-14637.978629824953,-34403.71565863081,0.0,0.0,0.0,193.0,0.0,193.0,0.0,1.0,0.0,179.0,193.0,1.0,179.0,1744420575.9493368,0.0,2025-04-11 21:16:15.949,STOP,35
21.0,18983.09069670328,24938.377730653017,-31696.964108582037,-20658.242184906267,-35400.73757180424,-27183.7669233998,-14168.748458474693,-34374.166652460895,0.0,0.0,0.0,193.0,0.0,193.0,0.0,1.0,0.0,179.0,193.0,1.0,179.0,1744420575.949381,0.0,2025-04-11 21:16:15.949,STOP,35
22.0,18973.121818676213,24917.680015287402,-31702.417934229128,-20672.99433624677,-35403.3080224166,-27186.873815879087,-14176.213941122764,-34428.99548160976,0.0,0.0,0.0,193.0,0.0,194.0,0.0,1.0,0.0,179.0,194.0,1.0,179.0,1744420575.9494252,0.0,2025-04-11 21:16:15.949,STOP,35
23.0,18951.977068421493,24932.365111394538,-31694.170140525122,-20656.31993488311,-35393.227385667255,-27171.22759476037,-14516.027512076798,-34418.981900093786,0.0,0.0,0.0,193.0,0.0,193.0,0.0,1.0,0.0,179.0,193.0,1.0,179.0,1744420575.9494863,0.0,2025-04-11 21:16:15.949,STOP,35
24.0,18953.876966700194,24952.571088382138,-31675.573489138307,-20636.583344529074,-35376.1506529034,-27155.111987008095,-14673.450848275525,-34404.27445224219,0.0,0.0,0.0,193.0,0.0,193.0,0.0,1.0,0.0,179.0,193.0,1.0,179.0,1744420575.9495304,0.0,2025-04-11 21:16:15.949,STOP,35
25.0,18984.208283926044,24954.113358749553,-31684.22361424251,-20639.84669921955,-35384.5996123075,-27175.966164584897,-14216.29061893113,-34357.51460284169,0.0,0.0,0.0,193.0,0.0,194.0,0.0,1.0,0.0,179.0,194.0,1.0,179.0,1744420575.9495752,0.0,2025-04-11 21:16:15.949,STOP,35
26.0,18987.561045594342,24937.237791685795,-31692.47140794652,-20660.700876796353,-35391.99803972221,-27189.15369381353,-14083.565960355516,-34423.74282166277,0.0,0.0,0.0,193.0,0.0,193.0,0.0,1.0,0.0,179.0,193.0,1.0,179.0,1744420575.94962,0.0,2025-04-11 21:16:15.949,STOP,35
27.0,18958.794350480362,24935.11437596254,-31694.170140525122,-20656.94578372786,-35395.82018802407,-27188.214920546405,-14428.073397645165,-34440.05959511514,0.0,0.0,0.0,193.0,0.0,193.0,0.0,1.0,0.0,179.0,193.0,1.0,179.0,1744420575.9497128,0.0,2025-04-11 21:16:15.949,STOP,35
28.0,18951.910013188128,24941.529326621214,-31682.502529919453,-20645.456987077832,-35389.22642340975,-27175.206205273415,-14684.894941436642,-34426.40267925295,0.0,0.0,0.0,193.0,0.0,194.0,0.0,1.0,0.0,180.0,194.0,1.0,180.0,1744420575.9497898,0.0,2025-04-11 21:16:15.949,STOP,35
29.0,18978.218016412022,24938.288323675195,-31689.140998022678,-20647.84862373455,-35402.21278693829,-27190.85242639213,-14340.566318102638,-34386.728332844774,0.0,0.0,0.0,193.0,0.0,193.0,0.0,1.0,0.0,179.0,193.0,1.0,179.0,1744420575.9498415,0.0,2025-04-11 21:16:15.949,STOP,35
30.0,18990.064440973336,24926.46425085834,-31699.623966172217,-20669.529815856196,-35412.96397602129,-27206.18572308847,-14089.399765658352,-34433.84581015656,0.0,0.0,0.0,193.0,0.0,193.0,0.0,1.0,0.0,179.0,193.0,1.0,179.0,1744420575.949889,0.0,2025-04-11 21:16:15.949,STOP,35
31.0,18968.830283740794,24925.07844270211,-31690.526806178907,-20658.108074439537,-35402.97274624977,-27190.85242639213,-14400.08901358712,-34453.716510977334,0.0,0.0,0.0,193.0,0.0,193.0,0.0,1.0,0.0,180.0,193.0,1.0,180.0,1744420575.9499364,0.0,2025-04-11 21:16:15.949,STOP,35
32.0,18952.960545177528,24942.26693418824,-31676.42285542761,-20643.691199265864,-35385.62779255245,-27174.80387387322,-14694.059156663317,-34436.14803983546,0.0,0.0,0.0,193.0,0.0,193.0,0.0,1.0,0.0,179.0,193.0,1.0,179.0,1744420575.9499893,0.0,2025-04-11 21:16:15.949,STOP,35
33.0,18975.80402801085,24951.632315115014,-31676.691076361072,-20642.50655680973,-35389.2040716653,-27185.957394356417,-14439.986877439844,-34404.38621096447,0.0,0.0,0.0,193.0,0.0,193.0,0.0,1.0,0.0,179.0,193.0,1.0,179.0,1744420575.9500484,0.0,2025-04-11 21:16:15.950,STOP,35
34.0,18983.94006299258,24935.11437596254,-31695.08656204779,-20672.2790804242,-35408.1583509634,-27213.18181910298,-14090.919684281313,-34447.4803742743,0.0,0.0,0.0,193.0,0.0,193.0,0.0,1.0,0.0,179.0,193.0,1.0,179.0,1744420575.9502916,0.0,2025-04-11 21:16:15.950,STOP,35
35.0,18958.10144640225,24916.27185538672,-31698.03699231589,-20670.91562401243,-35403.73270556125,-27198.943757884954,-14328.854004008057,-34436.237446813284,0.0,0.0,0.0,193.0,0.0,193.0,0.0,1.0,0.0,179.0,193.0,1.0,179.0,1744420575.950346,0.0,2025-04-11 21:16:15.950,STOP,35
36.0,18941.538803760865,24920.16105892194,-31697.589957426782,-20663.673658808908,-35402.77158054967,-27186.5161879678,-14646.025257828864,-34422.31231001762,0.0,0.0,0.0,193.0,0.0,194.0,0.0,1.0,0.0,179.0,194.0,1.0,179.0,1744420575.950391,0.0,2025-04-11 21:16:15.950,STOP,35
37.0,18963.1752923936,24932.387463138995,-31692.203187013056,-20654.08476043758,-35396.55779559109,-27182.023487332284,-14537.708704198445,-34406.4202197099,0.0,0.0,0.0,193.0,0.0,193.0,0.0,1.0,0.0,179.0,193.0,1.0,179.0,1744420575.950442,0.0,2025-04-11 21:16:15.950,STOP,35
38.0,18983.42597287011,24934.063843973145,-31708.542312209884,-20671.407362390444,-35408.270109685676,-27201.42480151949,-14075.094649206954,-34397.032487038676,0.0,0.0,0.0,193.0,0.0,193.0,0.0,1.0,0.0,179.0,193.0,1.0,179.0,1744420575.9505122,0.0,2025-04-11 21:16:15.950,STOP,35
39.0,18964.739914505473,24917.948236220866,-31710.46456223304,-20675.408324647942,-35406.97370850727,-27192.774676415287,-14255.62968917247,-34434.561065979135,0.0,0.0,0.0,193.0,0.0,194.0,0.0,1.0,0.0,179.0,194.0,1.0,179.0,1744420575.9505584,0.0,2025-04-11 21:16:15.950,STOP,35
40.0,18951.865309699217,24934.108547462052,-31694.818341114325,-20655.314106382622,-35385.605440807994,-27169.886490093053,-14603.378129408138,-34413.662184913424,0.0,0.0,0.0,193.0,0.0,193.0,0.0,1.0,0.0,179.0,193.0,1.0,179.0,1744420575.9506097,0.0,2025-04-11 21:16:15.950,STOP,35
41.0,18956.60387952374,24941.954009765865,-31689.61038465624,-20647.245126634258,-35382.63265879544,-27169.081827292663,-14577.114829673152,-34391.51160615821,0.0,0.0,0.0,193.0,0.0,193.0,0.0,1.0,0.0,179.0,193.0,1.0,179.0,1744420575.950663,0.0,2025-04-11 21:16:15.950,STOP,35
42.0,18975.982841966492,24931.538096849694,-31707.625890687217,-20663.874824509006,-35403.28567067214,-27193.959318871417,-14096.284102950587,-34380.91687928639,0.0,0.0,0.0,193.0,0.0,194.0,0.0,1.0,0.0,180.0,194.0,1.0,180.0,1744420575.950723,0.0,2025-04-11 21:16:15.950,STOP,35
43.0,18966.550405806353,24915.511896075237,-31709.12345756572,-20673.039039735682,-35406.370211406975,-27192.327641526183,-14200.867915256968,-34440.350167793054,0.0,0.0,0.0,193.0,0.0,193.0,0.0,1.0,0.0,179.0,193.0,1.0,179.0,1744420575.9508176,0.0,2025-04-11 21:16:15.950,STOP,35
44.0,18946.500891029944,24925.70429154686,-31702.015602828935,-20657.437522105876,-35404.604423595,-27178.782484386265,-14562.206216121462,-34427.877894387,0.0,0.0,0.0,193.0,0.0,193.0,0.0,1.0,0.0,180.0,193.0,1.0,180.0,1744420575.9508736,0.0,2025-04-11 21:16:15.950,STOP,35
45.0,18949.451321298042,24934.488527117795,-31688.783370111392,-20645.456987077832,-35397.72008630277,-27167.33839122515,-14654.116589321684,-34409.9741470783,0.0,0.0,0.0,193.0,0.0,194.0,0.0,1.0,0.0,179.0,194.0,1.0,179.0,1744420575.9509385,0.0,2025-04-11 21:16:15.950,STOP,35
46.0,18973.434743098587,24936.99192249679,-31695.421838214617,-20651.626068547495,-35403.352725905504,-27185.644469934046,-14181.980691192233,-34377.89939378493,0.0,0.0,0.0,193.0,0.0,193.0,0.0,1.0,0.0,179.0,193.0,1.0,179.0,1744420575.950997,0.0,2025-04-11 21:16:15.950,STOP,35
47.0,18969.56789130782,24928.140631692488,-31696.405314970652,-20661.080856452092,-35399.88820551494,-27183.7669233998,-14144.452112251773,-34429.174295565404,0.0,0.0,0.0,193.0,0.0,193.0,0.0,1.0,0.0,179.0,193.0,1.0,179.0,1744420575.95106,0.0,2025-04-11 21:16:15.951,STOP,35
48.0,18955.687458001074,24929.995826482278,-31689.766846867427,-20646.84279523406,-35392.668592055874,-27161.593992900132,-14481.002328515331,-34400.54171091816,0.0,0.0,0.0,193.0,0.0,194.0,0.0,1.0,0.0,180.0,194.0,1.0,180.0,1744420576.4259555,0.0,2025-04-11 21:16:16.425,STOP,35
49.0,18953.027600410893,24935.851983529566,-31687.643431144174,-20646.574574300597,-35393.54031008963,-27160.498757421825,-14670.209845329506,-34400.921690573894,0.0,0.0,0.0,193.0,0.0,193.0,0.0,0.0,0.0,178.0,193.0,0.0,178.0,1744420576.4261863,0.0,2025-04-11 21:16:16.426,STOP,35
50.0,18982.93423449209,24935.583762596103,-31701.389753984186,-20659.739751784775,-35404.8055892951,-27188.930176368976,-14256.970793839788,-34371.775015804174,0.0,0.0,0.0,193.0,0.0,194.0,0.0,0.0,0.0,179.0,194.0,0.0,179.0,1744420576.4262743,0.0,2025-04-11 21:16:16.426,STOP,35
51.0,18986.935196749593,24922.195067667373,-31711.60450120026,-20680.19159796138,-35416.27203420067,-27204.978728887887,-14093.065451749022,-34428.95077812085,0.0,0.0,0.0,193.0,0.0,194.0,0.0,0.0,0.0,180.0,194.0,0.0,180.0,1744420576.426322,0.0,2025-04-11 21:16:16.426,STOP,35
52.0,18955.41923706761,24921.278646144707,-31696.76294288194,-20658.778626773194,-35402.34689740502,-27184.929214111475,-14429.258040101295,-34435.23161831279,0.0,0.0,0.0,193.0,0.0,193.0,0.0,0.0,0.0,179.0,193.0,0.0,179.0,1744420576.4263651,0.0,2025-04-11 21:16:16.426,STOP,35
53.0,18945.74093171846,24934.51087886225,-31682.502529919453,-20645.3228766111,-35385.58308906354,-27172.993382572342,-14685.833714703766,-34438.830249170096,0.0,0.0,0.0,193.0,0.0,193.0,0.0,0.0,0.0,179.0,193.0,0.0,179.0,1744420576.4264488,0.0,2025-04-11 21:16:16.426,STOP,35
54.0,18968.495007573965,24939.160041708954,-31688.31398347783,-20643.89236496596,-35391.59570832201,-27182.76109489931,-14351.742190330291,-34391.24338522475,0.0,0.0,0.0,193.0,0.0,194.0,0.0,0.0,0.0,179.0,194.0,0.0,179.0,1744420576.4264941,0.0,2025-04-11 21:16:16.426,STOP,35
55.0,18977.927443734105,24930.55462009366,-31695.51124519244,-20655.627030804997,-35399.53057760365,-27181.50939720981,-14055.380410597374,-34387.935327045365,0.0,0.0,0.0,193.0,0.0,193.0,0.0,0.0,0.0,179.0,193.0,0.0,179.0,1744420576.426537,0.0,2025-04-11 21:16:16.426,STOP,35
56.0,18958.392019080165,24926.374843880516,-31696.852349859757,-20654.643554048962,-35402.0563247271,-27177.687248907954,-14367.634280638014,-34416.79142913716,0.0,0.0,0.0,193.0,0.0,193.0,0.0,0.0,0.0,179.0,193.0,0.0,179.0,1744420576.4265811,0.0,2025-04-11 21:16:16.426,STOP,35
57.0,18939.661257226617,24936.343721907586,-31691.487931190484,-20648.765045257216,-35391.79687402211,-27173.798045372732,-14662.945528381531,-34420.54652220566,0.0,0.0,0.0,193.0,0.0,194.0,0.0,0.0,0.0,179.0,194.0,0.0,179.0,1744420576.426626,0.0,2025-04-11 21:16:16.426,STOP,35
58.0,18952.17823412159,24943.049245244176,-31693.83486435829,-20645.881670222483,-35394.344972890016,-27181.732914654367,-14447.631174043558,-34402.57571966359,0.0,0.0,0.0,193.0,0.0,193.0,0.0,0.0,0.0,178.0,193.0,0.0,178.0,1744420576.42707,0.0,2025-04-11 21:16:16.427,STOP,35
59.0,18971.959527964536,24929.861716015545,-31709.436381988096,-20667.56286234413,-35409.946490519826,-27201.737725941864,-14060.297794377542,-34419.607748938535,0.0,0.0,0.0,193.0,0.0,193.0,0.0,0.0,0.0,179.0,193.0,0.0,179.0,1744420576.4271212,0.0,2025-04-11 21:16:16.427,STOP,35
60.0,18964.337583105276,24916.741242020278,-31705.256605774954,-20666.51233035473,-35406.7054875738,-27191.210054303418,-14314.660646278937,-34451.50368827626,0.0,0.0,0.0,193.0,0.0,194.0,0.0,0.0,0.0,180.0,194.0,0.0,180.0,1744420576.4271696,0.0,2025-04-11 21:16:16.427,STOP,35
61.0,18944.46688228451,24928.207686925853,-31699.333393494297,-20657.66103955043,-35402.12337996047,-27176.971993085386,-14652.708429421,-34426.46973448631,0.0,0.0,0.0,193.0,0.0,193.0,0.0,0.0,0.0,179.0,193.0,0.0,179.0,1744420576.4272168,0.0,2025-04-11 21:16:16.427,STOP,35
62.0,18964.248176127458,24943.384521411004,-31690.437399201084,-20644.540565555166,-35395.41785662388,-27174.915632595497,-14546.090608369186,-34400.586414407066,0.0,0.0,0.0,193.0,0.0,193.0,0.0,0.0,0.0,179.0,193.0,0.0,179.0,1744420576.4272635,0.0,2025-04-11 21:16:16.427,STOP,35
63.0,18983.1801036811,24938.355378908564,-31709.52578896592,-20667.965193744327,-35416.495551645225,-27204.799914932242,-14077.709803308226,-34408.36482147752,0.0,0.0,0.0,193.0,0.0,194.0,0.0,0.0,0.0,179.0,194.0,0.0,179.0,1744420576.427314,0.0,2025-04-11 21:16:16.427,STOP,35
64.0,18963.689382516073,24919.155230421453,-31710.978652355512,-20673.419019391422,-35416.58495862305,-27195.836865405665,-14264.190407298853,-34448.10622311905,0.0,0.0,0.0,193.0,0.0,194.0,0.0,0.0,0.0,180.0,194.0,0.0,180.0,1744420576.4274693,0.0,2025-04-11 21:16:16.427,STOP,35
65.0,18944.533937517874,24932.74509105028,-31698.908710349646,-20653.548318570654,-35397.92125200287,-27175.47442620688,-14593.275140914338,-34418.847789627056,0.0,0.0,0.0,193.0,0.0,193.0,0.0,0.0,0.0,179.0,193.0,0.0,179.0,1744420576.4275227,0.0,2025-04-11 21:16:16.427,STOP,35
66.0,18953.854614955737,24943.518631877738,-31693.007849813446,-20645.546394055655,-35395.97665023526,-27177.173158785485,-14606.954408520987,-34419.04895532715,0.0,0.0,0.0,193.0,0.0,194.0,0.0,0.0,0.0,179.0,194.0,0.0,179.0,1744420576.4275763,0.0,2025-04-11 21:16:16.427,STOP,35
67.0,18975.446400099565,24942.22223069933,-31709.36932675473,-20661.304373896644,-35414.99798476672,-27202.38592653107,-14140.69701918328,-34406.19670226535,0.0,0.0,0.0,193.0,0.0,193.0,0.0,0.0,0.0,179.0,193.0,0.0,179.0,1744420576.427667,0.0,2025-04-11 21:16:16.427,STOP,35
68.0,18963.912899960626,24924.49729734627,-31707.827056387316,-20669.37335364501,-35404.33620266154,-27194.115781082604,-14196.442269854817,-34445.71458646233,0.0,0.0,0.0,193.0,0.0,193.0,0.0,0.0,0.0,179.0,193.0,0.0,179.0,1744420576.427781,0.0,2025-04-11 21:16:16.427,STOP,35
69.0,18942.388170050166,24924.474945601814,-31703.691983663084,-20657.37046687251,-35398.34593514752,-27175.072094806685,-14529.416207005526,-34413.48337095778,0.0,0.0,0.0,193.0,0.0,193.0,0.0,0.0,0.0,179.0,193.0,0.0,179.0,1744420576.427834,0.0,2025-04-11 21:16:16.427,STOP,35
70.0,18949.786597464874,24938.869469031033,-31688.93983232258,-20643.93706845487,-35386.521862330665,-27164.32090572368,-14632.27893498885,-34394.84201608205,0.0,0.0,0.0,193.0,0.0,194.0,0.0,0.0,0.0,179.0,194.0,0.0,179.0,1744420576.4278867,0.0,2025-04-11 21:16:16.427,STOP,35
71.0,18982.08486820279,24945.284419689706,-31690.325640478808,-20645.479338822286,-35392.53448158914,-27180.794141387243,-14178.739688246214,-34368.69047506934,0.0,0.0,0.0,193.0,0.0,193.0,0.0,0.0,0.0,179.0,193.0,0.0,179.0,1744420576.4279363,0.0,2025-04-11 21:16:16.427,STOP,35
72.0,18983.291862403377,24930.755785793757,-31695.198320770065,-20658.622164562006,-35398.92708050336,-27187.90199612403,-14126.458957965251,-34432.884685144985,0.0,0.0,0.0,193.0,0.0,193.0,0.0,0.0,0.0,179.0,193.0,0.0,179.0,1744420576.427986,0.0,2025-04-11 21:16:16.427,STOP,35
73.0,18968.74087676297,24940.65760858746,-31686.995230554967,-20644.697027766353,-35392.13215018894,-27176.882586107564,-14479.43770640346,-34435.52219099071,0.0,0.0,0.0,193.0,0.0,193.0,0.0,0.0,0.0,179.0,193.0,0.0,179.0,1744420576.4281075,0.0,2025-04-11 21:16:16.428,STOP,35
74.0,18959.3754958362,24951.56525988165,-31683.79893109786,-20642.484205065277,-35397.16129269139,-27185.219786789392,-14674.568435498291,-34442.29476956067,0.0,0.0,0.0,193.0,0.0,193.0,0.0,0.0,0.0,179.0,193.0,0.0,179.0,1744420576.4281654,0.0,2025-04-11 21:16:16.428,STOP,35
75.0,18984.52120834842,24959.947164052388,-31686.592899154773,-20641.053693420137,-35409.454752141806,-27202.05065036424,-14287.816201188112,-34410.55529243413,0.0,0.0,0.0,193.0,0.0,193.0,0.0,0.0,0.0,179.0,193.0,0.0,179.0,1744420576.4282172,0.0,2025-04-11 21:16:16.428,STOP,35
76.0,18987.918673505625,24951.18528022591,-31688.22457650001,-20652.698952281353,-35405.07381022857,-27201.201284074938,-14108.801079845558,-34437.17622008041,0.0,0.0,0.0,193.0,0.0,194.0,0.0,0.0,0.0,179.0,194.0,0.0,179.0,1744420576.4282706,0.0,2025-04-11 21:16:16.428,STOP,35
77.0,18968.09267617377,24944.099777233576,-31682.144902008167,-20640.964286442315,-35390.83574901053,-27180.592975687145,-14412.382473037538,-34419.808914638634,0.0,0.0,0.0,193.0,0.0,193.0,0.0,0.0,0.0,179.0,193.0,0.0,179.0,1744420576.4283228,0.0,2025-04-11 21:16:16.428,STOP,35
78.0,18969.344373863267,24961.489434419804,-31666.16340472262,-20622.814669944604,-35377.62586803745,-27159.47057717688,-14665.739496438444,-34393.90324281493,0.0,0.0,0.0,193.0,0.0,193.0,0.0,0.0,0.0,178.0,193.0,0.0,178.0,1744420576.4283812,0.0,2025-04-11 21:16:16.428,STOP,35
79.0,18985.527036848907,24961.42237918644,-31673.56183213733,-20629.296675836646,-35387.86296699798,-27182.537577454757,-14355.966670032343,-34375.6642193394,0.0,0.0,0.0,193.0,0.0,193.0,0.0,0.0,0.0,180.0,193.0,0.0,180.0,1744420576.4285092,0.0,2025-04-11 21:16:16.428,STOP,35
80.0,18988.90215026166,24940.948181265376,-31690.705620134548,-20657.303411639146,-35402.928042760854,-27205.470467265903,-14063.583500812472,-34412.99163257976,0.0,0.0,0.0,193.0,0.0,193.0,0.0,0.0,0.0,179.0,193.0,0.0,179.0,1744420576.4285736,0.0,2025-04-11 21:16:16.428,STOP,35
81.0,18975.021716954914,24935.136727707,-31687.576375910805,-20648.295658623658,-35394.68024905685,-27188.058458335217,-14344.50022512677,-34419.69715591636,0.0,0.0,0.0,193.0,0.0,193.0,0.0,0.0,0.0,179.0,193.0,0.0,179.0,1744420576.428645,0.0,2025-04-11 21:16:16.428,STOP,35
82.0,18961.23069062599,24946.17848946792,-31682.301364219355,-20639.444367819353,-35389.76286527668,-27174.37919072857,-14639.118568792173,-34408.29776624415,0.0,0.0,0.0,193.0,0.0,193.0,0.0,0.0,0.0,179.0,193.0,0.0,179.0,1744420576.4287024,0.0,2025-04-11 21:16:16.428,STOP,35
83.0,18974.239405898978,24950.447672658884,-31679.70856186254,-20634.169356127903,-35393.11562694498,-27185.28684202276,-14469.759401054313,-34403.13451327497,0.0,0.0,0.0,193.0,0.0,194.0,0.0,0.0,0.0,179.0,194.0,0.0,179.0,1744420576.4287913,0.0,2025-04-11 21:16:16.428,STOP,35
84.0,18988.432763628098,24942.468099888338,-31694.103085291757,-20651.313144125124,-35410.997022509226,-27204.554045743233,-14064.812846757513,-34407.023716810196,0.0,0.0,0.0,193.0,0.0,193.0,0.0,0.0,0.0,179.0,193.0,0.0,179.0,1744420576.4288378,0.0,2025-04-11 21:16:16.428,STOP,35
85.0,18975.535807077387,24937.751881808268,-31692.158483524145,-20649.03326619068,-35401.899862515915,-27191.63473744807,-14278.987262128267,-34422.51347571772,0.0,0.0,0.0,193.0,0.0,193.0,0.0,0.0,0.0,179.0,193.0,0.0,179.0,1744420576.4288843,0.0,2025-04-11 21:16:16.428,STOP,35
86.0,18964.382286594187,24958.024914029233,-31681.809625841335,-20636.449234062344,-35390.992211221725,-27176.94964134093,-14614.352835935693,-34405.63790865397,0.0,0.0,0.0,193.0,0.0,194.0,0.0,0.0,0.0,179.0,194.0,0.0,179.0,1744420576.428933,0.0,2025-04-11 21:16:16.428,STOP,35
87.0,18967.3774203512,24951.9899430263,-31671.41606466962,-20630.682483992874,-35386.41010360838,-27179.29657450874,-14529.371503516615,-34391.10927475802,0.0,0.0,0.0,193.0,0.0,193.0,0.0,0.0,0.0,179.0,193.0,0.0,179.0,1744420576.4289782,0.0,2025-04-11 21:16:16.428,STOP,35
88.0,18980.743763535473,24935.11437596254,-31693.991326569478,-20658.75627502874,-35414.30508068861,-27210.074926623696,-14082.470724877207,-34401.88281558547,0.0,0.0,0.0,193.0,0.0,194.0,0.0,0.0,0.0,179.0,194.0,0.0,179.0,1744420576.4290607,0.0,2025-04-11 21:16:16.429,STOP,35
89.0,18974.865254743727,24924.49729734627,-31698.014640571433,-20664.56772858712,-35409.521807375175,-27198.56377822921,-14224.605467868503,-34436.304502046645,0.0,0.0,0.0,193.0,0.0,193.0,0.0,0.0,0.0,179.0,193.0,0.0,179.0,1744420576.429106,0.0,2025-04-11 21:16:16.429,STOP,35
90.0,18962.504740059943,24942.26693418824,-31681.496701418964,-20642.148928898445,-35390.14284493242,-27169.461806948402,-14563.50261729987,-34402.821588852596,0.0,0.0,0.0,193.0,0.0,194.0,0.0,0.0,0.0,179.0,194.0,0.0,179.0,1744420576.4291506,0.0,2025-04-11 21:16:16.429,STOP,35
91.0,18967.80210349585,24954.60509712757,-31677.004000783447,-20636.851565462537,-35389.98638272123,-27171.160539527005,-14604.763937564367,-34399.401771950936,0.0,0.0,0.0,193.0,0.0,193.0,0.0,0.0,0.0,179.0,193.0,0.0,179.0,1744420576.4291954,0.0,2025-04-11 21:16:16.429,STOP,35
92.0,18984.99059498198,24941.149346965474,-31702.216768529033,-20660.119731440514,-35415.33326093355,-27207.52682775579,-14119.9322485843,-34385.498986899736,0.0,0.0,0.0,193.0,0.0,193.0,0.0,0.0,0.0,179.0,193.0,0.0,179.0,1744420576.4292395,0.0,2025-04-11 21:16:16.429,STOP,35
93.0,18978.486237345485,24925.167849679932,-31708.385849998696,-20673.664888580428,-35420.22829296927,-27212.511266769325,-14185.288749371619,-34461.472566303324,0.0,0.0,0.0,193.0,0.0,193.0,0.0,0.0,0.0,178.0,193.0,0.0,178.0,1744420576.4292831,0.0,2025-04-11 21:16:16.429,STOP,35
94.0,18953.876966700194,24928.431204370405,-31705.860102875246,-20660.745580285264,-35413.34395567703,-27201.08952535266,-14545.420056035526,-34444.61935098402,0.0,0.0,0.0,193.0,0.0,193.0,0.0,0.0,0.0,180.0,193.0,0.0,180.0,1744420576.4293435,0.0,2025-04-11 21:16:16.429,STOP,35
95.0,18950.70301898754,24935.673169573925,-31702.820265629325,-20653.883594737483,-35412.740458576736,-27199.368441029605,-14660.911519636098,-34433.510533989735,0.0,0.0,0.0,193.0,0.0,193.0,0.0,0.0,0.0,179.0,193.0,0.0,179.0,1744420576.429387,0.0,2025-04-11 21:16:16.429,STOP,35
96.0,18982.57660658081,24945.08325398961,-31704.74251565248,-20654.330629626587,-35416.62966211196,-27218.09920288315,-14231.66861911638,-34420.21124603882,0.0,0.0,0.0,193.0,0.0,193.0,0.0,0.0,0.0,179.0,193.0,0.0,179.0,1744420576.4294305,0.0,2025-04-11 21:16:16.429,STOP,35
97.0,18981.74959203596,24930.59932358257,-31709.168161054633,-20672.256728679746,-35416.58495862305,-27220.87081919561,-14145.904975641368,-34458.52213603522,0.0,0.0,0.0,193.0,0.0,193.0,0.0,0.0,0.0,179.0,193.0,0.0,179.0,1744420576.4294736,0.0,2025-04-11 21:16:16.429,STOP,35
98.0,18964.292879616365,24941.93165802141,-31696.874701604214,-20655.179995915893,-35408.29246143013,-27197.13326658407,-14461.95864223941,-34422.8264001401,0.0,0.0,0.0,193.0,0.0,193.0,0.0,0.0,0.0,179.0,193.0,0.0,179.0,1744420576.4295385,0.0,2025-04-11 21:16:16.429,STOP,35
99.0,18964.985783694483,24957.488472162306,-31682.54723340836,-20638.61735327451,-35399.642336325924,-27184.102199566627,-14674.054345375818,-34416.85848437053,0.0,0.0,0.0,193.0,0.0,194.0,0.0,0.0,0.0,180.0,194.0,0.0,180.0,1744420576.4295826,0.0,2025-04-11 21:16:16.429,STOP,35
100.0,18991.114972962736,24953.353399438074,-31692.27024224642,-20643.624144032496,-35416.361441178495,-27203.90584515403,-14303.708291495836,-34398.686516128364,0.0,0.0,0.0,193.0,0.0,193.0,0.0,0.0,0.0,179.0,193.0,0.0,179.0,1744420576.429626,0.0,2025-04-11 21:16:16.429,STOP,35
101.0,19001.150906223167,24937.282495174706,-31703.222597029522,-20666.668792565917,-35426.82205758358,-27221.139040129074,-14102.855515820447,-34456.35401682306,0.0,0.0,0.0,193.0,0.0,193.0,0.0,0.0,0.0,179.0,193.0,0.0,179.0,1744420576.4296727,0.0,2025-04-11 21:16:16.429,STOP,35
102.0,18982.1295716917,24937.997750997278,-31698.729896394005,-20656.968135472314,-35421.457638914304,-27207.035089377772,-14427.313438333684,-34458.20921161285,0.0,0.0,0.0,193.0,0.0,193.0,0.0,0.0,0.0,179.0,193.0,0.0,179.0,1744420576.4297159,0.0,2025-04-11 21:16:16.429,STOP,35
103.0,18963.979955193994,24945.954972023366,-31692.1808352686,-20647.111016167524,-35412.651051598914,-27193.556987471224,-14686.124287381685,-34439.031414870195,0.0,0.0,0.0,193.0,0.0,193.0,0.0,0.0,0.0,179.0,193.0,0.0,179.0,1744420576.4297764,0.0,2025-04-11 21:16:16.429,STOP,35
104.0,18982.57660658081,24949.30773369166,-31694.907748092148,-20646.66398127842,-35416.495551645225,-27206.364537044115,-14402.838278155123,-34409.9741470783,0.0,0.0,0.0,193.0,0.0,193.0,0.0,0.0,0.0,179.0,193.0,0.0,179.0,1744420576.4298196,0.0,2025-04-11 21:16:16.429,STOP,35
105.0,19003.028452757415,24947.564297624147,-31698.37226848272,-20658.868033751016,-35418.0601737571,-27214.67938598149,-14088.393937157864,-34439.031414870195,0.0,0.0,0.0,193.0,0.0,194.0,0.0,0.0,0.0,179.0,194.0,0.0,179.0,1744420576.4298625,0.0,2025-04-11 21:16:16.429,STOP,35
106.0,18980.09556294627,24939.160041708954,-31698.394620227176,-20652.162510414426,-35414.81917081108,-27199.703717196433,-14355.296117698685,-34445.02168238422,0.0,0.0,0.0,193.0,0.0,194.0,0.0,0.0,0.0,179.0,194.0,0.0,179.0,1744420576.4299057,0.0,2025-04-11 21:16:16.429,STOP,35
107.0,18956.60387952374,24948.860698802557,-31689.342163722777,-20638.974981185795,-35405.36438290648,-27181.37528674308,-14661.783237669855,-34427.922597875906,0.0,0.0,0.0,193.0,0.0,193.0,0.0,0.0,0.0,179.0,193.0,0.0,179.0,1744420576.429948,0.0,2025-04-11 21:16:16.429,STOP,35
108.0,18970.03727794138,24952.12405349303,-31684.02244854241,-20633.65526600543,-35403.017449738676,-27188.080810079675,-14500.671863636002,-34413.930405846884,0.0,0.0,0.0,193.0,0.0,194.0,0.0,0.0,0.0,180.0,194.0,0.0,180.0,1744420576.4299908,0.0,2025-04-11 21:16:16.429,STOP,35
109.0,18989.90797876215,24940.635256843005,-31702.306175506852,-20657.169301172413,-35421.59174938104,-27207.750345200344,-14075.564035840516,-34406.50962668772,0.0,0.0,0.0,193.0,0.0,193.0,0.0,0.0,0.0,179.0,193.0,0.0,179.0,1744420576.4300482,0.0,2025-04-11 21:16:16.430,STOP,35
110.0,18975.75932452194,24923.89380024598,-31705.144847052678,-20662.556071586143,-35421.457638914304,-27204.174066087493,-14293.962930913322,-34444.23937132828,0.0,0.0,0.0,193.0,0.0,193.0,0.0,0.0,0.0,179.0,193.0,0.0,179.0,1744420576.4300916,0.0,2025-04-11 21:16:16.430,STOP,35
111.0,18957.922632446604,24941.283457432208,-31695.08656204779,-20646.59692604505,-35412.47223764327,-27187.90199612403,-14647.299307262816,-34435.09750784606,0.0,0.0,0.0,193.0,0.0,194.0,0.0,0.0,0.0,179.0,194.0,0.0,179.0,1744420576.4301343,0.0,2025-04-11 21:16:16.430,STOP,35
112.0,18967.31036511783,24946.0890824901,-31694.50541669195,-20645.680504522385,-35414.57330162207,-27199.971938129896,-14592.93986474751,-34431.49887698876,0.0,0.0,0.0,193.0,0.0,193.0,0.0,0.0,0.0,179.0,193.0,0.0,179.0,1744420576.4301777,0.0,2025-04-11 21:16:16.430,STOP,35
113.0,18995.47356313152,24944.815033056144,-31707.290614520385,-20661.125559941003,-35432.07471753058,-27220.8261157067,-14139.51237672715,-34433.39877526746,0.0,0.0,0.0,193.0,0.0,193.0,0.0,0.0,0.0,178.0,193.0,0.0,178.0,1744420576.4302373,0.0,2025-04-11 21:16:16.430,STOP,35
114.0,18994.355975908755,24941.059939987656,-31696.74059113748,-20653.66007729293,-35417.61313886799,-27197.982632873372,-14256.993145584243,-34440.841906171074,0.0,0.0,0.0,193.0,0.0,194.0,0.0,0.0,0.0,179.0,194.0,0.0,179.0,1744420576.430282,0.0,2025-04-11 21:16:16.430,STOP,35
115.0,18978.821513512317,24957.08614076211,-31687.375210210706,-20638.125614896493,-35406.034935240146,-27181.19647278744,-14569.291719113795,-34406.57668192109,0.0,0.0,0.0,193.0,0.0,193.0,0.0,0.0,0.0,179.0,193.0,0.0,179.0,1744420576.4303994,0.0,2025-04-11 21:16:16.430,STOP,35
116.0,18991.204379940555,24975.593385171105,-31672.712465848028,-20623.820498445093,-35392.06509495558,-27175.60853667361,-14632.480100688947,-34409.99649882275,0.0,0.0,0.0,193.0,0.0,193.0,0.0,0.0,0.0,179.0,193.0,0.0,179.0,1744420576.4304464,0.0,2025-04-11 21:16:16.430,STOP,35
117.0,19010.404528427665,24978.56616718366,-31688.55985266684,-20636.31512359561,-35406.75019106271,-27202.497685253347,-14162.489970027205,-34402.84394059705,0.0,0.0,0.0,193.0,0.0,194.0,0.0,0.0,0.0,179.0,194.0,0.0,179.0,1744420576.4304905,0.0,2025-04-11 21:16:16.430,STOP,35
118.0,18989.438592128587,24943.675094088925,-31703.75903889645,-20657.07989419459,-35418.753077835216,-27216.758098215832,-14178.873798712946,-34470.569726296635,0.0,0.0,0.0,193.0,0.0,193.0,0.0,0.0,0.0,179.0,193.0,0.0,179.0,1744420576.430557,0.0,2025-04-11 21:16:16.430,STOP,35
119.0,18965.186949394578,24940.948181265376,-31700.719201650525,-20642.88653646547,-35414.01450801069,-27195.747458427843,-14519.715549911924,-34430.26953104371,0.0,0.0,0.0,193.0,0.0,193.0,0.0,0.0,0.0,179.0,193.0,0.0,179.0,1744420576.4306047,0.0,2025-04-11 21:16:16.430,STOP,35
120.0,18968.495007573965,24954.403931427474,-31679.663858373628,-20622.635855988963,-35397.04953396911,-27170.199414515428,-14671.372136041182,-34387.68945785635,0.0,0.0,0.0,193.0,0.0,194.0,0.0,0.0,0.0,180.0,194.0,0.0,180.0,1744420576.4306495,0.0,2025-04-11 21:16:16.430,STOP,35
121.0,18997.0828887323,24956.37088493954,-31687.26345148843,-20629.65430374793,-35409.05242074161,-27190.98653685886,-14225.588944624538,-34356.5087743412,0.0,0.0,0.0,193.0,0.0,193.0,0.0,0.0,0.0,178.0,193.0,0.0,178.0,1744420576.430693,0.0,2025-04-11 21:16:16.430,STOP,35
122.0,18995.585321853796,24939.204745197865,-31698.819303371827,-20652.38602785898,-35422.59757788153,-27203.212941075915,-14118.278219494608,-34422.111144317525,0.0,0.0,0.0,193.0,0.0,193.0,0.0,0.0,0.0,179.0,193.0,0.0,179.0,1744420576.430736,0.0,2025-04-11 21:16:16.430,STOP,35
123.0,18975.93813847758,24945.79850981218,-31688.023410799913,-20637.633876518474,-35411.3099469316,-27185.577414700678,-14468.753572553824,-34424.41337399642,0.0,0.0,0.0,193.0,0.0,194.0,0.0,0.0,0.0,180.0,194.0,0.0,180.0,1744420576.4307785,0.0,2025-04-11 21:16:16.430,STOP,35
124.0,18970.394905852667,24958.047265773686,-31674.96999203801,-20624.826326945582,-35396.446036868816,-27173.172196527983,-14684.805534458821,-34415.24915876975,0.0,0.0,0.0,193.0,0.0,193.0,0.0,0.0,0.0,179.0,193.0,0.0,179.0,1744420576.4308372,0.0,2025-04-11 21:16:16.430,STOP,35
125.0,18989.95268225106,24958.248431473785,-31685.69882937656,-20631.04011190416,-35412.29342368763,-27193.154656071027,-14312.44782357786,-34389.99168753525,0.0,0.0,0.0,193.0,0.0,193.0,0.0,0.0,0.0,179.0,193.0,0.0,179.0,1744420576.4308815,0.0,2025-04-11 21:16:16.430,STOP,35
126.0,18997.70873757705,24945.396178411982,-31693.119608535722,-20647.28983012317,-35419.378926679965,-27196.90974913952,-14078.000375986145,-34422.20055129535,0.0,0.0,0.0,193.0,0.0,194.0,0.0,0.0,0.0,180.0,194.0,0.0,180.0,1744420576.4309244,0.0,2025-04-11 21:16:16.430,STOP,35
127.0,18977.905091989647,24944.23388770031,-31683.17308225311,-20632.202402615836,-35406.95135676281,-27176.48025470737,-14398.792612408712,-34428.50374323175,0.0,0.0,0.0,193.0,0.0,194.0,0.0,0.0,0.0,179.0,194.0,0.0,179.0,1744420576.4309824,0.0,2025-04-11 21:16:16.430,STOP,35
128.0,18961.677725515096,24957.577879140124,-31676.199337983056,-20622.881725177973,-35395.730781046244,-27163.337428967647,-14665.47127550498,-34406.95666157683,0.0,0.0,0.0,193.0,0.0,193.0,0.0,0.0,0.0,178.0,193.0,0.0,178.0,1744420576.4310255,0.0,2025-04-11 21:16:16.431,STOP,35
129.0,18979.402658868155,24960.125978008033,-31680.69203861857,-20619.84188793205,-35407.37603990746,-27174.826225617675,-14404.51465898927,-34376.22301295078,0.0,0.0,0.0,193.0,0.0,194.0,0.0,0.0,0.0,180.0,194.0,0.0,180.0,1744420576.431069,0.0,2025-04-11 21:16:16.431,STOP,35
130.0,18996.457039887555,24949.26303020275,-31688.31398347783,-20634.839908461563,-35415.82499931157,-27190.919481625497,-14073.30650965053,-34400.69817312934,0.0,0.0,0.0,193.0,0.0,194.0,0.0,0.0,0.0,179.0,194.0,0.0,179.0,1744420576.431112,0.0,2025-04-11 21:16:16.431,STOP,35
131.0,18972.51832157592,24936.522535863227,-31684.111855520234,-20630.19074561486,-35401.274013671165,-27179.72125765339,-14335.939507000388,-34417.05965007063,0.0,0.0,0.0,193.0,0.0,193.0,0.0,0.0,0.0,179.0,193.0,0.0,179.0,1744420576.4311547,0.0,2025-04-11 21:16:16.431,STOP,35
132.0,18950.90418468764,24945.12795747852,-31678.41216068413,-20621.920600166395,-35394.210862423286,-27167.13722552505,-14648.126321807662,-34407.649565654945,0.0,0.0,0.0,193.0,0.0,194.0,0.0,0.0,0.0,180.0,194.0,0.0,180.0,1744420576.431198,0.0,2025-04-11 21:16:16.431,STOP,35
133.0,18958.392019080165,24946.759634823757,-31683.17308225311,-20624.64751298994,-35393.294440900616,-27175.206205273415,-14481.62817736008,-34377.47471064028,0.0,0.0,0.0,193.0,0.0,194.0,0.0,0.0,0.0,179.0,194.0,0.0,179.0,1744420576.4312549,0.0,2025-04-11 21:16:16.431,STOP,35
134.0,18980.56494957983,24942.89278303299,-31695.198320770065,-20642.28303936518,-35402.36924914947,-27193.6687461935,-14042.25993660211,-34380.42514090838,0.0,0.0,0.0,193.0,0.0,193.0,0.0,0.0,0.0,179.0,193.0,0.0,179.0,1744420576.431298,0.0,2025-04-11 21:16:16.431,STOP,35
135.0,18972.115990175724,24929.951122993367,-31690.504454434453,-20638.952629441337,-35399.82115028157,-27183.722219910887,-14250.175863525375,-34424.94981586335,0.0,0.0,0.0,193.0,0.0,194.0,0.0,0.0,0.0,180.0,194.0,0.0,180.0,1744420576.4313407,0.0,2025-04-11 21:16:16.431,STOP,35
136.0,18947.03733289687,24937.751881808268,-31687.397561955164,-20629.855469448026,-35398.03301072514,-27175.452074462424,-14598.773670050345,-34415.09269655856,0.0,0.0,0.0,193.0,0.0,194.0,0.0,0.0,0.0,180.0,194.0,0.0,180.0,1744420576.431388,0.0,2025-04-11 21:16:16.431,STOP,35
137.0,18958.682591758086,24941.149346965474,-31678.03218102839,-20620.959475154814,-35389.181719920845,-27172.166368027494,-14575.371393605637,-34396.9207283164,0.0,0.0,0.0,193.0,0.0,193.0,0.0,0.0,0.0,179.0,193.0,0.0,179.0,1744420576.4314308,0.0,2025-04-11 21:16:16.431,STOP,35
138.0,18984.074173459314,24934.041492228687,-31692.113780035234,-20639.80199573064,-35406.996060251724,-27200.24015906336,-14102.497887909161,-34388.24825146774,0.0,0.0,0.0,193.0,0.0,193.0,0.0,0.0,0.0,179.0,193.0,0.0,179.0,1744420576.4314735,0.0,2025-04-11 21:16:16.431,STOP,35
139.0,18971.84776924226,24919.870486244025,-31694.483064947497,-20647.89332722346,-35412.67340334337,-27198.295557295747,-14209.071005472066,-34439.321987548115,0.0,0.0,0.0,193.0,0.0,194.0,0.0,0.0,0.0,179.0,194.0,0.0,179.0,1744420576.4316828,0.0,2025-04-11 21:16:16.431,STOP,35
140.0,18948.490196286464,24926.75482353626,-31690.929137579104,-20635.80103347314,-35407.62190909647,-27182.314060010205,-14572.197445892984,-34427.05087984215,0.0,0.0,0.0,193.0,0.0,194.0,0.0,0.0,0.0,179.0,194.0,0.0,179.0,1744420576.4317267,0.0,2025-04-11 21:16:16.431,STOP,35
141.0,18955.75451323444,24938.444785886382,-31678.345105450764,-20624.60280950103,-35393.026219967156,-27172.23342326086,-14641.04081881533,-34403.11216153052,0.0,0.0,0.0,193.0,0.0,193.0,0.0,0.0,0.0,179.0,193.0,0.0,179.0,1744420576.4317698,0.0,2025-04-11 21:16:16.431,STOP,35
142.0,18978.553292578854,24941.70814057686,-31690.884434090192,-20633.543507283153,-35407.77837130766,-27197.42383926199,-14155.695039712793,-34382.257983953714,0.0,0.0,0.0,193.0,0.0,193.0,0.0,0.0,0.0,179.0,193.0,0.0,179.0,1744420576.4318297,0.0,2025-04-11 21:16:16.431,STOP,35
143.0,18974.977013466003,24924.184372923897,-31698.931062094103,-20648.340362112565,-35414.975633022266,-27200.10604859663,-14145.189719818798,-34431.09654558856,0.0,0.0,0.0,193.0,0.0,194.0,0.0,0.0,0.0,179.0,194.0,0.0,179.0,1744420576.4318728,0.0,2025-04-11 21:16:16.431,STOP,35
144.0,18954.03342891138,24931.336931149595,-31691.1303032792,-20632.69414099385,-35406.2584526847,-27177.28491750776,-14490.099488508642,-34400.36289696251,0.0,0.0,0.0,193.0,0.0,193.0,0.0,0.0,0.0,179.0,193.0,0.0,179.0,1744420576.4319155,0.0,2025-04-11 21:16:16.431,STOP,35
145.0,18945.718579974007,24936.008445740754,-31680.55792815184,-20623.328760067077,-35395.93194674634,-27170.42293195998,-14670.142790096139,-34402.106333030024,0.0,0.0,0.0,193.0,0.0,193.0,0.0,0.0,0.0,179.0,193.0,0.0,179.0,1744420576.4319584,0.0,2025-04-11 21:16:16.431,STOP,35
146.0,18976.36282162223,24940.36703590954,-31684.514186920427,-20627.776757213684,-35401.49753111572,-27189.71248742491,-14243.224470999774,-34370.99270474824,0.0,0.0,0.0,193.0,0.0,193.0,0.0,0.0,0.0,179.0,193.0,0.0,179.0,1744420576.432001,0.0,2025-04-11 21:16:16.432,STOP,35
147.0,18975.535807077387,24925.346663635573,-31695.37713472571,-20653.168338914915,-35412.96397602129,-27202.85531316463,-14110.030425790601,-34426.35797576403,0.0,0.0,0.0,193.0,0.0,193.0,0.0,0.0,0.0,179.0,193.0,0.0,179.0,1744420576.4320576,0.0,2025-04-11 21:16:16.432,STOP,35
148.0,18953.586394022273,24927.35832063655,-31688.068114288824,-20640.2713823642,-35405.878473028955,-27186.560891456713,-14444.725447264367,-34423.921635618404,0.0,0.0,0.0,193.0,0.0,193.0,0.0,0.0,0.0,179.0,193.0,0.0,179.0,1744420576.4321008,0.0,2025-04-11 21:16:16.432,STOP,35
149.0,18948.51254803092,24940.009407998255,-31674.008867026434,-20626.88268743547,-35389.159368176384,-27175.7649988848,-14670.500418007425,-34408.85655985553,0.0,0.0,0.0,193.0,0.0,194.0,0.0,0.0,0.0,179.0,194.0,0.0,179.0,1744420576.4321437,0.0,2025-04-11 21:16:16.432,STOP,35
150.0,18965.633984283686,24939.852945787068,-31679.619154884716,-20629.721358981296,-35396.580147335546,-27193.512283982313,-14305.094099652064,-34376.9159170289,0.0,0.0,0.0,193.0,0.0,193.0,0.0,0.0,0.0,179.0,193.0,0.0,179.0,1744420576.432186,0.0,2025-04-11 21:16:16.432,STOP,35
151.0,18975.13347567719,24926.531306091703,-31690.102123034256,-20651.08962668057,-35409.320641675076,-27203.212941075915,-14055.983907697668,-34411.203493023335,0.0,0.0,0.0,193.0,0.0,193.0,0.0,0.0,0.0,179.0,193.0,0.0,179.0,1744420576.4322288,0.0,2025-04-11 21:16:16.432,STOP,35
152.0,18959.241385369467,24923.759689779246,-31686.615250899227,-20645.009952188728,-35403.978574750254,-27188.77371415779,-14359.006507278265,-34406.62138541,0.0,0.0,0.0,193.0,0.0,194.0,0.0,0.0,0.0,180.0,194.0,0.0,180.0,1744420576.4322717,0.0,2025-04-11 21:16:16.432,STOP,35
153.0,18943.84103343976,24932.856849772557,-31681.27318397441,-20642.08187366508,-35394.30026940111,-27183.543405955246,-14647.925156107565,-34409.370649978,0.0,0.0,0.0,193.0,0.0,193.0,0.0,0.0,0.0,179.0,193.0,0.0,179.0,1744420576.4323142,0.0,2025-04-11 21:16:16.432,STOP,35
154.0,18961.78948423737,24935.56141085165,-31678.948602551056,-20637.18684162937,-35391.64041181093,-27192.260586292814,-14416.13756610603,-34388.33765844556,0.0,0.0,0.0,193.0,0.0,193.0,0.0,0.0,0.0,179.0,193.0,0.0,179.0,1744420576.4323716,0.0,2025-04-11 21:16:16.432,STOP,35
155.0,18971.914824475625,24922.507992089748,-31700.875663861712,-20661.818464019118,-35415.109743488996,-27215.28288308178,-14050.440675072752,-34414.28803375817,0.0,0.0,0.0,193.0,0.0,194.0,0.0,0.0,0.0,179.0,194.0,0.0,179.0,1744420576.4324152,0.0,2025-04-11 21:16:16.432,STOP,35
156.0,18954.927498689594,24913.12025941852,-31698.17110278262,-20656.744618027762,-35407.487798629736,-27199.68136545198,-14322.30494288265,-34442.38417653849,0.0,0.0,0.0,193.0,0.0,193.0,0.0,0.0,0.0,179.0,193.0,0.0,179.0,1744420576.4324577,0.0,2025-04-11 21:16:16.432,STOP,35
157.0,18936.911992658617,24926.620713069526,-31689.386867211684,-20641.14310039796,-35395.82018802407,-27180.034182075764,-14624.612286640679,-34400.13937951796,0.0,0.0,0.0,193.0,0.0,193.0,0.0,0.0,0.0,179.0,193.0,0.0,179.0,1744420576.4325144,0.0,2025-04-11 21:16:16.432,STOP,35
158.0,18955.1733678786,24938.46713763084,-31680.468521174018,-20627.150908368934,-35392.735647289235,-27178.536615197256,-14510.461927707425,-34383.040295009654,0.0,0.0,0.0,193.0,0.0,194.0,0.0,0.0,0.0,179.0,194.0,0.0,179.0,1744420576.4325576,0.0,2025-04-11 21:16:16.432,STOP,35
159.0,18977.99449896747,24937.103681219065,-31695.041858558878,-20642.171280642902,-35409.365345163984,-27197.96028112892,-14064.812846757513,-34383.599088621035,0.0,0.0,0.0,193.0,0.0,193.0,0.0,0.0,0.0,179.0,193.0,0.0,179.0,1744420576.4326005,0.0,2025-04-11 21:16:16.432,STOP,35
160.0,18965.991612194972,24925.07844270211,-31694.058381802846,-20643.89236496596,-35406.81724629608,-27188.304327524227,-14252.00870657071,-34430.00131011025,0.0,0.0,0.0,193.0,0.0,193.0,0.0,0.0,0.0,179.0,193.0,0.0,179.0,1744420576.4326437,0.0,2025-04-11 21:16:16.432,STOP,35
161.0,18943.908088673128,24934.30971316215,-31691.42087595712,-20629.36373107001,-35400.223481681765,-27168.031295303263,-14582.970986720442,-34397.367763205504,0.0,0.0,0.0,193.0,0.0,194.0,0.0,0.0,0.0,180.0,194.0,0.0,180.0,1744420576.4326863,0.0,2025-04-11 21:16:16.432,STOP,35
162.0,18948.08786488627,24936.097852718576,-31693.74545738047,-20627.195611857846,-35401.72104856027,-27179.743609397843,-14572.867998226644,-34405.72731563179,0.0,0.0,0.0,193.0,0.0,193.0,0.0,0.0,0.0,179.0,193.0,0.0,179.0,1744420576.4327571,0.0,2025-04-11 21:16:16.432,STOP,35
163.0,18972.674783787108,24932.87920151701,-31711.671556433626,-20643.914716710417,-35427.425554683876,-27203.70467945393,-14115.148975270866,-34405.10146678704,0.0,0.0,0.0,193.0,0.0,194.0,0.0,0.0,0.0,179.0,194.0,0.0,179.0,1744420576.432799,0.0,2025-04-11 21:16:16.432,STOP,35
164.0,18973.300632631854,24923.40206186796,-31706.195379042078,-20645.3228766111,-35424.765697093695,-27188.34903101314,-14226.415959169384,-34445.267551573226,0.0,0.0,0.0,193.0,0.0,193.0,0.0,0.0,0.0,179.0,193.0,0.0,179.0,1744420576.4328408,0.0,2025-04-11 21:16:16.432,STOP,35
165.0,18947.707885230528,24936.947219007878,-31699.64631791667,-20633.09647239405,-35408.85125504151,-27167.696019136434,-14554.494864284381,-34397.05483878313,0.0,0.0,0.0,193.0,0.0,193.0,0.0,0.0,0.0,179.0,193.0,0.0,179.0,1744420576.4328823,0.0,2025-04-11 21:16:16.432,STOP,35
166.0,18948.736065475474,24948.480719146817,-31687.643431144174,-20620.490088521256,-35396.84836826901,-27156.631905631057,-14623.628809884645,-34367.90816401341,0.0,0.0,0.0,193.0,0.0,194.0,0.0,0.0,0.0,179.0,194.0,0.0,179.0,1744420576.4329236,0.0,2025-04-11 21:16:16.432,STOP,35
167.0,18970.439609341574,24935.472003873827,-31701.94854759557,-20632.761196227217,-35412.11460973199,-27182.33641175466,-14151.157635588364,-34345.80228874711,0.0,0.0,0.0,193.0,0.0,193.0,0.0,0.0,0.0,179.0,193.0,0.0,179.0,1744420576.4329648,0.0,2025-04-11 21:16:16.432,STOP,35
168.0,18963.3764580937,24916.07068968662,-31709.056402332357,-20652.296620881156,-35417.05434525661,-27189.37721125808,-14129.856423122457,-34412.56694943511,0.0,0.0,0.0,193.0,0.0,193.0,0.0,0.0,0.0,179.0,193.0,0.0,179.0,1744420576.4330063,0.0,2025-04-11 21:16:16.433,STOP,35
169.0,18937.873117670195,24920.183410666396,-31705.74834415297,-20643.445330076855,-35410.68409808685,-27176.279089007272,-14476.755497068823,-34405.95083307634,0.0,0.0,0.0,193.0,0.0,193.0,0.0,0.0,0.0,179.0,193.0,0.0,179.0,1744420576.9057496,0.0,2025-04-11 21:16:16.905,STOP,35
170.0,18933.201603079033,24929.92877124891,-31695.824169614814,-20633.09647239405,-35397.80949328059,-27166.444321446936,-14648.752170652411,-34386.527167144675,0.0,0.0,0.0,193.0,0.0,193.0,0.0,0.0,0.0,178.0,193.0,0.0,178.0,1744420576.9060156,0.0,2025-04-11 21:16:16.906,STOP,35
171.0,18963.018830182413,24936.61194284105,-31698.21580627153,-20630.682483992874,-35404.760885806194,-27175.98851632935,-14232.003895283211,-34343.388300345934,0.0,0.0,0.0,193.0,0.0,193.0,0.0,0.0,0.0,179.0,193.0,0.0,179.0,1744420576.9060915,0.0,2025-04-11 21:16:16.906,STOP,35
172.0,18972.361859364733,24926.620713069526,-31701.479160962008,-20643.490033565766,-35409.05242074161,-27175.452074462424,-14080.235550431677,-34387.53299564517,0.0,0.0,0.0,193.0,0.0,193.0,0.0,0.0,0.0,179.0,193.0,0.0,179.0,1744420576.9063804,0.0,2025-04-11 21:16:16.906,STOP,35
173.0,18946.478539285486,24923.714986290335,-31704.831922630303,-20639.109091652525,-35412.06990624308,-27169.19358601494,-14409.85672591409,-34399.20060625084,0.0,0.0,0.0,193.0,0.0,193.0,0.0,0.0,0.0,179.0,193.0,0.0,179.0,1744420576.9064374,0.0,2025-04-11 21:16:16.906,STOP,35
174.0,18934.90033565764,24938.757710308757,-31697.70171614906,-20631.12951888198,-35406.81724629608,-27158.442396931936,-14664.04076385984,-34402.91099583042,0.0,0.0,0.0,193.0,0.0,194.0,0.0,0.0,0.0,179.0,194.0,0.0,179.0,1744420576.906486,0.0,2025-04-11 21:16:16.906,STOP,35
175.0,18965.410466839134,24952.325219193128,-31690.75032362346,-20620.288922821157,-35401.274013671165,-27153.56971664068,-14338.599364590571,-34335.05109966411,0.0,0.0,0.0,193.0,0.0,193.0,0.0,0.0,0.0,179.0,193.0,0.0,179.0,1744420576.9065337,0.0,2025-04-11 21:16:16.906,STOP,35
176.0,18972.227748898,24935.18143119591,-31707.08944882029,-20648.496824323753,-35415.69088884484,-27179.72125765339,-14057.302660620531,-34375.4630536393,0.0,0.0,0.0,193.0,0.0,193.0,0.0,0.0,0.0,179.0,193.0,0.0,179.0,1744420576.9065816,0.0,2025-04-11 21:16:16.906,STOP,35
177.0,18947.864347441715,24923.916151990434,-31705.256605774954,-20646.686333022873,-35407.66661258538,-27175.049743062227,-14359.967632289843,-34405.5708534206,0.0,0.0,0.0,193.0,0.0,194.0,0.0,0.0,0.0,180.0,194.0,0.0,180.0,1744420576.906696,0.0,2025-04-11 21:16:16.906,STOP,35
178.0,18923.456242496522,24927.023044469723,-31704.027259829913,-20644.160585899423,-35406.7054875738,-27174.021562817285,-14665.828903416266,-34404.90030108694,0.0,0.0,0.0,193.0,0.0,193.0,0.0,0.0,0.0,179.0,193.0,0.0,179.0,1744420576.9067445,0.0,2025-04-11 21:16:16.906,STOP,35
179.0,18943.349295061744,24928.766480537237,-31702.574396440315,-20640.60665853103,-35408.270109685676,-27184.05749607772,-14445.887737976043,-34374.34546641653,0.0,0.0,0.0,193.0,0.0,194.0,0.0,0.0,0.0,179.0,194.0,0.0,179.0,1744420576.9067917,0.0,2025-04-11 21:16:16.906,STOP,35
180.0,18969.120856418715,24922.731509534304,-31709.615195943737,-20653.123635426004,-35412.941624276835,-27198.586129973668,-14058.107323420922,-34388.80704507912,0.0,0.0,0.0,193.0,0.0,193.0,0.0,0.0,0.0,179.0,193.0,0.0,179.0,1744420576.906838,0.0,2025-04-11 21:16:16.906,STOP,35
181.0,18950.390094565166,24920.92101823342,-31701.94854759557,-20642.975943443293,-35400.424647381864,-27178.983650086364,-14279.188427828363,-34401.03344929617,0.0,0.0,0.0,193.0,0.0,193.0,0.0,0.0,0.0,179.0,193.0,0.0,179.0,1744420576.9068816,0.0,2025-04-11 21:16:16.906,STOP,35
182.0,18932.084015856268,24933.661512572948,-31693.588995169284,-20628.648475247443,-35392.40037112241,-27164.03033304576,-14600.986492751419,-34382.99559152074,0.0,0.0,0.0,193.0,0.0,194.0,0.0,0.0,0.0,180.0,194.0,0.0,180.0,1744420576.9069247,0.0,2025-04-11 21:16:16.906,STOP,35
183.0,18941.739969460963,24935.047320729176,-31695.958280081548,-20627.776757213684,-35401.2069584378,-27174.893280851044,-14518.73207315589,-34384.157882232415,0.0,0.0,0.0,193.0,0.0,193.0,0.0,0.0,0.0,179.0,193.0,0.0,179.0,1744420576.9069684,0.0,2025-04-11 21:16:16.906,STOP,35
184.0,18964.382286594187,24935.18143119591,-31707.760001153947,-20639.354960841534,-35420.272996458174,-27188.639603691056,-14089.578579613993,-34375.44070189485,0.0,0.0,0.0,193.0,0.0,193.0,0.0,0.0,0.0,179.0,193.0,0.0,179.0,1744420576.9070313,0.0,2025-04-11 21:16:16.907,STOP,35
185.0,18954.61457426722,24920.205762410853,-31706.977690098014,-20642.95359169884,-35416.719069089784,-27182.984612343862,-14255.808503128113,-34419.116010560516,0.0,0.0,0.0,193.0,0.0,194.0,0.0,0.0,0.0,180.0,194.0,0.0,180.0,1744420576.9070756,0.0,2025-04-11 21:16:16.907,STOP,35
186.0,18941.628210738687,24934.98026549581,-31689.431570700595,-20618.634893731465,-35385.58308906354,-27150.798100328222,-14570.297547614284,-34378.59229786305,0.0,0.0,0.0,193.0,0.0,193.0,0.0,0.0,0.0,179.0,193.0,0.0,179.0,1744420576.9071198,0.0,2025-04-11 21:16:16.907,STOP,35
187.0,18946.813815452315,24943.65274234447,-31685.967050310024,-20611.03530061666,-35385.91836523037,-27141.544478123724,-14561.870939954631,-34342.69539626782,0.0,0.0,0.0,193.0,0.0,193.0,0.0,0.0,0.0,179.0,193.0,0.0,179.0,1744420576.9071805,0.0,2025-04-11 21:16:16.907,STOP,35
188.0,18970.99840295296,24944.390349911493,-31703.356707496252,-20631.353036326534,-35405.0067549952,-27167.271335991783,-14084.728251067192,-34323.87522743645,0.0,0.0,0.0,193.0,0.0,194.0,0.0,0.0,0.0,179.0,194.0,0.0,179.0,1744420576.9072263,0.0,2025-04-11 21:16:16.907,STOP,35
189.0,18958.10144640225,24916.584779809094,-31707.625890687217,-20648.183899901378,-35402.27984217165,-27169.014772059298,-14151.381153032919,-34376.737103073254,0.0,0.0,0.0,193.0,0.0,193.0,0.0,0.0,0.0,179.0,193.0,0.0,179.0,1744420576.9072728,0.0,2025-04-11 21:16:16.907,STOP,35
190.0,18937.448434525544,24928.900591003967,-31696.1817975261,-20628.290847336157,-35392.176853677855,-27148.741739838333,-14500.940084569465,-34362.65550406641,0.0,0.0,0.0,193.0,0.0,193.0,0.0,0.0,0.0,179.0,193.0,0.0,179.0,1744420576.90732,0.0,2025-04-11 21:16:16.907,STOP,35
191.0,18939.482443270976,24944.055073744665,-31684.760056109437,-20616.22090533029,-35386.85713849749,-27144.830184558654,-14615.962161536476,-34357.33578888605,0.0,0.0,0.0,193.0,0.0,194.0,0.0,0.0,0.0,179.0,194.0,0.0,179.0,1744420576.907367,0.0,2025-04-11 21:16:16.907,STOP,35
192.0,18964.717562761016,24946.290248190195,-31690.213881756532,-20621.406510043922,-35398.14476944742,-27164.6114784016,-14162.937004916312,-34330.69250949532,0.0,0.0,0.0,193.0,0.0,193.0,0.0,0.0,0.0,179.0,193.0,0.0,179.0,1744420576.9074488,0.0,2025-04-11 21:16:16.907,STOP,35
193.0,18964.985783694483,24927.31361714764,-31697.724067893516,-20639.958457941826,-35405.47614162876,-27176.636716918554,-14110.343350212974,-34391.980992791774,0.0,0.0,0.0,193.0,0.0,193.0,0.0,0.0,0.0,179.0,193.0,0.0,179.0,1744420576.9075067,0.0,2025-04-11 21:16:16.907,STOP,35
194.0,18946.61264975222,24936.343721907586,-31694.997155069967,-20627.910867680417,-35404.47031312827,-27166.667838891488,-14459.298784649229,-34389.70111485733,0.0,0.0,0.0,193.0,0.0,194.0,0.0,0.0,0.0,179.0,194.0,0.0,179.0,1744420576.9075782,0.0,2025-04-11 21:16:16.907,STOP,35
195.0,18945.584469507274,24947.40783541296,-31681.31788746332,-20614.32100705159,-35397.72008630277,-27157.57067889818,-14673.562606997803,-34390.32696370208,0.0,0.0,0.0,193.0,0.0,193.0,0.0,0.0,0.0,178.0,193.0,0.0,178.0,1744420576.907657,0.0,2025-04-11 21:16:16.907,STOP,35
196.0,18968.159731407133,24937.997750997278,-31689.275108489408,-20619.305446065122,-35404.135036961445,-27175.18385352896,-14265.710325921813,-34344.46118407979,0.0,0.0,0.0,193.0,0.0,194.0,0.0,0.0,0.0,179.0,194.0,0.0,179.0,1744420576.90772,0.0,2025-04-11 21:16:16.907,STOP,35
197.0,18972.85359774275,24924.564352579637,-31696.025335314913,-20641.09839690905,-35406.19139745133,-27182.76109489931,-14070.289024149064,-34380.179271719375,0.0,0.0,0.0,193.0,0.0,193.0,0.0,0.0,0.0,179.0,193.0,0.0,179.0,1744420576.9077873,0.0,2025-04-11 21:16:16.907,STOP,35
198.0,18953.340524833267,24924.631407813,-31688.068114288824,-20632.761196227217,-35394.03204846764,-27172.613402916602,-14374.920949330444,-34379.70988508581,0.0,0.0,0.0,193.0,0.0,193.0,0.0,0.0,0.0,179.0,193.0,0.0,179.0,1744420576.9078467,0.0,2025-04-11 21:16:16.907,STOP,35
199.0,18943.483405528477,24935.583762596103,-31676.46755891652,-20621.473565277287,-35383.48202508474,-27162.935097567453,-14643.6559729166,-34380.380437419466,0.0,0.0,0.0,193.0,0.0,193.0,0.0,0.0,0.0,179.0,193.0,0.0,179.0,1744420576.9079788,0.0,2025-04-11 21:16:16.907,STOP,35
200.0,18958.794350480362,24935.94139050739,-31681.54140490787,-20622.32293156659,-35391.059266455086,-27178.08958030815,-14347.495358883782,-34354.22889640676,0.0,0.0,0.0,193.0,0.0,193.0,0.0,0.0,0.0,179.0,193.0,0.0,179.0,1744420576.9080293,0.0,2025-04-11 21:16:16.908,STOP,35
201.0,18964.04701042736,24923.60322756806,-31698.37226848272,-20648.742693512762,-35409.54415911963,-27195.166313072004,-14048.764294238603,-34387.91297530091,0.0,0.0,0.0,193.0,0.0,193.0,0.0,0.0,0.0,179.0,193.0,0.0,179.0,1744420576.9080749,0.0,2025-04-11 21:16:16.908,STOP,35
202.0,18949.719542231505,24927.760652036748,-31685.45296018755,-20632.98471367177,-35388.824092009556,-27167.316039480695,-14339.404027390961,-34383.889661298956,0.0,0.0,0.0,193.0,0.0,194.0,0.0,0.0,0.0,179.0,194.0,0.0,179.0,1744420576.9083054,0.0,2025-04-11 21:16:16.908,STOP,35
203.0,18934.877983913182,24939.763538809246,-31679.93207930709,-20621.093585621547,-35379.86104248298,-27158.218879487384,-14638.42566471406,-34374.52428037218,0.0,0.0,0.0,193.0,0.0,193.0,0.0,0.0,0.0,178.0,193.0,0.0,178.0,1744420576.908357,0.0,2025-04-11 21:16:16.908,STOP,35
204.0,18958.257908613436,24947.87722204652,-31673.338314692777,-20612.644626217443,-35377.424702337354,-27163.71740862339,-14455.074304947175,-34357.581658075054,0.0,0.0,0.0,193.0,0.0,193.0,0.0,0.0,0.0,179.0,193.0,0.0,179.0,1744420576.9084136,0.0,2025-04-11 21:16:16.908,STOP,35
205.0,18969.769057007918,24936.656646329957,-31693.387829469186,-20637.388007329468,-35398.14476944742,-27186.47148447889,-14027.574840494972,-34354.161841173394,0.0,0.0,0.0,193.0,0.0,193.0,0.0,0.0,0.0,179.0,193.0,0.0,179.0,1744420576.9085069,0.0,2025-04-11 21:16:16.908,STOP,35
206.0,18951.060646898826,24924.944332235376,-31688.448093944564,-20632.51532703821,-35389.22642340975,-27168.701847636923,-14266.023250344188,-34382.01211476471,0.0,0.0,0.0,193.0,0.0,193.0,0.0,0.0,0.0,179.0,193.0,0.0,179.0,1744420576.9085765,0.0,2025-04-11 21:16:16.908,STOP,35
207.0,18929.08888209926,24932.007483483256,-31683.9777450535,-20622.41233854441,-35386.00777220819,-27155.626077130568,-14609.480155644436,-34370.97035300379,0.0,0.0,0.0,193.0,0.0,193.0,0.0,0.0,0.0,179.0,193.0,0.0,179.0,1744420576.9087625,0.0,2025-04-11 21:16:16.908,STOP,35
208.0,18949.965411420515,24945.351474923074,-31673.69594260406,-20612.488164006256,-35381.895051228414,-27156.296629464225,-14548.370486303627,-34367.34937040202,0.0,0.0,0.0,193.0,0.0,193.0,0.0,0.0,0.0,179.0,193.0,0.0,179.0,1744420576.9088202,0.0,2025-04-11 21:16:16.908,STOP,35
209.0,18974.93230997709,24940.165870209443,-31686.74936136596,-20628.76023396972,-35399.99996423721,-27181.37528674308,-14081.978986499189,-34368.645771580435,0.0,0.0,0.0,193.0,0.0,193.0,0.0,0.0,0.0,179.0,193.0,0.0,179.0,1744420576.9088745,0.0,2025-04-11 21:16:16.908,STOP,35
210.0,18962.460036571032,24924.966683979834,-31682.569585152818,-20629.117861881,-35395.44020836833,-27164.164443512494,-14222.9067352899,-34396.04901028264,0.0,0.0,0.0,193.0,0.0,194.0,0.0,0.0,0.0,180.0,194.0,0.0,180.0,1744420576.9089353,0.0,2025-04-11 21:16:16.908,STOP,35
211.0,18941.98583864997,24941.70814057686,-31674.455901915542,-20612.75638493972,-35388.399408864905,-27139.935152522943,-14559.747524231378,-34348.909181226394,0.0,0.0,0.0,193.0,0.0,193.0,0.0,0.0,0.0,179.0,193.0,0.0,179.0,1744420576.9090466,0.0,2025-04-11 21:16:16.909,STOP,35
212.0,18957.386190579677,24958.024914029233,-31661.60364885374,-20603.145134823935,-35376.06124592558,-27137.163536210483,-14592.001091480386,-34332.704166496296,0.0,0.0,0.0,193.0,0.0,194.0,0.0,0.0,0.0,179.0,194.0,0.0,179.0,1744420576.9091127,0.0,2025-04-11 21:16:16.909,STOP,35
213.0,18980.52024609092,24946.51376563475,-31676.691076361072,-20619.50661176522,-35398.681211314346,-27166.421969702482,-14118.658199150348,-34325.37279431496,0.0,0.0,0.0,193.0,0.0,194.0,0.0,0.0,0.0,179.0,194.0,0.0,179.0,1744420576.9092803,0.0,2025-04-11 21:16:16.909,STOP,35
214.0,18966.863330228727,24926.352492136062,-31682.010791541434,-20633.051768905138,-35401.94456600482,-27168.99242031484,-14165.507455528672,-34387.734161345266,0.0,0.0,0.0,193.0,0.0,193.0,0.0,0.0,0.0,179.0,193.0,0.0,179.0,1744420576.9093504,0.0,2025-04-11 21:16:16.909,STOP,35
215.0,18945.56211776282,24940.32233242063,-31672.243079214466,-20615.2150768298,-35390.634583310435,-27147.624152615568,-14514.932276598487,-34364.734216300756,0.0,0.0,0.0,193.0,0.0,194.0,0.0,0.0,0.0,179.0,194.0,0.0,179.0,1744420576.909406,0.0,2025-04-11 21:16:16.909,STOP,35
216.0,18949.876004442693,24953.66632386045,-31662.184794209577,-20609.47067850479,-35380.44218783882,-27146.685379348444,-14644.684153161545,-34360.75560578771,0.0,0.0,0.0,193.0,0.0,194.0,0.0,0.0,0.0,179.0,194.0,0.0,179.0,1744420576.9094625,0.0,2025-04-11 21:16:16.909,STOP,35
217.0,18977.56981582282,24954.02395177173,-31668.152709979146,-20616.287960563655,-35388.06413269808,-27162.979801056365,-14183.18768539282,-34309.12307609595,0.0,0.0,0.0,193.0,0.0,193.0,0.0,0.0,0.0,179.0,193.0,0.0,179.0,1744420576.9095943,0.0,2025-04-11 21:16:16.909,STOP,35
218.0,18980.006155968447,24939.47296613133,-31673.472425159507,-20637.18684162937,-35395.64137406843,-27169.819434859688,-14111.595047902472,-34368.064626224594,0.0,0.0,0.0,193.0,0.0,194.0,0.0,0.0,0.0,179.0,194.0,0.0,179.0,1744420576.909646,0.0,2025-04-11 21:16:16.909,STOP,35
219.0,18963.08588541578,24947.74311157979,-31668.085654745777,-20625.049844390138,-35392.64624031141,-27160.498757421825,-14470.407601643516,-34378.74876007423,0.0,0.0,0.0,193.0,0.0,193.0,0.0,0.0,0.0,179.0,193.0,0.0,179.0,1744420576.9096973,0.0,2025-04-11 21:16:16.909,STOP,35
220.0,18956.17919637909,24957.08614076211,-31658.139128463168,-20613.002254128725,-35385.91836523037,-27153.636771874044,-14690.080546150273,-34378.74876007423,0.0,0.0,0.0,193.0,0.0,193.0,0.0,0.0,0.0,179.0,193.0,0.0,179.0,1744420576.9097476,0.0,2025-04-11 21:16:16.909,STOP,35
221.0,18978.79916176786,24952.45932965986,-31667.59391636776,-20619.12663210948,-35400.715220059785,-27179.34127799765,-14313.185431144886,-34358.4086726199,0.0,0.0,0.0,193.0,0.0,193.0,0.0,0.0,0.0,179.0,193.0,0.0,179.0,1744420576.9097981,0.0,2025-04-11 21:16:16.909,STOP,35
222.0,18991.09262121828,24943.965666766842,-31671.93015479209,-20636.60569627353,-35404.51501661718,-27187.70083042393,-14099.368643685419,-34396.94308006085,0.0,0.0,0.0,193.0,0.0,193.0,0.0,0.0,0.0,179.0,193.0,0.0,179.0,1744420576.9099092,0.0,2025-04-11 21:16:16.909,STOP,35
223.0,18973.300632631854,24945.21736445634,-31661.626000598193,-20625.295713579144,-35390.656935054896,-27167.025466802774,-14405.9004671455,-34385.409579921914,0.0,0.0,0.0,193.0,0.0,194.0,0.0,0.0,0.0,179.0,194.0,0.0,179.0,1744420576.90996,0.0,2025-04-11 21:16:16.909,STOP,35
224.0,18956.67093475711,24952.682847104414,-31656.418044140108,-20619.68542572086,-35384.085522185036,-27158.218879487384,-14681.318662323793,-34377.362951918,0.0,0.0,0.0,193.0,0.0,193.0,0.0,0.0,0.0,179.0,193.0,0.0,179.0,1744420576.9100103,0.0,2025-04-11 21:16:16.910,STOP,35
225.0,18969.724353519006,24948.592477869093,-31662.162442465124,-20624.17812635638,-35383.90670822939,-27176.79317912974,-14400.80426940969,-34350.00441670471,0.0,0.0,0.0,193.0,0.0,193.0,0.0,0.0,0.0,178.0,193.0,0.0,178.0,1744420576.9100628,0.0,2025-04-11 21:16:16.910,STOP,35
226.0,18978.016850711927,24935.717873062837,-31674.142977493168,-20645.077007422093,-35396.155464190895,-27190.740667669856,-14073.753544539637,-34382.72737058728,0.0,0.0,0.0,193.0,0.0,193.0,0.0,0.0,0.0,180.0,193.0,0.0,180.0,1744420576.9101424,0.0,2025-04-11 21:16:16.910,STOP,35
227.0,18961.454208070543,24933.50505036176,-31658.630866841184,-20625.161603112414,-35373.021408679655,-27155.402559686016,-14334.665457566436,-34364.55540234511,0.0,0.0,0.0,193.0,0.0,193.0,0.0,0.0,0.0,179.0,193.0,0.0,179.0,1744420576.9101927,0.0,2025-04-11 21:16:16.910,STOP,35
228.0,18940.51062351592,24944.54681212268,-31650.047796970346,-20615.997387885738,-35358.403367805884,-27140.56100136769,-14630.982533810442,-34343.52241081267,0.0,0.0,0.0,193.0,0.0,193.0,0.0,0.0,0.0,179.0,193.0,0.0,179.0,1744420576.9103024,0.0,2025-04-11 21:16:16.910,STOP,35
229.0,18944.645696240153,24939.875297531522,-31660.329599419787,-20622.32293156659,-35369.71335050027,-27162.86804233409,-14466.920729508487,-34340.326111355556,0.0,0.0,0.0,193.0,0.0,193.0,0.0,0.0,0.0,180.0,193.0,0.0,180.0,1744420576.9103584,0.0,2025-04-11 21:16:16.910,STOP,35
230.0,18963.42116158261,24935.248486429275,-31677.093407761266,-20642.5736120431,-35384.219632651766,-27185.890339123052,-14048.965459938701,-34360.532088343156,0.0,0.0,0.0,193.0,0.0,193.0,0.0,0.0,0.0,179.0,193.0,0.0,179.0,1744420576.910416,0.0,2025-04-11 21:16:16.910,STOP,35
231.0,18959.621365025207,24928.632370070503,-31662.631829098682,-20626.90503917993,-35364.080710897535,-27160.923440566476,-14262.469322975794,-34387.60005087854,0.0,0.0,0.0,193.0,0.0,193.0,0.0,0.0,0.0,179.0,193.0,0.0,179.0,1744420576.9104707,0.0,2025-04-11 21:16:16.910,STOP,35
232.0,18938.431911281576,24936.902515518967,-31663.972933766003,-20618.433728031367,-35366.76292023217,-27150.41812067248,-14583.239207653905,-34361.47086161028,0.0,0.0,0.0,193.0,0.0,194.0,0.0,0.0,0.0,180.0,194.0,0.0,180.0,1744420576.9105487,0.0,2025-04-11 21:16:16.910,STOP,35
233.0,18944.399827051144,24940.814070798646,-31660.35195116424,-20612.912847150907,-35371.345027845506,-27154.37437944107,-14551.253861338362,-34356.553477830115,0.0,0.0,0.0,193.0,0.0,193.0,0.0,0.0,0.0,179.0,193.0,0.0,179.0,1744420576.9105952,0.0,2025-04-11 21:16:16.910,STOP,35
234.0,18964.67285927211,24929.705253804357,-31676.84753857226,-20628.916696180906,-35391.059266455086,-27178.558966941713,-14084.996472000656,-34349.758547515696,0.0,0.0,0.0,193.0,0.0,193.0,0.0,0.0,0.0,179.0,193.0,0.0,179.0,1744420576.9106412,0.0,2025-04-11 21:16:16.910,STOP,35
235.0,18951.351219576743,24911.26506462873,-31679.373285695707,-20634.974018928293,-35392.84740601151,-27173.596879672634,-14202.499592602206,-34394.73025735978,0.0,0.0,0.0,193.0,0.0,193.0,0.0,0.0,0.0,179.0,193.0,0.0,179.0,1744420576.9106855,0.0,2025-04-11 21:16:16.910,STOP,35
236.0,18933.670989712595,24931.64985557197,-31669.583221624285,-20615.058614618614,-35387.639449553426,-27147.713559593387,-14555.053657895764,-34363.594277333534,0.0,0.0,0.0,193.0,0.0,194.0,0.0,0.0,0.0,179.0,194.0,0.0,179.0,1744420576.91073,0.0,2025-04-11 21:16:16.910,STOP,35
237.0,18938.051931625836,24942.848079544077,-31662.117738976212,-20606.69906219233,-35383.660839040385,-27146.104233992606,-14613.503469646392,-34349.08799518204,0.0,0.0,0.0,193.0,0.0,193.0,0.0,0.0,0.0,179.0,193.0,0.0,179.0,1744420576.910801,0.0,2025-04-11 21:16:16.910,STOP,35
238.0,18968.31619361832,24945.016198756242,-31670.164366980123,-20615.12566985198,-35395.93194674634,-27165.840824346644,-14133.499757468673,-34324.61283500348,0.0,0.0,0.0,193.0,0.0,193.0,0.0,0.0,0.0,179.0,193.0,0.0,179.0,1744420576.910846,0.0,2025-04-11 21:16:16.910,STOP,35
239.0,18961.633022026184,24925.63723631349,-31671.3266576918,-20628.112033380516,-35397.09423745802,-27167.494853436336,-14163.831074694524,-34388.87410031249,0.0,0.0,0.0,193.0,0.0,194.0,0.0,0.0,0.0,179.0,194.0,0.0,179.0,1744420576.9108934,0.0,2025-04-11 21:16:16.910,STOP,35
240.0,18941.739969460963,24928.140631692488,-31668.510337890428,-20619.864239676506,-35390.43341761034,-27157.302457964714,-14507.667959650513,-34374.300762927625,0.0,0.0,0.0,193.0,0.0,194.0,0.0,0.0,0.0,179.0,194.0,0.0,179.0,1744420576.9109383,0.0,2025-04-11 21:16:16.910,STOP,35
241.0,18944.802158451337,24941.55167836567,-31658.094424974257,-20610.185934327357,-35385.24781289671,-27152.36272244009,-14664.443095260036,-34377.69822808483,0.0,0.0,0.0,193.0,0.0,193.0,0.0,0.0,0.0,179.0,193.0,0.0,179.0,1744420576.9109817,0.0,2025-04-11 21:16:16.910,STOP,35
242.0,18973.90412973215,24945.97732376782,-31665.381093666685,-20616.80205068613,-35395.52961534615,-27173.50747269481,-14239.67054363138,-34350.94318997183,0.0,0.0,0.0,193.0,0.0,193.0,0.0,0.0,0.0,179.0,193.0,0.0,179.0,1744420576.9110248,0.0,2025-04-11 21:16:16.911,STOP,35
243.0,18973.412391354133,24929.50408810426,-31673.51712864842,-20638.527946296686,-35396.937775246835,-27182.649336177034,-14116.735949127193,-34390.036391024165,0.0,0.0,0.0,193.0,0.0,194.0,0.0,0.0,0.0,179.0,194.0,0.0,179.0,1744420576.9110847,0.0,2025-04-11 21:16:16.911,STOP,35
244.0,18948.914879431115,24924.005558968256,-31671.438416414076,-20633.118824138503,-35391.5063013442,-27176.23438551836,-14438.981048939355,-34389.43289392387,0.0,0.0,0.0,193.0,0.0,193.0,0.0,0.0,0.0,179.0,193.0,0.0,179.0,1744420576.91113,0.0,2025-04-11 21:16:16.911,STOP,35
245.0,18938.99070489296,24931.40398638296,-31666.766901822913,-20629.60960025902,-35393.13797868943,-27173.842748861643,-14673.495551764436,-34389.745818346244,0.0,0.0,0.0,193.0,0.0,193.0,0.0,0.0,0.0,180.0,193.0,0.0,180.0,1744420576.9111764,0.0,2025-04-11 21:16:16.911,STOP,35
246.0,18964.002306938448,24930.331102649106,-31667.862137301225,-20627.217963602303,-35393.942641489826,-27178.22369077488,-14319.063939936632,-34343.27654162366,0.0,0.0,0.0,193.0,0.0,194.0,0.0,1.0,0.0,179.0,194.0,1.0,179.0,1744420576.9112208,0.0,2025-04-11 21:16:16.911,STOP,35
247.0,18969.031449440892,24916.316558875627,-31677.719256606015,-20644.74173125526,-35397.42951362485,-27185.935042611964,-14074.379393384384,-34365.695341312334,0.0,0.0,0.0,193.0,0.0,193.0,0.0,2.0,0.0,179.0,193.0,2.0,179.0,1744420576.9112868,0.0,2025-04-11 21:16:16.911,STOP,35
248.0,18947.909050930626,24917.590608309583,-31671.818396069815,-20636.73980674026,-35384.62196405196,-27175.966164584897,-14384.822772124146,-34384.62726886598,0.0,0.0,0.0,193.0,0.0,193.0,0.0,4.0,0.0,179.0,193.0,4.0,179.0,1744420576.911333,0.0,2025-04-11 21:16:16.911,STOP,35
249.0,18932.575754234287,24929.146460192977,-31664.352913421742,-20630.682483992874,-35376.307115114585,-27170.445283704437,-14658.206958557006,-34380.46984439729,0.0,0.0,0.0,193.0,0.0,194.0,0.0,5.0,0.0,179.0,194.0,5.0,179.0,1744420576.911379,0.0,2025-04-11 21:16:16.911,STOP,35
250.0,18963.13058890469,24936.343721907586,-31659.390826152663,-20622.41233854441,-35378.43053083784,-27174.692115150945,-14415.8022899392,-34351.81490800559,0.0,0.0,0.0,193.0,0.0,193.0,0.0,6.0,0.0,179.0,193.0,6.0,179.0,1744420576.9114296,0.0,2025-04-11 21:16:16.911,STOP,35
251.0,18975.75932452194,24927.000692725265,-31674.768826337917,-20643.33357135458,-35394.344972890016,-27194.29459503825,-14057.392067598352,-34369.18221344736,0.0,0.0,0.0,193.0,0.0,193.0,0.0,7.0,0.0,179.0,193.0,7.0,179.0,1744420576.9114747,0.0,2025-04-11 21:16:16.911,STOP,35
252.0,18954.36870507821,24917.70236703186,-31670.20907046903,-20638.03620791867,-35383.86200474048,-27182.38111524357,-14319.913306225933,-34396.7195626163,0.0,0.0,0.0,193.0,0.0,194.0,0.0,8.0,0.0,180.0,194.0,8.0,180.0,1744420576.9115386,0.0,2025-04-11 21:16:16.911,STOP,35
253.0,18935.973219391493,24929.437032870894,-31666.185756467075,-20629.386082814468,-35381.29155412812,-27174.110969795107,-14645.33235375075,-34394.015001537206,0.0,0.0,0.0,193.0,0.0,193.0,0.0,9.0,0.0,180.0,193.0,9.0,180.0,1744420576.9115844,0.0,2025-04-11 21:16:16.911,STOP,35
254.0,18952.111178888223,24940.098814976074,-31664.241154699466,-20624.692216478852,-35385.13605417443,-27179.833016375665,-14507.533849183781,-34383.77790257667,0.0,0.0,0.0,193.0,0.0,193.0,0.0,9.0,0.0,179.0,193.0,9.0,179.0,1744420576.9116297,0.0,2025-04-11 21:16:16.911,STOP,35
255.0,18971.557196564343,24929.951122993367,-31675.104102504745,-20638.080911407582,-35394.970821734765,-27189.041935091253,-14081.867227776913,-34380.22397520828,0.0,0.0,0.0,193.0,0.0,193.0,0.0,10.0,0.0,179.0,193.0,10.0,179.0,1744420576.9116745,0.0,2025-04-11 21:16:16.911,STOP,35
0.0,18955.821568467807,24911.73445126229,-31673.874756559704,-20636.94097244036,-35389.04760945411,-27174.870929106586,-14264.860959632511,-34397.7700946057,0.0,0.0,0.0,193.0,0.0,193.0,0.0,11.0,0.0,179.0,193.0,11.0,179.0,1744420576.911719,0.0,2025-04-11 21:16:16.911,STOP,35
1.0,18935.928515902582,24924.676111301913,-31666.208108211533,-20623.529925767176,-35381.64918203941,-27157.23540273135,-14607.200277709995,-34380.29103044165,0.0,0.0,0.0,193.0,0.0,193.0,0.0,11.0,0.0,179.0,193.0,11.0,179.0,1744420576.9117627,0.0,2025-04-11 21:16:16.911,STOP,35
2.0,18941.18117584958,24931.381634638507,-31657.13329996268,-20613.158716339913,-35371.277972612144,-27149.03231251625,-14566.967137690443,-34350.45145159381,0.0,0.0,0.0,193.0,0.0,193.0,0.0,11.0,0.0,179.0,193.0,11.0,179.0,1744420576.9118252,0.0,2025-04-11 21:16:16.911,STOP,35
3.0,18959.75547549194,24931.35928289405,-31672.243079214466,-20629.296675836646,-35385.51603383017,-27171.384056971558,-14078.0227277306,-34328.39027981643,0.0,0.0,0.0,193.0,0.0,193.0,0.0,12.0,0.0,180.0,193.0,12.0,180.0,1744420576.9118752,0.0,2025-04-11 21:16:16.911,STOP,35
4.0,18948.4231410531,24911.26506462873,-31678.434512428586,-20641.612487031518,-35391.03691471063,-27169.61826915959,-14180.28195861363,-34381.58743162006,0.0,0.0,0.0,193.0,0.0,193.0,0.0,12.0,0.0,179.0,193.0,12.0,179.0,1744420576.9119196,0.0,2025-04-11 21:16:16.911,STOP,35
5.0,18931.5699257338,24924.720814790824,-31672.26543095892,-20625.005140901227,-35386.07482744155,-27150.686341605946,-14531.517270984325,-34362.342579644035,0.0,0.0,0.0,193.0,0.0,193.0,0.0,13.0,0.0,179.0,193.0,13.0,179.0,1744420576.911978,0.0,2025-04-11 21:16:16.911,STOP,35
6.0,18939.951829904538,24944.1891842114,-31660.888393031168,-20609.69419594934,-35377.69292327081,-27141.61153335709,-14622.444167428515,-34358.58748657555,0.0,0.0,0.0,193.0,0.0,194.0,0.0,13.0,0.0,180.0,194.0,13.0,180.0,1744420576.9120228,0.0,2025-04-11 21:16:16.912,STOP,35
7.0,18960.157806892134,24948.771291824734,-31674.9252885491,-20618.74665245374,-35397.72008630277,-27162.532766167256,-14154.666859467849,-34321.84121869102,0.0,0.0,0.0,193.0,0.0,193.0,0.0,13.0,0.0,179.0,193.0,13.0,179.0,1744420576.9120672,0.0,2025-04-11 21:16:16.912,STOP,35
8.0,18958.436722569077,24920.36222462204,-31679.30623046234,-20634.88461195047,-35399.77644679266,-27171.004077315818,-14146.508472741662,-34375.99949550623,0.0,0.0,0.0,193.0,0.0,193.0,0.0,13.0,0.0,179.0,193.0,13.0,179.0,1744420576.9121108,0.0,2025-04-11 21:16:16.912,STOP,35
9.0,18928.597143721243,24913.388480351983,-31677.875718817202,-20630.03428340367,-35397.60832758049,-27164.52207142378,-14500.023663046797,-34378.27937344067,0.0,0.0,0.0,193.0,0.0,194.0,0.0,14.0,0.0,180.0,194.0,14.0,180.0,1744420576.912155,0.0,2025-04-11 21:16:16.912,STOP,35
10.0,18931.301704800335,24932.432166627907,-31659.79315755286,-20613.002254128725,-35382.23032739524,-27143.80200431371,-14675.931891910064,-34355.41353886289,0.0,0.0,0.0,193.0,0.0,193.0,0.0,14.0,0.0,179.0,193.0,14.0,179.0,1744420576.9122,0.0,2025-04-11 21:16:16.912,STOP,35
11.0,18965.410466839134,24936.589591096592,-31661.64835234265,-20616.4667745193,-35384.1525774184,-27156.989533542343,-14246.219604756787,-34313.07933486454,0.0,0.0,0.0,193.0,0.0,193.0,0.0,14.0,0.0,179.0,193.0,14.0,179.0,1744420576.9122696,0.0,2025-04-11 21:16:16.912,STOP,35
12.0,18969.61259479673,24923.670282801424,-31672.779521081393,-20641.09839690905,-35393.80853102309,-27176.86023436311,-14087.522219124106,-34367.863460524495,0.0,0.0,0.0,193.0,0.0,194.0,0.0,14.0,0.0,180.0,194.0,14.0,180.0,1744420576.9123144,0.0,2025-04-11 21:16:16.912,STOP,35
13.0,18947.97610616399,24929.191163681888,-31664.55407912184,-20625.22865834578,-35385.42662685235,-27162.17513825597,-14412.181307337441,-34365.38241688996,0.0,0.0,0.0,193.0,0.0,193.0,0.0,14.0,0.0,179.0,193.0,14.0,179.0,1744420576.9123583,0.0,2025-04-11 21:16:16.912,STOP,35
14.0,18936.152033347134,24943.049245244176,-31652.685302816073,-20612.801088428627,-35378.676400026845,-27155.268449219282,-14654.608327699701,-34368.53401285816,0.0,0.0,0.0,193.0,0.0,193.0,0.0,14.0,0.0,179.0,193.0,14.0,179.0,1744420576.9124026,0.0,2025-04-11 21:16:16.912,STOP,35
15.0,18956.89445220166,24947.810166813157,-31652.640599327162,-20610.32004479409,-35380.39748434991,-27169.484158692856,-14312.716044511324,-34335.54283804212,0.0,0.0,0.0,193.0,0.0,194.0,0.0,15.0,0.0,179.0,194.0,15.0,179.0,1744420576.9124465,0.0,2025-04-11 21:16:16.912,STOP,35
16.0,18961.14128364817,24923.22324791232,-31667.37039892321,-20637.41035907392,-35392.601536822505,-27189.824246147185,-14059.515483321606,-34379.62047810799,0.0,0.0,0.0,193.0,0.0,193.0,0.0,15.0,0.0,179.0,193.0,15.0,179.0,1744420576.9124904,0.0,2025-04-11 21:16:16.912,STOP,35
17.0,18949.250155597943,24921.16688742243,-31662.385959909676,-20628.17908861388,-35386.07482744155,-27171.406408716015,-14369.131847516519,-34382.36974267599,0.0,0.0,0.0,193.0,0.0,193.0,0.0,15.0,0.0,179.0,193.0,15.0,179.0,1744420576.9125488,0.0,2025-04-11 21:16:16.912,STOP,35
18.0,18931.100539100236,24933.192125939386,-31658.94379126356,-20621.920600166395,-35383.660839040385,-27161.102254522117,-14666.879435405664,-34375.32894317257,0.0,0.0,0.0,193.0,0.0,193.0,0.0,15.0,0.0,180.0,193.0,15.0,180.0,1744420576.9125938,0.0,2025-04-11 21:16:16.912,STOP,35
19.0,18946.098559629747,24936.924867263424,-31662.69888433205,-20618.925466409382,-35387.281821642144,-27169.640620904043,-14431.001476168809,-34349.758547515696,0.0,0.0,0.0,193.0,0.0,193.0,0.0,15.0,0.0,179.0,193.0,15.0,179.0,1744420576.912638,0.0,2025-04-11 21:16:16.912,STOP,35
20.0,18960.56013829233,24928.475907859316,-31679.55209965135,-20640.65136201994,-35406.4596183848,-27188.885472880065,-14067.495056092152,-34377.452358895825,0.0,0.0,0.0,193.0,0.0,193.0,0.0,15.0,0.0,180.0,193.0,15.0,180.0,1744420576.9126947,0.0,2025-04-11 21:16:16.912,STOP,35
21.0,18945.070379384804,24917.747070520767,-31675.707599605037,-20637.343303840556,-35396.021353724165,-27175.60853667361,-14329.658666808447,-34398.77592310619,0.0,0.0,0.0,193.0,0.0,194.0,0.0,15.0,0.0,180.0,194.0,15.0,180.0,1744420576.9127393,0.0,2025-04-11 21:16:16.912,STOP,35
22.0,18927.948943132036,24924.22907641281,-31668.108006490234,-20630.637780503963,-35382.85617623999,-27164.678533634968,-14642.650144416111,-34384.53786188816,0.0,0.0,0.0,193.0,0.0,193.0,0.0,15.0,0.0,179.0,193.0,15.0,179.0,1744420576.9127834,0.0,2025-04-11 21:16:16.912,STOP,35
23.0,18934.587411235265,24922.999730467767,-31671.438416414076,-20633.141175882956,-35387.1030076865,-27173.485120950358,-14536.725227442412,-34377.5641176181,0.0,0.0,0.0,193.0,0.0,193.0,0.0,15.0,0.0,179.0,193.0,15.0,179.0,1744420576.912828,0.0,2025-04-11 21:16:16.912,STOP,35
24.0,18951.686495743572,24913.433183840894,-31694.41600971413,-20657.50457733924,-35416.13792373394,-27196.082734594675,-14093.26661744912,-34367.57288784658,0.0,0.0,0.0,193.0,0.0,194.0,0.0,15.0,0.0,180.0,194.0,15.0,180.0,1744420576.912872,0.0,2025-04-11 21:16:16.912,STOP,35
25.0,18944.444530540055,24901.989090679777,-31690.392695712173,-20658.108074439537,-35408.8065515526,-27183.453998977424,-14278.942558639355,-34399.960565562316,0.0,0.0,0.0,193.0,0.0,193.0,0.0,15.0,0.0,180.0,193.0,15.0,180.0,1744420576.91293,0.0,2025-04-11 21:16:16.912,STOP,35
26.0,18923.5680012188,24909.0298901832,-31680.043838029367,-20645.479338822286,-35385.80660650809,-27164.23149874586,-14595.733832804422,-34362.67785581086,0.0,0.0,0.0,193.0,0.0,193.0,0.0,16.0,0.0,179.0,193.0,16.0,179.0,1744420576.9129748,0.0,2025-04-11 21:16:16.912,STOP,35
27.0,18927.70307394303,24910.750974506256,-31678.725085106504,-20644.451158577343,-35386.18658616383,-27174.669763406488,-14581.540475075302,-34364.510698856204,0.0,0.0,0.0,193.0,0.0,194.0,0.0,16.0,0.0,180.0,194.0,16.0,180.0,1744420576.9130192,0.0,2025-04-11 21:16:16.913,STOP,35
28.0,18953.22876611099,24914.707233274847,-31692.806684113348,-20656.766969772216,-35408.49362713023,-27203.7717346873,-14104.531896654595,-34361.82848952156,0.0,0.0,0.0,193.0,0.0,193.0,0.0,16.0,0.0,179.0,193.0,16.0,179.0,1744420576.9130633,0.0,2025-04-11 21:16:16.913,STOP,35
29.0,18946.41148405212,24902.324366846606,-31689.968012567522,-20659.94091748487,-35408.5606823636,-27200.776600930287,-14209.205115938797,-34421.66410942842,0.0,0.0,0.0,193.0,0.0,193.0,0.0,16.0,0.0,179.0,193.0,16.0,179.0,1744420576.9131076,0.0,2025-04-11 21:16:16.913,STOP,35
30.0,18930.854669911227,24909.20870413884,-31677.45103567255,-20639.332609097077,-35395.64137406843,-27179.318926253192,-14556.528873029814,-34394.28322247067,0.0,0.0,0.0,193.0,0.0,194.0,0.0,16.0,0.0,180.0,194.0,16.0,180.0,1744420576.9131522,0.0,2025-04-11 21:16:16.913,STOP,35
31.0,18937.157861847623,24929.817012526633,-31664.665837844117,-20622.702911222328,-35388.19824316481,-27163.67270513448,-14639.073865303262,-34373.27258268268,0.0,0.0,0.0,193.0,0.0,193.0,0.0,16.0,0.0,179.0,193.0,16.0,179.0,1744420576.913196,0.0,2025-04-11 21:16:16.913,STOP,35
32.0,18968.874987229705,24942.22223069933,-31670.946678036056,-20623.328760067077,-35398.457693869794,-27175.98851632935,-14176.012775422667,-34333.665291507874,0.0,0.0,0.0,193.0,0.0,193.0,0.0,16.0,0.0,179.0,193.0,16.0,179.0,1744420576.9132552,0.0,2025-04-11 21:16:16.913,STOP,35
33.0,18964.04701042736,24922.507992089748,-31674.522957148907,-20637.388007329468,-35399.70939155929,-27177.754304141323,-14135.779635403114,-34377.586469362555,0.0,0.0,0.0,193.0,0.0,193.0,0.0,16.0,0.0,179.0,193.0,16.0,179.0,1744420577.386303,0.0,2025-04-11 21:16:17.386,STOP,35
34.0,18938.722483959496,24919.959893221843,-31672.73481759248,-20626.12272812399,-35402.9056910164,-27162.130434767063,-14477.38134591357,-34363.70603605581,0.0,0.0,0.0,193.0,0.0,194.0,0.0,16.0,0.0,179.0,194.0,16.0,179.0,1744420577.3864737,0.0,2025-04-11 21:16:17.386,STOP,35
35.0,18943.03637063937,24938.377730653017,-31654.69695981705,-20606.31908253659,-35387.81826350907,-27143.51143163579,-14684.47025829199,-34355.905277240905,0.0,0.0,0.0,193.0,0.0,193.0,0.0,16.0,0.0,179.0,193.0,16.0,179.0,1744420577.3866305,0.0,2025-04-11 21:16:17.386,STOP,35
36.0,18971.3783826087,24951.520556392737,-31655.814547039816,-20604.64270170244,-35386.924193730854,-27159.18000449896,-14267.073782333588,-34316.633262232936,0.0,0.0,0.0,193.0,0.0,193.0,0.0,16.0,0.0,179.0,193.0,16.0,179.0,1744420577.3866785,0.0,2025-04-11 21:16:17.386,STOP,35
37.0,18977.36865012272,24936.589591096592,-31663.302381432342,-20622.099414122036,-35394.45673161229,-27168.14305402554,-14101.492059408673,-34370.00922799221,0.0,0.0,0.0,193.0,0.0,194.0,0.0,16.0,0.0,180.0,194.0,16.0,180.0,1744420577.386724,0.0,2025-04-11 21:16:17.386,STOP,35
38.0,18949.250155597943,24931.940428249887,-31659.83786104177,-20613.717509951297,-35383.19145240682,-27154.553193396714,-14414.37177829406,-34362.87902151096,0.0,0.0,0.0,193.0,0.0,193.0,0.0,16.0,0.0,179.0,193.0,16.0,179.0,1744420577.3867688,0.0,2025-04-11 21:16:17.386,STOP,35
39.0,18932.79927167884,24939.249448686773,-31657.088596473768,-20610.32004479409,-35377.514109315176,-27151.625114873066,-14653.557795710301,-34359.43685286485,0.0,0.0,0.0,193.0,0.0,193.0,0.0,16.0,0.0,179.0,193.0,16.0,179.0,1744420577.386814,0.0,2025-04-11 21:16:17.386,STOP,35
40.0,18957.22972836849,24946.960800523855,-31659.033198241377,-20610.811783172107,-35382.56560356207,-27164.45501619041,-14338.532309357204,-34332.05596590709,0.0,0.0,0.0,193.0,0.0,193.0,0.0,16.0,0.0,180.0,193.0,16.0,180.0,1744420577.3869915,0.0,2025-04-11 21:16:17.386,STOP,35
41.0,18971.1772169086,24936.097852718576,-31667.280991945387,-20630.19074561486,-35389.24877515421,-27175.630888418065,-14047.423189571286,-34353.42423360637,0.0,0.0,0.0,193.0,0.0,194.0,0.0,16.0,0.0,179.0,194.0,16.0,179.0,1744420577.387038,0.0,2025-04-11 21:16:17.387,STOP,35
42.0,18947.819643952804,24919.915189732932,-31665.69401808906,-20626.12272812399,-35383.34791461801,-27168.52303368128,-14345.818978049634,-34370.14333845894,0.0,0.0,0.0,193.0,0.0,193.0,0.0,16.0,0.0,179.0,193.0,16.0,179.0,1744420577.3870828,0.0,2025-04-11 21:16:17.387,STOP,35
43.0,18929.111233843712,24925.32431189112,-31656.59685809575,-20617.763175697706,-35370.42860632284,-27157.88360332055,-14656.016487600386,-34373.94313501634,0.0,0.0,0.0,193.0,0.0,194.0,0.0,16.0,0.0,180.0,194.0,16.0,180.0,1744420577.387128,0.0,2025-04-11 21:16:17.387,STOP,35
44.0,18948.51254803092,24930.532268349205,-31654.004055738937,-20612.55521923962,-35370.27214411165,-27162.778635356266,-14437.885813461044,-34339.78966948863,0.0,0.0,0.0,193.0,0.0,194.0,0.0,16.0,0.0,179.0,194.0,16.0,179.0,1744420577.3871727,0.0,2025-04-11 21:16:17.387,STOP,35
45.0,18970.37255410821,24929.772309037722,-31663.45884364353,-20626.815632202106,-35380.777464005645,-27176.23438551836,-14044.182186625265,-34350.809079505096,0.0,0.0,0.0,193.0,0.0,193.0,0.0,16.0,0.0,179.0,193.0,16.0,179.0,1744420577.3872187,0.0,2025-04-11 21:16:17.387,STOP,35
46.0,18953.340524833267,24917.568256565126,-31665.381093666685,-20629.207268858823,-35377.067074426064,-27173.596879672634,-14281.468305762804,-34392.49508291425,0.0,0.0,0.0,193.0,0.0,193.0,0.0,16.0,0.0,179.0,193.0,16.0,179.0,1744420577.387264,0.0,2025-04-11 21:16:17.387,STOP,35
47.0,18932.285181556366,24923.960855479345,-31662.45301514304,-20619.618370487497,-35376.77650174815,-27160.409350444002,-14625.79692909681,-34382.23563220926,0.0,0.0,0.0,193.0,0.0,194.0,0.0,16.0,0.0,180.0,194.0,16.0,180.0,1744420577.3873367,0.0,2025-04-11 21:16:17.387,STOP,35
48.0,18938.431911281576,24930.241695671284,-31662.900050032145,-20618.433728031367,-35380.375132605455,-27160.43170218846,-14519.067349322719,-34338.33680609904,0.0,0.0,0.0,193.0,0.0,194.0,0.0,17.0,0.0,180.0,194.0,17.0,180.0,1744420577.3873832,0.0,2025-04-11 21:16:17.387,STOP,35
49.0,18964.09171391627,24931.001654982767,-31673.91946004861,-20632.04594040465,-35390.634583310435,-27180.123589053583,-14066.198654913744,-34334.46995430827,0.0,0.0,0.0,193.0,0.0,193.0,0.0,17.0,0.0,179.0,193.0,17.0,179.0,1744420577.3874285,0.0,2025-04-11 21:16:17.387,STOP,35
50.0,18952.401751566144,24912.673224529415,-31682.99426829747,-20641.433673075877,-35397.04953396911,-27182.20230128793,-14221.319761433573,-34382.548556631635,0.0,0.0,0.0,193.0,0.0,194.0,0.0,17.0,0.0,180.0,194.0,17.0,180.0,1744420577.3874931,0.0,2025-04-11 21:16:17.387,STOP,35
51.0,18933.42512052359,24925.391367124485,-31680.043838029367,-20630.704835737328,-35395.127283945956,-27167.204280758415,-14580.802867508277,-34373.674914082876,0.0,0.0,0.0,193.0,0.0,194.0,0.0,17.0,0.0,180.0,194.0,17.0,180.0,1744420577.3875384,0.0,2025-04-11 21:16:17.387,STOP,35
52.0,18945.31624857381,24938.534192864205,-31671.50547164744,-20622.635855988963,-35389.33818213203,-27168.455978447913,-14608.809603310778,-34379.24049845225,0.0,0.0,0.0,193.0,0.0,193.0,0.0,17.0,0.0,179.0,193.0,17.0,179.0,1744420577.3875835,0.0,2025-04-11 21:16:17.387,STOP,35
53.0,18965.52222556141,24935.807280040655,-31686.2799747324,-20634.45992880582,-35409.70062133081,-27186.024449589786,-14122.592106174483,-34351.859611494496,0.0,0.0,0.0,193.0,0.0,194.0,0.0,17.0,0.0,180.0,194.0,17.0,180.0,1744420577.3876314,0.0,2025-04-11 21:16:17.387,STOP,35
54.0,18958.436722569077,24921.54686707817,-31686.25762298794,-20636.672751506896,-35410.59469110903,-27171.585222671656,-14196.95635997729,-34381.96741127579,0.0,0.0,0.0,193.0,0.0,194.0,0.0,17.0,0.0,180.0,194.0,17.0,180.0,1744420577.387691,0.0,2025-04-11 21:16:17.387,STOP,35
55.0,18932.35223678973,24931.918076505433,-31689.94566082307,-20630.257800848223,-35412.36047892099,-27162.59982140062,-14544.034247879297,-34368.69047506934,0.0,0.0,0.0,193.0,0.0,194.0,0.0,17.0,0.0,180.0,194.0,17.0,180.0,1744420577.3877916,0.0,2025-04-11 21:16:17.387,STOP,35
56.0,18934.45330076853,24938.109509719554,-31680.22265198501,-20623.306408322624,-35395.79783627961,-27156.788367842244,-14664.845426660231,-34367.77405354667,0.0,0.0,0.0,193.0,0.0,193.0,0.0,17.0,0.0,179.0,193.0,17.0,179.0,1744420577.38784,0.0,2025-04-11 21:16:17.387,STOP,35
57.0,18952.93819343307,24926.30778864715,-31694.639527158684,-20636.51628929571,-35404.51501661718,-27181.71056290991,-14194.005929709188,-34337.867419465474,0.0,0.0,0.0,193.0,0.0,194.0,0.0,17.0,0.0,179.0,194.0,17.0,179.0,1744420577.387886,0.0,2025-04-11 21:16:17.387,STOP,35
58.0,18946.36678056321,24909.186352394387,-31697.254681259954,-20652.18486215888,-35406.41491489588,-27185.28684202276,-14132.292763268086,-34390.75164684673,0.0,0.0,0.0,193.0,0.0,194.0,0.0,17.0,0.0,179.0,194.0,17.0,179.0,1744420577.387931,0.0,2025-04-11 21:16:17.387,STOP,35
59.0,18924.55147797483,24908.22522738281,-31696.584128926293,-20645.456987077832,-35408.314813174584,-27171.607574416113,-14476.263758690806,-34384.26964095469,0.0,0.0,0.0,193.0,0.0,193.0,0.0,17.0,0.0,179.0,193.0,17.0,179.0,1744420577.3879833,0.0,2025-04-11 21:16:17.387,STOP,35
60.0,18924.238553552455,24921.479811844805,-31684.536538664885,-20633.118824138503,-35399.70939155929,-27159.023542287774,-14689.789973472354,-34377.586469362555,0.0,0.0,0.0,193.0,0.0,194.0,0.0,17.0,0.0,180.0,194.0,17.0,180.0,1744420577.3880289,0.0,2025-04-11 21:16:17.388,STOP,35
61.0,18951.552385276842,24928.207686925853,-31687.017582299424,-20634.728149739283,-35403.53153986115,-27176.43555121846,-14292.73358496828,-34343.83533523504,0.0,0.0,0.0,193.0,0.0,193.0,0.0,17.0,0.0,179.0,193.0,17.0,179.0,1744420577.3880756,0.0,2025-04-11 21:16:17.388,STOP,35
62.0,18953.36287657772,24911.913265217932,-31698.193454527078,-20661.684353552384,-35408.29246143013,-27195.501589238836,-14102.184963486787,-34396.183120749374,0.0,0.0,0.0,193.0,0.0,193.0,0.0,17.0,0.0,179.0,193.0,17.0,179.0,1744420577.3881805,0.0,2025-04-11 21:16:17.388,STOP,35
63.0,18927.07722509828,24910.01336693923,-31696.494721948475,-20650.75435051374,-35404.000926494715,-27181.889376865554,-14419.08799637413,-34394.19381549285,0.0,0.0,0.0,193.0,0.0,194.0,0.0,17.0,0.0,180.0,194.0,17.0,180.0,1744420577.3882267,0.0,2025-04-11 21:16:17.388,STOP,35
64.0,18916.571905204288,24920.473983344316,-31689.275108489408,-20636.51628929571,-35394.836711268035,-27165.416141201993,-14677.921197166586,-34373.5631553606,0.0,0.0,0.0,193.0,0.0,193.0,0.0,17.0,0.0,179.0,193.0,17.0,179.0,1744420577.3882785,0.0,2025-04-11 21:16:17.388,STOP,35
65.0,18936.04027462486,24914.997805952768,-31694.550120180862,-20635.71162649532,-35397.94360374732,-27176.301440751726,-14374.160990018963,-34337.88977120993,0.0,0.0,0.0,193.0,0.0,193.0,0.0,17.0,0.0,179.0,193.0,17.0,179.0,1744420577.3883848,0.0,2025-04-11 21:16:17.388,STOP,35
66.0,18943.371646806198,24904.13485814749,-31707.380021498207,-20656.744618027762,-35406.88430152945,-27189.37721125808,-14062.376506611885,-34371.95382975982,0.0,0.0,0.0,193.0,0.0,194.0,0.0,17.0,0.0,179.0,194.0,17.0,179.0,1744420577.3884332,0.0,2025-04-11 21:16:17.388,STOP,35
67.0,18928.08305359877,24905.49831455926,-31696.673535904116,-20642.975943443293,-35395.52961534615,-27163.628001645568,-14353.440922908894,-34381.788597320156,0.0,0.0,0.0,193.0,0.0,194.0,0.0,17.0,0.0,180.0,194.0,17.0,180.0,1744420577.388481,0.0,2025-04-11 21:16:17.388,STOP,35
68.0,18912.392128991145,24916.584779809094,-31690.79502711237,-20635.46575730631,-35390.16519667688,-27157.213050986895,-14674.501380264925,-34382.16857697589,0.0,0.0,0.0,193.0,0.0,193.0,0.0,17.0,0.0,179.0,193.0,17.0,179.0,1744420577.3885288,0.0,2025-04-11 21:16:17.388,STOP,35
69.0,18932.240478067455,24922.619750812024,-31688.001059055456,-20630.213097359312,-35387.415932108874,-27159.33646671015,-14472.843941789144,-34339.856724722,0.0,0.0,0.0,193.0,0.0,193.0,0.0,17.0,0.0,179.0,193.0,17.0,179.0,1744420577.3885975,0.0,2025-04-11 21:16:17.388,STOP,35
70.0,18958.548481291353,24915.69071003088,-31698.886358605192,-20647.66980977891,-35396.60249908001,-27172.166368027494,-14055.045134430544,-34335.87811420895,0.0,0.0,0.0,193.0,0.0,194.0,0.0,17.0,0.0,180.0,194.0,17.0,180.0,1744420577.3887053,0.0,2025-04-11 21:16:17.388,STOP,35
71.0,18939.817719437804,24898.83749471158,-31702.261472017944,-20650.240260391267,-35396.82601652456,-27169.6629726485,-14276.036831860165,-34370.92564951487,0.0,0.0,0.0,193.0,0.0,193.0,0.0,17.0,0.0,179.0,193.0,17.0,179.0,1744420577.388758,0.0,2025-04-11 21:16:17.388,STOP,35
72.0,18920.63992269515,24910.9297884619,-31693.633698658195,-20637.343303840556,-35389.78521702113,-27158.107120765108,-14617.973818537454,-34365.15889944541,0.0,0.0,0.0,193.0,0.0,193.0,0.0,17.0,0.0,179.0,193.0,17.0,179.0,1744420577.3888056,0.0,2025-04-11 21:16:17.388,STOP,35
73.0,18936.08497811377,24926.0842712026,-31684.8271113428,-20627.37442581349,-35388.04178095362,-27159.31411496569,-14542.424922278515,-34345.80228874711,0.0,0.0,0.0,193.0,0.0,194.0,0.0,17.0,0.0,180.0,194.0,17.0,180.0,1744420577.3888497,0.0,2025-04-11 21:16:17.388,STOP,35
74.0,18960.38132433669,24927.91711424793,-31694.594823669773,-20639.89140270846,-35399.48587411474,-27180.056533820218,-14083.096573721956,-34335.67694850885,0.0,0.0,0.0,193.0,0.0,193.0,0.0,17.0,0.0,179.0,193.0,17.0,179.0,1744420577.3888934,0.0,2025-04-11 21:16:17.388,STOP,35
75.0,18945.249193340445,24909.812201239136,-31699.26633826093,-20649.815577246616,-35401.609289837994,-27181.822321632186,-14226.661828358392,-34389.07526601258,0.0,0.0,0.0,193.0,0.0,194.0,0.0,17.0,0.0,180.0,194.0,17.0,180.0,1744420577.3889377,0.0,2025-04-11 21:16:17.388,STOP,35
76.0,18920.952847117525,24916.853000742558,-31693.209015513545,-20637.008027673724,-35396.49074035773,-27164.72323712388,-14586.904893744577,-34373.1608239604,0.0,0.0,0.0,193.0,0.0,194.0,0.0,17.0,0.0,180.0,194.0,17.0,180.0,1744420577.3890471,0.0,2025-04-11 21:16:17.389,STOP,35
77.0,18930.094710599747,24923.7820415237,-31680.69203861857,-20624.2675333342,-35388.57822282055,-27157.973010298374,-14629.440263443026,-34352.86543999499,0.0,0.0,0.0,193.0,0.0,193.0,0.0,17.0,0.0,179.0,193.0,17.0,179.0,1744420577.3890986,0.0,2025-04-11 21:16:17.389,STOP,35
78.0,18961.297745859356,24924.720814790824,-31686.861120088237,-20630.257800848223,-35393.47325485626,-27178.08958030815,-14123.75439688616,-34317.50498026669,0.0,0.0,0.0,193.0,0.0,193.0,0.0,17.0,0.0,179.0,193.0,17.0,179.0,1744420577.3891485,0.0,2025-04-11 21:16:17.389,STOP,35
79.0,18960.671897014607,24907.39821283796,-31692.136131779687,-20644.652324277442,-35401.139903204436,-27178.80483613072,-14148.967164631746,-34371.84207103754,0.0,0.0,0.0,193.0,0.0,194.0,0.0,17.0,0.0,180.0,194.0,17.0,180.0,1744420577.3892047,0.0,2025-04-11 21:16:17.389,STOP,35
80.0,18940.93530666057,24923.335006634596,-31686.302326476853,-20633.364693327512,-35398.323583403064,-27164.05268479022,-14524.185898802985,-34368.73517855825,0.0,0.0,0.0,193.0,0.0,194.0,0.0,17.0,0.0,179.0,194.0,17.0,179.0,1744420577.389334,0.0,2025-04-11 21:16:17.389,STOP,35
81.0,18939.147167104147,24934.242657928786,-31675.528785649396,-20622.926428666884,-35387.1030076865,-27159.13530101005,-14661.783237669855,-34365.628286078965,0.0,0.0,0.0,193.0,0.0,193.0,0.0,17.0,0.0,179.0,193.0,17.0,179.0,1744420577.3893979,0.0,2025-04-11 21:16:17.389,STOP,35
82.0,18960.38132433669,24926.955989236354,-31686.548195665862,-20630.74953922624,-35398.70356305881,-27178.402504730526,-14204.578304836548,-34338.4038613324,0.0,0.0,0.0,193.0,0.0,193.0,0.0,17.0,0.0,179.0,193.0,17.0,179.0,1744420577.3894608,0.0,2025-04-11 21:16:17.389,STOP,35
83.0,18957.117969646213,24918.037643198688,-31692.784332368894,-20645.591097544562,-35407.53250211865,-27176.90493785202,-14117.853536349958,-34381.25215545323,0.0,0.0,0.0,193.0,0.0,194.0,0.0,17.0,0.0,180.0,194.0,17.0,180.0,1744420577.3895228,0.0,2025-04-11 21:16:17.389,STOP,35
84.0,18937.850765925738,24925.614884569037,-31681.586108396783,-20627.776757213684,-35391.23808041073,-27153.837937574142,-14451.207453156407,-34348.03746319264,0.0,0.0,0.0,193.0,0.0,193.0,0.0,17.0,0.0,179.0,193.0,17.0,179.0,1744420577.3895955,0.0,2025-04-11 21:16:17.389,STOP,35
85.0,18928.150108832135,24932.119242205532,-31676.64637287216,-20618.45607977582,-35384.219632651766,-27150.28401020575,-14657.268185289882,-34345.154088157906,0.0,0.0,0.0,193.0,0.0,193.0,0.0,17.0,0.0,179.0,193.0,17.0,179.0,1744420577.3897872,0.0,2025-04-11 21:16:17.389,STOP,35
86.0,18946.679704985585,24926.710120047348,-31689.11864627822,-20625.161603112414,-35397.58597583604,-27171.562870927202,-14289.626692488991,-34323.405840802894,0.0,0.0,0.0,193.0,0.0,194.0,0.0,17.0,0.0,180.0,194.0,17.0,180.0,1744420577.3898692,0.0,2025-04-11 21:16:17.389,STOP,35
87.0,18952.37939982169,24908.60520703855,-31696.718239393027,-20643.84766147705,-35402.302193916104,-27179.363629742104,-14087.36575691292,-34366.56705934609,0.0,0.0,0.0,193.0,0.0,193.0,0.0,17.0,0.0,179.0,193.0,17.0,179.0,1744420577.3899355,0.0,2025-04-11 21:16:17.389,STOP,35
88.0,18920.304646528322,24900.089192401076,-31702.060306317846,-20641.70189400934,-35400.82697878206,-27168.925365081475,-14390.32130126015,-34363.594277333534,0.0,0.0,0.0,193.0,0.0,193.0,0.0,17.0,0.0,179.0,193.0,17.0,179.0,1744420577.3900344,0.0,2025-04-11 21:16:17.390,STOP,35
89.0,18917.264809282402,24920.429279855405,-31685.542367165373,-20623.753443211728,-35383.41496985137,-27147.333579937647,-14666.007717371907,-34346.85282073651,0.0,0.0,0.0,193.0,0.0,194.0,0.0,17.0,0.0,180.0,194.0,17.0,180.0,1744420577.390118,0.0,2025-04-11 21:16:17.390,STOP,35
90.0,18937.582544992274,24921.92684673391,-31685.497663676462,-20618.50078326473,-35385.538385574626,-27158.80002484322,-14387.549684947693,-34321.7518117132,0.0,0.0,0.0,193.0,0.0,194.0,0.0,17.0,0.0,180.0,194.0,17.0,180.0,1744420577.3902736,0.0,2025-04-11 21:16:17.390,STOP,35
91.0,18945.69622822955,24911.198009395364,-31705.16719879713,-20646.105187667035,-35402.07867647155,-27183.901033866532,-14059.046096688046,-34368.913992513895,0.0,0.0,0.0,193.0,0.0,193.0,0.0,17.0,0.0,179.0,193.0,17.0,179.0,1744420577.3906424,0.0,2025-04-11 21:16:17.390,STOP,35
92.0,18926.69724544254,24907.59937853806,-31699.534559194395,-20637.79033872966,-35393.74147578973,-27163.51624292329,-14343.31558267064,-34384.33669618806,0.0,0.0,0.0,193.0,0.0,194.0,0.0,17.0,0.0,180.0,194.0,17.0,180.0,1744420577.390704,0.0,2025-04-11 21:16:17.390,STOP,35
93.0,18917.60008544923,24921.323349633618,-31686.637602643685,-20618.679597220373,-35382.00680995069,-27138.37053041107,-14653.647202688124,-34346.76341375869,0.0,0.0,0.0,193.0,0.0,193.0,0.0,17.0,0.0,179.0,193.0,17.0,179.0,1744420577.3907516,0.0,2025-04-11 21:16:17.390,STOP,35
94.0,18935.25796356892,24925.905457246954,-31683.55306190885,-20611.996425628236,-35376.016542436664,-27143.69024559143,-14470.273491176784,-34308.60898597348,0.0,0.0,0.0,193.0,0.0,193.0,0.0,17.0,0.0,180.0,193.0,17.0,180.0,1744420577.3908014,0.0,2025-04-11 21:16:17.390,STOP,35
95.0,18944.980972406982,24914.461364085837,-31703.021431329424,-20634.012893916715,-35398.14476944742,-27167.316039480695,-14038.817767955992,-34309.41364877387,0.0,0.0,0.0,193.0,0.0,194.0,0.0,17.0,0.0,180.0,194.0,17.0,180.0,1744420577.3908827,0.0,2025-04-11 21:16:17.390,STOP,35
96.0,18928.999475121436,24900.066840656622,-31696.3829632262,-20629.18491711437,-35391.66276355538,-27153.94969629642,-14258.758933396213,-34349.51267832669,0.0,0.0,0.0,193.0,0.0,193.0,0.0,17.0,0.0,179.0,193.0,17.0,179.0,1744420577.3909326,0.0,2025-04-11 21:16:17.390,STOP,35
97.0,18911.721576657485,24920.049300199666,-31687.93400382209,-20614.41041402941,-35384.73372277424,-27142.41619615748,-14608.541382377314,-34343.388300345934,0.0,0.0,0.0,193.0,0.0,193.0,0.0,17.0,0.0,179.0,193.0,17.0,179.0,1744420577.390983,0.0,2025-04-11 21:16:17.390,STOP,35
98.0,18928.820661165795,24931.202820682865,-31681.027314785402,-20607.16844882589,-35378.16230990438,-27142.41619615748,-14548.236375836896,-34321.528294268646,0.0,0.0,0.0,193.0,0.0,194.0,0.0,17.0,0.0,180.0,194.0,17.0,180.0,1744420577.3910308,0.0,2025-04-11 21:16:17.391,STOP,35
99.0,18950.144225376156,24927.403024125462,-31696.94175683758,-20627.08385313557,-35396.75896129119,-27169.081827292663,-14079.07325972,-34324.724593725754,0.0,0.0,0.0,193.0,0.0,193.0,0.0,17.0,0.0,179.0,193.0,17.0,179.0,1744420577.3910773,0.0,2025-04-11 21:16:17.391,STOP,35
100.0,18936.487309513966,24915.668358286424,-31693.007849813446,-20629.050806647636,-35387.7512082757,-27153.636771874044,-14200.443232112317,-34358.94511448683,0.0,0.0,0.0,193.0,0.0,193.0,0.0,17.0,0.0,179.0,193.0,17.0,179.0,1744420577.3911438,0.0,2025-04-11 21:16:17.391,STOP,35
101.0,18917.443623238043,24924.854925257558,-31689.029239300402,-20614.835097174062,-35384.75607451869,-27134.816603042676,-14540.525023999815,-34329.7537362282,0.0,0.0,0.0,193.0,0.0,194.0,0.0,17.0,0.0,180.0,194.0,17.0,180.0,1744420577.39119,0.0,2025-04-11 21:16:17.391,STOP,35
102.0,18924.909105886116,24934.68969281789,-31679.373285695707,-20607.056690103615,-35384.01846695167,-27137.52116412177,-14602.417004396559,-34330.49134379523,0.0,0.0,0.0,193.0,0.0,194.0,0.0,17.0,0.0,180.0,194.0,17.0,180.0,1744420577.391236,0.0,2025-04-11 21:16:17.391,STOP,35
103.0,18952.08882714377,24932.8344980281,-31688.73866662248,-20620.51244026571,-35399.08354271454,-27167.740722625345,-14137.478367981717,-34321.05890763508,0.0,0.0,0.0,193.0,0.0,193.0,0.0,17.0,0.0,179.0,193.0,17.0,179.0,1744420577.3912823,0.0,2025-04-11 21:16:17.391,STOP,35
104.0,18947.774940463896,24914.103736174555,-31687.88930033318,-20632.112995638014,-35395.35080139051,-27166.846652847133,-14156.052667624077,-34375.15012921693,0.0,0.0,0.0,193.0,0.0,194.0,0.0,17.0,0.0,180.0,194.0,17.0,180.0,1744420577.3913376,0.0,2025-04-11 21:16:17.391,STOP,35
105.0,18924.79734716384,24921.59157056708,-31678.83684382878,-20616.22090533029,-35383.72789427375,-27146.283047948247,-14489.96537804191,-34336.14633514242,0.0,0.0,0.0,193.0,0.0,194.0,0.0,17.0,0.0,180.0,194.0,17.0,180.0,1744420577.391389,0.0,2025-04-11 21:16:17.391,STOP,35
106.0,18930.429986766576,24934.712044562348,-31663.1235674767,-20600.619387700484,-35373.177870890846,-27138.41523389998,-14640.862004859688,-34327.78678271613,0.0,0.0,0.0,193.0,0.0,193.0,0.0,17.0,0.0,179.0,193.0,17.0,179.0,1744420577.3915136,0.0,2025-04-11 21:16:17.391,STOP,35
107.0,18953.854614955737,24943.384521411004,-31672.33248619229,-20604.30742553561,-35386.56656581957,-27158.5094521653,-14207.148755448909,-34300.74117192521,0.0,0.0,0.0,193.0,0.0,194.0,0.0,17.0,0.0,180.0,194.0,17.0,180.0,1744420577.391592,0.0,2025-04-11 21:16:17.391,STOP,35
108.0,18951.32886783229,24928.878239259513,-31684.447131687062,-20628.201440358334,-35393.80853102309,-27168.701847636923,-14083.968291755713,-34345.66817828038,0.0,0.0,0.0,193.0,0.0,194.0,0.0,17.0,0.0,180.0,194.0,17.0,180.0,1744420577.391668,0.0,2025-04-11 21:16:17.391,STOP,35
109.0,18930.98878037796,24922.999730467767,-31682.16725375262,-20619.84188793205,-35390.925155988356,-27152.094501506628,-14422.843089442622,-34343.544762557125,0.0,0.0,0.0,193.0,0.0,193.0,0.0,17.0,0.0,179.0,193.0,17.0,179.0,1744420577.3918757,0.0,2025-04-11 21:16:17.391,STOP,35
110.0,18924.305608785824,24928.31944564813,-31674.254736215444,-20612.13053609497,-35382.9008797289,-27148.004132271308,-14663.70548769301,-34354.67593129587,0.0,0.0,0.0,193.0,0.0,194.0,0.0,17.0,0.0,180.0,194.0,17.0,180.0,1744420577.3919723,0.0,2025-04-11 21:16:17.391,STOP,35
111.0,18943.572812506296,24928.766480537237,-31681.07201827431,-20610.02947211617,-35391.17102517736,-27157.861251576098,-14312.514878811227,-34317.683794222336,0.0,0.0,0.0,193.0,0.0,194.0,0.0,17.0,0.0,180.0,194.0,17.0,180.0,1744420577.3920708,0.0,2025-04-11 21:16:17.392,STOP,35
112.0,18949.22780385349,24912.13678266249,-31688.448093944564,-20628.55906826962,-35390.58987982153,-27161.43753068895,-14071.317204394009,-34343.50005906821,0.0,0.0,0.0,193.0,0.0,193.0,0.0,17.0,0.0,179.0,193.0,17.0,179.0,1744420577.3921552,0.0,2025-04-11 21:16:17.392,STOP,35
113.0,18925.154975075126,24910.482753572793,-31687.218747999523,-20625.496879279242,-35384.57726056305,-27154.84376607463,-14376.574978420136,-34363.84014652254,0.0,0.0,0.0,193.0,0.0,193.0,0.0,17.0,0.0,179.0,193.0,17.0,179.0,1744420577.3922372,0.0,2025-04-11 21:16:17.392,STOP,35
114.0,18909.687567912053,24922.150364178466,-31679.395637440164,-20614.209248329313,-35376.48592907023,-27137.096480977118,-14666.119476094185,-34343.4553555793,0.0,0.0,0.0,193.0,0.0,194.0,0.0,17.0,0.0,180.0,194.0,17.0,180.0,1744420577.3923292,0.0,2025-04-11 21:16:17.392,STOP,35
115.0,18939.54949850434,24931.89572476098,-31673.338314692777,-20603.480410990767,-35371.65795226788,-27136.33652166564,-14392.668234427958,-34294.30386952208,0.0,0.0,0.0,193.0,0.0,193.0,0.0,17.0,0.0,179.0,193.0,17.0,179.0,1744420577.3923752,0.0,2025-04-11 21:16:17.392,STOP,35
116.0,18956.246251612458,24917.232980398298,-31694.37130622522,-20630.973056670795,-35395.48491185724,-27164.05268479022,-14039.376561567375,-34325.998643159706,0.0,0.0,0.0,193.0,0.0,193.0,0.0,17.0,0.0,180.0,193.0,17.0,180.0,1744420577.39242,0.0,2025-04-11 21:16:17.392,STOP,35
117.0,18933.089844356757,24906.705308759847,-31690.392695712173,-20628.424957802887,-35384.53255707414,-27153.033274773752,-14317.387559102484,-34359.52625984267,0.0,0.0,0.0,193.0,0.0,194.0,0.0,17.0,0.0,180.0,194.0,17.0,180.0,1744420577.392465,0.0,2025-04-11 21:16:17.392,STOP,35
118.0,18914.292027269847,24918.64114029898,-31685.855291587748,-20624.40164380093,-35374.13899590242,-27150.46282416139,-14620.27604821635,-34351.4572800943,0.0,0.0,0.0,193.0,0.0,193.0,0.0,17.0,0.0,179.0,193.0,17.0,179.0,1744420577.3925104,0.0,2025-04-11 21:16:17.392,STOP,35
119.0,18927.367797776198,24919.93754147739,-31685.69882937656,-20622.54644901114,-35377.75997850418,-27158.57650739867,-14488.82543907469,-34341.153125900404,0.0,0.0,0.0,193.0,0.0,193.0,0.0,17.0,0.0,179.0,193.0,17.0,179.0,1744420577.3925564,0.0,2025-04-11 21:16:17.392,STOP,35
120.0,18949.65248699814,24915.623654797513,-31693.767809124925,-20638.3714840855,-35386.63362105294,-27175.452074462424,-14053.34640185194,-34338.292102610125,0.0,0.0,0.0,193.0,0.0,194.0,0.0,17.0,0.0,180.0,194.0,17.0,180.0,1744420577.3926055,0.0,2025-04-11 21:16:17.392,STOP,35
121.0,18923.970332618992,24898.010480166733,-31700.495684205973,-20648.85445223504,-35394.970821734765,-27180.212996031405,-14243.872671588979,-34384.31434444361,0.0,0.0,0.0,193.0,0.0,193.0,0.0,17.0,0.0,179.0,193.0,17.0,179.0,1744420577.393276,0.0,2025-04-11 21:16:17.393,STOP,35
122.0,18897.17059101708,24905.45361107035,-31697.925233593614,-20641.925411453893,-35393.0038682227,-27172.47929244987,-14590.369414135148,-34374.74779781673,0.0,0.0,0.0,193.0,0.0,193.0,0.0,17.0,0.0,180.0,193.0,17.0,180.0,1744420577.3933437,0.0,2025-04-11 21:16:17.393,STOP,35
123.0,18910.045195823335,24913.88021873,-31688.202224755554,-20631.46479504881,-35386.99124896422,-27169.305344737215,-14567.458876068458,-34355.838222007544,0.0,0.0,0.0,193.0,0.0,194.0,0.0,17.0,0.0,180.0,194.0,17.0,180.0,1744420577.3933911,0.0,2025-04-11 21:16:17.393,STOP,35
124.0,18944.735103217972,24919.93754147739,-31689.208053256043,-20631.353036326534,-35392.55683333359,-27175.94381284044,-14089.533876125084,-34330.75956472869,0.0,0.0,0.0,193.0,0.0,193.0,0.0,17.0,0.0,179.0,193.0,17.0,179.0,1744420577.3935287,0.0,2025-04-11 21:16:17.393,STOP,35
125.0,18937.69430371455,24904.716003503323,-31687.866948588726,-20633.387045071966,-35391.72981878875,-27163.985629556853,-14184.014699937667,-34365.40476863441,0.0,0.0,0.0,193.0,0.0,193.0,0.0,17.0,0.0,179.0,193.0,17.0,179.0,1744420577.393577,0.0,2025-04-11 21:16:17.393,STOP,35
126.0,18922.3163035293,24923.580875823605,-31677.36162869473,-20615.483297763265,-35380.933926216836,-27143.71259733589,-14531.919602384522,-34347.61278004799,0.0,0.0,0.0,193.0,0.0,194.0,0.0,17.0,0.0,180.0,194.0,17.0,180.0,1744420577.393625,0.0,2025-04-11 21:16:17.393,STOP,35
127.0,18937.98487639247,24951.498204648284,-31657.535631362873,-20593.489181219244,-35364.348931830995,-27127.596989583613,-14614.106966746685,-34327.49621003821,0.0,0.0,0.0,193.0,0.0,193.0,0.0,17.0,0.0,179.0,193.0,17.0,179.0,1744420577.3936734,0.0,2025-04-11 21:16:17.393,STOP,35
128.0,18958.10144640225,24950.98411452581,-31672.13132049219,-20601.915788878894,-35383.68319078484,-27154.84376607463,-14132.203356290265,-34297.678982934834,0.0,0.0,0.0,193.0,0.0,194.0,0.0,17.0,0.0,180.0,194.0,17.0,180.0,1744420577.393721,0.0,2025-04-11 21:16:17.393,STOP,35
129.0,18946.65735324113,24926.866582258535,-31683.307192719843,-20619.953646654325,-35394.23321416774,-27163.67270513448,-14126.235440520697,-34365.784748290156,0.0,0.0,0.0,193.0,0.0,193.0,0.0,17.0,0.0,179.0,193.0,17.0,179.0,1744420577.393826,0.0,2025-04-11 21:16:17.393,STOP,35
130.0,18928.373626276687,24929.325274148618,-31679.105064762243,-20610.40945177191,-35387.974725720254,-27148.115890993584,-14473.827418545177,-34346.27167538067,0.0,0.0,0.0,193.0,0.0,193.0,0.0,17.0,0.0,179.0,193.0,17.0,179.0,1744420577.393878,0.0,2025-04-11 21:16:17.393,STOP,35
131.0,18937.56019324782,24947.27372494623,-31658.40734939663,-20595.389079497945,-35370.54036504512,-27130.03332972924,-14654.988307355441,-34336.88394270944,0.0,0.0,0.0,193.0,0.0,194.0,0.0,17.0,0.0,180.0,194.0,17.0,180.0,1744420577.3939288,0.0,2025-04-11 21:16:17.393,STOP,35
132.0,18959.55430979184,24944.79268131169,-31665.716369833517,-20597.467791732288,-35381.44801633931,-27146.55126888171,-14230.349866193517,-34294.192110799806,0.0,0.0,0.0,193.0,0.0,193.0,0.0,17.0,0.0,179.0,193.0,17.0,179.0,1744420577.3939774,0.0,2025-04-11 21:16:17.393,STOP,35
133.0,18957.587356279775,24925.547829335672,-31677.78631183938,-20620.244219332246,-35396.647202568915,-27159.85055683262,-14097.893428551368,-34348.79742250412,0.0,0.0,0.0,193.0,0.0,193.0,0.0,17.0,0.0,179.0,193.0,17.0,179.0,1744420577.3940437,0.0,2025-04-11 21:16:17.394,STOP,35
134.0,18935.570887991296,24925.07844270211,-31675.729951349495,-20611.482335505767,-35389.67345829886,-27144.74077758083,-14422.32899932015,-34341.577809045055,0.0,0.0,0.0,193.0,0.0,194.0,0.0,17.0,0.0,180.0,194.0,17.0,180.0,1744420577.3940952,0.0,2025-04-11 21:16:17.394,STOP,35
135.0,18923.12096632969,24939.584724853605,-31667.21393671202,-20603.391004012945,-35366.29353359861,-27133.60960884209,-14632.502452433402,-34326.28921583763,0.0,0.0,0.0,193.0,0.0,193.0,0.0,17.0,0.0,179.0,193.0,17.0,179.0,1744420577.394152,0.0,2025-04-11 21:16:17.394,STOP,35
136.0,18949.160748620125,24951.587611626102,-31670.387884424676,-20601.692271434342,-35367.90285919939,-27139.018731000273,-14293.158268112931,-34290.83934913151,0.0,0.0,0.0,193.0,0.0,193.0,0.0,17.0,0.0,179.0,193.0,17.0,179.0,1744420577.3944595,0.0,2025-04-11 21:16:17.394,STOP,35
137.0,18949.004286408937,24928.811184026144,-31690.571509667818,-20629.296675836646,-35386.14188267492,-27158.28593472075,-14036.269669088088,-34331.40776531789,0.0,0.0,0.0,193.0,0.0,194.0,0.0,17.0,0.0,180.0,194.0,17.0,180.0,1744420577.39452,0.0,2025-04-11 21:16:17.394,STOP,35
138.0,18929.781786177373,24915.713061775336,-31689.766846867427,-20621.920600166395,-35382.83382449554,-27142.125623479562,-14347.36124841705,-34344.39412884643,0.0,0.0,0.0,193.0,0.0,193.0,0.0,17.0,0.0,179.0,193.0,17.0,179.0,1744420577.394572,0.0,2025-04-11 21:16:17.394,STOP,35
139.0,18923.32213202979,24930.77813753821,-31681.340239207777,-20609.671844204884,-35370.31684760057,-27124.04306221522,-14638.068036802773,-34324.83635244803,0.0,0.0,0.0,193.0,0.0,193.0,0.0,17.0,0.0,179.0,193.0,17.0,179.0,1744420577.394672,0.0,2025-04-11 21:16:17.394,STOP,35
140.0,18942.522280516896,24931.292227660684,-31681.809625841335,-20606.229675558767,-35372.730836001734,-27136.962370510384,-14393.696414672902,-34298.34953526849,0.0,0.0,0.0,193.0,0.0,194.0,0.0,17.0,0.0,179.0,194.0,17.0,179.0,1744420577.394725,0.0,2025-04-11 21:16:17.394,STOP,35
141.0,18958.548481291353,24925.391367124485,-31692.493759690973,-20623.351111811535,-35385.80660650809,-27155.111987008095,-14029.407683540307,-34326.959768171284,0.0,0.0,0.0,193.0,0.0,193.0,0.0,17.0,0.0,179.0,193.0,17.0,179.0,1744420577.394774,0.0,2025-04-11 21:16:17.394,STOP,35
142.0,18941.494100271953,24918.752899021256,-31692.51611143543,-20619.730129209773,-35384.979591963245,-27144.003170013806,-14288.263236077219,-34356.12879468546,0.0,0.0,0.0,193.0,0.0,193.0,0.0,17.0,0.0,179.0,193.0,17.0,179.0,1744420577.3948252,0.0,2025-04-11 21:16:17.394,STOP,35
143.0,18926.630190209173,24929.705253804357,-31683.441303186573,-20608.286036048656,-35377.53646105963,-27130.346254151616,-14615.336312691727,-34338.35915784349,0.0,0.0,0.0,193.0,0.0,194.0,0.0,17.0,0.0,180.0,194.0,17.0,180.0,1744420577.3948722,0.0,2025-04-11 21:16:17.394,STOP,35
144.0,18938.767187448408,24934.443823628884,-31681.675515374605,-20605.335605780558,-35376.32946685904,-27136.33652166564,-14487.43963091846,-34312.47583776424,0.0,0.0,0.0,193.0,0.0,193.0,0.0,17.0,0.0,179.0,193.0,17.0,179.0,1744420577.3949358,0.0,2025-04-11 21:16:17.394,STOP,35
145.0,18961.297745859356,24929.906419504456,-31700.562739439338,-20625.630989745976,-35396.40133337991,-27161.79515860023,-14048.429018071774,-34317.84025643352,0.0,0.0,0.0,193.0,0.0,193.0,0.0,17.0,0.0,179.0,193.0,17.0,179.0,1744420577.3949811,0.0,2025-04-11 21:16:17.394,STOP,35
146.0,18946.903222430137,24912.896741973967,-31702.619099929227,-20629.721358981296,-35399.39646713692,-27159.962315554898,-14243.023305299677,-34374.010190249704,0.0,0.0,0.0,193.0,0.0,194.0,0.0,17.0,0.0,180.0,194.0,17.0,180.0,1744420577.3950264,0.0,2025-04-11 21:16:17.395,STOP,35
147.0,18927.74777743194,24921.07748044461,-31692.98549806899,-20616.086794863557,-35391.886280999934,-27143.243210702327,-14578.902969229577,-34354.94415222933,0.0,0.0,0.0,193.0,0.0,193.0,0.0,17.0,0.0,179.0,193.0,17.0,179.0,1744420577.3950732,0.0,2025-04-11 21:16:17.395,STOP,35
148.0,18936.241440324957,24926.68776830289,-31683.351896208755,-20608.688367448853,-35387.86296699798,-27140.85157404561,-14581.115791930652,-34345.33290211355,0.0,0.0,0.0,193.0,0.0,193.0,0.0,17.0,0.0,180.0,193.0,17.0,180.0,1744420577.395118,0.0,2025-04-11 21:16:17.395,STOP,35
149.0,18963.354106349245,24930.64402707148,-31690.079771289802,-20615.75151869673,-35399.61998458147,-27156.766016097787,-14102.184963486787,-34316.43209653284,0.0,0.0,0.0,193.0,0.0,194.0,0.0,17.0,0.0,180.0,194.0,17.0,180.0,1744420577.3951633,0.0,2025-04-11 21:16:17.395,STOP,35
150.0,18951.999420165947,24911.332119862094,-31689.69979163406,-20624.42399554539,-35394.68024905685,-27152.027446273263,-14171.810647465069,-34347.858649236994,0.0,0.0,0.0,193.0,0.0,194.0,0.0,17.0,0.0,179.0,194.0,17.0,179.0,1744420577.395311,0.0,2025-04-11 21:16:17.395,STOP,35
151.0,18931.391111778154,24924.89962874647,-31675.75230309395,-20606.006158114214,-35378.29642037111,-27122.970178481362,-14514.462889964927,-34301.031744603126,0.0,0.0,0.0,193.0,0.0,193.0,0.0,17.0,0.0,179.0,193.0,17.0,179.0,1744420577.3953564,0.0,2025-04-11 21:16:17.395,STOP,35
152.0,18930.92172514459,24941.037588243198,-31666.766901822913,-20598.94300686634,-35373.647257524404,-27124.065413959674,-14609.234286455428,-34295.712029422764,0.0,0.0,0.0,193.0,0.0,194.0,0.0,17.0,0.0,180.0,194.0,17.0,180.0,1744420577.3954003,0.0,2025-04-11 21:16:17.395,STOP,35
153.0,18957.60970802423,24933.70621606186,-31678.65802987314,-20609.068347104592,-35388.8017402651,-27150.395768928025,-14142.552213973071,-34273.85202334548,0.0,0.0,0.0,193.0,0.0,193.0,0.0,17.0,0.0,179.0,193.0,17.0,179.0,1744420577.86762,0.0,2025-04-11 21:16:17.867,STOP,35
154.0,18959.487254558477,24912.606169296047,-31682.41312294163,-20625.139251367957,-35389.47229259876,-27155.022580030272,-14102.229666975698,-34328.94907342781,0.0,0.0,0.0,193.0,0.0,193.0,0.0,17.0,0.0,180.0,193.0,17.0,180.0,1744420577.8677535,0.0,2025-04-11 21:16:17.867,STOP,35
155.0,18937.89546941465,24921.725681033815,-31676.26639321642,-20613.60575122902,-35383.5490803181,-27143.37732116906,-14449.978107211366,-34323.830523947545,0.0,0.0,0.0,193.0,0.0,194.0,0.0,17.0,0.0,180.0,194.0,17.0,180.0,1744420577.8678057,0.0,2025-04-11 21:16:17.867,STOP,35
156.0,18930.720559444497,24930.21934392683,-31667.325695434298,-20606.430841258865,-35373.53549880213,-27137.789385055232,-14640.66083915959,-34322.779991958145,0.0,0.0,0.0,193.0,0.0,193.0,0.0,17.0,0.0,179.0,193.0,17.0,179.0,1744420577.867855,0.0,2025-04-11 21:16:17.867,STOP,35
157.0,18961.18598713708,24935.27083817373,-31670.142015235666,-20606.833172659062,-35377.648219781906,-27148.89820204952,-14232.428578427862,-34285.29611650659,0.0,0.0,0.0,193.0,0.0,193.0,0.0,17.0,0.0,179.0,193.0,17.0,179.0,1744420577.867904,0.0,2025-04-11 21:16:17.867,STOP,35
158.0,18951.865309699217,24914.237846641285,-31688.492797433475,-20634.482280550277,-35396.222519424264,-27167.360742969602,-14083.767126055614,-34349.691492282334,0.0,0.0,0.0,193.0,0.0,194.0,0.0,17.0,0.0,180.0,194.0,17.0,180.0,1744420577.8679523,0.0,2025-04-11 21:16:17.867,STOP,35
159.0,18929.044178610347,24916.182448408897,-31686.03410554339,-20626.435652546366,-35390.72399028826,-27152.541536395736,-14418.238630084828,-34347.50102132571,0.0,0.0,0.0,193.0,0.0,193.0,0.0,17.0,0.0,179.0,193.0,17.0,179.0,1744420577.8680246,0.0,2025-04-11 21:16:17.868,STOP,35
160.0,18931.815794922804,24933.54975385067,-31667.37039892321,-20609.69419594934,-35371.23326912323,-27133.05081523071,-14662.699659192522,-34321.103611123996,0.0,0.0,0.0,193.0,0.0,194.0,0.0,17.0,0.0,180.0,194.0,17.0,180.0,1744420577.8680732,0.0,2025-04-11 21:16:17.868,STOP,35
161.0,18951.775902721394,24925.950160735865,-31668.46563440152,-20609.35891978251,-35369.66864701136,-27142.75147232431,-14322.081425438098,-34284.960840339765,0.0,0.0,0.0,193.0,0.0,194.0,0.0,17.0,0.0,180.0,194.0,17.0,180.0,1744420577.8681216,0.0,2025-04-11 21:16:17.868,STOP,35
162.0,18948.311382330823,24905.095983159066,-31691.21971025702,-20640.405492830934,-35386.030123952645,-27162.66687663399,-14032.738093464148,-34329.418460061366,0.0,0.0,0.0,193.0,0.0,193.0,0.0,17.0,0.0,179.0,193.0,17.0,179.0,1744420577.8681695,0.0,2025-04-11 21:16:17.868,STOP,35
163.0,18927.546611731843,24902.771401735714,-31685.721181121015,-20632.202402615836,-35377.983495948734,-27146.79713807072,-14331.290344153686,-34336.816887476074,0.0,0.0,0.0,193.0,0.0,194.0,0.0,17.0,0.0,180.0,194.0,17.0,180.0,1744420577.8682177,0.0,2025-04-11 21:16:17.868,STOP,35
164.0,18912.83916388025,24915.467192586326,-31676.98164903899,-20621.920600166395,-35369.93686794482,-27134.168402453473,-14637.352780980204,-34326.22216060426,0.0,0.0,0.0,193.0,0.0,194.0,0.0,17.0,0.0,179.0,194.0,17.0,179.0,1744420577.868266,0.0,2025-04-11 21:16:17.868,STOP,35
165.0,18940.488271771464,24923.111489190043,-31671.46076815853,-20614.142193095948,-35368.819280722055,-27137.655274588502,-14435.494176804326,-34301.45642774778,0.0,0.0,0.0,193.0,0.0,193.0,0.0,17.0,0.0,179.0,193.0,17.0,179.0,1744420577.8684356,0.0,2025-04-11 21:16:17.868,STOP,35
166.0,18955.151016134147,24911.868561729025,-31689.386867211684,-20641.545431798153,-35389.76286527668,-27166.28785923575,-14045.590346525949,-34325.26103559268,0.0,0.0,0.0,193.0,0.0,193.0,0.0,17.0,0.0,179.0,193.0,17.0,179.0,1744420577.8684852,0.0,2025-04-11 21:16:17.868,STOP,35
167.0,18933.291010056855,24906.50414305975,-31685.967050310024,-20640.204327130836,-35388.04178095362,-27161.28106847776,-14301.45076530585,-34366.745873301734,0.0,0.0,0.0,193.0,0.0,194.0,0.0,17.0,0.0,180.0,194.0,17.0,180.0,1744420577.8685334,0.0,2025-04-11 21:16:17.868,STOP,35
168.0,18914.850820881227,24924.22907641281,-31677.585146139285,-20626.88268743547,-35382.67736228435,-27148.920553793974,-14628.188565753528,-34346.42813759186,0.0,0.0,0.0,193.0,0.0,193.0,0.0,17.0,0.0,179.0,193.0,17.0,179.0,1744420577.868582,0.0,2025-04-11 21:16:17.868,STOP,35
169.0,18936.956696147525,24930.17464043792,-31665.13522447768,-20613.091661106548,-35372.7978912351,-27140.784518812245,-14536.6805239535,-34319.002547145195,0.0,0.0,0.0,193.0,0.0,193.0,0.0,17.0,0.0,179.0,193.0,17.0,179.0,1744420577.8686464,0.0,2025-04-11 21:16:17.868,STOP,35
170.0,18964.136417405178,24922.373881623018,-31678.25569847294,-20631.151870626436,-35390.09814144351,-27164.85734759061,-14089.064489491522,-34315.56037849908,0.0,0.0,0.0,193.0,0.0,194.0,0.0,17.0,0.0,180.0,194.0,17.0,180.0,1744420577.8686948,0.0,2025-04-11 21:16:17.868,STOP,35
171.0,18954.3240015893,24906.83941922658,-31677.249869972453,-20635.063425906115,-35388.24294665372,-27153.525013151768,-14244.185596011353,-34343.254189879204,0.0,0.0,0.0,193.0,0.0,194.0,0.0,17.0,0.0,180.0,194.0,17.0,180.0,1744420577.8687432,0.0,2025-04-11 21:16:17.868,STOP,35
172.0,18928.373626276687,24917.322387376116,-31673.718294348517,-20626.52505952419,-35389.315830387575,-27136.716501321378,-14580.020556452342,-34311.15708484138,0.0,0.0,0.0,193.0,0.0,193.0,0.0,17.0,0.0,179.0,193.0,17.0,179.0,1744420577.8687916,0.0,2025-04-11 21:16:17.868,STOP,35
173.0,18930.251172810935,24923.46911710133,-31665.805776811336,-20617.673768719884,-35382.72206577326,-27138.75051006681,-14608.630789355135,-34313.816942431564,0.0,0.0,0.0,193.0,0.0,193.0,0.0,17.0,0.0,179.0,193.0,17.0,179.0,1744420577.8688395,0.0,2025-04-11 21:16:17.868,STOP,35
174.0,18952.89348994416,24925.83840201359,-31674.36649493772,-20623.775794956186,-35392.69094380033,-27159.157652754504,-14117.562963672039,-34288.62652643043,0.0,0.0,0.0,193.0,0.0,194.0,0.0,17.0,0.0,180.0,194.0,17.0,180.0,1744420577.8689022,0.0,2025-04-11 21:16:17.868,STOP,35
175.0,18948.713713731016,24909.745146005767,-31674.16532923762,-20632.4706235493,-35390.88045249945,-27159.023542287774,-14173.531731788127,-34346.02580619166,0.0,0.0,0.0,193.0,0.0,193.0,0.0,17.0,0.0,179.0,193.0,17.0,179.0,1744420577.868951,0.0,2025-04-11 21:16:17.868,STOP,35
176.0,18927.367797776198,24913.053204185155,-31666.588087867272,-20619.08192862057,-35381.537423317124,-27138.75051006681,-14508.316160239716,-34319.51663726767,0.0,0.0,0.0,193.0,0.0,194.0,0.0,17.0,0.0,180.0,194.0,17.0,180.0,1744420577.8689988,0.0,2025-04-11 21:16:17.868,STOP,35
177.0,18931.100539100236,24931.046358471678,-31648.59493358075,-20601.289940034145,-35367.41112082137,-27125.384166882537,-14637.978629824953,-34310.10655285198,0.0,0.0,0.0,193.0,0.0,194.0,0.0,17.0,0.0,180.0,194.0,17.0,180.0,1744420577.8690467,0.0,2025-04-11 21:16:17.869,STOP,35
178.0,18951.239460854467,24930.80048928267,-31661.670704087104,-20612.286998306157,-35385.180757663344,-27152.832109073654,-14187.121592416954,-34284.11147405046,0.0,0.0,0.0,193.0,0.0,193.0,0.0,17.0,0.0,179.0,193.0,17.0,179.0,1744420577.869095,0.0,2025-04-11 21:16:17.869,STOP,35
179.0,18943.639867739665,24907.957006449345,-31670.477291402494,-20633.677617749887,-35391.059266455086,-27164.45501619041,-14120.245173006675,-34338.51562005468,0.0,0.0,0.0,193.0,0.0,193.0,0.0,17.0,0.0,179.0,193.0,17.0,179.0,1744420577.8691432,0.0,2025-04-11 21:16:17.869,STOP,35
180.0,18919.87996338367,24910.147477405964,-31665.090520988768,-20623.194649600347,-35380.06220818308,-27148.629981116057,-14468.306537664717,-34335.922817697865,0.0,0.0,0.0,193.0,0.0,193.0,0.0,17.0,0.0,179.0,193.0,17.0,179.0,1744420577.8692787,0.0,2025-04-11 21:16:17.869,STOP,35
181.0,18917.42127149359,24919.043471699177,-31655.948657506546,-20611.817611672595,-35366.85232720999,-27137.11883272157,-14677.541217510847,-34330.35723332849,0.0,0.0,0.0,193.0,0.0,193.0,0.0,17.0,0.0,179.0,193.0,17.0,179.0,1744420577.8693287,0.0,2025-04-11 21:16:17.869,STOP,35
182.0,18937.18021359208,24920.831611255602,-31662.318904676307,-20612.97990238427,-35370.920344700855,-27151.5580596397,-14263.162227053908,-34284.87143336194,0.0,0.0,0.0,193.0,0.0,194.0,0.0,17.0,0.0,180.0,194.0,17.0,180.0,1744420577.869383,0.0,2025-04-11 21:16:17.869,STOP,35
183.0,18939.393036293153,24908.627558783002,-31672.108968747732,-20632.157699126925,-35378.274068626655,-27158.777673098764,-14056.319183864498,-34317.057945377586,0.0,0.0,0.0,193.0,0.0,194.0,0.0,17.0,0.0,180.0,194.0,17.0,180.0,1744420577.86967,0.0,2025-04-11 21:16:17.869,STOP,35
184.0,18917.30951277131,24899.865674956523,-31668.487986145974,-20622.32293156659,-35369.95921968928,-27145.6571991035,-14383.347556990095,-34321.08125937954,0.0,0.0,0.0,193.0,0.0,193.0,0.0,17.0,0.0,179.0,193.0,17.0,179.0,1744420577.8697221,0.0,2025-04-11 21:16:17.869,STOP,35
185.0,18913.375605747176,24917.232980398298,-31653.0205789829,-20604.70975693581,-35356.749338716196,-27130.770937296267,-14661.738534180944,-34320.969500657266,0.0,0.0,0.0,193.0,0.0,194.0,0.0,17.0,0.0,180.0,194.0,17.0,180.0,1744420577.869767,0.0,2025-04-11 21:16:17.869,STOP,35
186.0,18937.98487639247,24920.608093811046,-31657.848555785247,-20604.821515658085,-35370.60742027848,-27148.65233286051,-14366.9413765599,-34303.2445673042,0.0,0.0,0.0,193.0,0.0,194.0,0.0,17.0,0.0,180.0,194.0,17.0,180.0,1744420577.8698113,0.0,2025-04-11 21:16:17.869,STOP,35
187.0,18944.489234028966,24906.861770971034,-31675.193509482568,-20629.006103158725,-35392.95916473379,-27168.120702281085,-14051.804131484525,-34334.89463745292,0.0,0.0,0.0,193.0,0.0,193.0,0.0,17.0,0.0,179.0,193.0,17.0,179.0,1744420577.869884,0.0,2025-04-11 21:16:17.869,STOP,35
188.0,18924.640884952652,24904.961872692333,-31670.2761257024,-20619.88659142096,-35385.91836523037,-27149.23347821635,-14342.577975103615,-34336.548666542614,0.0,0.0,0.0,193.0,0.0,193.0,0.0,17.0,0.0,179.0,193.0,17.0,179.0,1744420577.869971,0.0,2025-04-11 21:16:17.869,STOP,35
