Sample Index,EXG Channel 0,EXG Channel 1,EXG Channel 2,EXG Channel 3,EXG Channel 4,EXG Channel 5,EXG Channel 6,EXG Channel 7,Accel Channel 0,Accel Channel 1,Accel Channel 2,Not Used,Digital Channel 0 (D11),Digital Channel 1 (D12),Digital Channel 2 (D13),Digital Channel 3 (D17),Not Used,Digital Channel 4 (D18),Analog Channel 0,Analog Channel 1,Analog Channel 2,Timestamp,Marker Channel,Timestamp (Formatted),Stimulus_Direction,Stimulus_Number
207.0,17259.860606176928,24255.107254398736,-31426.306834972722,-19453.594917487495,-34501.750409811786,-25930.951646679838,-14508.047939306252,-31098.473799046733,0.0,0.0,0.0,193.0,0.0,194.0,0.0,1.0,0.0,179.0,194.0,1.0,179.0,1744420640.0811927,0.0,2025-04-11 21:17:20.081,STOP,43
208.0,17289.47666758021,24258.03533292238,-31435.51575368831,-19461.350972813485,-34512.63570936152,-25952.923411479405,-14039.085988889456,-31064.47679573021,0.0,0.0,0.0,193.0,0.0,193.0,0.0,1.0,0.0,179.0,193.0,1.0,179.0,1744420640.0812366,0.0,2025-04-11 21:17:20.081,STOP,43
209.0,17280.267748864622,24241.249172836444,-31438.2203147674,-19475.253757864688,-34506.31016568067,-25955.002123713748,-14030.815843440992,-31125.92174123785,0.0,0.0,0.0,193.0,0.0,194.0,0.0,1.0,0.0,180.0,194.0,1.0,180.0,1744420640.08128,0.0,2025-04-11 21:17:20.081,STOP,43
210.0,17249.534100238576,24242.47851878149,-31435.60516066613,-19468.570586272548,-34498.06237197666,-25945.882611975983,-14359.587652634104,-31115.10349692148,0.0,0.0,0.0,193.0,0.0,194.0,0.0,1.0,0.0,180.0,194.0,1.0,180.0,1744420640.0813448,0.0,2025-04-11 21:17:20.081,STOP,43
211.0,17255.189091585766,24257.09655965526,-31425.971558805893,-19462.42385654734,-34494.21787193035,-25950.308257378132,-14540.457968766448,-31146.887677536928,0.0,0.0,0.0,193.0,0.0,193.0,0.0,1.0,0.0,179.0,193.0,1.0,179.0,1744420640.0813887,0.0,2025-04-11 21:17:20.081,STOP,43
212.0,17281.83237097649,24256.85069046625,-31434.666387399007,-19466.42481880484,-34507.15953196997,-25972.19061519988,-14131.13047255641,-31118.702127778786,0.0,0.0,0.0,193.0,0.0,194.0,0.0,1.0,0.0,180.0,194.0,1.0,180.0,1744420640.0814323,0.0,2025-04-11 21:17:20.081,STOP,43
213.0,17275.864455206927,24237.158803601124,-31444.07647181469,-19483.948586457802,-34509.66292734897,-25966.401513385954,-13991.186200521732,-31130.034462217627,0.0,0.0,0.0,193.0,0.0,194.0,0.0,1.0,0.0,180.0,194.0,1.0,180.0,1744420640.081476,0.0,2025-04-11 21:17:20.081,STOP,43
214.0,17252.28336480658,24235.728291955984,-31437.482707200375,-19469.777580473135,-34493.63672657451,-25943.4239200859,-14310.726739254802,-31105.045211916593,0.0,0.0,0.0,193.0,0.0,193.0,0.0,1.0,0.0,179.0,193.0,1.0,179.0,1744420640.0815191,0.0,2025-04-11 21:17:20.081,STOP,43
215.0,17251.523405495096,24252.536803786374,-31425.03278553877,-19456.813568689056,-34485.5900985706,-25936.98661768277,-14545.263593824338,-31111.77308699764,0.0,0.0,0.0,193.0,0.0,193.0,0.0,1.0,0.0,179.0,193.0,1.0,179.0,1744420640.0815637,0.0,2025-04-11 21:17:20.081,STOP,43
216.0,17275.305661595543,24267.75834176044,-31432.587675164665,-19456.724161711238,-34496.006011486774,-25951.358789367532,-14187.121592416954,-31070.087083588493,0.0,0.0,0.0,193.0,0.0,194.0,0.0,1.0,0.0,180.0,194.0,1.0,180.0,1744420640.0816271,0.0,2025-04-11 21:17:20.081,STOP,43
217.0,17284.358118099943,24254.481405553986,-31449.597352695153,-19483.389792846418,-34513.418020417455,-25967.697914564364,-13948.203795934178,-31111.795438742098,0.0,0.0,0.0,193.0,0.0,193.0,0.0,1.0,0.0,179.0,193.0,1.0,179.0,1744420640.0816715,0.0,2025-04-11 21:17:20.081,STOP,43
218.0,17265.292080079565,24238.343446057257,-31451.13962306257,-19481.914577712367,-34514.98264252933,-25965.060408718637,-14273.086401592065,-31143.78078505764,0.0,0.0,0.0,193.0,0.0,193.0,0.0,1.0,0.0,179.0,193.0,1.0,179.0,1744420640.081715,0.0,2025-04-11 21:17:20.081,STOP,43
219.0,17255.680829963785,24255.196661376558,-31433.928779831982,-19464.27905133713,-34497.66004057646,-25943.356864852532,-14567.21300687945,-31126.860514504973,0.0,0.0,0.0,193.0,0.0,194.0,0.0,1.0,0.0,179.0,194.0,1.0,179.0,1744420640.0817585,0.0,2025-04-11 21:17:20.081,STOP,43
220.0,17275.32801334,24258.03533292238,-31431.470087941896,-19456.724161711238,-34499.40347664398,-25948.810690499628,-14317.991056202776,-31086.58267099651,0.0,0.0,0.0,193.0,0.0,193.0,0.0,1.0,0.0,179.0,193.0,1.0,179.0,1744420640.0818796,0.0,2025-04-11 21:17:20.081,STOP,43
221.0,17289.811943747038,24243.26082983742,-31445.819907882204,-19477.265414865662,-34513.1945029729,-25967.340286653078,-13948.829644778925,-31101.804208970574,0.0,0.0,0.0,193.0,0.0,193.0,0.0,1.0,0.0,179.0,193.0,1.0,179.0,1744420640.081924,0.0,2025-04-11 21:17:20.081,STOP,43
222.0,17271.70703073824,24236.51060301192,-31442.89182935856,-19473.778542730637,-34507.472456392345,-25955.829138258596,-14199.482107100739,-31130.593255829008,0.0,0.0,0.0,193.0,0.0,194.0,0.0,1.0,0.0,180.0,194.0,1.0,180.0,1744420640.0819678,0.0,2025-04-11 21:17:20.081,STOP,43
223.0,17272.958728427737,24252.827376464295,-31428.251436740335,-19458.668763478847,-34494.620203330545,-25941.434614829377,-14541.21792807793,-31128.425136616843,0.0,0.0,0.0,193.0,0.0,194.0,0.0,1.0,0.0,180.0,194.0,1.0,180.0,1744420640.0820115,0.0,2025-04-11 21:17:20.082,STOP,43
224.0,17307.46982186673,24260.31521085682,-31423.02112853779,-19452.9914203872,-34496.16247369796,-25949.190670155367,-14398.122060075053,-31104.173493882838,0.0,0.0,0.0,193.0,0.0,193.0,0.0,1.0,0.0,178.0,193.0,1.0,178.0,1744420640.0820546,0.0,2025-04-11 21:17:20.082,STOP,43
225.0,17334.76130184666,24255.66604801012,-31442.109518302623,-19478.8970922109,-34522.26931122176,-25982.941804282884,-13964.788790320015,-31111.14723815289,0.0,0.0,0.0,193.0,0.0,194.0,0.0,1.0,0.0,180.0,194.0,1.0,180.0,1744420640.0821128,0.0,2025-04-11 21:17:20.082,STOP,43
226.0,17320.679702839818,24239.32692281329,-31440.723710146394,-19481.691060267814,-34517.68720360842,-25976.57155711312,-14170.983632920223,-31163.11504401148,0.0,0.0,0.0,193.0,0.0,194.0,0.0,1.0,0.0,180.0,194.0,1.0,180.0,1744420640.082157,0.0,2025-04-11 21:17:20.082,STOP,43
227.0,17303.692377053783,24252.022713663904,-31431.827715853182,-19468.078847894532,-34507.22658720334,-25954.912716735926,-14504.96339857142,-31128.961578483773,0.0,0.0,0.0,193.0,0.0,193.0,0.0,1.0,0.0,179.0,193.0,1.0,179.0,1744420640.0822003,0.0,2025-04-11 21:17:20.082,STOP,43
228.0,17309.034443978602,24258.28120211139,-31427.93851231796,-19465.083714137523,-34504.70084007989,-25957.237298159278,-14477.604863358125,-31105.045211916593,0.0,0.0,0.0,193.0,0.0,194.0,0.0,1.0,0.0,179.0,194.0,1.0,179.0,1744420640.082244,0.0,2025-04-11 21:17:20.082,STOP,43
229.0,17328.614572121453,24250.055760151838,-31447.540992205264,-19487.18958940382,-34528.371337458055,-25985.735772339794,-14002.742052405127,-31088.303755319568,0.0,0.0,0.0,193.0,0.0,193.0,0.0,1.0,0.0,179.0,193.0,1.0,179.0,1744420640.0822873,0.0,2025-04-11 21:17:20.082,STOP,43
230.0,17320.210316206256,24232.621399476695,-31448.770338150305,-19497.136115686433,-34528.661910135976,-25984.081743250103,-14109.561039157039,-31152.430910161846,0.0,0.0,0.0,193.0,0.0,193.0,0.0,1.0,0.0,179.0,193.0,1.0,179.0,1744420640.0823305,0.0,2025-04-11 21:17:20.082,STOP,43
231.0,17299.736118285193,24235.772995444895,-31444.679968914985,-19486.51903707016,-34522.582235644135,-25975.56572861263,-14461.042220716743,-31143.132584468436,0.0,0.0,0.0,193.0,0.0,194.0,0.0,1.0,0.0,179.0,194.0,1.0,179.0,1744420640.082389,0.0,2025-04-11 21:17:20.082,STOP,43
232.0,17306.195772432777,24246.479481038987,-31434.26405599881,-19474.359688086475,-34513.68624135092,-25970.871862277017,-14543.87778566811,-31137.7011105658,0.0,0.0,0.0,193.0,0.0,193.0,0.0,1.0,0.0,179.0,193.0,1.0,179.0,1744420640.5533743,0.0,2025-04-11 21:17:20.553,STOP,43
233.0,17332.57083089004,24256.47071081051,-31442.601256680642,-19480.685231767326,-34521.598758888096,-25992.2848334652,-14070.959576482723,-31107.190979384304,0.0,0.0,0.0,193.0,0.0,194.0,0.0,1.0,0.0,180.0,194.0,1.0,180.0,1744420640.5535345,0.0,2025-04-11 21:17:20.553,STOP,43
234.0,17328.502813399176,24239.885716424673,-31443.56238169222,-19496.107935441487,-34514.71442159586,-26000.152647513467,-14059.82840774398,-31174.670895894877,0.0,0.0,0.0,193.0,0.0,193.0,0.0,0.0,0.0,179.0,193.0,0.0,179.0,1744420640.553584,0.0,2025-04-11 21:17:20.553,STOP,43
235.0,17305.14524044338,24246.479481038987,-31431.067756541703,-19478.27124336615,-34500.610470844564,-25977.778551313706,-14389.740155904312,-31137.410537887878,0.0,0.0,0.0,193.0,0.0,193.0,0.0,1.0,0.0,179.0,193.0,1.0,179.0,1744420640.553763,0.0,2025-04-11 21:17:20.553,STOP,43
236.0,17303.133583442403,24259.823472478805,-31418.796648835738,-19468.078847894532,-34494.10611320807,-25968.2790599202,-14563.659079511057,-31135.622398331452,0.0,0.0,0.0,193.0,0.0,194.0,0.0,1.0,0.0,179.0,194.0,1.0,179.0,1744420640.5538218,0.0,2025-04-11 21:17:20.553,STOP,43
237.0,17330.492118655697,24262.729199257996,-31427.111497773112,-19472.77271423015,-34507.83008430363,-25986.04869676217,-14148.721295442736,-31100.328993836523,0.0,0.0,0.0,193.0,0.0,193.0,0.0,1.0,0.0,179.0,193.0,1.0,179.0,1744420640.553871,0.0,2025-04-11 21:17:20.553,STOP,43
238.0,17333.755473346173,24245.853632194237,-31437.97444557839,-19492.933987728833,-34519.78826758722,-25996.95634805636,-14006.474793729163,-31151.2015642168,0.0,0.0,0.0,193.0,0.0,193.0,0.0,1.0,0.0,179.0,193.0,1.0,179.0,1744420640.5539193,0.0,2025-04-11 21:17:20.553,STOP,43
239.0,17316.99166500469,24246.166556616612,-31432.118288531103,-19478.673574766348,-34513.1945029729,-25977.80090305816,-14336.967687245333,-31138.148145454903,0.0,0.0,0.0,193.0,0.0,193.0,0.0,0.0,0.0,180.0,193.0,0.0,180.0,1744420640.5539663,0.0,2025-04-11 21:17:20.553,STOP,43
240.0,17307.58158058901,24258.482367811488,-31420.897712814538,-19464.65903099287,-34507.78538081472,-25962.869937762018,-14581.808696008766,-31130.526200595643,0.0,0.0,0.0,193.0,0.0,193.0,0.0,0.0,0.0,179.0,193.0,0.0,179.0,1744420640.5540361,0.0,2025-04-11 21:17:20.554,STOP,43
241.0,17332.1908512343,24263.62326903621,-31421.277692470278,-19460.47925477973,-34511.54047388321,-25973.129388467,-14243.9620785668,-31094.11520887795,0.0,0.0,0.0,193.0,0.0,193.0,0.0,1.0,0.0,179.0,193.0,1.0,179.0,1744420640.5540843,0.0,2025-04-11 21:17:20.554,STOP,43
242.0,17347.39003746391,24262.23746087998,-31423.959901804916,-19473.063286908065,-34509.46176164887,-25981.466589148833,-13958.507950128074,-31121.719613280253,0.0,0.0,0.0,193.0,0.0,194.0,0.0,0.0,0.0,179.0,194.0,0.0,179.0,1744420640.554146,0.0,2025-04-11 21:17:20.554,STOP,43
243.0,17326.893487798392,24258.10238815575,-31420.78595409226,-19465.664859493358,-34507.02542150324,-25967.250879675255,-14253.126293793475,-31137.7011105658,0.0,0.0,0.0,193.0,0.0,193.0,0.0,0.0,0.0,179.0,193.0,0.0,179.0,1744420640.5542133,0.0,2025-04-11 21:17:20.554,STOP,43
244.0,17313.795365547583,24269.010039449935,-31409.990061520348,-19452.544385498095,-34494.77666554173,-25953.258687646234,-14563.010878921854,-31132.06847096306,0.0,0.0,0.0,193.0,0.0,193.0,0.0,0.0,0.0,179.0,193.0,0.0,179.0,1744420640.5542572,0.0,2025-04-11 21:17:20.554,STOP,43
245.0,17324.1889267193,24261.075170168304,-31418.193151735446,-19457.171196600342,-34504.87965403553,-25971.609469844043,-14326.775291773713,-31103.14531363789,0.0,0.0,0.0,193.0,0.0,193.0,0.0,0.0,0.0,179.0,193.0,0.0,179.0,1744420640.5543003,0.0,2025-04-11 21:17:20.554,STOP,43
246.0,17335.744778602693,24247.03827465037,-31434.50992518782,-19484.261510880177,-34524.63859613402,-25996.844589334083,-13947.823816278436,-31134.795383786608,0.0,0.0,0.0,193.0,0.0,193.0,0.0,0.0,0.0,179.0,193.0,0.0,179.0,1744420640.5543847,0.0,2025-04-11 21:17:20.554,STOP,43
247.0,17317.595162104986,24239.438681535565,-31432.945303075947,-19483.255682379688,-34522.224607732845,-25983.61235661654,-14210.076833972555,-31167.74185511373,0.0,0.0,0.0,193.0,0.0,193.0,0.0,0.0,0.0,179.0,193.0,0.0,179.0,1744420640.5544283,0.0,2025-04-11 21:17:20.554,STOP,43
248.0,17301.904237497358,24249.60872526273,-31424.071660527192,-19471.588071774015,-34511.249901205294,-25964.881594762996,-14550.628012493613,-31141.187982700823,0.0,0.0,0.0,193.0,0.0,194.0,0.0,0.0,0.0,179.0,194.0,0.0,179.0,1744420640.5544715,0.0,2025-04-11 21:17:20.554,STOP,43
249.0,17322.065510996046,24254.481405553986,-31422.73055585987,-19469.017621161656,-34515.4967326518,-25967.206176186344,-14433.057836658698,-31105.82752297253,0.0,0.0,0.0,193.0,0.0,193.0,0.0,0.0,0.0,179.0,193.0,0.0,179.0,1744420640.554514,0.0,2025-04-11 21:17:20.554,STOP,43
250.0,17335.43185418032,24258.392960833666,-31435.806326366226,-19484.86500798047,-34527.678433379944,-25988.12740899651,-13982.491371928618,-31102.25124385968,0.0,0.0,0.0,193.0,0.0,194.0,0.0,0.0,0.0,179.0,194.0,0.0,179.0,1744420640.5549972,0.0,2025-04-11 21:17:20.554,STOP,43
251.0,17314.644731836885,24238.36579780171,-31434.733442632372,-19483.322737613053,-34523.766878100265,-25979.56669087013,-14156.075019368533,-31146.64180834792,0.0,0.0,0.0,193.0,0.0,193.0,0.0,0.0,0.0,179.0,193.0,0.0,179.0,1744420640.5550456,0.0,2025-04-11 21:17:20.555,STOP,43
252.0,17302.395975875377,24250.100463640745,-31427.73734661786,-19467.65416474988,-34516.81548557466,-25961.215908672322,-14492.28995946526,-31122.479572591732,0.0,0.0,0.0,193.0,0.0,193.0,0.0,0.0,0.0,179.0,193.0,0.0,179.0,1744420640.5550883,0.0,2025-04-11 21:17:20.555,STOP,43
253.0,17312.007225991158,24265.053780681348,-31419.489552913852,-19456.120664610942,-34511.8981017945,-25957.885498748485,-14502.43765144797,-31113.605930042977,0.0,0.0,0.0,193.0,0.0,193.0,0.0,0.0,0.0,179.0,193.0,0.0,179.0,1744420640.5551376,0.0,2025-04-11 21:17:20.555,STOP,43
254.0,17330.80504307807,24252.402693319644,-31429.279616985277,-19469.643470006406,-34519.96708154286,-25983.81352231664,-14022.746863692626,-31100.597214769987,0.0,0.0,0.0,193.0,0.0,193.0,0.0,0.0,0.0,179.0,193.0,0.0,179.0,1744420640.5551808,0.0,2025-04-11 21:17:20.555,STOP,43
255.0,17324.14422323039,24234.677759966584,-31433.593503665154,-19481.355784100986,-34525.376203701046,-25980.75133332626,-14102.833164075992,-31158.59999163151,0.0,0.0,0.0,193.0,0.0,193.0,0.0,0.0,0.0,179.0,193.0,0.0,179.0,1744420640.555303,0.0,2025-04-11 21:17:20.555,STOP,43
0.0,17301.74777528617,24246.233611849977,-31427.804401851226,-19468.928214183834,-34513.44037216191,-25962.936992995383,-14437.885813461044,-31116.019918444148,0.0,0.0,0.0,193.0,0.0,193.0,0.0,0.0,0.0,179.0,193.0,0.0,179.0,1744420640.5553632,0.0,2025-04-11 21:17:20.555,STOP,43
1.0,17305.14524044338,24257.744760244463,-31415.332128445167,-19459.98751640171,-34503.18092145693,-25960.14302493847,-14531.047884350764,-31117.070450433548,0.0,0.0,0.0,193.0,0.0,193.0,0.0,0.0,0.0,179.0,193.0,0.0,179.0,1744420640.5554364,0.0,2025-04-11 21:17:20.555,STOP,43
2.0,17335.09657801349,24258.3259056003,-31419.713070358404,-19464.435513548317,-34513.418020417455,-25977.577385613607,-14076.122829451899,-31086.023877385127,0.0,0.0,0.0,193.0,0.0,193.0,0.0,0.0,0.0,179.0,193.0,0.0,179.0,1744420640.5555148,0.0,2025-04-11 21:17:20.555,STOP,43
3.0,17335.320095458042,24240.913896669615,-31428.407898951522,-19483.85917947998,-34520.83879957662,-25985.95928978435,-14041.589384268449,-31154.464918907277,0.0,0.0,0.0,193.0,0.0,194.0,0.0,0.0,0.0,179.0,194.0,0.0,179.0,1744420640.5555751,0.0,2025-04-11 21:17:20.555,STOP,43
4.0,17307.17924918881,24238.5222600129,-31429.905465830027,-19475.61138577597,-34516.16728498546,-25975.99041175728,-14378.474876698838,-31148.720520582265,0.0,0.0,0.0,193.0,0.0,194.0,0.0,0.0,0.0,180.0,194.0,0.0,180.0,1744420640.5556183,0.0,2025-04-11 21:17:20.555,STOP,43
5.0,17300.786650274593,24254.056722409336,-31419.757773847316,-19465.039010648612,-34500.81163654466,-25964.65807731844,-14564.486094055903,-31135.06360472007,0.0,0.0,0.0,193.0,0.0,193.0,0.0,0.0,0.0,179.0,193.0,0.0,179.0,1744420640.5556908,0.0,2025-04-11 21:17:20.555,STOP,43
6.0,17324.43479590831,24262.19275739107,-31429.570189663198,-19469.196435117297,-34514.31209019567,-25983.99233627228,-14162.959356660767,-31098.116171135447,0.0,0.0,0.0,193.0,0.0,193.0,0.0,0.0,0.0,179.0,193.0,0.0,179.0,1744420640.555734,0.0,2025-04-11 21:17:20.555,STOP,43
7.0,17327.698150598782,24236.51060301192,-31443.785899136772,-19491.90580748389,-34527.611378146576,-25995.99522304478,-13993.91311334528,-31147.647636848407,0.0,0.0,0.0,193.0,0.0,193.0,0.0,0.0,0.0,179.0,193.0,0.0,179.0,1744420640.5557761,0.0,2025-04-11 21:17:20.555,STOP,43
8.0,17303.580618331507,24234.23072507748,-31436.655692655528,-19476.550159043094,-34516.61431987456,-25978.694972836372,-14323.55664057215,-31148.876982793452,0.0,0.0,0.0,193.0,0.0,194.0,0.0,0.0,0.0,179.0,194.0,0.0,179.0,1744420640.55582,0.0,2025-04-11 21:17:20.555,STOP,43
9.0,17291.93535947029,24250.011056662926,-31425.815096594706,-19460.56866175755,-34511.02638376074,-25966.267402919224,-14587.17311467804,-31146.865325792474,0.0,0.0,0.0,193.0,0.0,194.0,0.0,0.0,0.0,180.0,194.0,0.0,180.0,1744420640.5559452,0.0,2025-04-11 21:17:20.555,STOP,43
10.0,17321.77493831813,24258.08003641129,-31421.344747703642,-19449.28103080762,-34509.21589245986,-25969.441350631878,-14286.765669198712,-31105.112267149958,0.0,0.0,0.0,193.0,0.0,193.0,0.0,0.0,0.0,179.0,193.0,0.0,179.0,1744420640.5559976,0.0,2025-04-11 21:17:20.555,STOP,43
11.0,17333.19667973479,24249.18404211808,-31435.471050199398,-19470.224615362244,-34522.090497266116,-25984.461722905842,-13956.630403593828,-31121.63020630243,0.0,0.0,0.0,193.0,0.0,194.0,0.0,0.0,0.0,180.0,194.0,0.0,180.0,1744420640.5560527,0.0,2025-04-11 21:17:20.556,STOP,43
12.0,17309.928513756815,24248.669951995606,-31432.677082142483,-19463.541443770104,-34520.749392598795,-25970.84951053256,-14249.34884898053,-31146.999436259204,0.0,0.0,0.0,193.0,0.0,193.0,0.0,0.0,0.0,179.0,193.0,0.0,179.0,1744420640.556105,0.0,2025-04-11 21:17:20.556,STOP,43
13.0,17295.533990327596,24260.80694923484,-31424.384584949566,-19452.164405842355,-34514.31209019567,-25959.450120860354,-14560.328669587216,-31136.538819854122,0.0,0.0,0.0,193.0,0.0,193.0,0.0,0.0,0.0,179.0,193.0,0.0,179.0,1744420640.5561557,0.0,2025-04-11 21:17:20.556,STOP,43
14.0,17315.71761557074,24266.014905692926,-31418.327262202176,-19445.213013316752,-34511.33930818312,-25966.602679086052,-14364.996774792287,-31112.264825375656,0.0,0.0,0.0,193.0,0.0,194.0,0.0,0.0,0.0,179.0,194.0,0.0,179.0,1744420640.5562744,0.0,2025-04-11 21:17:20.556,STOP,43
15.0,17328.52516514363,24252.33563808628,-31436.40982346652,-19468.03414440562,-34531.63469214853,-25989.647327619474,-13965.124066486844,-31120.15499116838,0.0,0.0,0.0,193.0,0.0,193.0,0.0,0.0,0.0,179.0,193.0,0.0,179.0,1744420640.556344,0.0,2025-04-11 21:17:20.556,STOP,43
16.0,17314.465917881244,24241.740911214463,-31435.31458798821,-19466.737743227215,-34528.46074443588,-25978.47145539182,-14206.85818277099,-31154.91195379638,0.0,0.0,0.0,193.0,0.0,194.0,0.0,0.0,0.0,180.0,194.0,0.0,180.0,1744420640.556456,0.0,2025-04-11 21:17:20.556,STOP,43
17.0,17298.99851071817,24254.74962648745,-31423.80343959373,-19451.315039553054,-34512.03221226123,-25963.384027884487,-14539.340381543683,-31140.137450711427,0.0,0.0,0.0,193.0,0.0,194.0,0.0,0.0,0.0,179.0,194.0,0.0,179.0,1744420640.5565464,0.0,2025-04-11 21:17:20.556,STOP,43
18.0,17310.956694001758,24254.54846078735,-31418.863704069103,-19445.883565650412,-34510.489941893815,-25966.71443780833,-14447.854691488112,-31120.087935935015,0.0,0.0,0.0,193.0,0.0,193.0,0.0,0.0,0.0,179.0,193.0,0.0,179.0,1744420640.5565996,0.0,2025-04-11 21:17:20.556,STOP,43
19.0,17336.86236582546,24253.050893908847,-31427.916160573503,-19462.0438768916,-34523.476305422344,-25990.317879953134,-13994.985997079135,-31113.96355795426,0.0,0.0,0.0,193.0,0.0,194.0,0.0,0.0,0.0,180.0,194.0,0.0,180.0,1744420640.5566888,0.0,2025-04-11 21:17:20.556,STOP,43
20.0,17317.841031293992,24239.773957702397,-31426.195076250446,-19467.408295560872,-34519.40828793148,-25982.740638582785,-14146.240251808198,-31163.31620971158,0.0,0.0,0.0,193.0,0.0,193.0,0.0,0.0,0.0,179.0,193.0,0.0,179.0,1744420640.5568542,0.0,2025-04-11 21:17:20.556,STOP,43
21.0,17286.503885567654,24243.953733915536,-31426.865628584106,-19459.80870244607,-34520.52587515424,-25968.502577364754,-14483.349261683139,-31141.746776312208,0.0,0.0,0.0,193.0,0.0,193.0,0.0,0.0,0.0,179.0,193.0,0.0,179.0,1744420640.5569103,0.0,2025-04-11 21:17:20.556,STOP,43
22.0,17302.485382853196,24256.113082899225,-31408.671308597484,-19442.75432142667,-34501.77276155624,-25956.23146965879,-14526.01874184832,-31130.414441873367,0.0,0.0,0.0,193.0,0.0,194.0,0.0,0.0,0.0,179.0,194.0,0.0,179.0,1744420640.5569615,0.0,2025-04-11 21:17:20.556,STOP,43
23.0,17326.826432565027,24255.46488231002,-31421.74707910384,-19452.969068642746,-34514.78147682923,-25974.068161734125,-14011.995674609623,-31077.284345303102,0.0,0.0,0.0,193.0,0.0,193.0,0.0,0.0,0.0,179.0,193.0,0.0,179.0,1744420640.557009,0.0,2025-04-11 21:17:20.557,STOP,43
24.0,17315.538801615097,24234.208373333022,-31425.926855316982,-19464.256699592675,-34516.68137510793,-25973.889347778484,-14068.657346803826,-31138.63988383292,0.0,0.0,0.0,193.0,0.0,193.0,0.0,0.0,0.0,179.0,193.0,0.0,179.0,1744420640.5571425,0.0,2025-04-11 21:17:20.557,STOP,43
25.0,17290.437792591787,24237.963466401514,-31416.874398812583,-19449.28103080762,-34497.07889522063,-25957.840795259573,-14401.273656043251,-31109.78378174112,0.0,0.0,0.0,193.0,0.0,194.0,0.0,0.0,0.0,180.0,194.0,0.0,180.0,1744420640.5571945,0.0,2025-04-11 21:17:20.557,STOP,43
26.0,17299.266731651634,24253.073245653304,-31407.665480096995,-19442.351990026473,-34488.674639305435,-25955.493862091764,-14522.30835226874,-31112.041307931104,0.0,0.0,0.0,193.0,0.0,193.0,0.0,0.0,0.0,179.0,193.0,0.0,179.0,1744420640.557242,0.0,2025-04-11 21:17:20.557,STOP,43
27.0,17331.296781456087,24259.175271889602,-31414.16983773349,-19448.23049881822,-34499.73875281081,-25974.1799204564,-14084.661195833827,-31085.018048884638,0.0,0.0,0.0,193.0,0.0,193.0,0.0,0.0,0.0,179.0,193.0,0.0,179.0,1744420640.5572867,0.0,2025-04-11 21:17:20.557,STOP,43
28.0,17319.85268829497,24238.14228035716,-31428.07262278469,-19474.359688086475,-34510.914625038466,-25990.273176464223,-14023.842099170935,-31157.482404408744,0.0,0.0,0.0,193.0,0.0,194.0,0.0,0.0,0.0,180.0,194.0,0.0,180.0,1744420640.5573285,0.0,2025-04-11 21:17:20.557,STOP,43
29.0,17300.674891552317,24238.455204779533,-31424.004605293827,-19462.647373991895,-34501.43748538941,-25966.110940708037,-14359.341783445096,-31130.34738664,0.0,0.0,0.0,193.0,0.0,194.0,0.0,0.0,0.0,180.0,194.0,0.0,180.0,1744420640.5573883,0.0,2025-04-11 21:17:20.557,STOP,43
30.0,17295.824563005517,24247.440606050564,-31412.5158086438,-19452.119702353444,-34491.602717829075,-25954.66684754692,-14543.430750779004,-31109.180284640825,0.0,0.0,0.0,193.0,0.0,193.0,0.0,0.0,0.0,179.0,193.0,0.0,179.0,1744420640.557431,0.0,2025-04-11 21:17:20.557,STOP,43
31.0,17323.33956043,24253.56498403132,-31415.30977670071,-19452.27616456463,-34500.05167723318,-25965.775664541205,-14159.338374059007,-31081.35236279397,0.0,0.0,0.0,193.0,0.0,194.0,0.0,0.0,0.0,180.0,194.0,0.0,180.0,1744420640.5574732,0.0,2025-04-11 21:17:20.557,STOP,43
32.0,17333.06256926806,24244.244306593457,-31424.876323327582,-19472.258624107675,-34509.573520371145,-25970.871862277017,-13963.134761230322,-31107.68271776232,0.0,0.0,0.0,193.0,0.0,194.0,0.0,0.0,0.0,179.0,194.0,0.0,179.0,1744420640.5575159,0.0,2025-04-11 21:17:20.557,STOP,43
33.0,17309.526182356618,24240.690379225063,-31423.80343959373,-19468.123551383444,-34505.19257845791,-25964.32280115161,-14283.59172148606,-31115.617587043955,0.0,0.0,0.0,193.0,0.0,193.0,0.0,0.0,0.0,179.0,193.0,0.0,179.0,1744420640.5575583,0.0,2025-04-11 21:17:20.557,STOP,43
34.0,17297.366833372933,24252.045065408358,-31417.813172079706,-19459.85340593498,-34504.20910170187,-25960.85828076104,-14564.955480689465,-31130.12386919545,0.0,0.0,0.0,193.0,0.0,193.0,0.0,0.0,0.0,179.0,193.0,0.0,179.0,1744420640.557603,0.0,2025-04-11 21:17:20.557,STOP,43
35.0,17320.545592373084,24253.69909449805,-31422.35057620413,-19461.90976642487,-34512.41219191697,-25979.94667052587,-14295.840477447568,-31121.87607549144,0.0,0.0,0.0,193.0,0.0,193.0,0.0,0.0,0.0,179.0,193.0,0.0,179.0,1744420640.5576673,0.0,2025-04-11 21:17:20.557,STOP,43
36.0,17333.509604157163,24245.808928705326,-31430.039576296756,-19476.48310380973,-34518.178941986436,-25976.79507455767,-13952.920014014247,-31098.29498509109,0.0,0.0,0.0,193.0,0.0,193.0,0.0,0.0,0.0,179.0,193.0,0.0,179.0,1744420640.5577135,0.0,2025-04-11 21:17:20.557,STOP,43
37.0,17310.80023179057,24241.539745514365,-31429.279616985277,-19469.688173495313,-34515.653194862985,-25960.99239122777,-14221.699741089315,-31103.033554915615,0.0,0.0,0.0,193.0,0.0,193.0,0.0,0.0,0.0,179.0,193.0,0.0,179.0,1744420640.557758,0.0,2025-04-11 21:17:20.557,STOP,43
38.0,17297.813868262037,24255.1743096321,-31419.154276747024,-19454.399580287885,-34500.11873246655,-25949.168318410913,-14535.428826264004,-31099.792551969596,0.0,0.0,0.0,193.0,0.0,194.0,0.0,0.0,0.0,180.0,194.0,0.0,180.0,1744420640.557803,0.0,2025-04-11 21:17:20.557,STOP,43
39.0,17312.566019602542,24255.867213710215,-31419.668366869497,-19451.18092908632,-34499.67169757744,-25959.85245226055,-14347.36124841705,-31078.021952870127,0.0,0.0,0.0,193.0,0.0,193.0,0.0,0.0,0.0,179.0,193.0,0.0,179.0,1744420640.5578709,0.0,2025-04-11 21:17:20.557,STOP,43
40.0,17330.939153544805,24249.787539218374,-31440.433137468477,-19477.801856732593,-34522.425773432944,-25989.490865408286,-13939.911298741257,-31106.67688926183,0.0,0.0,0.0,193.0,0.0,193.0,0.0,0.0,0.0,179.0,193.0,0.0,179.0,1744420640.5579169,0.0,2025-04-11 21:17:20.557,STOP,43
41.0,17320.925572028824,24233.716634955006,-31437.169782778,-19473.1973973748,-34518.938901297915,-25967.340286653078,-14169.910749186367,-31136.382357642935,0.0,0.0,0.0,193.0,0.0,194.0,0.0,0.0,0.0,180.0,194.0,0.0,180.0,1744420640.5579615,0.0,2025-04-11 21:17:20.557,STOP,43
42.0,17303.357100886955,24245.116024627212,-31427.51382917331,-19458.020562889644,-34509.439409904415,-25947.357827110034,-14507.8244218617,-31102.184188626314,0.0,0.0,0.0,193.0,0.0,194.0,0.0,0.0,0.0,180.0,194.0,0.0,180.0,1744420640.5580065,0.0,2025-04-11 21:17:20.558,STOP,43
43.0,17305.65933056585,24254.19083287607,-31416.18149473447,-19445.32477203903,-34500.409305144465,-25946.03907418717,-14439.13751115054,-31089.086066375505,0.0,0.0,0.0,193.0,0.0,193.0,0.0,0.0,0.0,179.0,193.0,0.0,179.0,1744420640.5580528,0.0,2025-04-11 21:17:20.558,STOP,43
44.0,17320.94792377328,24253.252059608945,-31428.474954184887,-19457.685286722815,-34515.586139629624,-25964.72513255181,-13971.740182845615,-31071.137615577893,0.0,0.0,0.0,193.0,0.0,194.0,0.0,0.0,0.0,180.0,194.0,0.0,180.0,1744420640.5581317,0.0,2025-04-11 21:17:20.558,STOP,43
45.0,17314.398862647875,24240.37745480269,-31429.056099540725,-19462.401504802885,-34513.976814028836,-25959.94185923837,-14107.169402500322,-31122.546627825097,0.0,0.0,0.0,193.0,0.0,194.0,0.0,0.0,0.0,180.0,194.0,0.0,180.0,1744420640.5581791,0.0,2025-04-11 21:17:20.558,STOP,43
46.0,17295.75750777215,24249.139338629167,-31421.45650642592,-19448.18579532931,-34506.421924402945,-25945.547335809155,-14465.624328330081,-31114.20942714327,0.0,0.0,0.0,193.0,0.0,193.0,0.0,0.0,0.0,179.0,193.0,0.0,179.0,1744420640.5582244,0.0,2025-04-11 21:17:20.558,STOP,43
47.0,17296.450411850263,24252.156824130634,-31413.186360977455,-19440.675609192327,-34493.81554053015,-25945.502632320244,-14505.835116605178,-31100.30664209207,0.0,0.0,0.0,193.0,0.0,194.0,0.0,0.0,0.0,180.0,194.0,0.0,180.0,1744420640.5582716,0.0,2025-04-11 21:17:20.558,STOP,43
48.0,17322.110214484957,24253.56498403132,-31424.250474482833,-19451.47150176424,-34503.18092145693,-25966.04388547467,-14022.38923578134,-31068.56716496553,0.0,0.0,0.0,193.0,0.0,194.0,0.0,0.0,0.0,179.0,194.0,0.0,179.0,1744420640.5583189,0.0,2025-04-11 21:17:20.558,STOP,43
49.0,17311.403728890866,24234.208373333022,-31432.65473039803,-19467.52005428315,-34509.77468607124,-25965.95447849685,-14042.394047068841,-31117.048098689094,0.0,0.0,0.0,193.0,0.0,193.0,0.0,0.0,0.0,179.0,193.0,0.0,179.0,1744420640.5583644,0.0,2025-04-11 21:17:20.558,STOP,43
50.0,17289.27550188011,24242.009132147927,-31425.03278553877,-19456.388885544406,-34496.05071497568,-25949.3247806221,-14383.928702345933,-31100.77602872563,0.0,0.0,0.0,193.0,0.0,194.0,0.0,0.0,0.0,179.0,194.0,0.0,179.0,1744420640.5584588,0.0,2025-04-11 21:17:20.558,STOP,43
51.0,17290.52719956961,24251.620382263707,-31419.042518024748,-19453.550213998584,-34494.0390579747,-25952.498728334755,-14535.652343708558,-31107.88388346242,0.0,0.0,0.0,193.0,0.0,194.0,0.0,0.0,0.0,179.0,194.0,0.0,179.0,1744420640.5585318,0.0,2025-04-11 21:17:20.558,STOP,43
52.0,17315.605856848462,24250.525146785396,-31430.777183863782,-19461.976821658234,-34513.03804076172,-25979.879615292506,-14100.463879163728,-31083.140502350394,0.0,0.0,0.0,193.0,0.0,193.0,0.0,0.0,0.0,179.0,193.0,0.0,179.0,1744420640.558617,0.0,2025-04-11 21:17:20.558,STOP,43
53.0,17320.94792377328,24237.382321045676,-31430.441907696953,-19472.1468653854,-34510.15466572698,-25978.91849028093,-14002.697348916216,-31127.21814241626,0.0,0.0,0.0,193.0,0.0,194.0,0.0,0.0,0.0,179.0,194.0,0.0,179.0,1744420640.5587564,0.0,2025-04-11 21:17:20.558,STOP,43
54.0,17302.820659020028,24245.004265904936,-31419.400145936033,-19453.594917487495,-34497.5929853431,-25953.213984157323,-14329.79277727518,-31101.24541535919,0.0,0.0,0.0,193.0,0.0,194.0,0.0,0.0,0.0,180.0,194.0,0.0,180.0,1744420640.5588143,0.0,2025-04-11 21:17:20.558,STOP,43
55.0,17294.729327527206,24258.88469921168,-31414.952148789427,-19445.8388621615,-34493.97200274134,-25950.88940273397,-14565.044887667285,-31113.181246898326,0.0,0.0,0.0,193.0,0.0,193.0,0.0,0.0,0.0,179.0,193.0,0.0,179.0,1744420640.5588648,0.0,2025-04-11 21:17:20.558,STOP,43
56.0,17315.874077781926,24257.498891055453,-31427.13384951757,-19451.76207444216,-34510.22172096035,-25969.307240165144,-14202.656054813393,-31080.033609871105,0.0,0.0,0.0,193.0,0.0,193.0,0.0,0.0,0.0,180.0,193.0,0.0,180.0,1744420640.558914,0.0,2025-04-11 21:17:20.558,STOP,43
57.0,17329.37453143293,24250.145167129656,-31433.191172264957,-19466.447170549294,-34520.615282132065,-25974.537548367687,-13993.846058111914,-31122.345462125002,0.0,0.0,0.0,193.0,0.0,194.0,0.0,0.0,0.0,180.0,194.0,0.0,180.0,1744420640.5589695,0.0,2025-04-11 21:17:20.558,STOP,43
58.0,17307.31335965554,24249.519318284907,-31429.436079196465,-19457.886452422914,-34515.11675299606,-25962.04292321717,-14299.059128649133,-31129.095688950503,0.0,0.0,0.0,193.0,0.0,193.0,0.0,0.0,0.0,179.0,193.0,0.0,179.0,1744420640.5590203,0.0,2025-04-11 21:17:20.559,STOP,43
59.0,17293.56703681553,24263.735027758485,-31417.433192423963,-19444.743626683194,-34495.380162642025,-25942.865126474517,-14563.614376022146,-31108.085049162513,0.0,0.0,0.0,193.0,0.0,193.0,0.0,0.0,0.0,179.0,193.0,0.0,179.0,1744420640.5591307,0.0,2025-04-11 21:17:20.559,STOP,43
60.0,17315.069414981535,24266.193719648567,-31419.534256402763,-19444.743626683194,-34495.871901020044,-25958.600754571053,-14269.934805623867,-31071.830519656007,0.0,0.0,0.0,193.0,0.0,194.0,0.0,0.0,0.0,180.0,194.0,0.0,180.0,1744420640.5591853,0.0,2025-04-11 21:17:20.559,STOP,43
61.0,17331.721464600738,24252.71561774202,-31430.17368676349,-19463.787312959113,-34510.266424449255,-25969.061370976135,-13917.425443819218,-31079.519519748632,0.0,0.0,0.0,193.0,0.0,193.0,0.0,0.0,0.0,179.0,193.0,0.0,179.0,1744420640.5592399,0.0,2025-04-11 21:17:20.559,STOP,43
62.0,17320.389130161897,24251.173347374603,-31419.86953256959,-19450.666838963847,-34502.443313889904,-25948.60952479953,-14206.277037415151,-31102.72063049324,0.0,0.0,0.0,193.0,0.0,193.0,0.0,0.0,0.0,179.0,193.0,0.0,179.0,1744420640.5592997,0.0,2025-04-11 21:17:20.559,STOP,43
63.0,17303.37945263141,24263.578565547297,-31416.203846478922,-19443.156652826867,-34496.721267309345,-25942.596905541053,-14524.834099392188,-31093.53406352211,0.0,0.0,0.0,193.0,0.0,194.0,0.0,0.0,0.0,179.0,194.0,0.0,179.0,1744420640.5593503,0.0,2025-04-11 21:17:20.559,STOP,43
64.0,17312.47661262472,24264.47263532551,-31419.64601512504,-19444.94479238329,-34501.16926445595,-25955.315048136123,-14367.790742849202,-31080.123016848927,0.0,0.0,0.0,193.0,0.0,194.0,0.0,0.0,0.0,179.0,194.0,0.0,179.0,1744420640.5594213,0.0,2025-04-11 21:17:20.559,STOP,43
65.0,17329.888621555405,24260.739894001472,-31429.83841059666,-19458.93698441231,-34511.40636341648,-25970.447179132367,-13941.43121736422,-31079.67598195982,0.0,0.0,0.0,193.0,0.0,193.0,0.0,0.0,0.0,179.0,193.0,0.0,179.0,1744420640.5595424,0.0,2025-04-11 21:17:20.559,STOP,43
66.0,17315.851726037472,24247.395902561653,-31424.384584949566,-19454.958373899266,-34503.09151447911,-25960.254783660745,-14154.845673423491,-31130.414441873367,0.0,0.0,0.0,193.0,0.0,193.0,0.0,0.0,0.0,179.0,193.0,0.0,179.0,1744420640.559605,0.0,2025-04-11 21:17:20.559,STOP,43
67.0,17293.18705715979,24262.438626580075,-31420.830657581173,-19444.7883301721,-34495.02253473074,-25946.106129420536,-14492.625235632091,-31108.845008473996,0.0,0.0,0.0,193.0,0.0,194.0,0.0,0.0,0.0,179.0,194.0,0.0,179.0,1744420640.5596569,0.0,2025-04-11 21:17:20.559,STOP,43
68.0,17303.24534216468,24275.827321508805,-31418.439020924452,-19439.89329813639,-34492.11680795155,-25946.62021954301,-14447.586470554646,-31092.170607110336,0.0,0.0,0.0,193.0,0.0,193.0,0.0,0.0,0.0,179.0,193.0,0.0,179.0,1744420640.5597453,0.0,2025-04-11 21:17:20.559,STOP,43
69.0,17329.598048877484,24262.393923091167,-31434.912256588013,-19459.451074534783,-34510.914625038466,-25974.068161734125,-13983.00546205109,-31089.57780475352,0.0,0.0,0.0,193.0,0.0,194.0,0.0,0.0,0.0,179.0,194.0,0.0,179.0,1744420640.5597959,0.0,2025-04-11 21:17:20.559,STOP,43
70.0,17319.495060383684,24244.04314089336,-31433.571151920696,-19467.587109516517,-34507.047773247694,-25967.630859330995,-14102.07320476451,-31143.803136802097,0.0,0.0,0.0,193.0,0.0,193.0,0.0,0.0,0.0,179.0,193.0,0.0,179.0,1744420640.5598533,0.0,2025-04-11 21:17:20.559,STOP,43
71.0,17289.499019324663,24246.166556616612,-31430.665425141506,-19456.433589033317,-34502.644479589995,-25952.632838801484,-14441.395037340528,-31109.202636385282,0.0,0.0,0.0,193.0,0.0,193.0,0.0,0.0,0.0,179.0,193.0,0.0,179.0,1744420640.559911,0.0,2025-04-11 21:17:20.559,STOP,43
72.0,17294.41640310483,24256.448359066053,-31421.45650642592,-19446.956449384266,-34495.98365974232,-25953.66101904643,-14528.92446862751,-31117.673947533844,0.0,0.0,0.0,193.0,0.0,193.0,0.0,0.0,0.0,179.0,193.0,0.0,179.0,1744420640.5599692,0.0,2025-04-11 21:17:20.559,STOP,43
73.0,17320.322074928532,24258.638830022675,-31432.386509464566,-19453.058475620568,-34503.73971506831,-25970.983620999294,-14039.77889296757,-31072.14344407838,0.0,0.0,0.0,193.0,0.0,193.0,0.0,0.0,0.0,179.0,193.0,0.0,179.0,1744420640.5600305,0.0,2025-04-11 21:17:20.560,STOP,43
74.0,17313.795365547583,24238.74577745745,-31439.89669560155,-19469.621118261948,-34509.3947064155,-25973.643478589474,-14022.63510497035,-31120.713784779764,0.0,0.0,0.0,193.0,0.0,193.0,0.0,0.0,0.0,179.0,193.0,0.0,179.0,1744420640.5601816,0.0,2025-04-11 21:17:20.560,STOP,43
75.0,17290.571903058517,24239.684550724574,-31436.029843810782,-19462.692077480802,-34507.83008430363,-25964.367504640522,-14388.108478559076,-31128.11221219447,0.0,0.0,0.0,193.0,0.0,194.0,0.0,0.0,0.0,179.0,194.0,0.0,179.0,1744420640.56028,0.0,2025-04-11 21:17:20.560,STOP,43
76.0,17294.885789738393,24253.11794914221,-31420.227160480878,-19448.632830218416,-34491.98269748482,-25951.358789367532,-14566.45304756797,-31122.323110380545,0.0,0.0,0.0,193.0,0.0,193.0,0.0,0.0,0.0,179.0,193.0,0.0,179.0,1744420640.5603871,0.0,2025-04-11 21:17:20.560,STOP,43
77.0,17325.731197086716,24259.219975378513,-31427.156201262023,-19453.192586087298,-34501.459837133865,-25971.27419367721,-14127.50948995465,-31082.5370052501,0.0,0.0,0.0,193.0,0.0,193.0,0.0,0.0,0.0,179.0,193.0,0.0,179.0,1744420640.5604796,0.0,2025-04-11 21:17:20.560,STOP,43
78.0,17326.781729076116,24242.947905415047,-31441.32720724669,-19476.818379976557,-34522.850456577595,-25983.38883917199,-14008.1064710744,-31144.87602053595,0.0,0.0,0.0,193.0,0.0,193.0,0.0,0.0,0.0,179.0,193.0,0.0,179.0,1744420640.5605788,0.0,2025-04-11 21:17:20.560,STOP,43
79.0,17309.056795723056,24249.720483985006,-31436.40982346652,-19462.446208291796,-34519.296529209205,-25957.70668479284,-14347.003620505766,-31124.200656914792,0.0,0.0,0.0,193.0,0.0,193.0,0.0,0.0,0.0,179.0,193.0,0.0,179.0,1744420640.5606868,0.0,2025-04-11 21:17:20.560,STOP,43
80.0,17296.249246150168,24258.437664322577,-31428.631416396074,-19452.969068642746,-34506.06429649166,-25945.390873597968,-14576.153704661574,-31107.43684857331,0.0,0.0,0.0,193.0,0.0,193.0,0.0,0.0,0.0,179.0,193.0,0.0,179.0,1744420640.5613961,0.0,2025-04-11 21:17:20.561,STOP,43
81.0,17319.942095272792,24260.56108004583,-31430.285445485766,-19452.7902546871,-34506.556034869674,-25960.14302493847,-14213.407243896396,-31073.81982491253,0.0,0.0,0.0,193.0,0.0,193.0,0.0,0.0,0.0,179.0,193.0,0.0,179.0,1744420640.561506,0.0,2025-04-11 21:17:20.561,STOP,43
82.0,17330.067435511046,24241.830318192282,-31445.12700380409,-19478.315946855062,-34523.766878100265,-25982.450065904864,-13972.902473557291,-31131.77789828514,0.0,0.0,0.0,193.0,0.0,193.0,0.0,0.0,0.0,179.0,193.0,0.0,179.0,1744420640.5615673,0.0,2025-04-11 21:17:20.561,STOP,43
83.0,17311.739005057694,24236.84587917875,-31441.617779924607,-19468.123551383444,-34518.044831519706,-25964.926298251903,-14286.296282565152,-31141.098575723005,0.0,0.0,0.0,193.0,0.0,193.0,0.0,0.0,0.0,179.0,193.0,0.0,179.0,1744420640.5616703,0.0,2025-04-11 21:17:20.561,STOP,43
84.0,17293.723499026717,24251.50862354143,-31435.046367054747,-19456.791216944603,-34511.92045353895,-25951.783472512183,-14565.447219067482,-31121.227874902237,0.0,0.0,0.0,193.0,0.0,193.0,0.0,0.0,0.0,179.0,193.0,0.0,179.0,1744420640.5617168,0.0,2025-04-11 21:17:20.561,STOP,43
85.0,17318.086900483002,24258.996457933958,-31434.286407743268,-19451.9408883978,-34511.96515702786,-25957.214946414824,-14317.611076547037,-31082.15702559436,0.0,0.0,0.0,193.0,0.0,193.0,0.0,0.0,0.0,179.0,193.0,0.0,179.0,1744420640.561765,0.0,2025-04-11 21:17:20.561,STOP,43
86.0,17336.460034425265,24252.022713663904,-31444.1211753036,-19467.274185094142,-34526.33732871262,-25971.967097755325,-13958.172673961244,-31095.746886223187,0.0,0.0,0.0,193.0,0.0,193.0,0.0,0.0,0.0,179.0,193.0,0.0,179.0,1744420640.561812,0.0,2025-04-11 21:17:20.561,STOP,43
87.0,17319.3385981725,24248.781710717885,-31439.136736290067,-19461.306269324574,-34526.4490874349,-25959.85245226055,-14224.001970768211,-31131.643787818408,0.0,0.0,0.0,193.0,0.0,193.0,0.0,0.0,0.0,179.0,193.0,0.0,179.0,1744420640.5618613,0.0,2025-04-11 21:17:20.561,STOP,43
88.0,17295.511638583142,24255.46488231002,-31434.26405599881,-19455.04778087709,-34521.822276332656,-25952.78930101267,-14554.628974751113,-31120.691433035307,0.0,0.0,0.0,193.0,0.0,193.0,0.0,0.0,0.0,179.0,193.0,0.0,179.0,1744420640.5619068,0.0,2025-04-11 21:17:20.561,STOP,43
89.0,17308.341539900488,24261.790425990872,-31426.93268381747,-19447.85051916248,-34512.12161923905,-25955.695027791862,-14419.400920796505,-31098.071467646536,0.0,0.0,0.0,193.0,0.0,193.0,0.0,0.0,0.0,179.0,193.0,0.0,179.0,1744420640.561978,0.0,2025-04-11 21:17:20.561,STOP,43
90.0,17333.084921012512,24258.929402700593,-31435.336939732664,-19460.769827457647,-34516.36845068556,-25971.14008321048,-13944.962792988157,-31073.506900490156,0.0,0.0,0.0,193.0,0.0,193.0,0.0,0.0,0.0,179.0,193.0,0.0,179.0,1744420640.562024,0.0,2025-04-11 21:17:20.562,STOP,43
91.0,17318.757452816662,24242.65733273713,-31436.633340911074,-19465.039010648612,-34516.5472646412,-25966.736789552786,-14132.136301056898,-31134.84008727552,0.0,0.0,0.0,193.0,0.0,193.0,0.0,0.0,0.0,180.0,193.0,0.0,180.0,1744420640.5620742,0.0,2025-04-11 21:17:20.562,STOP,43
92.0,17297.880923495402,24255.21901312101,-31427.714994873408,-19451.650315719882,-34504.87965403553,-25948.45306258834,-14488.221941974396,-31114.991738199205,0.0,0.0,0.0,193.0,0.0,194.0,0.0,0.0,0.0,179.0,194.0,0.0,179.0,1744420640.5621233,0.0,2025-04-11 21:17:20.562,STOP,43
93.0,17305.32405439902,24256.962449188526,-31422.015300037303,-19446.8893941509,-34501.23631968931,-25948.85539398854,-14472.53101736677,-31090.87420593193,0.0,0.0,0.0,193.0,0.0,193.0,0.0,0.0,0.0,179.0,193.0,0.0,179.0,1744420640.5621767,0.0,2025-04-11 21:17:20.562,STOP,43
94.0,17331.453243667274,24257.498891055453,-31434.2193525099,-19462.021525147145,-34512.16632272796,-25972.52589136671,-13994.360148234386,-31068.410702754347,0.0,0.0,0.0,193.0,0.0,194.0,0.0,0.0,0.0,179.0,194.0,0.0,179.0,1744420640.5622325,0.0,2025-04-11 21:17:20.562,STOP,43
95.0,17320.545592373084,24244.736044971472,-31439.159088034525,-19474.67261250885,-34510.35583142708,-25974.649307089963,-14084.147105711354,-31132.58256108553,0.0,0.0,0.0,193.0,0.0,193.0,0.0,0.0,0.0,179.0,193.0,0.0,179.0,1744420640.56261,0.0,2025-04-11 21:17:20.562,STOP,43
96.0,17297.65740605085,24256.80598697734,-31438.019149067302,-19467.296536838596,-34510.065258749164,-25967.161472697437,-14440.277450117763,-31131.084994207027,0.0,0.0,0.0,193.0,0.0,193.0,0.0,0.0,0.0,179.0,193.0,0.0,179.0,1744420641.0341313,0.0,2025-04-11 21:17:21.034,STOP,43
97.0,17300.831353763504,24264.830263236796,-31429.3690239631,-19457.305307067076,-34505.863130791564,-25961.171205183415,-14525.147023814563,-31119.193866156802,0.0,0.0,0.0,193.0,0.0,194.0,0.0,0.0,0.0,179.0,194.0,0.0,179.0,1744420641.034211,0.0,2025-04-11 21:17:21.034,STOP,43
98.0,17324.412444163852,24264.942021959072,-31435.046367054747,-19460.814530946558,-34512.792171572706,-25973.19644370037,-14045.478587803673,-31065.10264457496,0.0,0.0,0.0,193.0,0.0,194.0,0.0,0.0,0.0,179.0,194.0,0.0,179.0,1744420641.0343027,0.0,2025-04-11 21:17:21.034,STOP,43
99.0,17322.870173796437,24248.669951995606,-31437.482707200375,-19470.582243273526,-34519.721212353856,-25969.70957156534,-14036.359076065908,-31119.596197557,0.0,0.0,0.0,193.0,0.0,193.0,0.0,0.0,0.0,179.0,193.0,0.0,179.0,1744420641.0343509,0.0,2025-04-11 21:17:21.034,STOP,43
100.0,17305.45816486575,24250.145167129656,-31435.582808921674,-19459.205205345777,-34520.21295073187,-25960.65711506094,-14393.763469906267,-31118.009223700672,0.0,0.0,0.0,193.0,0.0,194.0,0.0,0.0,0.0,179.0,194.0,0.0,179.0,1744420641.0344045,0.0,2025-04-11 21:17:21.034,STOP,43
101.0,17302.507734597653,24261.94688820206,-31422.909369815516,-19446.21884181724,-34502.68918307891,-25950.732940522783,-14565.178998134017,-31114.43294458782,0.0,0.0,0.0,193.0,0.0,193.0,0.0,0.0,0.0,179.0,193.0,0.0,179.0,1744420641.0344524,0.0,2025-04-11 21:17:21.034,STOP,43
102.0,17331.162670989357,24269.121798172215,-31425.65863438352,-19447.068208106542,-34508.657098848475,-25961.551184839154,-14136.919574370335,-31067.091949831483,0.0,0.0,0.0,193.0,0.0,193.0,0.0,0.0,0.0,179.0,193.0,0.0,179.0,1744420641.0345,0.0,2025-04-11 21:17:21.034,STOP,43
103.0,17339.254002482176,24263.153882402647,-31429.816058852204,-19462.222690847244,-34515.25086346279,-25968.591984342576,-13983.296034729008,-31115.908159721872,0.0,0.0,0.0,193.0,0.0,194.0,0.0,0.0,0.0,179.0,194.0,0.0,179.0,1744420641.0345664,0.0,2025-04-11 21:17:21.034,STOP,43
104.0,17323.071339496535,24264.56204230333,-31425.233951238868,-19451.717370953247,-34511.71928783885,-25954.42097835791,-14308.223343875808,-31111.81779048655,0.0,0.0,0.0,193.0,0.0,193.0,0.0,0.0,0.0,179.0,193.0,0.0,179.0,1744420641.0346143,0.0,2025-04-11 21:17:21.034,STOP,43
105.0,17305.748737543672,24273.0780569408,-31412.135828988055,-19441.50262373717,-34496.497749864786,-25945.346170109056,-14558.607585264157,-31109.73907825221,0.0,0.0,0.0,193.0,0.0,194.0,0.0,0.0,0.0,179.0,194.0,0.0,179.0,1744420641.0346773,0.0,2025-04-11 21:17:21.034,STOP,43
106.0,17323.451319152275,24271.66989704012,-31417.276730212776,-19442.642562704394,-34501.86216853406,-25955.784434769685,-14207.975769993756,-31055.893725859372,0.0,0.0,0.0,193.0,0.0,193.0,0.0,0.0,0.0,179.0,193.0,0.0,179.0,1744420641.0347311,0.0,2025-04-11 21:17:21.034,STOP,43
107.0,17335.208336735766,24257.70005675555,-31427.871457084595,-19462.915594925358,-34512.300433194694,-25966.155644196948,-13939.799540018981,-31087.789665197095,0.0,0.0,0.0,193.0,0.0,193.0,0.0,0.0,0.0,179.0,193.0,0.0,179.0,1744420641.0347788,0.0,2025-04-11 21:17:21.034,STOP,43
108.0,17312.118984713434,24246.032446149882,-31432.185343764468,-19462.177987358333,-34515.27321520725,-25963.29462090667,-14235.177842995865,-31109.984947441215,0.0,0.0,0.0,193.0,0.0,194.0,0.0,0.0,0.0,180.0,194.0,0.0,180.0,1744420641.0348208,0.0,2025-04-11 21:17:21.034,STOP,43
109.0,17299.75847002965,24255.1743096321,-31422.84231458215,-19450.17510058583,-34506.4442761474,-25952.655190545942,-14545.420056035526,-31112.756563753675,0.0,0.0,0.0,193.0,0.0,193.0,0.0,0.0,0.0,179.0,193.0,0.0,179.0,1744420641.0348628,0.0,2025-04-11 21:17:21.034,STOP,43
110.0,17313.95182775877,24256.56011778833,-31421.79178259275,-19446.66587670635,-34505.88548253602,-25959.785397027183,-14330.97741973131,-31078.178415081315,0.0,0.0,0.0,193.0,0.0,194.0,0.0,0.0,0.0,180.0,194.0,0.0,180.0,1744420641.0349267,0.0,2025-04-11 21:17:21.034,STOP,43
111.0,17330.71563610025,24248.759358973428,-31433.235875753868,-19465.888376937914,-34514.200331473396,-25978.29264143618,-13940.313630141454,-31089.10841811996,0.0,0.0,0.0,193.0,0.0,193.0,0.0,0.0,0.0,179.0,193.0,0.0,179.0,1744420641.0349696,0.0,2025-04-11 21:17:21.034,STOP,43
112.0,17320.389130161897,24244.84780369375,-31424.138715760557,-19456.09831286649,-34508.67945059293,-25958.3772371265,-14191.770755263658,-31123.887732492418,0.0,0.0,0.0,193.0,0.0,193.0,0.0,0.0,0.0,179.0,193.0,0.0,179.0,1744420641.0350156,0.0,2025-04-11 21:17:21.035,STOP,43
113.0,17303.558266587053,24263.310344613834,-31416.203846478922,-19441.65908594836,-34505.77372381374,-25936.94191419386,-14516.362788243627,-31095.72453447873,0.0,0.0,0.0,193.0,0.0,194.0,0.0,0.0,0.0,179.0,194.0,0.0,179.0,1744420641.0351095,0.0,2025-04-11 21:17:21.035,STOP,43
114.0,17321.886697040405,24278.59893782126,-31405.989099262846,-19430.550268954074,-34497.25770917627,-25936.494879304755,-14415.578772494648,-31074.333915035,0.0,0.0,0.0,193.0,0.0,193.0,0.0,0.0,0.0,179.0,193.0,0.0,179.0,1744420641.0351567,0.0,2025-04-11 21:17:21.035,STOP,43
115.0,17337.085883270014,24267.266603382424,-31423.02112853779,-19453.572565743038,-34506.80190405869,-25965.14981569646,-13943.599336576384,-31060.67699917281,0.0,0.0,0.0,193.0,0.0,193.0,0.0,0.0,0.0,179.0,193.0,0.0,179.0,1744420641.0352032,0.0,2025-04-11 21:17:21.035,STOP,43
116.0,17318.958618516757,24246.837108950273,-31425.70333787243,-19458.959336156768,-34504.36556391306,-25957.37140862601,-14111.818565347025,-31110.186113141313,0.0,0.0,0.0,193.0,0.0,194.0,0.0,0.0,0.0,179.0,194.0,0.0,179.0,1744420641.0352488,0.0,2025-04-11 21:17:21.035,STOP,43
117.0,17296.986853717193,24248.60289676224,-31422.261169226313,-19449.459844763263,-34494.48609286381,-25944.206231141834,-14465.646680074535,-31096.082162390016,0.0,0.0,0.0,193.0,0.0,193.0,0.0,0.0,0.0,179.0,193.0,0.0,179.0,1744420641.0352936,0.0,2025-04-11 21:17:21.035,STOP,43
118.0,17306.0840137105,24247.150033372647,-31417.20967497941,-19446.21884181724,-34485.70185729288,-25946.08377767608,-14470.228787687873,-31088.080237875016,0.0,0.0,0.0,193.0,0.0,193.0,0.0,0.0,0.0,179.0,193.0,0.0,179.0,1744420641.0353596,0.0,2025-04-11 21:17:21.035,STOP,43
119.0,17325.530031386617,24242.947905415047,-31433.101765287134,-19463.18381585882,-34503.695011579395,-25970.313068665633,-13988.034604553533,-31068.276592287613,0.0,0.0,0.0,193.0,0.0,194.0,0.0,0.0,0.0,179.0,194.0,0.0,179.0,1744420641.0354033,0.0,2025-04-11 21:17:21.035,STOP,43
120.0,17312.27544692462,24221.423175504588,-31439.69552990145,-19478.874740466446,-34511.674584349945,-25975.81159780164,-14063.292928134553,-31135.890619264916,0.0,0.0,0.0,193.0,0.0,193.0,0.0,0.0,0.0,179.0,193.0,0.0,179.0,1744420641.035447,0.0,2025-04-11 21:17:21.035,STOP,43
121.0,17294.081126938003,24232.867268665705,-31428.229084995877,-19462.490911780707,-34500.833988289116,-25958.064312704126,-14427.581659267147,-31122.770145269653,0.0,0.0,0.0,193.0,0.0,194.0,0.0,0.0,0.0,179.0,194.0,0.0,179.0,1744420641.0354896,0.0,2025-04-11 21:17:21.035,STOP,43
122.0,17294.438754849285,24251.620382263707,-31416.494419156843,-19450.286859308108,-34490.01574397275,-25951.38114111199,-14527.672770938012,-31102.385354326412,0.0,0.0,0.0,193.0,0.0,193.0,0.0,0.0,0.0,179.0,193.0,0.0,179.0,1744420641.035532,0.0,2025-04-11 21:17:21.035,STOP,43
123.0,17320.925572028824,24260.33756260128,-31423.535218660265,-19453.192586087298,-34500.275194677735,-25968.502577364754,-14044.696276747738,-31055.580801436998,0.0,0.0,0.0,193.0,0.0,193.0,0.0,0.0,0.0,179.0,193.0,0.0,179.0,1744420641.0355759,0.0,2025-04-11 21:17:21.035,STOP,43
124.0,17319.89739178388,24239.55044025784,-31434.733442632372,-19472.437438063316,-34513.30626169518,-25975.05163849016,-13984.43597369623,-31113.225950387237,0.0,0.0,0.0,193.0,0.0,193.0,0.0,0.0,0.0,179.0,193.0,0.0,179.0,1744420641.0356193,0.0,2025-04-11 21:17:21.035,STOP,43
125.0,17307.51452535564,24240.04217863586,-31426.195076250446,-19456.008905888666,-34505.68431683592,-25958.80192027115,-14355.989021776799,-31121.25022664669,0.0,0.0,0.0,193.0,0.0,194.0,0.0,0.0,0.0,179.0,194.0,0.0,179.0,1744420641.0356874,0.0,2025-04-11 21:17:21.035,STOP,43
126.0,17307.04513872208,24249.161690373625,-31414.102782500126,-19441.36851327044,-34495.871901020044,-25948.56482131062,-14559.12167538663,-31116.77987775563,0.0,0.0,0.0,193.0,0.0,193.0,0.0,0.0,0.0,179.0,193.0,0.0,179.0,1744420641.0357308,0.0,2025-04-11 21:17:21.035,STOP,43
127.0,17334.314266957554,24259.42114107861,-31419.042518024748,-19437.61342020195,-34506.86895929205,-25954.108053935535,-14153.75043794518,-31054.709083403242,0.0,0.0,0.0,193.0,0.0,193.0,0.0,0.0,0.0,179.0,193.0,0.0,179.0,1744420641.0357747,0.0,2025-04-11 21:17:21.035,STOP,43
128.0,17340.550403660585,24249.072283395803,-31426.59740765064,-19457.394714044894,-34513.03804076172,-25959.472472604808,-13985.95589231919,-31097.222101357234,0.0,0.0,0.0,193.0,0.0,193.0,0.0,0.0,0.0,179.0,193.0,0.0,179.0,1744420641.0358417,0.0,2025-04-11 21:17:21.035,STOP,43
129.0,17310.777880046116,24249.42991130709,-31425.815096594706,-19454.779559943625,-34505.34904066909,-25954.152757424446,-14289.850209933546,-31097.15504612387,0.0,0.0,0.0,193.0,0.0,193.0,0.0,0.0,0.0,179.0,193.0,0.0,179.0,1744420641.0358975,0.0,2025-04-11 21:17:21.035,STOP,43
130.0,17300.585484574494,24255.710751499028,-31418.394317435545,-19449.839824419003,-34499.425828388434,-25950.196498655856,-14558.831102708711,-31113.44946783179,0.0,0.0,0.0,193.0,0.0,193.0,0.0,0.0,0.0,180.0,193.0,0.0,180.0,1744420641.0359604,0.0,2025-04-11 21:17:21.035,STOP,43
131.0,17323.85365055247,24257.320077099812,-31417.522599401786,-19444.050722605076,-34502.17509295644,-25953.728074279796,-14258.669526418393,-31068.321295776524,0.0,0.0,0.0,193.0,0.0,193.0,0.0,0.0,0.0,179.0,193.0,0.0,179.0,1744420641.0360112,0.0,2025-04-11 21:17:21.036,STOP,43
132.0,17330.246249466687,24245.65246649414,-31429.88311408557,-19463.452036792285,-34511.6969360944,-25965.28392616319,-13952.875310525336,-31091.5894617545,0.0,0.0,0.0,193.0,0.0,193.0,0.0,0.0,0.0,179.0,193.0,0.0,179.0,1744420641.0360625,0.0,2025-04-11 21:17:21.036,STOP,43
133.0,17303.80413577606,24232.777861687882,-31436.74509963335,-19463.161464114364,-34515.42967741843,-25957.773740026205,-14240.38579945395,-31117.025746944637,0.0,0.0,0.0,193.0,0.0,194.0,0.0,0.0,0.0,179.0,194.0,0.0,179.0,1744420641.0361445,0.0,2025-04-11 21:17:21.036,STOP,43
134.0,17288.493190824174,24236.84587917875,-31430.665425141506,-19453.125530853933,-34502.13038946753,-25947.491937576764,-14539.005105376853,-31104.57582528303,0.0,0.0,0.0,193.0,0.0,193.0,0.0,0.0,0.0,179.0,193.0,0.0,179.0,1744420641.0362983,0.0,2025-04-11 21:17:21.036,STOP,43
135.0,17310.219086434732,24243.014960648416,-31422.998776793338,-19440.809719659057,-34494.59785158609,-25943.870954975006,-14336.900632011966,-31063.87329862992,0.0,0.0,0.0,193.0,0.0,193.0,0.0,0.0,0.0,179.0,193.0,0.0,179.0,1744420641.036353,0.0,2025-04-11 21:17:21.036,STOP,43
136.0,17326.357045931465,24239.349274557742,-31436.163954277512,-19459.696943723793,-34506.131351725024,-25957.393760370465,-13927.617839290839,-31061.928696862306,0.0,0.0,0.0,193.0,0.0,193.0,0.0,0.0,0.0,179.0,193.0,0.0,179.0,1744420641.0364237,0.0,2025-04-11 21:17:21.036,STOP,43
137.0,17306.598103832974,24231.50381225393,-31435.873381599595,-19460.143978612898,-34501.01280224476,-25945.03324568668,-14161.573548504539,-31097.95970892426,0.0,0.0,0.0,193.0,0.0,193.0,0.0,0.0,0.0,179.0,193.0,0.0,179.0,1744420641.0364845,0.0,2025-04-11 21:17:21.036,STOP,43
138.0,17285.98979544518,24242.3220565703,-31429.056099540725,-19446.50941449516,-34492.83206377412,-25928.38119606748,-14505.701006138446,-31089.689563475797,0.0,0.0,0.0,193.0,0.0,194.0,0.0,0.0,0.0,179.0,194.0,0.0,179.0,1744420641.0365543,0.0,2025-04-11 21:17:21.036,STOP,43
139.0,17302.395975875377,24249.541670029364,-31422.50703841532,-19434.75239691167,-34488.473473605336,-25924.760213465717,-14431.515566291282,-31068.18718530979,0.0,0.0,0.0,193.0,0.0,193.0,0.0,0.0,0.0,179.0,193.0,0.0,179.0,1744420641.03664,0.0,2025-04-11 21:17:21.036,STOP,43
140.0,17325.105348241967,24241.65150423664,-31435.024015310293,-19449.79512093009,-34499.895215022,-25943.55803055263,-13952.651793080782,-31045.231943754192,0.0,0.0,0.0,193.0,0.0,193.0,0.0,0.0,0.0,179.0,193.0,0.0,179.0,1744420641.036954,0.0,2025-04-11 21:17:21.036,STOP,43
141.0,17303.84883926497,24219.188001059058,-31438.667349656505,-19460.56866175755,-34497.95061325438,-25943.17805089689,-14099.636864618882,-31098.697316491285,0.0,0.0,0.0,193.0,0.0,194.0,0.0,0.0,0.0,180.0,194.0,0.0,180.0,1744420641.0370553,0.0,2025-04-11 21:17:21.037,STOP,43
142.0,17279.19486513077,24225.22297206199,-31436.610989166616,-19453.23728957621,-34497.72709580983,-25938.528888050187,-14445.641868787035,-31092.48353153271,0.0,0.0,0.0,193.0,0.0,193.0,0.0,0.0,0.0,179.0,193.0,0.0,179.0,1744420641.037124,0.0,2025-04-11 21:17:21.037,STOP,43
143.0,17290.124868169412,24236.04121637836,-31427.2679599843,-19443.827205160524,-34497.280060920726,-25938.707702005828,-14487.77490708529,-31092.572938510533,0.0,0.0,0.0,193.0,0.0,193.0,0.0,0.0,0.0,179.0,193.0,0.0,179.0,1744420641.037618,0.0,2025-04-11 21:17:21.037,STOP,43
144.0,17319.450356894777,24238.1199286127,-31431.738308875363,-19449.50454825217,-34503.851473790586,-25961.573536583608,-14022.031607870056,-31078.647801714877,0.0,0.0,0.0,193.0,0.0,193.0,0.0,0.0,0.0,179.0,193.0,0.0,179.0,1744420641.0377192,0.0,2025-04-11 21:17:21.037,STOP,43
145.0,17311.202563190767,24220.193829559546,-31431.961826319915,-19460.47925477973,-34500.16343595546,-25954.66684754692,-14060.029573444079,-31120.937302224316,0.0,0.0,0.0,193.0,0.0,193.0,0.0,0.0,0.0,179.0,193.0,0.0,179.0,1744420641.0378268,0.0,2025-04-11 21:17:21.037,STOP,43
146.0,17285.56511230053,24227.65931220762,-31431.60419840863,-19451.091522108498,-34498.88938652151,-25934.617332770507,-14382.274673256241,-31063.49331897418,0.0,0.0,0.0,193.0,0.0,193.0,0.0,0.0,0.0,179.0,193.0,0.0,179.0,1744420641.0379586,0.0,2025-04-11 21:17:21.037,STOP,43
147.0,17283.017013432625,24238.812832690815,-31426.373890206087,-19449.258679063165,-34498.665869076955,-25942.574553796596,-14525.616410448125,-31081.307659305057,0.0,0.0,0.0,193.0,0.0,194.0,0.0,0.0,0.0,179.0,194.0,0.0,179.0,1744420641.0380752,0.0,2025-04-11 21:17:21.038,STOP,43
148.0,17316.790499304592,24244.55723101583,-31430.687776885963,-19451.113873852955,-34511.741639583306,-25961.03709471668,-14084.92941676729,-31048.160022277836,0.0,0.0,0.0,193.0,0.0,193.0,0.0,0.0,0.0,179.0,193.0,0.0,179.0,1744420641.0382643,0.0,2025-04-11 21:17:21.038,STOP,43
149.0,17317.148127215878,24229.08982385276,-31432.475916442385,-19466.357763571476,-34509.68527909342,-25964.881594762996,-14009.20170655271,-31104.6428805164,0.0,0.0,0.0,193.0,0.0,193.0,0.0,0.0,0.0,179.0,193.0,0.0,179.0,1744420641.0383143,0.0,2025-04-11 21:17:21.038,STOP,43
150.0,17295.556342072054,24235.46007102252,-31426.329186717176,-19456.165368099853,-34500.65517433348,-25950.911754478428,-14340.856890780557,-31095.612775756454,0.0,0.0,0.0,193.0,0.0,194.0,0.0,0.0,0.0,179.0,194.0,0.0,179.0,1744420641.0383568,0.0,2025-04-11 21:17:21.038,STOP,43
151.0,17290.66131003634,24245.160728116123,-31417.969634290894,-19450.0409901191,-34491.893290506996,-25948.073082932602,-14554.025477650819,-31104.19584562729,0.0,0.0,0.0,193.0,0.0,193.0,0.0,0.0,0.0,179.0,193.0,0.0,179.0,1744420641.038401,0.0,2025-04-11 21:17:21.038,STOP,43
152.0,17311.515487613142,24238.92459141309,-31425.122192516592,-19455.85244367748,-34499.91756676645,-25969.687219820884,-14167.85438869648,-31077.552566236565,0.0,0.0,0.0,193.0,0.0,193.0,0.0,0.0,0.0,179.0,193.0,0.0,179.0,1744420641.0384452,0.0,2025-04-11 21:17:21.038,STOP,43
153.0,17316.790499304592,24223.188963316556,-31431.537143175265,-19473.309156097075,-34504.320860424144,-25976.549205368665,-13960.586662362417,-31121.02670920214,0.0,0.0,0.0,193.0,0.0,194.0,0.0,0.0,0.0,179.0,194.0,0.0,179.0,1744420641.0384896,0.0,2025-04-11 21:17:21.038,STOP,43
154.0,17299.93728398529,24232.55434424333,-31423.378756449078,-19458.244080334196,-34496.40834288697,-25947.67075153241,-14274.248692303741,-31103.10061014898,0.0,0.0,0.0,193.0,0.0,193.0,0.0,0.0,0.0,179.0,193.0,0.0,179.0,1744420641.0385337,0.0,2025-04-11 21:17:21.038,STOP,43
155.0,17286.57094080102,24241.450338536542,-31417.41084067951,-19448.31990579604,-34493.03322947422,-25935.220829870803,-14554.271346839829,-31089.421342542333,0.0,0.0,0.0,193.0,0.0,194.0,0.0,0.0,0.0,180.0,194.0,0.0,180.0,1744420641.0386171,0.0,2025-04-11 21:17:21.038,STOP,43
156.0,17304.89937125437,24239.952771658038,-31422.12705875958,-19447.2917255511,-34498.330592910126,-25948.408359099434,-14277.757916183224,-31059.224135783214,0.0,0.0,0.0,193.0,0.0,194.0,0.0,0.0,0.0,179.0,194.0,0.0,179.0,1744420641.0386605,0.0,2025-04-11 21:17:21.038,STOP,43
157.0,17321.439662151297,24230.922666898092,-31431.40303270853,-19464.94960367079,-34504.41026740197,-25961.774702283707,-13946.415656377752,-31078.87131915943,0.0,0.0,0.0,193.0,0.0,193.0,0.0,0.0,0.0,179.0,193.0,0.0,179.0,1744420641.0387037,0.0,2025-04-11 21:17:21.038,STOP,43
158.0,17298.0820891955,24225.245323806445,-31430.732480374874,-19461.41802804685,-34504.29850867969,-25951.17997541189,-14223.24201145673,-31101.647746759387,0.0,0.0,0.0,193.0,0.0,194.0,0.0,0.0,0.0,179.0,194.0,0.0,179.0,1744420641.0387695,0.0,2025-04-11 21:17:21.038,STOP,43
159.0,17283.88873146638,24245.36189381622,-31422.529390159776,-19448.07403660703,-34497.749447554284,-25936.76310023822,-14551.231509593907,-31096.372735067933,0.0,0.0,0.0,193.0,0.0,194.0,0.0,0.0,0.0,180.0,194.0,0.0,180.0,1744420641.0388353,0.0,2025-04-11 21:17:21.038,STOP,43
160.0,17301.01016771915,24238.768129201908,-31420.13775350306,-19442.821376660035,-34493.63672657451,-25945.524984064697,-14371.478780684327,-31070.24354579968,0.0,0.0,0.0,193.0,0.0,193.0,0.0,0.0,0.0,179.0,193.0,0.0,179.0,1744420641.038899,0.0,2025-04-11 21:17:21.038,STOP,43
161.0,17311.00139749067,24222.607817960718,-31436.655692655528,-19465.061362393066,-34508.43358140392,-25965.261574418735,-13937.787883018003,-31066.37669400891,0.0,0.0,0.0,193.0,0.0,194.0,0.0,0.0,0.0,180.0,194.0,0.0,180.0,1744420641.0389652,0.0,2025-04-11 21:17:21.038,STOP,43
162.0,17295.310472883044,24218.78566965886,-31431.55949491972,-19460.345144312996,-34501.057505733675,-25951.962286467828,-14160.344202559496,-31111.30370036408,0.0,0.0,0.0,193.0,0.0,193.0,0.0,0.0,0.0,179.0,193.0,0.0,179.0,1744420641.0390096,0.0,2025-04-11 21:17:21.039,STOP,43
163.0,17277.09380115197,24235.79534718935,-31418.863704069103,-19440.02740860312,-34486.17124392644,-25929.38702456797,-14511.288942252273,-31087.141464607892,0.0,0.0,0.0,193.0,0.0,193.0,0.0,0.0,0.0,179.0,193.0,0.0,179.0,1744420641.0390968,0.0,2025-04-11 21:17:21.039,STOP,43
164.0,17288.42613559081,24243.21612634851,-31418.304910457722,-19436.249963790175,-34488.22760441632,-25933.969132181304,-14432.767263980779,-31069.23771729919,0.0,0.0,0.0,193.0,0.0,194.0,0.0,0.0,0.0,179.0,194.0,0.0,179.0,1744420641.0391393,0.0,2025-04-11 21:17:21.039,STOP,43
165.0,17307.1345456999,24238.14228035716,-31430.888942586058,-19451.315039553054,-34499.11290396606,-25953.504556835243,-13966.643985109806,-31054.329103747503,0.0,0.0,0.0,193.0,0.0,193.0,0.0,0.0,0.0,179.0,193.0,0.0,179.0,1744420641.039182,0.0,2025-04-11 21:17:21.039,STOP,43
166.0,17305.435813121298,24231.70497795403,-31424.049308782734,-19451.38209478642,-34489.94868873939,-25937.165431638412,-14113.070263036521,-31093.936394922304,0.0,0.0,0.0,193.0,0.0,193.0,0.0,0.0,0.0,179.0,193.0,0.0,179.0,1744420641.0392244,0.0,2025-04-11 21:17:21.039,STOP,43
167.0,17285.967443700727,24237.98581814597,-31420.160105247513,-19440.07211209203,-34482.05852294666,-25922.97207390929,-14447.072380432175,-31077.574917981023,0.0,0.0,0.0,193.0,0.0,194.0,0.0,0.0,0.0,179.0,194.0,0.0,179.0,1744420641.0392666,0.0,2025-04-11 21:17:21.039,STOP,43
168.0,17289.566074558028,24244.89250718266,-31410.817076065196,-19431.064359076543,-34475.42005484344,-25917.741765706753,-14485.830305317677,-31060.699350917264,0.0,0.0,0.0,193.0,0.0,193.0,0.0,0.0,0.0,179.0,193.0,0.0,179.0,1744420641.0393093,0.0,2025-04-11 21:17:21.039,STOP,43
169.0,17312.007225991158,24249.385207818177,-31420.160105247513,-19439.535670225105,-34488.942860238894,-25938.283018861177,-14005.178392550755,-31017.38167016288,0.0,0.0,0.0,193.0,0.0,193.0,0.0,0.0,0.0,179.0,193.0,0.0,179.0,1744420641.039374,0.0,2025-04-11 21:17:21.039,STOP,43
170.0,17300.56313283004,24229.22393431949,-31425.189247749957,-19458.668763478847,-34493.10028470758,-25945.41322534242,-14027.328971305964,-31084.883938417905,0.0,0.0,0.0,193.0,0.0,194.0,0.0,0.0,0.0,179.0,194.0,0.0,179.0,1744420641.0394163,0.0,2025-04-11 21:17:21.039,STOP,43
171.0,17278.591368030473,24234.70011171104,-31422.037651781757,-19451.247984319685,-34494.59785158609,-25936.22665837129,-14403.106499088586,-31081.86645291644,0.0,0.0,0.0,193.0,0.0,193.0,0.0,0.0,0.0,179.0,193.0,0.0,179.0,1744420641.0394585,0.0,2025-04-11 21:17:21.039,STOP,43
172.0,17282.145295398866,24253.006190419936,-31411.21940746539,-19439.870946391937,-34487.78056952722,-25933.723262992295,-14568.352945846671,-31085.375676795924,0.0,0.0,0.0,193.0,0.0,193.0,0.0,0.0,0.0,179.0,193.0,0.0,179.0,1744420641.0395007,0.0,2025-04-11 21:17:21.039,STOP,43
173.0,17310.509659112653,24258.03533292238,-31414.415706922497,-19443.76014992716,-34485.88067124852,-25951.783472512183,-14104.64365537687,-31030.14451624686,0.0,0.0,0.0,193.0,0.0,193.0,0.0,0.0,0.0,179.0,193.0,0.0,179.0,1744420641.0395608,0.0,2025-04-11 21:17:21.039,STOP,43
174.0,17310.062624223545,24237.427024534587,-31423.132887260068,-19463.988478659212,-34494.86607251955,-25964.32280115161,-13971.315499700964,-31084.503958762165,0.0,0.0,0.0,193.0,0.0,194.0,0.0,0.0,0.0,179.0,194.0,0.0,179.0,1744420641.0396051,0.0,2025-04-11 21:17:21.039,STOP,43
175.0,17294.61756880493,24240.779786202882,-31417.321433701687,-19452.544385498095,-34495.53662485321,-25950.397664355954,-14321.142652170975,-31096.640956001396,0.0,0.0,0.0,193.0,0.0,193.0,0.0,0.0,0.0,179.0,193.0,0.0,179.0,1744420641.0396476,0.0,2025-04-11 21:17:21.039,STOP,43
176.0,17290.88482748089,24254.16848113161,-31404.26801493979,-19439.66978069184,-34485.36658112604,-25936.18195488238,-14556.841797452189,-31088.72843846422,0.0,0.0,0.0,193.0,0.0,193.0,0.0,1.0,0.0,180.0,193.0,1.0,180.0,1744420641.0396914,0.0,2025-04-11 21:17:21.039,STOP,43
177.0,17313.124813213923,24259.577603289796,-31406.97257601888,-19440.005056858667,-34491.24508991779,-25952.543431823666,-14196.554028577093,-31051.177507779303,0.0,0.0,0.0,193.0,0.0,193.0,0.0,2.0,0.0,179.0,193.0,2.0,179.0,1744420641.0397365,0.0,2025-04-11 21:17:21.039,STOP,43
178.0,17315.18117370381,24243.28318158188,-31419.377794191576,-19463.809664703567,-34503.18092145693,-25970.357772154544,-13971.382554934331,-31093.601118755476,0.0,0.0,0.0,193.0,0.0,193.0,0.0,3.0,0.0,179.0,193.0,3.0,179.0,1744420641.0398173,0.0,2025-04-11 21:17:21.039,STOP,43
179.0,17290.88482748089,24236.734120456473,-31415.667404611995,-19456.455940777774,-34498.107075465574,-25958.064312704126,-14284.575198242093,-31104.82169447204,0.0,0.0,0.0,193.0,0.0,193.0,0.0,4.0,0.0,179.0,193.0,4.0,179.0,1744420641.0398676,0.0,2025-04-11 21:17:21.039,STOP,43
180.0,17277.876112207905,24248.04410315086,-31410.54885513173,-19451.113873852955,-34491.06627596215,-25949.95062946685,-14556.283003840805,-31097.44561880179,0.0,0.0,0.0,193.0,0.0,194.0,0.0,6.0,0.0,179.0,194.0,6.0,179.0,1744420641.0399113,0.0,2025-04-11 21:17:21.039,STOP,43
181.0,17304.362929387444,24255.3754753322,-31407.97840451937,-19444.497757494184,-34489.76987478374,-25957.058484203637,-14292.934750668377,-31061.19108929528,0.0,0.0,0.0,193.0,0.0,193.0,0.0,7.0,0.0,179.0,193.0,7.0,179.0,1744420641.039955,0.0,2025-04-11 21:17:21.039,STOP,43
182.0,17313.057757980558,24240.35510305823,-31428.184381506966,-19471.252795607186,-34510.66875584945,-25980.416057159433,-13938.23491790711,-31080.502996504667,0.0,0.0,0.0,193.0,0.0,194.0,0.0,8.0,0.0,180.0,194.0,8.0,180.0,1744420641.0399985,0.0,2025-04-11 21:17:21.039,STOP,43
183.0,17288.739060013184,24226.02763486238,-31424.65280588303,-19468.369420572453,-34504.678488335434,-25969.24018493178,-14216.894116031423,-31112.331880609025,0.0,0.0,0.0,193.0,0.0,194.0,0.0,8.0,0.0,180.0,194.0,8.0,180.0,1744420641.0400555,0.0,2025-04-11 21:17:21.040,STOP,43
184.0,17273.830446461492,24239.483385024476,-31409.475971397875,-19448.27520230713,-34486.79709277119,-25941.367559596012,-14531.517270984325,-31086.11328436295,0.0,0.0,0.0,193.0,0.0,193.0,0.0,9.0,0.0,179.0,193.0,9.0,179.0,1744420641.0401497,0.0,2025-04-11 21:17:21.040,STOP,43
185.0,17289.722536769215,24244.914858927117,-31405.810285307205,-19438.060455091054,-34485.14306368149,-25940.831117729085,-14375.390335964006,-31059.00061833866,0.0,0.0,0.0,193.0,0.0,193.0,0.0,10.0,0.0,179.0,193.0,10.0,179.0,1744420641.040218,0.0,2025-04-11 21:17:21.040,STOP,43
186.0,17308.632112578405,24243.573754259796,-31416.472067412386,-19450.353914541472,-34499.67169757744,-25959.248955160256,-13957.792694305504,-31071.070560344528,0.0,0.0,0.0,193.0,0.0,193.0,0.0,10.0,0.0,179.0,193.0,10.0,179.0,1744420641.0402744,0.0,2025-04-11 21:17:21.040,STOP,43
187.0,17297.746813028672,24233.738986699464,-31407.285500441256,-19440.51914698114,-34483.220813658336,-25939.020626428202,-14160.970051404245,-31096.73036297922,0.0,0.0,0.0,193.0,0.0,194.0,0.0,11.0,0.0,180.0,194.0,11.0,180.0,1744420641.040321,0.0,2025-04-11 21:17:21.040,STOP,43
188.0,17277.026745918603,24242.880850181682,-31404.178607961967,-19429.142109053388,-34478.10226417807,-25925.85544894403,-14477.046069746742,-31061.928696862306,0.0,0.0,0.0,193.0,0.0,194.0,0.0,11.0,0.0,179.0,194.0,11.0,179.0,1744420641.0403922,0.0,2025-04-11 21:17:21.040,STOP,43
189.0,17292.717670526228,24255.59899277675,-31397.182511947456,-19419.84378335998,-34474.77185425423,-25930.281094346177,-14451.341563623138,-31064.09681607447,0.0,0.0,0.0,193.0,0.0,194.0,0.0,12.0,0.0,179.0,194.0,12.0,179.0,1744420641.040454,0.0,2025-04-11 21:17:21.040,STOP,43
190.0,17315.404691148364,24252.045065408358,-31412.1134772436,-19433.88067887791,-34496.38599114251,-25944.653266030942,-13971.606072378883,-31022.90255104334,0.0,0.0,0.0,193.0,0.0,193.0,0.0,12.0,0.0,179.0,193.0,12.0,179.0,1744420641.0404985,0.0,2025-04-11 21:17:21.040,STOP,43
191.0,17304.117060198434,24243.059664137327,-31415.466238911897,-19443.156652826867,-34503.851473790586,-25940.361731095523,-14101.425004175308,-31081.017086627136,0.0,0.0,0.0,193.0,0.0,194.0,0.0,12.0,0.0,179.0,194.0,12.0,179.0,1744420641.0405412,0.0,2025-04-11 21:17:21.040,STOP,43
192.0,17282.882902965892,24254.391998576164,-31411.50998014331,-19435.60176320097,-34494.01670623025,-25932.628027513987,-14447.698229276924,-31069.640048699388,0.0,0.0,0.0,193.0,0.0,193.0,0.0,13.0,0.0,179.0,193.0,13.0,179.0,1744420641.0405843,0.0,2025-04-11 21:17:21.040,STOP,43
193.0,17284.51458031113,24254.1237776427,-31399.440038137443,-19428.918591608835,-34475.330647865616,-25932.65037925844,-14490.72533735339,-31059.3805979944,0.0,0.0,0.0,193.0,0.0,193.0,0.0,13.0,0.0,179.0,193.0,13.0,179.0,1744420641.0406663,0.0,2025-04-11 21:17:21.040,STOP,43
194.0,17312.27544692462,24255.12960614319,-31405.475009140377,-19435.668818434337,-34483.846662503085,-25948.497766077253,-14016.466023500685,-31023.43899291027,0.0,0.0,0.0,193.0,0.0,194.0,0.0,13.0,0.0,179.0,194.0,13.0,179.0,1744420641.040722,0.0,2025-04-11 21:17:21.040,STOP,43
195.0,17309.101499211967,24236.51060301192,-31413.633395866564,-19453.527862254126,-34493.12263645204,-25952.36461786802,-14027.038398628045,-31092.48353153271,0.0,0.0,0.0,193.0,0.0,193.0,0.0,14.0,0.0,179.0,193.0,14.0,179.0,1744420641.0407677,0.0,2025-04-11 21:17:21.040,STOP,43
196.0,17291.488324581187,24237.13645185667,-31408.537198130754,-19443.89426039389,-34489.56870908364,-25939.266495617212,-14389.829562882134,-31088.52727276412,0.0,0.0,0.0,193.0,0.0,193.0,0.0,14.0,0.0,179.0,193.0,14.0,179.0,1744420641.0408125,0.0,2025-04-11 21:17:21.040,STOP,43
197.0,17291.175400158812,24246.1218531277,-31401.943433516437,-19436.56288821255,-34489.389895128,-25932.203344369336,-14548.616355492635,-31071.361133022445,0.0,0.0,0.0,193.0,0.0,193.0,0.0,14.0,0.0,179.0,193.0,14.0,179.0,1744420641.040866,0.0,2025-04-11 21:17:21.040,STOP,43
198.0,17320.27737143962,24258.303553855843,-31410.526503387275,-19441.03323710361,-34501.14691271149,-25951.98463821228,-14122.927382341311,-31033.541981404065,0.0,0.0,0.0,193.0,0.0,193.0,0.0,14.0,0.0,180.0,193.0,14.0,180.0,1744420641.0409105,0.0,2025-04-11 21:17:21.040,STOP,43
199.0,17317.19283070479,24243.394940304155,-31415.332128445167,-19459.18285360132,-34496.18482544242,-25959.18189992689,-13982.156095761788,-31082.87228141693,0.0,0.0,0.0,193.0,0.0,194.0,0.0,14.0,0.0,180.0,194.0,14.0,180.0,1744420641.0410204,0.0,2025-04-11 21:17:21.041,STOP,43
200.0,17291.42126934782,24242.79144320386,-31413.052250510726,-19450.219804074743,-34491.178034684424,-25944.340341608568,-14297.270989092707,-31080.368886037933,0.0,0.0,0.0,193.0,0.0,193.0,0.0,14.0,0.0,179.0,193.0,14.0,179.0,1744420641.041084,0.0,2025-04-11 21:17:21.041,STOP,43
201.0,17285.475705322708,24252.51445204192,-31403.552759117218,-19441.07794059252,-34482.304392135666,-25936.427824071387,-14553.511387528348,-31079.363057537445,0.0,0.0,0.0,193.0,0.0,194.0,0.0,15.0,0.0,180.0,194.0,15.0,180.0,1744420641.0411315,0.0,2025-04-11 21:17:21.041,STOP,43
202.0,17305.32405439902,24249.765187473917,-31410.571206876186,-19444.1401295829,-34495.15664519747,-25960.075969705103,-14216.692950331326,-31056.541926448575,0.0,0.0,0.0,193.0,0.0,194.0,0.0,15.0,0.0,179.0,194.0,15.0,179.0,1744420641.0412247,0.0,2025-04-11 21:17:21.041,STOP,43
203.0,17316.14229871539,24235.929457656082,-31420.204808736424,-19462.602670502984,-34500.85634003358,-25973.017629744725,-13963.067705996957,-31099.457275802768,0.0,0.0,0.0,193.0,0.0,193.0,0.0,15.0,0.0,179.0,193.0,15.0,179.0,1744420641.0412784,0.0,2025-04-11 21:17:21.041,STOP,43
204.0,17299.266731651634,24236.33178905628,-31410.414744665,-19449.79512093009,-34485.947726481885,-25947.2237166433,-14252.72396239328,-31087.744961708184,0.0,0.0,0.0,193.0,0.0,194.0,0.0,15.0,0.0,180.0,194.0,15.0,180.0,1744420641.0413308,0.0,2025-04-11 21:17:21.041,STOP,43
205.0,17285.162780900333,24247.015922905914,-31402.904558528015,-19439.580373714016,-34480.270383390234,-25934.50557404823,-14530.82436690621,-31065.95201086426,0.0,0.0,0.0,193.0,0.0,194.0,0.0,15.0,0.0,180.0,194.0,15.0,180.0,1744420641.041387,0.0,2025-04-11 21:17:21.041,STOP,43
206.0,17308.229781178212,24250.212222363025,-31404.603291106618,-19438.37337951343,-34485.14306368149,-25951.09056843407,-14289.514933766715,-31046.885972843884,0.0,0.0,0.0,193.0,0.0,193.0,0.0,15.0,0.0,179.0,193.0,15.0,179.0,1744420641.0414438,0.0,2025-04-11 21:17:21.041,STOP,43
207.0,17323.51837438564,24242.36676005921,-31416.852047068125,-19458.467597778752,-34499.11290396606,-25969.66486807643,-13928.824833491426,-31070.91409813334,0.0,0.0,0.0,193.0,0.0,193.0,0.0,15.0,0.0,179.0,193.0,15.0,179.0,1744420641.0415072,0.0,2025-04-11 21:17:21.041,STOP,43
208.0,17295.824563005517,24233.157841343625,-31416.002680778824,-19454.71250471026,-34496.60950858707,-25956.410283614434,-14183.634720281927,-31093.779932711117,0.0,0.0,0.0,193.0,0.0,194.0,0.0,15.0,0.0,180.0,194.0,15.0,180.0,1744420641.0416803,0.0,2025-04-11 21:17:21.041,STOP,43
209.0,17282.681737265793,24251.46392005252,-31401.83167479416,-19432.539574210594,-34482.304392135666,-25929.163507123412,-14508.226753261895,-31062.599249195966,0.0,0.0,0.0,193.0,0.0,194.0,0.0,15.0,0.0,179.0,194.0,15.0,179.0,1744420641.041757,0.0,2025-04-11 21:17:21.041,STOP,43
210.0,17303.133583442403,24259.46584456752,-31393.069790967682,-19418.726196137213,-34475.4871100768,-25925.542524521654,-14383.03463256772,-31037.118260516916,0.0,0.0,0.0,193.0,0.0,194.0,0.0,16.0,0.0,180.0,194.0,16.0,180.0,1744420641.0418289,0.0,2025-04-11 21:17:21.041,STOP,43
211.0,17326.826432565027,24258.08003641129,-31410.414744665,-19438.015751602146,-34495.4919213643,-25948.631876543986,-13950.483673868619,-31044.94137107627,0.0,0.0,0.0,193.0,0.0,194.0,0.0,15.0,0.0,180.0,194.0,15.0,180.0,1744420641.041914,0.0,2025-04-11 21:17:21.041,STOP,43
212.0,17310.554362601564,24239.84101293576,-31415.041555767246,-19443.268411549143,-34499.358773155065,-25940.741710751263,-14146.284955297107,-31091.29888907658,0.0,0.0,0.0,193.0,0.0,193.0,0.0,16.0,0.0,179.0,193.0,16.0,179.0,1744420641.0419736,0.0,2025-04-11 21:17:21.041,STOP,43
213.0,17281.89942620986,24242.947905415047,-31413.78985807775,-19436.629943445914,-34495.380162642025,-25927.531829778174,-14480.711755837412,-31065.303810275058,0.0,0.0,0.0,193.0,0.0,194.0,0.0,16.0,0.0,180.0,194.0,16.0,180.0,1744420641.0420346,0.0,2025-04-11 21:17:21.042,STOP,43
214.0,17296.13748742789,24255.867213710215,-31399.663555581996,-19424.112966550943,-34480.270383390234,-25921.295693075146,-14463.746781795835,-31055.558449692544,0.0,0.0,0.0,193.0,0.0,194.0,0.0,16.0,0.0,179.0,194.0,16.0,179.0,1744420641.0421553,0.0,2025-04-11 21:17:21.042,STOP,43
215.0,17320.70205458427,24257.074207910802,-31412.046422010237,-19436.875812634924,-34496.430694631425,-25945.882611975983,-13985.777078363548,-31033.29611221506,0.0,0.0,0.0,193.0,0.0,193.0,0.0,16.0,0.0,179.0,193.0,16.0,179.0,1744420641.0422032,0.0,2025-04-11 21:17:21.042,STOP,43
216.0,17306.486345110698,24237.69524546805,-31422.88701807106,-19453.70667620977,-34510.288776193716,-25955.67267604741,-14084.907065022835,-31105.53695029461,0.0,0.0,0.0,193.0,0.0,194.0,0.0,16.0,0.0,179.0,194.0,16.0,179.0,1744420641.5138507,0.0,2025-04-11 21:17:21.513,STOP,43
217.0,17284.08989716648,24246.255963594434,-31415.332128445167,-19441.70378943727,-34500.409305144465,-25941.367559596012,-14451.162749667497,-31093.891691433397,0.0,0.0,0.0,193.0,0.0,193.0,0.0,16.0,0.0,179.0,193.0,16.0,179.0,1744420641.5142016,0.0,2025-04-11 21:17:21.514,STOP,43
218.0,17286.772106501117,24260.225803879002,-31395.282613668754,-19422.36953048343,-34473.96719145384,-25925.60957975502,-14525.102320325652,-31063.448615485268,0.0,0.0,0.0,193.0,0.0,194.0,0.0,16.0,0.0,180.0,194.0,16.0,180.0,1744420641.5142524,0.0,2025-04-11 21:17:21.514,STOP,43
219.0,17314.689435325796,24264.60674579224,-31405.54206437374,-19428.426853230816,-34488.09349394959,-25946.866088732015,-14022.277477059064,-31021.71790858721,0.0,0.0,0.0,193.0,0.0,194.0,0.0,16.0,0.0,180.0,194.0,16.0,180.0,1744420641.514298,0.0,2025-04-11 21:17:21.514,STOP,43
220.0,17315.963484759748,24244.89250718266,-31408.693660341938,-19444.385998771908,-34492.96617424085,-25946.03907418717,-14007.257104785098,-31089.734266964708,0.0,0.0,0.0,193.0,0.0,193.0,0.0,16.0,0.0,179.0,193.0,16.0,179.0,1744420641.5143423,0.0,2025-04-11 21:17:21.514,STOP,43
221.0,17286.70505126775,24239.259867579924,-31410.750020831827,-19439.915649880844,-34493.860244019066,-25938.730053750285,-14368.729516116324,-31082.33583955,0.0,0.0,0.0,193.0,0.0,194.0,0.0,16.0,0.0,180.0,194.0,16.0,180.0,1744420641.5143867,0.0,2025-04-11 21:17:21.514,STOP,43
222.0,17281.586501787486,24249.42991130709,-31400.60232884912,-19432.293705021584,-34483.10905493606,-25934.84085021506,-14570.856341225666,-31085.24156632919,0.0,0.0,0.0,193.0,0.0,193.0,0.0,16.0,0.0,179.0,193.0,16.0,179.0,1744420641.5144634,0.0,2025-04-11 21:17:21.514,STOP,43
223.0,17305.927551499313,24250.88277469668,-31405.385602162554,-19436.965219612746,-34481.678543290924,-25954.152757424446,-14130.102292311465,-31041.81212685253,0.0,0.0,0.0,193.0,0.0,194.0,0.0,16.0,0.0,180.0,194.0,16.0,180.0,1744420641.5145087,0.0,2025-04-11 21:17:21.514,STOP,43
224.0,17312.767185302637,24241.2715245809,-31408.850122553125,-19452.81260643156,-34481.052694446174,-25956.879670247996,-13969.28149095553,-31090.20365359827,0.0,0.0,0.0,193.0,0.0,193.0,0.0,16.0,0.0,179.0,193.0,16.0,179.0,1744420641.5145557,0.0,2025-04-11 21:17:21.514,STOP,43
225.0,17288.98492920219,24236.063568122812,-31410.101820242624,-19447.783463929114,-34479.73394152331,-25941.70283576284,-14285.133991853476,-31076.591441224988,0.0,0.0,0.0,193.0,0.0,193.0,0.0,16.0,0.0,179.0,193.0,16.0,179.0,1744420641.5146005,0.0,2025-04-11 21:17:21.514,STOP,43
226.0,17279.3289755975,24248.04410315086,-31401.07171548268,-19437.814585902048,-34473.31899086464,-25925.363710566013,-14537.39577977607,-31065.95201086426,0.0,0.0,0.0,193.0,0.0,194.0,0.0,16.0,0.0,179.0,194.0,16.0,179.0,1744420641.514646,0.0,2025-04-11 21:17:21.514,STOP,43
227.0,17296.964501972736,24250.793367718863,-31410.25828245381,-19442.731969682216,-34487.91467999395,-25947.89426897696,-14218.704607332304,-31042.90736233084,0.0,0.0,0.0,193.0,0.0,193.0,0.0,16.0,0.0,179.0,193.0,16.0,179.0,1744420641.5146916,0.0,2025-04-11 21:17:21.514,STOP,43
228.0,17308.274484667123,24232.55434424333,-31420.98711979236,-19463.429685047828,-34499.984621999814,-25965.641554074475,-13970.756706089582,-31099.05494440257,0.0,0.0,0.0,193.0,0.0,194.0,0.0,16.0,0.0,180.0,194.0,16.0,180.0,1744420641.514736,0.0,2025-04-11 21:17:21.514,STOP,43
229.0,17290.10251642496,24221.84785864924,-31415.019204022792,-19455.22659483273,-34487.46764510484,-25950.308257378132,-14252.38868622645,-31102.92179619334,0.0,0.0,0.0,193.0,0.0,193.0,0.0,16.0,0.0,179.0,193.0,16.0,179.0,1744420641.5148191,0.0,2025-04-11 21:17:21.514,STOP,43
230.0,17275.193902873267,24237.628190234685,-31402.63633759455,-19439.04393184709,-34475.26359263225,-25933.65620775893,-14537.060503609242,-31084.19103433979,0.0,0.0,0.0,193.0,0.0,194.0,0.0,16.0,0.0,180.0,194.0,16.0,180.0,1744420641.5148945,0.0,2025-04-11 21:17:21.514,STOP,43
231.0,17285.073373922514,24241.137414114168,-31406.212616707402,-19434.0371410891,-34478.41518860045,-25939.08768166157,-14291.124259367498,-31033.541981404065,0.0,0.0,0.0,193.0,0.0,194.0,0.0,16.0,0.0,180.0,194.0,16.0,180.0,1744420641.5149407,0.0,2025-04-11 21:17:21.514,STOP,43
232.0,17307.603932333463,24240.4221582916,-31416.516770901297,-19452.589088987006,-34488.942860238894,-25948.52011782171,-13905.020225646524,-31027.372899934402,0.0,0.0,0.0,193.0,0.0,193.0,0.0,16.0,0.0,179.0,193.0,16.0,179.0,1744420641.5150075,0.0,2025-04-11 21:17:21.515,STOP,43
233.0,17291.734193770193,24229.447451764045,-31413.968672033392,-19447.448187762286,-34487.60175557157,-25936.450175815844,-14163.9428334168,-31067.047246342572,0.0,0.0,0.0,193.0,0.0,194.0,0.0,16.0,0.0,180.0,194.0,16.0,180.0,1744420641.5150523,0.0,2025-04-11 21:17:21.515,STOP,43
234.0,17271.103533637946,24237.31526581231,-31415.957977289916,-19444.542460983095,-34488.22760441632,-25931.89041994696,-14505.209267760429,-31068.969496365728,0.0,0.0,0.0,193.0,0.0,193.0,0.0,17.0,0.0,179.0,193.0,17.0,179.0,1744420641.5150964,0.0,2025-04-11 21:17:21.515,STOP,43
235.0,17286.146257656368,24243.88667868217,-31413.678099355475,-19439.89329813639,-34487.71351429386,-25939.445309572853,-14421.591391753125,-31068.410702754347,0.0,0.0,0.0,193.0,0.0,194.0,0.0,16.0,0.0,180.0,194.0,16.0,180.0,1744420641.5151403,0.0,2025-04-11 21:17:21.515,STOP,43
236.0,17302.217161919732,24234.83422217777,-31430.486611185865,-19459.585185001517,-34511.249901205294,-25964.2780976627,-13971.941348545713,-31058.397121238366,0.0,0.0,0.0,193.0,0.0,193.0,0.0,17.0,0.0,179.0,193.0,17.0,179.0,1744420641.5151844,0.0,2025-04-11 21:17:21.515,STOP,43
237.0,17285.56511230053,24223.054852849826,-31429.480782685376,-19460.635716990917,-34511.02638376074,-25952.85635624604,-14144.899147140879,-31094.785761211606,0.0,0.0,0.0,193.0,0.0,194.0,0.0,17.0,0.0,179.0,194.0,17.0,179.0,1744420641.5153077,0.0,2025-04-11 21:17:21.515,STOP,43
238.0,17268.868359192416,24240.4221582916,-31414.527465644776,-19442.687266193305,-34490.21690967285,-25934.259704859225,-14485.852657062132,-31070.020028355128,0.0,0.0,0.0,193.0,0.0,193.0,0.0,17.0,0.0,180.0,193.0,17.0,180.0,1744420641.5153532,0.0,2025-04-11 21:17:21.515,STOP,43
239.0,17277.674946507806,24242.85849843723,-31402.16695096099,-19433.858327133457,-34473.65426703147,-25933.45504205883,-14460.282261405262,-31052.742129891176,0.0,0.0,0.0,193.0,0.0,193.0,0.0,17.0,0.0,180.0,193.0,17.0,180.0,1744420641.5153968,0.0,2025-04-11 21:17:21.515,STOP,43
240.0,17305.413461376844,24238.656370479628,-31414.84039006715,-19444.00601911617,-34492.139159696,-25953.549260324155,-13973.662432868772,-31027.395251678856,0.0,0.0,0.0,193.0,0.0,194.0,0.0,17.0,0.0,180.0,194.0,17.0,180.0,1744420641.5154407,0.0,2025-04-11 21:17:21.515,STOP,43
241.0,17297.27742639511,24223.099556338737,-31416.516770901297,-19452.544385498095,-34492.362677140554,-25949.391835855466,-14058.822579243491,-31086.67207797433,0.0,0.0,0.0,193.0,0.0,193.0,0.0,17.0,0.0,179.0,193.0,17.0,179.0,1744420641.5154848,0.0,2025-04-11 21:17:21.515,STOP,43
242.0,17278.479609308197,24232.84491692125,-31412.918140043992,-19440.250926047676,-34488.71934279434,-25931.59984726904,-14412.293066059718,-31072.232851056204,0.0,0.0,0.0,193.0,0.0,194.0,0.0,17.0,0.0,180.0,194.0,17.0,180.0,1744420641.515534,0.0,2025-04-11 21:17:21.515,STOP,43
243.0,17279.932472697794,24245.51835602741,-31405.475009140377,-19435.445300989784,-34481.320915379634,-25928.157678622923,-14527.896288382566,-31068.097778331972,0.0,0.0,0.0,193.0,0.0,193.0,0.0,17.0,0.0,179.0,193.0,17.0,179.0,1744420641.515596,0.0,2025-04-11 21:17:21.515,STOP,43
244.0,17308.09567071148,24245.94303917206,-31415.332128445167,-19446.442359261797,-34492.92147075194,-25956.186766169878,-14073.462971861718,-31049.23290601169,0.0,0.0,0.0,193.0,0.0,194.0,0.0,17.0,0.0,179.0,194.0,17.0,179.0,1744420641.5156407,0.0,2025-04-11 21:17:21.515,STOP,43
245.0,17301.479554352707,24226.295855795845,-31422.439983181954,-19462.13328386942,-34496.698915564884,-25960.79122552767,-14014.119090332877,-31102.5418165376,0.0,0.0,0.0,193.0,0.0,193.0,0.0,17.0,0.0,179.0,193.0,17.0,179.0,1744420641.5156848,0.0,2025-04-11 21:17:21.515,STOP,43
246.0,17272.489341794175,24223.390129016654,-31420.540084903252,-19452.9914203872,-34493.10028470758,-25946.396702098456,-14356.704277599369,-31082.648763972375,0.0,0.0,0.0,193.0,0.0,194.0,0.0,17.0,0.0,180.0,194.0,17.0,180.0,1744420641.5157285,0.0,2025-04-11 21:17:21.515,STOP,43
247.0,17273.27165285011,24239.08105362428,-31402.904558528015,-19434.8865073784,-34477.25289788877,-25928.38119606748,-14564.106114400163,-31068.81303415454,0.0,0.0,0.0,193.0,0.0,193.0,0.0,17.0,0.0,179.0,193.0,17.0,179.0,1744420641.5157866,0.0,2025-04-11 21:17:21.515,STOP,43
248.0,17303.513563098142,24248.826414206793,-31404.89386378454,-19432.1372428104,-34482.505557835764,-25941.300504362644,-14154.286879812107,-31021.00265276464,0.0,0.0,0.0,193.0,0.0,193.0,0.0,17.0,0.0,179.0,193.0,17.0,179.0,1744420641.5158312,0.0,2025-04-11 21:17:21.515,STOP,43
249.0,17305.0334817211,24232.733158198975,-31420.07069826969,-19458.93698441231,-34498.934090010414,-25959.450120860354,-13960.698421084693,-31073.037513856594,0.0,0.0,0.0,193.0,0.0,193.0,0.0,17.0,0.0,179.0,193.0,17.0,179.0,1744420641.515875,0.0,2025-04-11 21:17:21.515,STOP,43
250.0,17279.41838257532,24224.440661006054,-31421.54591340374,-19453.37140004294,-34501.68335457842,-25952.901059734948,-14291.370128556506,-31091.924737921327,0.0,0.0,0.0,193.0,0.0,193.0,0.0,17.0,0.0,179.0,193.0,17.0,179.0,1744420641.5159404,0.0,2025-04-11 21:17:21.515,STOP,43
251.0,17273.830446461492,24237.60583849023,-31406.12320972958,-19437.23344054621,-34486.26065090426,-25938.1712601389,-14567.101248157174,-31092.4388280438,0.0,0.0,0.0,193.0,0.0,194.0,0.0,17.0,0.0,180.0,194.0,17.0,180.0,1744420641.5159857,0.0,2025-04-11 21:17:21.515,STOP,43
252.0,17300.227856663212,24241.942076914558,-31404.200959706424,-19430.863193376445,-34487.84762476059,-25941.635780529476,-14252.835721115556,-31038.23584773968,0.0,0.0,0.0,193.0,0.0,193.0,0.0,17.0,0.0,179.0,193.0,17.0,179.0,1744420641.5160503,0.0,2025-04-11 21:17:21.516,STOP,43
253.0,17311.00139749067,24228.821602919295,-31420.13775350306,-19456.210071588765,-34503.65030809049,-25961.484129605786,-13940.984182475113,-31068.589516709988,0.0,0.0,0.0,193.0,0.0,194.0,0.0,17.0,0.0,180.0,194.0,17.0,180.0,1744420641.5160947,0.0,2025-04-11 21:17:21.516,STOP,43
254.0,17288.157914657346,24221.44552724904,-31417.477895912874,-19452.142054097898,-34492.3403253961,-25946.46375733182,-14229.47814815976,-31086.7391332077,0.0,0.0,0.0,193.0,0.0,193.0,0.0,17.0,0.0,179.0,193.0,17.0,179.0,1744420641.516139,0.0,2025-04-11 21:17:21.516,STOP,43
255.0,17268.823655703505,24233.64957972164,-31415.846218567636,-19445.79415867259,-34495.648383575484,-25937.18778338287,-14538.513366998837,-31070.71293243324,0.0,0.0,0.0,193.0,0.0,194.0,0.0,17.0,0.0,180.0,194.0,17.0,180.0,1744420641.516183,0.0,2025-04-11 21:17:21.516,STOP,43
0.0,17291.018937947625,24241.919725170104,-31408.3136806862,-19434.93121086731,-34486.32770613762,-25942.552202052142,-14357.285422955207,-31049.76934787862,0.0,0.0,0.0,193.0,0.0,193.0,0.0,17.0,0.0,179.0,193.0,17.0,179.0,1744420641.516227,0.0,2025-04-11 21:17:21.516,STOP,43
1.0,17309.4367753788,24237.18115534558,-31417.746116846338,-19447.761112184657,-34489.367543383545,-25957.99725747076,-13930.23299339211,-31046.99773156616,0.0,0.0,0.0,193.0,0.0,193.0,0.0,17.0,0.0,179.0,193.0,17.0,179.0,1744420641.5162704,0.0,2025-04-11 21:17:21.516,STOP,43
2.0,17289.253150135657,24226.966408129505,-31417.63435812406,-19444.22953656072,-34488.56288058316,-25949.190670155367,-14159.42778103683,-31088.214348341746,0.0,0.0,0.0,193.0,0.0,194.0,0.0,17.0,0.0,180.0,194.0,17.0,180.0,1744420641.5163302,0.0,2025-04-11 21:17:21.516,STOP,43
3.0,17268.242510347667,24235.370664044698,-31417.388488935056,-19437.121681823934,-34490.2392614173,-25941.07698691809,-14501.63298864758,-31082.984040139207,0.0,0.0,0.0,193.0,0.0,193.0,0.0,17.0,0.0,179.0,193.0,17.0,179.0,1744420641.5163803,0.0,2025-04-11 21:17:21.516,STOP,43
4.0,17283.329937855,24246.27831533889,-31413.74515458884,-19435.0876730785,-34491.80388352917,-25950.93410622288,-14437.595240783125,-31085.06275237355,0.0,0.0,0.0,193.0,0.0,193.0,0.0,17.0,0.0,179.0,193.0,17.0,179.0,1744420641.5164251,0.0,2025-04-11 21:17:21.516,STOP,43
5.0,17308.00626373366,24247.865289195215,-31423.55757040472,-19447.381132528917,-34504.72319182434,-25962.378199384,-13971.0472787675,-31059.268839272125,0.0,0.0,0.0,193.0,0.0,193.0,0.0,17.0,0.0,179.0,193.0,17.0,179.0,1744420641.5164692,0.0,2025-04-11 21:17:21.516,STOP,43
6.0,17294.19288566028,24228.374568030187,-31425.368061705598,-19453.751379698682,-34503.60560460158,-25952.029341701193,-14111.572696158017,-31094.942223422793,0.0,0.0,0.0,193.0,0.0,193.0,0.0,17.0,0.0,179.0,193.0,17.0,179.0,1744420641.5165272,0.0,2025-04-11 21:17:21.516,STOP,43
7.0,17269.449504548254,24232.46493726551,-31418.863704069103,-19445.771806928136,-34485.47833984832,-25938.23831537227,-14458.71763929339,-31081.754694194162,0.0,0.0,0.0,193.0,0.0,194.0,0.0,17.0,0.0,180.0,194.0,17.0,180.0,1744420641.5165718,0.0,2025-04-11 21:17:21.516,STOP,43
8.0,17273.85279820595,24239.84101293576,-31412.73932608835,-19438.28397253561,-34479.19749965638,-25938.059501416625,-14479.504761636827,-31067.76250216514,0.0,0.0,0.0,193.0,0.0,193.0,0.0,17.0,0.0,179.0,193.0,17.0,179.0,1744420641.5166156,0.0,2025-04-11 21:17:21.516,STOP,43
9.0,17302.552438086565,24243.50669902643,-31424.45164018293,-19444.765978427647,-34494.57549984163,-25953.817481257618,-13999.29988375901,-31033.340815703967,0.0,0.0,0.0,193.0,0.0,194.0,0.0,17.0,0.0,180.0,194.0,17.0,180.0,1744420641.5166593,0.0,2025-04-11 21:17:21.516,STOP,43
10.0,17296.338653127987,24229.4698035085,-31429.50313442983,-19456.65710647787,-34499.4928836218,-25953.303391135145,-14053.994602441146,-31087.275575074626,0.0,0.0,0.0,193.0,0.0,193.0,0.0,17.0,0.0,179.0,193.0,17.0,179.0,1744420641.516703,0.0,2025-04-11 21:17:21.516,STOP,43
11.0,17274.344536583965,24228.531030241375,-31424.339881460655,-19445.123606338933,-34491.0886277066,-25938.774757239196,-14391.885923372021,-31064.90147887486,0.0,0.0,0.0,193.0,0.0,194.0,0.0,17.0,0.0,180.0,194.0,17.0,180.0,1744420641.5167615,0.0,2025-04-11 21:17:21.516,STOP,43
12.0,17283.776972744105,24245.920687427606,-31404.44682889543,-19425.051739818067,-34471.10616816356,-25923.4191087984,-14523.358884258138,-31059.067673572026,0.0,0.0,0.0,193.0,0.0,194.0,0.0,17.0,0.0,180.0,194.0,17.0,180.0,1744420641.516806,0.0,2025-04-11 21:17:21.516,STOP,43
13.0,17303.692377053783,24244.445472293555,-31418.2155034799,-19433.07601607752,-34487.892328249494,-25949.50359457774,-14051.468855317695,-31017.18050446278,0.0,0.0,0.0,193.0,0.0,193.0,0.0,17.0,0.0,179.0,193.0,17.0,179.0,1744420641.51685,0.0,2025-04-11 21:17:21.516,STOP,43
14.0,17295.958673472247,24225.088861595257,-31428.69847162944,-19454.71250471026,-34500.38695340001,-25960.18772842738,-13992.504953444595,-31087.3873337969,0.0,0.0,0.0,193.0,0.0,194.0,0.0,17.0,0.0,180.0,194.0,17.0,180.0,1744420641.516894,0.0,2025-04-11 21:17:21.516,STOP,43
15.0,17269.33774582598,24230.877963409184,-31428.542009418252,-19449.14692034089,-34501.10220922258,-25953.37044636851,-14355.452579909872,-31089.86837743144,0.0,0.0,0.0,193.0,0.0,194.0,0.0,17.0,0.0,179.0,194.0,17.0,179.0,1744420641.516938,0.0,2025-04-11 21:17:21.516,STOP,43
16.0,17264.733286468185,24242.210297848025,-31412.716974343894,-19436.00409460117,-34482.46085434686,-25939.579420039587,-14556.886500941098,-31075.786778424597,0.0,0.0,0.0,193.0,0.0,194.0,0.0,17.0,0.0,180.0,194.0,17.0,180.0,1744420641.516982,0.0,2025-04-11 21:17:21.516,STOP,43
17.0,17292.047118192568,24247.820585706304,-31409.3642126756,-19430.684379420803,-34477.85639498907,-25950.688237033875,-14157.840807180502,-31029.89864705785,0.0,0.0,0.0,193.0,0.0,193.0,0.0,17.0,0.0,179.0,193.0,17.0,179.0,1744420641.51704,0.0,2025-04-11 21:17:21.517,STOP,43
18.0,17304.51939159863,24231.1685360871,-31422.708204115417,-19455.159539599365,-34493.279098663224,-25969.24018493178,-13948.539072101006,-31081.084141860505,0.0,0.0,0.0,193.0,0.0,194.0,0.0,17.0,0.0,180.0,194.0,17.0,180.0,1744420641.5170841,0.0,2025-04-11 21:17:21.517,STOP,43
19.0,17287.777935001606,24226.385262773667,-31418.64018662455,-19445.950620883777,-34489.74752303929,-25951.224678900802,-14274.20398881483,-31084.77217969563,0.0,0.0,0.0,193.0,0.0,194.0,0.0,17.0,0.0,180.0,194.0,17.0,180.0,1744420641.5171285,0.0,2025-04-11 21:17:21.517,STOP,43
20.0,17273.56222552803,24238.410501290622,-31415.019204022792,-19439.692132436292,-34485.12071193704,-25940.629952028987,-14543.743675201378,-31074.982115624207,0.0,0.0,0.0,193.0,0.0,193.0,0.0,17.0,0.0,179.0,193.0,17.0,179.0,1744420641.517185,0.0,2025-04-11 21:17:21.517,STOP,43
21.0,17295.131658927403,24248.312324084323,-31418.03668952426,-19436.205260301263,-34492.96617424085,-25951.13527192298,-14256.456703717316,-31044.047301298062,0.0,0.0,0.0,193.0,0.0,194.0,0.0,17.0,0.0,180.0,194.0,17.0,180.0,1744420641.5172293,0.0,2025-04-11 21:17:21.517,STOP,43
22.0,17309.548534101075,24243.104367626234,-31426.731518117373,-19455.025429132635,-34505.46079939137,-25966.446216874865,-13942.504101098073,-31081.15119709387,0.0,0.0,0.0,193.0,0.0,193.0,0.0,17.0,0.0,179.0,193.0,17.0,179.0,1744420641.5172732,0.0,2025-04-11 21:17:21.517,STOP,43
23.0,17290.0801646805,24234.118966355203,-31421.098878514636,-19450.57743198603,-34499.67169757744,-25955.739731280773,-14235.91545056289,-31109.73907825221,0.0,0.0,0.0,193.0,0.0,194.0,0.0,17.0,0.0,180.0,194.0,17.0,180.0,1744420641.5173168,0.0,2025-04-11 21:17:21.517,STOP,43
24.0,17273.070487150013,24237.494079767952,-31411.957015032414,-19442.262583048654,-34484.94189798139,-25942.641609029964,-14543.58721299019,-31090.717743720743,0.0,0.0,0.0,193.0,0.0,194.0,0.0,17.0,0.0,180.0,194.0,17.0,180.0,1744420641.5173607,0.0,2025-04-11 21:17:21.517,STOP,43
25.0,17294.706975782752,24242.79144320386,-31403.798628306227,-19431.690207921292,-34478.48224383381,-25934.259704859225,-14347.674172839425,-31045.500164687655,0.0,0.0,0.0,193.0,0.0,193.0,0.0,17.0,0.0,179.0,193.0,17.0,179.0,1744420641.5174048,0.0,2025-04-11 21:17:21.517,STOP,43
26.0,17315.605856848462,24241.003303647438,-31417.477895912874,-19445.99532437269,-34495.91660450895,-25946.46375733182,-13934.837452749904,-31039.331083217992,0.0,0.0,0.0,193.0,0.0,194.0,0.0,17.0,0.0,180.0,194.0,17.0,180.0,1744420641.5174637,0.0,2025-04-11 21:17:21.517,STOP,43
27.0,17292.963539715238,24227.771070929895,-31422.194113992944,-19450.018638374644,-34496.3412876536,-25945.74850150925,-14141.076998839022,-31084.39220003989,0.0,0.0,0.0,193.0,0.0,193.0,0.0,17.0,0.0,179.0,193.0,17.0,179.0,1744420641.5175123,0.0,2025-04-11 21:17:21.517,STOP,43
28.0,17273.2269493612,24239.729254213486,-31409.498323142332,-19436.94286786829,-34480.58330781261,-25926.83892570006,-14482.857523305122,-31063.269801529623,0.0,0.0,0.0,193.0,0.0,194.0,0.0,17.0,0.0,180.0,194.0,17.0,180.0,1744420641.5175564,0.0,2025-04-11 21:17:21.517,STOP,43
29.0,17285.118077411422,24248.4240828066,-31401.138770716047,-19425.431719473807,-34478.48224383381,-25927.12949837798,-14428.028694156254,-31043.62261815341,0.0,0.0,0.0,193.0,0.0,193.0,0.0,17.0,0.0,179.0,193.0,17.0,179.0,1744420641.5176003,0.0,2025-04-11 21:17:21.517,STOP,43
30.0,17306.195772432777,24243.70786472653,-31412.672270854986,-19437.903992879867,-34489.61341257255,-25949.436539344377,-13949.433141879219,-31023.3719376769,0.0,0.0,0.0,193.0,0.0,193.0,0.0,17.0,0.0,179.0,193.0,17.0,179.0,1744420641.5176442,0.0,2025-04-11 21:17:21.517,STOP,43
31.0,17294.975196716216,24229.000416874936,-31414.907445300516,-19444.765978427647,-34490.19455792839,-25943.490975319266,-14081.755469054637,-31078.178415081315,0.0,0.0,0.0,193.0,0.0,194.0,0.0,17.0,0.0,180.0,194.0,17.0,180.0,1744420641.517688,0.0,2025-04-11 21:17:21.517,STOP,43
32.0,17273.249301105654,24231.92849539858,-31411.822904565684,-19436.56288821255,-34488.20525267187,-25931.55514378013,-14442.289107118739,-31068.6342201989,0.0,0.0,0.0,193.0,0.0,194.0,0.0,17.0,0.0,179.0,194.0,17.0,179.0,1744420641.5177476,0.0,2025-04-11 21:17:21.517,STOP,43
33.0,17284.022841933114,24240.064530380314,-31400.55762536021,-19425.007036329156,-34476.716456021844,-25924.626102998987,-14504.181087515484,-31057.34658924897,0.0,0.0,0.0,193.0,0.0,193.0,0.0,17.0,0.0,179.0,193.0,17.0,179.0,1744420641.5177917,0.0,2025-04-11 21:17:21.517,STOP,43
34.0,17306.642807321885,24238.410501290622,-31416.717936601395,-19436.38407425691,-34497.25770917627,-25949.727112022298,-14009.335817019442,-31019.505085886132,0.0,0.0,0.0,193.0,0.0,194.0,0.0,17.0,0.0,179.0,194.0,17.0,179.0,1744420641.5178354,0.0,2025-04-11 21:17:21.517,STOP,43
35.0,17298.52912408461,24221.64669294914,-31420.94241630345,-19449.683362207816,-34498.174130698935,-25950.487071333777,-14040.941183679246,-31086.828540185517,0.0,0.0,0.0,193.0,0.0,193.0,0.0,17.0,0.0,179.0,193.0,17.0,179.0,1744420641.5178933,0.0,2025-04-11 21:17:21.517,STOP,43
36.0,17272.668155749816,24231.03442562037,-31416.22619822338,-19439.356856269464,-34488.92050849444,-25932.09158564706,-14379.74892613279,-31061.168737550826,0.0,0.0,0.0,193.0,0.0,194.0,0.0,17.0,0.0,180.0,194.0,17.0,180.0,1744420641.5179377,0.0,2025-04-11 21:17:21.517,STOP,43
37.0,17270.298870837556,24245.76422521642,-31407.419610907986,-19432.60662944396,-34480.49390083479,-25929.007044912225,-14533.283058796294,-31068.410702754347,0.0,0.0,0.0,193.0,0.0,193.0,0.0,17.0,0.0,179.0,193.0,17.0,179.0,1744420641.5179815,0.0,2025-04-11 21:17:21.517,STOP,43
38.0,17294.930493227304,24238.835184435273,-31415.063907511703,-19436.831109146013,-34490.06044746166,-25950.531774822688,-14101.134431497389,-31042.48267918619,0.0,0.0,0.0,193.0,0.0,194.0,0.0,17.0,0.0,180.0,194.0,17.0,180.0,1744420641.5180254,0.0,2025-04-11 21:17:21.518,STOP,43
39.0,17297.32212988402,24216.17051555759,-31417.746116846338,-19449.839824419003,-34488.89815674999,-25950.397664355954,-13988.43693595373,-31078.759560437153,0.0,0.0,0.0,193.0,0.0,193.0,0.0,17.0,0.0,179.0,193.0,17.0,179.0,1744420641.5180693,0.0,2025-04-11 21:17:21.518,STOP,43
40.0,17277.294966852067,24215.94699811304,-31414.013375522303,-19438.731007424714,-34481.27621189073,-25933.924428692393,-14303.909457195934,-31050.618714167922,0.0,0.0,0.0,193.0,0.0,194.0,0.0,17.0,0.0,180.0,194.0,17.0,180.0,1744420641.5181277,0.0,2025-04-11 21:17:21.518,STOP,43
41.0,17261.31346956652,24228.151050585635,-31413.231064466367,-19437.635771946403,-34484.83013925912,-25937.210135127323,-14540.726189699912,-31068.969496365728,0.0,0.0,0.0,193.0,0.0,194.0,0.0,17.0,0.0,180.0,194.0,17.0,180.0,1744420641.518172,0.0,2025-04-11 21:17:21.518,STOP,43
42.0,17286.258016378644,24233.202544832533,-31423.915198316005,-19443.335466782508,-34502.55507261218,-25960.746522038764,-14193.111859930976,-31052.228039768703,0.0,0.0,0.0,193.0,0.0,194.0,0.0,17.0,0.0,179.0,194.0,17.0,179.0,1744420641.518216,0.0,2025-04-11 21:17:21.518,STOP,43
43.0,17300.76429853014,24225.491192995454,-31429.056099540725,-19459.786350701615,-34498.50940686576,-25962.71347555083,-13947.779112789525,-31078.021952870127,0.0,0.0,0.0,193.0,0.0,194.0,0.0,17.0,0.0,180.0,194.0,17.0,180.0,1744420641.5182595,0.0,2025-04-11 21:17:21.518,STOP,43
44.0,17280.80419073155,24227.3687395297,-31420.853009325627,-19445.70475169477,-34486.864148004555,-25939.557068295133,-14247.024267557177,-31068.410702754347,0.0,0.0,0.0,193.0,0.0,194.0,0.0,17.0,0.0,179.0,194.0,17.0,179.0,1744420641.5183036,0.0,2025-04-11 21:17:21.518,STOP,43
45.0,17270.455333048743,24234.40953903312,-31410.750020831827,-19431.779614899115,-34479.39866535648,-25927.174201866892,-14531.45021575096,-31053.52444094711,0.0,0.0,0.0,193.0,0.0,194.0,0.0,17.0,0.0,180.0,194.0,17.0,180.0,1744420641.5183475,0.0,2025-04-11 21:17:21.518,STOP,43
46.0,17295.198714160768,24239.55044025784,-31410.50415164282,-19425.185850284797,-34485.07600844813,-25935.578457782085,-14271.29826203564,-31019.303920186034,0.0,0.0,0.0,193.0,0.0,194.0,0.0,17.0,0.0,180.0,194.0,17.0,180.0,1744420641.5183916,0.0,2025-04-11 21:17:21.518,STOP,43
47.0,17299.04321420708,24227.189925574057,-31429.525486174287,-19454.51133901016,-34507.405401158976,-25963.89811800696,-13933.116368426845,-31060.274667772614,0.0,0.0,0.0,193.0,0.0,194.0,0.0,17.0,0.0,179.0,194.0,17.0,179.0,1744420641.5184505,0.0,2025-04-11 21:17:21.518,STOP,43
48.0,17279.887769208883,24222.160783071613,-31422.84231458215,-19448.297554051587,-34497.68239232092,-25951.247030645256,-14209.76390955018,-31101.647746759387,0.0,0.0,0.0,193.0,0.0,194.0,0.0,17.0,0.0,180.0,194.0,17.0,180.0,1744420641.5184948,0.0,2025-04-11 21:17:21.518,STOP,43
49.0,17273.495170294664,24243.730216470984,-31402.79279980574,-19423.084786306,-34474.50363332077,-25920.915713419407,-14537.619297220625,-31074.020990612626,0.0,0.0,0.0,193.0,0.0,194.0,0.0,17.0,0.0,179.0,194.0,17.0,179.0,1744420641.5185387,0.0,2025-04-11 21:17:21.518,STOP,43
50.0,17289.007280946647,24251.598030519253,-31399.93177651546,-19415.66400714684,-34475.934144965904,-25921.429803541876,-14363.454504424872,-31020.622673108897,0.0,0.0,0.0,193.0,0.0,194.0,0.0,17.0,0.0,179.0,194.0,17.0,179.0,1744420641.5185957,0.0,2025-04-11 21:17:21.518,STOP,43
51.0,17306.419289877333,24242.79144320386,-31417.3661371906,-19437.144033568387,-34495.8942527645,-25948.162489910424,-13923.885097966802,-31016.75582131813,0.0,0.0,0.0,193.0,0.0,194.0,0.0,17.0,0.0,180.0,194.0,17.0,180.0,1744420641.5186398,0.0,2025-04-11 21:17:21.518,STOP,43
52.0,17296.875094994914,24232.733158198975,-31416.02503252328,-19436.205260301263,-34497.324764409634,-25940.2723241177,-14152.096408855488,-31080.793569182584,0.0,0.0,0.0,193.0,0.0,193.0,0.0,17.0,0.0,179.0,193.0,17.0,179.0,1744420641.518684,0.0,2025-04-11 21:17:21.518,STOP,43
53.0,17282.122943654413,24249.02757990689,-31403.284538183754,-19416.245152502677,-34476.60469729957,-25913.874913915985,-14491.284130964772,-31049.09879554496,0.0,0.0,0.0,193.0,0.0,194.0,0.0,17.0,0.0,180.0,194.0,17.0,180.0,1744420641.5187283,0.0,2025-04-11 21:17:21.518,STOP,43
54.0,17291.242455392177,24254.816681720815,-31398.657727081507,-19409.85255358846,-34468.334551851105,-25915.50659126122,-14421.211412097386,-31024.75774583313,0.0,0.0,0.0,193.0,0.0,194.0,0.0,17.0,0.0,180.0,194.0,17.0,180.0,1744420641.5187721,0.0,2025-04-11 21:17:21.518,STOP,43
55.0,17314.197696947776,24253.18500437558,-31415.30977670071,-19427.17515554132,-34491.51331085125,-25941.88164971848,-13954.484636126119,-31022.634330109875,0.0,0.0,0.0,193.0,0.0,193.0,0.0,17.0,0.0,179.0,193.0,17.0,179.0,1744420641.5188303,0.0,2025-04-11 21:17:21.518,STOP,43
56.0,17296.13748742789,24234.945980900047,-31423.84814308264,-19442.93313538231,-34499.87286327754,-25945.18970789787,-14082.135448710376,-31090.270708831635,0.0,0.0,0.0,193.0,0.0,194.0,0.0,17.0,0.0,180.0,194.0,17.0,180.0,1744420641.518875,0.0,2025-04-11 21:17:21.518,STOP,43
57.0,17273.785742972585,24243.193774604057,-31418.68489011346,-19432.383111999407,-34492.20621492937,-25929.38702456797,-14451.72154327888,-31073.663362701343,0.0,0.0,0.0,193.0,0.0,194.0,0.0,17.0,0.0,180.0,194.0,17.0,180.0,1744420641.5189188,0.0,2025-04-11 21:17:21.518,STOP,43
58.0,17268.488379536677,24243.372588559698,-31412.06877375469,-19427.242210774686,-34482.01381945775,-25931.510440291222,-14527.292791282272,-31064.946182363772,0.0,0.0,0.0,193.0,0.0,193.0,0.0,17.0,0.0,179.0,193.0,17.0,179.0,1744420641.5189629,0.0,2025-04-11 21:17:21.518,STOP,43
59.0,17295.578693816507,24238.969294902003,-31425.45746868342,-19438.686303935803,-34497.280060920726,-25952.252859145745,-14036.15791036581,-31019.013347508117,0.0,0.0,0.0,193.0,0.0,194.0,0.0,17.0,0.0,179.0,194.0,17.0,179.0,1744420641.5190065,0.0,2025-04-11 21:17:21.519,STOP,43
60.0,17283.37464134391,24217.623378947184,-31436.901561844537,-19459.741647212704,-34500.07402897764,-25956.56674582562,-14014.789642666537,-31072.411665011845,0.0,0.0,0.0,193.0,0.0,193.0,0.0,17.0,0.0,179.0,193.0,17.0,179.0,1744420641.519051,0.0,2025-04-11 21:17:21.519,STOP,43
61.0,17254.74205669666,24213.22008528949,-31435.0687187992,-19452.633792475914,-34493.63672657451,-25943.80389974164,-14373.445734196393,-31072.52342373412,0.0,0.0,0.0,193.0,0.0,194.0,0.0,17.0,0.0,180.0,194.0,17.0,180.0,1744420641.5190947,0.0,2025-04-11 21:17:21.519,STOP,43
62.0,17250.56228048352,24218.98683535896,-31424.563398905208,-19443.491928993695,-34485.43363635941,-25934.32676009259,-14552.416152050037,-31077.463159258743,0.0,0.0,0.0,193.0,0.0,194.0,0.0,17.0,0.0,180.0,194.0,17.0,180.0,1744420641.519153,0.0,2025-04-11 21:17:21.519,STOP,43
63.0,17274.970385428715,24222.607817960718,-31429.905465830027,-19443.313115038054,-34491.06627596215,-25949.99533295576,-14113.226725247709,-31029.608074379932,0.0,0.0,0.0,193.0,0.0,193.0,0.0,17.0,0.0,179.0,193.0,17.0,179.0,1744420641.5191972,0.0,2025-04-11 21:17:21.519,STOP,43
64.0,17280.04423142007,24215.768184157394,-31438.957922334426,-19459.18285360132,-34497.10124696508,-25953.593963813066,-13976.38934569232,-31076.926717391816,0.0,0.0,0.0,193.0,0.0,194.0,0.0,17.0,0.0,180.0,194.0,17.0,180.0,1744420641.5192413,0.0,2025-04-11 21:17:21.519,STOP,43
65.0,17263.19101610077,24225.513544739908,-31434.487573443363,-19446.151786583876,-34496.05071497568,-25936.60663802703,-14309.340931098573,-31067.3825225094,0.0,0.0,0.0,193.0,0.0,194.0,0.0,17.0,0.0,180.0,194.0,17.0,180.0,1744420641.519298,0.0,2025-04-11 21:17:21.519,STOP,43
66.0,17254.65264971884,24231.32499829829,-31418.41666918,-19433.590106199994,-34481.119749679536,-25923.575571009587,-14540.279154810805,-31051.75865313514,0.0,0.0,0.0,193.0,0.0,194.0,0.0,17.0,0.0,179.0,194.0,17.0,179.0,1744420641.5193424,0.0,2025-04-11 21:17:21.519,STOP,43
67.0,17286.101554167457,24236.957637901025,-31415.622701123084,-19426.95163809677,-34485.21011891486,-25931.398681568942,-14188.66386278437,-31006.071687468495,0.0,0.0,0.0,193.0,0.0,194.0,0.0,17.0,0.0,180.0,194.0,17.0,180.0,1744420641.5193863,0.0,2025-04-11 21:17:21.519,STOP,43
68.0,17297.52329558412,24227.346387785245,-31426.306834972722,-19446.442359261797,-34501.16926445595,-25948.877745732992,-13946.527415100029,-31061.526365462112,0.0,0.0,0.0,193.0,0.0,194.0,0.0,17.0,0.0,179.0,194.0,17.0,179.0,1744420641.5194297,0.0,2025-04-11 21:17:21.519,STOP,43
69.0,17273.495170294664,24218.875076636683,-31424.317529716198,-19440.51914698114,-34498.934090010414,-25937.56776303861,-14266.380878255473,-31078.781912181606,0.0,0.0,0.0,193.0,0.0,194.0,0.0,17.0,0.0,179.0,194.0,17.0,179.0,1744420641.5194738,0.0,2025-04-11 21:17:21.519,STOP,43
70.0,17259.815902688017,24230.07330060879,-31412.605215621617,-19428.538611953096,-34485.61245031506,-25922.636797742463,-14550.7844747048,-31057.14542354887,0.0,0.0,0.0,193.0,0.0,193.0,0.0,17.0,0.0,179.0,193.0,17.0,179.0,1744420641.5195773,0.0,2025-04-11 21:17:21.519,STOP,43
71.0,17274.165722628324,24234.968332644505,-31416.78499183476,-19429.27621952012,-34487.557052082666,-25938.081853161082,-14289.44787853335,-31025.22713246669,0.0,0.0,0.0,193.0,0.0,193.0,0.0,17.0,0.0,179.0,193.0,17.0,179.0,1744420641.519631,0.0,2025-04-11 21:17:21.519,STOP,43
72.0,17296.696281039272,24229.55921048632,-31428.02791929578,-19450.912708152857,-34495.53662485321,-25955.940896980872,-13910.809327460449,-31046.79656586606,0.0,0.0,0.0,193.0,0.0,194.0,0.0,17.0,0.0,180.0,194.0,17.0,180.0,1744420641.5196815,0.0,2025-04-11 21:17:21.519,STOP,43
73.0,17286.79445824557,24220.350291770734,-31422.88701807106,-19446.75528368417,-34488.942860238894,-25938.19361188336,-14170.357784075473,-31068.00837135415,0.0,0.0,0.0,193.0,0.0,193.0,0.0,17.0,0.0,179.0,193.0,17.0,179.0,1744420641.519732,0.0,2025-04-11 21:17:21.519,STOP,43
74.0,17275.305661595543,24238.5222600129,-31408.201921963922,-19425.364664240442,-34473.40839784246,-25912.422050526387,-14502.638817148068,-31039.755766362643,0.0,0.0,0.0,193.0,0.0,194.0,0.0,17.0,0.0,180.0,194.0,17.0,180.0,1744420641.519782,0.0,2025-04-11 21:17:21.519,STOP,43
75.0,17287.509714068143,24246.680646739085,-31410.92883478747,-19421.676626405315,-34480.18097641241,-25920.848658186038,-14374.65272839698,-31018.678071341288,0.0,0.0,0.0,193.0,0.0,194.0,0.0,17.0,0.0,180.0,194.0,17.0,180.0,1744420641.5198312,0.0,2025-04-11 21:17:21.519,STOP,43
76.0,17302.954769486758,24240.84684143625,-31428.251436740335,-19441.52497548163,-34500.275194677735,-25942.239277629767,-13936.580888817418,-31018.14162947436,0.0,0.0,0.0,193.0,0.0,193.0,0.0,17.0,0.0,179.0,193.0,17.0,179.0,1744420641.5199032,0.0,2025-04-11 21:17:21.519,STOP,43
77.0,17287.42030709032,24225.31237903981,-31427.916160573503,-19443.491928993695,-34497.36946789855,-25931.443385057853,-14123.12854804141,-31066.667266686833,0.0,0.0,0.0,193.0,0.0,194.0,0.0,17.0,0.0,180.0,194.0,17.0,180.0,1744420641.5199711,0.0,2025-04-11 21:17:21.519,STOP,43
78.0,17265.157969612836,24233.716634955006,-31424.116364016103,-19432.919553866333,-34488.76404628325,-25921.56391400861,-14466.317232408195,-31060.00644683915,0.0,0.0,0.0,193.0,0.0,193.0,0.0,17.0,0.0,179.0,193.0,17.0,179.0,1744420641.5200176,0.0,2025-04-11 21:17:21.520,STOP,43
79.0,17274.90333019535,24240.46686178051,-31416.293253456744,-19424.89527760688,-34480.40449385697,-25923.12853612048,-14463.38915388455,-31060.945220106274,0.0,0.0,0.0,193.0,0.0,193.0,0.0,17.0,0.0,179.0,193.0,17.0,179.0,1744420641.5200627,0.0,2025-04-11 21:17:21.520,STOP,43
80.0,17302.820659020028,24246.300667083346,-31424.138715760557,-19430.974952098724,-34492.586194585114,-25931.89041994696,-13975.472924169651,-31008.843303780952,0.0,0.0,0.0,193.0,0.0,194.0,0.0,17.0,0.0,180.0,194.0,17.0,180.0,1744420641.994894,0.0,2025-04-11 21:17:21.994,STOP,43
81.0,17292.158876914844,24231.235591320466,-31427.13384951757,-19440.9885336147,-34496.296584164695,-25927.75534722273,-14063.963480468212,-31056.452519470757,0.0,0.0,0.0,193.0,0.0,193.0,0.0,17.0,0.0,179.0,193.0,17.0,179.0,1744420641.9950428,0.0,2025-04-11 21:17:21.995,STOP,43
82.0,17275.529179040095,24240.55626875833,-31423.17759074898,-19428.9856468422,-34490.19455792839,-25915.55129475013,-14421.814909197677,-31048.115318788925,0.0,0.0,0.0,193.0,0.0,193.0,0.0,17.0,0.0,179.0,193.0,17.0,179.0,1744420641.9950964,0.0,2025-04-11 21:17:21.995,STOP,43
83.0,17272.690507494273,24244.13254787118,-31415.80151507873,-19421.78838512759,-34479.62218280103,-25913.427879026876,-14506.885648594576,-31045.76838562112,0.0,0.0,0.0,193.0,0.0,193.0,0.0,17.0,0.0,180.0,193.0,17.0,180.0,1744420641.995148,0.0,2025-04-11 21:17:21.995,STOP,43
84.0,17290.638958291886,24235.527126255885,-31429.50313442983,-19434.55123121157,-34495.42486613093,-25936.51723104921,-14027.127805605865,-31010.720850315196,0.0,0.0,0.0,193.0,0.0,193.0,0.0,17.0,0.0,179.0,193.0,17.0,179.0,1744420641.9951985,0.0,2025-04-11 21:17:21.995,STOP,43
85.0,17283.441696577276,24212.527181211375,-31436.588637422163,-19455.316001810552,-34502.085685978614,-25944.161527652923,-14015.907229889302,-31085.710952962752,0.0,0.0,0.0,193.0,0.0,194.0,0.0,17.0,0.0,180.0,194.0,17.0,180.0,1744420641.9953053,0.0,2025-04-11 21:17:21.995,STOP,43
86.0,17256.55254799754,24214.248265534436,-31434.46522169891,-19447.22467031773,-34493.65907831897,-25929.096451890047,-14365.041478281199,-31071.91992663383,0.0,0.0,0.0,193.0,0.0,193.0,0.0,17.0,0.0,179.0,193.0,17.0,179.0,1744420641.995356,0.0,2025-04-11 21:17:21.995,STOP,43
87.0,17251.21048107272,24227.681663952073,-31422.12705875958,-19435.37824575642,-34479.73394152331,-25917.83117268457,-14529.30444828325,-31047.333007732992,0.0,0.0,0.0,193.0,0.0,193.0,0.0,17.0,0.0,179.0,193.0,17.0,179.0,1744420641.9954054,0.0,2025-04-11 21:17:21.995,STOP,43
88.0,17281.742963998673,24238.812832690815,-31425.479820427874,-19430.572620698527,-34494.195520185895,-25934.930257192882,-14130.12464405592,-31020.689728342266,0.0,0.0,0.0,193.0,0.0,194.0,0.0,17.0,0.0,180.0,194.0,17.0,180.0,1744420641.9954548,0.0,2025-04-11 21:17:21.995,STOP,43
89.0,17285.453353578254,24222.429004005076,-31438.60029442314,-19454.75720819917,-34504.745543568795,-25951.582306812088,-13977.9986712931,-31079.072484859527,0.0,0.0,0.0,193.0,0.0,193.0,0.0,17.0,0.0,179.0,193.0,17.0,179.0,1744420641.9955044,0.0,2025-04-11 21:17:21.995,STOP,43
90.0,17267.124923124902,24228.061643607813,-31427.156201262023,-19439.803891158568,-34482.304392135666,-25928.93998967886,-14284.35168079754,-31056.988961337684,0.0,0.0,0.0,193.0,0.0,194.0,0.0,17.0,0.0,179.0,194.0,17.0,179.0,1744420641.9955544,0.0,2025-04-11 21:17:21.995,STOP,43
91.0,17265.068562635013,24247.61942000621,-31411.50998014331,-19421.140184538388,-34471.21792688584,-25908.756364435718,-14523.91767786952,-31027.775231334595,0.0,0.0,0.0,193.0,0.0,193.0,0.0,17.0,0.0,179.0,193.0,17.0,179.0,1744420641.995624,0.0,2025-04-11 21:17:21.995,STOP,43
92.0,17291.823600748015,24252.223879364003,-31411.822904565684,-19415.954579824756,-34477.54347056669,-25917.27237907319,-14187.881551728435,-30985.061047680505,0.0,0.0,0.0,193.0,0.0,193.0,0.0,17.0,0.0,179.0,193.0,17.0,179.0,1744420641.9956744,0.0,2025-04-11 21:17:21.995,STOP,43
93.0,17298.439717106787,24232.35317854323,-31428.765526862804,-19443.84955690498,-34495.22370043083,-25940.160565395425,-13915.547897284974,-31028.848115068453,0.0,0.0,0.0,193.0,0.0,193.0,0.0,17.0,0.0,179.0,193.0,17.0,179.0,1744420641.9957235,0.0,2025-04-11 21:17:21.995,STOP,43
94.0,17276.89263545187,24227.748719185438,-31428.430250695976,-19443.044894104587,-34496.9447847539,-25936.204306626834,-14218.972828265767,-31062.10751081795,0.0,0.0,0.0,193.0,0.0,194.0,0.0,17.0,0.0,180.0,194.0,17.0,180.0,1744420641.9957724,0.0,2025-04-11 21:17:21.995,STOP,43
95.0,17263.1239608674,24244.579582760285,-31418.2155034799,-19431.109062565454,-34492.31797365165,-25925.47546928829,-14534.7806256748,-31060.408778239344,0.0,0.0,0.0,193.0,0.0,193.0,0.0,17.0,0.0,179.0,193.0,17.0,179.0,1744420641.995839,0.0,2025-04-11 21:17:21.995,STOP,43
96.0,17284.961615200238,24249.83224270728,-31414.438058666954,-19425.252905518166,-34491.31214515116,-25930.683425746374,-14324.093082439076,-31025.204780722237,0.0,0.0,0.0,193.0,0.0,193.0,0.0,17.0,0.0,180.0,193.0,17.0,180.0,1744420641.9958887,0.0,2025-04-11 21:17:21.995,STOP,43
97.0,17308.028615478113,24244.08784438227,-31420.65184362553,-19439.580373714016,-34492.586194585114,-25940.965228195815,-13928.623667791328,-31022.969606276707,0.0,0.0,0.0,193.0,0.0,194.0,0.0,17.0,0.0,180.0,194.0,17.0,180.0,1744420641.995938,0.0,2025-04-11 21:17:21.995,STOP,43
98.0,17292.158876914844,24244.33371357128,-31422.909369815516,-19441.413216759353,-34496.16247369796,-25934.974960681793,-14171.698888742792,-31069.774159166118,0.0,0.0,0.0,193.0,0.0,193.0,0.0,17.0,0.0,179.0,193.0,17.0,179.0,1744420641.9959877,0.0,2025-04-11 21:17:21.995,STOP,43
99.0,17274.635109261886,24253.050893908847,-31414.393355178043,-19428.158632297353,-34487.22177591584,-25921.250989586235,-14520.184936545485,-31062.465138729232,0.0,0.0,0.0,193.0,0.0,194.0,0.0,17.0,0.0,179.0,194.0,17.0,179.0,1744420641.996037,0.0,2025-04-11 21:17:21.996,STOP,43
100.0,17288.42613559081,24250.815719463317,-31408.581901619662,-19419.88848684889,-34482.34909562458,-25920.33456806357,-14403.464126999872,-31023.148420232348,0.0,0.0,0.0,193.0,0.0,193.0,0.0,17.0,0.0,179.0,193.0,17.0,179.0,1744420641.996102,0.0,2025-04-11 21:17:21.996,STOP,43
101.0,17306.866324766437,24244.959562416025,-31421.79178259275,-19436.764053912648,-34492.787360285205,-25941.144042151456,-13936.290316139499,-31008.19510319175,0.0,0.0,0.0,193.0,0.0,193.0,0.0,17.0,0.0,179.0,193.0,17.0,179.0,1744420641.996152,0.0,2025-04-11 21:17:21.996,STOP,43
102.0,17294.639920549384,24232.152012843137,-31422.97642504888,-19441.301458037076,-34497.68239232092,-25936.785451982672,-14109.449280434763,-31066.15317656436,0.0,0.0,0.0,193.0,0.0,194.0,0.0,17.0,0.0,180.0,194.0,17.0,180.0,1744420641.9962013,0.0,2025-04-11 21:17:21.996,STOP,43
103.0,17272.1764173718,24242.45616703703,-31418.997814535836,-19430.125585809423,-34493.34615389659,-25920.89336167495,-14469.737049309857,-31041.43214719679,0.0,0.0,0.0,193.0,0.0,193.0,0.0,17.0,0.0,179.0,193.0,17.0,179.0,1744420641.9962504,0.0,2025-04-11 21:17:21.996,STOP,43
104.0,17279.932472697794,24248.871117695704,-31411.733497587862,-19423.688283406293,-34483.19846191388,-25923.486164031765,-14480.599997115136,-31035.866562827418,0.0,0.0,0.0,193.0,0.0,194.0,0.0,17.0,0.0,180.0,194.0,17.0,180.0,1744420641.9962995,0.0,2025-04-11 21:17:21.996,STOP,43
105.0,17305.07818521001,24247.306495583834,-31424.74221286085,-19435.445300989784,-34496.65421207598,-25946.03907418717,-13992.1026220444,-31014.654757339333,0.0,0.0,0.0,193.0,0.0,193.0,0.0,17.0,0.0,179.0,193.0,17.0,179.0,1744420641.996349,0.0,2025-04-11 21:17:21.996,STOP,43
106.0,17292.047118192568,24231.190887831555,-31427.2679599843,-19445.8388621615,-34494.48609286381,-25941.009931684726,-14060.722477522193,-31069.14831032137,0.0,0.0,0.0,193.0,0.0,193.0,0.0,17.0,0.0,179.0,193.0,17.0,179.0,1744420641.9964137,0.0,2025-04-11 21:17:21.996,STOP,43
107.0,17272.735210983185,24237.583486745774,-31419.109573258113,-19429.432681731305,-34482.75142702478,-25914.79133543865,-14424.273601087762,-31041.81212685253,0.0,0.0,0.0,193.0,0.0,194.0,0.0,17.0,0.0,180.0,194.0,17.0,180.0,1744420641.9964616,0.0,2025-04-11 21:17:21.996,STOP,43
108.0,17276.55735928504,24248.088806639767,-31409.83359930916,-19417.720367636724,-34475.12948216552,-25902.20730331031,-14526.73399767089,-31023.99778652165,0.0,0.0,0.0,193.0,0.0,194.0,0.0,17.0,0.0,179.0,194.0,17.0,179.0,1744420641.9965072,0.0,2025-04-11 21:17:21.996,STOP,43
109.0,17295.578693816507,24248.64760025115,-31422.574093648687,-19427.398672985873,-34492.45208411838,-25924.693158232352,-14063.605852556928,-30991.788922761552,0.0,0.0,0.0,193.0,0.0,194.0,0.0,17.0,0.0,180.0,194.0,17.0,180.0,1744420641.9965527,0.0,2025-04-11 21:17:21.996,STOP,43
110.0,17293.18705715979,24225.42413776209,-31427.73734661786,-19444.00601911617,-34495.00018298628,-25932.873896702993,-14020.556392736005,-31059.313542761036,0.0,0.0,0.0,193.0,0.0,193.0,0.0,17.0,0.0,180.0,193.0,17.0,180.0,1744420641.996618,0.0,2025-04-11 21:17:21.996,STOP,43
111.0,17272.578748771997,24228.307512796822,-31421.12123025909,-19431.51139396565,-34487.64645906049,-25917.339434306556,-14375.345632475095,-31054.48556595869,0.0,0.0,0.0,193.0,0.0,194.0,0.0,17.0,0.0,180.0,194.0,17.0,180.0,1744420641.9966629,0.0,2025-04-11 21:17:21.996,STOP,43
112.0,17263.839216689972,24236.622361734197,-31413.052250510726,-19424.425890973318,-34479.26455488975,-25911.08094585907,-14547.834044436699,-31034.301940715548,0.0,0.0,0.0,193.0,0.0,193.0,0.0,17.0,0.0,180.0,193.0,17.0,180.0,1744420641.9967077,0.0,2025-04-11 21:17:21.996,STOP,43
113.0,17294.461106593742,24244.736044971472,-31413.655747611017,-19424.93998109579,-34481.678543290924,-25927.911809433917,-14137.970106359733,-30992.235957650657,0.0,0.0,0.0,193.0,0.0,193.0,0.0,17.0,0.0,180.0,193.0,17.0,180.0,1744420641.9967523,0.0,2025-04-11 21:17:21.996,STOP,43
114.0,17296.115135683434,24232.710806454517,-31422.574093648687,-19445.503585994673,-34492.809712029666,-25939.758233995228,-13967.538054888017,-31050.864583356928,0.0,0.0,0.0,193.0,0.0,194.0,0.0,17.0,0.0,180.0,194.0,17.0,180.0,1744420641.9967966,0.0,2025-04-11 21:17:21.996,STOP,43
115.0,17272.84696970546,24229.425100019587,-31421.45650642592,-19438.46278649125,-34490.37337188404,-25927.576533267085,-14299.908494938434,-31060.118205561426,0.0,0.0,0.0,193.0,0.0,193.0,0.0,17.0,0.0,180.0,193.0,17.0,180.0,1744420641.9968567,0.0,2025-04-11 21:17:21.996,STOP,43
116.0,17259.79355094356,24239.08105362428,-31414.79568657824,-19430.572620698527,-34483.89136599199,-25919.909884918918,-14563.659079511057,-31051.71394964623,0.0,0.0,0.0,193.0,0.0,194.0,0.0,17.0,0.0,180.0,194.0,17.0,180.0,1744420641.996901,0.0,2025-04-11 21:17:21.996,STOP,43
117.0,17288.493190824174,24250.122815385203,-31411.0629452542,-19422.704806650258,-34486.372409626536,-25927.196553611346,-14260.055334574621,-31013.403059649834,0.0,0.0,0.0,193.0,0.0,193.0,0.0,17.0,0.0,179.0,193.0,17.0,179.0,1744420641.9969451,0.0,2025-04-11 21:17:21.996,STOP,43
118.0,17306.70986255525,24245.116024627212,-31416.337956945656,-19439.625077202927,-34492.29562190719,-25938.79710898365,-13952.540034358506,-31040.582780907487,0.0,0.0,0.0,193.0,0.0,194.0,0.0,17.0,0.0,179.0,194.0,17.0,179.0,1744420641.996989,0.0,2025-04-11 21:17:21.996,STOP,43
119.0,17284.46987682222,24236.957637901025,-31415.868570312094,-19435.042969589587,-34487.11001719356,-25928.224733856292,-14225.544241135627,-31048.584705422487,0.0,0.0,0.0,193.0,0.0,194.0,0.0,17.0,0.0,180.0,194.0,17.0,180.0,1744420641.997033,0.0,2025-04-11 21:17:21.997,STOP,43
120.0,17266.521426024607,24249.139338629167,-31407.93370103046,-19427.823356130524,-34476.89526997748,-25920.73689946376,-14524.074140080707,-31040.180449507294,0.0,0.0,0.0,193.0,0.0,193.0,0.0,17.0,0.0,179.0,193.0,17.0,179.0,1744420641.9970767,0.0,2025-04-11 21:17:21.997,STOP,43
121.0,17285.967443700727,24254.16848113161,-31402.122247472078,-19421.721329894226,-34477.1858426554,-25929.163507123412,-14343.807321048656,-31026.925865045294,0.0,0.0,0.0,193.0,0.0,194.0,0.0,17.0,0.0,180.0,194.0,17.0,180.0,1744420641.9971352,0.0,2025-04-11 21:17:21.997,STOP,43
122.0,17299.55730432955,24236.868230923206,-31420.383622692065,-19447.023504617635,-34493.74848529679,-25959.673638304906,-13939.71013304116,-31047.690635644274,0.0,0.0,0.0,193.0,0.0,193.0,0.0,17.0,0.0,179.0,193.0,17.0,179.0,1744420641.9971795,0.0,2025-04-11 21:17:21.997,STOP,43
123.0,17279.731306997695,24225.84882090674,-31419.824829080684,-19447.783463929114,-34490.50748235077,-25948.073082932602,-14166.848560195991,-31079.407761026356,0.0,0.0,0.0,193.0,0.0,194.0,0.0,17.0,0.0,180.0,194.0,17.0,180.0,1744420641.9972234,0.0,2025-04-11 21:17:21.997,STOP,43
124.0,17261.93931841127,24244.71369322702,-31408.82777080867,-19430.505565465162,-34481.54443282419,-25926.347187322044,-14511.177183529995,-31051.848060112963,0.0,0.0,0.0,193.0,0.0,193.0,0.0,17.0,0.0,179.0,193.0,17.0,179.0,1744420641.9974072,0.0,2025-04-11 21:17:21.997,STOP,43
