Sample Index,EXG Channel 0,EXG Channel 1,EXG Channel 2,EXG Channel 3,EXG Channel 4,EXG Channel 5,EXG Channel 6,EXG Channel 7,Accel Channel 0,Accel Channel 1,Accel Channel 2,Not Used,Digital Channel 0 (D11),Digital Channel 1 (D12),Digital Channel 2 (D13),Digital Channel 3 (D17),Not Used,Digital Channel 4 (D18),Analog Channel 0,Analog Channel 1,Analog Channel 2,Timestamp,Marker Channel,Timestamp (Formatted),Stimulus_Direction,Stimulus_Number
128.0,7416.84525213781,-11994.348406117966,-21654.839414935042,-23741.17359413786,14342.443864636884,10839.210252667697,35423.692813359834,47384.29008535029,0.0,0.0,0.0,193.0,0.0,192.0,0.0,1.0,0.0,178.0,192.0,1.0,178.0,1744418822.244301,0.0,2025-04-11 20:47:02.244,STOP,37
129.0,7401.17667927464,-12025.707903588762,-21626.27388552116,-23775.37176315448,14509.16552652902,10670.722802963592,35769.00491344988,47362.89946590656,0.0,0.0,0.0,193.0,0.0,193.0,0.0,1.0,0.0,178.0,193.0,1.0,178.0,1744418822.2443583,0.0,2025-04-11 20:47:02.244,STOP,37
130.0,7399.030911806931,-12028.52422339013,-21659.555633015112,-23776.399943399425,14424.877098188055,10474.765059323914,35798.30805043078,47221.72584792684,0.0,0.0,0.0,193.0,0.0,192.0,0.0,1.0,0.0,179.0,192.0,1.0,179.0,1744418822.244406,0.0,2025-04-11 20:47:02.244,STOP,37
131.0,7398.56152517337,-12012.47567087122,-21683.04731643764,-23739.87719295945,14304.535306040681,10689.453564817139,35571.504899442785,47281.11443294459,0.0,0.0,0.0,193.0,0.0,193.0,0.0,1.0,0.0,178.0,193.0,1.0,178.0,1744418822.244457,0.0,2025-04-11 20:47:02.244,STOP,37
132.0,7417.761673660479,-11993.588446806485,-21648.133891598452,-23728.477803287245,14323.176660916408,10838.651459056313,35404.47031312827,47372.64482648907,0.0,0.0,0.0,193.0,0.0,193.0,0.0,1.0,0.0,178.0,193.0,1.0,178.0,1744418822.2445524,0.0,2025-04-11 20:47:02.244,STOP,37
133.0,7402.875411853244,-12025.752607077671,-21611.52173418066,-23762.27364090367,14502.571761914704,10727.451530391161,35711.96326159993,47372.734233466894,0.0,0.0,0.0,193.0,0.0,192.0,0.0,1.0,0.0,178.0,192.0,1.0,178.0,1744418822.244604,0.0,2025-04-11 20:47:02.244,STOP,37
134.0,7396.438109450115,-12034.067456015046,-21652.604240489512,-23784.84890280353,14447.877043232565,10499.486088691485,35831.81331536929,47233.05818236568,0.0,0.0,0.0,193.0,0.0,193.0,0.0,1.0,0.0,179.0,193.0,1.0,179.0,1744418822.2446513,0.0,2025-04-11 20:47:02.244,STOP,37
135.0,7412.106682313286,-11996.04713869657,-21675.358316345017,-23739.586620281534,14326.015332462232,10663.659651715714,35619.42703955496,47246.11160112758,0.0,0.0,0.0,193.0,0.0,193.0,0.0,1.0,0.0,179.0,193.0,1.0,179.0,1744418822.244701,0.0,2025-04-11 20:47:02.244,STOP,37
136.0,7439.465217526582,-11960.105533612435,-21649.027961376665,-23710.819925167554,14314.750053256757,10866.837008814457,35411.22053995378,47354.47285824691,0.0,0.0,0.0,193.0,0.0,192.0,0.0,1.0,0.0,178.0,192.0,1.0,178.0,1744418822.2447512,0.0,2025-04-11 20:47:02.244,STOP,37
137.0,7426.367095275771,-12001.366853876933,-21612.862838847977,-23739.4525098148,14475.8167238017,10782.41447000676,35667.59504885615,47385.36296908414,0.0,0.0,0.0,193.0,0.0,193.0,0.0,1.0,0.0,179.0,193.0,1.0,179.0,1744418822.2448025,0.0,2025-04-11 20:47:02.244,STOP,37
138.0,7409.178603789641,-12026.110234988957,-21646.323400297573,-23771.102579963517,14458.851749760122,10540.61329848925,35884.58578402827,47274.29715088572,0.0,0.0,0.0,193.0,0.0,193.0,0.0,1.0,0.0,178.0,193.0,1.0,178.0,1744418822.2448783,0.0,2025-04-11 20:47:02.244,STOP,37
139.0,7395.36522571626,-12011.08986271499,-21681.415639092404,-23744.772224995166,14332.474986609815,10631.853119355812,35713.63964243408,47253.51002854229,0.0,0.0,0.0,193.0,0.0,192.0,0.0,1.0,0.0,178.0,192.0,1.0,178.0,1744418822.2449586,0.0,2025-04-11 20:47:02.244,STOP,37
140.0,7400.930810085632,-11991.04034793858,-21673.14549364394,-23722.331073562036,14274.360451026017,10860.690279089247,35466.47405224729,47364.151163596056,0.0,0.0,0.0,193.0,0.0,193.0,0.0,1.0,0.0,179.0,193.0,1.0,179.0,1744418822.2450085,0.0,2025-04-11 20:47:02.245,STOP,37
141.0,7407.546926444403,-12006.552458590562,-21612.639321403425,-23734.915105690376,14430.174461623963,10822.871127470868,35610.70985921739,47385.49707955088,0.0,0.0,0.0,193.0,0.0,192.0,0.0,1.0,0.0,178.0,192.0,1.0,178.0,1744418822.2450457,0.0,2025-04-11 20:47:02.245,STOP,37
142.0,7396.75103387249,-12040.057723529068,-21632.577077457558,-23779.864463789996,14462.048049217232,10590.90472351369,35903.227138903996,47288.60226733712,0.0,0.0,0.0,193.0,0.0,192.0,0.0,1.0,0.0,179.0,192.0,1.0,179.0,1744418822.245083,0.0,2025-04-11 20:47:02.245,STOP,37
143.0,7404.283571753928,-12027.071360000535,-21670.373877331484,-23748.75083550821,14340.275745424718,10598.593723606316,35767.999084949384,47220.04946709269,0.0,0.0,0.0,193.0,0.0,193.0,0.0,1.0,0.0,179.0,193.0,1.0,179.0,1744418822.2451425,0.0,2025-04-11 20:47:02.245,STOP,37
144.0,7415.839423637322,-11996.740042774683,-21686.4671333393,-23725.84029744152,14251.382857725963,10849.268537672584,35512.65275629196,47331.852892858136,0.0,0.0,0.0,193.0,0.0,192.0,0.0,1.0,0.0,178.0,192.0,1.0,178.0,1744418822.245181,0.0,2025-04-11 20:47:02.245,STOP,37
145.0,7431.932679645143,-11976.869341953916,-21632.37591175746,-23729.327169576547,14386.543856447204,10845.267575415084,35548.281436953715,47367.213352586434,0.0,0.0,0.0,193.0,0.0,193.0,0.0,1.0,0.0,179.0,193.0,1.0,179.0,1744418822.2452185,0.0,2025-04-11 20:47:02.245,STOP,37
146.0,7405.647028165702,-12028.501871645674,-21640.266077550183,-23780.736181823755,14488.244293718852,10636.43522696915,35893.30296436584,47300.35928492061,0.0,0.0,0.0,193.0,0.0,193.0,0.0,1.0,0.0,179.0,193.0,1.0,179.0,1744418822.2452567,0.0,2025-04-11 20:47:02.245,STOP,37
147.0,7391.0066355474755,-12030.737046091206,-21673.39136283295,-23768.979164240263,14359.274728211729,10558.807618475868,35808.902777302595,47194.56847841364,0.0,0.0,0.0,193.0,0.0,192.0,0.0,1.0,0.0,178.0,192.0,1.0,178.0,1744418822.2453105,0.0,2025-04-11 20:47:02.245,STOP,37
148.0,7391.386615203216,-11999.444603853775,-21685.90833972792,-23732.903448689398,14247.068971046088,10825.642743783324,35561.424262693436,47302.281534943766,0.0,0.0,0.0,193.0,0.0,192.0,0.0,1.0,0.0,178.0,192.0,1.0,178.0,1744418822.2453485,0.0,2025-04-11 20:47:02.245,STOP,37
149.0,7407.412815977671,-11991.688548527783,-21629.648998933913,-23720.654692727887,14329.479852852804,10868.446334415237,35512.96568071433,47367.90625666455,0.0,0.0,0.0,193.0,0.0,193.0,0.0,1.0,0.0,179.0,193.0,1.0,179.0,1744418822.2453847,0.0,2025-04-11 20:47:02.245,STOP,37
150.0,7388.994978546498,-12040.52711016263,-21625.580981443047,-23771.460207874803,14472.441610388949,10678.434154800672,35874.57220251229,47343.252282530346,0.0,0.0,0.0,193.0,0.0,192.0,0.0,1.0,0.0,178.0,192.0,1.0,178.0,1744418822.245423,0.0,2025-04-11 20:47:02.245,STOP,37
151.0,7403.925943842643,-12028.345409434487,-21653.543013756636,-23754.003495455207,14374.98800456381,10512.539507453384,35831.03100431335,47196.17780401443,0.0,0.0,0.0,193.0,0.0,193.0,0.0,1.0,0.0,179.0,193.0,1.0,179.0,1744418822.2454607,0.0,2025-04-11 20:47:02.245,STOP,37
152.0,7404.060054309375,-12007.1336039464,-21672.832569221566,-23718.93360840483,14259.071857818588,10769.204589033674,35590.97326886335,47280.77915677776,0.0,0.0,0.0,193.0,0.0,193.0,0.0,1.0,0.0,179.0,193.0,1.0,179.0,1744418822.2454991,0.0,2025-04-11 20:47:02.245,STOP,37
153.0,7422.343781273817,-11986.32412985851,-21631.168917556875,-23710.596407723002,14302.300131595151,10888.227628258184,35463.25540104573,47364.642901974075,0.0,0.0,0.0,193.0,0.0,193.0,0.0,1.0,0.0,179.0,193.0,1.0,179.0,1744418822.2455387,0.0,2025-04-11 20:47:02.245,STOP,37
154.0,7409.960914845577,-12016.253115684167,-21603.788030599124,-23748.572021552565,14471.659299333012,10744.952946299667,35805.79588482331,47351.500076234355,0.0,0.0,0.0,193.0,0.0,193.0,0.0,1.0,0.0,179.0,193.0,1.0,179.0,1744418822.245576,0.0,2025-04-11 20:47:02.245,STOP,37
155.0,7400.483775196526,-12022.779825065116,-21655.822891691078,-23775.23765268775,14374.898597585989,10531.337324540296,35862.54696399534,47208.940650098404,0.0,0.0,0.0,193.0,0.0,193.0,0.0,1.0,0.0,179.0,193.0,1.0,179.0,1744418822.245616,0.0,2025-04-11 20:47:02.245,STOP,37
156.0,7402.853060108789,-11994.035481695591,-21682.510874570715,-23742.961733694287,14253.729790893769,10726.199832701664,35640.16945840949,47256.72867974385,0.0,0.0,0.0,193.0,0.0,192.0,0.0,1.0,0.0,178.0,192.0,1.0,178.0,1744418822.2456555,0.0,2025-04-11 20:47:02.245,STOP,37
157.0,7421.740284173523,-11975.192961119767,-21651.7101707113,-23725.057986385586,14269.599529457037,10878.214046742207,35452.39245324045,47352.57295996821,0.0,0.0,0.0,193.0,0.0,193.0,0.0,1.0,0.0,178.0,193.0,1.0,178.0,1744418822.2456963,0.0,2025-04-11 20:47:02.245,STOP,37
158.0,7398.628580406736,-12021.438720397797,-21616.863801105475,-23757.73623677924,14448.748761266323,10778.435859493717,35761.83000347972,47371.19196309948,0.0,0.0,0.0,193.0,0.0,192.0,0.0,1.0,0.0,178.0,192.0,1.0,178.0,1744418822.245736,0.0,2025-04-11 20:47:02.245,STOP,37
159.0,7398.136842028719,-12029.798272824082,-21648.960906143297,-23781.65260334642,14389.762507648767,10520.764949412936,35883.4681968055,47220.51885372625,0.0,0.0,0.0,193.0,0.0,193.0,0.0,1.0,0.0,179.0,193.0,1.0,179.0,1744418822.2457988,0.0,2025-04-11 20:47:02.245,STOP,37
160.0,7401.243734508006,-11998.438775353286,-21668.719848241788,-23739.74308249272,14274.9192446374,10660.39629702524,35679.35206643964,47224.98920261732,0.0,0.0,0.0,193.0,0.0,193.0,0.0,1.0,0.0,179.0,193.0,1.0,179.0,1744418822.245842,0.0,2025-04-11 20:47:02.245,STOP,37
161.0,7417.404045749194,-11971.281405840089,-21649.206775332306,-23714.35150079149,14245.973735567777,10864.221854713185,35455.655807930925,47337.77610513879,0.0,0.0,0.0,193.0,0.0,192.0,0.0,1.0,0.0,178.0,192.0,1.0,178.0,1744418822.2458837,0.0,2025-04-11 20:47:02.245,STOP,37
162.0,7407.435167722127,-12001.009225965647,-21605.352652710993,-23740.860669715486,14414.885868416533,10787.667129953757,35683.129511252584,47365.827544430205,0.0,0.0,0.0,193.0,0.0,193.0,0.0,1.0,0.0,179.0,193.0,1.0,179.0,1744418822.2459528,0.0,2025-04-11 20:47:02.245,STOP,37
163.0,7398.159193773174,-12029.798272824082,-21642.121272339973,-23783.306632436113,14406.392205523516,10534.466568764039,35919.58861584528,47254.515857042774,0.0,0.0,0.0,193.0,0.0,193.0,0.0,1.0,0.0,178.0,193.0,1.0,178.0,1744418822.2459917,0.0,2025-04-11 20:47:02.245,STOP,37
164.0,7400.975513574543,-12006.284237657099,-21673.95015644433,-23748.169690152372,14285.581026742582,10595.464479382574,35740.30527356926,47214.90856586797,0.0,0.0,0.0,193.0,0.0,192.0,0.0,1.0,0.0,178.0,192.0,1.0,178.0,1744418822.246046,0.0,2025-04-11 20:47:02.246,STOP,37
165.0,7416.5993829488025,-11972.980138418692,-21663.266022594693,-23714.016224624662,14223.778453323657,10839.09849394542,35474.87830816249,47327.76252362282,0.0,0.0,0.0,193.0,0.0,193.0,0.0,0.0,0.0,179.0,193.0,0.0,179.0,1744418822.2461529,0.0,2025-04-11 20:47:02.246,STOP,37
166.0,7409.424472978649,-11990.168629904823,-21616.61793191647,-23734.959809179283,14369.489475427805,10818.266668113074,35596.181225321445,47372.35425381116,0.0,0.0,0.0,193.0,0.0,193.0,0.0,0.0,0.0,179.0,193.0,0.0,179.0,1744418822.2462153,0.0,2025-04-11 20:47:02.246,STOP,37
167.0,7389.7772896024335,-12025.596144866484,-21637.33799902654,-23786.860559804507,14407.845068913111,10590.792964791413,35902.511883081424,47291.88797377205,0.0,0.0,0.0,193.0,0.0,192.0,0.0,1.0,0.0,178.0,192.0,1.0,178.0,1744418822.2462947,0.0,2025-04-11 20:47:02.246,STOP,37
168.0,7401.13197578573,-12001.366853876933,-21671.513816298702,-23758.339733879537,14281.624767973992,10569.268234880952,35768.848451238686,47207.756007642274,0.0,0.0,0.0,193.0,0.0,193.0,0.0,0.0,0.0,179.0,193.0,0.0,179.0,1744418822.2463472,0.0,2025-04-11 20:47:02.246,STOP,37
169.0,7411.458481724082,-11977.56224603203,-21683.24848213774,-23729.84125969902,14182.360670847973,10816.702046001203,35507.62361378952,47309.23292746937,0.0,0.0,0.0,193.0,0.0,193.0,0.0,0.0,0.0,179.0,193.0,0.0,179.0,1744418822.246398,0.0,2025-04-11 20:47:02.246,STOP,37
170.0,7418.342819016317,-11988.291083370577,-21637.740330426735,-23740.83831797103,14302.814221717623,10819.831290224945,35527.382555888005,47347.20854129893,0.0,0.0,0.0,193.0,0.0,193.0,0.0,1.0,0.0,178.0,193.0,1.0,178.0,1744418822.2464373,0.0,2025-04-11 20:47:02.246,STOP,37
171.0,7405.557621187881,-12020.008208752657,-21640.936629883843,-23792.202626729326,14416.785766695235,10615.513994158984,35879.28842059236,47284.19897367942,0.0,0.0,0.0,193.0,0.0,192.0,0.0,1.0,0.0,178.0,192.0,1.0,178.0,1744418822.2464757,0.0,2025-04-11 20:47:02.246,STOP,37
172.0,7411.145557301707,-11998.014092208636,-21665.121217384483,-23767.638059572942,14308.64802702046,10510.55020219686,35783.31002990127,47147.920387735416,0.0,0.0,0.0,193.0,0.0,193.0,0.0,0.0,0.0,179.0,193.0,0.0,179.0,1744418822.246514,0.0,2025-04-11 20:47:02.246,STOP,37
173.0,7401.13197578573,-11985.050080424558,-21678.91224371341,-23736.502079546703,14201.717281546269,10763.661356408758,35530.35533790056,47243.138819115025,0.0,0.0,0.0,193.0,0.0,193.0,0.0,1.0,0.0,178.0,193.0,1.0,178.0,1744418822.246552,0.0,2025-04-11 20:47:02.246,STOP,37
174.0,7421.494414984515,-11977.159914631835,-21625.24570527622,-23726.913181175376,14280.663642962414,10824.14517690482,35465.13294757998,47301.856851799115,0.0,0.0,0.0,193.0,0.0,192.0,0.0,0.0,0.0,178.0,192.0,0.0,178.0,1744418822.2466133,0.0,2025-04-11 20:47:02.246,STOP,37
175.0,7399.857926351778,-12019.851746541472,-21614.673330148857,-23777.249309688726,14426.464072044382,10661.245663314541,35850.05233884482,47289.339874904144,0.0,0.0,0.0,193.0,0.0,193.0,0.0,0.0,0.0,179.0,193.0,0.0,179.0,1744418822.2466552,0.0,2025-04-11 20:47:02.246,STOP,37
176.0,7393.5323826709255,-12012.207449937756,-21658.058066136608,-23778.344545167038,14323.958971972344,10499.26257124693,35847.41483299909,47157.46458261783,0.0,0.0,0.0,193.0,0.0,193.0,0.0,0.0,0.0,178.0,193.0,0.0,178.0,1744418822.2466972,0.0,2025-04-11 20:47:02.246,STOP,37
177.0,7394.247638493495,-11987.03938568108,-21682.913205970908,-23744.772224995166,14212.33436016254,10738.515643896539,35611.67098422897,47229.97364163085,0.0,0.0,0.0,193.0,0.0,192.0,0.0,0.0,0.0,178.0,192.0,0.0,178.0,1744418822.2467356,0.0,2025-04-11 20:47:02.246,STOP,37
178.0,7401.377844974738,-11991.532086316596,-21655.129987612963,-23741.218297626772,14248.499482691228,10856.95753776521,35481.47207277681,47321.72755261989,0.0,0.0,0.0,193.0,0.0,193.0,0.0,0.0,0.0,178.0,193.0,0.0,178.0,1744418822.2467887,0.0,2025-04-11 20:47:02.246,STOP,37
179.0,7375.427469662127,-12043.946927064291,-21636.645094948424,-23790.503894150723,14402.927685132943,10713.369931384317,35823.23024549845,47321.61579389761,0.0,0.0,0.0,193.0,0.0,193.0,0.0,0.0,0.0,179.0,193.0,0.0,179.0,1744418822.2468255,0.0,2025-04-11 20:47:02.246,STOP,37
180.0,7389.710234369068,-12041.912918318858,-21671.893795954442,-23805.300748980135,14323.221364405319,10487.684367619082,35883.848176461244,47165.82413504412,0.0,0.0,0.0,193.0,0.0,192.0,0.0,0.0,0.0,178.0,192.0,0.0,178.0,1744418822.2468617,0.0,2025-04-11 20:47:02.246,STOP,37
181.0,7405.155289787685,-12007.558287091051,-21699.833476523578,-23770.342620652034,14199.90679024539,10671.035727385966,35664.398749399035,47196.11074878106,0.0,0.0,0.0,193.0,0.0,192.0,0.0,0.0,0.0,179.0,192.0,0.0,179.0,1744418822.2468977,0.0,2025-04-11 20:47:02.246,STOP,37
182.0,7405.959952588076,-11989.833353737993,-21668.20575811932,-23747.789710496632,14204.891229258923,10846.496921360127,35461.64607544495,47285.69654055793,0.0,0.0,0.0,193.0,0.0,193.0,0.0,0.0,0.0,179.0,193.0,0.0,179.0,1744418822.246935,0.0,2025-04-11 20:47:02.246,STOP,37
183.0,7386.402176189683,-12020.90227853087,-21617.109670294485,-23770.94611775233,14385.22510352434,10770.478638467626,35748.21779110644,47308.137691991054,0.0,0.0,0.0,193.0,0.0,193.0,0.0,0.0,0.0,179.0,193.0,0.0,179.0,1744418822.2469711,0.0,2025-04-11 20:47:02.246,STOP,37
184.0,7380.523667397937,-12031.117025746946,-21652.872461422976,-23805.94894956934,14353.64208860899,10536.344115298285,35918.98511874499,47185.15839399796,0.0,0.0,0.0,193.0,0.0,193.0,0.0,0.0,0.0,178.0,193.0,0.0,178.0,1744418822.2470071,0.0,2025-04-11 20:47:02.247,STOP,37
185.0,7381.7306615985235,-12016.141356961889,-21683.784924004667,-23772.019001486184,14239.379970953461,10654.517788233494,35721.30629078225,47175.56949562663,0.0,0.0,0.0,193.0,0.0,193.0,0.0,0.0,0.0,179.0,193.0,0.0,179.0,1744418822.2470431,0.0,2025-04-11 20:47:02.247,STOP,37
186.0,7396.438109450115,-11994.527220073607,-21669.99389767574,-23745.487480817734,14202.723110046758,10867.708726848214,35484.534261767185,47284.98128473536,0.0,0.0,0.0,193.0,0.0,192.0,0.0,0.0,0.0,178.0,192.0,0.0,178.0,1744418822.247079,0.0,2025-04-11 20:47:02.247,STOP,37
187.0,7386.737452356512,-12019.851746541472,-21632.554725713104,-23770.342620652034,14364.482684669816,10806.062615640476,35674.81466231521,47311.53515714826,0.0,0.0,0.0,193.0,0.0,192.0,0.0,0.0,0.0,178.0,192.0,0.0,178.0,1744418822.2471144,0.0,2025-04-11 20:47:02.247,STOP,37
188.0,7370.957120771065,-12048.707848633272,-21661.254365593715,-23810.016967060204,14371.925815573433,10560.863978965757,35936.82181082032,47215.310897268166,0.0,0.0,0.0,193.0,0.0,193.0,0.0,0.0,0.0,179.0,193.0,0.0,179.0,1744418822.2471502,0.0,2025-04-11 20:47:02.247,STOP,37
189.0,7380.255446464473,-12018.75651106316,-21690.468095596803,-23766.386361883448,14241.972773310277,10608.227325466552,35784.98641073542,47165.3323966661,0.0,0.0,0.0,193.0,0.0,192.0,0.0,0.0,0.0,178.0,192.0,0.0,178.0,1744418822.247204,0.0,2025-04-11 20:47:02.247,STOP,37
190.0,7389.8443448358,-11985.720632758217,-21689.39521186295,-23741.844146471518,14165.99919390669,10850.587290595447,35528.902474510964,47279.32629338816,0.0,0.0,0.0,193.0,0.0,192.0,0.0,0.0,0.0,178.0,192.0,0.0,178.0,1744418822.2472403,0.0,2025-04-11 20:47:02.247,STOP,37
191.0,7393.51003092647,-12011.581601093007,-21636.175708314862,-23752.327114621057,14308.871544465012,10830.202499652207,35621.66221400049,47317.100741517635,0.0,0.0,0.0,193.0,0.0,193.0,0.0,0.0,0.0,179.0,193.0,0.0,179.0,1744418822.2472768,0.0,2025-04-11 20:47:02.247,STOP,37
192.0,7376.075670251331,-12053.37936322443,-21656.225223091275,-23809.368766471,14374.764487119257,10597.654950339193,35946.433060936106,47235.98626088932,0.0,0.0,0.0,193.0,0.0,193.0,0.0,0.0,0.0,178.0,193.0,0.0,178.0,1744418822.2473128,0.0,2025-04-11 20:47:02.247,STOP,37
193.0,7382.714138354557,-12025.2385169552,-21684.25431063823,-23782.680783591364,14260.927052608378,10548.883443937713,35812.30024245981,47129.48019855979,0.0,0.0,0.0,193.0,0.0,192.0,0.0,0.0,0.0,178.0,192.0,0.0,178.0,1744418822.247364,0.0,2025-04-11 20:47:02.247,STOP,37
194.0,7388.369129701749,-11994.974254962714,-21688.255272895727,-23745.59923954001,14180.61723478046,10809.080101141943,35555.65751262397,47240.43425803593,0.0,0.0,0.0,193.0,0.0,192.0,0.0,0.0,0.0,178.0,192.0,0.0,178.0,1744418822.2474008,0.0,2025-04-11 20:47:02.247,STOP,37
195.0,7405.110586298774,-11992.023824694614,-21632.46531873528,-23740.7042075043,14292.353605312539,10827.743807762125,35551.74595734429,47291.440938882944,0.0,0.0,0.0,193.0,0.0,193.0,0.0,0.0,0.0,179.0,193.0,0.0,179.0,1744418822.2474372,0.0,2025-04-11 20:47:02.247,STOP,37
196.0,7373.393460916694,-12045.600956153985,-21643.305914796107,-23800.495123922246,14393.383490250528,10626.689866386636,35917.73342105549,47250.045508151714,0.0,0.0,0.0,193.0,0.0,192.0,0.0,0.0,0.0,178.0,192.0,0.0,178.0,1744418822.2474735,0.0,2025-04-11 20:47:02.247,STOP,37
197.0,7384.882257566722,-12024.746778577182,-21676.297089612137,-23783.507798136212,14273.175808569886,10496.69212063457,35837.289492760836,47111.844672184554,0.0,0.0,0.0,193.0,0.0,192.0,0.0,0.0,0.0,178.0,192.0,0.0,178.0,1744418822.2475097,0.0,2025-04-11 20:47:02.247,STOP,37
198.0,7399.902629840688,-11998.885810242393,-21681.169769903394,-23743.855803472496,14181.645415025403,10758.967490073144,35590.012143851774,47203.48682445131,0.0,0.0,0.0,193.0,0.0,193.0,0.0,0.0,0.0,179.0,193.0,0.0,179.0,1744418822.2475457,0.0,2025-04-11 20:47:02.247,STOP,37
199.0,7409.245659023007,-11993.767260762128,-21638.276772293662,-23742.604105783,14257.864863618,10852.822465040977,35517.77130577222,47287.909363259,0.0,0.0,0.0,193.0,0.0,193.0,0.0,0.0,0.0,179.0,193.0,0.0,179.0,1744418822.2475824,0.0,2025-04-11 20:47:02.247,STOP,37
200.0,7385.061071522364,-12034.425083926331,-21632.062987335084,-23801.411545444913,14393.94228386191,10691.129945651288,35891.04543817585,47281.1591364335,0.0,0.0,0.0,193.0,0.0,192.0,0.0,0.0,0.0,178.0,192.0,0.0,178.0,1744418822.2476184,0.0,2025-04-11 20:47:02.247,STOP,37
201.0,7390.984283803021,-12023.38332216541,-21666.641136007445,-23798.84109483255,14288.754974455236,10495.1274985227,35889.81609223081,47135.49281781827,0.0,0.0,0.0,193.0,0.0,193.0,0.0,0.0,0.0,179.0,193.0,0.0,179.0,1744418822.2476547,0.0,2025-04-11 20:47:02.247,STOP,37
202.0,7407.859850866777,-11993.834315995493,-21691.138647930464,-23758.36208562399,14182.360670847973,10721.483614621595,35651.07710970368,47198.390626715496,0.0,0.0,0.0,193.0,0.0,193.0,0.0,0.0,0.0,179.0,193.0,0.0,179.0,1744418822.2476964,0.0,2025-04-11 20:47:02.247,STOP,37
203.0,7419.013371349975,-11994.99660670717,-21668.652793008423,-23750.114291919985,14210.09918571701,10852.174264451774,35509.903491723955,47298.48173838636,0.0,0.0,0.0,193.0,0.0,192.0,0.0,0.0,0.0,178.0,192.0,0.0,178.0,1744418822.247733,0.0,2025-04-11 20:47:02.247,STOP,37
204.0,7386.1339552562185,-12033.933345548314,-21642.680065951357,-23787.62051911599,14370.897635328489,10730.26785019253,35842.83272538576,47306.818939068195,0.0,0.0,0.0,193.0,0.0,193.0,0.0,0.0,0.0,179.0,193.0,0.0,179.0,1744418822.2477863,0.0,2025-04-11 20:47:02.247,STOP,37
205.0,7371.717080082546,-12034.156862992868,-21678.264043124207,-23804.98782455776,14300.154364127442,10513.835908631792,35942.52150565643,47167.52286762272,0.0,0.0,0.0,193.0,0.0,192.0,0.0,0.0,0.0,178.0,192.0,0.0,178.0,1744418822.2478223,0.0,2025-04-11 20:47:02.247,STOP,37
206.0,7369.8395335483,-12014.42027263883,-21707.88010452749,-23771.32609740807,14177.242121367708,10693.16395439672,35731.47633450942,47200.983429072316,0.0,0.0,0.0,193.0,0.0,193.0,0.0,0.0,0.0,178.0,193.0,0.0,178.0,1744418822.2478583,0.0,2025-04-11 20:47:02.247,STOP,37
207.0,7387.877391323733,-11997.164725919334,-21686.422429850394,-23756.350428623013,14166.17800786233,10867.284043703563,35508.562387056634,47300.26987794279,0.0,0.0,0.0,193.0,0.0,193.0,0.0,0.0,0.0,179.0,193.0,0.0,179.0,1744418822.2478943,0.0,2025-04-11 20:47:02.247,STOP,37
208.0,7383.809373832867,-12016.90131627337,-21641.316609539583,-23786.882911548964,14350.468140896339,10761.269719752041,35753.69396849799,47313.12213100459,0.0,0.0,0.0,193.0,0.0,193.0,0.0,0.0,0.0,179.0,193.0,0.0,179.0,1744418822.2479453,0.0,2025-04-11 20:47:02.247,STOP,37
209.0,7390.000807046987,-12028.90420304587,-21660.114426626496,-23805.323100724592,14342.041533236687,10513.32181850932,35943.57203764583,47184.420786430936,0.0,0.0,0.0,193.0,0.0,192.0,0.0,0.0,0.0,178.0,192.0,0.0,178.0,1744418822.247982,0.0,2025-04-11 20:47:02.247,STOP,37
210.0,7388.682054124124,-12017.258944184656,-21700.146400945952,-23774.254175931714,14210.792089795124,10624.298229729919,35767.663808782556,47163.231332687305,0.0,0.0,0.0,193.0,0.0,193.0,0.0,0.0,0.0,179.0,193.0,0.0,179.0,1744418822.248018,0.0,2025-04-11 20:47:02.248,STOP,37
211.0,7397.198068761596,-11990.392147349376,-21701.845133524555,-23763.88296650445,14154.555100745572,10853.269499930084,35528.008404732755,47272.66547354049,0.0,0.0,0.0,193.0,0.0,193.0,0.0,0.0,0.0,179.0,193.0,0.0,179.0,1744418822.2480538,0.0,2025-04-11 20:47:02.248,STOP,37
212.0,7402.9201153421545,-12010.173441192323,-21652.5595370006,-23788.447533660834,14321.388521359984,10797.591304491914,35683.285973463775,47297.05122674123,0.0,0.0,0.0,193.0,0.0,193.0,0.0,0.0,0.0,178.0,193.0,0.0,178.0,1744418822.2480896,0.0,2025-04-11 20:47:02.248,STOP,37
213.0,7394.359397215771,-12036.704961860773,-21670.329173842572,-23824.657359678433,14356.592518877093,10550.22454860503,35938.386432932195,47188.399396943976,0.0,0.0,0.0,193.0,0.0,193.0,0.0,0.0,0.0,178.0,193.0,0.0,178.0,1744418822.2481256,0.0,2025-04-11 20:47:02.248,STOP,37
214.0,7389.7772896024335,-12030.737046091206,-21713.736261574777,-23804.026699546182,14218.346979421018,10569.871731981246,35786.260460169375,47124.89809094645,0.0,0.0,0.0,193.0,0.0,193.0,0.0,0.0,0.0,179.0,193.0,0.0,179.0,1744418822.2481685,0.0,2025-04-11 20:47:02.248,STOP,37
215.0,7401.355493230283,-12001.2327434102,-21711.29992142915,-23775.774094554676,14140.115873827443,10824.078121671453,35529.975358244825,47236.38859228952,0.0,0.0,0.0,193.0,0.0,193.0,0.0,0.0,0.0,178.0,193.0,0.0,178.0,1744418822.248204,0.0,2025-04-11 20:47:02.248,STOP,37
216.0,7402.249563008495,-12003.087938199991,-21654.168862601386,-23782.546673124634,14279.300186550641,10818.423130324261,35601.59034747963,47277.42639510947,0.0,0.0,0.0,193.0,0.0,193.0,0.0,0.0,0.0,179.0,193.0,0.0,179.0,1744418822.2482395,0.0,2025-04-11 20:47:02.248,STOP,37
217.0,7396.840440850311,-12019.203545952267,-21653.073627123074,-23819.829382876087,14361.398143934983,10600.426566651651,35932.30675844035,47202.101016295084,0.0,0.0,0.0,193.0,0.0,193.0,0.0,0.0,0.0,179.0,193.0,0.0,179.0,1744418822.2482753,0.0,2025-04-11 20:47:02.248,STOP,37
218.0,7400.7519961299895,-12008.050025469069,-21690.44574385235,-23801.500952422735,14232.607392383505,10542.177920601122,35834.31671074828,47101.87579415748,0.0,0.0,0.0,193.0,0.0,193.0,0.0,0.0,0.0,179.0,193.0,0.0,179.0,1744418822.2483113,0.0,2025-04-11 20:47:02.248,STOP,37
219.0,7395.722853627545,-11986.011205436136,-21706.941331260365,-23771.437856130346,14137.791292404092,10800.429976037738,35583.95482110439,47210.63938267701,0.0,0.0,0.0,193.0,0.0,192.0,0.0,0.0,0.0,178.0,192.0,0.0,178.0,1744418822.2483633,0.0,2025-04-11 20:47:02.248,STOP,37
220.0,7408.932734600632,-11983.910141457336,-21659.309763826106,-23770.029696229663,14232.517985405682,10828.034380440044,35558.47383242534,47269.759746761294,0.0,0.0,0.0,193.0,0.0,193.0,0.0,0.0,0.0,179.0,193.0,0.0,179.0,1744418822.2483995,0.0,2025-04-11 20:47:02.248,STOP,37
221.0,7397.2874757394175,-12016.119005217435,-21655.979353902265,-23815.94017934086,14363.186283491408,10629.685000143649,35922.74021181348,47235.91920565596,0.0,0.0,0.0,193.0,0.0,193.0,0.0,0.0,0.0,179.0,193.0,0.0,179.0,1744418822.2484353,0.0,2025-04-11 20:47:02.248,STOP,37
222.0,7409.089196811819,-11998.2823131421,-21685.349546116537,-23799.623405888487,14263.072820076088,10501.587152670283,35877.03089440238,47101.40640752392,0.0,0.0,0.0,193.0,0.0,193.0,0.0,0.0,0.0,178.0,193.0,0.0,178.0,1744418822.2484705,0.0,2025-04-11 20:47:02.248,STOP,37
223.0,7415.37003700376,-11982.479629812196,-21709.444726639358,-23769.31444040709,14157.125551357933,10769.204589033674,35636.928455463465,47190.7910336007,0.0,0.0,0.0,193.0,0.0,192.0,0.0,0.0,0.0,178.0,192.0,0.0,178.0,1744418822.2485206,0.0,2025-04-11 20:47:02.248,STOP,37
224.0,7426.277688297951,-11971.75079247365,-21670.507987798213,-23766.453417116812,14206.09822345951,10861.450238400726,35527.40490763246,47269.64798803902,0.0,0.0,0.0,193.0,0.0,193.0,0.0,0.0,0.0,179.0,193.0,0.0,179.0,1744418822.2485569,0.0,2025-04-11 20:47:02.248,STOP,37
225.0,7399.455594951582,-12002.931475988804,-21640.601353717015,-23799.623405888487,14366.449638181883,10708.765472026524,35877.410874058114,47258.56152278918,0.0,0.0,0.0,193.0,0.0,192.0,0.0,0.0,0.0,178.0,192.0,0.0,178.0,1744418822.2485921,0.0,2025-04-11 20:47:02.248,STOP,37
226.0,7393.420623948649,-12009.27937141411,-21681.14741815894,-23810.6204641605,14267.878445133978,10505.498707949962,35906.26697614991,47113.85632918553,0.0,0.0,0.0,193.0,0.0,193.0,0.0,0.0,0.0,178.0,193.0,0.0,178.0,1744418822.248628,0.0,2025-04-11 20:47:02.248,STOP,37
227.0,7401.6907693971125,-11986.36883334742,-21707.321310916104,-23770.677896818866,14149.883586154412,10717.236783175085,35672.15480472503,47167.075832733615,0.0,0.0,0.0,193.0,0.0,193.0,0.0,0.0,0.0,179.0,193.0,0.0,179.0,1744418822.2486644,0.0,2025-04-11 20:47:02.248,STOP,37
228.0,7417.56050796038,-11964.218254592211,-21677.615842535,-23754.405826855404,14170.201321864286,10870.189770482752,35493.54201478267,47268.73156651635,0.0,0.0,0.0,193.0,0.0,192.0,0.0,0.0,0.0,178.0,192.0,0.0,178.0,1744418822.2487009,0.0,2025-04-11 20:47:02.248,STOP,37
229.0,7403.210688020074,-11999.198734664767,-21637.42740600436,-23788.536940638656,14358.872396811534,10757.469923194638,35800.029134753844,47281.60617132261,0.0,0.0,0.0,193.0,0.0,192.0,0.0,0.0,0.0,178.0,192.0,0.0,178.0,1744418822.248738,0.0,2025-04-11 20:47:02.248,STOP,37
230.0,7388.0115017904645,-12021.416368653343,-21676.095923912042,-23816.923656096897,14302.88127695099,10523.067179091833,35920.01329898993,47147.71922203532,0.0,0.0,0.0,193.0,0.0,192.0,0.0,0.0,0.0,179.0,192.0,0.0,179.0,1744418822.248774,0.0,2025-04-11 20:47:02.248,STOP,37
231.0,7387.743280857001,-12000.785708521094,-21704.19206669236,-23783.351335925025,14170.961281175767,10677.0706983889,35712.74557265587,47163.25368443176,0.0,0.0,0.0,193.0,0.0,193.0,0.0,0.0,0.0,179.0,193.0,0.0,179.0,1744418822.2488096,0.0,2025-04-11 20:47:02.248,STOP,37
232.0,7411.70435091309,-11980.333862344487,-21673.90545295542,-23754.539937322133,14148.028391364622,10870.413287927306,35490.36806707002,47266.31757811518,0.0,0.0,0.0,193.0,0.0,192.0,0.0,0.0,0.0,178.0,192.0,0.0,178.0,1744418822.2488456,0.0,2025-04-11 20:47:02.248,STOP,37
233.0,7402.651894408691,-12006.552458590562,-21622.31762675257,-23771.348449152523,14327.64700980747,10800.877010926844,35726.916578640536,47289.473985370874,0.0,0.0,0.0,193.0,0.0,192.0,0.0,0.0,0.0,178.0,192.0,0.0,178.0,1744418822.2488813,0.0,2025-04-11 20:47:02.248,STOP,37
234.0,7384.010539532965,-12016.431929639808,-21654.95117365732,-23804.04905129064,14314.638294534481,10554.784304473915,35936.39712767567,47168.551047867666,0.0,0.0,0.0,193.0,0.0,193.0,0.0,0.0,0.0,179.0,193.0,0.0,179.0,1744418822.2489336,0.0,2025-04-11 20:47:02.248,STOP,37
235.0,7380.076632508831,-11999.578714320507,-21691.272758397194,-23777.048143988628,14193.938874475823,10637.888090358745,35762.92523895803,47139.76200100923,0.0,0.0,0.0,193.0,0.0,193.0,0.0,0.0,0.0,179.0,193.0,0.0,179.0,1744418822.24897,0.0,2025-04-11 20:47:02.248,STOP,37
236.0,7399.32148448485,-11980.043289666568,-21688.05410719563,-23756.32807687856,14142.37340001743,10864.512427391104,35521.90637849645,47253.755897731295,0.0,0.0,0.0,193.0,0.0,192.0,0.0,0.0,0.0,178.0,192.0,0.0,178.0,1744418822.249006,0.0,2025-04-11 20:47:02.249,STOP,37
237.0,7404.864717109766,-11999.601066064963,-21638.790862416132,-23770.767303796685,14294.812297202623,10813.841022710923,35651.72531029288,47275.68295904195,0.0,0.0,0.0,193.0,0.0,193.0,0.0,0.0,0.0,179.0,193.0,0.0,179.0,1744418822.7236884,0.0,2025-04-11 20:47:02.723,STOP,37
238.0,7381.9094755541655,-12025.886717544403,-21656.582851002557,-23810.32989148258,14336.431245378406,10580.287644897418,35938.27467420992,47179.369292184034,0.0,0.0,0.0,193.0,0.0,193.0,0.0,0.0,0.0,178.0,193.0,0.0,178.0,1744418822.7238524,0.0,2025-04-11 20:47:02.723,STOP,37
239.0,7383.004711032476,-12011.514545859642,-21687.9199967289,-23780.780885312666,14208.154583949397,10577.650139051693,35798.17393996405,47106.100273859534,0.0,0.0,0.0,193.0,0.0,192.0,0.0,0.0,0.0,178.0,192.0,0.0,178.0,1744418822.7238984,0.0,2025-04-11 20:47:02.723,STOP,37
240.0,7397.689807139613,-11981.362042589431,-21679.314575113603,-23745.50983256219,14137.008981348155,10841.62424106887,35552.684730611414,47221.85995839357,0.0,0.0,0.0,193.0,0.0,193.0,0.0,0.0,0.0,179.0,193.0,0.0,179.0,1744418822.7239408,0.0,2025-04-11 20:47:02.723,STOP,37
241.0,7397.823917606344,-11987.70993801474,-21630.967751856777,-23760.686667047343,14259.831817130069,10845.267575415084,35601.81386492418,47270.340892117136,0.0,0.0,0.0,193.0,0.0,192.0,0.0,0.0,0.0,178.0,192.0,0.0,178.0,1744418822.7239811,0.0,2025-04-11 20:47:02.723,STOP,37
242.0,7388.346777957294,-12006.820679524028,-21633.784071658145,-23806.32892922508,14358.335954944607,10617.615058137782,35942.700319612064,47208.8959466095,0.0,0.0,0.0,193.0,0.0,192.0,0.0,0.0,0.0,178.0,192.0,0.0,178.0,1744418822.724023,0.0,2025-04-11 20:47:02.724,STOP,37
243.0,7385.709272111568,-12002.506792844153,-21677.973470446286,-23792.113219751503,14241.52573842117,10530.823234417825,35860.289437805346,47109.09540761655,0.0,0.0,0.0,193.0,0.0,193.0,0.0,0.0,0.0,179.0,193.0,0.0,179.0,1744418822.7240636,0.0,2025-04-11 20:47:02.724,STOP,37
244.0,7394.828783849333,-11980.065641411024,-21695.430182865883,-23750.94130646483,14137.433664492806,10798.440670781216,35610.441638283926,47224.72098168385,0.0,0.0,0.0,193.0,0.0,192.0,0.0,0.0,0.0,178.0,192.0,0.0,178.0,1744418822.7241056,0.0,2025-04-11 20:47:02.724,STOP,37
245.0,7415.727664915045,-11973.471876796708,-21637.42740600436,-23744.504004061702,14228.874651059468,10857.113999976398,35555.61280913506,47287.730549303364,0.0,0.0,0.0,193.0,0.0,192.0,0.0,0.0,0.0,178.0,192.0,0.0,178.0,1744418822.724146,0.0,2025-04-11 20:47:02.724,STOP,37
246.0,7397.17571701714,-12013.19092669379,-21622.339978497028,-23790.45919066181,14367.678984126924,10683.418593814205,35914.8276942763,47258.18154313345,0.0,0.0,0.0,193.0,0.0,193.0,0.0,0.0,0.0,179.0,193.0,0.0,179.0,1744418822.7241957,0.0,2025-04-11 20:47:02.724,STOP,37
247.0,7387.497411667992,-12009.055853969558,-21662.8636911945,-23792.403792429424,14257.127256050975,10529.973868128523,35893.03474343238,47124.83103571308,0.0,0.0,0.0,193.0,0.0,192.0,0.0,0.0,0.0,178.0,192.0,0.0,178.0,1744418822.7242367,0.0,2025-04-11 20:47:02.724,STOP,37
248.0,7396.192240261107,-11984.46893506872,-21682.555578059626,-23753.668219288378,14146.776693675125,10766.634138421314,35643.11988867759,47202.1904232729,0.0,0.0,0.0,193.0,0.0,192.0,0.0,0.0,0.0,178.0,192.0,0.0,178.0,1744418822.7242756,0.0,2025-04-11 20:47:02.724,STOP,37
249.0,7413.246621280507,-11971.974309918203,-21638.343827527027,-23737.08322490254,14202.499592602206,10866.43467741426,35507.3330411116,47278.14165093203,0.0,0.0,0.0,193.0,0.0,193.0,0.0,0.0,0.0,179.0,193.0,0.0,179.0,1744418822.7243543,0.0,2025-04-11 20:47:02.724,STOP,37
250.0,7394.426452449138,-11995.890676485382,-21607.6995858788,-23772.309574164105,14376.664385397959,10726.512757124037,35853.9638941245,47271.167906661976,0.0,0.0,0.0,193.0,0.0,192.0,0.0,0.0,0.0,178.0,192.0,0.0,178.0,1744418822.7243965,0.0,2025-04-11 20:47:02.724,STOP,37
251.0,7384.994016288998,-12008.675874313818,-21656.269926580182,-23797.05295527613,14279.926035395389,10506.616295172727,35913.82186577581,47126.77563748069,0.0,0.0,0.0,193.0,0.0,192.0,0.0,0.0,0.0,178.0,192.0,0.0,178.0,1744418822.7244372,0.0,2025-04-11 20:47:02.724,STOP,37
252.0,7399.723815885046,-11988.604007792952,-21676.989993690255,-23752.550632065613,14156.432647279818,10702.752852768046,35696.272336992304,47175.90477179346,0.0,0.0,0.0,193.0,0.0,193.0,0.0,0.0,0.0,179.0,193.0,0.0,179.0,1744418822.7244775,0.0,2025-04-11 20:47:02.724,STOP,37
253.0,7424.713066186079,-11957.535083000075,-21640.42253976137,-23728.142527120417,14167.787333463113,10869.34040419345,35516.45255284936,47273.11250842959,0.0,0.0,0.0,193.0,0.0,192.0,0.0,0.0,0.0,178.0,192.0,0.0,178.0,1744418822.7245345,0.0,2025-04-11 20:47:02.724,STOP,37
254.0,7404.104757798285,-11985.921798458314,-21607.18549575633,-23767.928632250863,14350.132864729509,10760.733277885114,35813.52958840485,47275.59355206413,0.0,0.0,0.0,193.0,0.0,192.0,0.0,0.0,0.0,178.0,192.0,0.0,178.0,1744418822.7245755,0.0,2025-04-11 20:47:02.724,STOP,37
255.0,7396.6392751502135,-12003.490269600186,-21640.556650228104,-23795.57774014208,14298.299169337652,10526.79992041587,35965.700264656574,47150.69200404787,0.0,0.0,0.0,193.0,0.0,193.0,0.0,0.0,0.0,179.0,193.0,0.0,179.0,1744418822.7246156,0.0,2025-04-11 20:47:02.724,STOP,37
0.0,7400.059092051875,-11980.490324555674,-21671.46911280979,-23760.105521691505,14166.334470073518,10675.103744876831,35778.12442518764,47166.96407401134,0.0,0.0,0.0,193.0,0.0,193.0,0.0,0.0,0.0,178.0,193.0,0.0,178.0,1744418822.7246556,0.0,2025-04-11 20:47:02.724,STOP,37
1.0,7421.248545795506,-11943.922870626793,-21656.71696146929,-23735.250381857204,14134.907917369357,10881.075070032486,35548.79552707619,47278.54398233223,0.0,0.0,0.0,193.0,0.0,193.0,0.0,0.0,0.0,179.0,193.0,0.0,179.0,1744418822.7246957,0.0,2025-04-11 20:47:02.724,STOP,37
2.0,7404.484737454026,-11982.747850745662,-21614.248647004206,-23760.619611813978,14310.369111343518,10817.886688457333,35757.40435807757,47302.616811110594,0.0,0.0,0.0,193.0,0.0,193.0,0.0,0.0,0.0,179.0,193.0,0.0,179.0,1744418822.724736,0.0,2025-04-11 20:47:02.724,STOP,37
3.0,7391.900705325688,-12008.117080702434,-21639.86374614999,-23798.23759773226,14315.957047457345,10568.038888935911,35975.8926601282,47182.029149774215,0.0,0.0,0.0,193.0,0.0,192.0,0.0,0.0,0.0,178.0,192.0,0.0,178.0,1744418822.7247753,0.0,2025-04-11 20:47:02.724,STOP,37
4.0,7388.547943657392,-11988.715766515228,-21670.6644500094,-23763.95002173782,14209.406281638896,10633.529500189961,35805.88529180113,47143.83001850009,0.0,0.0,0.0,193.0,0.0,192.0,0.0,0.0,0.0,179.0,192.0,0.0,179.0,1744418822.724815,0.0,2025-04-11 20:47:02.724,STOP,37
5.0,7385.977493045032,-11966.542836015564,-21676.319441356594,-23739.251344114702,14146.776693675125,10878.661081631313,35559.7925853482,47267.36811010458,0.0,0.0,0.0,193.0,0.0,193.0,0.0,0.0,0.0,178.0,193.0,0.0,178.0,1744418822.7248552,0.0,2025-04-11 20:47:02.724,STOP,37
6.0,7386.536286656415,-11987.285254870088,-21627.257362277196,-23749.868422730975,14294.54407626916,10857.270462187584,35682.078979263184,47304.851985556124,0.0,0.0,0.0,193.0,0.0,192.0,0.0,0.0,0.0,178.0,192.0,0.0,178.0,1744418822.7248952,0.0,2025-04-11 20:47:02.724,STOP,37
7.0,7368.207856203063,-12023.673894843329,-21644.244688063227,-23795.24246397525,14345.75192281627,10625.929907075157,36005.843997698306,47234.82397017765,0.0,0.0,0.0,193.0,0.0,193.0,0.0,0.0,0.0,179.0,193.0,0.0,179.0,1744418822.7249353,0.0,2025-04-11 20:47:02.724,STOP,37
8.0,7386.22336223404,-11995.622455551918,-21668.33986858605,-23758.78676876864,14215.061272986088,10580.958197231079,35858.836574415756,47140.11962892051,0.0,0.0,0.0,193.0,0.0,192.0,0.0,0.0,0.0,179.0,192.0,0.0,179.0,1744418822.7249918,0.0,2025-04-11 20:47:02.724,STOP,37
9.0,7399.723815885046,-11970.074411639502,-21676.989993690255,-23726.153221863893,14133.075074324022,10843.09945620292,35597.56703347767,47249.218493606866,0.0,0.0,0.0,193.0,0.0,193.0,0.0,0.0,0.0,179.0,193.0,0.0,179.0,1744418822.7250326,0.0,2025-04-11 20:47:02.725,STOP,37
10.0,7405.199993276596,-11966.051097637546,-21622.697606408314,-23731.87526844445,14250.019401314188,10856.041116242543,35602.886748658035,47296.537136618754,0.0,0.0,0.0,193.0,0.0,193.0,0.0,0.0,0.0,179.0,193.0,0.0,179.0,1744418822.7250724,0.0,2025-04-11 20:47:02.725,STOP,37
11.0,7381.551847642881,-12004.496098100675,-21619.367196484473,-23779.730353323266,14357.084257255108,10660.10572434732,35954.88202034021,47245.239883093825,0.0,0.0,0.0,193.0,0.0,193.0,0.0,0.0,0.0,178.0,193.0,0.0,178.0,1744418822.7251124,0.0,2025-04-11 20:47:02.725,STOP,37
12.0,7386.335120956317,-11996.091842185479,-21654.682952723855,-23770.029696229663,14238.709418619803,10552.146798628188,35880.853042704235,47121.701791489344,0.0,0.0,0.0,193.0,0.0,193.0,0.0,0.0,0.0,179.0,193.0,0.0,179.0,1744418822.7252803,0.0,2025-04-11 20:47:02.725,STOP,37
13.0,7391.587780903314,-11969.336804072476,-21664.450665050827,-23736.010341168683,14143.98272561821,10812.745787232612,35631.51933330528,47220.429446748436,0.0,0.0,0.0,193.0,0.0,192.0,0.0,0.0,0.0,178.0,192.0,0.0,178.0,1744418822.7253215,0.0,2025-04-11 20:47:02.725,STOP,37
14.0,7398.650932151191,-11969.85089419495,-21619.300141251104,-23731.249419599702,14222.996142267722,10883.19848575574,35560.68665512641,47291.64210458304,0.0,0.0,0.0,193.0,0.0,193.0,0.0,0.0,0.0,179.0,193.0,0.0,179.0,1744418822.7253618,0.0,2025-04-11 20:47:02.725,STOP,37
15.0,7387.8326878348225,-12001.970350977224,-21601.083469520032,-23767.325135150568,14366.337879459606,10712.252344161552,35906.423438361104,47261.668415268476,0.0,0.0,0.0,193.0,0.0,192.0,0.0,0.0,0.0,178.0,192.0,0.0,178.0,1744418822.7254071,0.0,2025-04-11 20:47:02.725,STOP,37
16.0,7385.12812675573,-11999.645769553874,-21641.070740350573,-23767.772170039676,14268.77251491219,10550.984507916512,35900.23200514699,47126.038029913674,0.0,0.0,0.0,193.0,0.0,193.0,0.0,0.0,0.0,179.0,193.0,0.0,179.0,1744418822.7254477,0.0,2025-04-11 20:47:02.725,STOP,37
17.0,7380.300149953384,-11978.322205343511,-21669.412752319902,-23736.636190013432,14149.816530921047,10784.806106663478,35671.01486575781,47203.95621108487,0.0,0.0,0.0,193.0,0.0,193.0,0.0,0.0,0.0,179.0,193.0,0.0,179.0,1744418822.7254877,0.0,2025-04-11 20:47:02.725,STOP,37
18.0,7398.56152517337,-11957.624489977896,-21621.42355697436,-23715.334977547525,14197.828078011045,10894.664930661313,35521.41464011844,47272.73252877385,0.0,0.0,0.0,193.0,0.0,193.0,0.0,0.0,0.0,178.0,193.0,0.0,178.0,1744418822.7255278,0.0,2025-04-11 20:47:02.725,STOP,37
19.0,7378.780231330423,-11996.13654567439,-21601.195228242308,-23760.306687391603,14369.914158572456,10763.437838964206,35872.56054551131,47272.911342729494,0.0,0.0,0.0,193.0,0.0,193.0,0.0,0.0,0.0,179.0,193.0,0.0,179.0,1744418822.725568,0.0,2025-04-11 20:47:02.725,STOP,37
20.0,7384.278760466428,-11988.738118259684,-21641.338961284036,-23774.589452098546,14298.835611204579,10540.210967089053,35956.491345940995,47121.59003276707,0.0,0.0,0.0,193.0,0.0,192.0,0.0,0.0,0.0,178.0,192.0,0.0,178.0,1744418822.7256086,0.0,2025-04-11 20:47:02.725,STOP,37
21.0,7389.687882624613,-11969.85089419495,-21677.794656490645,-23745.64394302892,14177.130362645432,10723.428216389206,35749.17891611802,47161.71141406434,0.0,0.0,0.0,193.0,0.0,192.0,0.0,0.0,0.0,178.0,192.0,0.0,178.0,1744418822.725649,0.0,2025-04-11 20:47:02.725,STOP,37
22.0,7406.719911899557,-11962.340708057965,-21657.76749345869,-23730.556515521588,14146.284955297107,10880.87390433239,35543.72168108483,47260.99786293481,0.0,0.0,0.0,193.0,0.0,192.0,0.0,0.0,0.0,179.0,192.0,0.0,179.0,1744418822.7256887,0.0,2025-04-11 20:47:02.725,STOP,37
23.0,7390.023158791442,-12001.098632943467,-21622.004702330196,-23756.5068908342,14320.226230648308,10779.531094972026,35815.31772796127,47273.179563662954,0.0,0.0,0.0,193.0,0.0,192.0,0.0,0.0,0.0,178.0,192.0,0.0,178.0,1744418822.7257292,0.0,2025-04-11 20:47:02.725,STOP,37
24.0,7368.543132369892,-12018.935325018803,-21660.42735104887,-23791.4650191623,14300.221419360807,10547.028249147923,35991.31536380236,47149.41795461392,0.0,0.0,0.0,193.0,0.0,193.0,0.0,0.0,0.0,179.0,193.0,0.0,179.0,1744418822.7257893,0.0,2025-04-11 20:47:02.725,STOP,37
25.0,7372.253521949473,-11993.588446806485,-21684.23195889377,-23755.612821055987,14183.008871437178,10660.843331914346,35795.11175097367,47141.818361499114,0.0,0.0,0.0,193.0,0.0,192.0,0.0,0.0,0.0,178.0,192.0,0.0,178.0,1744418822.72583,0.0,2025-04-11 20:47:02.725,STOP,37
26.0,7399.299132740394,-11959.278519067588,-21665.32238308458,-23723.40395729589,14149.615365220949,10876.15768625232,35547.96851253134,47242.8035429482,0.0,0.0,0.0,193.0,0.0,193.0,0.0,0.0,0.0,179.0,193.0,0.0,179.0,1744418822.7258704,0.0,2025-04-11 20:47:02.725,STOP,37
27.0,7384.41287093316,-11983.306644357044,-21620.305969751593,-23747.722655263264,14311.911381710934,10834.449331098716,35745.37911956062,47274.0065782078,0.0,0.0,0.0,193.0,0.0,193.0,0.0,0.0,0.0,178.0,193.0,0.0,178.0,1744418822.7260163,0.0,2025-04-11 20:47:02.726,STOP,37
28.0,7353.567463584836,-12023.182156465311,-21653.18538584535,-23804.85371409103,14317.968704458322,10600.583028862839,36016.86340771477,47178.94460903938,0.0,0.0,0.0,193.0,0.0,192.0,0.0,0.0,0.0,178.0,192.0,0.0,178.0,1744418822.7260575,0.0,2025-04-11 20:47:02.726,STOP,37
29.0,7361.636443333202,-12006.686569057294,-21689.39521186295,-23779.19391145634,14192.553066319593,10626.600459408815,35850.499373733925,47117.164387364915,0.0,0.0,0.0,193.0,0.0,192.0,0.0,0.0,0.0,178.0,192.0,0.0,178.0,1744418822.7260983,0.0,2025-04-11 20:47:02.726,STOP,37
30.0,7387.005673289976,-11970.052059895046,-21680.029830936175,-23744.012265683683,14136.450187736773,10871.53087515007,35588.51457697327,47224.743333428305,0.0,0.0,0.0,193.0,0.0,193.0,0.0,0.0,0.0,179.0,193.0,0.0,179.0,1744418822.7261388,0.0,2025-04-11 20:47:02.726,STOP,37
31.0,7384.658740122169,-11975.997623920159,-21631.504193723704,-23753.13177742145,14282.563541241116,10864.7135930912,35679.843804817654,47270.184429905945,0.0,0.0,0.0,193.0,0.0,193.0,0.0,0.0,0.0,179.0,193.0,0.0,179.0,1744418822.726179,0.0,2025-04-11 20:47:02.726,STOP,37
32.0,7363.64810033418,-12004.585505078496,-21652.5595370006,-23802.059746034116,14341.862719281045,10644.593613695337,36003.8993959307,47198.12240578204,0.0,0.0,0.0,193.0,0.0,192.0,0.0,0.0,0.0,178.0,192.0,0.0,178.0,1744418822.7262194,0.0,2025-04-11 20:47:02.726,STOP,37
33.0,7366.8220480468335,-12005.144298689878,-21684.43312459387,-23781.5631963686,14217.072929987065,10606.9532760326,35888.2738218634,47103.46276801381,0.0,0.0,0.0,193.0,0.0,193.0,0.0,0.0,0.0,179.0,193.0,0.0,179.0,1744418822.7262604,0.0,2025-04-11 20:47:02.726,STOP,37
34.0,7376.589760373803,-11983.977196690703,-21696.748935788746,-23752.058893687594,14112.46676593623,10872.20142748373,35635.22972288486,47217.546071713696,0.0,0.0,0.0,193.0,0.0,192.0,0.0,0.0,0.0,178.0,192.0,0.0,178.0,1744418822.7263005,0.0,2025-04-11 20:47:02.726,STOP,37
35.0,7392.347740214795,-11973.60598726344,-21635.32634202556,-23743.74404475022,14227.57824988106,10906.15372731134,35629.2618071153,47273.93952297444,0.0,0.0,0.0,193.0,0.0,192.0,0.0,0.0,0.0,178.0,192.0,0.0,178.0,1744418822.7263408,0.0,2025-04-11 20:47:02.726,STOP,37
36.0,7372.789963816401,-12008.072377213524,-21631.638304190434,-23793.208455229815,14349.663478095947,10714.532222095993,35994.936346404116,47239.94251965792,0.0,0.0,0.0,193.0,0.0,193.0,0.0,0.0,0.0,179.0,193.0,0.0,179.0,1744418822.7263808,0.0,2025-04-11 20:47:02.726,STOP,37
37.0,7374.354585928272,-12005.18900217879,-21681.95208095933,-23792.26968196269,14225.678351602359,10581.941673987112,35937.335900942795,47118.32667807659,0.0,0.0,0.0,193.0,0.0,192.0,0.0,0.0,0.0,178.0,192.0,0.0,178.0,1744418822.7264209,0.0,2025-04-11 20:47:02.726,STOP,37
38.0,7383.69761511059,-11977.875170454405,-21706.695462071355,-23756.350428623013,14110.119832768421,10820.635953025336,35679.44147341746,47202.86097560656,0.0,0.0,0.0,193.0,0.0,192.0,0.0,0.0,0.0,178.0,192.0,0.0,178.0,1744418822.7264612,0.0,2025-04-11 20:47:02.726,STOP,37
39.0,7392.861830337266,-11960.552568501542,-21661.05319989362,-23752.84120474353,14172.123571887443,10879.063413031508,35569.35913197507,47259.88027571205,0.0,0.0,0.0,193.0,0.0,193.0,0.0,0.0,0.0,179.0,193.0,0.0,179.0,1744418822.7265189,0.0,2025-04-11 20:47:02.726,STOP,37
40.0,7374.488696395004,-12004.89842950087,-21641.785996173145,-23794.23663547476,14332.251469165263,10716.253306419052,35918.40397338915,47236.58975798962,0.0,0.0,0.0,193.0,0.0,193.0,0.0,0.0,0.0,178.0,193.0,0.0,178.0,1744418822.7265596,0.0,2025-04-11 20:47:02.726,STOP,37
41.0,7368.431373647616,-12011.1345662039,-21681.95208095933,-23801.456248933824,14239.49172967574,10536.031190875912,35934.27371195242,47100.64644821244,0.0,0.0,0.0,193.0,0.0,192.0,0.0,0.0,0.0,178.0,192.0,0.0,178.0,1744418822.7265997,0.0,2025-04-11 20:47:02.726,STOP,37
42.0,7368.096097480786,-11984.93832170228,-21709.042395239165,-23765.738161294244,14116.423024704818,10764.018984320044,35694.752418369346,47167.54521936717,0.0,0.0,0.0,193.0,0.0,193.0,0.0,0.0,0.0,179.0,193.0,0.0,179.0,1744418822.7266395,0.0,2025-04-11 20:47:02.726,STOP,37
43.0,7396.326350727839,-11948.862606151415,-21667.55755753011,-23744.36989359497,14151.80583617757,10900.141108052863,35523.56040758615,47250.64900525201,0.0,0.0,0.0,193.0,0.0,193.0,0.0,0.0,0.0,179.0,193.0,0.0,179.0,1744418822.7267835,0.0,2025-04-11 20:47:02.726,STOP,37
44.0,7386.715100612057,-11988.827525237504,-21628.28554252214,-23775.438818387847,14335.783044789201,10798.977112648143,35852.66749294609,47255.722851243365,0.0,0.0,0.0,193.0,0.0,193.0,0.0,0.0,0.0,179.0,193.0,0.0,179.0,1744418822.726825,0.0,2025-04-11 20:47:02.726,STOP,37
45.0,7375.226303962029,-12017.2365924402,-21679.314575113603,-23806.574798414087,14257.842511873545,10579.281816396931,35968.516584457946,47125.211015368826,0.0,0.0,0.0,193.0,0.0,193.0,0.0,0.0,0.0,179.0,193.0,0.0,179.0,1744418822.7268658,0.0,2025-04-11 20:47:02.726,STOP,37
46.0,7384.837554077811,-11983.08312691249,-21699.900531756943,-23761.066646703082,14137.120740070432,10737.55451888496,35735.87962816711,47134.26347187322,0.0,0.0,0.0,193.0,0.0,193.0,0.0,0.0,0.0,178.0,193.0,0.0,178.0,1744418822.726906,0.0,2025-04-11 20:47:02.726,STOP,37
47.0,7401.534307185925,-11954.584652731974,-21666.976412174274,-23737.239687113728,14139.959411616257,10919.184794328785,35512.205721402854,47229.32544104164,0.0,0.0,0.0,193.0,0.0,192.0,0.0,0.0,0.0,178.0,192.0,0.0,178.0,1744418822.7269464,0.0,2025-04-11 20:47:02.726,STOP,37
48.0,7380.657777864669,-11990.772127005117,-21627.48087972175,-23773.78478929815,14316.40408234645,10839.165549178786,35774.235221652416,47255.61109252109,0.0,0.0,0.0,193.0,0.0,193.0,0.0,0.0,0.0,179.0,193.0,0.0,179.0,1744418822.7269864,0.0,2025-04-11 20:47:02.726,STOP,37
49.0,7375.65098710668,-12011.671008070829,-21662.796635961135,-23807.42416470339,14280.30601505113,10591.552924102894,35966.32611350132,47134.41993408441,0.0,0.0,0.0,193.0,0.0,193.0,0.0,0.0,0.0,178.0,193.0,0.0,178.0,1744418822.7270267,0.0,2025-04-11 20:47:02.727,STOP,37
50.0,7396.75103387249,-11983.41840307932,-21684.38842110496,-23768.487425862244,14161.975879904734,10688.246570616553,35776.49274784241,47114.52688151919,0.0,0.0,0.0,193.0,0.0,193.0,0.0,0.0,0.0,179.0,193.0,0.0,179.0,1744418822.7270668,0.0,2025-04-11 20:47:02.727,STOP,37
51.0,7395.231115249529,-11960.239644079167,-21673.503121555226,-23746.873288973962,14111.572696158017,10917.664875705825,35538.7372420713,47238.26613882377,0.0,0.0,0.0,193.0,0.0,193.0,0.0,0.0,0.0,179.0,193.0,0.0,179.0,1744418822.7271066,0.0,2025-04-11 20:47:02.727,STOP,37
52.0,7386.379824445227,-11979.193923377266,-21620.216562773774,-23756.283373389648,14266.090305577554,10868.423982670784,35697.322868981704,47274.92299973047,0.0,0.0,0.0,193.0,0.0,193.0,0.0,0.0,0.0,178.0,193.0,0.0,178.0,1744418822.7271461,0.0,2025-04-11 20:47:02.727,STOP,37
53.0,7383.675263366135,-11998.774051520117,-21637.13683332644,-23793.789600585653,14296.578085014593,10623.806491351903,35976.0938258283,47180.88921080699,0.0,0.0,0.0,193.0,0.0,192.0,0.0,0.0,0.0,179.0,192.0,0.0,179.0,1744418822.727186,0.0,2025-04-11 20:47:02.727,STOP,37
54.0,7387.609170390269,-11986.882923469893,-21672.38553433246,-23769.5603095961,14172.9952899212,10639.162139792697,35837.08832706074,47120.85242520004,0.0,0.0,0.0,193.0,0.0,193.0,0.0,0.0,0.0,178.0,193.0,0.0,178.0,1744418822.7272427,0.0,2025-04-11 20:47:02.727,STOP,37
55.0,7388.726757613034,-11965.827580192994,-21679.873368724988,-23747.32032386307,14089.377413913897,10880.784497354567,35581.362018747575,47236.701516711895,0.0,0.0,0.0,193.0,0.0,192.0,0.0,0.0,0.0,178.0,192.0,0.0,178.0,1744418822.7272832,0.0,2025-04-11 20:47:02.727,STOP,37
56.0,7404.864717109766,-11966.922815671303,-21615.23212376024,-23742.78291973864,14232.428578427862,10860.24324420014,35630.60291178261,47266.96577870438,0.0,0.0,0.0,193.0,0.0,193.0,0.0,0.0,0.0,179.0,193.0,0.0,179.0,1744418822.7273235,0.0,2025-04-11 20:47:02.727,STOP,37
57.0,7388.100908768286,-12000.56219107654,-21621.51296395218,-23786.167655726393,14324.115434183532,10648.929852119667,35959.86645935374,47197.071873792636,0.0,0.0,0.0,193.0,0.0,193.0,0.0,0.0,0.0,178.0,193.0,0.0,178.0,1744418822.7273633,0.0,2025-04-11 20:47:02.727,STOP,37
58.0,7391.230152992029,-11991.04034793858,-21656.80636844711,-23770.588489841044,14210.635627583937,10595.553886360394,35857.1154900927,47106.99434363775,0.0,0.0,0.0,193.0,0.0,192.0,0.0,0.0,0.0,178.0,192.0,0.0,178.0,1744418822.7275093,0.0,2025-04-11 20:47:02.727,STOP,37
59.0,7399.1650222736625,-11964.598234247951,-21671.08913315405,-23741.151242393404,14113.763167114636,10852.129560962863,35602.03738236873,47219.87065313705,0.0,0.0,0.0,193.0,0.0,193.0,0.0,0.0,0.0,179.0,193.0,0.0,179.0,1744418822.7275507,0.0,2025-04-11 20:47:02.727,STOP,37
60.0,7420.75680741749,-11958.876187667393,-21618.316664495072,-23733.663408000877,14213.317836918573,10904.63380868838,35571.30373374269,47277.00171196481,0.0,0.0,0.0,193.0,0.0,193.0,0.0,0.0,0.0,178.0,193.0,0.0,178.0,1744418822.7275913,0.0,2025-04-11 20:47:02.727,STOP,37
61.0,7392.861830337266,-11998.103499186456,-21604.927969566343,-23775.03648698765,14361.196978234886,10735.386399672794,35939.2357992215,47243.07176388166,0.0,0.0,0.0,193.0,0.0,192.0,0.0,0.0,0.0,178.0,192.0,0.0,178.0,1744418822.7276316,0.0,2025-04-11 20:47:02.727,STOP,37
62.0,7380.948350542588,-11999.556362576051,-21644.5576124856,-23770.476731118768,14254.735619394258,10603.086424241832,35904.63529880468,47115.44330304186,0.0,0.0,0.0,193.0,0.0,193.0,0.0,0.0,0.0,179.0,193.0,0.0,179.0,1744418822.727686,0.0,2025-04-11 20:47:02.727,STOP,37
63.0,7384.614036633258,-11972.622510507406,-21667.24463310774,-23738.69255050332,14134.0361993356,10856.979889509665,35668.600877356635,47209.32062975415,0.0,0.0,0.0,193.0,0.0,193.0,0.0,0.0,0.0,179.0,193.0,0.0,179.0,1744418822.7277482,0.0,2025-04-11 20:47:02.727,STOP,37
64.0,7401.199031019096,-11949.823731162995,-21622.272923263663,-23731.562344022077,14185.62402553845,10942.698829495768,35550.76248058826,47283.23784866784,0.0,0.0,0.0,193.0,0.0,192.0,0.0,0.0,0.0,178.0,192.0,0.0,178.0,1744418822.7277868,0.0,2025-04-11 20:47:02.727,STOP,37
65.0,7379.294321452895,-11996.672987541317,-21605.062080033076,-23774.924728265374,14351.943356030388,10784.113202585364,35909.798551773856,47281.40500562251,0.0,0.0,0.0,193.0,0.0,193.0,0.0,0.0,0.0,179.0,193.0,0.0,179.0,1744418822.7278228,0.0,2025-04-11 20:47:02.727,STOP,37
66.0,7389.12908901323,-11997.2317811527,-21644.62466771897,-23779.260966689704,14269.018384101199,10565.870769723746,35925.020089747915,47122.03706765617,0.0,0.0,0.0,193.0,0.0,193.0,0.0,0.0,0.0,179.0,193.0,0.0,179.0,1744418822.7278583,0.0,2025-04-11 20:47:02.727,STOP,37
67.0,7384.904609311177,-11985.206542635744,-21681.795618748143,-23750.382512853448,14147.760170431158,10783.777926418536,35705.48125570789,47181.38094918501,0.0,0.0,0.0,193.0,0.0,192.0,0.0,0.0,0.0,178.0,192.0,0.0,178.0,1744418822.727894,0.0,2025-04-11 20:47:02.727,STOP,37
68.0,7399.500298440493,-11971.683737240284,-21651.28548756665,-23733.059910900585,14150.017696621144,10924.102178108953,35526.37672738752,47279.01336896579,0.0,0.0,0.0,193.0,0.0,193.0,0.0,0.0,0.0,179.0,193.0,0.0,179.0,1744418822.7279296,0.0,2025-04-11 20:47:02.727,STOP,37
69.0,7386.26806572295,-12001.031577710102,-21602.98336779873,-23758.093864690527,14336.990038989788,10804.341531317417,35820.033946041345,47281.11443294459,0.0,0.0,0.0,193.0,0.0,193.0,0.0,0.0,0.0,179.0,193.0,0.0,179.0,1744418822.727988,0.0,2025-04-11 20:47:02.727,STOP,37
70.0,7375.159248728663,-12008.050025469069,-21637.360350770992,-23784.737144081253,14295.125221624998,10575.794944261903,35947.461241181045,47143.18181791089,0.0,0.0,0.0,193.0,0.0,192.0,0.0,0.0,0.0,178.0,192.0,0.0,178.0,1744418822.7280235,0.0,2025-04-11 20:47:02.728,STOP,37
71.0,7373.8404958058,-11990.034519438092,-21668.965717430798,-23751.142472164927,14164.412220050363,10738.716809596635,35745.87085793863,47154.64826281647,0.0,0.0,0.0,193.0,0.0,193.0,0.0,0.0,0.0,178.0,193.0,0.0,178.0,1744418822.7280593,0.0,2025-04-11 20:47:02.728,STOP,37
72.0,7400.237906007517,-11964.08414412548,-21647.23982182024,-23727.427271297845,14136.94192611479,10936.865024192934,35520.118238940035,47249.48671454033,0.0,0.0,0.0,193.0,0.0,193.0,0.0,0.0,0.0,178.0,193.0,0.0,178.0,1744418822.7280948,0.0,2025-04-11 20:47:02.728,STOP,37
73.0,7398.516821684459,-11981.630263522895,-21599.76471659717,-23748.907297719397,14319.64508529247,10849.402648139316,35747.61429400615,47262.07074666867,0.0,0.0,0.0,193.0,0.0,192.0,0.0,0.0,0.0,178.0,192.0,0.0,178.0,1744418822.7282488,0.0,2025-04-11 20:47:02.728,STOP,37
74.0,7373.79579231689,-11995.533048574096,-21632.308856524094,-23792.582606385065,14313.11837591152,10603.064072497376,35973.09869207128,47141.348974865556,0.0,0.0,0.0,193.0,0.0,193.0,0.0,0.0,0.0,179.0,193.0,0.0,179.0,1744418822.7282853,0.0,2025-04-11 20:47:02.728,STOP,37
75.0,7362.262292177951,-11994.37075786242,-21680.432162336372,-23772.734257308755,14176.795086478602,10690.660559017726,35811.83085582624,47128.340259592565,0.0,0.0,0.0,193.0,0.0,193.0,0.0,0.0,0.0,179.0,193.0,0.0,179.0,1744418822.728321,0.0,2025-04-11 20:47:02.728,STOP,37
76.0,7393.375920459738,-11967.347498815954,-21662.23784234975,-23730.332998077036,14119.865193350935,10915.049721604553,35544.54869562968,47237.08149636764,0.0,0.0,0.0,193.0,0.0,192.0,0.0,0.0,0.0,178.0,192.0,0.0,178.0,1744418822.7283564,0.0,2025-04-11 20:47:02.728,STOP,37
77.0,7399.187374018118,-11988.313435115033,-21607.18549575633,-23740.74891099321,14291.012500645222,10880.471572932192,35687.264583976816,47273.85011599662,0.0,0.0,0.0,193.0,0.0,193.0,0.0,0.0,0.0,179.0,193.0,0.0,179.0,1744418822.728392,0.0,2025-04-11 20:47:02.728,STOP,37
78.0,7387.452708179082,-12004.160821933845,-21614.002777815196,-23780.55736786811,14341.616850092036,10642.91723286119,35985.21333756606,47182.76675734124,0.0,0.0,0.0,193.0,0.0,193.0,0.0,0.0,0.0,179.0,193.0,0.0,179.0,1744418822.7284274,0.0,2025-04-11 20:47:02.728,STOP,37
79.0,7388.0115017904645,-11976.534065787086,-21637.494461237726,-23747.52148956317,14225.253668457708,10641.017334582488,35849.22532429997,47109.45303552783,0.0,0.0,0.0,193.0,0.0,193.0,0.0,0.0,0.0,179.0,193.0,0.0,179.0,1744418822.7284632,0.0,2025-04-11 20:47:02.728,STOP,37
80.0,7398.203897262085,-11955.74694344365,-21639.506118238703,-23718.17364909335,14145.815568663547,10900.29757026405,35594.147216576006,47228.811350919175,0.0,0.0,0.0,193.0,0.0,193.0,0.0,0.0,0.0,179.0,193.0,0.0,179.0,1744418822.7284987,0.0,2025-04-11 20:47:02.728,STOP,37
81.0,7402.741301386512,-11977.85281870995,-21591.494571148705,-23728.12017537596,14260.323555508085,10910.244096546663,35642.1140601771,47283.64018006804,0.0,0.0,0.0,193.0,0.0,193.0,0.0,0.0,0.0,179.0,193.0,0.0,179.0,1744418822.7285345,0.0,2025-04-11 20:47:02.728,STOP,37
82.0,7381.864772065255,-12010.821641781527,-21609.286559735127,-23782.546673124634,14334.866623266535,10701.143527167265,36004.234672097526,47237.08149636764,0.0,0.0,0.0,193.0,0.0,193.0,0.0,0.0,0.0,178.0,193.0,0.0,178.0,1744418822.7285695,0.0,2025-04-11 20:47:02.728,STOP,37
83.0,7385.8433825782995,-11983.79838273506,-21644.110577596497,-23763.167710681882,14220.649209099915,10600.515973629472,35907.339859883774,47117.83493969857,0.0,0.0,0.0,193.0,0.0,192.0,0.0,0.0,0.0,178.0,192.0,0.0,178.0,1744418822.7286053,0.0,2025-04-11 20:47:02.728,STOP,37
84.0,7375.427469662127,-11972.868379696416,-21662.170787116385,-23735.11627139047,14133.924440613324,10853.180092952263,35649.803060269725,47214.05919957867,0.0,0.0,0.0,193.0,0.0,193.0,0.0,0.0,0.0,178.0,193.0,0.0,178.0,1744418822.728658,0.0,2025-04-11 20:47:02.728,STOP,37
85.0,7383.854077321777,-11980.333862344487,-21612.236990003228,-23730.578867266046,14224.225488212764,10902.420985987304,35591.86733864157,47276.68878754244,0.0,0.0,0.0,193.0,0.0,193.0,0.0,0.0,0.0,179.0,193.0,0.0,179.0,1744418822.728694,0.0,2025-04-11 20:47:02.728,STOP,37
86.0,7363.134010211708,-12022.645714598384,-21609.688891135324,-23781.22792020177,14359.230024722818,10727.049198990966,35962.81688962184,47259.58970303413,0.0,0.0,0.0,193.0,0.0,192.0,0.0,0.0,0.0,178.0,192.0,0.0,178.0,1744418822.7287295,0.0,2025-04-11 20:47:02.728,STOP,37
87.0,7379.003748774976,-12006.70892080175,-21645.786958430643,-23771.28139391916,14253.729790893769,10559.813446976357,35928.43990664958,47122.193529867356,0.0,0.0,0.0,193.0,0.0,193.0,0.0,0.0,0.0,179.0,193.0,0.0,179.0,1744418822.7287652,0.0,2025-04-11 20:47:02.728,STOP,37
88.0,7392.235981492518,-11973.181304118789,-21658.370990558982,-23723.850992184998,14149.32479254303,10801.32404581595,35677.36276118312,47192.13213826801,0.0,0.0,0.0,193.0,0.0,193.0,0.0,0.0,0.0,179.0,193.0,0.0,179.0,1744418822.728816,0.0,2025-04-11 20:47:02.728,STOP,37
89.0,7391.721891370045,-11969.292100583567,-21622.652902919403,-23716.810192681576,14197.448098355306,10913.708616937234,35558.31737021415,47278.856906754605,0.0,0.0,0.0,193.0,0.0,193.0,0.0,0.0,0.0,178.0,193.0,0.0,178.0,1744418822.7288516,0.0,2025-04-11 20:47:02.728,STOP,37
90.0,7373.974606272532,-12004.496098100675,-21591.159294981873,-23757.13273967895,14363.70037361388,10764.354260486873,35905.954051727545,47277.71696778738,0.0,0.0,0.0,193.0,0.0,192.0,0.0,0.0,0.0,178.0,192.0,0.0,178.0,1744418822.7288873,0.0,2025-04-11 20:47:02.728,STOP,37
91.0,7372.074707993831,-12008.072377213524,-21626.676216921358,-23771.32609740807,14282.809410430124,10551.766818972448,35968.67304666914,47134.3752305955,0.0,0.0,0.0,193.0,0.0,193.0,0.0,0.0,0.0,179.0,193.0,0.0,179.0,1744418822.7289228,0.0,2025-04-11 20:47:02.728,STOP,37
92.0,7374.578103372825,-11989.98981594918,-21656.068760880087,-23737.753777236197,14156.164426346353,10760.755629629568,35758.164317389055,47179.637513117494,0.0,0.0,0.0,193.0,0.0,192.0,0.0,0.0,0.0,178.0,192.0,0.0,178.0,1744418822.728958,0.0,2025-04-11 20:47:02.728,STOP,37
93.0,7394.247638493495,-11961.446638279753,-21625.558629698593,-23716.609026981478,14161.104161870977,10915.474404749204,35563.9947133058,47258.0027291778,0.0,0.0,0.0,193.0,0.0,192.0,0.0,0.0,0.0,178.0,192.0,0.0,178.0,1744418822.728994,0.0,2025-04-11 20:47:02.728,STOP,37
94.0,7372.9240742831325,-11998.774051520117,-21596.121382250953,-23758.675010046365,14344.634335593502,10801.435804538227,35863.463385518,47259.16501988948,0.0,0.0,0.0,193.0,0.0,193.0,0.0,0.0,0.0,179.0,193.0,0.0,179.0,1744418822.7290297,0.0,2025-04-11 20:47:02.729,STOP,37
95.0,7361.547036355381,-12015.984894750703,-21642.925935140363,-23796.449458175834,14300.199067616353,10563.702650511581,36028.285149131436,47129.524902048695,0.0,0.0,0.0,193.0,0.0,192.0,0.0,0.0,0.0,178.0,192.0,0.0,178.0,1744418822.7290652,0.0,2025-04-11 20:47:02.729,STOP,37
96.0,7377.997920274487,-11993.968426462225,-21665.94823192933,-23754.89756523342,14177.756211490181,10694.102727663843,35824.12431527666,47124.987497924274,0.0,0.0,0.0,193.0,0.0,193.0,0.0,0.0,0.0,179.0,193.0,0.0,179.0,1744418822.7291005,0.0,2025-04-11 20:47:02.729,STOP,37
97.0,7395.32052222735,-11970.454391295241,-21638.075606593564,-23728.433099798334,14155.829150179525,10897.280084762584,35590.637992696524,47221.52468222674,0.0,0.0,0.0,193.0,0.0,193.0,0.0,0.0,0.0,179.0,193.0,0.0,179.0,1744418822.7291358,0.0,2025-04-11 20:47:02.729,STOP,37
98.0,7373.974606272532,-11995.890676485382,-21594.333242694527,-23757.98210596825,14319.756844014746,10844.418209125783,35808.701611602504,47252.63831050853,0.0,0.0,0.0,193.0,0.0,193.0,0.0,0.0,0.0,178.0,193.0,0.0,178.0,1744418822.7291715,0.0,2025-04-11 20:47:02.729,STOP,37
99.0,7370.420678904138,-12003.84789751147,-21616.394414471917,-23793.051993018627,14316.493489324272,10604.516935886972,36049.20638194161,47142.71243127733,0.0,0.0,0.0,193.0,0.0,193.0,0.0,1.0,0.0,179.0,193.0,1.0,179.0,1744418822.7292218,0.0,2025-04-11 20:47:02.729,STOP,37
100.0,7375.583931873314,-11980.959711189236,-21644.691722952335,-23749.264925630683,14196.352862876996,10664.799590682935,35883.28938284986,47094.52207023169,0.0,0.0,0.0,193.0,0.0,193.0,0.0,2.0,0.0,179.0,193.0,2.0,179.0,1744418822.7292585,0.0,2025-04-11 20:47:02.729,STOP,37
101.0,7378.579065630325,-11969.426211050299,-21656.51579576919,-23730.64592249941,14133.164481301843,10907.338369767473,35640.54943806522,47221.882310138026,0.0,0.0,0.0,193.0,0.0,193.0,0.0,3.0,0.0,179.0,193.0,3.0,179.0,1744418823.2036676,0.0,2025-04-11 20:47:03.203,STOP,37
102.0,7391.833650092322,-11982.65844376784,-21599.630606130435,-23737.59731502501,14297.136878625975,10880.87390433239,35749.35773007366,47257.86861871107,0.0,0.0,0.0,193.0,0.0,192.0,0.0,4.0,0.0,178.0,192.0,4.0,178.0,1744418823.203848,0.0,2025-04-11 20:47:03.203,STOP,37
103.0,7373.79579231689,-12013.883830771903,-21610.56060916908,-23779.484484134256,14361.062867768154,10666.49832326154,36062.17039372568,47189.04759753318,0.0,0.0,0.0,193.0,0.0,193.0,0.0,5.0,0.0,179.0,193.0,5.0,179.0,1744418823.2040951,0.0,2025-04-11 20:47:03.204,STOP,37
104.0,7371.515914382448,-11998.014092208636,-21649.76556894369,-23760.150225180416,14235.133139506954,10636.05524731341,35934.96661603053,47108.760131449715,0.0,0.0,0.0,193.0,0.0,193.0,0.0,6.0,0.0,178.0,193.0,6.0,178.0,1744418823.2041855,0.0,2025-04-11 20:47:03.204,STOP,37
105.0,7388.838516335311,-11955.523425999098,-21652.51483351169,-23730.757681221687,14147.268432053143,10896.117794050908,35671.21603145791,47219.49067348131,0.0,0.0,0.0,193.0,0.0,192.0,0.0,7.0,0.0,178.0,192.0,7.0,178.0,1744418823.2042484,0.0,2025-04-11 20:47:03.204,STOP,37
106.0,7391.811298347867,-11946.135693327868,-21598.75888809668,-23736.435024313334,14264.793904399146,10919.073035606509,35689.47740667789,47277.29228464273,0.0,0.0,0.0,193.0,0.0,193.0,0.0,8.0,0.0,179.0,193.0,8.0,179.0,1744418823.204325,0.0,2025-04-11 20:47:03.204,STOP,37
107.0,7374.086364994809,-11994.147240417868,-21596.858989817978,-23778.165731211393,14370.115324272552,10713.615800573327,36037.292902146924,47224.9444991284,0.0,0.0,0.0,193.0,0.0,193.0,0.0,9.0,0.0,178.0,193.0,9.0,178.0,1744418823.204444,0.0,2025-04-11 20:47:03.204,STOP,37
108.0,7368.766649814445,-11998.662292797839,-21641.316609539583,-23771.661373574898,14247.046619301633,10604.472232398062,35971.13173855922,47109.34127680556,0.0,0.0,0.0,193.0,0.0,193.0,0.0,9.0,0.0,179.0,193.0,9.0,179.0,1744418823.2045064,0.0,2025-04-11 20:47:03.204,STOP,37
109.0,7364.4751148790265,-11985.139487402379,-21667.401095318928,-23747.186213396337,14134.0361993356,10851.883691773855,35720.07694483721,47204.9396878409,0.0,0.0,0.0,193.0,0.0,193.0,0.0,10.0,0.0,179.0,193.0,10.0,179.0,1744418823.2045724,0.0,2025-04-11 20:47:03.204,STOP,37
110.0,7379.115507497252,-11971.482571540186,-21622.004702330196,-23739.005474925696,14214.055444485599,10918.022503617109,35644.52804857827,47273.26897064078,0.0,0.0,0.0,193.0,0.0,193.0,0.0,11.0,0.0,179.0,193.0,11.0,179.0,1744418823.20463,0.0,2025-04-11 20:47:03.204,STOP,37
111.0,7364.74333581249,-11996.762394519139,-21598.08833576302,-23771.661373574898,14373.356327218573,10757.536978428005,36004.61465175327,47250.15726687399,0.0,0.0,0.0,193.0,0.0,193.0,0.0,11.0,0.0,178.0,193.0,11.0,178.0,1744418823.2046847,0.0,2025-04-11 20:47:03.204,STOP,37
112.0,7367.9396352695985,-11998.550534075563,-21635.862783892488,-23762.631268814956,14286.765669198712,10582.075784453844,35998.98201215053,47105.7202942038,0.0,0.0,0.0,193.0,0.0,193.0,0.0,12.0,0.0,179.0,193.0,12.0,179.0,1744418823.2047546,0.0,2025-04-11 20:47:03.204,STOP,37
113.0,7361.636443333202,-11991.75560376115,-21664.33890632855,-23730.6012190105,14173.643490510403,10816.970266934666,35775.03988445281,47183.4373096749,0.0,0.0,0.0,193.0,0.0,193.0,0.0,12.0,0.0,179.0,193.0,12.0,179.0,1744418823.2048178,0.0,2025-04-11 20:47:03.204,STOP,37
114.0,7373.035833005409,-11970.789667462072,-21634.6557896919,-23733.037559156128,14192.597769808504,10921.151747840851,35625.64082451354,47265.26704612578,0.0,0.0,0.0,193.0,0.0,193.0,0.0,12.0,0.0,179.0,193.0,12.0,179.0,1744418823.2050729,0.0,2025-04-11 20:47:03.205,STOP,37
115.0,7370.532437626414,-11988.671063026317,-21598.289501463118,-23763.74885603772,14365.242643981295,10780.0451850945,35949.80817434885,47256.72867974385,0.0,0.0,0.0,193.0,0.0,193.0,0.0,12.0,0.0,179.0,193.0,12.0,179.0,1744418823.205145,0.0,2025-04-11 20:47:03.205,STOP,37
116.0,7355.802638030367,-11998.081147442002,-21639.774339172167,-23785.430048159367,14283.122334852498,10555.924243441135,36035.39300386822,47111.75526520673,0.0,0.0,0.0,193.0,0.0,193.0,0.0,13.0,0.0,179.0,193.0,13.0,179.0,1744418823.2052093,0.0,2025-04-11 20:47:03.205,STOP,37
117.0,7354.483885107504,-11981.764373989627,-21663.04250515014,-23754.89756523342,14160.56772000405,10740.214376475142,35820.99507105292,47145.48404758979,0.0,0.0,0.0,193.0,0.0,193.0,0.0,13.0,0.0,179.0,193.0,13.0,179.0,1744418823.2052753,0.0,2025-04-11 20:47:03.205,STOP,37
118.0,7381.641254620702,-11968.822713950005,-21632.554725713104,-23728.433099798334,14165.66391773986,10921.554079241048,35619.98583316634,47257.08630765514,0.0,0.0,0.0,193.0,0.0,192.0,0.0,13.0,0.0,178.0,192.0,13.0,178.0,1744418823.205417,0.0,2025-04-11 20:47:03.205,STOP,37
119.0,7372.432335905116,-12005.144298689878,-21594.959091539276,-23751.880079731953,14354.156178731464,10840.037267212543,35892.23008063198,47285.51772660229,0.0,0.0,0.0,193.0,0.0,193.0,0.0,14.0,0.0,179.0,193.0,14.0,179.0,1744418823.2054884,0.0,2025-04-11 20:47:03.205,STOP,37
120.0,7354.260367662951,-12020.656409341862,-21629.269019278174,-23784.781847570164,14320.405044603951,10596.492659627516,36067.08777750585,47157.509286106746,0.0,0.0,0.0,193.0,0.0,192.0,0.0,14.0,0.0,178.0,192.0,14.0,178.0,1744418823.2055476,0.0,2025-04-11 20:47:03.205,STOP,37
121.0,7349.79001877189,-11994.817792751526,-21661.209662104808,-23752.349466365515,14196.665787299371,10714.532222095993,35869.54306000985,47146.06519294563,0.0,0.0,0.0,193.0,0.0,193.0,0.0,14.0,0.0,179.0,193.0,14.0,179.0,1744418823.2056143,0.0,2025-04-11 20:47:03.205,STOP,37
122.0,7370.107754481764,-11960.619623734907,-21638.299124038116,-23724.78976545212,14156.65616472437,10929.757169456145,35616.56601626468,47250.93957792992,0.0,0.0,0.0,193.0,0.0,193.0,0.0,14.0,0.0,179.0,193.0,14.0,179.0,1744418823.205678,0.0,2025-04-11 20:47:03.205,STOP,37
123.0,7366.55382711337,-11980.669138511317,-21586.13015247943,-23741.26300111568,14326.440015606882,10867.328747192472,35797.70455333049,47276.129993931056,0.0,0.0,0.0,193.0,0.0,192.0,0.0,14.0,0.0,179.0,192.0,14.0,179.0,1744418823.205746,0.0,2025-04-11 20:47:03.205,STOP,37
124.0,7359.177751443119,-12013.257981927156,-21611.432327202838,-23785.385344670456,14347.27184143923,10616.542174403927,36065.679617605165,47167.58992285609,0.0,0.0,0.0,193.0,0.0,193.0,0.0,14.0,0.0,179.0,193.0,14.0,179.0,1744418823.2058072,0.0,2025-04-11 20:47:03.205,STOP,37
125.0,7364.989205001499,-11996.091842185479,-21648.826795676567,-23763.055951959606,14222.10207248951,10649.399238753229,35910.71497329652,47104.60270698103,0.0,0.0,0.0,193.0,0.0,193.0,0.0,15.0,0.0,179.0,193.0,15.0,179.0,1744418823.205869,0.0,2025-04-11 20:47:03.205,STOP,37
126.0,7367.738469569501,-11959.278519067588,-21655.599374246525,-23740.994780182216,14146.284955297107,10886.975930568688,35657.04502547324,47219.66948743695,0.0,0.0,0.0,193.0,0.0,193.0,0.0,15.0,0.0,179.0,193.0,15.0,179.0,1744418823.205935,0.0,2025-04-11 20:47:03.205,STOP,37
127.0,7379.786059830912,-11966.475780782197,-21592.053364760086,-23735.18332662384,14296.30986408113,10864.24420645764,35734.82909617771,47256.23694136583,0.0,0.0,0.0,193.0,0.0,193.0,0.0,15.0,0.0,179.0,193.0,15.0,179.0,1744418823.2059996,0.0,2025-04-11 20:47:03.205,STOP,37
128.0,7370.957120771065,-12006.619513823929,-21598.423611929848,-23776.064667232593,14362.471027668838,10652.908462632711,36056.78362331195,47177.000007271774,0.0,0.0,0.0,193.0,0.0,193.0,0.0,15.0,0.0,179.0,193.0,15.0,179.0,1744418823.206067,0.0,2025-04-11 20:47:03.206,STOP,37
129.0,7372.946426027588,-11992.672025283817,-21636.890964137434,-23759.010286213197,14226.885345802946,10617.816223837879,35946.88009582521,47085.53666896065,0.0,0.0,0.0,193.0,0.0,193.0,0.0,15.0,0.0,179.0,193.0,15.0,179.0,1744418823.2062528,0.0,2025-04-11 20:47:03.206,STOP,37
130.0,7381.574199387336,-11964.911158670326,-21650.369066043982,-23731.003550410696,14134.594992946983,10875.420078685294,35686.415217687514,47193.11561502405,0.0,0.0,0.0,193.0,0.0,193.0,0.0,15.0,0.0,179.0,193.0,15.0,179.0,1744418823.2063203,0.0,2025-04-11 20:47:03.206,STOP,37
131.0,7381.373033687239,-11972.80132446305,-21605.41970794436,-23731.27177134416,14241.928069821368,10899.269390019106,35674.03235125927,47251.00663316329,0.0,0.0,0.0,193.0,0.0,193.0,0.0,15.0,0.0,179.0,193.0,15.0,179.0,1744418823.2063968,0.0,2025-04-11 20:47:03.206,STOP,37
132.0,7364.430411390115,-12005.881906256904,-21593.61798687196,-23766.02873397216,14374.295100485695,10716.253306419052,36032.21905615557,47217.21079554687,0.0,0.0,0.0,193.0,0.0,193.0,0.0,15.0,0.0,179.0,193.0,15.0,179.0,1744418823.2064688,0.0,2025-04-11 20:47:03.206,STOP,37
133.0,7365.302129423872,-11995.443641596275,-21632.398263501917,-23762.295992648127,14265.732677666269,10593.497525870505,35986.822663166844,47099.66297145641,0.0,0.0,0.0,193.0,0.0,193.0,0.0,15.0,0.0,179.0,193.0,15.0,179.0,1744418823.2065935,0.0,2025-04-11 20:47:03.206,STOP,37
134.0,7381.305978453873,-11961.2231208352,-21648.692685209833,-23731.629399255446,14163.808722950069,10837.936203233743,35730.73872694239,47178.13994623899,0.0,0.0,0.0,193.0,0.0,193.0,0.0,15.0,0.0,179.0,193.0,15.0,179.0,1744418823.2066543,0.0,2025-04-11 20:47:03.206,STOP,37
135.0,7391.788946603411,-11944.302850282533,-21609.75594636869,-23722.196963095306,14232.406226683406,10925.890317665377,35632.0110716833,47248.92792092895,0.0,0.0,0.0,193.0,0.0,193.0,0.0,16.0,0.0,179.0,193.0,16.0,179.0,1744418823.2067184,0.0,2025-04-11 20:47:03.206,STOP,37
136.0,7380.121335997741,-11979.283330355089,-21587.515960635657,-23760.686667047343,14388.153182047985,10767.259987266063,35991.091846357805,47234.13106609954,0.0,0.0,0.0,193.0,0.0,193.0,0.0,16.0,0.0,179.0,193.0,16.0,179.0,1744418823.2067716,0.0,2025-04-11 20:47:03.206,STOP,37
137.0,7378.713176097057,-11983.932493201792,-21630.699530923313,-23775.6623358324,14296.689843736869,10578.253636151987,36018.629195526744,47097.67366619989,0.0,0.0,0.0,193.0,0.0,193.0,0.0,16.0,0.0,179.0,193.0,16.0,179.0,1744418823.206828,0.0,2025-04-11 20:47:03.206,STOP,37
138.0,7379.450783664082,-11967.258091838134,-21656.202871346817,-23741.575925538054,14171.251853853686,10790.550504988492,35789.680277071035,47168.05930948965,0.0,0.0,0.0,193.0,0.0,193.0,0.0,16.0,0.0,178.0,193.0,16.0,178.0,1744418823.2068882,0.0,2025-04-11 20:47:03.206,STOP,37
139.0,7403.769481631456,-11950.203710818734,-21609.778298113146,-23717.7489659487,14200.823211768058,10930.517128767626,35613.54853076321,47256.482810554844,0.0,0.0,0.0,193.0,0.0,193.0,0.0,16.0,0.0,179.0,193.0,16.0,179.0,1744418823.2069347,0.0,2025-04-11 20:47:03.206,STOP,37
140.0,7377.528533640926,-11992.359100861442,-21587.448905402292,-23759.546728080124,14364.236815480806,10818.154909390798,35939.39226143268,47271.61494155109,0.0,0.0,0.0,193.0,0.0,193.0,0.0,16.0,0.0,179.0,193.0,16.0,179.0,1744418823.206989,0.0,2025-04-11 20:47:03.206,STOP,37
141.0,7357.568425842336,-12012.252153426667,-21632.71118792429,-23782.881949291463,14288.620863988503,10576.733717529025,36049.742823808534,47131.4248003274,0.0,0.0,0.0,193.0,0.0,193.0,0.0,16.0,0.0,179.0,193.0,16.0,179.0,1744418823.207043,0.0,2025-04-11 20:47:03.207,STOP,37
142.0,7357.881350264711,-11984.915969957825,-21654.884118423954,-23740.860669715486,14159.025449636632,10730.781940315002,35824.86192284369,47144.94760572286,0.0,0.0,0.0,193.0,0.0,193.0,0.0,16.0,0.0,179.0,193.0,16.0,179.0,1744418823.2070951,0.0,2025-04-11 20:47:03.207,STOP,37
143.0,7377.0367952629085,-11958.518559756109,-21629.492536722726,-23720.386471794423,14154.197472834287,10925.01859963162,35609.27934757225,47249.576121518156,0.0,0.0,0.0,193.0,0.0,193.0,0.0,16.0,0.0,179.0,193.0,16.0,179.0,1744418823.2071536,0.0,2025-04-11 20:47:03.207,STOP,37
144.0,7373.12523998323,-11979.775068733104,-21588.164161224864,-23748.79553899712,14339.336972157595,10845.513444604094,35851.684016190055,47267.50222057131,0.0,0.0,0.0,193.0,0.0,193.0,0.0,16.0,0.0,178.0,193.0,16.0,178.0,1744418823.207647,0.0,2025-04-11 20:47:03.207,STOP,37
145.0,7363.402231145172,-12001.635074810396,-21622.451737219304,-23782.90430103592,14324.674227794914,10601.298284685408,36039.99746322602,47138.51030331973,0.0,0.0,0.0,193.0,0.0,193.0,0.0,16.0,0.0,179.0,193.0,16.0,179.0,1744418823.2076874,0.0,2025-04-11 20:47:03.207,STOP,37
146.0,7374.242827205995,-11972.466048296219,-21658.683914981357,-23752.349466365515,14191.860162241479,10698.72953876609,35855.52851623637,47119.399561810445,0.0,0.0,0.0,193.0,0.0,192.0,0.0,16.0,0.0,178.0,192.0,16.0,178.0,1744418823.207721,0.0,2025-04-11 20:47:03.207,STOP,37
147.0,7399.723815885046,-11923.649838405829,-21659.62268824848,-23738.200812125306,14122.368588729929,10917.664875705825,35603.445542269415,47229.03486836373,0.0,0.0,0.0,193.0,0.0,193.0,0.0,16.0,0.0,179.0,193.0,16.0,179.0,1744418823.2077563,0.0,2025-04-11 20:47:03.207,STOP,37
148.0,7393.442975693104,-11944.056981093525,-21598.401260185394,-23751.947134965318,14280.484829006771,10880.918607821299,35749.000102162376,47254.42645006495,0.0,0.0,0.0,193.0,0.0,193.0,0.0,16.0,0.0,180.0,193.0,16.0,180.0,1744418823.2078445,0.0,2025-04-11 20:47:03.207,STOP,37
149.0,7361.725850311023,-12001.791537021583,-21603.564513154568,-23782.47961789127,14334.240774421785,10651.29913703193,36023.948910707106,47148.34507088007,0.0,0.0,0.0,193.0,0.0,193.0,0.0,16.0,0.0,179.0,193.0,16.0,179.0,1744418823.2078857,0.0,2025-04-11 20:47:03.207,STOP,37
150.0,7358.328385153817,-12005.27840915661,-21631.593600701526,-23746.783881996143,14230.081645260054,10674.20967509862,35882.797644471844,47084.59789569353,0.0,0.0,0.0,193.0,0.0,193.0,0.0,16.0,0.0,179.0,193.0,16.0,179.0,1744418823.2079265,0.0,2025-04-11 20:47:03.207,STOP,37
151.0,7374.287530694906,-11982.077298412001,-21633.158222813396,-23716.74313744821,14159.025449636632,10920.794119929567,35627.65248151452,47201.20694651687,0.0,0.0,0.0,193.0,0.0,193.0,0.0,16.0,0.0,179.0,193.0,16.0,179.0,1744418823.2079673,0.0,2025-04-11 20:47:03.207,STOP,37
152.0,7374.22047546154,-11996.650635796863,-21584.409068156372,-23728.947189920807,14292.219494845807,10910.646427946858,35690.08090377819,47247.20683660589,0.0,0.0,0.0,193.0,0.0,193.0,0.0,16.0,0.0,178.0,193.0,16.0,178.0,1744418823.2080047,0.0,2025-04-11 20:47:03.208,STOP,37
153.0,7344.045620446876,-12039.923613062336,-21600.56937939756,-23787.978147027272,14364.661498625459,10691.800497984947,36028.486314831534,47195.21667900285,0.0,0.0,0.0,193.0,0.0,193.0,0.0,16.0,0.0,179.0,193.0,16.0,179.0,1744418823.2080438,0.0,2025-04-11 20:47:03.208,STOP,37
154.0,7356.674356064124,-12013.660313327351,-21632.107690823996,-23772.466036375292,14236.921279063377,10604.025197508956,35905.50701683843,47079.90402935792,0.0,0.0,0.0,193.0,0.0,193.0,0.0,16.0,0.0,179.0,193.0,16.0,179.0,1744418823.208089,0.0,2025-04-11 20:47:03.208,STOP,37
155.0,7371.65002484918,-11976.489362298174,-21645.608144475,-23750.270754131172,14130.728141156214,10848.508578361105,35642.00230145482,47172.931989780904,0.0,0.0,0.0,193.0,0.0,193.0,0.0,16.0,0.0,179.0,193.0,16.0,179.0,1744418823.208135,0.0,2025-04-11 20:47:03.208,STOP,37
156.0,7381.708309854068,-11986.100612413957,-21597.551893896092,-23750.98600995374,14222.884383545446,10882.080898532975,35601.03155386824,47223.73750492782,0.0,0.0,0.0,193.0,0.0,193.0,0.0,16.0,0.0,179.0,193.0,16.0,179.0,1744418823.208192,0.0,2025-04-11 20:47:03.208,STOP,37
157.0,7358.283681664906,-12033.866290314949,-21582.442114644306,-23781.764362068698,14362.806303835667,10732.704190338158,35978.21724155155,47208.33715299811,0.0,0.0,0.0,193.0,0.0,193.0,0.0,16.0,0.0,179.0,193.0,16.0,179.0,1744418823.208282,0.0,2025-04-11 20:47:03.208,STOP,37
158.0,7362.642271833691,-12024.165633221344,-21621.75883314119,-23774.03065848716,14241.838662843546,10596.067976482866,35941.47097366703,47078.69703515733,0.0,0.0,0.0,193.0,0.0,193.0,0.0,16.0,0.0,179.0,193.0,16.0,179.0,1744418823.2083445,0.0,2025-04-11 20:47:03.208,STOP,37
159.0,7364.989205001499,-11998.103499186456,-21641.27190605067,-23734.646884756912,14135.690228425292,10834.851662498912,35690.21501424492,47154.223579671816,0.0,0.0,0.0,193.0,0.0,193.0,0.0,16.0,0.0,180.0,193.0,16.0,180.0,1744418823.2092144,0.0,2025-04-11 20:47:03.209,STOP,37
160.0,7371.784135315912,-11982.300815856555,-21598.244797974206,-23721.258189828182,14201.449060612806,10928.840747933478,35573.56125993267,47228.43137126343,0.0,0.0,0.0,193.0,0.0,193.0,0.0,16.0,0.0,179.0,193.0,16.0,179.0,1744418823.2093036,0.0,2025-04-11 20:47:03.209,STOP,37
161.0,7342.860977990745,-12026.780787322616,-21589.371155425448,-23776.08701897705,14353.351515931072,10794.126784101341,35937.06768000933,47228.96781313036,0.0,0.0,0.0,193.0,0.0,193.0,0.0,17.0,0.0,179.0,193.0,17.0,179.0,1744418823.2093608,0.0,2025-04-11 20:47:03.209,STOP,37
162.0,7343.687992535591,-12021.192851208789,-21627.369120999472,-23786.167655726393,14262.804599142624,10591.441165380618,35971.35525600377,47088.59885795103,0.0,0.0,0.0,193.0,0.0,193.0,0.0,17.0,0.0,179.0,193.0,17.0,179.0,1744418823.2094336,0.0,2025-04-11 20:47:03.209,STOP,37
163.0,7354.103905451764,-11990.79447874957,-21641.785996173145,-23740.860669715486,14153.415161778352,10799.692368470713,35743.52392477082,47143.159466166435,0.0,0.0,0.0,193.0,0.0,193.0,0.0,17.0,0.0,179.0,193.0,17.0,179.0,1744418823.2095287,0.0,2025-04-11 20:47:03.209,STOP,37
164.0,7377.819106318844,-11975.41647856432,-21603.8997893214,-23719.447698527303,14168.413182307862,10942.296498095573,35559.47966092583,47226.01738286226,0.0,0.0,0.0,193.0,0.0,193.0,0.0,17.0,0.0,178.0,193.0,17.0,178.0,1744418823.2095635,0.0,2025-04-11 20:47:03.209,STOP,37
165.0,7365.995033501988,-12000.942170732282,-21569.634565071414,-23755.813986756086,14346.333068172107,10815.47270005616,35855.37205402518,47225.45858925088,0.0,0.0,0.0,193.0,0.0,193.0,0.0,17.0,0.0,179.0,193.0,17.0,179.0,1744418823.2095976,0.0,2025-04-11 20:47:03.209,STOP,37
166.0,7359.714193310046,-12008.832336525003,-21614.98625457123,-23790.347431939535,14294.029986146688,10578.164229174165,35988.61080272327,47090.43170099636,0.0,0.0,0.0,193.0,0.0,193.0,0.0,17.0,0.0,179.0,193.0,17.0,179.0,1744418823.2096317,0.0,2025-04-11 20:47:03.209,STOP,37
167.0,7352.896911251178,-11992.403804350353,-21652.403074789414,-23757.088036190038,14166.155656117877,10746.182292244708,35797.63749809712,47118.349029821045,0.0,0.0,0.0,193.0,0.0,193.0,0.0,17.0,0.0,179.0,193.0,17.0,179.0,1744418823.2096648,0.0,2025-04-11 20:47:03.209,STOP,37
168.0,7365.4138881461495,-11972.019013407114,-21631.66065593489,-23731.718806233264,14136.718408670236,10940.106027138952,35563.61473365006,47218.462493236366,0.0,0.0,0.0,193.0,0.0,193.0,0.0,17.0,0.0,179.0,193.0,17.0,179.0,1744418823.209698,0.0,2025-04-11 20:47:03.209,STOP,37
169.0,7350.818199016834,-12015.202583694767,-21588.588844369515,-23764.352353138012,14303.663588006924,10861.137313978352,35791.55782360528,47244.904606927,0.0,0.0,0.0,193.0,0.0,193.0,0.0,17.0,0.0,178.0,193.0,17.0,178.0,1744418823.209732,0.0,2025-04-11 20:47:03.209,STOP,37
170.0,7343.777399513412,-12033.910993803858,-21613.93572258183,-23800.18219949987,14301.741337983769,10606.752110332503,36011.431933812135,47133.302346861645,0.0,0.0,0.0,193.0,0.0,193.0,0.0,17.0,0.0,178.0,193.0,17.0,178.0,1744418823.2097716,0.0,2025-04-11 20:47:03.209,STOP,37
171.0,7354.416829874138,-12008.921743502826,-21648.37976078746,-23770.07439971857,14179.119667901954,10673.852047187334,35826.06891704427,47098.277163300176,0.0,0.0,0.0,193.0,0.0,193.0,0.0,17.0,0.0,179.0,193.0,17.0,179.0,1744418823.2098193,0.0,2025-04-11 20:47:03.209,STOP,37
172.0,7371.426507404627,-11976.355251831443,-21636.175708314862,-23739.09488190352,14120.245173006675,10903.136241809874,35564.017065050255,47208.53831869821,0.0,0.0,0.0,193.0,0.0,192.0,0.0,17.0,0.0,178.0,192.0,17.0,178.0,1744418823.2098713,0.0,2025-04-11 20:47:03.209,STOP,37
173.0,7368.207856203063,-11978.255150110144,-21582.71033557777,-23750.494271575724,14275.321576037595,10869.899197804833,35704.92246209651,47245.41869704946,0.0,0.0,0.0,193.0,0.0,193.0,0.0,17.0,0.0,179.0,193.0,17.0,179.0,1744418823.2099056,0.0,2025-04-11 20:47:03.209,STOP,37
174.0,7356.36143164175,-12007.021845224124,-21604.436231188327,-23792.180274984872,14315.487660823783,10638.670401414682,36001.865387185266,47149.64147205847,0.0,0.0,0.0,193.0,0.0,193.0,0.0,17.0,0.0,179.0,193.0,17.0,179.0,1744418823.2100985,0.0,2025-04-11 20:47:03.210,STOP,37
175.0,7366.196199202085,-11992.672025283817,-21637.248592048716,-23761.156053680905,14196.71049078828,10632.747189134025,35860.33414129426,47056.971139546775,0.0,0.0,0.0,193.0,0.0,192.0,0.0,17.0,0.0,178.0,192.0,17.0,178.0,1744418823.2101362,0.0,2025-04-11 20:47:03.210,STOP,37
176.0,7368.476077136526,-11958.496208011653,-21646.524565997668,-23735.384492323934,14108.890486823379,10897.168326040308,35608.92171966097,47169.10984147905,0.0,0.0,0.0,193.0,0.0,193.0,0.0,17.0,0.0,179.0,193.0,17.0,179.0,1744418823.2101696,0.0,2025-04-11 20:47:03.210,STOP,37
177.0,7377.103850496274,-11960.127885356891,-21584.9455100233,-23736.703245246797,14238.24003198624,10900.476384219694,35639.29774037573,47206.41490297495,0.0,0.0,0.0,193.0,0.0,192.0,0.0,17.0,0.0,178.0,192.0,17.0,178.0,1744418823.2102032,0.0,2025-04-11 20:47:03.210,STOP,37
178.0,7351.667565306136,-12011.246324926178,-21594.579111883537,-23793.387269185456,14335.850100022568,10698.528373065994,36003.251195341494,47152.05546045965,0.0,0.0,0.0,193.0,0.0,192.0,0.0,17.0,0.0,179.0,192.0,17.0,179.0,1744418823.2102697,0.0,2025-04-11 20:47:03.210,STOP,37
179.0,7367.157324213663,-11987.262903125633,-21622.272923263663,-23772.644850330933,14218.168165465375,10594.056319481888,35920.616796090224,47025.25401416469,0.0,0.0,0.0,193.0,0.0,193.0,0.0,17.0,0.0,179.0,193.0,17.0,179.0,1744418823.2103052,0.0,2025-04-11 20:47:03.210,STOP,37
180.0,7365.525646868426,-11965.000565648148,-21638.924972882865,-23744.83928022853,14111.21506824673,10851.794284796035,35675.08288324867,47125.479236302286,0.0,0.0,0.0,193.0,0.0,193.0,0.0,17.0,0.0,179.0,193.0,17.0,179.0,1744418823.210338,0.0,2025-04-11 20:47:03.210,STOP,37
181.0,7374.153420228175,-11975.304719842045,-21595.22731247274,-23742.894678460918,14186.13811566092,10909.551192468547,35618.555321521206,47187.6394376325,0.0,0.0,0.0,193.0,0.0,192.0,0.0,17.0,0.0,179.0,192.0,17.0,179.0,1744418823.210374,0.0,2025-04-11 20:47:03.210,STOP,37
182.0,7367.894931780688,-12009.61464758094,-21572.339126150506,-23776.243481188238,14327.088216196087,10740.08026600841,35980.675933441635,47156.14582969497,0.0,0.0,0.0,193.0,0.0,193.0,0.0,17.0,0.0,179.0,193.0,17.0,179.0,1744418823.2104173,0.0,2025-04-11 20:47:03.210,STOP,37
183.0,7368.543132369892,-12002.976179477713,-21608.57130391256,-23773.89654802043,14231.936840049844,10583.908627499179,35960.80523262086,47012.37940935844,0.0,0.0,0.0,193.0,0.0,193.0,0.0,17.0,0.0,179.0,193.0,17.0,179.0,1744418823.21046,0.0,2025-04-11 20:47:03.210,STOP,37
184.0,7361.301167166373,-11979.75271698865,-21639.41671126088,-23740.36893133747,14113.137318269888,10836.639802055335,35731.92336939852,47104.2674308142,0.0,0.0,0.0,193.0,0.0,193.0,0.0,17.0,0.0,179.0,193.0,17.0,179.0,1744418823.210552,0.0,2025-04-11 20:47:03.210,STOP,37
185.0,7382.915304054654,-11957.959766144726,-21591.51692289316,-23722.129907861938,14150.822359421536,10939.97191667222,35586.726437416844,47184.2866759642,0.0,0.0,0.0,193.0,0.0,193.0,0.0,17.0,0.0,179.0,193.0,17.0,179.0,1744418823.210628,0.0,2025-04-11 20:47:03.210,STOP,37
186.0,7366.576178857825,-11993.767260762128,-21559.6880387888,-23759.882004246952,14328.429320863406,10791.533981744526,35928.39520316067,47181.537411396195,0.0,0.0,0.0,193.0,0.0,193.0,0.0,17.0,0.0,179.0,193.0,17.0,179.0,1744418823.2106807,0.0,2025-04-11 20:47:03.210,STOP,37
187.0,7358.775420042923,-11988.604007792952,-21607.900751578898,-23780.62442310148,14245.996087312233,10573.023327949444,36000.59133775131,47046.912854541886,0.0,0.0,0.0,193.0,0.0,193.0,0.0,17.0,0.0,179.0,193.0,17.0,179.0,1744418823.2107322,0.0,2025-04-11 20:47:03.210,STOP,37
188.0,7366.330309668817,-11966.498132526653,-21628.08437682204,-23735.272733601658,14123.977914330711,10772.490295468604,35773.877593741134,47086.050759083126,0.0,0.0,0.0,193.0,0.0,193.0,0.0,17.0,0.0,179.0,193.0,17.0,179.0,1744418823.210786,0.0,2025-04-11 20:47:03.210,STOP,37
189.0,7380.188391231107,-11971.639033751373,-21601.03876603112,-23720.654692727887,14129.744664400181,10946.92330919782,35581.09379781411,47181.895039307485,0.0,0.0,0.0,193.0,0.0,193.0,0.0,17.0,0.0,179.0,193.0,17.0,179.0,1744418823.2112734,0.0,2025-04-11 20:47:03.211,STOP,37
190.0,7356.36143164175,-12006.775976035116,-21561.431474856316,-23756.864518745486,14303.954160684843,10846.00518298211,35860.289437805346,47186.5889056431,0.0,0.0,0.0,193.0,0.0,193.0,0.0,17.0,0.0,179.0,193.0,17.0,179.0,1744418823.2113197,0.0,2025-04-11 20:47:03.211,STOP,37
191.0,7350.393515872182,-12014.554383105564,-21586.577187368537,-23782.524321380177,14261.597604942037,10602.795851563913,36008.79442796641,47046.912854541886,0.0,0.0,0.0,193.0,0.0,193.0,0.0,17.0,0.0,179.0,193.0,17.0,179.0,1744418823.211354,0.0,2025-04-11 20:47:03.211,STOP,37
192.0,7356.652004319669,-11991.80030725006,-21613.8016121151,-23743.587582539032,14140.451149994273,10747.724562612124,35820.83860884173,47054.60185463451,0.0,0.0,0.0,193.0,0.0,193.0,0.0,17.0,0.0,179.0,193.0,17.0,179.0,1744418823.211389,0.0,2025-04-11 20:47:03.211,STOP,37
193.0,7376.589760373803,-11961.2231208352,-21586.21955945725,-23710.328186789535,14112.64557989187,10969.431515864315,35588.8498531401,47168.2828269342,0.0,0.0,0.0,193.0,0.0,193.0,0.0,17.0,0.0,179.0,193.0,17.0,179.0,1744418823.211455,0.0,2025-04-11 20:47:03.211,STOP,37
194.0,7357.903702009166,-11990.861533982938,-21544.26533511464,-23739.005474925696,14285.044584875654,10906.980741856187,35801.437294654526,47204.470301207344,0.0,0.0,0.0,193.0,0.0,193.0,0.0,17.0,0.0,179.0,193.0,17.0,179.0,1744418823.2114887,0.0,2025-04-11 20:47:03.211,STOP,37
195.0,7346.414905359138,-12012.296856915576,-21575.51307386316,-23779.037449245152,14288.911436666422,10652.081448087865,36037.04703295792,47091.48223298576,0.0,0.0,0.0,193.0,0.0,193.0,0.0,17.0,0.0,179.0,193.0,17.0,179.0,1744418823.2115223,0.0,2025-04-11 20:47:03.211,STOP,37
196.0,7344.962041969543,-12002.059757955047,-21617.020263316663,-23755.32224837807,14153.817493178547,10697.947227710156,35868.09019662025,47040.341441672026,0.0,0.0,0.0,193.0,0.0,193.0,0.0,17.0,0.0,179.0,193.0,17.0,179.0,1744418823.2115657,0.0,2025-04-11 20:47:03.211,STOP,37
197.0,7358.060164220353,-11979.506847799641,-21616.126193538454,-23730.578867266046,14085.756431312137,10937.06618989303,35615.94016741993,47157.218713428825,0.0,0.0,0.0,193.0,0.0,193.0,0.0,17.0,0.0,178.0,193.0,17.0,178.0,1744418823.2116032,0.0,2025-04-11 20:47:03.211,STOP,37
198.0,7361.100001466275,-11993.119060172923,-21560.13507367791,-23740.391283081924,14243.269174488685,10912.993361114664,35722.133305327094,47192.71328362385,0.0,0.0,0.0,193.0,0.0,193.0,0.0,17.0,0.0,179.0,193.0,17.0,179.0,1744418823.2116363,0.0,2025-04-11 20:47:03.211,STOP,37
199.0,7337.541262810381,-12027.876022800925,-21578.843483787,-23790.950929039827,14302.59070427307,10690.526448550994,36039.550428336916,47114.25866058572,0.0,0.0,0.0,193.0,0.0,193.0,0.0,17.0,0.0,179.0,193.0,17.0,179.0,1744418823.2116692,0.0,2025-04-11 20:47:03.211,STOP,37
200.0,7337.585966299292,-12008.497060358175,-21621.624722674456,-23773.628327086964,14168.770810219146,10657.736439435059,35912.90544425314,47020.336630384525,0.0,0.0,0.0,193.0,0.0,193.0,0.0,17.0,0.0,179.0,193.0,17.0,179.0,1744418823.211702,0.0,2025-04-11 20:47:03.211,STOP,37
201.0,7349.45474260506,-11975.751754731149,-21633.337036769037,-23743.56523079458,14077.039250974567,10906.176079055796,35650.02657771428,47121.075942644595,0.0,0.0,0.0,193.0,0.0,193.0,0.0,17.0,0.0,179.0,193.0,17.0,179.0,1744418823.2117348,0.0,2025-04-11 20:47:03.211,STOP,37
202.0,7356.160265941652,-11986.257074625144,-21580.36340240996,-23744.816928484077,14194.0506331981,10920.078864106998,35662.5659063537,47175.34597818208,0.0,0.0,0.0,193.0,0.0,193.0,0.0,17.0,0.0,179.0,193.0,17.0,179.0,1744418823.2117677,0.0,2025-04-11 20:47:03.211,STOP,37
203.0,7330.791035984878,-12028.077188501024,-21574.88722501841,-23786.257062704215,14300.601399016548,10718.197908186665,36012.482465801535,47124.04872465715,0.0,0.0,0.0,193.0,0.0,193.0,0.0,17.0,0.0,179.0,193.0,17.0,179.0,1744418823.2118003,0.0,2025-04-11 20:47:03.211,STOP,37
204.0,7324.130216137197,-12033.642772870395,-21619.65776916239,-23782.457266146812,14180.57253129155,10608.003808022,35944.55551440186,47001.87408946444,0.0,0.0,0.0,193.0,0.0,193.0,0.0,17.0,0.0,179.0,193.0,17.0,179.0,1744418823.2119,0.0,2025-04-11 20:47:03.211,STOP,37
205.0,7328.779378983901,-12008.407653380353,-21648.357409043005,-23757.669181545876,14066.533931080572,10865.562959380504,35697.36757247062,47104.31213430311,0.0,0.0,0.0,193.0,0.0,193.0,0.0,17.0,0.0,178.0,193.0,17.0,178.0,1744418823.2119343,0.0,2025-04-11 20:47:03.211,STOP,37
206.0,7354.461533363049,-11986.458240325243,-21595.85316131749,-23744.45930057279,14146.262603552654,10933.892242180376,35609.23464408334,47171.0320915022,0.0,0.0,0.0,193.0,0.0,193.0,0.0,17.0,0.0,179.0,193.0,17.0,179.0,1744418823.2119675,0.0,2025-04-11 20:47:03.211,STOP,37
207.0,7344.224434402518,-12014.219106938734,-21577.12239946394,-23786.905263293418,14299.819087960612,10768.534036700015,35971.31055251486,47145.66286154543,0.0,0.0,0.0,193.0,0.0,193.0,0.0,17.0,0.0,179.0,193.0,17.0,179.0,1744418823.212,0.0,2025-04-11 20:47:03.212,STOP,37
208.0,7347.487789092993,-12003.087938199991,-21616.908504594387,-23792.783772085164,14210.702682817304,10595.308017171386,35988.297878300895,47011.88767098042,0.0,0.0,0.0,193.0,0.0,192.0,0.0,17.0,0.0,178.0,192.0,17.0,178.0,1744418823.21205,0.0,2025-04-11 20:47:03.212,STOP,37
209.0,7364.4751148790265,-11973.807152963538,-21637.42740600436,-23754.383475110946,14092.149030226354,10819.786586736034,35745.82615444972,47075.478383955764,0.0,0.0,0.0,193.0,0.0,193.0,0.0,17.0,0.0,179.0,193.0,17.0,179.0,1744418823.2120829,0.0,2025-04-11 20:47:03.212,STOP,37
210.0,7369.258388192462,-11965.492304026164,-21595.18260898383,-23739.87719295945,14121.139242784888,10946.811550475544,35596.49414974381,47162.940760009384,0.0,0.0,0.0,193.0,0.0,193.0,0.0,17.0,0.0,178.0,193.0,17.0,178.0,1744418823.2121155,0.0,2025-04-11 20:47:03.212,STOP,37
211.0,7351.242882161485,-12005.658388812351,-21560.179777166817,-23771.884891019454,14291.481887278784,10809.974170920155,35922.24847343546,47158.22454192931,0.0,0.0,0.0,193.0,0.0,193.0,0.0,17.0,0.0,179.0,193.0,17.0,179.0,1744418823.2121484,0.0,2025-04-11 20:47:03.212,STOP,37
212.0,7348.426562360116,-12010.776938292616,-21596.344899695505,-23785.407696414914,14233.121482505976,10592.916380514667,36002.93827091912,47007.037342433614,0.0,0.0,0.0,193.0,0.0,193.0,0.0,17.0,0.0,179.0,193.0,17.0,179.0,1744418823.212181,0.0,2025-04-11 20:47:03.212,STOP,37
213.0,7358.976585743021,-11979.618606521917,-21620.976522085253,-23743.40876858339,14118.32292298352,10783.375595018339,35779.063198454765,47028.986755488724,0.0,0.0,0.0,193.0,0.0,193.0,0.0,17.0,0.0,179.0,193.0,17.0,179.0,1744418823.2122145,0.0,2025-04-11 20:47:03.212,STOP,37
214.0,7357.367260142239,-11965.022917392602,-21607.6995858788,-23743.140547649928,14105.850649577458,10965.050573951075,35581.42907398094,47138.66676553092,0.0,0.0,0.0,193.0,0.0,193.0,0.0,17.0,0.0,179.0,193.0,17.0,179.0,1744418823.2122471,0.0,2025-04-11 20:47:03.212,STOP,37
215.0,7336.580137798803,-12008.608819080451,-21574.440190129306,-23783.016059758196,14275.746259182246,10865.987642525155,35861.7646529394,47173.937818281396,0.0,0.0,0.0,193.0,0.0,193.0,0.0,17.0,0.0,179.0,193.0,17.0,179.0,1744418823.2122805,0.0,2025-04-11 20:47:03.212,STOP,37
216.0,7341.519873323426,-12026.266697200144,-21602.826905587543,-23808.675862392887,14241.324572721074,10615.692808114625,36027.12285841976,47045.03530800764,0.0,0.0,0.0,193.0,0.0,193.0,0.0,17.0,0.0,179.0,193.0,17.0,179.0,1744418823.212314,0.0,2025-04-11 20:47:03.212,STOP,37
217.0,7348.9183007381325,-11996.22595265221,-21630.721882667767,-23765.313478149594,14117.60766716095,10736.012248517543,35834.51787644838,47034.351174158,0.0,0.0,0.0,193.0,0.0,193.0,0.0,17.0,0.0,178.0,193.0,17.0,178.0,1744418823.2123463,0.0,2025-04-11 20:47:03.212,STOP,37
218.0,7362.016422988942,-11971.326109328998,-21616.461469705282,-23739.854841214998,14080.034384731578,10964.514132084149,35601.72445794636,47154.71531804983,0.0,0.0,0.0,193.0,0.0,193.0,0.0,17.0,0.0,179.0,193.0,17.0,179.0,1744418823.2123792,0.0,2025-04-11 20:47:03.212,STOP,37
219.0,7348.895948993677,-12001.389205621386,-21570.863911016455,-23763.592393826533,14239.67054363138,10909.30532327954,35780.873689755645,47191.21571674535,0.0,0.0,0.0,193.0,0.0,192.0,0.0,17.0,0.0,179.0,192.0,17.0,179.0,1744418823.2124853,0.0,2025-04-11 20:47:03.212,STOP,37
220.0,7342.324536123817,-12024.322095432532,-21591.159294981873,-23797.47763842078,14259.004802585221,10664.151390093732,36039.14809693672,47087.45891898381,0.0,0.0,0.0,193.0,0.0,192.0,0.0,17.0,0.0,179.0,192.0,17.0,179.0,1744418823.21252,0.0,2025-04-11 20:47:03.212,STOP,37
221.0,7345.319669880828,-12000.651598054363,-21616.461469705282,-23761.13370193645,14136.763112159148,10697.522544565505,35870.75005421043,47017.341496627516,0.0,0.0,0.0,193.0,0.0,193.0,0.0,17.0,0.0,179.0,193.0,17.0,179.0,1744418823.6838248,0.0,2025-04-11 20:47:03.683,STOP,37
222.0,7353.388649629194,-11981.518504800619,-21615.075661549054,-23732.545820778112,14064.276404890586,10958.903844225866,35622.66804250098,47142.5783208106,0.0,0.0,0.0,193.0,0.0,193.0,0.0,17.0,0.0,179.0,193.0,17.0,179.0,1744418823.6840117,0.0,2025-04-11 20:47:03.684,STOP,37
223.0,7344.35854486925,-12006.150127190367,-21567.332335392515,-23748.259097130194,14199.593865823015,10946.386867330893,35737.19838108998,47201.65398140597,0.0,0.0,0.0,193.0,0.0,193.0,0.0,17.0,0.0,179.0,193.0,17.0,179.0,1744418823.6841545,0.0,2025-04-11 20:47:03.684,STOP,37
224.0,7317.894079434166,-12044.349258464486,-21583.380887911426,-23798.95285355483,14266.023250344188,10711.157108683243,36080.364713712304,47130.173102637906,0.0,0.0,0.0,193.0,0.0,193.0,0.0,17.0,0.0,178.0,193.0,17.0,178.0,1744418823.6842165,0.0,2025-04-11 20:47:03.684,STOP,37
225.0,7324.420788815116,-12023.38332216541,-21616.61793191647,-23773.583623598057,14148.27426055363,10651.67911668767,35967.01901757944,47028.94205199982,0.0,0.0,0.0,193.0,0.0,193.0,0.0,17.0,0.0,179.0,193.0,17.0,179.0,1744418823.6842752,0.0,2025-04-11 20:47:03.684,STOP,37
226.0,7319.995143412965,-12007.491231857686,-21633.761719913688,-23743.632286027943,14059.582538554972,10919.385960028883,35708.8787208651,47141.37132661001,0.0,0.0,0.0,193.0,0.0,193.0,0.0,17.0,0.0,179.0,193.0,17.0,179.0,1744418823.684333,0.0,2025-04-11 20:47:03.684,STOP,37
227.0,7310.8756316752,-12033.396903681387,-21585.392544912404,-23742.55940229409,14164.591034006005,10950.477236566216,35688.20335724394,47198.36827497104,0.0,0.0,0.0,193.0,0.0,193.0,0.0,17.0,0.0,179.0,193.0,17.0,179.0,1744418823.6843956,0.0,2025-04-11 20:47:03.684,STOP,37
228.0,7282.310102261317,-12078.547427481108,-21577.815303542055,-23784.692440592342,14282.608244730025,10756.08411503841,36032.91196023369,47146.64633830146,0.0,0.0,0.0,193.0,0.0,193.0,0.0,17.0,0.0,179.0,193.0,17.0,179.0,1744418823.6844666,0.0,2025-04-11 20:47:03.684,STOP,37
229.0,7254.772753092379,-12094.104241622,-21624.19517328682,-23783.172521969384,14161.46178978226,10638.469235714583,35985.638020710714,47031.46779912327,0.0,0.0,0.0,193.0,0.0,193.0,0.0,17.0,0.0,178.0,193.0,17.0,178.0,1744418823.6845264,0.0,2025-04-11 20:47:03.684,STOP,37
230.0,7249.520093145382,-12079.709718192784,-21644.62466771897,-23752.28241113215,14047.177320382276,10883.466706689205,35725.709584439945,47116.20326235334,0.0,0.0,0.0,193.0,0.0,192.0,0.0,17.0,0.0,179.0,192.0,17.0,179.0,1744418823.6845877,0.0,2025-04-11 20:47:03.684,STOP,37
231.0,7258.10316301622,-12074.457058245785,-21595.719050850756,-23746.180384895848,14114.277257237109,10961.675460538323,35616.029574397755,47182.09620500758,0.0,0.0,0.0,193.0,0.0,193.0,0.0,17.0,0.0,179.0,193.0,17.0,179.0,1744418823.6846492,0.0,2025-04-11 20:47:03.684,STOP,37
232.0,7218.004133463399,-12127.140119926944,-21573.054381973074,-23785.206530714815,14273.287567292164,10814.086891899931,35981.14532007519,47177.134117738504,0.0,0.0,0.0,193.0,0.0,193.0,0.0,17.0,0.0,179.0,193.0,17.0,179.0,1744418823.6847112,0.0,2025-04-11 20:47:03.684,STOP,37
233.0,7212.080921182743,-12135.700838053328,-21607.99015855672,-23789.542769139145,14187.300406372597,10624.924078574668,36004.61465175327,47035.915796269874,0.0,0.0,0.0,193.0,0.0,193.0,0.0,17.0,0.0,179.0,193.0,17.0,179.0,1744418823.6847675,0.0,2025-04-11 20:47:03.684,STOP,37
234.0,7195.3618163301735,-12130.917564739892,-21641.026036861665,-23762.407751370403,14064.902253735336,10843.345325391929,35767.999084949384,47096.399616765935,0.0,0.0,0.0,193.0,0.0,193.0,0.0,17.0,0.0,179.0,193.0,17.0,179.0,1744418823.6848028,0.0,2025-04-11 20:47:03.684,STOP,37
235.0,7201.933229200034,-12114.176108142867,-21603.83273408803,-23749.08611167504,14083.811829544526,10977.209922934762,35599.042248611724,47188.466452177345,0.0,0.0,0.0,193.0,0.0,193.0,0.0,17.0,0.0,179.0,193.0,17.0,179.0,1744418823.6848688,0.0,2025-04-11 20:47:03.684,STOP,37
236.0,7177.882752166123,-12161.181826732378,-21574.395486640395,-23790.146266239437,14252.612203671004,10856.242281942641,35922.29317692437,47199.12823428252,0.0,0.0,0.0,193.0,0.0,193.0,0.0,17.0,0.0,179.0,193.0,17.0,179.0,1744418823.6849167,0.0,2025-04-11 20:47:03.684,STOP,37
237.0,7160.761315913358,-12182.17011477591,-21611.924065580853,-23811.24631300525,14192.016624452666,10611.110700501287,36016.885759459234,47049.81858132107,0.0,0.0,0.0,193.0,0.0,193.0,0.0,17.0,0.0,179.0,193.0,17.0,179.0,1744418823.684971,0.0,2025-04-11 20:47:03.684,STOP,37
238.0,7163.063545592255,-12160.153646487433,-21631.884173379443,-23765.469940360777,14077.59804458595,10765.851827365379,35791.289602671815,47063.676662883365,0.0,0.0,0.0,193.0,0.0,193.0,0.0,17.0,0.0,179.0,193.0,17.0,179.0,1744418823.685033,0.0,2025-04-11 20:47:03.685,STOP,37
239.0,7170.216103817953,-12146.027343991678,-21607.252550989695,-23750.114291919985,14071.630128816383,10965.944643729288,35589.07337058465,47180.01749277324,0.0,0.0,0.0,193.0,0.0,193.0,0.0,17.0,0.0,178.0,193.0,17.0,178.0,1744418823.6850665,0.0,2025-04-11 20:47:03.685,STOP,37
240.0,7148.624318674126,-12179.085574041079,-21575.244852929696,-23792.56025464061,14232.249764472219,10884.517238678603,35835.50135320442,47205.56553668565,0.0,0.0,0.0,193.0,0.0,193.0,0.0,17.0,0.0,178.0,193.0,17.0,178.0,1744418823.6850996,0.0,2025-04-11 20:47:03.685,STOP,37
241.0,7144.623356416626,-12202.554905719151,-21615.74621388271,-23829.775909158696,14204.555953092093,10631.584898422348,36018.67389901566,47073.802003121615,0.0,0.0,0.0,193.0,0.0,193.0,0.0,17.0,0.0,179.0,193.0,17.0,179.0,1744418823.6851325,0.0,2025-04-11 20:47:03.685,STOP,37
242.0,7155.5086559663605,-12188.205085778844,-21647.172766586875,-23789.60982437251,14075.206407929232,10726.64686759077,35833.26617875888,47046.1528952304,0.0,0.0,0.0,193.0,0.0,193.0,0.0,17.0,0.0,179.0,193.0,17.0,179.0,1744418823.6851654,0.0,2025-04-11 20:47:03.685,STOP,37
243.0,7158.36967925664,-12156.152684229934,-21635.840432148034,-23757.93740247934,14022.992732881634,10957.562739558547,35588.17930080644,47157.30812040665,0.0,0.0,0.0,193.0,0.0,193.0,0.0,17.0,0.0,178.0,193.0,17.0,178.0,1744418823.6851983,0.0,2025-04-11 20:47:03.685,STOP,37
244.0,7142.209368015453,-12180.31491998612,-21590.421687414848,-23781.85376904652,14183.277092370641,10899.694073163757,35735.67846246701,47176.95530378286,0.0,0.0,0.0,193.0,0.0,192.0,0.0,17.0,0.0,178.0,192.0,17.0,178.0,1744418823.6852314,0.0,2025-04-11 20:47:03.685,STOP,37
245.0,7133.9839260559,-12210.243905811776,-21611.7005481363,-23826.28903702367,14225.633648113448,10658.719916191092,36018.137457148725,47069.01872980818,0.0,0.0,0.0,193.0,0.0,193.0,0.0,17.0,0.0,179.0,193.0,17.0,179.0,1744418823.6852643,0.0,2025-04-11 20:47:03.685,STOP,37
246.0,7141.896443593078,-12199.291551028677,-21651.888984666944,-23804.00434780173,14098.563980885028,10667.951186651133,35875.91330717961,47000.82355747504,0.0,0.0,0.0,193.0,0.0,193.0,0.0,17.0,0.0,179.0,193.0,17.0,179.0,1744418823.6852973,0.0,2025-04-11 20:47:03.685,STOP,37
247.0,7164.091725837198,-12166.903873312936,-21641.67423745087,-23760.440797858337,14019.77408168007,10925.890317665377,35607.13358010454,47115.93504141987,0.0,0.0,0.0,193.0,0.0,192.0,0.0,17.0,0.0,179.0,192.0,17.0,179.0,1744418823.6853302,0.0,2025-04-11 20:47:03.685,STOP,37
248.0,7165.32107178224,-12165.652175623438,-21577.770600053143,-23759.434969357848,14158.913690914356,10938.02731490461,35664.756377310325,47167.05348098916,0.0,0.0,0.0,193.0,0.0,193.0,0.0,17.0,0.0,179.0,193.0,17.0,179.0,1744418823.6853645,0.0,2025-04-11 20:47:03.685,STOP,37
249.0,7145.807998872758,-12192.854248625548,-21587.918292035854,-23807.53592342567,14242.44215994384,10733.732370583102,36003.58647150832,47101.69698020184,0.0,0.0,0.0,193.0,0.0,193.0,0.0,17.0,0.0,179.0,193.0,17.0,179.0,1744418823.6853976,0.0,2025-04-11 20:47:03.685,STOP,37
250.0,7158.839065890202,-12173.810562349625,-21624.86572562048,-23787.441705160345,14122.972085830223,10662.58676798186,35899.60615630224,46984.99852240068,0.0,0.0,0.0,193.0,0.0,192.0,0.0,17.0,0.0,178.0,192.0,17.0,178.0,1744418823.6854517,0.0,2025-04-11 20:47:03.685,STOP,37
251.0,7163.152952570075,-12153.112846984011,-21643.551783985113,-23757.3562571235,14035.710875476703,10929.153672355851,35656.41917662849,47090.40934925191,0.0,0.0,0.0,193.0,0.0,192.0,0.0,17.0,0.0,178.0,192.0,17.0,178.0,1744418823.685486,0.0,2025-04-11 20:47:03.685,STOP,37
252.0,7174.887618409111,-12151.727038827783,-21594.154428738886,-23751.27658263166,14133.70092316877,10969.990309475697,35622.37746982306,47150.98257672579,0.0,0.0,0.0,193.0,0.0,193.0,0.0,17.0,0.0,179.0,193.0,17.0,179.0,1744418823.6855195,0.0,2025-04-11 20:47:03.685,STOP,37
253.0,7156.7380019114025,-12181.231341508788,-21586.46542864626,-23796.494161664745,14268.97368061229,10793.411528278772,35994.243442326006,47121.45592230033,0.0,0.0,0.0,193.0,0.0,193.0,0.0,17.0,0.0,179.0,193.0,17.0,179.0,1744418823.6855695,0.0,2025-04-11 20:47:03.685,STOP,37
254.0,7174.932321898023,-12165.182788989878,-21626.005664587698,-23793.297862207637,14153.549272245084,10648.013430597,35960.71582564304,46988.77596721363,0.0,0.0,0.0,193.0,0.0,193.0,0.0,17.0,0.0,178.0,193.0,17.0,178.0,1744418823.6856031,0.0,2025-04-11 20:47:03.685,STOP,37
255.0,7192.813717462268,-12132.281021151664,-21646.05517936411,-23755.858690244997,14035.241488843143,10892.206238771229,35712.92438661151,47066.18005826236,0.0,0.0,0.0,193.0,0.0,193.0,0.0,17.0,0.0,179.0,193.0,17.0,179.0,1744418823.685637,0.0,2025-04-11 20:47:03.685,STOP,37
0.0,7205.844784479712,-12111.426843574864,-21600.077641019543,-23744.727521506255,14086.628149345894,10983.244893937695,35589.609812451585,47134.08465791758,0.0,0.0,0.0,193.0,0.0,193.0,0.0,17.0,0.0,179.0,193.0,17.0,179.0,1744418823.68567,0.0,2025-04-11 20:47:03.685,STOP,37
1.0,7191.047929650299,-12146.139102713956,-21576.407143641372,-23787.776981327177,14251.159340281409,10835.030476454554,35949.89758132667,47130.41897182691,0.0,0.0,0.0,193.0,0.0,192.0,0.0,17.0,0.0,179.0,192.0,17.0,179.0,1744418823.6857023,0.0,2025-04-11 20:47:03.685,STOP,37
2.0,7194.04306340731,-12151.324707427586,-21618.09314705052,-23803.311443723615,14171.408316064873,10622.28657272894,35997.730314461034,46989.46887129174,0.0,0.0,0.0,193.0,0.0,193.0,0.0,17.0,0.0,179.0,193.0,17.0,179.0,1744418823.6857357,0.0,2025-04-11 20:47:03.685,STOP,37
3.0,7205.621267035159,-12129.040018205646,-21641.003685117208,-23764.441760115835,14053.25699487412,10821.28415361454,35763.528736058324,47028.76323804417,0.0,0.0,0.0,193.0,0.0,193.0,0.0,17.0,0.0,179.0,193.0,17.0,179.0,1744418823.685769,0.0,2025-04-11 20:47:03.685,STOP,37
4.0,7215.6124968066815,-12104.944837682824,-21614.002777815196,-23752.103597176505,14058.576710054484,10968.515094341648,35578.52334720175,47123.2217101123,0.0,0.0,0.0,193.0,0.0,193.0,0.0,17.0,0.0,178.0,193.0,17.0,178.0,1744418823.6858027,0.0,2025-04-11 20:47:03.685,STOP,37
5.0,7203.09551991171,-12131.722227540282,-21579.245815187194,-23786.99467027124,14229.992238282233,10842.00422072461,35878.327295580784,47133.458809072836,0.0,0.0,0.0,193.0,0.0,192.0,0.0,17.0,0.0,178.0,192.0,17.0,178.0,1744418823.6858363,0.0,2025-04-11 20:47:03.685,STOP,37
6.0,7208.795214747813,-12135.320858397587,-21615.455641204793,-23809.793449615652,14177.040955667611,10601.790023063424,35995.763360948964,46988.731263724716,0.0,0.0,0.0,193.0,0.0,193.0,0.0,17.0,0.0,179.0,193.0,17.0,179.0,1744418823.6858704,0.0,2025-04-11 20:47:03.685,STOP,37
7.0,7220.082845697742,-12105.481279549753,-21643.28356305165,-23767.883928761952,14061.013050200112,10759.660394151259,35780.35959963317,46994.52036553864,0.0,0.0,0.0,193.0,0.0,192.0,0.0,17.0,0.0,179.0,192.0,17.0,179.0,1744418823.6859176,0.0,2025-04-11 20:47:03.685,STOP,37
8.0,7239.9088430296,-12075.731107679738,-21622.42938547485,-23743.341713350026,14047.222023871187,10971.040841465097,35558.7420533588,47099.6182679675,0.0,0.0,0.0,193.0,0.0,193.0,0.0,17.0,0.0,179.0,193.0,17.0,179.0,1744418823.6859522,0.0,2025-04-11 20:47:03.685,STOP,37
9.0,7236.24315693893,-12083.665976961373,-21571.31094590556,-23766.498120605724,14226.684180102848,10906.041968589065,35784.38291363513,47123.48993104576,0.0,0.0,0.0,193.0,0.0,193.0,0.0,17.0,0.0,179.0,193.0,17.0,179.0,1744418823.6860683,0.0,2025-04-11 20:47:03.686,STOP,37
10.0,7233.33743015974,-12089.030395630645,-21591.6957368488,-23790.012155772707,14230.640438871436,10662.720878448592,36006.29103258742,47008.02081918965,0.0,0.0,0.0,193.0,0.0,193.0,0.0,17.0,0.0,179.0,193.0,17.0,179.0,1744418823.6861243,0.0,2025-04-11 20:47:03.686,STOP,37
11.0,7226.609555078692,-12100.16156436939,-21639.528469983157,-23772.220167186282,14093.132506982389,10738.917975296734,35844.687920175544,46992.084025393015,0.0,0.0,0.0,193.0,0.0,193.0,0.0,17.0,0.0,179.0,193.0,17.0,179.0,1744418823.6861768,0.0,2025-04-11 20:47:03.686,STOP,37
12.0,7233.2256714374635,-12080.313215293076,-21643.440025262837,-23756.08220768955,14017.315389789987,10963.105972183463,35602.17149283546,47123.8252072126,0.0,0.0,0.0,193.0,0.0,193.0,0.0,17.0,0.0,179.0,193.0,17.0,179.0,1744418823.6862574,0.0,2025-04-11 20:47:03.686,STOP,37
13.0,7256.851465326723,-12071.640738444417,-21574.70841106277,-23753.288239632635,14176.61627252296,10909.484137235182,35712.700869166954,47148.680347046895,0.0,0.0,0.0,193.0,0.0,193.0,0.0,17.0,0.0,179.0,193.0,17.0,179.0,1744418823.6863172,0.0,2025-04-11 20:47:03.686,STOP,37
14.0,7251.554101890815,-12100.116860880478,-21589.974652525743,-23798.148190754437,14235.58017439606,10677.24951234454,36004.65935524218,47058.62516863646,0.0,0.0,0.0,193.0,0.0,193.0,0.0,17.0,0.0,178.0,193.0,17.0,178.0,1744418823.6863768,0.0,2025-04-11 20:47:03.686,STOP,37
15.0,7248.469561155983,-12079.352090281498,-21615.969731327266,-23762.854786259508,14114.813699104036,10679.864666445812,35866.48087101947,46987.85954569096,0.0,0.0,0.0,193.0,0.0,193.0,0.0,17.0,0.0,179.0,193.0,17.0,179.0,1744418823.6864352,0.0,2025-04-11 20:47:03.686,STOP,37
16.0,7249.922424545578,-12059.302575505088,-21629.33607451154,-23739.02782667015,14026.367846294386,10962.278957638617,35623.226836112364,47120.33833507757,0.0,0.0,0.0,193.0,0.0,193.0,0.0,17.0,0.0,179.0,193.0,17.0,179.0,1744418823.6864932,0.0,2025-04-11 20:47:03.686,STOP,37
17.0,7257.790238593846,-12064.823456385548,-21588.07475424704,-23751.500100076213,14143.379228517919,10972.069021710042,35650.29479864774,47167.209943200345,0.0,0.0,0.0,193.0,0.0,193.0,0.0,17.0,0.0,179.0,193.0,17.0,179.0,1744418823.6865516,0.0,2025-04-11 20:47:03.686,STOP,37
18.0,7246.122627988176,-12093.321930566066,-21594.847332817,-23798.639929132456,14240.139930264942,10760.107429040365,35997.797369694395,47107.95546864933,0.0,0.0,0.0,193.0,0.0,193.0,0.0,17.0,0.0,179.0,193.0,17.0,179.0,1744418823.68661,0.0,2025-04-11 20:47:03.686,STOP,37
19.0,7263.355822963217,-12063.43764822932,-21622.652902919403,-23772.890719519943,14125.631943420405,10658.429343513173,35899.11441792422,46982.20455434377,0.0,0.0,0.0,193.0,0.0,193.0,0.0,17.0,0.0,179.0,193.0,17.0,179.0,1744418823.6866684,0.0,2025-04-11 20:47:03.686,STOP,37
20.0,7275.448116713538,-12031.497005402685,-21632.152394312907,-23736.61383826898,14034.794453954037,10924.370399042416,35651.79236552624,47085.782538149666,0.0,0.0,0.0,193.0,0.0,193.0,0.0,17.0,0.0,179.0,193.0,17.0,179.0,1744418823.6867275,0.0,2025-04-11 20:47:03.686,STOP,37
21.0,7289.373253509195,-12024.09857798798,-21582.822094300045,-23733.216373111773,14121.27335325162,10987.290559684106,35596.91883288846,47155.251759916755,0.0,0.0,0.0,193.0,0.0,193.0,0.0,17.0,0.0,179.0,193.0,17.0,179.0,1744418823.686786,0.0,2025-04-11 20:47:03.686,STOP,37
22.0,7268.6755381435805,-12071.596034955506,-21579.536387865115,-23783.574853369577,14264.68214567687,10811.605848265392,35963.55449718887,47131.53655904967,0.0,0.0,0.0,193.0,0.0,193.0,0.0,17.0,0.0,179.0,193.0,17.0,179.0,1744418823.6868453,0.0,2025-04-11 20:47:03.686,STOP,37
23.0,7270.575436422281,-12060.062534816569,-21622.049405819107,-23787.866388304996,14158.399600791885,10635.541157190939,35946.74598535848,46999.147176640894,0.0,0.0,0.0,193.0,0.0,193.0,0.0,17.0,0.0,179.0,193.0,17.0,179.0,1744418823.6869085,0.0,2025-04-11 20:47:03.686,STOP,37
24.0,7285.461698229516,-12022.37749366492,-21640.42253976137,-23743.766396494677,14050.150102394833,10873.117849006398,35702.95550858444,47081.24513402524,0.0,0.0,0.0,193.0,0.0,193.0,0.0,17.0,0.0,179.0,193.0,17.0,179.0,1744418823.687047,0.0,2025-04-11 20:47:03.687,STOP,37
25.0,7317.379989311695,-12013.079167971513,-21595.56258863957,-23724.4991927742,14092.350195926452,10993.772565576144,35563.27945748323,47166.89701877797,0.0,0.0,0.0,193.0,0.0,192.0,0.0,17.0,0.0,178.0,192.0,17.0,178.0,1744418823.687143,0.0,2025-04-11 20:47:03.687,STOP,37
26.0,7298.693930947057,-12054.273433002643,-21568.919309248842,-23769.292088662638,14253.975660082777,10856.28698543155,35904.94822322705,47160.12444020801,0.0,0.0,0.0,193.0,0.0,193.0,0.0,17.0,0.0,179.0,193.0,17.0,179.0,1744418823.6872272,0.0,2025-04-11 20:47:03.687,STOP,37
27.0,7296.995198368454,-12050.987726567713,-21606.09026027802,-23783.396039413936,14177.733859745726,10642.023163082977,35970.14826180318,47017.475607094246,0.0,0.0,0.0,193.0,0.0,193.0,0.0,17.0,0.0,179.0,193.0,17.0,179.0,1744418823.6872945,0.0,2025-04-11 20:47:03.687,STOP,37
28.0,7301.6667129596135,-12031.273487958133,-21633.962885613786,-23744.61576278398,14055.380410597374,10835.455159599205,35751.59290451919,47062.134392515945,0.0,0.0,0.0,193.0,0.0,193.0,0.0,17.0,0.0,179.0,193.0,17.0,179.0,1744418823.687446,0.0,2025-04-11 20:47:03.687,STOP,37
29.0,7319.659867246136,-12000.673949798816,-21603.430402687838,-23722.688701473322,14058.487303076661,10998.667597611857,35551.88006781102,47153.307158149146,0.0,0.0,0.0,193.0,0.0,193.0,0.0,17.0,0.0,179.0,193.0,17.0,179.0,1744418823.6874971,0.0,2025-04-11 20:47:03.687,STOP,37
30.0,7308.148718851652,-12042.985802052714,-21570.17100693834,-23758.026809457162,14236.228374985263,10899.627017930392,35847.41483299909,47174.831888059605,0.0,0.0,0.0,193.0,0.0,193.0,0.0,17.0,0.0,179.0,193.0,17.0,179.0,1744418823.6875677,0.0,2025-04-11 20:47:03.687,STOP,37
31.0,7300.862050159222,-12058.117933048956,-21608.280731234638,-23792.023812773685,14194.318854131563,10648.77338990848,36006.60395700979,47047.15872373089,0.0,0.0,0.0,193.0,0.0,193.0,0.0,17.0,0.0,179.0,193.0,17.0,179.0,1744418823.6876352,0.0,2025-04-11 20:47:03.687,STOP,37
32.0,7306.5393932508705,-12017.773034307127,-21628.240839033228,-23747.163861651883,14066.466875847207,10768.154057044276,35800.431466154034,47037.5027701262,0.0,0.0,0.0,193.0,0.0,193.0,0.0,17.0,0.0,179.0,193.0,17.0,179.0,1744418823.687696,0.0,2025-04-11 20:47:03.687,STOP,37
33.0,7321.760931224934,-11997.947036975269,-21613.108708036987,-23725.92970441934,14029.474738773673,10979.020414235642,35567.97332381884,47147.02631795721,0.0,0.0,0.0,193.0,0.0,193.0,0.0,17.0,0.0,179.0,193.0,17.0,179.0,1744418823.6877522,0.0,2025-04-11 20:47:03.687,STOP,37
34.0,7336.066047676331,-12012.252153426667,-21554.524785819627,-23737.50790804719,14209.540392105628,10916.793157672068,35760.17597439003,47167.52286762272,0.0,0.0,0.0,193.0,0.0,193.0,0.0,17.0,0.0,179.0,193.0,17.0,179.0,1744418823.6878085,0.0,2025-04-11 20:47:03.687,STOP,37
35.0,7316.68708523358,-12040.504758418174,-21590.980481026232,-23786.972318526783,14205.293560659118,10675.01433789901,36012.08013440134,47059.273369225666,0.0,0.0,0.0,193.0,0.0,193.0,0.0,17.0,0.0,179.0,193.0,17.0,179.0,1744418823.6878583,0.0,2025-04-11 20:47:03.687,STOP,37
36.0,7306.584096739781,-12030.737046091206,-21632.80059490211,-23767.928632250863,14067.159779925321,10728.814986802934,35856.936676137055,47017.2967931386,0.0,0.0,0.0,193.0,0.0,193.0,0.0,17.0,0.0,179.0,193.0,17.0,179.0,1744418823.6879191,0.0,2025-04-11 20:47:03.687,STOP,37
37.0,7314.518966021415,-12000.249266654166,-21626.989141343733,-23745.822756984566,14011.883915887347,10968.515094341648,35597.94701313341,47126.12743689149,0.0,0.0,0.0,193.0,0.0,193.0,0.0,17.0,0.0,178.0,193.0,17.0,178.0,1744418823.687968,0.0,2025-04-11 20:47:03.687,STOP,37
38.0,7317.245878844962,-12007.178307435312,-21572.875568017433,-23751.008361698194,14173.531731788127,10943.54819578507,35693.67953463549,47165.37710015501,0.0,0.0,0.0,193.0,0.0,193.0,0.0,17.0,0.0,179.0,193.0,17.0,179.0,1744418823.6880152,0.0,2025-04-11 20:47:03.688,STOP,37
39.0,7305.377102539194,-12047.322040477044,-21591.114591492962,-23791.91205405141,14242.285697732652,10729.351428669863,36023.61363454028,47103.50747150272,0.0,0.0,0.0,193.0,0.0,193.0,0.0,17.0,0.0,179.0,193.0,17.0,179.0,1744418823.6881487,0.0,2025-04-11 20:47:03.688,STOP,37
40.0,7317.6929137340685,-12027.540746634097,-21612.862838847977,-23762.005419970206,14129.722312655726,10699.578905055394,35902.936566226075,47011.664153535865,0.0,0.0,0.0,193.0,0.0,193.0,0.0,17.0,0.0,179.0,193.0,17.0,179.0,1744418823.6881986,0.0,2025-04-11 20:47:03.688,STOP,37
41.0,7331.796864485367,-11996.382414863398,-21615.433289460336,-23725.661483485877,14047.691410504749,10963.441248350293,35645.39976661203,47119.891300188465,0.0,0.0,0.0,193.0,0.0,193.0,0.0,17.0,0.0,179.0,193.0,17.0,179.0,1744418823.6882477,0.0,2025-04-11 20:47:03.688,STOP,37
42.0,7341.564576812337,-11995.644807296374,-21568.673440059836,-23730.109480632484,14155.650336223882,10980.048594480586,35648.57371432468,47167.67932983391,0.0,0.0,0.0,193.0,0.0,193.0,0.0,17.0,0.0,179.0,193.0,17.0,179.0,1744418823.6882992,0.0,2025-04-11 20:47:03.688,STOP,37
43.0,7317.469396289515,-12040.035371784614,-21570.863911016455,-23779.596242856533,14259.273023518685,10781.833324650923,36010.42610531165,47124.160483379426,0.0,0.0,0.0,193.0,0.0,193.0,0.0,18.0,0.0,179.0,193.0,18.0,179.0,1744418823.6884015,0.0,2025-04-11 20:47:03.688,STOP,37
44.0,7319.324591079306,-12031.318191447042,-21598.17774274084,-23760.552556580613,14145.927327385823,10666.610081983816,35934.40782241915,46993.4921852937,0.0,0.0,0.0,193.0,0.0,193.0,0.0,17.0,0.0,179.0,193.0,17.0,179.0,1744418823.6884534,0.0,2025-04-11 20:47:03.688,STOP,37
45.0,7333.40619008615,-11992.157935161345,-21608.683062634835,-23718.955960149284,14040.87412844588,10914.200355315252,35676.37928442709,47072.75147113222,0.0,0.0,0.0,193.0,0.0,193.0,0.0,17.0,0.0,179.0,193.0,17.0,179.0,1744418823.6885128,0.0,2025-04-11 20:47:03.688,STOP,37
46.0,7354.595643829781,-11983.284292612589,-21562.482006845716,-23711.98221587923,14118.345274727973,10985.725937572233,35606.06069637069,47137.30330911915,0.0,0.0,0.0,193.0,0.0,193.0,0.0,17.0,0.0,179.0,193.0,17.0,179.0,1744418823.6885624,0.0,2025-04-11 20:47:03.688,STOP,37
47.0,7321.11273063573,-12031.765226336149,-21553.183681152306,-23763.681800804356,14262.894006120445,10829.66605778528,35977.993724107,47125.27807060219,0.0,0.0,0.0,193.0,0.0,193.0,0.0,17.0,0.0,179.0,193.0,17.0,179.0,1744418823.6886077,0.0,2025-04-11 20:47:03.688,STOP,37
48.0,7321.895041691666,-12021.014037253146,-21589.013527514166,-23766.02873397216,14167.094429384999,10647.58874745235,35974.48450022751,46980.77404269863,0.0,0.0,0.0,193.0,0.0,193.0,0.0,17.0,0.0,179.0,193.0,17.0,179.0,1744418823.688656,0.0,2025-04-11 20:47:03.688,STOP,37
49.0,7331.908623207644,-11988.693414770773,-21614.360405726482,-23729.88596318793,14048.429018071774,10869.988604782655,35731.1857618315,47043.78361031814,0.0,0.0,0.0,193.0,0.0,193.0,0.0,17.0,0.0,179.0,193.0,17.0,179.0,1744418823.6887069,0.0,2025-04-11 20:47:03.688,STOP,37
50.0,7343.106847179753,-11973.963615174725,-21579.201111698283,-23721.816983439563,14086.538742368073,10991.246818452695,35575.43880646692,47126.038029913674,0.0,0.0,0.0,193.0,0.0,193.0,0.0,17.0,0.0,179.0,193.0,17.0,179.0,1744418823.6887689,0.0,2025-04-11 20:47:03.688,STOP,37
