Sample Index,EXG Channel 0,EXG Channel 1,EXG Channel 2,EXG Channel 3,EXG Channel 4,EXG Channel 5,EXG Channel 6,EXG Channel 7,Accel Channel 0,Accel Channel 1,Accel Channel 2,Not Used,Digital Channel 0 (D11),Digital Channel 1 (D12),Digital Channel 2 (D13),Digital Channel 3 (D17),Not Used,Digital Channel 4 (D18),Analog Channel 0,Analog Channel 1,Analog Channel 2,Timestamp,Marker Channel,Timestamp (Formatted),Stimulus_Direction,Stimulus_Number
70.0,27761.82773850295,30159.05233133463,-32122.384860799895,-29347.37108318461,-36483.679590663865,-32339.30854073865,-6256.543845718365,-38238.89502750576,0.0,0.0,0.0,193.0,0.0,194.0,0.0,1.0,0.0,179.0,194.0,1.0,179.0,1744420351.3755713,0.0,2025-04-11 21:12:31.375,STOP,7
71.0,27743.074624904948,30139.181630513864,-32121.7813636996,-29351.90848730904,-36485.87006162048,-32336.5816279151,-6402.254867822513,-38269.293399964976,0.0,0.0,0.0,193.0,0.0,194.0,0.0,1.0,0.0,179.0,194.0,1.0,179.0,1744420351.375739,0.0,2025-04-11 21:12:31.375,STOP,7
72.0,27705.993080853594,30143.853145105022,-32119.16620959833,-29344.800632572253,-36482.137320296446,-32327.439764432882,-6751.299709236588,-38254.45184164665,0.0,0.0,0.0,193.0,0.0,194.0,0.0,1.0,0.0,179.0,194.0,1.0,179.0,1744420351.3759212,0.0,2025-04-11 21:12:31.375,STOP,7
73.0,27719.359424037866,30162.36038951402,-32107.766819926124,-29329.824963787196,-36468.636866645444,-32316.30859569414,-6799.87004993797,-38242.96304499663,0.0,0.0,0.0,193.0,0.0,193.0,0.0,1.0,0.0,179.0,193.0,1.0,179.0,1744420351.3760617,0.0,2025-04-11 21:12:31.376,STOP,7
74.0,27754.92104946626,30161.689837180358,-32129.671529492323,-29347.95222854045,-36495.23544254726,-32344.62825591901,-6324.6272593292315,-38252.82016430142,0.0,0.0,0.0,193.0,0.0,193.0,0.0,1.0,0.0,179.0,193.0,1.0,179.0,1744420351.3762145,0.0,2025-04-11 21:12:31.376,STOP,7
75.0,27748.573154040954,30137.39349095744,-32124.12829686741,-29355.57417339971,-36490.675686678376,-32340.11320353904,-6374.7622221424845,-38287.688885651696,0.0,0.0,0.0,193.0,0.0,193.0,0.0,1.0,0.0,179.0,193.0,1.0,179.0,1744420351.3766413,0.0,2025-04-11 21:12:31.376,STOP,7
76.0,27719.62764497133,30148.792880629648,-32115.6793374633,-29340.82202205921,-36480.97502958477,-32327.97620629981,-6703.109348190946,-38261.20206847216,0.0,0.0,0.0,193.0,0.0,193.0,0.0,1.0,0.0,179.0,193.0,1.0,179.0,1744420351.3767989,0.0,2025-04-11 21:12:31.376,STOP,7
77.0,27718.82298217094,30164.148529070444,-32104.905796635845,-29330.4731643764,-36475.65531440441,-32320.264854462726,-6839.790265535148,-38253.87069629082,0.0,0.0,0.0,193.0,0.0,193.0,0.0,1.0,0.0,178.0,193.0,1.0,178.0,1744420351.3768928,0.0,2025-04-11 21:12:31.376,STOP,7
78.0,27761.4030553583,30175.860843165025,-32110.761953683133,-29332.261303932824,-36481.444416218335,-32334.16763951393,-6399.170327087681,-38234.4246786147,0.0,0.0,0.0,193.0,0.0,193.0,0.0,1.0,0.0,179.0,193.0,1.0,179.0,1744420351.3770325,0.0,2025-04-11 21:12:31.377,STOP,7
79.0,27755.59160179992,30148.457604462816,-32119.814410187533,-29353.294295465268,-36481.645581918434,-32340.56023842815,-6317.206480170069,-38268.22051623112,0.0,0.0,0.0,193.0,0.0,193.0,0.0,1.0,0.0,179.0,193.0,1.0,179.0,1744420351.377186,0.0,2025-04-11 21:12:31.377,STOP,7
80.0,27729.931799165228,30150.469261463793,-32104.838741402476,-29332.842449288662,-36463.87594507646,-32321.941235296876,-6638.713972415206,-38246.04758573146,0.0,0.0,0.0,193.0,0.0,193.0,0.0,1.0,0.0,179.0,193.0,1.0,179.0,1744420351.3773787,0.0,2025-04-11 21:12:31.377,STOP,7
81.0,27715.11259259136,30156.705398166825,-32103.989375113175,-29329.26617017581,-36465.708788121796,-32320.510723651736,-6844.819408037592,-38254.13891722428,0.0,0.0,0.0,193.0,0.0,193.0,0.0,1.0,0.0,179.0,193.0,1.0,179.0,1744420351.3776572,0.0,2025-04-11 21:12:31.377,STOP,7
82.0,27743.96869468316,30152.54797369814,-32117.10984910844,-29338.653902847043,-36485.110102309,-32338.6826918939,-6484.553990906953,-38243.74535605256,0.0,0.0,0.0,193.0,0.0,193.0,0.0,1.0,0.0,179.0,193.0,1.0,179.0,1744420351.3777404,0.0,2025-04-11 21:12:31.377,STOP,7
83.0,27747.232049373633,30130.9114850654,-32127.324596324517,-29363.062007792236,-36492.24030879025,-32347.86925886503,-6286.584590266299,-38270.701559865665,0.0,0.0,0.0,193.0,0.0,193.0,0.0,1.0,0.0,179.0,193.0,1.0,179.0,1744420351.37782,0.0,2025-04-11 21:12:31.377,STOP,7
84.0,27721.549894994485,30137.415842701896,-32117.758049697644,-29348.712187851932,-36475.4094452154,-32328.914979566933,-6585.516820611575,-38254.20597245765,0.0,0.0,0.0,193.0,0.0,194.0,0.0,1.0,0.0,179.0,194.0,1.0,179.0,1744420351.3778927,0.0,2025-04-11 21:12:31.377,STOP,7
85.0,27713.43621175721,30156.83950863356,-32102.983546612686,-29332.55187661074,-36461.081977019545,-32311.838246803076,-6848.26157668371,-38239.96791123962,0.0,0.0,0.0,193.0,0.0,194.0,0.0,1.0,0.0,179.0,194.0,1.0,179.0,1744420351.378018,0.0,2025-04-11 21:12:31.378,STOP,7
86.0,27737.084357390926,30150.2680957637,-32118.518009009127,-29342.498402893354,-36480.55034644012,-32337.945084326875,-6564.193256401212,-38233.82118151441,0.0,0.0,0.0,193.0,0.0,194.0,0.0,1.0,0.0,179.0,194.0,1.0,179.0,1744420351.378086,0.0,2025-04-11 21:12:31.378,STOP,7
87.0,27745.73448249513,30131.71614786579,-32139.64040751939,-29375.601336431664,-36498.45409374882,-32368.432863763916,-6251.469999727011,-38282.168004771236,0.0,0.0,0.0,193.0,0.0,193.0,0.0,1.0,0.0,179.0,193.0,1.0,179.0,1744420351.3781607,0.0,2025-04-11 21:12:31.378,STOP,7
88.0,27718.979444382127,30130.9114850654,-32135.907666195355,-29369.298144495267,-36492.687343679354,-32353.68071242341,-6526.798787927483,-38283.82203386093,0.0,0.0,0.0,193.0,0.0,193.0,0.0,1.0,0.0,179.0,193.0,1.0,179.0,1744420351.3782065,0.0,2025-04-11 21:12:31.378,STOP,7
89.0,27705.85897038686,30148.658770162914,-32121.937825910787,-29350.23210647489,-36475.431796959856,-32326.858619077044,-6838.627974823472,-38261.29147544998,0.0,0.0,0.0,193.0,0.0,193.0,0.0,1.0,0.0,179.0,193.0,1.0,179.0,1744420351.3782508,0.0,2025-04-11 21:12:31.378,STOP,7
90.0,27729.28359857602,30143.964903827302,-32127.12343062442,-29351.170879742014,-36481.645581918434,-32338.705043638354,-6662.540932004564,-38255.18944921368,0.0,0.0,0.0,193.0,0.0,193.0,0.0,1.0,0.0,179.0,193.0,1.0,179.0,1744420351.3783329,0.0,2025-04-11 21:12:31.378,STOP,7
91.0,27751.47888082014,30133.124307766477,-32149.56458205755,-29376.316592254236,-36506.43366651937,-32359.425110748427,-6254.398078250656,-38265.96299004114,0.0,0.0,0.0,193.0,0.0,193.0,0.0,1.0,0.0,178.0,193.0,1.0,178.0,1744420351.3783784,0.0,2025-04-11 21:12:31.378,STOP,7
92.0,27724.232104329123,30120.786144827147,-32147.910552967856,-29374.304935253258,-36497.291803037144,-32343.890648351986,-6458.737726061074,-38258.2292864596,0.0,0.0,0.0,193.0,0.0,193.0,0.0,1.0,0.0,179.0,193.0,1.0,179.0,1744420351.378423,0.0,2025-04-11 21:12:31.378,STOP,7
93.0,27702.126229062826,30143.58492417156,-32135.63944526189,-29355.551821655255,-36487.4123319879,-32323.952892297853,-6793.365692301476,-38242.13603045178,0.0,0.0,0.0,193.0,0.0,193.0,0.0,1.0,0.0,179.0,193.0,1.0,179.0,1744420351.3784692,0.0,2025-04-11 21:12:31.378,STOP,7
94.0,27720.231142071625,30155.58781094406,-32123.63655848939,-29343.392472671567,-36479.87979410646,-32320.82364807411,-6748.908072579869,-38239.36441413932,0.0,0.0,0.0,193.0,0.0,193.0,0.0,1.0,0.0,179.0,193.0,1.0,179.0,1744420351.378515,0.0,2025-04-11 21:12:31.378,STOP,7
95.0,27745.57802028394,30147.54118294015,-32142.009692431653,-29365.29718223777,-36500.42104726089,-32348.942142598888,-6296.307599104357,-38257.42462365921,0.0,0.0,0.0,193.0,0.0,193.0,0.0,1.0,0.0,180.0,193.0,1.0,180.0,1744420351.3785608,0.0,2025-04-11 21:12:31.378,STOP,7
96.0,27727.96484565316,30122.48487740575,-32143.350797098974,-29369.655772406553,-36499.16934957139,-32345.365863486037,-6425.075998911381,-38282.88326059381,0.0,0.0,0.0,193.0,0.0,194.0,0.0,1.0,0.0,180.0,194.0,1.0,180.0,1744420351.378628,0.0,2025-04-11 21:12:31.378,STOP,7
97.0,27704.24964478608,30135.44888918983,-32136.04177666209,-29354.90362106605,-36488.99930584423,-32332.580665657602,-6755.613595916462,-38263.52664989551,0.0,0.0,0.0,193.0,0.0,194.0,0.0,1.0,0.0,180.0,194.0,1.0,180.0,1744420351.378674,0.0,2025-04-11 21:12:31.378,STOP,7
98.0,27714.442040257698,30147.58588642906,-32129.89504693688,-29349.18157448549,-36479.16453828389,-32335.01700580323,-6798.663055737384,-38263.66076036224,0.0,0.0,0.0,193.0,0.0,194.0,0.0,1.0,0.0,179.0,194.0,1.0,179.0,1744420351.3787189,0.0,2025-04-11 21:12:31.378,STOP,7
99.0,27749.69074126372,30148.01056957371,-32145.921247711332,-29361.832661847195,-36495.615422202995,-32355.9382386134,-6335.4455036456,-38260.62092311632,0.0,0.0,0.0,193.0,0.0,193.0,0.0,0.0,0.0,179.0,193.0,0.0,179.0,1744420351.378764,0.0,2025-04-11 21:12:31.378,STOP,7
100.0,27737.017302157557,30125.16708674039,-32150.36924485794,-29371.600374174166,-36499.63873620495,-32348.53981119869,-6354.310375965879,-38273.29436222248,0.0,0.0,0.0,193.0,0.0,194.0,0.0,1.0,0.0,179.0,194.0,1.0,179.0,1744420351.3788278,0.0,2025-04-11 21:12:31.378,STOP,7
101.0,27707.021261098536,30142.48968869325,-32142.16615464284,-29353.115481509627,-36491.48034947876,-32328.87027607802,-6691.821717241016,-38254.027158502,0.0,0.0,0.0,193.0,0.0,193.0,0.0,1.0,0.0,179.0,193.0,1.0,179.0,1744420351.378874,0.0,2025-04-11 21:12:31.378,STOP,7
102.0,27715.738441436108,30161.35456101353,-32122.362509055438,-29331.99308299936,-36472.280200991656,-32309.29014793517,-6840.885501013458,-38237.33040539389,0.0,0.0,0.0,193.0,0.0,193.0,0.0,1.0,0.0,179.0,193.0,1.0,179.0,1744420351.378928,0.0,2025-04-11 21:12:31.378,STOP,7
103.0,27740.59358127041,30155.610162688514,-32144.40132908837,-29347.482841906887,-36500.28693679416,-32344.292979752183,-6406.009960891004,-38238.09036470537,0.0,0.0,0.0,193.0,0.0,193.0,0.0,0.0,0.0,179.0,193.0,0.0,179.0,1744420351.3789775,0.0,2025-04-11 21:12:31.378,STOP,7
104.0,27737.374930068843,30133.81721184459,-32149.452823335272,-29364.71603688193,-36507.573605486585,-32351.713758911344,-6335.847835045795,-38295.221423533134,0.0,0.0,0.0,193.0,0.0,193.0,0.0,0.0,0.0,179.0,193.0,0.0,179.0,1744420351.379048,0.0,2025-04-11 21:12:31.379,STOP,7
105.0,27713.838543157406,30137.92993282437,-32135.84061096199,-29346.74523433986,-36486.674724420875,-32331.038395290187,-6643.541949217552,-38259.81626031593,0.0,0.0,0.0,193.0,0.0,193.0,0.0,1.0,0.0,178.0,193.0,1.0,178.0,1744420351.379228,0.0,2025-04-11 21:12:31.379,STOP,7
106.0,27712.318624534444,30161.53337496917,-32116.55105549706,-29325.667539318507,-36470.13443352395,-32305.222130444305,-6843.478303370274,-38228.14383842276,0.0,0.0,0.0,193.0,0.0,193.0,0.0,0.0,0.0,178.0,193.0,0.0,178.0,1744420351.379274,0.0,2025-04-11 21:12:31.379,STOP,7
107.0,27738.15724112478,30161.511023224717,-32130.565599270536,-29335.792879556764,-36490.60863144501,-32336.045186048173,-6492.354749721855,-38239.20795192813,0.0,0.0,0.0,193.0,0.0,193.0,0.0,0.0,0.0,179.0,193.0,0.0,179.0,1744420351.3793178,0.0,2025-04-11 21:12:31.379,STOP,7
108.0,27741.10767139288,30138.53342992466,-32144.066052921542,-29362.57026941422,-36500.55515772762,-32354.753596157265,-6285.511706532444,-38291.71219965365,0.0,0.0,0.0,193.0,0.0,193.0,0.0,0.0,0.0,179.0,193.0,0.0,179.0,1744420351.379362,0.0,2025-04-11 21:12:31.379,STOP,7
109.0,27708.76469716605,30132.319644966086,-32138.992206930187,-29355.127138510605,-36491.927384367875,-32337.87802909351,-6572.2175326606675,-38259.928019038205,0.0,0.0,0.0,193.0,0.0,193.0,0.0,0.0,0.0,179.0,193.0,0.0,179.0,1744420351.3794057,0.0,2025-04-11 21:12:31.379,STOP,7
110.0,27701.790952895994,30149.57519168558,-32128.26336959164,-29348.689836107475,-36482.78552088565,-32330.21138074534,-6849.110942973011,-38249.3779956553,0.0,0.0,0.0,193.0,0.0,193.0,0.0,0.0,0.0,179.0,193.0,0.0,179.0,1744420351.3794496,0.0,2025-04-11 21:12:31.379,STOP,7
111.0,27739.364235325367,30153.97848534328,-32140.378015086415,-29359.552783912754,-36499.191701315845,-32358.665151436944,-6603.3311609424545,-38270.075711020916,0.0,0.0,0.0,193.0,0.0,194.0,0.0,0.0,0.0,179.0,194.0,0.0,179.0,1744420351.3795133,0.0,2025-04-11 21:12:31.379,STOP,7
112.0,27746.852069717894,30138.376967713473,-32151.46448033625,-29373.254403263858,-36513.92150091189,-32366.130634085017,-6273.061784870838,-38286.32542923992,0.0,0.0,0.0,193.0,0.0,193.0,0.0,0.0,0.0,179.0,193.0,0.0,179.0,1744420351.379557,0.0,2025-04-11 21:12:31.379,STOP,7
113.0,27711.24574080059,30124.76475534019,-32133.11369813844,-29347.482841906887,-36492.64264019044,-32332.848886591066,-6517.187537811701,-38256.66466434773,0.0,0.0,0.0,193.0,0.0,194.0,0.0,0.0,0.0,179.0,194.0,0.0,179.0,1744420351.3796,0.0,2025-04-11 21:12:31.379,STOP,7
114.0,27690.391563223788,30142.556743926616,-32118.853285175956,-29329.534391109275,-36476.41527371589,-32314.788677071178,-6825.440445594842,-38243.54419035246,0.0,0.0,0.0,193.0,0.0,193.0,0.0,0.0,0.0,179.0,193.0,0.0,179.0,1744420351.3796432,0.0,2025-04-11 21:12:31.379,STOP,7
115.0,27714.95613038017,30150.849241119537,-32121.043756132574,-29328.819135286707,-36477.06347430509,-32324.757555098244,-6681.495211302664,-38237.486867605076,0.0,0.0,0.0,193.0,0.0,193.0,0.0,0.0,0.0,179.0,193.0,0.0,179.0,1744420351.379708,0.0,2025-04-11 21:12:31.379,STOP,7
116.0,27737.441985302212,30143.29435149364,-32146.301227367072,-29360.022170546315,-36499.63873620495,-32354.97711360182,-6253.6604706836315,-38266.05239701896,0.0,0.0,0.0,193.0,0.0,193.0,0.0,0.0,0.0,179.0,193.0,0.0,179.0,1744420351.3797517,0.0,2025-04-11 21:12:31.379,STOP,7
117.0,27713.05623210147,30128.966883297788,-32138.522820296625,-29354.590696643678,-36491.59210820104,-32334.34645346957,-6444.99140322106,-38263.32548419541,0.0,0.0,0.0,193.0,0.0,193.0,0.0,0.0,0.0,179.0,193.0,0.0,179.0,1744420351.3797991,0.0,2025-04-11 21:12:31.379,STOP,7
118.0,27695.912444104248,30153.754967898723,-32120.9319974103,-29332.462469632923,-36477.5105091942,-32311.30180493615,-6783.732090441238,-38236.10105944885,0.0,0.0,0.0,193.0,0.0,193.0,0.0,0.0,0.0,179.0,193.0,0.0,179.0,1744420351.3798475,0.0,2025-04-11 21:12:31.379,STOP,7
119.0,27708.80940065496,30159.611124946015,-32119.099154364965,-29330.450812631945,-36477.801081872116,-32321.315386452126,-6748.304575479577,-38241.28666416248,0.0,0.0,0.0,193.0,0.0,193.0,0.0,0.0,0.0,179.0,193.0,0.0,179.0,1744420351.3798969,0.0,2025-04-11 21:12:31.379,STOP,7
120.0,27734.2456858451,30148.904639351924,-32141.473250564726,-29352.802557087252,-36499.86225364951,-32345.03058731921,-6276.816877939329,-38244.21474268613,0.0,0.0,0.0,193.0,0.0,193.0,0.0,0.0,0.0,179.0,193.0,0.0,179.0,1744420351.3799882,0.0,2025-04-11 21:12:31.379,STOP,7
121.0,27724.38856654031,30133.705453122315,-32139.282779608107,-29353.070778020716,-36495.16838731389,-32328.64675863347,-6387.636826948742,-38253.69188233517,0.0,0.0,0.0,193.0,0.0,193.0,0.0,0.0,0.0,178.0,193.0,0.0,178.0,1744420351.3800387,0.0,2025-04-11 21:12:31.380,STOP,7
122.0,27703.400278496778,30154.246706276743,-32128.285721336095,-29331.3225306657,-36480.77386388467,-32307.85963629003,-6728.1209502364345,-38227.205065155635,0.0,0.0,0.0,193.0,0.0,193.0,0.0,0.0,0.0,179.0,193.0,0.0,179.0,1744420351.38009,0.0,2025-04-11 21:12:31.380,STOP,7
123.0,27709.859932644362,30158.582944701073,-32125.603512001457,-29324.974635240393,-36478.51633769469,-32311.413563658425,-6799.646532493417,-38233.97764372559,0.0,0.0,0.0,193.0,0.0,193.0,0.0,0.0,0.0,178.0,193.0,0.0,178.0,1744420351.380144,0.0,2025-04-11 21:12:31.380,STOP,7
124.0,27740.21360161467,30157.532412711673,-32149.519878568637,-29344.822984316706,-36505.78546593016,-32345.768194886234,-6347.604852629287,-38243.29832116346,0.0,0.0,0.0,193.0,0.0,193.0,0.0,0.0,0.0,179.0,193.0,0.0,179.0,1744420351.3801997,0.0,2025-04-11 21:12:31.380,STOP,7
125.0,27728.993025898104,30131.470278676785,-32153.297323381583,-29357.71994086742,-36509.98759388776,-32345.522325697224,-6355.025631788449,-38279.46344369214,0.0,0.0,0.0,193.0,0.0,193.0,0.0,0.0,0.0,179.0,193.0,0.0,179.0,1744420351.3802547,0.0,2025-04-11 21:12:31.380,STOP,7
126.0,27706.70833667616,30143.115537538,-32134.74537548368,-29330.495516120856,-36491.74857041223,-32316.599168372057,-6694.302760875555,-38248.23805668808,0.0,0.0,0.0,193.0,0.0,194.0,0.0,0.0,0.0,179.0,194.0,0.0,179.0,1744420351.3803732,0.0,2025-04-11 21:12:31.380,STOP,7
127.0,27705.121362819835,30159.901697623933,-32123.010709644645,-29320.951321238437,-36481.869099362986,-32312.486447392283,-6843.679469070372,-38242.35954789633,0.0,0.0,0.0,193.0,0.0,193.0,0.0,0.0,0.0,179.0,193.0,0.0,179.0,1744420351.3804328,0.0,2025-04-11 21:12:31.380,STOP,7
128.0,27736.190287612713,30163.142700569955,-32135.46063130625,-29333.17772545549,-36495.23544254726,-32344.24827626327,-6413.766016216996,-38245.5781990979,0.0,0.0,0.0,193.0,0.0,193.0,0.0,0.0,0.0,179.0,193.0,0.0,179.0,1744420351.3804927,0.0,2025-04-11 21:12:31.380,STOP,7
129.0,27731.63053174383,30136.231200245766,-32145.943599455786,-29359.48572867939,-36506.545425241646,-32359.514517726246,-6297.514593304943,-38304.16212131526,0.0,0.0,0.0,193.0,0.0,194.0,0.0,0.0,0.0,180.0,194.0,0.0,180.0,1744420351.3805492,0.0,2025-04-11 21:12:31.380,STOP,7
130.0,27709.81522915545,30145.663636405905,-32130.364433570438,-29338.743309824862,-36493.3131925241,-32333.072404035618,-6631.7402281451505,-38268.55579239795,0.0,0.0,0.0,193.0,0.0,193.0,0.0,0.0,0.0,179.0,193.0,0.0,179.0,1744420351.380705,0.0,2025-04-11 21:12:31.380,STOP,7
131.0,27705.72485992013,30167.25542154973,-32114.315881051527,-29321.197190427447,-36477.309343494104,-32310.363031669025,-6845.981698749269,-38227.42858260019,0.0,0.0,0.0,193.0,0.0,193.0,0.0,0.0,0.0,178.0,193.0,0.0,178.0,1744420351.3807783,0.0,2025-04-11 21:12:31.380,STOP,7
132.0,27730.803517198983,30165.377875015485,-32129.000977158667,-29329.154411453535,-36492.754398912715,-32330.345491212072,-6494.8581451008495,-38213.794018482455,0.0,0.0,0.0,193.0,0.0,193.0,0.0,0.0,0.0,179.0,193.0,0.0,179.0,1744420351.3808398,0.0,2025-04-11 21:12:31.380,STOP,7
133.0,27732.83752594442,30139.606313658514,-32148.759919257158,-29360.51390892433,-36512.960375900315,-32356.206459546862,-6265.663357456131,-38277.965876813636,0.0,0.0,0.0,193.0,0.0,193.0,0.0,0.0,0.0,179.0,193.0,0.0,179.0,1744420351.3808987,0.0,2025-04-11 21:12:31.380,STOP,7
134.0,27713.212694312657,30137.25938049071,-32134.11952663893,-29342.2748854488,-36495.07898033607,-32330.725470867812,-6579.727718797651,-38265.65006561876,0.0,0.0,0.0,193.0,0.0,193.0,0.0,0.0,0.0,179.0,193.0,0.0,179.0,1744420351.3809717,0.0,2025-04-11 21:12:31.380,STOP,7
135.0,27696.270072015534,30155.72192141079,-32119.702651465257,-29323.633530573075,-36479.56686968409,-32308.150208967952,-6848.842722039548,-38226.04277444396,0.0,0.0,0.0,193.0,0.0,193.0,0.0,0.0,0.0,179.0,193.0,0.0,179.0,1744420351.3811321,0.0,2025-04-11 21:12:31.381,STOP,7
136.0,27715.470220502644,30157.420653989397,-32132.800773716066,-29330.89784752105,-36491.994439601236,-32335.419337203424,-6590.1212799693685,-38231.697765791156,0.0,0.0,0.0,193.0,0.0,193.0,0.0,0.0,0.0,179.0,193.0,0.0,179.0,1744420351.3811927,0.0,2025-04-11 21:12:31.381,STOP,7
137.0,27743.566363282964,30153.598505687536,-32135.997073173177,-29344.018321516316,-36499.30346003812,-32343.44361346288,-6247.647851425154,-38263.4819464066,0.0,0.0,0.0,193.0,0.0,194.0,0.0,0.0,0.0,179.0,194.0,0.0,179.0,1744420351.3812368,0.0,2025-04-11 21:12:31.381,STOP,7
138.0,27727.607217741876,30148.323493996086,-32117.73569795319,-29322.493591605857,-36484.439549975345,-32319.30372945115,-6503.396511482777,-38258.49750739307,0.0,0.0,0.0,193.0,0.0,193.0,0.0,0.0,0.0,179.0,193.0,0.0,179.0,1744420351.381281,0.0,2025-04-11 21:12:31.381,STOP,7
139.0,27703.02029884104,30163.567383714606,-32110.381974027394,-29308.859027488117,-36477.84578536103,-32302.15994145393,-6808.3637128309865,-38232.65889080273,0.0,0.0,0.0,193.0,0.0,193.0,0.0,0.0,0.0,179.0,193.0,0.0,179.0,1744420351.3813243,0.0,2025-04-11 21:12:31.381,STOP,7
140.0,27727.96484565316,30176.196119331853,-32103.810561157534,-29299.09131516115,-36475.38709347094,-32300.68472631988,-6678.500077545653,-38215.29158536096,0.0,0.0,0.0,193.0,0.0,193.0,0.0,0.0,0.0,179.0,193.0,0.0,179.0,1744420351.3813682,0.0,2025-04-11 21:12:31.381,STOP,7
141.0,27747.723787751653,30161.175747057885,-32130.342081825984,-29335.256437689837,-36496.531843725665,-32339.196782016374,-6239.422409465601,-38244.99705374206,0.0,0.0,0.0,193.0,0.0,193.0,0.0,0.0,0.0,179.0,193.0,0.0,179.0,1744420351.3814423,0.0,2025-04-11 21:12:31.381,STOP,7
142.0,27732.099918377393,30146.35654048402,-32120.954349154756,-29330.85314403214,-36487.166462798894,-32323.7293748533,-6427.1770628901795,-38257.826955059405,0.0,0.0,0.0,193.0,0.0,193.0,0.0,0.0,0.0,178.0,193.0,0.0,178.0,1744420351.3814876,0.0,2025-04-11 21:12:31.381,STOP,7
143.0,27707.557702965463,30166.048427349142,-32109.35379378245,-29312.05532694523,-36481.578526685065,-32304.372764155003,-6756.015927316657,-38231.675414046695,0.0,0.0,0.0,193.0,0.0,193.0,0.0,0.0,0.0,179.0,193.0,0.0,179.0,1744420351.381532,0.0,2025-04-11 21:12:31.381,STOP,7
144.0,27727.383700297323,30182.476959523796,-32095.45100873125,-29296.85614071562,-36469.5085846792,-32296.124970450997,-6735.675839862328,-38217.839684228864,0.0,0.0,0.0,193.0,0.0,193.0,0.0,0.0,0.0,179.0,193.0,0.0,179.0,1744420351.8523755,0.0,2025-04-11 21:12:31.852,STOP,7
145.0,27753.82581398795,30168.373008772494,-32124.68709047879,-29325.511077107323,-36497.18004431487,-32332.31244472414,-6262.690575443576,-38224.81342849892,0.0,0.0,0.0,193.0,0.0,193.0,0.0,0.0,0.0,179.0,193.0,0.0,179.0,1744420351.8525348,0.0,2025-04-11 21:12:31.852,STOP,7
146.0,27738.62662775834,30146.445947461838,-32126.207009101752,-29331.90367602154,-36495.79423615864,-32330.92663656791,-6371.945902341116,-38265.67241736322,0.0,0.0,0.0,193.0,0.0,194.0,0.0,0.0,0.0,179.0,194.0,0.0,179.0,1744420351.8525867,0.0,2025-04-11 21:12:31.852,STOP,7
147.0,27710.418726255743,30162.472148236295,-32118.897988664867,-29314.156390924025,-36487.434683732354,-32314.43104915989,-6716.833319286504,-38252.68605383469,0.0,0.0,0.0,193.0,0.0,194.0,0.0,0.0,0.0,179.0,194.0,0.0,179.0,1744420351.8526363,0.0,2025-04-11 21:12:31.852,STOP,7
148.0,27713.167990823746,30168.842395406056,-32112.572444984013,-29306.199169897936,-36478.87396560597,-32312.19587471436,-6814.756311745205,-38247.79102179897,0.0,0.0,0.0,193.0,0.0,193.0,0.0,0.0,0.0,179.0,193.0,0.0,179.0,1744420351.8527133,0.0,2025-04-11 21:12:31.852,STOP,7
149.0,27727.42840378623,30152.279752764676,-32149.676340779824,-29340.82202205921,-36514.79321894565,-32362.73316892781,-6342.01691651546,-38261.35853068335,0.0,0.0,0.0,193.0,0.0,193.0,0.0,0.0,0.0,179.0,193.0,0.0,179.0,1744420351.8527675,0.0,2025-04-11 21:12:31.852,STOP,7
150.0,27715.827848413926,30131.135002509953,-32146.949427956275,-29351.170879742014,-36511.86514042201,-32360.006256104265,-6347.671907862653,-38307.537234728006,0.0,0.0,0.0,193.0,0.0,194.0,0.0,0.0,0.0,179.0,194.0,0.0,179.0,1744420351.8528676,0.0,2025-04-11 21:12:31.852,STOP,7
151.0,27687.932871333705,30141.81913635959,-32134.16423012784,-29329.04265273126,-36494.855462891515,-32329.697290622866,-6671.615740253418,-38258.56456262643,0.0,0.0,0.0,193.0,0.0,193.0,0.0,0.0,0.0,179.0,193.0,0.0,179.0,1744420351.8529177,0.0,2025-04-11 21:12:31.852,STOP,7
152.0,27685.96591782164,30156.101901066533,-32122.317805566527,-29315.69866129144,-36481.66793366289,-32312.15117122545,-6823.764064760693,-38223.628786042784,0.0,0.0,0.0,193.0,0.0,193.0,0.0,0.0,0.0,179.0,193.0,0.0,179.0,1744420351.852966,0.0,2025-04-11 21:12:31.852,STOP,7
153.0,27715.090240846905,30152.68208416487,-32142.724948254225,-29330.450812631945,-36505.830169419074,-32342.102508795564,-6407.6863417251525,-38225.595739554854,0.0,0.0,0.0,193.0,0.0,193.0,0.0,0.0,0.0,179.0,193.0,0.0,179.0,1744420351.8530188,0.0,2025-04-11 21:12:31.853,STOP,7
154.0,27722.73453745062,30132.409051943905,-32143.998997688177,-29345.828812817195,-36503.12560833998,-32342.63895066249,-6289.311503089846,-38266.96881854162,0.0,0.0,0.0,193.0,0.0,193.0,0.0,0.0,0.0,179.0,193.0,0.0,179.0,1744420351.8530743,0.0,2025-04-11 21:12:31.853,STOP,7
155.0,27700.76277265105,30139.181630513864,-32132.040814404587,-29328.439155630967,-36487.300573265624,-32318.29790095066,-6592.132936970346,-38239.00678622804,0.0,0.0,0.0,193.0,0.0,193.0,0.0,0.0,0.0,178.0,193.0,0.0,178.0,1744420351.8531263,0.0,2025-04-11 21:12:31.853,STOP,7
156.0,27691.643260913286,30161.242802291254,-32120.9319974103,-29317.687966547965,-36477.42110221638,-32303.277528676696,-6825.216928150288,-38235.02817571499,0.0,0.0,0.0,193.0,0.0,193.0,0.0,0.0,0.0,179.0,193.0,0.0,179.0,1744420351.8532019,0.0,2025-04-11 21:12:31.853,STOP,7
157.0,27721.3934327833,30162.74036916976,-32133.73954698319,-29324.348786395647,-36495.68247743636,-32325.003424287253,-6507.285715018001,-38231.697765791156,0.0,0.0,0.0,193.0,0.0,193.0,0.0,0.0,0.0,179.0,193.0,0.0,179.0,1744420351.8532486,0.0,2025-04-11 21:12:31.853,STOP,7
158.0,27737.419633557754,30145.90950559491,-32142.188506387298,-29343.99596977186,-36505.78546593016,-32339.822630861123,-6265.23867431148,-38276.40125470177,0.0,0.0,0.0,193.0,0.0,193.0,0.0,0.0,0.0,179.0,193.0,0.0,179.0,1744420351.853295,0.0,2025-04-11 21:12:31.853,STOP,7
159.0,27710.2399123001,30144.948380583333,-32137.807564474057,-29333.222428944402,-36495.59307045854,-32324.48933416478,-6540.925090423238,-38250.40617590024,0.0,0.0,0.0,193.0,0.0,193.0,0.0,0.0,0.0,180.0,193.0,0.0,180.0,1744420351.853364,0.0,2025-04-11 21:12:31.853,STOP,7
160.0,27693.990194081092,30162.82977614758,-32129.02332890312,-29322.650053817044,-36482.271430763176,-32315.839209060578,-6832.503596842718,-38249.73562356659,0.0,0.0,0.0,193.0,0.0,194.0,0.0,0.0,0.0,179.0,194.0,0.0,179.0,1744420351.8534095,0.0,2025-04-11 21:12:31.853,STOP,7
161.0,27714.844371657895,30159.164090056907,-32133.583084772003,-29324.035861973272,-36483.50077670822,-32329.272607478215,-6609.746111601128,-38243.52183860801,0.0,0.0,0.0,193.0,0.0,194.0,0.0,0.0,0.0,180.0,194.0,0.0,180.0,1744420351.8534625,0.0,2025-04-11 21:12:31.853,STOP,7
162.0,27727.92014216425,30141.72972938177,-32154.146689670884,-29350.008589030338,-36506.29955605263,-32344.918828596932,-6239.243595509958,-38262.09613825037,0.0,0.0,0.0,193.0,0.0,194.0,0.0,0.0,0.0,179.0,194.0,0.0,179.0,1744420351.8535094,0.0,2025-04-11 21:12:31.853,STOP,7
163.0,27709.323490777435,30138.10874678001,-32148.156422156862,-29340.82202205921,-36499.86225364951,-32324.556389398145,-6481.625912383308,-38255.61413235833,0.0,0.0,0.0,193.0,0.0,193.0,0.0,0.0,0.0,179.0,193.0,0.0,179.0,1744420351.853556,0.0,2025-04-11 21:12:31.853,STOP,7
164.0,27685.608289910353,30153.039712076155,-32138.45576506326,-29328.148582953047,-36491.10036982303,-32313.24640670376,-6811.738826243738,-38249.176829955206,0.0,0.0,0.0,193.0,0.0,193.0,0.0,0.0,0.0,179.0,193.0,0.0,179.0,1744420351.8536024,0.0,2025-04-11 21:12:31.853,STOP,7
165.0,27693.878435358816,30140.34392122554,-32129.939750425787,-29318.60438807063,-36482.38318948546,-32316.554464883146,-6700.13656617839,-38235.94459723766,0.0,0.0,0.0,193.0,0.0,193.0,0.0,0.0,0.0,179.0,193.0,0.0,179.0,1744420351.8536768,0.0,2025-04-11 21:12:31.853,STOP,7
166.0,27716.923083892238,30127.648130374928,-32152.783233259113,-29348.935705296484,-36506.14309384145,-32348.91979085443,-6251.6711654271085,-38264.48777490709,0.0,0.0,0.0,193.0,0.0,193.0,0.0,0.0,0.0,178.0,193.0,0.0,178.0,1744420351.853722,0.0,2025-04-11 21:12:31.853,STOP,7
167.0,27701.09804881788,30118.305101192607,-32144.84836397748,-29344.75592908334,-36499.50462573822,-32333.228866246805,-6431.625060036786,-38275.82010934593,0.0,0.0,0.0,193.0,0.0,193.0,0.0,0.0,0.0,179.0,193.0,0.0,179.0,1744420351.8537729,0.0,2025-04-11 21:12:31.853,STOP,7
168.0,27670.789083336484,30131.73849961025,-32139.32748309702,-29335.09997547865,-36493.71552392429,-32326.12101151002,-6769.896360623403,-38270.2321732321,0.0,0.0,0.0,193.0,0.0,193.0,0.0,0.0,0.0,178.0,193.0,0.0,178.0,1744420351.853829,0.0,2025-04-11 21:12:31.853,STOP,7
169.0,27690.4362667127,30149.2175637743,-32128.35277656946,-29322.962978239415,-36485.288916264646,-32317.29207245017,-6769.0916978230125,-38246.85224853185,0.0,0.0,0.0,193.0,0.0,193.0,0.0,0.0,0.0,179.0,193.0,0.0,179.0,1744420351.8538983,0.0,2025-04-11 21:12:31.853,STOP,7
170.0,27727.227238086136,30148.39054922945,-32150.056320435564,-29342.2748854488,-36503.70675369582,-32342.236619262294,-6279.968473907527,-38238.33623389438,0.0,0.0,0.0,193.0,0.0,193.0,0.0,0.0,0.0,178.0,193.0,0.0,178.0,1744420351.853963,0.0,2025-04-11 21:12:31.853,STOP,7
171.0,27717.750098437085,30128.07281351958,-32148.625808790424,-29347.39343492907,-36503.0138496177,-32336.5816279151,-6367.363794727778,-38275.35072271237,0.0,0.0,0.0,193.0,0.0,193.0,0.0,0.0,0.0,179.0,193.0,0.0,179.0,1744420351.8554833,0.0,2025-04-11 21:12:31.855,STOP,7
172.0,27687.776409122518,30141.081528792565,-32139.618055774936,-29328.752080053342,-36496.93417512586,-32319.080212006596,-6704.808080769549,-38248.01453924353,0.0,0.0,0.0,193.0,0.0,193.0,0.0,0.0,0.0,179.0,193.0,0.0,179.0,1744420351.8557,0.0,2025-04-11 21:12:31.855,STOP,7
173.0,27692.470275458134,30156.526584211184,-32128.106907380454,-29317.911483992517,-36486.182986042855,-32313.425220659403,-6803.334570328542,-38243.70065256365,0.0,0.0,0.0,193.0,0.0,193.0,0.0,0.0,0.0,179.0,193.0,0.0,179.0,1744420351.8557549,0.0,2025-04-11 21:12:31.855,STOP,7
174.0,27722.10868860587,30151.20686903082,-32148.826974490523,-29337.156335968535,-36505.56194848561,-32347.48927920929,-6344.028573516438,-38246.82989678739,0.0,0.0,0.0,193.0,0.0,193.0,0.0,0.0,0.0,179.0,193.0,0.0,179.0,1744420351.8559897,0.0,2025-04-11 21:12:31.855,STOP,7
175.0,27716.72191819214,30128.67631061987,-32151.01744544714,-29349.449795418954,-36505.338431041055,-32347.9363140984,-6325.856605274273,-38295.84727237788,0.0,0.0,0.0,193.0,0.0,194.0,0.0,0.0,0.0,179.0,194.0,0.0,179.0,1744420351.8560393,0.0,2025-04-11 21:12:31.856,STOP,7
176.0,27691.084467301902,30136.67823513487,-32139.439241819295,-29328.819135286707,-36496.30832628111,-32320.667185862923,-6658.159990091323,-38264.51012665154,0.0,0.0,0.0,193.0,0.0,193.0,0.0,0.0,0.0,179.0,193.0,0.0,179.0,1744420351.856083,0.0,2025-04-11 21:12:31.856,STOP,7
177.0,27694.504284203565,30158.560592956615,-32116.88633166389,-29307.85319898763,-36473.59895391452,-32299.947118752854,-6842.4054196364195,-38242.583065340885,0.0,0.0,0.0,193.0,0.0,194.0,0.0,0.0,0.0,180.0,194.0,0.0,180.0,1744420351.8561263,0.0,2025-04-11 21:12:31.856,STOP,7
178.0,27712.162162323257,30148.658770162914,-32142.50143080967,-29327.61214108612,-36497.13534082596,-32337.20747675985,-6419.733931986562,-38233.575312325396,0.0,0.0,0.0,193.0,0.0,194.0,0.0,0.0,0.0,179.0,194.0,0.0,179.0,1744420351.8561697,0.0,2025-04-11 21:12:31.856,STOP,7
179.0,27724.053290373482,30129.369214697985,-32152.246791392183,-29346.94640003996,-36511.351050299534,-32346.751671642265,-6268.032642368394,-38276.490661679585,0.0,0.0,0.0,193.0,0.0,194.0,0.0,0.0,0.0,179.0,194.0,0.0,179.0,1744420351.8562136,0.0,2025-04-11 21:12:31.856,STOP,7
180.0,27702.14858080728,30136.834697346058,-32141.897933709377,-29331.501344621345,-36503.34912578453,-32333.094755780076,-6600.8054138190055,-38272.66851337773,0.0,0.0,0.0,193.0,0.0,194.0,0.0,0.0,0.0,179.0,194.0,0.0,179.0,1744420351.8562858,0.0,2025-04-11 21:12:31.856,STOP,7
181.0,27692.09029580239,30156.168956299898,-32121.06610787703,-29309.93191122197,-36485.333619753554,-32312.44174390337,-6839.343230646042,-38249.445050888666,0.0,0.0,0.0,193.0,0.0,194.0,0.0,0.0,0.0,179.0,194.0,0.0,179.0,1744420351.856344,0.0,2025-04-11 21:12:31.856,STOP,7
182.0,27721.996929883593,30157.465357478304,-32126.296416079575,-29308.255530387825,-36495.70482918082,-32320.935406796387,-6511.689008675696,-38224.03111744298,0.0,0.0,0.0,193.0,0.0,194.0,0.0,0.0,0.0,179.0,194.0,0.0,179.0,1744420351.8563879,0.0,2025-04-11 21:12:31.856,STOP,7
183.0,27738.894848691805,30145.820098617092,-32133.806602216555,-29327.701548063942,-36504.39965777393,-32331.530133668202,-6249.793618892863,-38266.05239701896,0.0,0.0,0.0,193.0,0.0,194.0,0.0,0.0,0.0,180.0,194.0,0.0,180.0,1744420351.8564355,0.0,2025-04-11 21:12:31.856,STOP,7
184.0,27713.81619141295,30134.130136266966,-32127.83868644699,-29316.592731069653,-36499.07994259357,-32315.772153827213,-6535.784189198517,-38254.07186199092,0.0,0.0,0.0,193.0,0.0,194.0,0.0,0.0,0.0,179.0,194.0,0.0,179.0,1744420351.8564796,0.0,2025-04-11 21:12:31.856,STOP,7
185.0,27699.309909261458,30151.810366131114,-32114.919378151822,-29303.673422774486,-36489.13341631096,-32304.082191477086,-6824.009933949702,-38244.70648106414,0.0,0.0,0.0,193.0,0.0,193.0,0.0,0.0,0.0,179.0,193.0,0.0,179.0,1744420351.8565228,0.0,2025-04-11 21:12:31.856,STOP,7
186.0,27720.96874963865,30161.689837180358,-32118.249788075664,-29303.271091374292,-36496.241271047744,-32316.44270616087,-6621.346666973433,-38239.096193205856,0.0,0.0,0.0,193.0,0.0,194.0,0.0,0.0,0.0,179.0,194.0,0.0,179.0,1744420351.8565843,0.0,2025-04-11 21:12:31.856,STOP,7
187.0,27737.687854491218,30149.731653896768,-32137.047605162577,-29331.501344621345,-36510.032297376674,-32340.44847970587,-6230.816987850308,-38267.01352203054,0.0,0.0,0.0,193.0,0.0,193.0,0.0,0.0,0.0,179.0,193.0,0.0,179.0,1744420351.8566277,0.0,2025-04-11 21:12:31.856,STOP,7
188.0,27717.973615881638,30141.327397981575,-32122.675433477812,-29316.391565369555,-36489.759265155706,-32314.609863115536,-6459.005946994537,-38257.33521668139,0.0,0.0,0.0,193.0,0.0,193.0,0.0,0.0,0.0,179.0,193.0,0.0,179.0,1744420351.8566704,0.0,2025-04-11 21:12:31.856,STOP,7
189.0,27692.224406269124,30151.25157251973,-32114.58410198499,-29302.37702159608,-36482.04791331862,-32303.635156587978,-6774.634930447928,-38244.14768745276,0.0,0.0,0.0,193.0,0.0,193.0,0.0,0.0,0.0,179.0,193.0,0.0,179.0,1744420351.8567293,0.0,2025-04-11 21:12:31.856,STOP,7
190.0,27709.77052566654,30158.180613300876,-32112.84066591748,-29297.16906513799,-36486.27239302068,-32304.931557766387,-6692.55932480804,-38233.642367558765,0.0,0.0,0.0,193.0,0.0,193.0,0.0,0.0,0.0,179.0,193.0,0.0,179.0,1744420351.856773,0.0,2025-04-11 21:12:31.856,STOP,7
191.0,27737.77726146904,30153.464395220806,-32133.136049882898,-29322.158315439025,-36502.65622170642,-32329.45142143386,-6260.500104486955,-38238.78326878348,0.0,0.0,0.0,193.0,0.0,193.0,0.0,0.0,0.0,179.0,193.0,0.0,179.0,1744420351.856816,0.0,2025-04-11 21:12:31.856,STOP,7
192.0,27718.264188559555,30135.20302000082,-32131.102041137463,-29323.253550917336,-36489.13341631096,-32320.5777788851,-6417.543461029943,-38259.0786527489,0.0,0.0,0.0,193.0,0.0,193.0,0.0,0.0,0.0,179.0,193.0,0.0,179.0,1744420351.8568594,0.0,2025-04-11 21:12:31.856,STOP,7
193.0,27694.727801648118,30148.34584574054,-32121.06610787703,-29307.003832698327,-36475.99059057124,-32302.33875540957,-6745.95764231177,-38238.38093738329,0.0,0.0,0.0,193.0,0.0,193.0,0.0,0.0,0.0,179.0,193.0,0.0,179.0,1744420351.8569024,0.0,2025-04-11 21:12:31.856,STOP,7
194.0,27705.568397708943,30163.701494181336,-32109.085572848988,-29298.197245382937,-36467.76514861169,-32297.086095462575,-6757.468790706253,-38231.74246928006,0.0,0.0,0.0,193.0,0.0,193.0,0.0,0.0,0.0,178.0,193.0,0.0,178.0,1744420351.85696,0.0,2025-04-11 21:12:31.856,STOP,7
195.0,27727.987197397615,30155.140776054955,-32138.791041230088,-29328.930894008983,-36503.17031182889,-32342.01310181774,-6294.742976992486,-38260.352702182856,0.0,0.0,0.0,193.0,0.0,193.0,0.0,0.0,0.0,179.0,193.0,0.0,179.0,1744420351.857004,0.0,2025-04-11 21:12:31.857,STOP,7
196.0,27717.683043203717,30131.894961821436,-32136.421756317828,-29336.977522012894,-36499.34816352704,-32334.279398236205,-6383.389995502233,-38286.66070540675,0.0,0.0,0.0,193.0,0.0,193.0,0.0,0.0,0.0,179.0,193.0,0.0,179.0,1744420351.857047,0.0,2025-04-11 21:12:31.857,STOP,7
197.0,27689.698659145673,30139.15927876941,-32124.754145712155,-29318.04559445925,-36485.84770987603,-32309.647775846457,-6713.972295996225,-38243.85711477484,0.0,0.0,0.0,193.0,0.0,194.0,0.0,0.0,0.0,180.0,194.0,0.0,180.0,1744420351.8570902,0.0,2025-04-11 21:12:31.857,STOP,7
198.0,27690.928005090715,30147.652941662425,-32119.657947976346,-29312.770582767796,-36481.37736098497,-32302.383458898483,-6814.286925111643,-38234.02234721451,0.0,0.0,0.0,193.0,0.0,193.0,0.0,0.0,0.0,179.0,193.0,0.0,179.0,1744420351.8571332,0.0,2025-04-11 21:12:31.857,STOP,7
199.0,27729.216543342656,30157.174784800387,-32131.21379985974,-29324.237027673367,-36501.94096588385,-32324.846962076066,-6373.778745386451,-38233.217684414114,0.0,0.0,0.0,193.0,0.0,194.0,0.0,0.0,0.0,179.0,194.0,0.0,179.0,1744420351.8571756,0.0,2025-04-11 21:12:31.857,STOP,7
200.0,27725.01441538506,30142.0650055486,-32133.471326049726,-29340.397338914558,-36509.76407644321,-32330.814877845634,-6340.228776959036,-38282.59268791589,0.0,0.0,0.0,193.0,0.0,194.0,0.0,0.0,0.0,179.0,194.0,0.0,179.0,1744420351.8572185,0.0,2025-04-11 21:12:31.857,STOP,7
201.0,27701.276862773524,30144.411938716406,-32119.523837509616,-29317.017414214304,-36494.38607625796,-32307.077325234095,-6679.081222901491,-38256.508202136545,0.0,0.0,0.0,193.0,0.0,194.0,0.0,0.0,0.0,179.0,194.0,0.0,179.0,1744420351.8572743,0.0,2025-04-11 21:12:31.857,STOP,7
202.0,27689.877473101318,30152.413863231406,-32111.901892650356,-29307.763792009806,-36483.47842496377,-32295.90145300644,-6859.415097166908,-38232.25655940254,0.0,0.0,0.0,193.0,0.0,193.0,0.0,0.0,0.0,179.0,193.0,0.0,179.0,1744420351.8573196,0.0,2025-04-11 21:12:31.857,STOP,7
203.0,27723.852124673384,30160.840470891057,-32121.557846255047,-29313.23996940136,-36494.34137276904,-32315.30276719365,-6466.650243598252,-38220.61130054132,0.0,0.0,0.0,193.0,0.0,193.0,0.0,0.0,0.0,179.0,193.0,0.0,179.0,1744420351.8573945,0.0,2025-04-11 21:12:31.857,STOP,7
204.0,27727.741328208605,30135.91827582339,-32132.465497549238,-29336.597542357154,-36504.4667130073,-32329.741994111777,-6298.766290994441,-38268.868716820325,0.0,0.0,0.0,193.0,0.0,193.0,0.0,0.0,0.0,179.0,193.0,0.0,179.0,1744420351.8574572,0.0,2025-04-11 21:12:31.857,STOP,7
205.0,27702.550912207476,30136.164145012397,-32120.484962521194,-29317.911483992517,-36492.64264019044,-32313.000537514752,-6608.650876122818,-38250.00384450005,0.0,0.0,0.0,193.0,0.0,193.0,0.0,0.0,0.0,179.0,193.0,0.0,179.0,1744420351.8575006,0.0,2025-04-11 21:12:31.857,STOP,7
206.0,27679.662725885242,30145.663636405905,-32116.372241541416,-29315.810420013717,-36488.37345699948,-32311.9276537809,-6856.196445965344,-38245.42173688671,0.0,0.0,0.0,193.0,0.0,193.0,0.0,0.0,0.0,179.0,193.0,0.0,179.0,1744420351.8575432,0.0,2025-04-11 21:12:31.857,STOP,7
207.0,27709.479952988622,30149.664598663403,-32122.295453822073,-29319.05142295974,-36496.84476814804,-32331.977168557307,-6563.187427900723,-38239.14089669477,0.0,0.0,0.0,193.0,0.0,193.0,0.0,0.0,0.0,179.0,193.0,0.0,179.0,1744420351.857586,0.0,2025-04-11 21:12:31.857,STOP,7
208.0,27725.975540396637,30133.414880444394,-32135.59474177298,-29343.5265831383,-36513.943852656346,-32349.702101910367,-6284.327064076312,-38282.95031582717,0.0,0.0,0.0,193.0,0.0,193.0,0.0,0.0,0.0,179.0,193.0,0.0,179.0,1744420351.8576288,0.0,2025-04-11 21:12:31.857,STOP,7
209.0,27702.886188374305,30129.23510423125,-32125.424698045816,-29329.601446342644,-36504.04202986265,-32330.30078772316,-6573.580989072441,-38272.75792035555,0.0,0.0,0.0,193.0,0.0,193.0,0.0,0.0,0.0,179.0,193.0,0.0,179.0,1744420351.8576863,0.0,2025-04-11 21:12:31.857,STOP,7
210.0,27684.848330598874,30145.73069163927,-32114.472343262714,-29317.889132248063,-36488.842843633036,-32317.202665472352,-6864.980681536279,-38260.1291847383,0.0,0.0,0.0,193.0,0.0,193.0,0.0,0.0,0.0,179.0,193.0,0.0,179.0,1744420351.8577297,0.0,2025-04-11 21:12:31.857,STOP,7
211.0,27710.977519867127,30154.470223721295,-32115.6793374633,-29314.178742668482,-36488.619326188484,-32329.943159811875,-6661.468048270709,-38247.88042877679,0.0,0.0,0.0,193.0,0.0,193.0,0.0,0.0,0.0,179.0,193.0,0.0,179.0,1744420351.8577724,0.0,2025-04-11 21:12:31.857,STOP,7
212.0,27728.523639264542,30142.24381950424,-32138.992206930187,-29344.75592908334,-36514.79321894565,-32359.31335202615,-6260.187180064581,-38277.965876813636,0.0,0.0,0.0,193.0,0.0,194.0,0.0,0.0,0.0,179.0,194.0,0.0,179.0,1744420351.8578155,0.0,2025-04-11 21:12:31.857,STOP,7
213.0,27703.690851174695,30126.374080940972,-32129.64917774787,-29335.144678967557,-36506.45601826382,-32334.860543592044,-6504.469395216632,-38279.06111229195,0.0,0.0,0.0,193.0,0.0,194.0,0.0,0.0,0.0,179.0,194.0,0.0,179.0,1744420351.8578582,0.0,2025-04-11 21:12:31.857,STOP,7
214.0,27682.90372883126,30145.39541547244,-32111.72307869471,-29310.60246355563,-36483.16550054139,-32307.05497348964,-6817.72909375776,-38240.1243734508,0.0,0.0,0.0,193.0,0.0,194.0,0.0,0.0,0.0,180.0,194.0,0.0,180.0,1744420351.857901,0.0,2025-04-11 21:12:31.857,STOP,7
215.0,27695.107781303857,30156.057197577622,-32111.387802527883,-29308.434344343466,-36481.712637151795,-32317.023851516708,-6726.824549058027,-38231.98833846907,0.0,0.0,0.0,193.0,0.0,194.0,0.0,0.0,0.0,179.0,194.0,0.0,179.0,1744420351.8579435,0.0,2025-04-11 21:12:31.857,STOP,7
216.0,27716.364290280857,30147.608238173514,-32138.27695110762,-29340.307931936735,-36511.149884599436,-32354.4853752238,-6285.019968154427,-38259.302170193456,0.0,0.0,0.0,193.0,0.0,194.0,0.0,0.0,0.0,180.0,194.0,0.0,180.0,1744420351.8580291,0.0,2025-04-11 21:12:31.858,STOP,7
217.0,27704.227293041622,30123.73657509525,-32127.726927724714,-29338.609199358132,-36499.45992224931,-32340.56023842815,-6445.594900321353,-38278.41291170275,0.0,0.0,0.0,193.0,0.0,194.0,0.0,0.0,0.0,180.0,194.0,0.0,180.0,1744420351.8580728,0.0,2025-04-11 21:12:31.858,STOP,7
218.0,27682.143769519782,30132.856086833013,-32112.21481707273,-29320.437231115968,-36481.82439587407,-32323.662319619936,-6772.109183324478,-38251.255542189545,0.0,0.0,0.0,193.0,0.0,194.0,0.0,0.0,0.0,180.0,194.0,0.0,180.0,1744420351.8581157,0.0,2025-04-11 21:12:31.858,STOP,7
219.0,27683.775446865016,30136.34295896804,-32113.198293828762,-29321.353652638634,-36486.182986042855,-32332.714776124332,-6794.013892890679,-38258.05047250396,0.0,0.0,0.0,193.0,0.0,194.0,0.0,0.0,0.0,179.0,194.0,0.0,179.0,1744420351.8582685,0.0,2025-04-11 21:12:31.858,STOP,7
220.0,27715.291406547,30142.087357293054,-32131.05733764855,-29335.5246586233,-36507.931233397874,-32352.965456600843,-6329.589346598309,-38259.8833155493,0.0,0.0,0.0,193.0,0.0,194.0,0.0,0.0,0.0,180.0,194.0,0.0,180.0,1744420351.8583403,0.0,2025-04-11 21:12:31.858,STOP,7
221.0,27702.930891863216,30123.557761139604,-32133.60543651646,-29344.308894194233,-36511.59691948854,-32345.00823557475,-6383.92643736916,-38278.70348438066,0.0,0.0,0.0,193.0,0.0,194.0,0.0,0.0,0.0,179.0,194.0,0.0,179.0,1744420351.858424,0.0,2025-04-11 21:12:31.858,STOP,7
222.0,27681.3838102083,30137.92993282437,-32115.0311368741,-29319.81138227122,-36488.641677932945,-32318.186142228384,-6716.229822186211,-38243.499486863555,0.0,0.0,0.0,193.0,0.0,194.0,0.0,0.0,0.0,180.0,194.0,0.0,180.0,1744420351.8584685,0.0,2025-04-11 21:12:31.858,STOP,7
223.0,27687.95522307816,30148.882287607466,-32097.283851776585,-29303.22638788538,-36471.609648658,-32306.764400811724,-6830.983678219757,-38230.356661123835,0.0,0.0,0.0,193.0,0.0,194.0,0.0,0.0,0.0,179.0,194.0,0.0,179.0,1744420351.8585122,0.0,2025-04-11 21:12:31.858,STOP,7
224.0,27716.990139125603,30147.876459106978,-32116.372241541416,-29317.866780503606,-36496.688305936856,-32340.15790702795,-6387.16744031518,-38236.14576293776,0.0,0.0,0.0,193.0,0.0,193.0,0.0,0.0,0.0,179.0,193.0,0.0,179.0,1744420351.8585837,0.0,2025-04-11 21:12:31.858,STOP,7
225.0,27716.900732147784,30127.648130374928,-32114.919378151822,-29326.941588752463,-36494.52018672469,-32337.721566882323,-6311.685599289608,-38262.520821395025,0.0,0.0,0.0,193.0,0.0,194.0,0.0,0.0,0.0,179.0,194.0,0.0,179.0,1744420351.858628,0.0,2025-04-11 21:12:31.858,STOP,7
226.0,27687.128208533315,30128.743365853235,-32112.21481707273,-29312.435306600968,-36492.486177979255,-32322.477677163803,-6619.69263788374,-38235.13993443727,0.0,0.0,0.0,193.0,0.0,194.0,0.0,0.0,0.0,179.0,194.0,0.0,179.0,1744420351.8586717,0.0,2025-04-11 21:12:31.858,STOP,7
227.0,27681.160292763747,30144.411938716406,-32100.390744255874,-29299.69481226144,-36483.76899764169,-32313.559331126136,-6835.319916644087,-38237.844495516365,0.0,0.0,0.0,193.0,0.0,193.0,0.0,0.0,0.0,179.0,193.0,0.0,179.0,1744420351.8587153,0.0,2025-04-11 21:12:31.858,STOP,7
228.0,27710.508133233565,30151.139813797454,-32110.605491471946,-29303.159332652016,-36502.3656490285,-32331.776002857212,-6481.9388368056825,-38232.591835569365,0.0,0.0,0.0,193.0,0.0,194.0,0.0,0.0,0.0,179.0,194.0,0.0,179.0,1744420351.858759,0.0,2025-04-11 21:12:31.858,STOP,7
229.0,27718.420650770742,30139.382796213962,-32120.26144507664,-29323.834696273174,-36510.434628776864,-32342.683654151402,-6292.284285102402,-38272.26618197753,0.0,0.0,0.0,193.0,0.0,193.0,0.0,0.0,0.0,179.0,193.0,0.0,179.0,1744420351.8588028,0.0,2025-04-11 21:12:31.858,STOP,7
230.0,27692.04559231348,30130.889133320947,-32112.527741495105,-29310.17778041098,-36498.11881758199,-32326.12101151002,-6597.765576573083,-38255.14474572477,0.0,0.0,0.0,193.0,0.0,193.0,0.0,0.0,0.0,179.0,193.0,0.0,179.0,1744420351.8588464,0.0,2025-04-11 21:12:31.858,STOP,7
231.0,27685.04949629897,30148.39054922945,-32091.941784851766,-29291.759942979807,-36474.04598880363,-32308.083153734584,-6850.4520476403295,-38242.00191998505,0.0,0.0,0.0,193.0,0.0,193.0,0.0,0.0,0.0,179.0,193.0,0.0,179.0,1744420351.8589087,0.0,2025-04-11 21:12:31.858,STOP,7
232.0,27712.29627278999,30152.48091846477,-32097.462665732226,-29294.55391103672,-36482.24907901872,-32317.73910733928,-6555.386669085821,-38214.218701627105,0.0,0.0,0.0,193.0,0.0,193.0,0.0,0.0,0.0,178.0,193.0,0.0,178.0,1744420351.8589525,0.0,2025-04-11 21:12:31.858,STOP,7
233.0,27717.034842614514,30130.978540298765,-32117.55688399755,-29325.108745707126,-36504.24319556275,-32340.604941917056,-6251.425296238101,-38251.63552184529,0.0,0.0,0.0,193.0,0.0,193.0,0.0,0.0,0.0,179.0,193.0,0.0,179.0,1744420351.8590097,0.0,2025-04-11 21:12:31.859,STOP,7
234.0,27688.961051578648,30117.96982502578,-32112.818314173022,-29318.716146792907,-36500.19752981634,-32325.58456964309,-6513.633610443308,-38246.82989678739,0.0,0.0,0.0,193.0,0.0,193.0,0.0,0.0,0.0,179.0,193.0,0.0,179.0,1744420351.859104,0.0,2025-04-11 21:12:31.859,STOP,7
235.0,27676.846406083874,30146.11067129501,-32093.21583428572,-29295.60444302612,-36479.45511096181,-32298.650717574445,-6820.880689725958,-38221.483018575076,0.0,0.0,0.0,193.0,0.0,193.0,0.0,0.0,0.0,178.0,193.0,0.0,178.0,1744420351.8591475,0.0,2025-04-11 21:12:31.859,STOP,7
236.0,27691.33033649091,30148.859935863013,-32101.396572756363,-29299.001908183327,-36487.389980243446,-32317.761459083733,-6651.36505977691,-38223.651137787245,0.0,0.0,0.0,193.0,0.0,193.0,0.0,0.0,0.0,179.0,193.0,0.0,179.0,1744420351.8591893,0.0,2025-04-11 21:12:31.859,STOP,7
237.0,27716.744269936597,30139.069871791588,-32115.791096185578,-29320.101954949136,-36500.532805983166,-32336.22400000382,-6254.621595695209,-38248.68509157719,0.0,0.0,0.0,193.0,0.0,193.0,0.0,0.0,0.0,179.0,193.0,0.0,179.0,1744420351.8592308,0.0,2025-04-11 21:12:31.859,STOP,7
238.0,27697.00767958256,30127.893999563934,-32108.54913098206,-29314.066983946203,-36492.88850937945,-32318.96845328432,-6476.619121625319,-38250.2273619446,0.0,0.0,0.0,193.0,0.0,193.0,0.0,0.0,0.0,179.0,193.0,0.0,179.0,1744420351.8592727,0.0,2025-04-11 21:12:31.859,STOP,7
239.0,27664.776464078008,30137.617008401994,-32108.21385481523,-29309.864855988606,-36487.76995989918,-32318.16379048393,-6807.782567475148,-38251.9260945232,0.0,0.0,0.0,193.0,0.0,193.0,0.0,0.0,0.0,179.0,193.0,0.0,179.0,1744420351.8593311,0.0,2025-04-11 21:12:31.859,STOP,7
240.0,27678.835711340394,30137.125270023975,-32103.16236056833,-29304.254568130324,-36475.074169048574,-32316.91209279443,-6717.637982086895,-38225.1710564102,0.0,0.0,0.0,193.0,0.0,193.0,0.0,0.0,0.0,179.0,193.0,0.0,179.0,1744420351.859373,0.0,2025-04-11 21:12:31.859,STOP,7
241.0,27705.411935497756,30131.91731356589,-32123.07776487801,-29327.545085852755,-36497.69413443734,-32341.16373552844,-6249.9053776151395,-38243.58889384138,0.0,0.0,0.0,193.0,0.0,193.0,0.0,0.0,0.0,179.0,193.0,0.0,179.0,1744420351.8594148,0.0,2025-04-11 21:12:31.859,STOP,7
242.0,27685.563586421442,30107.598615598516,-32122.78719220009,-29333.267132433313,-36498.632907704465,-32340.269665750227,-6398.365664287289,-38279.19522275868,0.0,0.0,0.0,193.0,0.0,193.0,0.0,0.0,0.0,178.0,193.0,0.0,178.0,1744420351.8594563,0.0,2025-04-11 21:12:31.859,STOP,7
243.0,27659.032065752992,30122.954264039312,-32115.70168920776,-29316.212751413914,-36491.05566633411,-32321.114220752028,-6727.115121735946,-38238.91737925022,0.0,0.0,0.0,193.0,0.0,193.0,0.0,0.0,0.0,179.0,193.0,0.0,179.0,1744420351.8594978,0.0,2025-04-11 21:12:31.859,STOP,7
244.0,27672.733685104096,30138.10874678001,-32099.63078494439,-29300.27595761728,-36476.750549882716,-32312.084115992086,-6787.665997465372,-38232.63653905827,0.0,0.0,0.0,193.0,0.0,193.0,0.0,0.0,0.0,179.0,193.0,0.0,179.0,1744420351.8595393,0.0,2025-04-11 21:12:31.859,STOP,7
245.0,27696.44888597118,30128.542200153137,-32128.688052736292,-29323.70058580644,-36507.39479153095,-32346.528154197713,-6329.25407043148,-38243.56654209692,0.0,0.0,0.0,193.0,0.0,193.0,0.0,0.0,0.0,179.0,193.0,0.0,179.0,1744420351.8595815,0.0,2025-04-11 21:12:31.859,STOP,7
246.0,27688.111685289346,30108.53738886564,-32125.961139912743,-29334.00474000034,-36505.003154874226,-32341.34254948408,-6356.366736455767,-38273.696693622675,0.0,0.0,0.0,193.0,0.0,193.0,0.0,0.0,0.0,180.0,193.0,0.0,180.0,1744420351.859662,0.0,2025-04-11 21:12:31.859,STOP,7
247.0,27667.503376901554,30124.474182662274,-32111.16428508333,-29313.865818246108,-36494.006096602214,-32319.124915495508,-6692.939304463781,-38248.34981541036,0.0,0.0,0.0,193.0,0.0,194.0,0.0,0.0,0.0,179.0,194.0,0.0,179.0,1744420351.8597214,0.0,2025-04-11 21:12:31.859,STOP,7
248.0,27668.062170512938,30139.047520047134,-32104.525816980105,-29306.04270768675,-36487.07705582107,-32314.38634567098,-6828.994372963235,-38247.545152609964,0.0,0.0,0.0,193.0,0.0,193.0,0.0,0.0,0.0,179.0,193.0,0.0,179.0,1744420351.8597634,0.0,2025-04-11 21:12:31.859,STOP,7
249.0,27701.366269751343,30139.025168302676,-32123.100116622463,-29321.308949149723,-36509.048820620636,-32341.476659950815,-6403.372455045278,-38243.96887349711,0.0,0.0,0.0,193.0,0.0,194.0,0.0,0.0,0.0,179.0,194.0,0.0,179.0,1744420351.859821,0.0,2025-04-11 21:12:31.859,STOP,7
250.0,27702.95324360767,30121.970787283277,-32122.45191603326,-29330.204943442935,-36508.37826828698,-32343.130689040507,-6311.998523711983,-38277.94352506918,0.0,0.0,0.0,193.0,0.0,194.0,0.0,0.0,0.0,180.0,194.0,0.0,180.0,1744420351.8598633,0.0,2025-04-11 21:12:31.859,STOP,7
251.0,27677.695772373176,30132.09612752153,-32102.402401256848,-29296.40910582651,-36486.182986042855,-32312.15117122545,-6638.445751481742,-38253.5801236129,0.0,0.0,0.0,193.0,0.0,194.0,0.0,0.0,0.0,179.0,194.0,0.0,179.0,1744420351.8599055,0.0,2025-04-11 21:12:31.859,STOP,7
252.0,27667.078693756903,30146.87063060649,-32094.48988371967,-29282.21574809739,-36480.08095980656,-32295.946156495353,-6846.585195849561,-38235.318748392914,0.0,0.0,0.0,193.0,0.0,194.0,0.0,0.0,0.0,180.0,194.0,0.0,180.0,1744420351.8599472,0.0,2025-04-11 21:12:31.859,STOP,7
253.0,27694.660746414753,30146.33418873956,-32111.34309903897,-29290.351783079124,-36496.57654721457,-32317.71675559482,-6477.222618725613,-38217.88438771777,0.0,0.0,0.0,193.0,0.0,193.0,0.0,0.0,0.0,179.0,193.0,0.0,179.0,1744420351.85999,0.0,2025-04-11 21:12:31.859,STOP,7
254.0,27703.713202919153,30128.989235042245,-32117.758049697644,-29309.149600166038,-36498.208224559814,-32327.193895243872,-6255.38155500669,-38251.63552184529,0.0,0.0,0.0,193.0,0.0,193.0,0.0,0.0,0.0,179.0,193.0,0.0,179.0,1744420351.860048,0.0,2025-04-11 21:12:31.860,STOP,7
255.0,27674.00773453805,30121.72491809427,-32114.606453729448,-29303.293443118746,-36492.53088146816,-32316.643871860968,-6550.558692283475,-38240.39259438427,0.0,0.0,0.0,193.0,0.0,193.0,0.0,0.0,0.0,178.0,193.0,0.0,178.0,1744420351.860091,0.0,2025-04-11 21:12:31.860,STOP,7
0.0,27653.310019172433,30132.274941477175,-32109.040869360077,-29300.231254128368,-36487.14411105443,-32310.653604346946,-6834.001163721224,-38241.71134730713,0.0,0.0,0.0,193.0,0.0,193.0,0.0,0.0,0.0,179.0,193.0,0.0,179.0,1744420351.8601406,0.0,2025-04-11 21:12:31.860,STOP,7
1.0,27687.75405737806,30143.00377881572,-32108.370317026416,-29296.43145757097,-36490.98861110075,-32320.711889351835,-6584.510992111086,-38229.239073901066,0.0,0.0,0.0,193.0,0.0,193.0,0.0,0.0,0.0,179.0,193.0,0.0,179.0,1744420351.860185,0.0,2025-04-11 21:12:31.860,STOP,7
2.0,27700.1369238063,30124.1612582399,-32129.090384136485,-29327.723899808396,-36512.28982356666,-32348.673921665424,-6253.235787538981,-38266.94646679717,0.0,0.0,0.0,193.0,0.0,194.0,0.0,0.0,0.0,179.0,194.0,0.0,179.0,1744420351.86023,0.0,2025-04-11 21:12:31.860,STOP,7
3.0,27677.159330506245,30125.323548951576,-32122.742488711177,-29320.124306693593,-36504.444361262846,-32337.989787815786,-6505.788148139495,-38269.516917409535,0.0,0.0,0.0,193.0,0.0,193.0,0.0,0.0,0.0,179.0,193.0,0.0,179.0,1744420351.8602736,0.0,2025-04-11 21:12:31.860,STOP,7
4.0,27663.435359410687,30147.40707247342,-32103.855264646445,-29297.481989560365,-36488.149939554925,-32313.335813681584,-6809.771872731671,-38247.679263076694,0.0,0.0,0.0,193.0,0.0,194.0,0.0,0.0,0.0,179.0,194.0,0.0,179.0,1744420351.8603365,0.0,2025-04-11 21:12:31.860,STOP,7
5.0,27680.914423574737,30143.763738127203,-32109.86788390492,-29298.353707594124,-36496.62125070349,-32325.472810920815,-6663.077373871491,-38240.906684506735,0.0,0.0,0.0,193.0,0.0,194.0,0.0,0.0,0.0,179.0,194.0,0.0,179.0,1744420351.8604105,0.0,2025-04-11 21:12:31.860,STOP,7
6.0,27708.1388483213,30139.33809272505,-32123.010709644645,-29320.794859027254,-36506.47837000828,-32342.84011636259,-6250.821799137807,-38248.260408432536,0.0,0.0,0.0,193.0,0.0,194.0,0.0,0.0,0.0,179.0,194.0,0.0,179.0,1744420351.8604531,0.0,2025-04-11 21:12:31.860,STOP,7
7.0,27698.594653438886,30130.755022854213,-32104.235244302185,-29307.808495498717,-36482.11496855199,-32318.029680017196,-6456.457848126633,-38247.94748401016,0.0,0.0,0.0,193.0,0.0,193.0,0.0,0.0,0.0,179.0,193.0,0.0,179.0,1744420351.860495,0.0,2025-04-11 21:12:31.860,STOP,7
8.0,27667.883356557293,30139.271037491686,-32104.056430346543,-29303.338146607657,-36480.99738132922,-32310.25127294675,-6770.477505979241,-38228.63557680078,0.0,0.0,0.0,193.0,0.0,193.0,0.0,0.0,0.0,179.0,193.0,0.0,179.0,1744420352.33327,0.0,2025-04-11 21:12:32.333,STOP,7
9.0,27679.260394485045,30144.411938716406,-32096.859168631934,-29300.14184715055,-36477.532860938656,-32317.78381082819,-6723.784711812104,-38228.21089365613,0.0,0.0,0.0,193.0,0.0,193.0,0.0,0.0,0.0,179.0,193.0,0.0,179.0,1744420352.333468,0.0,2025-04-11 21:12:32.333,STOP,7
10.0,27709.859932644362,30133.370176955486,-32116.819276430524,-29325.242856173856,-36504.22084381829,-32355.088872324097,-6273.397061037667,-38263.4819464066,0.0,0.0,0.0,193.0,0.0,193.0,0.0,0.0,0.0,179.0,193.0,0.0,179.0,1744420352.3335173,0.0,2025-04-11 21:12:32.333,STOP,7
11.0,27696.225368526622,30114.795877313125,-32110.806657172045,-29324.684062562475,-36494.76605591369,-32340.582590172602,-6410.234440593057,-38289.29821125248,0.0,0.0,0.0,193.0,0.0,193.0,0.0,0.0,0.0,179.0,193.0,0.0,179.0,1744420352.3335652,0.0,2025-04-11 21:12:32.333,STOP,7
12.0,27666.296382700966,30130.95618855431,-32098.289680277074,-29303.047573929736,-36476.01294231569,-32313.514627637225,-6726.601031613473,-38229.70846053463,0.0,0.0,0.0,193.0,0.0,193.0,0.0,0.0,0.0,179.0,193.0,0.0,179.0,1744420352.3336117,0.0,2025-04-11 21:12:32.333,STOP,7
13.0,27666.966935034627,30136.67823513487,-32094.623994186404,-29301.661765773508,-36472.54842192512,-32313.067592748117,-6790.05763412209,-38227.78621051148,0.0,0.0,0.0,193.0,0.0,193.0,0.0,0.0,0.0,179.0,193.0,0.0,179.0,1744420352.3337092,0.0,2025-04-11 21:12:32.333,STOP,7
14.0,27697.320604004934,30129.838601331547,-32115.813447930035,-29318.00089097034,-36493.22378554628,-32342.035453562195,-6333.7244193225415,-38235.36345188182,0.0,0.0,0.0,193.0,0.0,193.0,0.0,0.0,0.0,180.0,193.0,0.0,180.0,1744420352.3337567,0.0,2025-04-11 21:12:32.333,STOP,7
15.0,27693.185531280702,30104.75994405269,-32115.07584036301,-29326.405146885532,-36491.770922156684,-32339.800279116665,-6335.244337945502,-38265.605362129856,0.0,0.0,0.0,193.0,0.0,194.0,0.0,0.0,0.0,180.0,194.0,0.0,180.0,1744420352.333804,0.0,2025-04-11 21:12:32.333,STOP,7
16.0,27664.66470535573,30115.71229883579,-32106.716287936724,-29308.14377166555,-36487.79231164364,-32320.667185862923,-6664.396126794354,-38248.79685029946,0.0,0.0,0.0,193.0,0.0,194.0,0.0,0.0,0.0,179.0,194.0,0.0,179.0,1744420352.3338592,0.0,2025-04-11 21:12:32.333,STOP,7
17.0,27663.368304177322,30134.599522900528,-32095.428656986795,-29295.090352903648,-36481.422064473874,-32313.671089848413,-6828.904965985414,-38252.41783290122,0.0,0.0,0.0,193.0,0.0,193.0,0.0,0.0,0.0,179.0,193.0,0.0,179.0,1744420352.333902,0.0,2025-04-11 21:12:32.333,STOP,7
18.0,27707.177723309724,30146.557706184114,-32098.244976788163,-29293.50337904732,-36488.30640176611,-32325.852790576555,-6413.140167372248,-38228.16619016721,0.0,0.0,0.0,193.0,0.0,193.0,0.0,0.0,0.0,179.0,193.0,0.0,179.0,1744420352.333944,0.0,2025-04-11 21:12:32.333,STOP,7
19.0,27709.412897755254,30126.798764085623,-32105.241072802673,-29308.836675743663,-36495.81658790309,-32324.131706253494,-6292.127822891214,-38246.89695202076,0.0,0.0,0.0,193.0,0.0,193.0,0.0,0.0,0.0,179.0,193.0,0.0,179.0,1744420352.333986,0.0,2025-04-11 21:12:32.333,STOP,7
20.0,27679.729781118607,30126.64230187444,-32100.43544774478,-29296.051477915225,-36492.15090181243,-32307.971395012308,-6605.655742365807,-38224.88048373228,0.0,0.0,0.0,193.0,0.0,193.0,0.0,0.0,0.0,179.0,193.0,0.0,179.0,1744420352.3340447,0.0,2025-04-11 21:12:32.334,STOP,7
21.0,27666.743417590074,30143.696682893835,-32090.935956351277,-29283.914480675994,-36483.098445308024,-32298.494255363257,-6826.915660728891,-38223.18175115368,0.0,0.0,0.0,193.0,0.0,193.0,0.0,0.0,0.0,179.0,193.0,0.0,179.0,1744420352.3340864,0.0,2025-04-11 21:12:32.334,STOP,7
22.0,27691.375039979823,30144.30017999413,-32104.79403791357,-29292.162274380004,-36500.62221296099,-32318.96845328432,-6487.459717686143,-38223.226454642594,0.0,0.0,0.0,193.0,0.0,193.0,0.0,0.0,0.0,179.0,193.0,0.0,179.0,1744420352.334128,0.0,2025-04-11 21:12:32.334,STOP,7
23.0,27709.34584252189,30132.654921132915,-32108.839703659978,-29307.47321933189,-36501.113951339,-32325.58456964309,-6267.473848757011,-38264.37601618481,0.0,0.0,0.0,193.0,0.0,193.0,0.0,0.0,0.0,178.0,193.0,0.0,178.0,1744420352.3341868,0.0,2025-04-11 21:12:32.334,STOP,7
24.0,27675.795874094474,30124.027147773166,-32111.387802527883,-29299.828922728175,-36500.42104726089,-32317.35912768354,-6559.789962743516,-38260.7326818386,0.0,0.0,0.0,193.0,0.0,193.0,0.0,0.0,0.0,179.0,193.0,0.0,179.0,1744420352.3342345,0.0,2025-04-11 21:12:32.334,STOP,7
25.0,27665.312905944935,30139.91923808089,-32093.416999985817,-29281.6122509971,-36484.21603253079,-32296.281432662185,-6850.608509851517,-38242.4266031297,0.0,0.0,0.0,193.0,0.0,193.0,0.0,0.0,0.0,179.0,193.0,0.0,179.0,1744420352.3342755,0.0,2025-04-11 21:12:32.334,STOP,7
26.0,27692.626737669318,30145.44011896135,-32094.93691860878,-29280.27114632978,-36484.28308776415,-32300.707078064333,-6574.452707106198,-38195.197367095636,0.0,0.0,0.0,193.0,0.0,193.0,0.0,0.0,0.0,179.0,193.0,0.0,179.0,1744420352.3343174,0.0,2025-04-11 21:12:32.334,STOP,7
27.0,27702.39444999629,30123.691871606337,-32122.6307299889,-29316.52567583629,-36513.452114278334,-32336.738090126288,-6222.6138976352095,-38247.90278052125,0.0,0.0,0.0,193.0,0.0,194.0,0.0,0.0,0.0,179.0,194.0,0.0,179.0,1744420352.3343587,0.0,2025-04-11 21:12:32.334,STOP,7
28.0,27680.042705540982,30109.252644688208,-32119.657947976346,-29317.307986892225,-36505.74076244125,-32331.999520301764,-6491.259514243546,-38266.32061795242,0.0,0.0,0.0,193.0,0.0,194.0,0.0,0.0,0.0,180.0,194.0,0.0,180.0,1744420352.3344145,0.0,2025-04-11 21:12:32.334,STOP,7
29.0,27659.85908029784,30125.39060418494,-32104.257596046642,-29301.058268673216,-36482.629058674465,-32314.341642182073,-6810.732997743249,-38250.02619624451,0.0,0.0,0.0,193.0,0.0,194.0,0.0,0.0,0.0,179.0,194.0,0.0,179.0,1744420352.3344564,0.0,2025-04-11 21:12:32.334,STOP,7
30.0,27678.00869679555,30136.275903734673,-32101.709497178734,-29293.168102880492,-36483.523128452674,-32312.82172355911,-6653.8684551559045,-38218.15260865124,0.0,0.0,0.0,193.0,0.0,194.0,0.0,0.0,0.0,180.0,194.0,0.0,180.0,1744420352.3344977,0.0,2025-04-11 21:12:32.334,STOP,7
31.0,27705.635452942308,30132.833735088556,-32117.087497363987,-29312.502361834333,-36501.113951339,-32335.464040692335,-6220.8481098232405,-38233.642367558765,0.0,0.0,0.0,193.0,0.0,194.0,0.0,0.0,0.0,179.0,194.0,0.0,179.0,1744420352.3345394,0.0,2025-04-11 21:12:32.334,STOP,7
32.0,27683.998964309572,30112.20307495631,-32111.656023461346,-29310.13307692207,-36497.291803037144,-32326.143363254472,-6424.248984366534,-38257.31286493693,0.0,0.0,0.0,193.0,0.0,194.0,0.0,0.0,0.0,179.0,194.0,0.0,179.0,1744420352.3345807,0.0,2025-04-11 21:12:32.334,STOP,7
33.0,27655.232269195592,30121.121420993975,-32108.30326179305,-29300.5665302952,-36495.36955301399,-32316.420354416416,-6766.1636192993665,-38251.18848695618,0.0,0.0,0.0,193.0,0.0,194.0,0.0,0.0,0.0,180.0,194.0,0.0,180.0,1744420352.334622,0.0,2025-04-11 21:12:32.334,STOP,7
34.0,27676.824054339417,30138.555781669114,-32093.126427307896,-29284.27210858728,-36478.87396560597,-32306.40677290044,-6748.0810580350235,-38226.66862328871,0.0,0.0,0.0,193.0,0.0,193.0,0.0,0.0,0.0,179.0,193.0,0.0,179.0,1744420352.3346632,0.0,2025-04-11 21:12:32.334,STOP,7
35.0,27701.52273196253,30130.77737459867,-32119.903817165356,-29310.311890877714,-36503.2150153178,-32339.397947716472,-6279.141459362681,-38242.2254374296,0.0,0.0,0.0,193.0,0.0,194.0,0.0,0.0,0.0,179.0,194.0,0.0,179.0,1744420352.3347168,0.0,2025-04-11 21:12:32.334,STOP,7
36.0,27687.731705633607,30115.041746502135,-32115.321709552016,-29313.105858934625,-36496.59889895903,-32325.96454929883,-6391.637789206242,-38267.549963897465,0.0,0.0,0.0,193.0,0.0,194.0,0.0,0.0,0.0,179.0,194.0,0.0,179.0,1744420352.3347588,0.0,2025-04-11 21:12:32.334,STOP,7
37.0,27657.780368063497,30129.123345508975,-32106.20219781425,-29297.23612037136,-36483.8584046195,-32307.904339778943,-6724.231746701211,-38236.81631527142,0.0,0.0,0.0,193.0,0.0,194.0,0.0,0.0,0.0,180.0,194.0,0.0,180.0,1744420352.3348005,0.0,2025-04-11 21:12:32.334,STOP,7
38.0,27656.103987229348,30128.07281351958,-32104.414058257826,-29298.08548666066,-36483.12079705248,-32315.43687766038,-6802.976942417257,-38250.205010200145,0.0,0.0,0.0,193.0,0.0,193.0,0.0,0.0,0.0,179.0,193.0,0.0,179.0,1744420352.3348596,0.0,2025-04-11 21:12:32.334,STOP,7
39.0,27696.00185108207,30132.364348454998,-32117.959215397743,-29307.3167571207,-36501.3151170391,-32333.184162757894,-6348.297756707401,-38247.45574563214,0.0,0.0,0.0,193.0,0.0,194.0,0.0,0.0,0.0,180.0,194.0,0.0,180.0,1744420352.3349211,0.0,2025-04-11 21:12:32.334,STOP,7
40.0,27693.654917914264,30114.81822905758,-32114.472343262714,-29310.669518788996,-36494.162558813405,-32321.673014363412,-6341.234605459525,-38262.99020802858,0.0,0.0,0.0,193.0,0.0,193.0,0.0,0.0,0.0,179.0,193.0,0.0,179.0,1744420352.334964,0.0,2025-04-11 21:12:32.334,STOP,7
41.0,27663.413007666233,30128.542200153137,-32109.823180416013,-29296.23029187087,-36485.46773022029,-32306.0267932447,-6661.2221790817,-38232.882408247286,0.0,0.0,0.0,193.0,0.0,194.0,0.0,1.0,0.0,180.0,194.0,1.0,180.0,1744420352.3350053,0.0,2025-04-11 21:12:32.335,STOP,7
42.0,27660.976667520605,30143.20494451582,-32100.793075656067,-29287.244890599835,-36475.85648010451,-32300.707078064333,-6824.367561860987,-38229.28377738998,0.0,0.0,0.0,193.0,0.0,193.0,0.0,3.0,0.0,179.0,193.0,3.0,179.0,1744420352.3350472,0.0,2025-04-11 21:12:32.335,STOP,7
43.0,27692.38086848031,30140.187459014352,-32117.042793875076,-29297.124361649083,-36498.208224559814,-32326.63510163249,-6419.443359308643,-38235.60932107083,0.0,0.0,0.0,193.0,0.0,194.0,0.0,4.0,0.0,179.0,194.0,4.0,179.0,1744420352.3351088,0.0,2025-04-11 21:12:32.335,STOP,7
44.0,27695.733630148607,30120.562627382595,-32117.9815671422,-29310.08837343316,-36502.65622170642,-32326.657453376945,-6299.0345119279045,-38268.667551120234,0.0,0.0,0.0,193.0,0.0,194.0,0.0,5.0,0.0,180.0,194.0,5.0,180.0,1744420352.3351517,0.0,2025-04-11 21:12:32.335,STOP,7
45.0,27662.541289632478,30118.550970381617,-32111.276043805607,-29298.241948871848,-36493.15673031291,-32314.475752648803,-6606.326294699466,-38242.53836185198,0.0,0.0,0.0,193.0,0.0,194.0,0.0,6.0,0.0,180.0,194.0,6.0,180.0,1744420352.3351936,0.0,2025-04-11 21:12:32.335,STOP,7
46.0,27654.695827328662,30137.080566535067,-32098.64730818836,-29285.389695810045,-36477.734026638755,-32310.318328180118,-6827.765027018193,-38240.839629273374,0.0,0.0,0.0,193.0,0.0,194.0,0.0,7.0,0.0,180.0,194.0,7.0,180.0,1744420352.3352358,0.0,2025-04-11 21:12:32.335,STOP,7
47.0,27691.039763812994,30137.52760142417,-32106.69393619227,-29286.41787605499,-36491.65916343441,-32326.076308021107,-6494.344054978377,-38229.5743500679,0.0,0.0,0.0,193.0,0.0,194.0,0.0,8.0,0.0,180.0,194.0,8.0,180.0,1744420352.335278,0.0,2025-04-11 21:12:32.335,STOP,7
48.0,27706.57422620943,30123.58011288406,-32115.724040952213,-29302.84640822964,-36504.0643816071,-32328.713813866834,-6254.219264295014,-38255.05533874695,0.0,0.0,0.0,193.0,0.0,194.0,0.0,9.0,0.0,180.0,194.0,9.0,180.0,1744420352.3353198,0.0,2025-04-11 21:12:32.335,STOP,7
49.0,27680.020353796524,30122.507229150204,-32109.10792459344,-29291.491722046343,-36493.402599501926,-32305.758572311235,-6538.332288066422,-38239.43146937269,0.0,0.0,0.0,193.0,0.0,194.0,0.0,9.0,0.0,179.0,194.0,9.0,179.0,1744420352.335362,0.0,2025-04-11 21:12:32.335,STOP,7
50.0,27660.082597742392,30138.77929911367,-32099.049639588553,-29279.13120736256,-36482.494948207735,-32290.24646165925,-6827.787378762649,-38222.46649533111,0.0,0.0,0.0,193.0,0.0,194.0,0.0,10.0,0.0,180.0,194.0,10.0,180.0,1744420352.3354175,0.0,2025-04-11 21:12:32.335,STOP,7
51.0,27676.3323159614,30136.43236594586,-32113.26534906213,-29287.647222000032,-36500.97984087227,-32318.230845717295,-6595.776271316561,-38230.58017856839,0.0,0.0,0.0,193.0,0.0,194.0,0.0,11.0,0.0,179.0,194.0,11.0,179.0,1744420352.33546,0.0,2025-04-11 21:12:32.335,STOP,7
52.0,27694.325470247924,30127.603426886017,-32128.97862541421,-29310.825981000184,-36517.40837304692,-32334.435860447393,-6244.205682779037,-38251.34494916737,0.0,0.0,0.0,193.0,0.0,194.0,0.0,11.0,0.0,180.0,194.0,11.0,180.0,1744420352.3355029,0.0,2025-04-11 21:12:32.335,STOP,7
53.0,27676.95816480615,30111.7560400672,-32119.479134020705,-29302.93581520746,-36503.662050206905,-32318.141438739473,-6498.747348636073,-38254.16126896874,0.0,0.0,0.0,193.0,0.0,194.0,0.0,12.0,0.0,180.0,194.0,12.0,180.0,1744420352.3355591,0.0,2025-04-11 21:12:32.335,STOP,7
54.0,27658.830900052893,30132.67727287737,-32104.9281483803,-29285.970841165883,-36482.137320296446,-32299.500083863746,-6803.669846495372,-38232.79300126946,0.0,0.0,0.0,193.0,0.0,193.0,0.0,12.0,0.0,179.0,193.0,12.0,179.0,1744420352.335608,0.0,2025-04-11 21:12:32.335,STOP,7
55.0,27676.46642642813,30147.78705212916,-32103.899968135356,-29282.483969030854,-36480.50564295121,-32301.15411295344,-6668.620606496407,-38216.36446909481,0.0,0.0,0.0,193.0,0.0,193.0,0.0,12.0,0.0,179.0,193.0,12.0,179.0,1744420352.3356507,0.0,2025-04-11 21:12:32.335,STOP,7
56.0,27700.1369238063,30135.404185700918,-32121.22257008822,-29305.193341397448,-36499.28110829367,-32323.617616131025,-6238.908319343129,-38238.00095772755,0.0,0.0,0.0,193.0,0.0,193.0,0.0,13.0,0.0,180.0,193.0,13.0,180.0,1744420352.335693,0.0,2025-04-11 21:12:32.335,STOP,7
57.0,27677.695772373176,30109.856141788503,-32120.283796821095,-29306.780315253774,-36495.771884414185,-32315.325118938104,-6427.668801268197,-38251.546114867466,0.0,0.0,0.0,193.0,0.0,193.0,0.0,13.0,0.0,179.0,193.0,13.0,179.0,1744420352.335735,0.0,2025-04-11 21:12:32.335,STOP,7
58.0,27655.925173273707,30131.29146472114,-32105.710459436235,-29284.182701609458,-36483.27725926367,-32292.325173893594,-6753.020793559646,-38225.260463388026,0.0,0.0,0.0,193.0,0.0,193.0,0.0,13.0,0.0,179.0,193.0,13.0,179.0,1744420352.3357956,0.0,2025-04-11 21:12:32.335,STOP,7
59.0,27670.81143508094,30143.24964800473,-32097.574424454502,-29272.872718915074,-36480.84091911804,-32290.000592470242,-6732.636002616407,-38215.738620250064,0.0,0.0,0.0,193.0,0.0,193.0,0.0,13.0,0.0,179.0,193.0,13.0,179.0,1744420352.3358388,0.0,2025-04-11 21:12:32.335,STOP,7
60.0,27700.114572061848,30138.175802013375,-32118.98739564269,-29294.665669758997,-36504.24319556275,-32320.935406796387,-6273.039433126382,-38233.351794880844,0.0,0.0,0.0,193.0,0.0,193.0,0.0,14.0,0.0,179.0,193.0,14.0,179.0,1744420352.3358889,0.0,2025-04-11 21:12:32.335,STOP,7
61.0,27687.083505044404,30117.94747328132,-32116.595758985968,-29301.92998670697,-36503.43853276235,-32315.369822427016,-6387.7932891599285,-38267.21468773064,0.0,0.0,0.0,193.0,0.0,193.0,0.0,14.0,0.0,180.0,193.0,14.0,180.0,1744420352.33598,0.0,2025-04-11 21:12:32.335,STOP,7
62.0,27655.34402791787,30131.045595532134,-32107.8785786484,-29286.909614433007,-36490.7650936562,-32297.041391973664,-6707.512641848642,-38231.92128323571,0.0,0.0,0.0,193.0,0.0,193.0,0.0,14.0,0.0,180.0,193.0,14.0,180.0,1744420352.3360364,0.0,2025-04-11 21:12:32.336,STOP,7
63.0,27655.411083151233,30144.233124760765,-32100.658965189337,-29279.958221907407,-36478.65044816142,-32292.43693261587,-6782.793317174115,-38225.01459419901,0.0,0.0,0.0,193.0,0.0,193.0,0.0,14.0,0.0,179.0,193.0,14.0,179.0,1744420352.336086,0.0,2025-04-11 21:12:32.336,STOP,7
64.0,27684.71422013214,30135.739461867746,-32124.418869545327,-29300.49947506183,-36503.14796008444,-32324.846962076066,-6331.221023943547,-38228.92614947869,0.0,0.0,0.0,193.0,0.0,193.0,0.0,14.0,0.0,179.0,193.0,14.0,179.0,1744420352.3361356,0.0,2025-04-11 21:12:32.336,STOP,7
65.0,27681.29440323048,30112.918330778877,-32121.893122421876,-29305.6180245421,-36499.23640480476,-32316.35329918305,-6326.907137263673,-38260.57621962741,0.0,0.0,0.0,193.0,0.0,193.0,0.0,15.0,0.0,179.0,193.0,15.0,179.0,1744420352.336207,0.0,2025-04-11 21:12:32.336,STOP,7
66.0,27649.75609180404,30128.586903642048,-32113.242997317673,-29286.30611733271,-36485.110102309,-32295.029734972686,-6650.068658598502,-38221.28185287498,0.0,0.0,0.0,193.0,0.0,193.0,0.0,15.0,0.0,179.0,193.0,15.0,179.0,1744420352.3362563,0.0,2025-04-11 21:12:32.336,STOP,7
67.0,27645.553963846443,30138.15345026892,-32101.955366367743,-29275.01848638278,-36474.00128531471,-32293.398057627448,-6834.1352741879555,-38232.34596638036,0.0,0.0,0.0,193.0,0.0,193.0,0.0,15.0,0.0,179.0,193.0,15.0,179.0,1744420352.336305,0.0,2025-04-11 21:12:32.336,STOP,7
68.0,27679.126284018315,30135.538296167648,-32115.0311368741,-29285.188530109946,-36490.809797145106,-32319.862523062533,-6427.959373946116,-38230.222550657105,0.0,0.0,0.0,193.0,0.0,193.0,0.0,15.0,0.0,179.0,193.0,15.0,179.0,1744420352.336372,0.0,2025-04-11 21:12:32.336,STOP,7
69.0,27691.10681904636,30129.34686295353,-32112.30422405055,-29296.006774426318,-36488.418160488385,-32318.633177117492,-6269.530209246899,-38259.41392891573,0.0,0.0,0.0,193.0,0.0,193.0,0.0,15.0,0.0,179.0,193.0,15.0,179.0,1744420352.3364208,0.0,2025-04-11 21:12:32.336,STOP,7
70.0,27668.08452225739,30126.374080940972,-32103.341174523972,-29278.572413751175,-36481.1091400515,-32298.62836582999,-6582.722852554662,-38231.206027413136,0.0,0.0,0.0,193.0,0.0,193.0,0.0,15.0,0.0,179.0,193.0,15.0,179.0,1744420352.336474,0.0,2025-04-11 21:12:32.336,STOP,7
71.0,27653.488833128078,30136.611179901505,-32097.9767558547,-29269.22938456886,-36478.89631735043,-32290.872310503997,-6805.122709884967,-38206.596756767845,0.0,0.0,0.0,193.0,0.0,193.0,0.0,15.0,0.0,180.0,193.0,15.0,180.0,1744420352.336522,0.0,2025-04-11 21:12:32.336,STOP,7
72.0,27688.603423667366,30146.9153340954,-32097.529720965595,-29266.346009534125,-36485.132454053455,-32304.663336832924,-6489.516078176031,-38201.835835198865,0.0,0.0,0.0,193.0,0.0,193.0,0.0,15.0,0.0,179.0,193.0,15.0,179.0,1744420352.3365705,0.0,2025-04-11 21:12:32.336,STOP,7
73.0,27701.254511029067,30132.230237988264,-32107.07391584801,-29290.575300523677,-36498.25292804872,-32320.5777788851,-6229.252365738436,-38242.69482406316,0.0,0.0,0.0,193.0,0.0,193.0,0.0,15.0,0.0,179.0,193.0,15.0,179.0,1744420352.3366337,0.0,2025-04-11 21:12:32.336,STOP,7
74.0,27671.414932181233,30123.602464628515,-32103.49763673516,-29283.08746613115,-36496.397733258935,-32305.311537422127,-6530.710343207163,-38241.46547811812,0.0,0.0,0.0,193.0,0.0,193.0,0.0,15.0,0.0,179.0,193.0,15.0,179.0,1744420352.336682,0.0,2025-04-11 21:12:32.336,STOP,7
75.0,27662.228365210103,30144.411938716406,-32091.427694729293,-29267.79887292372,-36484.439549975345,-32287.832473258077,-6822.78058800466,-38224.768725010006,0.0,0.0,0.0,193.0,0.0,193.0,0.0,16.0,0.0,179.0,193.0,16.0,179.0,1744420352.33673,0.0,2025-04-11 21:12:32.336,STOP,7
76.0,27690.27980450151,30150.513964952705,-32092.522930207604,-29265.69780894492,-36484.17132904188,-32299.142455952464,-6620.7655216175945,-38217.88438771777,0.0,0.0,0.0,193.0,0.0,193.0,0.0,16.0,0.0,179.0,193.0,16.0,179.0,1744420352.336778,0.0,2025-04-11 21:12:32.336,STOP,7
77.0,27704.04847908598,30134.912447322902,-32113.01947987312,-29296.006774426318,-36500.21988156079,-32325.87514232101,-6237.746028631453,-38246.60637934284,0.0,0.0,0.0,193.0,0.0,193.0,0.0,16.0,0.0,180.0,193.0,16.0,180.0,1744420352.3368258,0.0,2025-04-11 21:12:32.336,STOP,7
78.0,27681.987307308595,30124.183609984353,-32106.984508870188,-29291.60348076862,-36494.67664893588,-32308.127857223495,-6467.432554654188,-38252.1272602233,0.0,0.0,0.0,193.0,0.0,193.0,0.0,16.0,0.0,179.0,193.0,16.0,179.0,1744420352.3368742,0.0,2025-04-11 21:12:32.336,STOP,7
79.0,27663.368304177322,30146.468299206295,-32094.93691860878,-29277.141902106036,-36483.389017985945,-32290.40292387044,-6782.793317174115,-38229.99903321255,0.0,0.0,0.0,193.0,0.0,193.0,0.0,16.0,0.0,179.0,193.0,16.0,179.0,1744420352.3369226,0.0,2025-04-11 21:12:32.336,STOP,7
80.0,27685.16125502125,30156.928915611377,-32086.48795920467,-29266.055436856204,-36475.23063125976,-32287.832473258077,-6685.317359604521,-38202.4169805547,0.0,0.0,0.0,193.0,0.0,193.0,0.0,16.0,0.0,179.0,193.0,16.0,179.0,1744420352.3369837,0.0,2025-04-11 21:12:32.336,STOP,7
81.0,27718.040671115003,30154.470223721295,-32103.654098946346,-29283.690963231442,-36491.32388726758,-32311.480618891794,-6247.290223513869,-38220.90187321924,0.0,0.0,0.0,193.0,0.0,193.0,0.0,16.0,0.0,179.0,193.0,16.0,179.0,1744420352.3370323,0.0,2025-04-11 21:12:32.337,STOP,7
82.0,27693.498455703077,30129.0115867867,-32110.56078798304,-29295.55973953721,-36493.00026810173,-32313.179351470397,-6420.2480221090345,-38255.97176026962,0.0,0.0,0.0,193.0,0.0,193.0,0.0,16.0,0.0,179.0,193.0,16.0,179.0,1744420352.3370807,0.0,2025-04-11 21:12:32.337,STOP,7
83.0,27667.6821908572,30140.54508692564,-32098.60260469945,-29278.661820728998,-36479.70098015082,-32293.576871583093,-6748.952776068781,-38229.32848087889,0.0,0.0,0.0,193.0,0.0,193.0,0.0,16.0,0.0,179.0,193.0,16.0,179.0,1744420352.337145,0.0,2025-04-11 21:12:32.337,STOP,7
84.0,27676.444074683677,30147.429424217873,-32089.63955517287,-29269.922288646972,-36471.65435214691,-32292.124008193496,-6754.674822649339,-38217.929091206686,0.0,0.0,0.0,193.0,0.0,193.0,0.0,16.0,0.0,179.0,193.0,16.0,179.0,1744420352.3371937,0.0,2025-04-11 21:12:32.337,STOP,7
85.0,27706.753040165073,30149.977523085778,-32111.72307869471,-29289.547120278734,-36496.330678025566,-32326.500991165758,-6293.91596244764,-38243.94652175266,0.0,0.0,0.0,193.0,0.0,193.0,0.0,16.0,0.0,179.0,193.0,16.0,179.0,1744420352.337242,0.0,2025-04-11 21:12:32.337,STOP,7
86.0,27688.58107192291,30122.708394850302,-32116.50635200815,-29300.722992506388,-36502.58916647305,-32325.29399696517,-6375.7009954096075,-38280.983362315106,0.0,0.0,0.0,193.0,0.0,194.0,0.0,16.0,0.0,180.0,194.0,16.0,180.0,1744420352.3372898,0.0,2025-04-11 21:12:32.337,STOP,7
87.0,27660.66374309823,30133.951322311324,-32100.860130889432,-29277.70069571742,-36480.527994695665,-32294.381534383483,-6693.162821908334,-38219.739582507566,0.0,0.0,0.0,193.0,0.0,193.0,0.0,16.0,0.0,179.0,193.0,16.0,179.0,1744420352.3373384,0.0,2025-04-11 21:12:32.337,STOP,7
88.0,27661.200184965157,30149.57519168558,-32093.39464824136,-29267.97768687936,-36475.85648010451,-32286.62547905749,-6777.33949152702,-38210.32949809188,0.0,0.0,0.0,193.0,0.0,194.0,0.0,16.0,0.0,180.0,194.0,16.0,180.0,1744420352.337506,0.0,2025-04-11 21:12:32.337,STOP,7
89.0,27698.86287437235,30149.731653896768,-32106.537473981083,-29276.001963138817,-36496.08480883656,-32307.546711867657,-6342.799227571396,-38215.872730716794,0.0,0.0,0.0,193.0,0.0,194.0,0.0,16.0,0.0,180.0,194.0,16.0,180.0,1744420352.3375504,0.0,2025-04-11 21:12:32.337,STOP,7
90.0,27693.118476047337,30114.751173824214,-32108.392668770874,-29287.84838770013,-36490.9662593563,-32302.71873506531,-6317.720570292541,-38245.33232990889,0.0,0.0,0.0,193.0,0.0,194.0,0.0,16.0,0.0,180.0,194.0,16.0,180.0,1744420352.3375933,0.0,2025-04-11 21:12:32.337,STOP,7
91.0,27658.115644230325,30115.019394757677,-32103.341174523972,-29275.934907905452,-36477.75637838321,-32287.63130755798,-6626.956954831714,-38218.84551272935,0.0,0.0,0.0,193.0,0.0,194.0,0.0,16.0,0.0,180.0,194.0,16.0,180.0,1744420352.337636,0.0,2025-04-11 21:12:32.337,STOP,7
92.0,27652.66181858323,30125.077679762566,-32095.74158140917,-29267.150672334516,-36468.279238734154,-32283.406827855928,-6811.984695432747,-38219.69487901865,0.0,0.0,0.0,193.0,0.0,194.0,0.0,16.0,0.0,180.0,194.0,16.0,180.0,1744420352.337679,0.0,2025-04-11 21:12:32.337,STOP,7
93.0,27679.305097973956,30128.162220497397,-32114.360584540438,-29276.672515472477,-36491.10036982303,-32307.971395012308,-6426.171234389692,-38217.70557376213,0.0,0.0,0.0,193.0,0.0,194.0,0.0,16.0,0.0,180.0,194.0,16.0,180.0,1744420352.3377216,0.0,2025-04-11 21:12:32.337,STOP,7
94.0,27681.22734799711,30110.19141795533,-32125.827029446013,-29299.426591327978,-36497.06828559259,-32317.269720705717,-6262.601168465754,-38254.20597245765,0.0,0.0,0.0,193.0,0.0,194.0,0.0,16.0,0.0,180.0,194.0,16.0,180.0,1744420352.3377807,0.0,2025-04-11 21:12:32.337,STOP,7
95.0,27655.612248851332,30107.553912109604,-32115.41111652984,-29286.730800477362,-36483.23255577476,-32300.505912364235,-6571.032890204536,-38233.016518714016,0.0,0.0,0.0,193.0,0.0,194.0,0.0,16.0,0.0,179.0,194.0,16.0,179.0,1744420352.3378236,0.0,2025-04-11 21:12:32.337,STOP,7
96.0,27639.675455054698,30116.941644780833,-32107.364488525927,-29281.567547508188,-36482.04791331862,-32297.734296051778,-6822.020628693179,-38231.116620435314,0.0,0.0,0.0,193.0,0.0,194.0,0.0,16.0,0.0,180.0,194.0,16.0,180.0,1744420352.3378663,0.0,2025-04-11 21:12:32.337,STOP,7
97.0,27674.924156060715,30131.939665310347,-32103.92231987981,-29273.051532870715,-36486.22768953177,-32307.68082233439,-6521.076741346925,-38218.04084992896,0.0,0.0,0.0,193.0,0.0,194.0,0.0,16.0,0.0,179.0,194.0,16.0,179.0,1744420352.337909,0.0,2025-04-11 21:12:32.337,STOP,7
98.0,27684.66951664323,30113.924159279366,-32118.026270631108,-29296.1632366375,-36500.97984087227,-32325.67397662091,-6246.887892113673,-38261.64910336126,0.0,0.0,0.0,193.0,0.0,194.0,0.0,16.0,0.0,180.0,194.0,16.0,180.0,1744420352.337967,0.0,2025-04-11 21:12:32.337,STOP,7
99.0,27657.892126785773,30101.787162040135,-32115.142895596375,-29290.754114479318,-36493.02261984618,-32314.095772993063,-6513.655962187763,-38250.31676892242,0.0,0.0,0.0,193.0,0.0,193.0,0.0,16.0,0.0,179.0,193.0,16.0,179.0,1744420352.33801,0.0,2025-04-11 21:12:32.338,STOP,7
100.0,27637.820260264907,30115.086449991042,-32107.140971081375,-29280.494663774334,-36489.468692477785,-32303.858674032534,-6813.571669289073,-38248.327463665904,0.0,0.0,0.0,193.0,0.0,193.0,0.0,17.0,0.0,179.0,193.0,17.0,179.0,1744420352.3380525,0.0,2025-04-11 21:12:32.338,STOP,7
101.0,27664.061208255436,30123.803630328614,-32106.20219781425,-29274.996134638328,-36494.63194544696,-32311.14534272496,-6627.0463618095355,-38235.18463792618,0.0,0.0,0.0,193.0,0.0,193.0,0.0,16.0,0.0,179.0,193.0,16.0,179.0,1744420352.3380952,0.0,2025-04-11 21:12:32.338,STOP,7
102.0,27697.09708656038,30125.14473499593,-32111.74543043917,-29284.89795743203,-36497.47061699279,-32318.432011417393,-6253.61576719472,-38241.08549846238,0.0,0.0,0.0,193.0,0.0,193.0,0.0,17.0,0.0,179.0,193.0,17.0,179.0,1744420352.3381376,0.0,2025-04-11 21:12:32.338,STOP,7
103.0,27679.886243329795,30117.858066303503,-32098.826122144,-29272.872718915074,-36478.22576501677,-32296.48259836228,-6462.537522618476,-38231.049565201945,0.0,0.0,0.0,193.0,0.0,193.0,0.0,17.0,0.0,179.0,193.0,17.0,179.0,1744420352.3381932,0.0,2025-04-11 21:12:32.338,STOP,7
104.0,27652.080673227392,30132.856086833013,-32096.12156106491,-29262.79208216573,-36479.72333189527,-32285.48554009027,-6763.1684855423555,-38222.69001277567,0.0,0.0,0.0,193.0,0.0,193.0,0.0,17.0,0.0,179.0,193.0,17.0,179.0,1744420352.338236,0.0,2025-04-11 21:12:32.338,STOP,7
105.0,27666.05051351196,30138.0640432911,-32093.774627897103,-29256.17596580696,-36478.628096416964,-32286.692534290858,-6688.938342206281,-38220.03015518548,0.0,0.0,0.0,193.0,0.0,193.0,0.0,17.0,0.0,179.0,193.0,17.0,179.0,1744420352.3382785,0.0,2025-04-11 21:12:32.338,STOP,7
106.0,27695.331298748413,30129.168048997886,-32111.20898857224,-29278.4606550289,-36497.381210014966,-32314.721621837813,-6243.602185678743,-38239.52087635051,0.0,0.0,0.0,193.0,0.0,193.0,0.0,17.0,0.0,180.0,193.0,17.0,180.0,1744420352.3383212,0.0,2025-04-11 21:12:32.338,STOP,7
107.0,27673.113664759836,30104.312909163586,-32114.114715351432,-29284.786198709753,-36500.55515772762,-32308.127857223495,-6407.082844624859,-38263.705463851154,0.0,0.0,0.0,193.0,0.0,194.0,0.0,17.0,0.0,180.0,194.0,17.0,180.0,1744420352.338364,0.0,2025-04-11 21:12:32.338,STOP,7
108.0,27647.297399913958,30123.401298928417,-32100.547206467058,-29261.65214319851,-36482.67376216337,-32278.42238884239,-6742.940156810303,-38217.772628995495,0.0,0.0,0.0,193.0,0.0,194.0,0.0,17.0,0.0,180.0,194.0,17.0,180.0,1744420352.3384063,0.0,2025-04-11 21:12:32.338,STOP,7
109.0,27658.942658775173,30144.076662549578,-32095.629822686893,-29253.761977405786,-36474.381264970456,-32279.405865598426,-6751.322060981043,-38201.38880030975,0.0,0.0,0.0,193.0,0.0,194.0,0.0,17.0,0.0,179.0,194.0,17.0,179.0,1744420352.3384712,0.0,2025-04-11 21:12:32.338,STOP,7
110.0,27694.213711525645,30142.422633459882,-32113.064183362032,-29268.51412874629,-36494.94486986934,-32306.183255455886,-6272.882970915195,-38213.07876265988,0.0,0.0,0.0,193.0,0.0,194.0,0.0,17.0,0.0,180.0,194.0,17.0,180.0,1744420352.3385146,0.0,2025-04-11 21:12:32.338,STOP,7
111.0,27683.03783929799,30114.52765637966,-32113.5782734845,-29277.723047461874,-36494.81075940261,-32299.76830479721,-6334.864358289762,-38243.41007988573,0.0,0.0,0.0,193.0,0.0,194.0,0.0,17.0,0.0,180.0,194.0,17.0,180.0,1744420352.338558,0.0,2025-04-11 21:12:32.338,STOP,7
112.0,27652.70652207214,30124.563589640093,-32111.007822872143,-29269.07292235767,-36489.491044222246,-32287.7207145358,-6671.146353619856,-38228.36735586731,0.0,0.0,0.0,193.0,0.0,193.0,0.0,17.0,0.0,179.0,193.0,17.0,179.0,1744420352.338601,0.0,2025-04-11 21:12:32.338,STOP,7
113.0,27649.666684826218,30135.851220590022,-32103.050601846055,-29262.814433910185,-36480.77386388467,-32286.24549940175,-6793.812727190581,-38233.3741466253,0.0,0.0,0.0,193.0,0.0,193.0,0.0,17.0,0.0,179.0,193.0,17.0,179.0,1744420352.338658,0.0,2025-04-11 21:12:32.338,STOP,7
114.0,27679.81918809643,30127.648130374928,-32124.97766315671,-29283.310983575702,-36504.0643816071,-32321.047165518663,-6358.758373112485,-38239.52087635051,0.0,0.0,0.0,193.0,0.0,193.0,0.0,17.0,0.0,179.0,193.0,17.0,179.0,1744420352.3387015,0.0,2025-04-11 21:12:32.338,STOP,7
115.0,27675.885281072293,30105.519903364173,-32128.330424825006,-29299.404239583524,-36507.864178164506,-32320.041337018174,-6304.287171874902,-38265.448899918665,0.0,0.0,0.0,193.0,0.0,193.0,0.0,17.0,0.0,179.0,193.0,17.0,179.0,1744420352.3387442,0.0,2025-04-11 21:12:32.338,STOP,7
116.0,27641.12831844429,30106.81630454258,-32124.441221289784,-29289.144788878537,-36500.62221296099,-32308.507836879235,-6639.228062537678,-38249.28858867748,0.0,0.0,0.0,193.0,0.0,193.0,0.0,17.0,0.0,179.0,193.0,17.0,179.0,1744420352.3387868,0.0,2025-04-11 21:12:32.338,STOP,7
117.0,27639.4742893546,30120.562627382595,-32109.532607738092,-29272.291573559236,-36485.333619753554,-32291.25229015974,-6842.003088236223,-38233.03887045847,0.0,0.0,0.0,193.0,0.0,193.0,0.0,17.0,0.0,179.0,193.0,17.0,179.0,1744420352.3388295,0.0,2025-04-11 21:12:32.338,STOP,7
118.0,27669.582089135896,30120.137944237944,-32123.323634067016,-29282.59572775313,-36498.38703851546,-32315.839209060578,-6461.263473184523,-38233.910588492225,0.0,0.0,0.0,193.0,0.0,193.0,0.0,17.0,0.0,179.0,193.0,17.0,179.0,1744420352.3388848,0.0,2025-04-11 21:12:32.338,STOP,7
119.0,27673.113664759836,30101.29542366212,-32133.448974305273,-29304.254568130324,-36507.12657059748,-32326.009252787742,-6281.3095785748465,-38274.881336078804,0.0,0.0,0.0,193.0,0.0,193.0,0.0,17.0,0.0,179.0,193.0,17.0,179.0,1744420352.3389275,0.0,2025-04-11 21:12:32.338,STOP,7
120.0,27636.680321297685,30094.008754969687,-32133.828953961012,-29296.699678504432,-36504.84669266304,-32313.559331126136,-6582.611093832385,-38248.595684599364,0.0,0.0,0.0,193.0,0.0,193.0,0.0,17.0,0.0,179.0,193.0,17.0,179.0,1744420352.33897,0.0,2025-04-11 21:12:32.338,STOP,7
121.0,27633.416966607212,30114.885284290947,-32112.684203706292,-29275.242003827338,-36483.99251508624,-32293.710982049823,-6836.996297478235,-38228.27794888949,0.0,0.0,0.0,193.0,0.0,193.0,0.0,17.0,0.0,179.0,193.0,17.0,179.0,1744420352.3390129,0.0,2025-04-11 21:12:32.339,STOP,7
122.0,27668.352743190855,30121.546104138626,-32118.383898542394,-29275.66668697199,-36497.3141547816,-32307.479656634292,-6541.059200889969,-38215.44804757214,0.0,0.0,0.0,193.0,0.0,193.0,0.0,17.0,0.0,179.0,193.0,17.0,179.0,1744420352.3390553,0.0,2025-04-11 21:12:32.339,STOP,7
123.0,27681.137941019293,30110.258473188696,-32133.337215582993,-29299.426591327978,-36516.246082335245,-32322.96941554182,-6242.082267055782,-38255.9270567807,0.0,0.0,0.0,193.0,0.0,193.0,0.0,17.0,0.0,179.0,193.0,17.0,179.0,1744420352.3390975,0.0,2025-04-11 21:12:32.339,STOP,7
124.0,27656.774539563008,30099.350821894506,-32121.35668055495,-29286.574338266175,-36497.582375715065,-32307.166732211917,-6505.475223717121,-38244.5276671085,0.0,0.0,0.0,193.0,0.0,193.0,0.0,17.0,0.0,179.0,193.0,17.0,179.0,1744420352.3391523,0.0,2025-04-11 21:12:32.339,STOP,7
125.0,27641.910629500228,30119.668557604382,-32108.25855830414,-29270.995172380826,-36484.32779125307,-32292.72750529379,-6796.137308613934,-38229.239073901066,0.0,0.0,0.0,193.0,0.0,193.0,0.0,17.0,0.0,179.0,193.0,17.0,179.0,1744420352.3391955,0.0,2025-04-11 21:12:32.339,STOP,7
126.0,27668.553908890954,30126.552894896617,-32106.537473981083,-29264.580221722154,-36490.094541322534,-32300.461208875327,-6640.278594527077,-38226.69097503316,0.0,0.0,0.0,193.0,0.0,193.0,0.0,17.0,0.0,179.0,193.0,17.0,179.0,1744420352.3392382,0.0,2025-04-11 21:12:32.339,STOP,7
127.0,27683.261356742547,30109.453810388306,-32129.559770770047,-29292.363440080102,-36511.708678210816,-32328.713813866834,-6246.463208969022,-38267.03587377499,0.0,0.0,0.0,193.0,0.0,193.0,0.0,17.0,0.0,179.0,193.0,17.0,179.0,1744420352.3392944,0.0,2025-04-11 21:12:32.339,STOP,7
128.0,27663.99415302207,30097.696792804814,-32116.908683408343,-29286.350820821623,-36491.94973611233,-32310.11716248002,-6460.7493830620515,-38264.331312695904,0.0,0.0,0.0,193.0,0.0,194.0,0.0,17.0,0.0,180.0,194.0,17.0,180.0,1744420352.812651,0.0,2025-04-11 21:12:32.812,STOP,7
129.0,27649.55492610394,30117.72395583677,-32100.97188961171,-29264.669628699976,-36476.01294231569,-32282.33394412207,-6769.605787945484,-38208.340192835356,0.0,0.0,0.0,193.0,0.0,194.0,0.0,17.0,0.0,180.0,194.0,17.0,180.0,1744420352.8127992,0.0,2025-04-11 21:12:32.812,STOP,7
130.0,27665.24585071157,30128.363386197496,-32096.702706420747,-29259.908707130995,-36475.141224281935,-32289.262984903216,-6703.75754878015,-38217.66087027322,0.0,0.0,0.0,193.0,0.0,194.0,0.0,17.0,0.0,180.0,194.0,17.0,180.0,1744420352.8128507,0.0,2025-04-11 21:12:32.812,STOP,7
131.0,27688.737534134096,30120.160295982398,-32119.434430531794,-29284.182701609458,-36499.30346003812,-32323.282339964193,-6251.7829241493855,-38243.365376396825,0.0,0.0,0.0,193.0,0.0,193.0,0.0,17.0,0.0,179.0,193.0,17.0,179.0,1744420352.8129003,0.0,2025-04-11 21:12:32.812,STOP,7
132.0,27668.95624029115,30094.656955558894,-32121.803715444057,-29292.765771480295,-36500.15282632742,-32323.371746942015,-6399.50560325451,-38279.86577509234,0.0,0.0,0.0,193.0,0.0,194.0,0.0,17.0,0.0,179.0,194.0,17.0,179.0,1744420352.8129513,0.0,2025-04-11 21:12:32.812,STOP,7
133.0,27643.117623700815,30108.984423754744,-32113.667680462324,-29278.997096895826,-36490.541576211646,-32304.037487988175,-6729.394999670387,-38244.86294327533,0.0,0.0,0.0,193.0,0.0,193.0,0.0,17.0,0.0,179.0,193.0,17.0,179.0,1744420352.8131747,0.0,2025-04-11 21:12:32.813,STOP,7
134.0,27656.349856418357,30122.10489775001,-32101.26246228963,-29265.98838162284,-36479.87979410646,-32289.598261070045,-6770.075174579046,-38220.499541819045,0.0,0.0,0.0,193.0,0.0,193.0,0.0,17.0,0.0,179.0,193.0,17.0,179.0,1744420352.813228,0.0,2025-04-11 21:12:32.813,STOP,7
135.0,27685.76475212154,30125.14473499593,-32120.21674158773,-29278.684172473455,-36501.113951339,-32307.63611884548,-6296.732282249008,-38211.87176845929,0.0,0.0,0.0,193.0,0.0,193.0,0.0,17.0,0.0,179.0,193.0,17.0,179.0,1744420352.8132732,0.0,2025-04-11 21:12:32.813,STOP,7
136.0,27674.790045593985,30104.469371374773,-32121.110811365943,-29285.724971976873,-36500.89043389445,-32303.67986007689,-6346.084934006326,-38254.273027691015,0.0,0.0,0.0,193.0,0.0,193.0,0.0,17.0,0.0,179.0,193.0,17.0,179.0,1744420352.8133187,0.0,2025-04-11 21:12:32.813,STOP,7
137.0,27648.794966792462,30114.035918001646,-32109.86788390492,-29266.83774791214,-36487.300573265624,-32282.71392377781,-6692.246400385667,-38227.495637833556,0.0,0.0,0.0,193.0,0.0,193.0,0.0,17.0,0.0,179.0,193.0,17.0,179.0,1744420352.8133667,0.0,2025-04-11 21:12:32.813,STOP,7
138.0,27649.398463892754,30128.832772831058,-32095.16043605333,-29252.130300060548,-36467.96631431178,-32271.023961427687,-6807.804919219604,-38213.19052138216,0.0,0.0,0.0,193.0,0.0,193.0,0.0,17.0,0.0,179.0,193.0,17.0,179.0,1744420352.8134165,0.0,2025-04-11 21:12:32.813,STOP,7
139.0,27677.47225492862,30118.930950037357,-32115.0311368741,-29267.687114201442,-36484.48425346425,-32301.712906564822,-6360.837085346829,-38215.20217838314,0.0,0.0,0.0,193.0,0.0,193.0,0.0,17.0,0.0,179.0,193.0,17.0,179.0,1744420352.813532,0.0,2025-04-11 21:12:32.813,STOP,7
140.0,27678.455731684655,30095.439266614827,-32119.233264831695,-29283.04276264224,-36490.586279700554,-32302.33875540957,-6283.611808253742,-38253.915399779726,0.0,0.0,0.0,193.0,0.0,193.0,0.0,17.0,0.0,179.0,193.0,17.0,179.0,1744420352.813586,0.0,2025-04-11 21:12:32.813,STOP,7
141.0,27646.04570222446,30093.874644502957,-32114.114715351432,-29270.436378769446,-36485.065398820094,-32285.10556043453,-6603.577030131463,-38224.209931398625,0.0,0.0,0.0,193.0,0.0,193.0,0.0,17.0,0.0,179.0,193.0,17.0,179.0,1744420352.8136451,0.0,2025-04-11 21:12:32.813,STOP,7
142.0,27634.13222242978,30108.023298743166,-32105.106962335944,-29260.623962953567,-36475.67766614886,-32277.86359523101,-6813.34815184452,-38218.93491970717,0.0,0.0,0.0,193.0,0.0,193.0,0.0,17.0,0.0,179.0,193.0,17.0,179.0,1744420352.8137918,0.0,2025-04-11 21:12:32.813,STOP,7
143.0,27662.027199510005,30112.00190925621,-32117.93686365329,-29269.207032824404,-36492.57558495708,-32304.14924671045,-6456.726069060096,-38217.772628995495,0.0,0.0,0.0,193.0,0.0,194.0,0.0,17.0,0.0,180.0,194.0,17.0,180.0,1744420352.8138416,0.0,2025-04-11 21:12:32.813,STOP,7
144.0,27674.05243802696,30095.506321848196,-32125.894084679378,-29288.071905144683,-36504.0643816071,-32313.514627637225,-6258.488447485977,-38255.52472538051,0.0,0.0,0.0,193.0,0.0,194.0,0.0,17.0,0.0,180.0,194.0,17.0,180.0,1744420352.8138916,0.0,2025-04-11 21:12:32.813,STOP,7
145.0,27651.633638338288,30095.61808057047,-32116.863979919435,-29273.140939848538,-36497.291803037144,-32297.309612907127,-6577.87252400786,-38248.461574132634,0.0,0.0,0.0,193.0,0.0,194.0,0.0,17.0,0.0,180.0,194.0,17.0,180.0,1744420352.8139367,0.0,2025-04-11 21:12:32.813,STOP,7
146.0,27642.737644045075,30123.1107262505,-32097.887348876877,-29254.007846594795,-36480.818567373586,-32279.405865598426,-6841.310184158109,-38229.104963434336,0.0,0.0,0.0,193.0,0.0,194.0,0.0,17.0,0.0,180.0,194.0,17.0,180.0,1744420352.8139803,0.0,2025-04-11 21:12:32.813,STOP,7
147.0,27663.681228599697,30122.261359961198,-32110.672546705315,-29263.842614155128,-36499.258756549214,-32304.95390951084,-6550.62574751684,-38224.79107675446,0.0,0.0,0.0,193.0,0.0,194.0,0.0,17.0,0.0,180.0,194.0,17.0,180.0,1744420352.8140442,0.0,2025-04-11 21:12:32.814,STOP,7
148.0,27680.86972008583,30108.827961543557,-32124.06124163404,-29288.764809222797,-36516.82722769109,-32325.472810920815,-6236.896662342151,-38264.37601618481,0.0,0.0,0.0,193.0,0.0,194.0,0.0,17.0,0.0,180.0,194.0,17.0,180.0,1744420352.8140872,0.0,2025-04-11 21:12:32.814,STOP,7
149.0,27667.212804223636,30105.028164986154,-32103.58704371298,-29266.278954300757,-36496.107160581014,-32298.20368268534,-6511.6443051867855,-38248.103946221345,0.0,0.0,0.0,193.0,0.0,193.0,0.0,17.0,0.0,179.0,193.0,17.0,179.0,1744420352.8141298,0.0,2025-04-11 21:12:32.814,STOP,7
150.0,27644.749301046053,30116.09227849153,-32097.820293643512,-29255.88539312904,-36487.27822152117,-32291.900490748943,-6813.974000689269,-38238.89502750576,0.0,0.0,0.0,193.0,0.0,193.0,0.0,17.0,0.0,179.0,193.0,17.0,179.0,1744420352.8141725,0.0,2025-04-11 21:12:32.814,STOP,7
151.0,27658.80854830844,30119.40033667092,-32110.136104838384,-29263.619096710576,-36500.42104726089,-32312.709964836835,-6653.756696433627,-38248.05924273244,0.0,0.0,0.0,193.0,0.0,193.0,0.0,17.0,0.0,179.0,193.0,17.0,179.0,1744420352.8142157,0.0,2025-04-11 21:12:32.814,STOP,7
152.0,27685.742400377087,30116.204037213807,-32125.603512001457,-29282.998059153328,-36515.08379162357,-32328.847924333564,-6257.415563752123,-38277.87646983581,0.0,0.0,0.0,193.0,0.0,193.0,0.0,17.0,0.0,179.0,193.0,17.0,179.0,1744420352.8142593,0.0,2025-04-11 21:12:32.814,STOP,7
153.0,27668.24098446858,30104.37996439695,-32117.26631131963,-29272.11275960359,-36499.43757050486,-32297.242557673762,-6456.614310337819,-38242.13603045178,0.0,0.0,0.0,193.0,0.0,193.0,0.0,17.0,0.0,179.0,193.0,17.0,179.0,1744420352.8143044,0.0,2025-04-11 21:12:32.814,STOP,7
154.0,27632.70171078464,30109.990252255233,-32120.462610776736,-29269.631715969055,-36498.11881758199,-32294.850921017045,-6750.919729580847,-38223.31586162041,0.0,0.0,0.0,193.0,0.0,193.0,0.0,17.0,0.0,179.0,193.0,17.0,179.0,1744420352.814547,0.0,2025-04-11 21:12:32.814,STOP,7
155.0,27654.47230988411,30123.803630328614,-32111.052526361054,-29257.807643152195,-36491.48034947876,-32292.86161576052,-6722.644772844884,-38229.21672215661,0.0,0.0,0.0,193.0,0.0,193.0,0.0,17.0,0.0,180.0,193.0,17.0,180.0,1744420352.8146057,0.0,2025-04-11 21:12:32.814,STOP,7
156.0,27685.04949629897,30121.0096622717,-32126.92226492432,-29268.84940491312,-36512.960375900315,-32308.23961594577,-6278.716776218031,-38237.352757138346,0.0,0.0,0.0,193.0,0.0,193.0,0.0,17.0,0.0,180.0,193.0,17.0,180.0,1744420352.8146567,0.0,2025-04-11 21:12:32.814,STOP,7
157.0,27671.593746136874,30102.457714373795,-32120.060279376543,-29269.631715969055,-36502.74562868424,-32296.01321172872,-6405.272353323979,-38252.23901894558,0.0,0.0,0.0,193.0,0.0,194.0,0.0,17.0,0.0,180.0,194.0,17.0,180.0,1744420352.8147736,0.0,2025-04-11 21:12:32.814,STOP,7
158.0,27648.57144934791,30119.847371560023,-32108.63853795988,-29254.343122761624,-36486.965297098795,-32278.981182453776,-6721.884813533404,-38222.80177149794,0.0,0.0,0.0,193.0,0.0,194.0,0.0,17.0,0.0,180.0,194.0,17.0,180.0,1744420352.8148217,0.0,2025-04-11 21:12:32.814,STOP,7
159.0,27649.33140865939,30130.822078087578,-32100.9271861228,-29244.486003456834,-36482.09261680754,-32274.644944029445,-6779.1946863168105,-38214.66573651621,0.0,0.0,0.0,193.0,0.0,194.0,0.0,17.0,0.0,180.0,194.0,17.0,180.0,1744420352.814872,0.0,2025-04-11 21:12:32.814,STOP,7
160.0,27682.143769519782,30130.330339709562,-32121.06610787703,-29263.999076366315,-36504.0643816071,-32307.032621745187,-6318.592288326298,-38229.95432972364,0.0,0.0,0.0,193.0,0.0,194.0,0.0,17.0,0.0,179.0,194.0,17.0,179.0,1744420352.8149188,0.0,2025-04-11 21:12:32.814,STOP,7
161.0,27677.29344097298,30108.11270572099,-32125.1341253679,-29280.159387607502,-36506.74659094174,-32308.91016827943,-6344.855588061284,-38272.1320715108,0.0,0.0,0.0,193.0,0.0,193.0,0.0,17.0,0.0,179.0,193.0,17.0,179.0,1744420352.8149693,0.0,2025-04-11 21:12:32.814,STOP,7
162.0,27645.933943502183,30107.643319087427,-32115.813447930035,-29264.93784963344,-36497.42591350388,-32283.96562146731,-6679.572961279508,-38223.025288942496,0.0,0.0,0.0,193.0,0.0,193.0,0.0,17.0,0.0,179.0,193.0,17.0,179.0,1744420352.8150692,0.0,2025-04-11 21:12:32.815,STOP,7
163.0,27643.207030678637,30116.09227849153,-32100.614261700426,-29253.381997750046,-36482.40554122991,-32275.62842078548,-6834.627012565972,-38216.3197656059,0.0,0.0,0.0,193.0,0.0,193.0,0.0,17.0,0.0,179.0,193.0,17.0,179.0,1744420352.8151202,0.0,2025-04-11 21:12:32.815,STOP,7
164.0,27673.158368248747,30116.896941291925,-32120.64142473238,-29267.664762456985,-36504.019678118195,-32306.6749938339,-6404.199469590124,-38219.69487901865,0.0,0.0,0.0,193.0,0.0,193.0,0.0,17.0,0.0,179.0,193.0,17.0,179.0,1744420352.8151639,0.0,2025-04-11 21:12:32.815,STOP,7
165.0,27671.079656014404,30097.741496293726,-32128.956273669755,-29284.965012665394,-36509.3170415541,-32305.33388916658,-6307.639933543198,-38256.016463758526,0.0,0.0,0.0,193.0,0.0,193.0,0.0,17.0,0.0,180.0,193.0,17.0,180.0,1744420352.8152094,0.0,2025-04-11 21:12:32.815,STOP,7
166.0,27645.933943502183,30102.748287051712,-32112.77361068411,-29263.775558921763,-36487.27822152117,-32279.271755131693,-6625.682905397762,-38222.444143586654,0.0,0.0,0.0,193.0,0.0,194.0,0.0,17.0,0.0,179.0,194.0,17.0,179.0,1744420352.8152575,0.0,2025-04-11 21:12:32.815,STOP,7
167.0,27630.28772238347,30111.219598200274,-32107.83387515949,-29258.41114025249,-36481.89145110744,-32276.20956614132,-6830.78251251966,-38214.37516383829,0.0,0.0,0.0,193.0,0.0,194.0,0.0,17.0,0.0,180.0,194.0,17.0,180.0,1744420352.8153083,0.0,2025-04-11 21:12:32.815,STOP,7
168.0,27662.47423439911,30115.757002324703,-32117.847456675467,-29262.970896121373,-36497.00123035923,-32297.890758262965,-6494.835793356395,-38220.99128019706,0.0,0.0,0.0,193.0,0.0,194.0,0.0,17.0,0.0,180.0,194.0,17.0,180.0,1744420352.8153603,0.0,2025-04-11 21:12:32.815,STOP,7
169.0,27670.90084205876,30101.027202728656,-32128.375128313917,-29284.965012665394,-36508.64648922044,-32313.939310781876,-6276.883933172695,-38264.130146995805,0.0,0.0,0.0,193.0,0.0,194.0,0.0,17.0,0.0,180.0,194.0,17.0,180.0,1744420352.8156226,0.0,2025-04-11 21:12:32.815,STOP,7
170.0,27647.85619352534,30099.417877127875,-32115.25465431865,-29269.631715969055,-36495.011925102706,-32295.610880328524,-6577.760765285584,-38246.38286189829,0.0,0.0,0.0,193.0,0.0,194.0,0.0,17.0,0.0,179.0,194.0,17.0,179.0,1744420352.8156786,0.0,2025-04-11 21:12:32.815,STOP,7
171.0,27638.66962655421,30122.082546005553,-32095.093380819966,-29250.900954115506,-36475.498852193225,-32276.075455674585,-6852.9777947637795,-38229.864922745815,0.0,0.0,0.0,193.0,0.0,194.0,0.0,17.0,0.0,180.0,194.0,17.0,180.0,1744420352.8157325,0.0,2025-04-11 21:12:32.815,STOP,7
172.0,27659.52380413101,30124.54123789564,-32103.899968135356,-29253.091425072125,-36489.02165758868,-32288.637136058467,-6589.87541078036,-38203.62397475529,0.0,0.0,0.0,193.0,0.0,193.0,0.0,17.0,0.0,179.0,193.0,17.0,179.0,1744420352.81583,0.0,2025-04-11 21:12:32.815,STOP,7
173.0,27673.20307173766,30110.884322033446,-32123.189523600286,-29284.629736498566,-36513.250948578236,-32319.16961898442,-6241.23290076648,-38254.72006258012,0.0,0.0,0.0,193.0,0.0,193.0,0.0,17.0,0.0,179.0,193.0,17.0,179.0,1744420352.8158798,0.0,2025-04-11 21:12:32.815,STOP,7
174.0,27654.405254650745,30112.493647634226,-32110.56078798304,-29275.063189871693,-36500.33164028307,-32303.277528676696,-6505.944610350682,-38258.09517599287,0.0,0.0,0.0,193.0,0.0,193.0,0.0,17.0,0.0,179.0,193.0,17.0,179.0,1744420352.8159292,0.0,2025-04-11 21:12:32.815,STOP,7
175.0,27639.831917265885,30132.230237988264,-32093.618165685915,-29252.510279716287,-36482.67376216337,-32276.67895277488,-6819.405474591908,-38217.1691318952,0.0,0.0,0.0,193.0,0.0,193.0,0.0,17.0,0.0,179.0,193.0,17.0,179.0,1744420352.815982,0.0,2025-04-11 21:12:32.815,STOP,7
176.0,27660.641391353776,30132.20788624381,-32093.551110452547,-29247.3023232582,-36484.573660442074,-32284.703229034334,-6683.149240392357,-38213.12346614879,0.0,0.0,0.0,193.0,0.0,193.0,0.0,17.0,0.0,179.0,193.0,17.0,179.0,1744420352.8160377,0.0,2025-04-11 21:12:32.816,STOP,7
177.0,27686.077676543915,30117.29927269212,-32118.227436331206,-29276.22548058337,-36509.89818690994,-32315.7274503383,-6265.99863362296,-38238.98443448358,0.0,0.0,0.0,193.0,0.0,193.0,0.0,17.0,0.0,179.0,193.0,17.0,179.0,1744420352.8161352,0.0,2025-04-11 21:12:32.816,STOP,7
178.0,27662.921269288217,30098.948490494313,-32115.478171763203,-29275.5102247608,-36504.95845138532,-32305.11037172203,-6470.092412244369,-38252.35077766786,0.0,0.0,0.0,193.0,0.0,193.0,0.0,17.0,0.0,179.0,193.0,17.0,179.0,1744420352.8161895,0.0,2025-04-11 21:12:32.816,STOP,7
179.0,27635.674492797196,30114.639415101938,-32110.73960193868,-29264.73668393334,-36499.526977482674,-32294.49329310576,-6812.521137299674,-38247.969835754615,0.0,0.0,0.0,193.0,0.0,194.0,0.0,17.0,0.0,180.0,194.0,17.0,180.0,1744420352.8162413,0.0,2025-04-11 21:12:32.816,STOP,7
180.0,27651.097196471357,30127.178743741366,-32098.826122144,-29257.07003558517,-36485.64654417593,-32291.140531437464,-6787.017796876168,-38233.97764372559,0.0,0.0,0.0,193.0,0.0,194.0,0.0,17.0,0.0,180.0,194.0,17.0,180.0,1744420352.8162956,0.0,2025-04-11 21:12:32.816,STOP,7
181.0,27680.981478808106,30128.43044143086,-32116.036965374587,-29274.951431149417,-36499.63873620495,-32317.225017216806,-6290.294979845879,-38226.26629188851,0.0,0.0,0.0,193.0,0.0,194.0,0.0,17.0,0.0,180.0,194.0,17.0,180.0,1744420352.816347,0.0,2025-04-11 21:12:32.816,STOP,7
182.0,27663.90474604425,30110.504342377706,-32119.523837509616,-29284.495626031832,-36508.333564798064,-32317.67205210591,-6394.878792152262,-38262.14084173928,0.0,0.0,0.0,193.0,0.0,194.0,0.0,17.0,0.0,180.0,194.0,17.0,180.0,1744420352.8164232,0.0,2025-04-11 21:12:32.816,STOP,7
183.0,27634.646312552253,30112.158371467398,-32110.136104838384,-29274.97378289387,-36499.4152187604,-32303.67986007689,-6745.2423864892,-38250.29441717797,0.0,0.0,0.0,193.0,0.0,194.0,0.0,17.0,0.0,179.0,194.0,17.0,179.0,1744420352.816588,0.0,2025-04-11 21:12:32.816,STOP,7
184.0,27647.543269102964,30126.038804774144,-32090.44421797326,-29257.94175361893,-36482.04791331862,-32286.513720335213,-6836.124579444478,-38245.309978164434,0.0,0.0,0.0,193.0,0.0,194.0,0.0,17.0,0.0,179.0,194.0,17.0,179.0,1744420352.8166325,0.0,2025-04-11 21:12:32.816,STOP,7
185.0,27686.591766666388,30130.129174009464,-32099.317860522016,-29263.395579266024,-36492.88850937945,-32300.125932708495,-6351.1587799976805,-38206.574405023384,0.0,0.0,0.0,193.0,0.0,194.0,0.0,17.0,0.0,179.0,194.0,17.0,179.0,1744420352.8166752,0.0,2025-04-11 21:12:32.816,STOP,7
186.0,27679.23804274059,30107.352746409506,-32102.648270445858,-29275.823149183176,-36493.44730299083,-32303.992784499264,-6340.9440327816055,-38246.38286189829,0.0,0.0,0.0,193.0,0.0,193.0,0.0,17.0,0.0,179.0,193.0,17.0,179.0,1744420352.8167176,0.0,2025-04-11 21:12:32.816,STOP,7
187.0,27649.75609180404,30113.43242090135,-32095.696877920258,-29259.662837941985,-36482.60670693001,-32293.10748494953,-6677.851876956449,-38234.87171350381,0.0,0.0,0.0,193.0,0.0,194.0,0.0,17.0,0.0,180.0,194.0,17.0,180.0,1744420352.8167777,0.0,2025-04-11 21:12:32.816,STOP,7
188.0,27644.145803945758,30125.412955929394,-32088.276098761096,-29252.577334949656,-36477.97989582776,-32289.262984903216,-6835.632841066461,-38229.90962623473,0.0,0.0,0.0,193.0,0.0,194.0,0.0,17.0,0.0,180.0,194.0,17.0,180.0,1744420352.8168223,0.0,2025-04-11 21:12:32.816,STOP,7
189.0,27678.858063084852,30131.71614786579,-32099.094343077464,-29259.618134453078,-36493.804930902115,-32306.473828133803,-6417.878737196772,-38208.3178410909,0.0,0.0,0.0,193.0,0.0,193.0,0.0,17.0,0.0,179.0,193.0,17.0,179.0,1744420352.8168755,0.0,2025-04-11 21:12:32.816,STOP,7
190.0,27678.299269473468,30108.872665032468,-32104.682279191293,-29280.092332374137,-36498.431742004366,-32313.87225554851,-6303.929543963617,-38254.541248624475,0.0,0.0,0.0,193.0,0.0,193.0,0.0,17.0,0.0,179.0,193.0,17.0,179.0,1744420352.81692,0.0,2025-04-11 21:12:32.816,STOP,7
191.0,27651.588934849377,30108.604444099004,-32096.009802342633,-29266.36836127858,-36490.251003533725,-32297.91311000742,-6634.467140968698,-38239.587931583876,0.0,0.0,0.0,193.0,0.0,193.0,0.0,17.0,0.0,179.0,193.0,17.0,179.0,1744420352.8169677,0.0,2025-04-11 21:12:32.816,STOP,7
192.0,27643.05056846745,30125.323548951576,-32085.45977895973,-29258.522898974767,-36481.33265749606,-32289.687668047867,-6849.937957517857,-38225.99807095505,0.0,0.0,0.0,193.0,0.0,193.0,0.0,17.0,0.0,179.0,193.0,17.0,179.0,1744420352.8170264,0.0,2025-04-11 21:12:32.817,STOP,7
193.0,27669.805606580452,30117.81336281459,-32092.81350288552,-29262.27799204326,-36489.02165758868,-32308.597243857057,-6506.034017328503,-38214.57632953839,0.0,0.0,0.0,193.0,0.0,193.0,0.0,17.0,0.0,179.0,193.0,17.0,179.0,1744420352.8170688,0.0,2025-04-11 21:12:32.817,STOP,7
194.0,27678.500435173566,30096.57920558205,-32102.29064253457,-29281.16521610799,-36496.822416403586,-32317.135610238984,-6268.591435979776,-38252.66370209023,0.0,0.0,0.0,193.0,0.0,193.0,0.0,17.0,0.0,179.0,193.0,17.0,179.0,1744420352.8171117,0.0,2025-04-11 21:12:32.817,STOP,7
195.0,27654.226440695104,30092.46648460227,-32095.78628489808,-29271.956297392408,-36487.92642211037,-32305.691517077867,-6574.340948383921,-38262.67728360621,0.0,0.0,0.0,193.0,0.0,193.0,0.0,17.0,0.0,179.0,193.0,17.0,179.0,1744420352.817154,0.0,2025-04-11 21:12:32.817,STOP,7
196.0,27637.90966724273,30112.851275545512,-32086.845587115957,-29257.807643152195,-36477.01877081618,-32284.166787167407,-6850.1167714735,-38234.983472226086,0.0,0.0,0.0,193.0,0.0,193.0,0.0,17.0,0.0,179.0,193.0,17.0,179.0,1744420352.8171961,0.0,2025-04-11 21:12:32.817,STOP,7
197.0,27653.310019172433,30113.141848223433,-32097.30620352104,-29258.41114025249,-36491.301535523125,-32290.984069226277,-6612.629486635863,-38202.4169805547,0.0,0.0,0.0,193.0,0.0,193.0,0.0,17.0,0.0,180.0,193.0,17.0,180.0,1744420352.817238,0.0,2025-04-11 21:12:32.817,STOP,7
198.0,27673.493644415576,30107.19628419832,-32111.767782183622,-29281.858120186105,-36503.48323625127,-32313.11229623703,-6254.442781739567,-38234.80465827044,0.0,0.0,0.0,193.0,0.0,193.0,0.0,17.0,0.0,180.0,193.0,17.0,180.0,1744420352.8173325,0.0,2025-04-11 21:12:32.817,STOP,7
199.0,27649.242001681567,30095.260452659186,-32104.12348557991,-29273.140939848538,-36491.435645989855,-32297.8237030296,-6492.958246822149,-38230.46841984611,0.0,0.0,0.0,193.0,0.0,194.0,0.0,17.0,0.0,180.0,194.0,17.0,180.0,1744420352.8173752,0.0,2025-04-11 21:12:32.817,STOP,7
200.0,27626.845553737352,30113.320662179074,-32093.841683130468,-29259.439320497433,-36480.19271852884,-32289.19592966985,-6805.3685790739755,-38220.61130054132,0.0,0.0,0.0,193.0,0.0,194.0,0.0,17.0,0.0,180.0,194.0,17.0,180.0,1744420352.8174174,0.0,2025-04-11 21:12:32.817,STOP,7
201.0,27647.65502782524,30125.748232096226,-32093.327593007994,-29257.025332096262,-36481.48911970724,-32301.087057720073,-6691.2629236296325,-38227.763858767015,0.0,0.0,0.0,193.0,0.0,194.0,0.0,17.0,0.0,180.0,194.0,17.0,180.0,1744420352.817459,0.0,2025-04-11 21:12:32.817,STOP,7
202.0,27679.461560185144,30111.890150533935,-32109.86788390492,-29278.55006200672,-36499.66108794941,-32323.7293748533,-6282.002482652961,-38249.24388518857,0.0,0.0,0.0,193.0,0.0,194.0,0.0,17.0,0.0,180.0,194.0,17.0,180.0,1744420352.8175163,0.0,2025-04-11 21:12:32.817,STOP,7
203.0,27660.149652975757,30088.420818855862,-32107.07391584801,-29277.633640484055,-36497.80589315962,-32312.7770200702,-6462.202246451646,-38262.20789697265,0.0,0.0,0.0,193.0,0.0,194.0,0.0,17.0,0.0,180.0,194.0,17.0,180.0,1744420352.8175588,0.0,2025-04-11 21:12:32.817,STOP,7
204.0,27631.248847395047,30103.687060318836,-32100.0778198335,-29266.21189906739,-36490.20630004481,-32299.38832514147,-6790.05763412209,-38242.873638018806,0.0,0.0,0.0,193.0,0.0,194.0,0.0,17.0,0.0,180.0,194.0,17.0,180.0,1744420352.8176012,0.0,2025-04-11 21:12:32.817,STOP,7
205.0,27643.43054812319,30117.52279013667,-32092.277061018594,-29257.002980351805,-36482.69611390783,-32296.124970450997,-6782.659206707383,-38231.45189660214,0.0,0.0,0.0,193.0,0.0,194.0,0.0,17.0,0.0,180.0,194.0,17.0,180.0,1744420352.817644,0.0,2025-04-11 21:12:32.817,STOP,7
206.0,27667.212804223636,30109.319699921576,-32117.48982876418,-29280.248794585325,-36506.99246013075,-32329.8314010896,-6312.132634178714,-38244.48296361959,0.0,0.0,0.0,193.0,0.0,194.0,0.0,17.0,0.0,180.0,194.0,17.0,180.0,1744420352.817686,0.0,2025-04-11 21:12:32.817,STOP,7
207.0,27654.315847672922,30090.67834504585,-32119.277968320606,-29287.401352811023,-36508.71354445381,-32326.29982546566,-6414.123644128281,-38281.63156290431,0.0,0.0,0.0,193.0,0.0,194.0,0.0,17.0,0.0,179.0,194.0,17.0,179.0,1744420352.817741,0.0,2025-04-11 21:12:32.817,STOP,7
208.0,27626.309111870425,30103.105914963,-32108.750296682156,-29269.631715969055,-36495.32484952508,-32304.886854277476,-6753.646642404395,-38251.83668754539,0.0,0.0,0.0,193.0,0.0,193.0,0.0,17.0,0.0,179.0,193.0,17.0,179.0,1744420352.8177836,0.0,2025-04-11 21:12:32.817,STOP,7
209.0,27631.315902628412,30115.48878139124,-32091.673563918303,-29249.246925025815,-36477.68932314984,-32284.032676700674,-6833.665887554394,-38216.63269002827,0.0,0.0,0.0,193.0,0.0,194.0,0.0,17.0,0.0,180.0,194.0,17.0,180.0,1744420352.817826,0.0,2025-04-11 21:12:32.817,STOP,7
210.0,27665.1787954782,30114.929987779855,-32110.91841589432,-29263.999076366315,-36498.96818387129,-32314.274586948704,-6368.816658117373,-38220.499541819045,0.0,0.0,0.0,193.0,0.0,193.0,0.0,17.0,0.0,179.0,193.0,17.0,179.0,1744420352.8178685,0.0,2025-04-11 21:12:32.817,STOP,7
211.0,27663.658876855243,30090.23131015674,-32113.35475603995,-29277.343067806134,-36499.817550160595,-32314.542807882168,-6357.864303334272,-38261.31382719443,0.0,0.0,0.0,193.0,0.0,194.0,0.0,17.0,0.0,180.0,194.0,17.0,180.0,1744420352.8179104,0.0,2025-04-11 21:12:32.817,STOP,7
212.0,27626.867905481806,30092.48883634673,-32114.919378151822,-29270.54813749172,-36501.89626239494,-32306.6749938339,-6688.759528250638,-38246.69578632066,0.0,0.0,0.0,193.0,0.0,194.0,0.0,17.0,0.0,180.0,194.0,17.0,180.0,1744420352.817953,0.0,2025-04-11 21:12:32.817,STOP,7
213.0,27627.784327004472,30120.652034360413,-32097.68618317678,-29253.6055151946,-36490.385114000455,-32294.06860996111,-6868.400498437942,-38243.790059541476,0.0,0.0,0.0,193.0,0.0,194.0,0.0,17.0,0.0,180.0,194.0,17.0,180.0,1744420352.818058,0.0,2025-04-11 21:12:32.818,STOP,7
214.0,27652.818280794418,30117.031051758655,-32115.07584036301,-29268.245907812823,-36511.84278867755,-32322.768249841723,-6461.464638884621,-38240.19142868417,0.0,0.0,0.0,193.0,0.0,194.0,0.0,17.0,0.0,180.0,194.0,17.0,180.0,1744420352.8181007,0.0,2025-04-11 21:12:32.818,STOP,7
215.0,27661.177833220703,30096.28863290413,-32115.992261885676,-29282.17104460848,-36514.83792243456,-32324.06465102013,-6341.8828060487285,-38283.91144083875,0.0,0.0,0.0,193.0,0.0,194.0,0.0,17.0,0.0,180.0,194.0,17.0,180.0,1744420352.8181424,0.0,2025-04-11 21:12:32.818,STOP,7
216.0,27633.08169044038,30092.66765030237,-32110.381974027394,-29270.92811714746,-36503.28207055117,-32315.30276719365,-6651.566225477008,-38264.06309176244,0.0,0.0,0.0,193.0,0.0,194.0,0.0,17.0,0.0,179.0,194.0,17.0,179.0,1744420352.8181841,0.0,2025-04-11 21:12:32.818,STOP,7
217.0,27617.99426293305,30105.654013830903,-32096.814465143023,-29260.333390275646,-36482.94198309684,-32300.662374575422,-6858.83395181107,-38231.45189660214,0.0,0.0,0.0,193.0,0.0,193.0,0.0,17.0,0.0,179.0,193.0,17.0,179.0,1744420352.8182418,0.0,2025-04-11 21:12:32.818,STOP,7
218.0,27650.203126693148,30111.890150533935,-32101.798904156556,-29261.428625753957,-36488.418160488385,-32316.800334072155,-6548.077648648936,-38224.969890710105,0.0,0.0,0.0,193.0,0.0,193.0,0.0,17.0,0.0,179.0,193.0,17.0,179.0,1744420352.818284,0.0,2025-04-11 21:12:32.818,STOP,7
219.0,27657.1768709632,30087.124417677453,-32120.060279376543,-29290.374134823578,-36507.35008804203,-32338.414470960437,-6294.161831636648,-38284.24671700558,0.0,0.0,0.0,193.0,0.0,193.0,0.0,17.0,0.0,179.0,193.0,17.0,179.0,1744420352.818326,0.0,2025-04-11 21:12:32.818,STOP,7
220.0,27623.29162636896,30077.021429183656,-32117.646290975368,-29282.282803330756,-36503.30442229562,-32322.276511463704,-6578.788945530528,-38261.35853068335,0.0,0.0,0.0,193.0,0.0,193.0,0.0,17.0,0.0,179.0,193.0,17.0,179.0,1744420352.818368,0.0,2025-04-11 21:12:32.818,STOP,7
221.0,27603.443277292645,30090.879510745945,-32106.87275014791,-29270.481082258357,-36490.02748608917,-32309.49131363527,-6859.392745422452,-38240.86198101783,0.0,0.0,0.0,193.0,0.0,193.0,0.0,17.0,0.0,179.0,193.0,17.0,179.0,1744420352.8184147,0.0,2025-04-11 21:12:32.818,STOP,7
222.0,27637.015597464517,30105.318737664074,-32099.65313668885,-29260.311038531192,-36481.89145110744,-32310.54184562467,-6648.504036486631,-38224.701669776645,0.0,0.0,0.0,193.0,0.0,193.0,0.0,17.0,0.0,179.0,193.0,17.0,179.0,1744420352.81847,0.0,2025-04-11 21:12:32.818,STOP,7
223.0,27654.449958139656,30088.95726072279,-32120.708479965746,-29287.624870255575,-36509.048820620636,-32340.180258772405,-6284.215305354036,-38261.5820481279,0.0,0.0,0.0,193.0,0.0,194.0,0.0,17.0,0.0,180.0,194.0,17.0,180.0,1744420352.818513,0.0,2025-04-11 21:12:32.818,STOP,7
224.0,27632.925228229193,30074.786254738126,-32117.199256086264,-29280.13703586305,-36504.6678787074,-32324.399927186958,-6515.377046510822,-38259.59274287138,0.0,0.0,0.0,193.0,0.0,194.0,0.0,17.0,0.0,180.0,194.0,17.0,180.0,1744420352.818555,0.0,2025-04-11 21:12:32.818,STOP,7
225.0,27627.42669909319,30113.834752301547,-32092.45587497424,-29248.64342792552,-36479.58922142854,-32290.78290352618,-6842.472474869785,-38230.93780647967,0.0,0.0,0.0,193.0,0.0,194.0,0.0,17.0,0.0,180.0,194.0,17.0,180.0,1744420352.8185973,0.0,2025-04-11 21:12:32.818,STOP,7
226.0,27642.00003647805,30115.24291220223,-32093.01466858562,-29245.469480212865,-36482.65141041892,-32298.136627451975,-6731.272546204633,-38227.78621051148,0.0,0.0,0.0,193.0,0.0,193.0,0.0,17.0,0.0,179.0,193.0,17.0,179.0,1744420352.8186393,0.0,2025-04-11 21:12:32.818,STOP,7
227.0,27663.971801277617,30098.032068971643,-32121.043756132574,-29275.778445694265,-36511.88749216646,-32332.87123833552,-6299.213325883547,-38256.48585039209,0.0,0.0,0.0,193.0,0.0,193.0,0.0,17.0,0.0,180.0,193.0,17.0,180.0,1744420352.818681,0.0,2025-04-11 21:12:32.818,STOP,7
228.0,27646.67155106921,30078.608403039983,-32111.276043805607,-29270.302268302712,-36499.90695713842,-32314.6769183489,-6465.6220633533085,-38252.39548115677,0.0,0.0,0.0,193.0,0.0,194.0,0.0,17.0,0.0,179.0,194.0,17.0,179.0,1744420352.8187368,0.0,2025-04-11 21:12:32.818,STOP,7
229.0,27620.587065289863,30095.61808057047,-32098.915529121823,-29254.656047184,-36489.42398898888,-32296.169673939905,-6792.695139967816,-38231.45189660214,0.0,0.0,0.0,193.0,0.0,193.0,0.0,17.0,0.0,179.0,193.0,17.0,179.0,1744420352.8187792,0.0,2025-04-11 21:12:32.818,STOP,7
230.0,27629.550114816444,30103.82117078557,-32094.53458720858,-29248.30815175869,-36490.876852378475,-32299.745953052756,-6807.268477352676,-38236.57044608241,0.0,0.0,0.0,193.0,0.0,194.0,0.0,17.0,0.0,179.0,194.0,17.0,179.0,1744420352.8188212,0.0,2025-04-11 21:12:32.818,STOP,7
231.0,27656.551022118452,30099.462580616782,-32114.762915940635,-29263.32852403266,-36509.92053865439,-32321.15892424094,-6337.054829246382,-38235.94459723766,0.0,0.0,0.0,193.0,0.0,194.0,0.0,17.0,0.0,179.0,194.0,17.0,179.0,1744420352.8190188,0.0,2025-04-11 21:12:32.819,STOP,7
232.0,27641.307132399936,30077.71433326177,-32115.41111652984,-29270.972820636372,-36505.58430023007,-32316.129781738495,-6414.838899950851,-38266.499431908065,0.0,0.0,0.0,193.0,0.0,194.0,0.0,17.0,0.0,180.0,194.0,17.0,180.0,1744420352.8190615,0.0,2025-04-11 21:12:32.819,STOP,7
233.0,27613.210989619613,30090.23131015674,-32107.431543759292,-29255.527765217754,-36496.822416403586,-32300.595319342057,-6749.2433487467,-38248.61803634382,0.0,0.0,0.0,193.0,0.0,194.0,0.0,17.0,0.0,180.0,194.0,17.0,180.0,1744420352.819104,0.0,2025-04-11 21:12:32.819,STOP,7
234.0,27617.65898676622,30101.496589362217,-32095.808636642534,-29243.882506356542,-36484.931288353364,-32289.844130259055,-6847.188692949855,-38234.491733848066,0.0,0.0,0.0,193.0,0.0,194.0,0.0,17.0,0.0,179.0,194.0,17.0,179.0,1744420352.8191457,0.0,2025-04-11 21:12:32.819,STOP,7
235.0,27649.398463892754,30099.797856783614,-32112.21481707273,-29257.964105363382,-36503.0138496177,-32316.7779823277,-6384.485230980544,-38230.356661123835,0.0,0.0,0.0,193.0,0.0,193.0,0.0,18.0,0.0,179.0,193.0,18.0,179.0,1744420352.8191876,0.0,2025-04-11 21:12:32.819,STOP,7
236.0,27644.391673134767,30077.28965011712,-32117.73569795319,-29273.65502997101,-36509.7193729543,-32319.057860262143,-6341.7710473264515,-38266.96881854162,0.0,0.0,0.0,193.0,0.0,193.0,0.0,17.0,0.0,179.0,193.0,17.0,179.0,1744420352.8192432,0.0,2025-04-11 21:12:32.819,STOP,7
237.0,27620.408251334222,30088.666688044872,-32100.43544774478,-29250.945657604418,-36487.50173896572,-32295.230900672785,-6679.081222901491,-38240.28083566199,0.0,0.0,0.0,193.0,0.0,193.0,0.0,18.0,0.0,179.0,193.0,18.0,179.0,1744420352.8192856,0.0,2025-04-11 21:12:32.819,STOP,7
238.0,27611.31109134091,30097.026240471154,-32089.438389472773,-29239.07688129865,-36475.16357602639,-32282.423351099893,-6869.987472294268,-38218.823160984895,0.0,0.0,0.0,193.0,0.0,193.0,0.0,18.0,0.0,179.0,193.0,18.0,179.0,1744420352.819327,0.0,2025-04-11 21:12:32.819,STOP,7
239.0,27637.127356186793,30093.628775313948,-32109.756125182645,-29255.438358239935,-36501.65039320593,-32313.49227589277,-6469.019528510515,-38227.070954688905,0.0,0.0,0.0,193.0,0.0,193.0,0.0,17.0,0.0,180.0,193.0,17.0,180.0,1744420352.8193688,0.0,2025-04-11 21:12:32.819,STOP,7
240.0,27644.57048709041,30074.942716949314,-32114.27117756262,-29275.39846603852,-36503.08090485107,-32318.946101539863,-6312.512613834455,-38263.839574317884,0.0,0.0,0.0,193.0,0.0,193.0,0.0,17.0,0.0,180.0,193.0,17.0,180.0,1744420352.8194103,0.0,2025-04-11 21:12:32.819,STOP,7
241.0,27617.435469321666,30072.28285935913,-32107.07391584801,-29267.41889326798,-36492.195605301335,-32305.937386266876,-6625.660553653307,-38246.94165550967,0.0,0.0,0.0,193.0,0.0,193.0,0.0,17.0,0.0,179.0,193.0,17.0,179.0,1744420352.8194523,0.0,2025-04-11 21:12:32.819,STOP,7
242.0,27611.668719252197,30097.18270268234,-32088.36550573892,-29250.588029693132,-36473.28602949215,-32294.806217528134,-6870.076879272089,-38245.466440375625,0.0,0.0,0.0,193.0,0.0,194.0,0.0,17.0,0.0,180.0,194.0,17.0,180.0,1744420352.819494,0.0,2025-04-11 21:12:32.819,STOP,7
243.0,27632.589952062364,30095.372211381462,-32102.223587301207,-29258.41114025249,-36490.07218957808,-32318.275549206206,-6572.083422193936,-38246.33815840938,0.0,0.0,0.0,193.0,0.0,194.0,0.0,17.0,0.0,180.0,194.0,17.0,180.0,1744420352.8195505,0.0,2025-04-11 21:12:32.819,STOP,7
244.0,27643.85523126784,30078.921327462358,-32118.16038109784,-29283.310983575702,-36507.595957231046,-32329.227903989307,-6302.655494529664,-38268.51108890904,0.0,0.0,0.0,193.0,0.0,194.0,0.0,18.0,0.0,179.0,194.0,18.0,179.0,1744420352.8196666,0.0,2025-04-11 21:12:32.819,STOP,7
245.0,27613.74743148654,30070.76294073617,-32116.707517708248,-29277.968916650883,-36499.43757050486,-32317.202665472352,-6574.318596639467,-38250.85321078935,0.0,0.0,0.0,193.0,0.0,194.0,0.0,17.0,0.0,180.0,194.0,17.0,180.0,1744420352.8197172,0.0,2025-04-11 21:12:32.819,STOP,7
246.0,27596.447181278134,30089.359592122986,-32102.603566956946,-29261.47332924287,-36480.595049929034,-32302.182293198384,-6868.892236815958,-38244.415908386225,0.0,0.0,0.0,193.0,0.0,194.0,0.0,17.0,0.0,180.0,194.0,17.0,180.0,1744420352.819794,0.0,2025-04-11 21:12:32.819,STOP,7
