Sample Index,EXG Channel 0,EXG Channel 1,EXG Channel 2,EXG Channel 3,EXG Channel 4,EXG Channel 5,EXG Channel 6,EXG Channel 7,Accel Channel 0,Accel Channel 1,Accel Channel 2,Not Used,Digital Channel 0 (D11),Digital Channel 1 (D12),Digital Channel 2 (D13),Digital Channel 3 (D17),Not Used,Digital Channel 4 (D18),Analog Channel 0,Analog Channel 1,Analog Channel 2,Timestamp,Marker Channel,Timestamp (Formatted),Stimulus_Direction,Stimulus_Number
236.0,16155.706781829213,23662.473101910724,-31203.482294497764,-18709.147716659038,-33885.93749832362,-25106.39579372356,-14410.974313136854,-29305.84154198665,0.0,0.0,0.0,193.0,0.0,193.0,0.0,1.0,0.0,179.0,193.0,1.0,179.0,1744420688.5823195,0.0,2025-04-11 21:18:08.582,STOP,49
237.0,16131.253973395107,23672.754904360165,-31197.044992094638,-18696.18370487496,-33879.99193429851,-25081.741819589355,-14760.7344103735,-29260.065169342182,0.0,0.0,0.0,193.0,0.0,194.0,0.0,1.0,0.0,180.0,194.0,1.0,180.0,1744420688.5823665,0.0,2025-04-11 21:18:08.582,STOP,49
238.0,16131.0081042061,23678.119323029438,-31193.088733326047,-18693.255626351314,-33879.88017557623,-25084.804008579733,-14857.763333053987,-29262.814433910185,0.0,0.0,0.0,193.0,0.0,194.0,0.0,1.0,0.0,179.0,194.0,1.0,179.0,1744420688.5824113,0.0,2025-04-11 21:18:08.582,STOP,49
239.0,16150.789398049046,23677.560529418057,-31201.001250863228,-18698.597693276133,-33888.12796928024,-25101.63487215458,-14385.001586079787,-29217.105116499082,0.0,0.0,0.0,193.0,0.0,193.0,0.0,1.0,0.0,179.0,193.0,1.0,179.0,1744420688.5824566,0.0,2025-04-11 21:18:08.582,STOP,49
240.0,16149.850624781922,23665.602346134467,-31201.18006481887,-18710.354710859625,-33886.74216112401,-25100.427877953993,-14374.004527807776,-29276.44899802792,0.0,0.0,0.0,193.0,0.0,194.0,0.0,1.0,0.0,179.0,194.0,1.0,179.0,1744420688.5825367,0.0,2025-04-11 21:18:08.582,STOP,49
241.0,16128.258839638096,23671.05617178156,-31203.526997986675,-18708.18659164746,-33887.77034136896,-25098.952662819942,-14722.512927354925,-29276.89603291703,0.0,0.0,0.0,193.0,0.0,193.0,0.0,1.0,0.0,179.0,193.0,1.0,179.0,1744420688.5826027,0.0,2025-04-11 21:18:08.582,STOP,49
242.0,16120.838060478934,23681.136808530904,-31191.79233214764,-18697.904789198015,-33878.74023660901,-25090.54840690475,-14905.394900488247,-29277.007791639306,0.0,0.0,0.0,193.0,0.0,194.0,0.0,1.0,0.0,180.0,194.0,1.0,180.0,1744420688.582651,0.0,2025-04-11 21:18:08.582,STOP,49
243.0,16149.00125849262,23685.65186091088,-31200.688326440853,-18699.335300843155,-33893.6488501607,-25106.9769390794,-14488.087831507664,-29227.72219511535,0.0,0.0,0.0,193.0,0.0,193.0,0.0,1.0,0.0,179.0,193.0,1.0,179.0,1744420688.5826993,0.0,2025-04-11 21:18:08.582,STOP,49
244.0,16156.48909288515,23676.375886961927,-31208.60084397803,-18721.08354819817,-33896.77809438445,-25121.259703786338,-14363.074524769132,-29299.359536094613,0.0,0.0,0.0,193.0,0.0,193.0,0.0,1.0,0.0,179.0,193.0,1.0,179.0,1744420688.5827463,0.0,2025-04-11 21:18:08.582,STOP,49
245.0,16134.338514129939,23671.81613109304,-31202.185893319358,-18709.08066142567,-33877.3991319417,-25102.01485181032,-14663.057287103808,-29280.919346918985,0.0,0.0,0.0,193.0,0.0,194.0,0.0,1.0,0.0,179.0,194.0,1.0,179.0,1744420688.5828092,0.0,2025-04-11 21:18:08.582,STOP,49
246.0,16124.369636102872,23682.96965157624,-31194.45218973782,-18701.54812354423,-33869.39720742669,-25089.363764448615,-14891.492115437046,-29267.39654152352,0.0,0.0,0.0,193.0,0.0,193.0,0.0,1.0,0.0,179.0,193.0,1.0,179.0,1744420688.5828545,0.0,2025-04-11 21:18:08.582,STOP,49
247.0,16146.631973580359,23684.489570199203,-31198.02846885067,-18700.385832832555,-33878.82964358683,-25103.758287877834,-14570.766934247844,-29232.05843353968,0.0,0.0,0.0,193.0,0.0,194.0,0.0,1.0,0.0,180.0,194.0,1.0,180.0,1744420688.5828989,0.0,2025-04-11 21:18:08.582,STOP,49
248.0,16149.358886403907,23670.340915958994,-31209.807838178618,-18722.737577287862,-33892.75478038249,-25118.756308407344,-14300.556695527637,-29265.518994989277,0.0,0.0,0.0,193.0,0.0,194.0,0.0,1.0,0.0,179.0,194.0,1.0,179.0,1744420688.5829444,0.0,2025-04-11 21:18:08.582,STOP,49
249.0,16127.141252415331,23668.262203724647,-31206.231559065767,-18715.69677778444,-33887.859748346775,-25103.937101833475,-14600.539457862313,-29280.22644284087,0.0,0.0,0.0,193.0,0.0,193.0,0.0,1.0,0.0,179.0,193.0,1.0,179.0,1744420688.58299,0.0,2025-04-11 21:18:08.582,STOP,49
250.0,16115.719510998668,23680.421552708336,-31199.660146195907,-18708.5665713032,-33882.47297793305,-25094.124686017596,-14903.47265046509,-29277.678343972966,0.0,0.0,0.0,193.0,0.0,194.0,0.0,1.0,0.0,180.0,194.0,1.0,180.0,1744420688.5830407,0.0,2025-04-11 21:18:08.583,STOP,49
251.0,16134.71849378568,23683.34963123198,-31196.799122905628,-18703.93976020095,-33882.696495377604,-25101.791334365767,-14682.43624954656,-29250.18569829294,0.0,0.0,0.0,193.0,0.0,193.0,0.0,1.0,0.0,179.0,193.0,1.0,179.0,1744420688.5832264,0.0,2025-04-11 21:18:08.583,STOP,49
252.0,16144.754427046113,23674.16306426085,-31212.668861468897,-18727.61025757912,-33898.47682696305,-25120.991482852874,-14304.870582207512,-29261.383922265046,0.0,0.0,0.0,193.0,0.0,194.0,0.0,1.0,0.0,180.0,194.0,1.0,180.0,1744420688.5832722,0.0,2025-04-11 21:18:08.583,STOP,49
253.0,16124.883726225344,23657.287497197092,-31218.614425494008,-18734.42753963799,-33898.074495562854,-25120.097413074665,-14542.290811811783,-29294.79978022573,0.0,0.0,0.0,193.0,0.0,194.0,0.0,1.0,0.0,179.0,194.0,1.0,179.0,1744420688.583315,0.0,2025-04-11 21:18:08.583,STOP,49
254.0,16113.551391786505,23670.25150898117,-31206.902111399428,-18718.244876652345,-33883.27764073344,-25105.837000112177,-14883.736060111054,-29295.783256981762,0.0,0.0,0.0,193.0,0.0,193.0,0.0,1.0,0.0,179.0,193.0,1.0,179.0,1744420688.5833778,0.0,2025-04-11 21:18:08.583,STOP,49
255.0,16124.347284358417,23678.83457885201,-31198.31904152859,-18707.18076314697,-33873.86755631775,-25101.81368611022,-14757.761628360944,-29253.247887283313,0.0,0.0,0.0,193.0,0.0,194.0,0.0,1.0,0.0,179.0,194.0,1.0,179.0,1744420688.5834212,0.0,2025-04-11 21:18:08.583,STOP,49
0.0,16147.280174169562,23681.516788186647,-31208.667899211396,-18720.681216797973,-33884.55169016739,-25116.744651406367,-14292.06303263462,-29222.514238657266,0.0,0.0,0.0,193.0,0.0,193.0,0.0,1.0,0.0,179.0,193.0,1.0,179.0,1744420688.5834644,0.0,2025-04-11 21:18:08.583,STOP,49
1.0,16144.86618576839,23667.368133946435,-31208.712602700307,-18723.430481365976,-33885.60222215679,-25112.29665425976,-14473.179217955974,-29292.408143569013,0.0,0.0,0.0,193.0,0.0,194.0,0.0,1.0,0.0,180.0,194.0,1.0,180.0,1744420688.5835068,0.0,2025-04-11 21:18:08.583,STOP,49
2.0,16127.409473348795,23679.482779441212,-31203.012907864206,-18711.137021915558,-33883.255288988985,-25098.237406997374,-14834.986905454029,-29285.94848942143,0.0,0.0,0.0,193.0,0.0,193.0,0.0,1.0,0.0,179.0,193.0,1.0,179.0,1744420688.5835657,0.0,2025-04-11 21:18:08.583,STOP,49
3.0,16133.57855481846,23691.508017958167,-31195.23450079376,-18704.47620206788,-33880.48367267653,-25097.365688963615,-14849.247318416516,-29270.391675280534,0.0,0.0,0.0,193.0,0.0,194.0,0.0,1.0,0.0,179.0,194.0,1.0,179.0,1744420688.5836163,0.0,2025-04-11 21:18:08.583,STOP,49
4.0,16158.72426733068,23690.859817368964,-31206.656242210418,-18716.389681862554,-33895.347582739305,-25116.521133961814,-14360.41466717895,-29233.89127658502,0.0,0.0,0.0,193.0,0.0,193.0,0.0,1.0,0.0,179.0,193.0,1.0,179.0,1744420688.583726,0.0,2025-04-11 21:18:08.583,STOP,49
5.0,16150.09649397093,23674.028953794117,-31207.75147768873,-18726.157394189526,-33893.98412632753,-25113.97303509391,-14436.991743682831,-29293.413972069502,0.0,0.0,0.0,193.0,0.0,193.0,0.0,1.0,0.0,179.0,193.0,1.0,179.0,1744420688.583783,0.0,2025-04-11 21:18:08.583,STOP,49
6.0,16121.66507502378,23676.062962539552,-31212.17712309088,-18722.08937669866,-33900.98022234204,-25109.547389691757,-14790.797506665887,-29288.898919689527,0.0,0.0,0.0,193.0,0.0,194.0,0.0,1.0,0.0,180.0,194.0,1.0,180.0,1744420688.5838406,0.0,2025-04-11 21:18:08.583,STOP,49
7.0,16130.024627450066,23687.752924889675,-31197.357916517012,-18708.99125444785,-33886.38453321273,-25101.947796576955,-14903.562057442912,-29283.84742544263,0.0,0.0,0.0,193.0,0.0,193.0,0.0,1.0,0.0,179.0,193.0,1.0,179.0,1744420688.5838928,0.0,2025-04-11 21:18:08.583,STOP,49
8.0,16159.730095831168,23696.894788371897,-31200.263643296203,-18709.12536491458,-33895.61580367277,-25121.036186341786,-14439.316325106183,-29247.861116869586,0.0,0.0,0.0,193.0,0.0,194.0,0.0,1.0,0.0,180.0,194.0,1.0,180.0,1744420688.5839431,0.0,2025-04-11 21:18:08.583,STOP,49
9.0,16151.05761898251,23675.839445094996,-31211.014832379205,-18731.56651634771,-33908.848036390315,-25131.988541124887,-14397.004472852288,-29319.029071215282,0.0,0.0,0.0,193.0,0.0,194.0,0.0,0.0,0.0,179.0,194.0,0.0,179.0,1744420688.5839972,0.0,2025-04-11 21:18:08.583,STOP,49
10.0,16129.04115069403,23676.934680573308,-31204.04108810915,-18716.501440584834,-33902.32132700936,-25108.765078635824,-14760.041506295385,-29301.773524495784,0.0,0.0,0.0,193.0,0.0,193.0,0.0,0.0,0.0,179.0,193.0,0.0,179.0,1744420688.5841866,0.0,2025-04-11 21:18:08.584,STOP,49
11.0,16120.346322100917,23690.435134224314,-31196.553253716622,-18705.951417201926,-33893.35827748278,-25105.009985567332,-14927.47842401009,-29280.517015518788,0.0,0.0,0.0,193.0,0.0,193.0,0.0,0.0,0.0,179.0,193.0,0.0,179.0,1744420688.5842347,0.0,2025-04-11 21:18:08.584,STOP,49
12.0,16151.392895149338,23695.285462771113,-31198.788428162152,-18706.599617791133,-33889.826701858845,-25124.679520688,-14500.940084569465,-29241.423814466456,0.0,0.0,0.0,193.0,0.0,193.0,0.0,1.0,0.0,179.0,193.0,1.0,179.0,1744420688.584282,0.0,2025-04-11 21:18:08.584,STOP,49
13.0,16152.733999816657,23677.247604995682,-31208.690250955853,-18730.784205291773,-33899.08032406334,-25133.240238814386,-14315.979399201799,-29285.233233598858,0.0,0.0,0.0,193.0,0.0,194.0,0.0,0.0,0.0,179.0,194.0,0.0,179.0,1744420688.5844088,0.0,2025-04-11 21:18:08.584,STOP,49
14.0,16133.198575162718,23674.49834042768,-31203.594053220044,-18722.648170310043,-33892.73242863803,-25115.40354673905,-14654.295403277327,-29294.397448825534,0.0,0.0,0.0,193.0,0.0,193.0,0.0,0.0,0.0,179.0,193.0,0.0,179.0,1744420688.5844584,0.0,2025-04-11 21:18:08.584,STOP,49
15.0,16122.939124457733,23684.98130857722,-31196.307384527612,-18716.70260628493,-33885.065780289864,-25111.49199145937,-14926.09261585386,-29307.85319898763,0.0,0.0,0.0,193.0,0.0,194.0,0.0,1.0,0.0,179.0,194.0,1.0,179.0,1744420688.584505,0.0,2025-04-11 21:18:08.584,STOP,49
16.0,16136.931316486754,23688.11055280096,-31200.911843885406,-18715.56266731771,-33891.436027459626,-25124.16543056553,-14604.473364886448,-29261.69684668742,0.0,0.0,0.0,193.0,0.0,194.0,0.0,0.0,0.0,180.0,194.0,0.0,180.0,1744420688.584552,0.0,2025-04-11 21:18:08.584,STOP,49
17.0,16149.872976526378,23680.332145730514,-31210.23252132327,-18733.689932070964,-33898.45447521859,-25129.999235868363,-14306.25639036374,-29270.145806091525,0.0,0.0,0.0,193.0,0.0,193.0,0.0,0.0,0.0,179.0,193.0,0.0,179.0,1744420688.5846045,0.0,2025-04-11 21:18:08.584,STOP,49
18.0,16132.662133295791,23671.100875270473,-31211.03718412366,-18728.10199595714,-33899.415600230175,-25115.20238103895,-14597.343158405205,-29283.109817875604,0.0,0.0,0.0,193.0,0.0,194.0,0.0,0.0,0.0,179.0,194.0,0.0,179.0,1744420688.5846488,0.0,2025-04-11 21:18:08.584,STOP,49
19.0,16119.564011044982,23686.478875455723,-31200.084829340558,-18713.88628648356,-33884.730504123036,-25102.88656984408,-14911.407519746725,-29285.07677138767,0.0,0.0,0.0,193.0,0.0,193.0,0.0,0.0,0.0,179.0,193.0,0.0,179.0,1744420688.5852754,0.0,2025-04-11 21:18:08.585,STOP,49
20.0,16136.931316486754,23695.844256382497,-31198.967242117793,-18709.818268992694,-33883.85878608928,-25117.705776417944,-14703.245723634449,-29270.771654936274,0.0,0.0,0.0,193.0,0.0,194.0,0.0,0.0,0.0,179.0,194.0,0.0,179.0,1744420688.5853355,0.0,2025-04-11 21:18:08.585,STOP,49
21.0,16153.046924239032,23687.4400004673,-31215.03814638116,-18731.790033792262,-33899.46030371908,-25139.476375517414,-14307.821012475611,-29287.73662897785,0.0,0.0,0.0,193.0,0.0,193.0,0.0,0.0,0.0,179.0,193.0,0.0,179.0,1744420688.5854025,0.0,2025-04-11 21:18:08.585,STOP,49
22.0,16134.09264494093,23677.292308484593,-31214.389945791954,-18730.828908780684,-33892.91124259368,-25127.428785256005,-14534.043018107775,-29318.04559445925,0.0,0.0,0.0,193.0,0.0,193.0,0.0,0.0,0.0,179.0,193.0,0.0,179.0,1744420688.5854585,0.0,2025-04-11 21:18:08.585,STOP,49
23.0,16116.457118565693,23688.959919090263,-31207.706774199818,-18719.720091786396,-33884.28346923393,-25111.581398437193,-14858.478588876556,-29289.390658067547,0.0,0.0,0.0,193.0,0.0,194.0,0.0,0.0,0.0,180.0,194.0,0.0,180.0,1744420688.5855088,0.0,2025-04-11 21:18:08.585,STOP,49
24.0,16134.182051918753,23695.93366336032,-31196.553253716622,-18709.50534457032,-33877.443835430604,-25116.16350605053,-14777.609977437256,-29277.11955036158,0.0,0.0,0.0,193.0,0.0,193.0,0.0,0.0,0.0,179.0,193.0,0.0,179.0,1744420688.585562,0.0,2025-04-11 21:18:08.585,STOP,49
25.0,16151.571709104981,23690.21161677976,-31211.059535868113,-18726.336208145167,-33892.44185596012,-25141.48803251839,-14305.094099652064,-29261.160404820494,0.0,0.0,0.0,193.0,0.0,193.0,0.0,0.0,0.0,179.0,193.0,0.0,179.0,1744420688.58569,0.0,2025-04-11 21:18:08.585,STOP,49
26.0,16139.613525821393,23675.59357590599,-31214.79227719215,-18734.00285649334,-33895.772265883956,-25136.30242780476,-14463.679726562468,-29318.38087062608,0.0,0.0,0.0,193.0,0.0,194.0,0.0,0.0,0.0,179.0,194.0,0.0,179.0,1744420688.5857341,0.0,2025-04-11 21:18:08.585,STOP,49
27.0,16122.447386079717,23694.83842788201,-31208.645547466942,-18720.055367953228,-33889.46907394756,-25119.806840396745,-14829.778948995943,-29304.947472208438,0.0,0.0,0.0,193.0,0.0,193.0,0.0,0.0,0.0,179.0,193.0,0.0,179.0,1744420688.5857763,0.0,2025-04-11 21:18:08.585,STOP,49
28.0,16136.394874619828,23716.720785703754,-31199.101352584526,-18706.71137651341,-33879.85782383178,-25115.492953716872,-14869.766219826488,-29302.287614618257,0.0,0.0,0.0,193.0,0.0,193.0,0.0,0.0,0.0,179.0,193.0,0.0,179.0,1744420688.5858436,0.0,2025-04-11 21:18:08.585,STOP,49
29.0,16152.532834116559,23706.327224532037,-31208.37732653348,-18712.27696088278,-33886.31747797936,-25132.43557601399,-14378.340766232106,-29260.445148997922,0.0,0.0,0.0,193.0,0.0,193.0,0.0,0.0,0.0,179.0,193.0,0.0,179.0,1744420688.585886,0.0,2025-04-11 21:18:08.585,STOP,49
30.0,16132.908002484799,23670.810302592552,-31207.75147768873,-18721.396472620545,-33881.35539071028,-25125.841811399678,-14408.873249158056,-29310.825981000184,0.0,0.0,0.0,193.0,0.0,193.0,0.0,0.0,0.0,180.0,193.0,0.0,180.0,1744420688.5859284,0.0,2025-04-11 21:18:08.585,STOP,49
31.0,16119.38519708934,23676.39823870638,-31199.88366364046,-18709.17006840349,-33870.78301558292,-25106.30638674574,-14756.197006249073,-29289.524768534277,0.0,0.0,0.0,193.0,0.0,194.0,0.0,0.0,0.0,179.0,194.0,0.0,179.0,1744420688.5859716,0.0,2025-04-11 21:18:08.585,STOP,49
32.0,16120.14515640082,23686.233006266717,-31195.681535682863,-18705.772603246285,-33866.58088762533,-25104.8758751006,-14874.862417562297,-29281.768713208286,0.0,0.0,0.0,193.0,0.0,193.0,0.0,0.0,0.0,179.0,193.0,0.0,179.0,1744420688.5860388,0.0,2025-04-11 21:18:08.586,STOP,49
33.0,16142.675714811769,23684.310756243558,-31207.4162015219,-18714.825059750685,-33884.64109714521,-25129.127517834608,-14417.501022517805,-29243.882506356542,0.0,0.0,0.0,193.0,0.0,193.0,0.0,0.0,0.0,179.0,193.0,0.0,179.0,1744420688.5861332,0.0,2025-04-11 21:18:08.586,STOP,49
34.0,16144.128578201364,23671.525558415124,-31207.259739310713,-18727.83377502367,-33885.915146579166,-25126.86999164462,-14359.677059611924,-29299.739515750352,0.0,0.0,0.0,193.0,0.0,193.0,0.0,0.0,0.0,179.0,193.0,0.0,179.0,1744420688.5861835,0.0,2025-04-11 21:18:08.586,STOP,49
35.0,16124.079063424953,23677.918157329343,-31203.169370075393,-18717.84254525215,-33879.16491975366,-25111.335529248183,-14696.517848553402,-29287.781332466762,0.0,0.0,0.0,193.0,0.0,194.0,0.0,0.0,0.0,179.0,194.0,0.0,179.0,1744420688.5862317,0.0,2025-04-11 21:18:08.586,STOP,49
36.0,16120.100452911909,23692.35738424747,-31191.99349784774,-18706.867838724596,-33871.47591966104,-25097.924482575,-14908.18886854516,-29278.907689918007,0.0,0.0,0.0,193.0,0.0,194.0,0.0,0.0,0.0,180.0,194.0,0.0,180.0,1744420688.586279,0.0,2025-04-11 21:18:08.586,STOP,49
37.0,16139.881746754856,23686.25535801117,-31202.968204375295,-18712.880457983072,-33887.27860299094,-25120.700910174957,-14512.317122497216,-29243.658988911986,0.0,0.0,0.0,193.0,0.0,193.0,0.0,0.0,0.0,179.0,193.0,0.0,179.0,1744420688.5863261,0.0,2025-04-11 21:18:08.586,STOP,49
38.0,16151.929337016267,23678.588709663,-31208.109105600015,-18726.537373845265,-33895.280527505936,-25126.69117768898,-14326.64118130698,-29288.5636435227,0.0,0.0,0.0,193.0,0.0,194.0,0.0,0.0,0.0,180.0,194.0,0.0,180.0,1744420688.5863736,0.0,2025-04-11 21:18:08.586,STOP,49
39.0,16127.767101260079,23675.97355556173,-31207.192684077345,-18717.887248741063,-33891.25721350399,-25115.761174650335,-14650.026220086364,-29293.056344158216,0.0,0.0,0.0,193.0,0.0,194.0,0.0,0.0,0.0,180.0,194.0,0.0,180.0,1744420688.5864203,0.0,2025-04-11 21:18:08.586,STOP,49
40.0,16113.461984808682,23686.16595103335,-31198.3637450175,-18706.152582902025,-33883.16588201116,-25107.8263053687,-14920.281162295481,-29290.865873201594,0.0,0.0,0.0,193.0,0.0,193.0,0.0,0.0,0.0,179.0,193.0,0.0,179.0,1744420688.5865502,0.0,2025-04-11 21:18:08.586,STOP,49
41.0,16138.048903709521,23691.35155574698,-31200.84478865204,-18703.291559611745,-33890.0502193034,-25122.131421820097,-14633.150653022607,-29268.51412874629,0.0,0.0,0.0,193.0,0.0,194.0,0.0,0.0,0.0,180.0,194.0,0.0,180.0,1744420688.586594,0.0,2025-04-11 21:18:08.586,STOP,49
42.0,16148.353057903418,23677.694639884787,-31217.206265593326,-18724.525716844288,-33907.21635904507,-25137.442366771982,-14323.601344061059,-29293.481027302867,0.0,0.0,0.0,193.0,0.0,194.0,0.0,0.0,0.0,179.0,194.0,0.0,179.0,1744420688.5866368,0.0,2025-04-11 21:18:08.586,STOP,49
43.0,16125.9566099592,23663.59068913349,-31215.306367314624,-18720.435347608967,-33893.71590539407,-25119.8291921412,-14580.735812274912,-29287.289594088747,0.0,0.0,0.0,193.0,0.0,194.0,0.0,0.0,0.0,179.0,194.0,0.0,179.0,1744420688.5867,0.0,2025-04-11 21:18:08.586,STOP,49
44.0,16113.976074931155,23678.40989570736,-31201.42593400788,-18705.45967882391,-33877.46618717506,-25103.288901244272,-14884.272501977981,-29274.54909974922,0.0,0.0,0.0,193.0,0.0,193.0,0.0,0.0,0.0,179.0,193.0,0.0,179.0,1744420688.5867424,0.0,2025-04-11 21:18:08.586,STOP,49
45.0,16130.672828039269,23687.4400004673,-31194.496893226733,-18696.139001386047,-33878.09203601981,-25107.625139668602,-14716.455604607536,-29259.21580305288,0.0,0.0,0.0,193.0,0.0,193.0,0.0,0.0,0.0,179.0,193.0,0.0,179.0,1744420688.5867848,0.0,2025-04-11 21:18:08.586,STOP,49
46.0,16144.977944490665,23676.085314284006,-31207.4162015219,-18714.914466728507,-33894.49821645,-25125.171259066017,-14297.896837937456,-29258.83582339714,0.0,0.0,0.0,193.0,0.0,194.0,0.0,0.0,0.0,180.0,194.0,0.0,180.0,1744420688.5868268,0.0,2025-04-11 21:18:08.586,STOP,49
47.0,16121.016874434576,23663.993020533686,-31207.885588155463,-18718.624856308088,-33893.93942283862,-25117.50461071785,-14516.16162254353,-29297.79491398274,0.0,0.0,0.0,193.0,0.0,193.0,0.0,0.0,0.0,179.0,193.0,0.0,179.0,1744420688.5868688,0.0,2025-04-11 21:18:08.586,STOP,49
48.0,16109.32691208445,23677.96286081825,-31196.4638467388,-18705.28086486827,-33883.29999247789,-25102.327776232694,-14861.831350544853,-29285.88143418806,0.0,0.0,0.0,193.0,0.0,193.0,0.0,0.0,0.0,179.0,193.0,0.0,179.0,1744420688.5869243,0.0,2025-04-11 21:18:08.586,STOP,49
49.0,16130.00227570561,23688.222311523237,-31184.282146010657,-18694.37321357408,-33876.43800693012,-25103.892398344567,-14801.101660859784,-29270.436378769446,0.0,0.0,0.0,193.0,0.0,194.0,0.0,0.0,0.0,180.0,194.0,0.0,180.0,1744420688.5869668,0.0,2025-04-11 21:18:08.586,STOP,49
50.0,16149.045961981532,23677.78404686261,-31199.838960151552,-18709.482992825866,-33893.537091438426,-25125.148907321563,-14318.54984981416,-29233.779517862742,0.0,0.0,0.0,193.0,0.0,193.0,0.0,0.0,0.0,179.0,193.0,0.0,179.0,1744420688.5870087,0.0,2025-04-11 21:18:08.587,STOP,49
51.0,16134.29381064103,23657.645125108378,-31202.61057646401,-18719.5189260863,-33889.066742547366,-25126.02062535532,-14456.549520081226,-29289.949451678927,0.0,0.0,0.0,193.0,0.0,193.0,0.0,0.0,0.0,179.0,193.0,0.0,179.0,1744420688.5870504,0.0,2025-04-11 21:18:08.587,STOP,49
52.0,16108.432842306238,23668.284555469105,-31200.397753762933,-18709.12536491458,-33883.389399455715,-25115.895285117065,-14807.047224884895,-29282.528672519766,0.0,0.0,0.0,193.0,0.0,194.0,0.0,0.0,0.0,179.0,194.0,0.0,179.0,1744420688.5870948,0.0,2025-04-11 21:18:08.587,STOP,49
53.0,16116.412415076784,23675.817093350543,-31192.88756762595,-18702.643359022542,-33879.969582554055,-25114.263607771827,-14868.380411670258,-29286.239062099346,0.0,0.0,0.0,193.0,0.0,193.0,0.0,0.0,0.0,179.0,193.0,0.0,179.0,1744420688.5871408,0.0,2025-04-11 21:18:08.587,STOP,49
54.0,16140.9099269998,23676.57705266202,-31201.291823541145,-18710.22060039289,-33892.08422804883,-25127.629950956103,-14379.234836010319,-29245.514183701776,0.0,0.0,0.0,193.0,0.0,193.0,0.0,0.0,0.0,179.0,193.0,0.0,179.0,1744420688.5871828,0.0,2025-04-11 21:18:08.587,STOP,49
55.0,16131.723360028669,23665.289421712092,-31202.543521230644,-18719.27305689729,-33893.17946352714,-25115.53765720578,-14415.578772494648,-29287.915442933496,0.0,0.0,0.0,193.0,0.0,194.0,0.0,0.0,0.0,180.0,194.0,0.0,180.0,1744420688.587278,0.0,2025-04-11 21:18:08.587,STOP,49
56.0,16110.109223140387,23673.24664273818,-31198.98959386225,-18707.203114891425,-33887.32330647985,-25103.959453577932,-14760.041506295385,-29272.425684025966,0.0,0.0,0.0,193.0,0.0,193.0,0.0,0.0,0.0,179.0,193.0,0.0,179.0,1744420688.5873206,0.0,2025-04-11 21:18:08.587,STOP,49
57.0,16119.206383133696,23684.668384154844,-31183.857462866006,-18692.585074017654,-33870.22422197154,-25094.549369162247,-14895.448374205635,-29265.18371882245,0.0,0.0,0.0,193.0,0.0,193.0,0.0,0.0,0.0,179.0,193.0,0.0,179.0,1744420688.5873625,0.0,2025-04-11 21:18:08.587,STOP,49
58.0,16146.408456135805,23687.797628378587,-31191.79233214764,-18694.574379274178,-33883.63526864473,-25111.044956570266,-14447.944098465932,-29226.671663125955,0.0,0.0,0.0,193.0,0.0,193.0,0.0,0.0,0.0,179.0,193.0,0.0,179.0,1744420688.5874205,0.0,2025-04-11 21:18:08.587,STOP,49
59.0,16136.506633342104,23668.843349080485,-31205.024564865183,-18719.138946430558,-33894.162940283175,-25120.96913110842,-14353.195053719886,-29288.630698756064,0.0,0.0,0.0,193.0,0.0,193.0,0.0,0.0,0.0,179.0,193.0,0.0,179.0,1744420688.5874624,0.0,2025-04-11 21:18:08.587,STOP,49
60.0,16104.923618426756,23662.003715277162,-31209.60667247852,-18714.4674318394,-33894.40880947218,-25112.319006004218,-14697.031938675875,-29287.244890599835,0.0,0.0,0.0,193.0,0.0,194.0,0.0,0.0,0.0,180.0,194.0,0.0,180.0,1744420688.5875046,0.0,2025-04-11 21:18:08.587,STOP,49
61.0,16097.61459798987,23663.925965300317,-31202.074134597082,-18708.052481180726,-33883.545861666906,-25105.009985567332,-14917.911877383218,-29275.353762549614,0.0,0.0,0.0,193.0,0.0,193.0,0.0,0.0,0.0,179.0,193.0,0.0,179.0,1744420688.58755,0.0,2025-04-11 21:18:08.587,STOP,49
62.0,16123.18499364674,23668.329258958016,-31203.571701475586,-18703.78329798976,-33890.586661170324,-25113.77186939381,-14540.010933877342,-29222.916570057463,0.0,0.0,0.0,193.0,0.0,193.0,0.0,0.0,0.0,179.0,193.0,0.0,179.0,1744420688.5875928,0.0,2025-04-11 21:18:08.587,STOP,49
63.0,16136.059598452997,23663.6353926224,-31211.171294590393,-18722.17878367648,-33900.95787059759,-25126.713529433433,-14322.193184160375,-29272.38098053706,0.0,0.0,0.0,193.0,0.0,194.0,0.0,0.0,0.0,180.0,194.0,0.0,180.0,1744420688.5876493,0.0,2025-04-11 21:18:08.587,STOP,49
64.0,16115.339531342928,23658.181566975305,-31207.75147768873,-18713.483955083368,-33894.162940283175,-25109.033299569288,-14640.61613567068,-29278.214785839893,0.0,0.0,0.0,193.0,0.0,193.0,0.0,0.0,0.0,179.0,193.0,0.0,179.0,1744420688.587692,0.0,2025-04-11 21:18:08.587,STOP,49
65.0,16102.487278281127,23666.764636846143,-31202.722335186285,-18706.778431746774,-33891.32426873735,-25100.24906399835,-14921.28699079597,-29271.866890414585,0.0,0.0,0.0,193.0,0.0,193.0,0.0,0.0,0.0,179.0,193.0,0.0,179.0,1744420688.587734,0.0,2025-04-11 21:18:08.587,STOP,49
66.0,16118.692293011225,23670.944413059286,-31208.287919555656,-18708.767737003298,-33903.394210743216,-25120.49974447486,-14653.289574776838,-29257.673532685465,0.0,0.0,0.0,193.0,0.0,194.0,0.0,0.0,0.0,179.0,194.0,0.0,179.0,1744420688.587776,0.0,2025-04-11 21:18:08.587,STOP,49
67.0,16129.197612905218,23661.869604810432,-31221.050765639637,-18731.879440770084,-33917.63227196124,-25136.145965593572,-14319.555678314648,-29287.446056299934,0.0,0.0,0.0,193.0,0.0,193.0,0.0,0.0,0.0,179.0,193.0,0.0,179.0,1744420688.587818,0.0,2025-04-11 21:18:08.587,STOP,49
68.0,16115.875973209855,23658.06980825303,-31210.90307365693,-18719.56362957521,-33901.13668455323,-25104.942930333964,-14583.663890798556,-29274.97378289387,0.0,0.0,0.0,193.0,0.0,194.0,0.0,0.0,0.0,180.0,194.0,0.0,180.0,1744420688.5878603,0.0,2025-04-11 21:18:08.587,STOP,49
69.0,16103.76132771508,23674.028953794117,-31199.213111306803,-18702.866876467095,-33889.536129180924,-25089.430819681984,-14888.541685168944,-29254.052550083707,0.0,0.0,0.0,193.0,0.0,193.0,0.0,0.0,0.0,179.0,193.0,0.0,179.0,1744420688.5879028,0.0,2025-04-11 21:18:08.587,STOP,49
70.0,16124.391987847328,23687.194131278295,-31193.17814030387,-18693.54619902923,-33890.34079198132,-25093.00709879483,-14745.468168910524,-29249.246925025815,0.0,0.0,0.0,193.0,0.0,193.0,0.0,0.0,0.0,179.0,193.0,0.0,179.0,1744420688.5880876,0.0,2025-04-11 21:18:08.588,STOP,49
71.0,16145.268517168584,23681.382677719914,-31206.857407910516,-18711.695815526942,-33904.020059587965,-25114.621235683113,-14316.44878583536,-29246.005922079796,0.0,0.0,0.0,193.0,0.0,194.0,0.0,0.0,0.0,180.0,194.0,0.0,180.0,1744420688.5881307,0.0,2025-04-11 21:18:08.588,STOP,49
72.0,16136.14900543082,23668.664535124844,-31202.565872975098,-18708.432460836466,-33895.66050716168,-25102.238369254872,-14516.58630568818,-29280.27114632978,0.0,0.0,0.0,193.0,0.0,193.0,0.0,0.0,0.0,179.0,193.0,0.0,179.0,1744420688.588173,0.0,2025-04-11 21:18:08.588,STOP,49
73.0,16119.049920922509,23679.68394514131,-31193.021678092682,-18692.227446106368,-33884.171710511655,-25087.128590003085,-14850.722533550566,-29265.02725661126,0.0,0.0,0.0,193.0,0.0,194.0,0.0,0.0,0.0,179.0,194.0,0.0,179.0,1744420688.5882335,0.0,2025-04-11 21:18:08.588,STOP,49
74.0,16121.799185490512,23677.985212562708,-31194.340431015546,-18693.523847284778,-33891.52543443745,-25100.517284931815,-14822.447576814602,-29272.11275960359,0.0,0.0,0.0,193.0,0.0,193.0,0.0,0.0,0.0,179.0,193.0,0.0,179.0,1744420688.588276,0.0,2025-04-11 21:18:08.588,STOP,49
75.0,16143.078046211964,23676.73351487321,-31208.310271300114,-18709.728862014876,-33900.600242686305,-25123.65134044306,-14348.523539128726,-29242.36258773358,0.0,0.0,0.0,193.0,0.0,194.0,0.0,0.0,0.0,180.0,194.0,0.0,180.0,1744420688.588318,0.0,2025-04-11 21:18:08.588,STOP,49
76.0,16135.411397863794,23665.624697878924,-31203.012907864206,-18712.99221670535,-33889.11144603627,-25110.86614261462,-14450.693363033935,-29278.773579451274,0.0,0.0,0.0,193.0,0.0,194.0,0.0,0.0,0.0,179.0,194.0,0.0,179.0,1744420688.5883596,0.0,2025-04-11 21:18:08.588,STOP,49
77.0,16113.931371442244,23674.207767749762,-31201.448285752333,-18705.70554801292,-33888.68676289162,-25104.898226845056,-14804.02973938343,-29276.963088150394,0.0,0.0,0.0,193.0,0.0,193.0,0.0,0.0,0.0,179.0,193.0,0.0,179.0,1744420688.5884016,0.0,2025-04-11 21:18:08.588,STOP,49
78.0,16123.564973302482,23679.952166074774,-31194.966279860295,-18701.346957844133,-33884.90931807868,-25105.16644777852,-14878.70691760861,-29278.4606550289,0.0,0.0,0.0,193.0,0.0,194.0,0.0,0.0,0.0,180.0,194.0,0.0,180.0,1744420688.5884562,0.0,2025-04-11 21:18:08.588,STOP,49
79.0,16148.934203259256,23687.551759189577,-31203.616404964498,-18707.89601896954,-33893.045353060406,-25122.176125309008,-14394.612836195569,-29233.220724251358,0.0,0.0,0.0,193.0,0.0,193.0,0.0,0.0,0.0,179.0,193.0,0.0,179.0,1744420688.5884984,0.0,2025-04-11 21:18:08.588,STOP,49
80.0,16148.174243947775,23678.946337574285,-31205.337489287554,-18717.887248741063,-33892.91124259368,-25117.482258973392,-14396.020996096255,-29293.548082536232,0.0,0.0,0.0,193.0,0.0,194.0,0.0,0.0,0.0,179.0,194.0,0.0,179.0,1744420688.5885403,0.0,2025-04-11 21:18:08.588,STOP,49
81.0,16132.639781551336,23682.321450987038,-31199.034297351158,-18702.17397238898,-33883.21058550008,-25098.34916571965,-14749.066799767828,-29278.684172473455,0.0,0.0,0.0,193.0,0.0,194.0,0.0,0.0,0.0,179.0,194.0,0.0,179.0,1744420688.5885825,0.0,2025-04-11 21:18:08.588,STOP,49
82.0,16123.162641902287,23685.473046955234,-31196.01681184969,-18698.441231064946,-33881.020114543455,-25102.931273332986,-14903.293836509447,-29281.254623085813,0.0,0.0,0.0,193.0,0.0,193.0,0.0,0.0,0.0,179.0,193.0,0.0,179.0,1744420688.5886242,0.0,2025-04-11 21:18:08.588,STOP,49
83.0,16141.334610144451,23692.82677088103,-31206.432724765866,-18704.766774745796,-33892.5983181713,-25127.36173002264,-14477.314290680206,-29255.17013730647,0.0,0.0,0.0,193.0,0.0,193.0,0.0,0.0,0.0,179.0,193.0,0.0,179.0,1744420688.5886655,0.0,2025-04-11 21:18:08.588,STOP,49
84.0,16141.066389210986,23669.44684618078,-31215.485181270265,-18725.486841855865,-33902.09780956481,-25136.101262104665,-14375.36798421955,-29327.99212074186,0.0,0.0,0.0,193.0,0.0,193.0,0.0,0.0,0.0,179.0,193.0,0.0,179.0,1744420688.5887077,0.0,2025-04-11 21:18:08.588,STOP,49
85.0,16123.363807602384,23667.904575813365,-31208.153809088926,-18712.90280972753,-33893.33592573833,-25113.12366880461,-14705.458546335525,-29300.07479191718,0.0,0.0,0.0,193.0,0.0,194.0,0.0,0.0,0.0,179.0,194.0,0.0,179.0,1744420688.5887616,0.0,2025-04-11 21:18:08.588,STOP,49
86.0,16111.8526592079,23684.377811476927,-31199.950718873828,-18703.60448403412,-33885.80338785689,-25099.91378783152,-14917.934229127673,-29271.777483436763,0.0,0.0,0.0,193.0,0.0,193.0,0.0,0.0,0.0,179.0,193.0,0.0,179.0,1744420688.588804,0.0,2025-04-11 21:18:08.588,STOP,49
87.0,16136.596040319926,23683.14846553188,-31199.436628751355,-18699.603521776622,-33888.7985216139,-25108.318043746716,-14575.706669772468,-29233.153669017993,0.0,0.0,0.0,193.0,0.0,194.0,0.0,0.0,0.0,180.0,194.0,0.0,180.0,1744420688.5888455,0.0,2025-04-11 21:18:08.588,STOP,49
88.0,16142.899232256323,23669.670363625333,-31213.540579502653,-18723.69870229944,-33903.61772818777,-25122.9807881094,-14319.73449227029,-29276.40429453901,0.0,0.0,0.0,193.0,0.0,193.0,0.0,0.0,0.0,179.0,193.0,0.0,179.0,1744420689.0611117,0.0,2025-04-11 21:18:09.061,STOP,49
89.0,16120.726301756658,23667.010506035153,-31213.27235856919,-18715.719129528898,-33901.42725723115,-25109.30152050275,-14631.608382655191,-29297.37023083809,0.0,0.0,0.0,193.0,0.0,193.0,0.0,0.0,0.0,179.0,193.0,0.0,179.0,1744420689.0613177,0.0,2025-04-11 21:18:09.061,STOP,49
90.0,16112.880839452844,23687.484703956212,-31201.40358226342,-18697.65892000901,-33891.88306234873,-25090.950738304942,-14934.854499680341,-29287.826035955673,0.0,0.0,0.0,193.0,0.0,193.0,0.0,0.0,0.0,179.0,193.0,0.0,179.0,1744420689.0613737,0.0,2025-04-11 21:18:09.061,STOP,49
91.0,16128.86233673839,23685.87537835543,-31204.309309042612,-18696.384870575057,-33895.03465831693,-25104.07121230021,-14690.86285720621,-29245.06714881267,0.0,0.0,0.0,193.0,0.0,193.0,0.0,0.0,0.0,179.0,193.0,0.0,179.0,1744420689.0614176,0.0,2025-04-11 21:18:09.061,STOP,49
92.0,16146.564918346992,23678.00756430716,-31212.668861468897,-18715.3167981287,-33898.96856534106,-25119.67272993001,-14307.195163630864,-29252.21970703837,0.0,0.0,0.0,193.0,0.0,194.0,0.0,0.0,0.0,180.0,194.0,0.0,180.0,1744420689.0614657,0.0,2025-04-11 21:18:09.061,STOP,49
93.0,16133.958534474199,23672.129055515416,-31209.98665213426,-18711.204077148926,-33895.70521065059,-25105.859351856634,-14549.711590970945,-29276.09137011664,0.0,0.0,0.0,193.0,0.0,193.0,0.0,0.0,0.0,179.0,193.0,0.0,179.0,1744420689.0616114,0.0,2025-04-11 21:18:09.061,STOP,49
94.0,16117.798223233012,23681.49443644219,-31206.186855576856,-18704.18562938996,-33889.46907394756,-25097.700965130447,-14881.27736822097,-29274.16912009348,0.0,0.0,0.0,193.0,0.0,194.0,0.0,0.0,0.0,180.0,194.0,0.0,180.0,1744420689.0616603,0.0,2025-04-11 21:18:09.061,STOP,49
95.0,16126.336589614939,23684.757791132666,-31204.577529976075,-18700.832867721663,-33888.507948935985,-25107.669843157513,-14760.77911386241,-29266.79304442323,0.0,0.0,0.0,193.0,0.0,193.0,0.0,0.0,0.0,179.0,193.0,0.0,179.0,1744420689.0617075,0.0,2025-04-11 21:18:09.061,STOP,49
96.0,16143.636839823348,23679.415724207847,-31216.021623137192,-18715.115632428602,-33900.71200140858,-25121.63968344208,-14325.545945828671,-29249.35868374809,0.0,0.0,0.0,193.0,0.0,193.0,0.0,0.0,0.0,179.0,193.0,0.0,179.0,1744420689.061751,0.0,2025-04-11 21:18:09.061,STOP,49
97.0,16127.72239777117,23661.802549577063,-31216.714527215307,-18720.61416156461,-33901.47196072006,-25119.06923282972,-14518.82148013371,-29294.79978022573,0.0,0.0,0.0,193.0,0.0,194.0,0.0,0.0,0.0,180.0,194.0,0.0,180.0,1744420689.0617993,0.0,2025-04-11 21:18:09.061,STOP,49
98.0,16110.220981862663,23672.01729679314,-31216.088678370557,-18716.635551051564,-33900.35437349729,-25118.64454968507,-14855.058771974895,-29289.390658067547,0.0,0.0,0.0,193.0,0.0,193.0,0.0,0.0,0.0,179.0,193.0,0.0,179.0,1744420689.0618455,0.0,2025-04-11 21:18:09.061,STOP,49
99.0,16120.078101167453,23684.35545973247,-31201.60474796352,-18703.135097400558,-33881.8471290883,-25109.01094782483,-14829.913059462675,-29267.575355479166,0.0,0.0,0.0,193.0,0.0,194.0,0.0,0.0,0.0,180.0,194.0,0.0,180.0,1744420689.0618927,0.0,2025-04-11 21:18:09.061,STOP,49
100.0,16147.906023014311,23686.83650336701,-31211.171294590393,-18712.07579518268,-33897.2027775291,-25126.221791055417,-14353.64208860899,-29232.97485506235,0.0,0.0,0.0,193.0,0.0,194.0,0.0,0.0,0.0,179.0,194.0,0.0,179.0,1744420689.0620253,0.0,2025-04-11 21:18:09.062,STOP,49
101.0,16139.09943569892,23669.11157001395,-31214.591111492053,-18724.436309866465,-33897.51570195147,-25126.7805846668,-14452.213281656896,-29299.538350050254,0.0,0.0,0.0,193.0,0.0,193.0,0.0,0.0,0.0,179.0,193.0,0.0,179.0,1744420689.062081,0.0,2025-04-11 21:18:09.062,STOP,49
102.0,16112.366749330373,23673.82778809402,-31213.920559158392,-18713.90863822802,-33894.34175423882,-25113.995386838364,-14796.11722184625,-29276.627811983566,0.0,0.0,0.0,193.0,0.0,194.0,0.0,0.0,0.0,179.0,194.0,0.0,179.0,1744420689.0621324,0.0,2025-04-11 21:18:09.062,STOP,49
103.0,16110.399795818306,23670.92206131483,-31210.344280045545,-18710.84644923764,-33896.554576939896,-25119.15863980754,-14885.27833047847,-29283.378038809067,0.0,0.0,0.0,193.0,0.0,193.0,0.0,0.0,0.0,179.0,193.0,0.0,179.0,1744420689.0622437,0.0,2025-04-11 21:18:09.062,STOP,49
104.0,16138.09360719843,23672.4866834267,-31212.534751002164,-18713.014568449806,-33902.701306665105,-25134.49193650388,-14433.28135410325,-29257.897050130017,0.0,0.0,0.0,193.0,0.0,194.0,0.0,0.0,0.0,179.0,194.0,0.0,179.0,1744420689.0622942,0.0,2025-04-11 21:18:09.062,STOP,49
105.0,16129.085854182942,23653.264183195137,-31220.89430342845,-18732.684103570475,-33909.250367790504,-25140.43750052899,-14409.610856725081,-29316.12334443609,0.0,0.0,0.0,193.0,0.0,194.0,0.0,0.0,0.0,179.0,194.0,0.0,179.0,1744420689.0623505,0.0,2025-04-11 21:18:09.062,STOP,49
106.0,16108.455194050694,23660.908479798854,-31216.200437092837,-18718.714263285907,-33898.74504789651,-25117.906942118043,-14740.39432291917,-29283.04276264224,0.0,0.0,0.0,193.0,0.0,193.0,0.0,0.0,0.0,179.0,193.0,0.0,179.0,1744420689.0624065,0.0,2025-04-11 21:18:09.062,STOP,49
107.0,16112.724377241657,23678.07461954053,-31202.543521230644,-18702.486896811355,-33889.31261173637,-25102.68540414398,-14926.80787167643,-29271.665724714487,0.0,0.0,0.0,193.0,0.0,193.0,0.0,0.0,0.0,179.0,193.0,0.0,179.0,1744420689.0624683,0.0,2025-04-11 21:18:09.062,STOP,49
108.0,16145.648496824326,23683.77431437663,-31212.400640535434,-18708.052481180726,-33907.08224857834,-25122.913732876033,-14514.239372520373,-29234.4500701964,0.0,0.0,0.0,193.0,0.0,193.0,0.0,0.0,0.0,179.0,193.0,0.0,179.0,1744420689.0626097,0.0,2025-04-11 21:18:09.062,STOP,49
109.0,16145.581441590959,23668.575128147022,-31222.19070460686,-18731.499461114345,-33913.76542017048,-25136.391834782582,-14364.437981180905,-29294.531559292267,0.0,0.0,0.0,193.0,0.0,194.0,0.0,0.0,0.0,180.0,194.0,0.0,180.0,1744420689.0626793,0.0,2025-04-11 21:18:09.062,STOP,49
110.0,16125.353112858906,23667.390485690892,-31210.120762600993,-18714.914466728507,-33892.03952455992,-25116.990520595376,-14676.580092499269,-29285.99319291034,0.0,0.0,0.0,193.0,0.0,194.0,0.0,0.0,0.0,179.0,194.0,0.0,179.0,1744420689.06275,0.0,2025-04-11 21:18:09.062,STOP,49
111.0,16113.439633064227,23680.51095968616,-31198.3637450175,-18701.279902610768,-33878.47201567555,-25099.77967736479,-14912.90508662523,-29276.113721861093,0.0,0.0,0.0,193.0,0.0,193.0,0.0,0.0,0.0,179.0,193.0,0.0,179.0,1744420689.0628166,0.0,2025-04-11 21:18:09.062,STOP,49
112.0,16128.996447205122,23678.20873000726,-31209.22669282278,-18706.13023115757,-33891.97246932655,-25122.198477053462,-14577.874788984633,-29243.144898789516,0.0,0.0,0.0,193.0,0.0,193.0,0.0,0.0,0.0,179.0,193.0,0.0,179.0,1744420689.0628948,0.0,2025-04-11 21:18:09.062,STOP,49
113.0,16138.33947638744,23663.03189552211,-31222.5706842626,-18725.330379644678,-33903.37185899876,-25126.847639900167,-14299.372053071505,-29262.568564721176,0.0,0.0,0.0,193.0,0.0,193.0,0.0,0.0,0.0,179.0,193.0,0.0,179.0,1744420689.0629587,0.0,2025-04-11 21:18:09.062,STOP,49
114.0,16120.838060478934,23662.428398421813,-31213.875855669485,-18710.17589690398,-33891.5477861819,-25099.422049453504,-14607.89318178811,-29257.204146051903,0.0,0.0,0.0,193.0,0.0,194.0,0.0,0.0,0.0,180.0,194.0,0.0,180.0,1744420689.0630083,0.0,2025-04-11 21:18:09.063,STOP,49
115.0,16109.930409184744,23678.789875363098,-31207.79618117764,-18701.682234010965,-33887.39036171322,-25093.185912750472,-14922.270467552004,-29267.128320590058,0.0,0.0,0.0,193.0,0.0,194.0,0.0,0.0,0.0,180.0,194.0,0.0,180.0,1744420689.0630815,0.0,2025-04-11 21:18:09.063,STOP,49
116.0,16128.750578016112,23680.86858759744,-31208.757306189218,-18699.402356076524,-33893.4476844606,-25105.367613478615,-14706.397319602647,-29247.816413380675,0.0,0.0,0.0,193.0,0.0,193.0,0.0,0.0,0.0,179.0,193.0,0.0,179.0,1744420689.0631266,0.0,2025-04-11 21:18:09.063,STOP,49
117.0,16137.512461842593,23664.931793800806,-31222.280111584678,-18723.206963921424,-33901.74018165352,-25128.032282356296,-14315.174736401408,-29258.053512341205,0.0,0.0,0.0,193.0,0.0,194.0,0.0,0.0,0.0,180.0,194.0,0.0,180.0,1744420689.063169,0.0,2025-04-11 21:18:09.063,STOP,49
118.0,16118.066444166476,23657.041628008086,-31219.150867360935,-18721.575286576186,-33892.687725149124,-25114.285959516284,-14544.481282768404,-29280.092332374137,0.0,0.0,0.0,193.0,0.0,193.0,0.0,0.0,0.0,178.0,193.0,0.0,178.0,1744420689.0632277,0.0,2025-04-11 21:18:09.063,STOP,49
119.0,16103.940141670722,23675.39241020589,-31213.94291090285,-18713.796879505742,-33887.92680358014,-25105.7252413899,-14870.07914424886,-29268.69294270193,0.0,0.0,0.0,193.0,0.0,193.0,0.0,0.0,0.0,179.0,193.0,0.0,179.0,1744420689.0632713,0.0,2025-04-11 21:18:09.063,STOP,49
120.0,16114.110185397887,23671.167930503838,-31210.098410856535,-18711.360539360114,-33889.87140534775,-25117.035224084288,-14779.241654782494,-29267.41889326798,0.0,0.0,0.0,193.0,0.0,193.0,0.0,0.0,0.0,179.0,193.0,0.0,179.0,1744420689.0633156,0.0,2025-04-11 21:18:09.063,STOP,49
121.0,16140.887575255345,23666.31760195704,-31212.4676957688,-18718.42369060799,-33894.14058853872,-25130.558029479747,-14333.302001154661,-29256.26537278478,0.0,0.0,0.0,193.0,0.0,194.0,0.0,0.0,0.0,180.0,194.0,0.0,180.0,1744420689.063358,0.0,2025-04-11 21:18:09.063,STOP,49
122.0,16128.705874527202,23651.073712238518,-31210.858370168018,-18720.792975520253,-33888.217376258064,-25119.11393631863,-14482.00815701582,-29287.490759788845,0.0,0.0,0.0,193.0,0.0,193.0,0.0,0.0,0.0,179.0,193.0,0.0,179.0,1744420689.0634005,0.0,2025-04-11 21:18:09.063,STOP,49
123.0,16108.52224928406,23668.01633453564,-31202.096486341536,-18707.806611991717,-33880.30485872088,-25099.936139575977,-14841.22304215706,-29273.31975380418,0.0,0.0,0.0,193.0,0.0,193.0,0.0,0.0,0.0,179.0,193.0,0.0,179.0,1744420689.0634604,0.0,2025-04-11 21:18:09.063,STOP,49
124.0,16118.178202888752,23684.40016322138,-31192.73110541476,-18694.41791706299,-33879.343733709306,-25093.431781939482,-14859.260899932493,-29264.334352533147,0.0,0.0,0.0,193.0,0.0,193.0,0.0,0.0,0.0,179.0,193.0,0.0,179.0,1744420689.0635083,0.0,2025-04-11 21:18:09.063,STOP,49
125.0,16134.584383318948,23671.05617178156,-31210.523094001186,-18710.064138181704,-33894.006478071984,-25117.348148506662,-14357.374829933027,-29222.134259001527,0.0,0.0,0.0,193.0,0.0,193.0,0.0,0.0,0.0,179.0,193.0,0.0,179.0,1744420689.0635536,0.0,2025-04-11 21:18:09.063,STOP,49
126.0,16126.113072170387,23658.002753019664,-31213.004137635726,-18717.149641174037,-33889.402018714194,-25109.30152050275,-14418.61860974057,-29269.676419457963,0.0,0.0,0.0,193.0,0.0,193.0,0.0,0.0,0.0,179.0,193.0,0.0,179.0,1744420689.0636156,0.0,2025-04-11 21:18:09.063,STOP,49
127.0,16109.371615573362,23669.983288047708,-31211.171294590393,-18705.63849277955,-33888.083265791334,-25096.426915696495,-14778.079364070818,-29258.36643676358,0.0,0.0,0.0,193.0,0.0,193.0,0.0,0.0,0.0,179.0,193.0,0.0,179.0,1744420689.063665,0.0,2025-04-11 21:18:09.063,STOP,49
128.0,16112.009121419087,23679.907462585863,-31202.74468693074,-18697.681271753463,-33881.82477734384,-25098.572683164202,-14880.316243209392,-29260.82512865366,0.0,0.0,0.0,193.0,0.0,193.0,0.0,0.0,0.0,179.0,193.0,0.0,179.0,1744420689.063731,0.0,2025-04-11 21:18:09.063,STOP,49
129.0,16138.652400809813,23678.186378262806,-31212.31123355761,-18703.291559611745,-33897.24748101801,-25117.63872118458,-14428.028694156254,-29230.292645727714,0.0,0.0,0.0,193.0,0.0,193.0,0.0,0.0,0.0,179.0,193.0,0.0,179.0,1744420689.0638597,0.0,2025-04-11 21:18:09.063,STOP,49
130.0,16136.484281597648,23661.891956554886,-31219.441440038856,-18724.391606377558,-33899.817931630365,-25122.757270664846,-14378.161952276463,-29286.70844873291,0.0,0.0,0.0,193.0,0.0,193.0,0.0,0.0,0.0,179.0,193.0,0.0,179.0,1744420689.063929,0.0,2025-04-11 21:18:09.063,STOP,49
131.0,16113.61844701987,23667.234023479705,-31210.523094001186,-18706.979597446873,-33885.24459424551,-25100.38317446508,-14710.442985349058,-29263.954372877404,0.0,0.0,0.0,193.0,0.0,193.0,0.0,0.0,0.0,180.0,193.0,0.0,180.0,1744420689.0639844,0.0,2025-04-11 21:18:09.063,STOP,49
132.0,16110.288037096028,23676.21942475074,-31197.64848919493,-18690.998100161327,-33874.94044005161,-25084.267566712806,-14900.723385897087,-29246.31884650217,0.0,0.0,0.0,193.0,0.0,193.0,0.0,0.0,0.0,179.0,193.0,0.0,179.0,1744420689.0640323,0.0,2025-04-11 21:18:09.064,STOP,49
133.0,16127.409473348795,23673.470160182736,-31203.392887519945,-18691.60159726162,-33883.90348957819,-25098.639738397567,-14496.648549634047,-29201.391840147,0.0,0.0,0.0,193.0,0.0,193.0,0.0,0.0,0.0,179.0,193.0,0.0,179.0,1744420689.0641298,0.0,2025-04-11 21:18:09.064,STOP,49
134.0,16125.7554442591,23656.81811056353,-31214.233483580767,-18714.601542306133,-33893.93942283862,-25107.11104954613,-14329.524556341716,-29255.997151851316,0.0,0.0,0.0,193.0,0.0,194.0,0.0,0.0,0.0,179.0,194.0,0.0,179.0,1744420689.0641816,0.0,2025-04-11 21:18:09.064,STOP,49
135.0,16104.409528304283,23658.11451174194,-31209.36080328951,-18703.872704967584,-33888.217376258064,-25088.022659781298,-14663.213749314995,-29251.079768071148,0.0,0.0,0.0,193.0,0.0,193.0,0.0,0.0,0.0,179.0,193.0,0.0,179.0,1744420689.0642357,0.0,2025-04-11 21:18:09.064,STOP,49
136.0,16096.385252044827,23671.6373171374,-31196.01681184969,-18690.059326894203,-33869.6430766157,-25074.231633452375,-14899.270522507493,-29231.745509117307,0.0,0.0,0.0,193.0,0.0,193.0,0.0,0.0,0.0,178.0,193.0,0.0,178.0,1744420689.0642903,0.0,2025-04-11 21:18:09.064,STOP,49
137.0,16120.43572907874,23676.17472126183,-31199.92836712937,-18688.74057397134,-33879.52254766495,-25091.48718017187,-14576.488980828402,-29196.899139511486,0.0,0.0,0.0,193.0,0.0,193.0,0.0,0.0,0.0,180.0,193.0,0.0,180.0,1744420689.0643387,0.0,2025-04-11 21:18:09.064,STOP,49
138.0,16129.108205927398,23667.16696824634,-31215.12755335898,-18715.495612084345,-33895.906376350686,-25114.82240138321,-14288.151477354942,-29244.106023801094,0.0,0.0,0.0,193.0,0.0,193.0,0.0,0.0,0.0,178.0,193.0,0.0,178.0,1744420689.064443,0.0,2025-04-11 21:18:09.064,STOP,49
139.0,16110.04216790702,23656.594593118978,-31214.032317880672,-18711.137021915558,-33896.24165251752,-25104.54059893377,-14597.521972360848,-29284.182701609458,0.0,0.0,0.0,193.0,0.0,193.0,0.0,0.0,0.0,179.0,193.0,0.0,179.0,1744420689.0645077,0.0,2025-04-11 21:18:09.064,STOP,49
140.0,16094.75357469959,23665.959974045752,-31206.633890465964,-18701.056385166215,-33888.03856230242,-25089.319060959704,-14921.085825095872,-29270.68224795845,0.0,0.0,0.0,193.0,0.0,193.0,0.0,0.0,0.0,179.0,193.0,0.0,179.0,1744420689.0645545,0.0,2025-04-11 21:18:09.064,STOP,49
141.0,16112.947894686211,23673.425456693825,-31200.733029929765,-18688.74057397134,-33879.813120342864,-25088.983784792876,-14704.251552134938,-29220.748450845298,0.0,0.0,0.0,193.0,0.0,193.0,0.0,0.0,0.0,180.0,193.0,0.0,180.0,1744420689.0645993,0.0,2025-04-11 21:18:09.064,STOP,49
142.0,16127.230659393152,23661.44492166578,-31215.03814638116,-18705.862010224108,-33891.83835885982,-25108.54156119127,-14287.570331999104,-29219.87673281154,0.0,0.0,0.0,193.0,0.0,193.0,0.0,0.0,0.0,179.0,193.0,0.0,179.0,1744420689.064643,0.0,2025-04-11 21:18:09.064,STOP,49
143.0,16109.572781273459,23643.228249934706,-31215.820457437094,-18707.09135616915,-33889.78199836994,-25102.327776232694,-14513.68057890899,-29265.675457200465,0.0,0.0,0.0,193.0,0.0,193.0,0.0,0.0,0.0,179.0,193.0,0.0,179.0,1744420689.0646887,0.0,2025-04-11 21:18:09.064,STOP,49
144.0,16093.859504921378,23656.035799507597,-31203.25877705321,-18690.573417016676,-33877.95792555308,-25078.478464898883,-14863.574786612367,-29251.996189593818,0.0,0.0,0.0,193.0,0.0,193.0,0.0,0.0,0.0,179.0,193.0,0.0,179.0,1744420689.0647657,0.0,2025-04-11 21:18:09.064,STOP,49
145.0,16114.892496453822,23674.051305538575,-31193.915747870895,-18679.84457967813,-33871.431216172125,-25073.7175433299,-14781.521532716935,-29223.676529368942,0.0,0.0,0.0,193.0,0.0,193.0,0.0,0.0,0.0,179.0,193.0,0.0,179.0,1744420689.0648148,0.0,2025-04-11 21:18:09.064,STOP,49
146.0,16136.059598452997,23673.648974138378,-31210.970128890294,-18701.235199121857,-33892.57596642685,-25097.008061052333,-14299.908494938434,-29206.53274137172,0.0,0.0,0.0,193.0,0.0,193.0,0.0,0.0,0.0,179.0,193.0,0.0,179.0,1744420689.0648637,0.0,2025-04-11 21:18:09.064,STOP,49
147.0,16126.180127403752,23663.81420657804,-31204.912806142904,-18703.872704967584,-33886.02690530144,-25088.760267348323,-14483.706889594423,-29274.996134638328,0.0,0.0,0.0,193.0,0.0,193.0,0.0,0.0,0.0,179.0,193.0,0.0,179.0,1744420689.0649104,0.0,2025-04-11 21:18:09.064,STOP,49
148.0,16108.410490561784,23675.97355556173,-31200.822436907583,-18692.853294951117,-33879.65665813168,-25078.500816643336,-14821.151175636194,-29241.580276677643,0.0,0.0,0.0,193.0,0.0,193.0,0.0,0.0,0.0,179.0,193.0,0.0,179.0,1744420689.0649877,0.0,2025-04-11 21:18:09.064,STOP,49
149.0,16114.512516798082,23674.87832008342,-31198.855483395517,-18692.160390873003,-33884.26111748947,-25090.011965037822,-14851.79541728442,-29248.621076181065,0.0,0.0,0.0,193.0,0.0,193.0,0.0,0.0,0.0,179.0,193.0,0.0,179.0,1744420689.0650375,0.0,2025-04-11 21:18:09.065,STOP,49
150.0,16140.753464788613,23673.02312529363,-31204.08579159806,-18699.335300843155,-33891.748951882,-25105.993462323364,-14382.677004656436,-29219.96613978936,0.0,0.0,0.0,193.0,0.0,194.0,0.0,0.0,0.0,180.0,194.0,0.0,180.0,1744420689.0650856,0.0,2025-04-11 21:18:09.065,STOP,49
151.0,16128.929391971755,23653.644162850876,-31208.198512577834,-18713.863934739107,-33886.60805065728,-25106.440497212472,-14419.847955685611,-29268.89410840203,0.0,0.0,0.0,193.0,0.0,193.0,0.0,0.0,0.0,179.0,193.0,0.0,179.0,1744420689.0651364,0.0,2025-04-11 21:18:09.065,STOP,49
152.0,16098.307502067984,23653.35359017296,-31213.629986480475,-18710.913504471006,-33887.435065202124,-25099.846732598155,-14750.407904435147,-29252.89025937203,0.0,0.0,0.0,193.0,0.0,194.0,0.0,0.0,0.0,179.0,194.0,0.0,179.0,1744420689.0651863,0.0,2025-04-11 21:18:09.065,STOP,49
153.0,16103.291941081518,23666.608174634956,-31203.28112879767,-18697.524809542276,-33880.595431398804,-25091.084848771676,-14895.85070560583,-29259.46167224189,0.0,0.0,0.0,193.0,0.0,193.0,0.0,0.0,0.0,179.0,193.0,0.0,179.0,1744420689.06527,0.0,2025-04-11 21:18:09.065,STOP,49
154.0,16131.879822239856,23667.859872324454,-31208.757306189218,-18696.18370487496,-33890.96664082607,-25102.797162866256,-14449.53107232226,-29211.986567018816,0.0,0.0,0.0,193.0,0.0,194.0,0.0,0.0,0.0,179.0,194.0,0.0,179.0,1744420689.0653152,0.0,2025-04-11 21:18:09.065,STOP,49
155.0,16131.768063517578,23647.989171503687,-31215.99927139274,-18711.137021915558,-33896.06283856188,-25107.491029201872,-14372.015222551254,-29267.97768687936,0.0,0.0,0.0,193.0,0.0,194.0,0.0,0.0,0.0,180.0,194.0,0.0,180.0,1744420689.0653648,0.0,2025-04-11 21:18:09.065,STOP,49
156.0,16108.656359750792,23653.82297680652,-31211.171294590393,-18694.686137996454,-33884.28346923393,-25086.726258602892,-14699.222409632494,-29249.13516630354,0.0,0.0,0.0,193.0,0.0,193.0,0.0,0.0,0.0,179.0,193.0,0.0,179.0,1744420689.065408,0.0,2025-04-11 21:18:09.065,STOP,49
157.0,16108.030510906043,23669.64801188088,-31199.74955317373,-18681.945643656927,-33871.922954550144,-25075.997421264343,-14910.4687464796,-29246.69882615791,0.0,0.0,0.0,193.0,0.0,194.0,0.0,0.0,0.0,180.0,194.0,0.0,180.0,1744420689.065451,0.0,2025-04-11 21:18:09.065,STOP,49
158.0,16134.182051918753,23674.49834042768,-31204.13049508697,-18680.31396631169,-33880.237803487515,-25088.804970837235,-14518.106224311141,-29201.168322702448,0.0,0.0,0.0,193.0,0.0,193.0,0.0,0.0,0.0,179.0,193.0,0.0,179.0,1744420689.0654972,0.0,2025-04-11 21:18:09.065,STOP,49
159.0,16139.702932799213,23663.30011645557,-31214.345242303043,-18702.97863518937,-33892.195986771105,-25095.331680218183,-14315.64412303497,-29236.685244641933,0.0,0.0,0.0,193.0,0.0,193.0,0.0,0.0,0.0,178.0,193.0,0.0,178.0,1744420689.0655649,0.0,2025-04-11 21:18:09.065,STOP,49
160.0,16118.692293011225,23660.416741420835,-31216.35689930402,-18701.525771799777,-33894.9005478502,-25089.11789525961,-14648.148673552118,-29255.393654751024,0.0,0.0,0.0,193.0,0.0,193.0,0.0,0.0,0.0,179.0,193.0,0.0,179.0,1744420689.0656073,0.0,2025-04-11 21:18:09.065,STOP,49
161.0,16105.303598082495,23671.68202062631,-31211.014832379205,-18693.79206821824,-33889.066742547366,-25079.461941654914,-14923.43275826368,-29255.147785562014,0.0,0.0,0.0,193.0,0.0,193.0,0.0,0.0,0.0,179.0,193.0,0.0,179.0,1744420689.0656507,0.0,2025-04-11 21:18:09.065,STOP,49
162.0,16131.276325139563,23678.611061407457,-31206.253910810225,-18685.70073672542,-33884.12700702274,-25077.20441546493,-14616.56565863677,-29194.216930176848,0.0,0.0,0.0,193.0,0.0,194.0,0.0,0.0,0.0,180.0,194.0,0.0,180.0,1744420689.0656977,0.0,2025-04-11 21:18:09.065,STOP,49
163.0,16144.374447390372,23670.676192125822,-31212.400640535434,-18701.235199121857,-33893.22416701605,-25089.25200572634,-14301.629579261493,-29221.26254096777,0.0,0.0,0.0,193.0,0.0,193.0,0.0,0.0,0.0,179.0,193.0,0.0,179.0,1744420689.0657592,0.0,2025-04-11 21:18:09.065,STOP,49
164.0,16124.749615758612,23661.422569921324,-31212.065364368602,-18696.317815341692,-33893.0006495715,-25078.947851532444,-14590.436469368515,-29249.224573281357,0.0,0.0,0.0,193.0,0.0,194.0,0.0,0.0,0.0,180.0,194.0,0.0,180.0,1744420689.0658028,0.0,2025-04-11 21:18:09.065,STOP,49
165.0,16112.947894686211,23673.24664273818,-31197.290861283647,-18679.97869014486,-33874.33694295132,-25062.698133313435,-14895.38131897227,-29224.92822705844,0.0,0.0,0.0,193.0,0.0,193.0,0.0,0.0,0.0,179.0,193.0,0.0,179.0,1744420689.065846,0.0,2025-04-11 21:18:09.065,STOP,49
166.0,16126.090720425931,23678.052267796073,-31191.56881470309,-18672.379097030058,-33870.42538767164,-25072.82347355169,-14702.731633511978,-29197.614395334054,0.0,0.0,0.0,193.0,0.0,193.0,0.0,0.0,0.0,179.0,193.0,0.0,179.0,1744420689.0658894,0.0,2025-04-11 21:18:09.065,STOP,49
167.0,16147.280174169562,23669.44684618078,-31202.23059680827,-18690.014623405295,-33883.79173085591,-25090.838979582666,-14286.54215175416,-29205.370450660044,0.0,0.0,0.0,193.0,0.0,193.0,0.0,0.0,0.0,179.0,193.0,0.0,179.0,1744420689.0659332,0.0,2025-04-11 21:18:09.065,STOP,49
168.0,16136.9089647423,23654.560584373547,-31204.443419509345,-18693.70266124042,-33884.08230353383,-25086.25687196933,-14505.902171838543,-29246.78823313573,0.0,0.0,0.0,193.0,0.0,193.0,0.0,0.0,0.0,180.0,193.0,0.0,180.0,1744420689.0659933,0.0,2025-04-11 21:18:09.065,STOP,49
169.0,16114.75838598709,23664.507110656155,-31201.448285752333,-18685.54427451423,-33879.79076859841,-25073.829302052178,-14832.595268797311,-29224.280026469234,0.0,0.0,0.0,193.0,0.0,194.0,0.0,0.0,0.0,179.0,194.0,0.0,179.0,1744420689.0660367,0.0,2025-04-11 21:18:09.066,STOP,49
170.0,16124.95078145871,23671.6373171374,-31195.45801823831,-18679.88928316704,-33879.00845754248,-25075.10335148613,-14781.521532716935,-29216.121639743047,0.0,0.0,0.0,193.0,0.0,193.0,0.0,0.0,0.0,179.0,193.0,0.0,179.0,1744420689.0660808,0.0,2025-04-11 21:18:09.066,STOP,49
171.0,16144.620316579381,23672.50903517116,-31207.75147768873,-18695.64726300803,-33892.26304200447,-25091.710697616425,-14320.673265537414,-29199.514293612756,0.0,0.0,0.0,193.0,0.0,194.0,0.0,0.0,0.0,180.0,194.0,0.0,180.0,1744420689.066125,0.0,2025-04-11 21:18:09.066,STOP,49
172.0,16131.321028628474,23660.215575720737,-31208.89141665595,-18705.258513123812,-33884.32817272284,-25082.658241112025,-14448.48054033286,-29238.20516326489,0.0,0.0,0.0,193.0,0.0,193.0,0.0,0.0,0.0,179.0,193.0,0.0,179.0,1744420689.0661688,0.0,2025-04-11 21:18:09.066,STOP,49
173.0,16111.673845252259,23671.92788981532,-31203.012907864206,-18695.043765907736,-33875.007495284975,-25071.102389228632,-14798.35239629178,-29231.678453883942,0.0,0.0,0.0,193.0,0.0,193.0,0.0,0.0,0.0,179.0,193.0,0.0,179.0,1744420689.0662131,0.0,2025-04-11 21:18:09.066,STOP,49
174.0,16120.413377334284,23683.97548007673,-31192.17231180338,-18682.951472157416,-33863.36223642376,-25065.737970559356,-14838.518481077968,-29220.3461194451,0.0,0.0,0.0,193.0,0.0,194.0,0.0,0.0,0.0,179.0,194.0,0.0,179.0,1744420689.066284,0.0,2025-04-11 21:18:09.066,STOP,49
175.0,16144.463854368194,23675.54887241708,-31199.32487002908,-18688.137076871048,-33876.70622786358,-25081.942985289454,-14353.105646742064,-29179.576537558623,0.0,0.0,0.0,193.0,0.0,193.0,0.0,0.0,0.0,179.0,193.0,0.0,179.0,1744420689.0663283,0.0,2025-04-11 21:18:09.066,STOP,49
176.0,16136.730150786658,23658.561546631045,-31205.69511719884,-18701.883399711063,-33886.22807100154,-25087.709735358923,-14385.716841902356,-29248.196393036415,0.0,0.0,0.0,193.0,0.0,194.0,0.0,0.0,0.0,180.0,194.0,0.0,180.0,1744420689.066373,0.0,2025-04-11 21:18:09.066,STOP,49
177.0,16118.826403477957,23664.708276356254,-31201.671803196885,-18687.667690237486,-33882.09299827731,-25077.070304998197,-14738.24855545146,-29242.519049944767,0.0,0.0,0.0,193.0,0.0,193.0,0.0,0.0,0.0,179.0,193.0,0.0,179.0,1744420689.0664175,0.0,2025-04-11 21:18:09.066,STOP,49
178.0,16124.839022736434,23679.92981433032,-31186.070285567082,-18670.054515606706,-33871.87825106124,-25067.05672348222,-14894.04021430495,-29230.940846316917,0.0,0.0,0.0,193.0,0.0,194.0,0.0,0.0,0.0,179.0,194.0,0.0,179.0,1744420689.0667381,0.0,2025-04-11 21:18:09.066,STOP,49
179.0,16149.940031759745,23683.081410298517,-31191.814683892095,-18672.669669707975,-33885.04342854541,-25084.91576730201,-14445.172482153474,-29182.68343003791,0.0,0.0,0.0,193.0,0.0,193.0,0.0,0.0,0.0,179.0,193.0,0.0,179.0,1744420689.0667844,0.0,2025-04-11 21:18:09.066,STOP,49
180.0,16148.643630581337,23667.614003135444,-31197.13439907246,-18689.120553627083,-33894.162940283175,-25090.660165627025,-14365.8908445705,-29256.17596580696,0.0,0.0,0.0,193.0,0.0,194.0,0.0,0.0,0.0,179.0,194.0,0.0,179.0,1744420689.0668273,0.0,2025-04-11 21:18:09.066,STOP,49
181.0,16127.364769859883,23670.92206131483,-31192.529939714666,-18674.16723658648,-33882.54003316641,-25071.43766539546,-14693.902694452132,-29240.105061543592,0.0,0.0,0.0,193.0,0.0,193.0,0.0,0.0,0.0,179.0,193.0,0.0,179.0,1744420689.0668695,0.0,2025-04-11 21:18:09.066,STOP,49
182.0,16120.726301756658,23683.573148676533,-31179.722390141775,-18661.113817824582,-33866.11150099176,-25057.110197199607,-14888.51933342449,-29220.904913056485,0.0,0.0,0.0,193.0,0.0,193.0,0.0,0.0,0.0,179.0,193.0,0.0,179.0,1744420689.0669122,0.0,2025-04-11 21:18:09.066,STOP,49
183.0,16145.648496824326,23687.26118651166,-31182.046971565127,-18658.722181167865,-33875.52158540745,-25074.09752298564,-14531.360808773139,-29191.869997009042,0.0,0.0,0.0,193.0,0.0,193.0,0.0,0.0,0.0,179.0,193.0,0.0,179.0,1744420689.066975,0.0,2025-04-11 21:18:09.066,STOP,49
184.0,16151.102322471419,23668.82099733603,-31196.910881627904,-18686.483047781356,-33889.98316407003,-25095.152866262542,-14313.677169522904,-29247.056454069192,0.0,0.0,0.0,193.0,0.0,193.0,0.0,0.0,0.0,179.0,193.0,0.0,179.0,1744420689.0670178,0.0,2025-04-11 21:18:09.067,STOP,49
185.0,16125.062540180987,23660.707314098756,-31201.716506685796,-18686.30423382571,-33891.48073094854,-25091.10720051613,-14624.880507574144,-29272.448035770423,0.0,0.0,0.0,193.0,0.0,194.0,0.0,0.0,0.0,180.0,194.0,0.0,180.0,1744420689.0670607,0.0,2025-04-11 21:18:09.067,STOP,49
186.0,16113.260819108586,23675.77238986163,-31186.18204428936,-18667.59582371662,-33871.36416093876,-25063.256926924816,-14902.846801620342,-29242.31788424467,0.0,0.0,0.0,193.0,0.0,193.0,0.0,0.0,0.0,179.0,193.0,0.0,179.0,1744420689.0671031,0.0,2025-04-11 21:18:09.067,STOP,49
187.0,16129.599944305415,23683.371982976438,-31181.3093639981,-18660.555024213198,-33864.725692835535,-25056.283182654763,-14622.935905806531,-29174.860319478554,0.0,0.0,0.0,193.0,0.0,194.0,0.0,0.0,0.0,179.0,194.0,0.0,179.0,1744420689.067145,0.0,2025-04-11 21:18:09.067,STOP,49
188.0,16144.173281690275,23677.851102095974,-31191.07707632507,-18682.41503029049,-33871.788844083414,-25071.19179620645,-14274.360451026017,-29192.272328409235,0.0,0.0,0.0,193.0,0.0,193.0,0.0,0.0,0.0,179.0,193.0,0.0,179.0,1744420689.0671868,0.0,2025-04-11 21:18:09.067,STOP,49
189.0,16125.509575070093,23669.759770603156,-31192.060553081104,-18682.906768668505,-33873.331114450826,-25060.977048990375,-14539.116864099129,-29222.380128190536,0.0,0.0,0.0,193.0,0.0,194.0,0.0,0.0,0.0,179.0,194.0,0.0,179.0,1744420689.0672455,0.0,2025-04-11 21:18:09.067,STOP,49
190.0,16110.109223140387,23680.82388410853,-31185.64560242243,-18670.12157084007,-33870.738312094014,-25045.822566249677,-14883.579597899867,-29218.35681418858,0.0,0.0,0.0,193.0,0.0,193.0,0.0,0.0,0.0,179.0,193.0,0.0,179.0,1744420689.067288,0.0,2025-04-11 21:18:09.067,STOP,49
191.0,16122.335627357439,23679.840407352498,-31182.628116920965,-18667.998155116817,-33867.318495192354,-25055.14324368754,-14739.388494418681,-29201.190674446905,0.0,0.0,0.0,193.0,0.0,194.0,0.0,0.0,0.0,180.0,194.0,0.0,180.0,1744420689.0673296,0.0,2025-04-11 21:18:09.067,STOP,49
192.0,16140.23937466614,23674.274822983127,-31194.429837993368,-18688.494704782333,-33874.873384818246,-25079.14901723254,-14275.768610926702,-29189.29954639668,0.0,0.0,0.0,193.0,0.0,193.0,0.0,0.0,0.0,179.0,193.0,0.0,179.0,1744420689.0674667,0.0,2025-04-11 21:18:09.067,STOP,49
193.0,16127.253011137607,23655.722875085223,-31200.665974696396,-18700.966978188393,-33885.33400122333,-25083.77582833479,-14490.7700408423,-29257.293553029725,0.0,0.0,0.0,193.0,0.0,194.0,0.0,0.0,0.0,179.0,194.0,0.0,179.0,1744420689.067515,0.0,2025-04-11 21:18:09.067,STOP,49
194.0,16108.075214394954,23671.21263399275,-31188.551329201622,-18686.37128905908,-33877.46618717506,-25066.34146765965,-14868.425115159169,-29249.246925025815,0.0,0.0,0.0,193.0,0.0,193.0,0.0,0.0,0.0,179.0,193.0,0.0,179.0,1744420689.067557,0.0,2025-04-11 21:18:09.067,STOP,49
195.0,16119.876935467355,23685.07071555504,-31172.50277668271,-18674.748381942318,-33857.75194856548,-25058.71952280039,-14814.26683834396,-29210.466648395857,0.0,0.0,0.0,193.0,0.0,194.0,0.0,0.0,0.0,179.0,194.0,0.0,179.0,1744420689.0675988,0.0,2025-04-11 21:18:09.067,STOP,49
196.0,16139.568822332481,23674.654802638866,-31183.656297165908,-18689.27701583827,-33867.02792251443,-25079.57370037719,-14310.704387510346,-29180.24708989228,0.0,0.0,0.0,193.0,0.0,193.0,0.0,0.0,0.0,179.0,193.0,0.0,179.0,1744420689.0676405,0.0,2025-04-11 21:18:09.067,STOP,49
197.0,16128.772929760567,23659.388561175892,-31191.099428069527,-18703.40331833402,-33867.96669578156,-25082.322964945193,-14430.934420935444,-29251.88443087154,0.0,0.0,0.0,193.0,0.0,194.0,0.0,0.0,0.0,180.0,194.0,0.0,180.0,1744420689.0676825,0.0,2025-04-11 21:18:09.067,STOP,49
198.0,16105.929446927244,23670.25150898117,-31192.909919370406,-18696.943664186438,-33864.21160271306,-25071.68353458447,-14786.26010254146,-29233.35483471809,0.0,0.0,0.0,193.0,0.0,193.0,0.0,0.0,0.0,179.0,193.0,0.0,179.0,1744420689.0677395,0.0,2025-04-11 21:18:09.067,STOP,49
199.0,16109.841002206924,23670.698543870276,-31185.667954166885,-18686.527751270267,-33859.22716369953,-25070.297726428238,-14868.84979830382,-29230.918494572463,0.0,0.0,0.0,193.0,0.0,194.0,0.0,0.0,0.0,180.0,194.0,0.0,180.0,1744420689.067782,0.0,2025-04-11 21:18:09.067,STOP,49
200.0,16140.9099269998,23672.151407259873,-31195.010983349202,-18687.064193137194,-33876.16978599665,-25088.402639437038,-14403.955865377888,-29196.25093892228,0.0,0.0,0.0,193.0,0.0,193.0,0.0,0.0,0.0,179.0,193.0,0.0,179.0,1744420689.067824,0.0,2025-04-11 21:18:09.067,STOP,49
201.0,16135.321990885974,23653.711218084245,-31201.962375874806,-18700.7658124883,-33884.88696633422,-25094.25879648433,-14409.208525324884,-29255.3042477732,0.0,0.0,0.0,193.0,0.0,194.0,0.0,0.0,0.0,180.0,194.0,0.0,180.0,1744420689.0678654,0.0,2025-04-11 21:18:09.067,STOP,49
202.0,16118.178202888752,23667.993982791184,-31188.998364090727,-18681.99034714584,-33871.65473361668,-25073.583432863168,-14757.694573127577,-29240.842669110618,0.0,0.0,0.0,193.0,0.0,193.0,0.0,0.0,0.0,179.0,193.0,0.0,179.0,1744420689.0679088,0.0,2025-04-11 21:18:09.067,STOP,49
203.0,16116.255952865597,23678.83457885201,-31177.68838139634,-18672.93789064144,-33865.150375980185,-25069.805988050222,-14913.888563381262,-29240.68620689943,0.0,0.0,0.0,193.0,0.0,194.0,0.0,0.0,0.0,180.0,194.0,0.0,180.0,1744420689.0679505,0.0,2025-04-11 21:18:09.067,STOP,49
204.0,16138.026551965066,23676.800570106578,-31185.869119866984,-18682.392678546035,-33877.734408108525,-25096.002232551844,-14491.10531700913,-29218.133296744025,0.0,0.0,0.0,193.0,0.0,193.0,0.0,0.0,0.0,179.0,193.0,0.0,179.0,1744420689.0680072,0.0,2025-04-11 21:18:09.068,STOP,49
205.0,16141.312258399996,23665.222366478727,-31192.84286413704,-18701.16814388849,-33882.11535002176,-25096.62808139659,-14358.581824133615,-29260.46750074238,0.0,0.0,0.0,193.0,0.0,194.0,0.0,1.0,0.0,180.0,194.0,1.0,180.0,1744420689.0680497,0.0,2025-04-11 21:18:09.068,STOP,49
206.0,16124.391987847328,23671.413799692848,-31184.952698344317,-18683.46556227989,-33872.88407956172,-25073.829302052178,-14690.549932783835,-29246.542363946723,0.0,0.0,0.0,193.0,0.0,193.0,0.0,2.0,0.0,179.0,193.0,2.0,179.0,1744420689.0680923,0.0,2025-04-11 21:18:09.068,STOP,49
207.0,16121.530964557049,23688.199959778784,-31168.07713128056,-18664.019544603772,-33855.852050286776,-25057.110197199607,-14922.181060574183,-29237.914590586974,0.0,0.0,0.0,193.0,0.0,194.0,0.0,3.0,0.0,180.0,194.0,3.0,180.0,1744420689.0681489,0.0,2025-04-11 21:18:09.068,STOP,49
208.0,16141.044037466532,23689.339898746002,-31171.049913293115,-18661.717314924874,-33862.624628856734,-25070.63300259507,-14559.971041675932,-29188.91956674094,0.0,0.0,0.0,193.0,0.0,193.0,0.0,4.0,0.0,179.0,193.0,4.0,179.0,1744420689.5417168,0.0,2025-04-11 21:18:09.541,STOP,49
209.0,16149.20242419272,23679.549834674577,-31179.431817463854,-18677.475294765867,-33870.85007081629,-25075.39392416405,-14304.468250807317,-29214.60172112009,0.0,0.0,0.0,193.0,0.0,194.0,0.0,5.0,0.0,179.0,194.0,5.0,179.0,1744420689.5419688,0.0,2025-04-11 21:18:09.541,STOP,49
210.0,16135.299639141518,23678.119323029438,-31175.587317417543,-18669.048687106217,-33865.53035563593,-25061.9158222575,-14617.862059815177,-29231.857267839587,0.0,0.0,0.0,193.0,0.0,193.0,0.0,6.0,0.0,179.0,193.0,6.0,179.0,1744420689.5420244,0.0,2025-04-11 21:18:09.542,STOP,49
211.0,16122.38033084635,23688.31171850106,-31173.17332901637,-18664.533634726242,-33862.982256768024,-25056.0149617213,-14914.849688392842,-29235.947637074907,0.0,0.0,0.0,193.0,0.0,194.0,0.0,7.0,0.0,180.0,194.0,7.0,180.0,1744420689.5420773,0.0,2025-04-11 21:18:09.542,STOP,49
212.0,16134.517328085582,23689.07167781254,-31171.206375504302,-18659.705657923896,-33858.84718404379,-25065.335639159162,-14669.80751392931,-29204.16345645946,0.0,0.0,0.0,193.0,0.0,194.0,0.0,8.0,0.0,180.0,194.0,8.0,180.0,1744420689.5422072,0.0,2025-04-11 21:18:09.542,STOP,49
213.0,16143.189804934242,23671.771427604133,-31187.925480356873,-18686.147771614527,-33874.314591206865,-25088.402639437038,-14294.58877975807,-29219.2955874557,0.0,0.0,0.0,193.0,0.0,193.0,0.0,9.0,0.0,179.0,193.0,9.0,179.0,1744420689.5422544,0.0,2025-04-11 21:18:09.542,STOP,49
214.0,16124.593153547426,23657.354552430457,-31187.679611167863,-18686.036012892248,-33873.889908062214,-25079.551348632736,-14565.313108600749,-29258.053512341205,0.0,0.0,0.0,193.0,0.0,194.0,0.0,10.0,0.0,180.0,194.0,10.0,180.0,1744420689.5422983,0.0,2025-04-11 21:18:09.542,STOP,49
215.0,16104.431880048738,23668.77629384712,-31184.013925077194,-18679.643413978032,-33871.18534698312,-25072.10821772912,-14881.27736822097,-29244.97774183485,0.0,0.0,0.0,193.0,0.0,193.0,0.0,10.0,0.0,179.0,193.0,10.0,179.0,1744420689.5423422,0.0,2025-04-11 21:18:09.542,STOP,49
216.0,16119.340493600428,23679.281613741114,-31176.190814517835,-18672.73672494134,-33870.6936086051,-25074.410447408016,-14769.25042501097,-29234.87475334105,0.0,0.0,0.0,193.0,0.0,194.0,0.0,11.0,0.0,180.0,194.0,11.0,180.0,1744420689.5423872,0.0,2025-04-11 21:18:09.542,STOP,49
217.0,16143.189804934242,23679.751000374676,-31178.5600994301,-18679.84457967813,-33869.41955917115,-25081.67476435599,-14314.303018367651,-29203.582311103622,0.0,0.0,0.0,193.0,0.0,193.0,0.0,11.0,0.0,179.0,193.0,11.0,179.0,1744420689.5424316,0.0,2025-04-11 21:18:09.542,STOP,49
218.0,16127.945915215721,23659.232098964705,-31181.756398887206,-18688.31589082669,-33871.297105705395,-25077.13736023156,-14484.757421583823,-29239.009826065285,0.0,0.0,0.0,193.0,0.0,194.0,0.0,12.0,0.0,180.0,194.0,12.0,180.0,1744420689.5425198,0.0,2025-04-11 21:18:09.542,STOP,49
219.0,16114.445461564716,23670.363267703447,-31174.89441333943,-18680.135152356048,-33864.099843990785,-25065.112121714606,-14829.667190273667,-29233.377186462545,0.0,0.0,0.0,193.0,0.0,193.0,0.0,12.0,0.0,179.0,193.0,12.0,179.0,1744420689.5426297,0.0,2025-04-11 21:18:09.542,STOP,49
220.0,16120.212211634185,23678.052267796073,-31168.859442336496,-18675.351879042613,-33859.58479161082,-25069.560118861213,-14805.750823706489,-29220.904913056485,0.0,0.0,0.0,193.0,0.0,194.0,0.0,12.0,0.0,180.0,194.0,12.0,180.0,1744420689.5426757,0.0,2025-04-11 21:18:09.542,STOP,49
221.0,16141.178147933264,23677.493474184692,-31178.98478257475,-18690.64047225004,-33869.6430766157,-25092.425953438993,-14327.512899340738,-29201.861226780562,0.0,0.0,0.0,193.0,0.0,193.0,0.0,13.0,0.0,179.0,193.0,13.0,179.0,1744420689.5427198,0.0,2025-04-11 21:18:09.542,STOP,49
222.0,16133.24327865163,23660.841424565486,-31176.54844242912,-18696.98836767535,-33867.98904752601,-25086.25687196933,-14431.47086280237,-29259.03698909724,0.0,0.0,0.0,193.0,0.0,194.0,0.0,13.0,0.0,180.0,194.0,13.0,180.0,1744420689.5427933,0.0,2025-04-11 21:18:09.542,STOP,49
223.0,16103.76132771508,23666.988154290695,-31178.582451174552,-18691.154562372514,-33867.89964054819,-25077.115008487108,-14773.027869823918,-29227.677491626444,0.0,0.0,0.0,193.0,0.0,193.0,0.0,13.0,0.0,179.0,193.0,13.0,179.0,1744420689.5428617,0.0,2025-04-11 21:18:09.542,STOP,49
224.0,16112.880839452844,23688.93756734581,-31160.67870386585,-18672.915538896985,-33850.57703859533,-25064.44156938095,-14877.56697864139,-29222.246017723803,0.0,0.0,0.0,193.0,0.0,194.0,0.0,13.0,0.0,180.0,194.0,13.0,180.0,1744420689.5429063,0.0,2025-04-11 21:18:09.542,STOP,49
225.0,16134.360865874394,23678.07461954053,-31173.39684646092,-18680.31396631169,-33865.485652147014,-25086.502741158336,-14396.579789707637,-29184.985659716807,0.0,0.0,0.0,193.0,0.0,194.0,0.0,14.0,0.0,179.0,194.0,14.0,179.0,1744420689.5429502,0.0,2025-04-11 21:18:09.542,STOP,49
226.0,16132.215098406685,23658.941526286784,-31180.437645964343,-18697.390699075546,-33867.92199229264,-25090.749572604844,-14362.426324179927,-29248.621076181065,0.0,0.0,0.0,193.0,0.0,194.0,0.0,14.0,0.0,180.0,194.0,14.0,180.0,1744420689.5429952,0.0,2025-04-11 21:18:09.542,STOP,49
227.0,16115.764214487579,23664.775331589623,-31172.39101796043,-18682.83971343514,-33859.02599799943,-25071.14709271754,-14707.246685891949,-29229.622093394053,0.0,0.0,0.0,193.0,0.0,194.0,0.0,14.0,0.0,180.0,194.0,14.0,180.0,1744420689.5430703,0.0,2025-04-11 21:18:09.543,STOP,49
228.0,16115.227772620652,23674.36422996095,-31162.466843422277,-18671.954413885407,-33852.85691652977,-25063.99453449184,-14891.04508054794,-29227.275160226247,0.0,0.0,0.0,193.0,0.0,193.0,0.0,14.0,0.0,179.0,193.0,14.0,179.0,1744420689.5431151,0.0,2025-04-11 21:18:09.543,STOP,49
229.0,16134.159700174298,23675.280651483616,-31172.011038304692,-18677.430591276956,-33866.826756814335,-25085.83218882468,-14476.733145324368,-29189.791284774696,0.0,0.0,0.0,193.0,0.0,194.0,0.0,14.0,0.0,180.0,194.0,14.0,180.0,1744420689.54316,0.0,2025-04-11 21:18:09.543,STOP,49
230.0,16134.405569363305,23660.841424565486,-31183.11985529898,-18699.201190376425,-33877.77911159743,-25097.11981977461,-14327.110567940543,-29245.290666257224,0.0,0.0,0.0,193.0,0.0,193.0,0.0,14.0,0.0,179.0,193.0,14.0,179.0,1744420689.5432062,0.0,2025-04-11 21:18:09.543,STOP,49
231.0,16115.071310409465,23665.982325790206,-31177.487215696245,-18684.002004146816,-33870.6936086051,-25075.997421264343,-14653.84836838822,-29232.527820173244,0.0,0.0,0.0,193.0,0.0,194.0,0.0,15.0,0.0,180.0,194.0,15.0,180.0,1744420689.5432544,0.0,2025-04-11 21:18:09.543,STOP,49
232.0,16110.086871395932,23679.81805560804,-31161.68453236634,-18667.752285927807,-33858.713073577055,-25061.468787368394,-14921.398749518246,-29239.792137121218,0.0,0.0,0.0,193.0,0.0,193.0,0.0,15.0,0.0,179.0,193.0,15.0,179.0,1744420689.5433047,0.0,2025-04-11 21:18:09.543,STOP,49
233.0,16136.037246708544,23685.428343466323,-31156.253058463702,-18656.866986378074,-33855.38266365322,-25064.039237980753,-14600.561809606768,-29193.412267376458,0.0,0.0,0.0,193.0,0.0,194.0,0.0,15.0,0.0,180.0,194.0,15.0,180.0,1744420689.5433552,0.0,2025-04-11 21:18:09.543,STOP,49
234.0,16143.77095029008,23666.49641591268,-31174.670895894877,-18683.152637857514,-33874.56046039587,-25083.328793445682,-14317.611076547037,-29228.41509919347,0.0,0.0,0.0,193.0,0.0,194.0,0.0,15.0,0.0,180.0,194.0,15.0,180.0,1744420689.5434446,0.0,2025-04-11 21:18:09.543,STOP,49
235.0,16121.28509536804,23657.980401275207,-31177.196643018324,-18682.616195990588,-33871.5429748944,-25071.63883109556,-14618.622019126657,-29252.04089308273,0.0,0.0,0.0,193.0,0.0,194.0,0.0,15.0,0.0,179.0,194.0,15.0,179.0,1744420689.5435104,0.0,2025-04-11 21:18:09.543,STOP,49
236.0,16104.342473070918,23674.475988683225,-31171.58635516004,-18672.468504007877,-33858.914239277154,-25052.751607030823,-14895.649539905733,-29215.674604853943,0.0,0.0,0.0,193.0,0.0,194.0,0.0,15.0,0.0,179.0,194.0,15.0,179.0,1744420689.54358,0.0,2025-04-11 21:18:09.543,STOP,49
237.0,16123.140290157831,23678.700468385276,-31166.46780567978,-18663.997192859315,-33854.309779919364,-25055.545575087737,-14657.536406223346,-29176.20142414587,0.0,0.0,0.0,193.0,0.0,193.0,0.0,15.0,0.0,179.0,193.0,15.0,179.0,1744420689.5437064,0.0,2025-04-11 21:18:09.543,STOP,49
238.0,16137.37835137586,23665.714104856743,-31177.97895407426,-18686.527751270267,-33868.45843415957,-25077.53969163176,-14269.174846312386,-29195.647441821988,0.0,0.0,0.0,193.0,0.0,194.0,0.0,15.0,0.0,180.0,194.0,15.0,180.0,1744420689.5437922,0.0,2025-04-11 21:18:09.543,STOP,49
239.0,16120.748653501112,23653.130072728407,-31182.06932330958,-18692.115687384092,-33871.028884771935,-25076.466807897905,-14517.97211384441,-29242.56375343368,0.0,0.0,0.0,193.0,0.0,193.0,0.0,15.0,0.0,179.0,193.0,15.0,179.0,1744420689.5438561,0.0,2025-04-11 21:18:09.543,STOP,49
240.0,16100.050938135499,23668.329258958016,-31173.910936583394,-18679.084620366648,-33863.87632654623,-25062.072284468686,-14856.243414431026,-29234.78534636323,0.0,0.0,0.0,193.0,0.0,194.0,0.0,15.0,0.0,180.0,194.0,15.0,180.0,1744420689.543902,0.0,2025-04-11 21:18:09.543,STOP,49
241.0,16111.673845252259,23677.001735806673,-31169.999381303714,-18673.474332508365,-33865.150375980185,-25065.939136259454,-14762.611956907745,-29212.701822841387,0.0,0.0,0.0,193.0,0.0,193.0,0.0,16.0,0.0,179.0,193.0,16.0,179.0,1744420689.5439467,0.0,2025-04-11 21:18:09.543,STOP,49
242.0,16134.874955996867,23669.96093630325,-31182.337544243044,-18689.120553627083,-33878.226146486544,-25088.357935948126,-14310.25735262124,-29198.061430223162,0.0,0.0,0.0,193.0,0.0,194.0,0.0,16.0,0.0,180.0,194.0,16.0,180.0,1744420689.544116,0.0,2025-04-11 21:18:09.544,STOP,49
243.0,16127.409473348795,23652.59363086148,-31179.54357618613,-18690.238140849848,-33873.4428731731,-25082.25590971183,-14495.508610666826,-29261.585087965144,0.0,0.0,0.0,193.0,0.0,193.0,0.0,16.0,0.0,179.0,193.0,16.0,179.0,1744420689.54418,0.0,2025-04-11 21:18:09.544,STOP,49
244.0,16106.734109727635,23659.50031989817,-31177.151939529413,-18678.436419777445,-33870.17951848263,-25066.162653704007,-14839.300792133903,-29239.12158478756,0.0,0.0,0.0,193.0,0.0,194.0,0.0,16.0,0.0,180.0,194.0,16.0,180.0,1744420689.544236,0.0,2025-04-11 21:18:09.544,STOP,49
245.0,16115.026606920554,23670.296212470083,-31166.288991724134,-18665.695925437918,-33858.087224732306,-25061.737008301858,-14836.015085698973,-29217.88742755502,0.0,0.0,0.0,193.0,0.0,193.0,0.0,16.0,0.0,179.0,193.0,16.0,179.0,1744420689.5442922,0.0,2025-04-11 21:18:09.544,STOP,49
246.0,16135.992543219632,23671.413799692848,-31180.772922131175,-18679.442248277934,-33872.23587897252,-25084.513435901816,-14328.384617374495,-29180.850586992576,0.0,0.0,0.0,193.0,0.0,194.0,0.0,16.0,0.0,180.0,194.0,16.0,180.0,1744420689.5443652,0.0,2025-04-11 21:18:09.544,STOP,49
247.0,16128.549412316015,23660.796721076575,-31181.84580586503,-18689.478181538365,-33872.70526560608,-25082.993517278854,-14416.115214361575,-29253.35964600559,0.0,0.0,0.0,193.0,0.0,193.0,0.0,16.0,0.0,179.0,193.0,16.0,179.0,1744420689.5444653,0.0,2025-04-11 21:18:09.544,STOP,49
248.0,16109.125746384354,23675.77238986163,-31176.347276729022,-18676.60357673211,-33865.284486446915,-25063.927479258477,-14778.124067559727,-29240.149765032504,0.0,0.0,0.0,193.0,0.0,194.0,0.0,16.0,0.0,180.0,194.0,16.0,180.0,1744420689.5446196,0.0,2025-04-11 21:18:09.544,STOP,49
249.0,16113.551391786505,23683.193169020793,-31168.635924891943,-18667.59582371662,-33858.17663171013,-25057.758397788813,-14886.932359568164,-29227.2975119707,0.0,0.0,0.0,193.0,0.0,193.0,0.0,16.0,0.0,179.0,193.0,16.0,179.0,1744420689.5447166,0.0,2025-04-11 21:18:09.544,STOP,49
250.0,16139.613525821393,23675.481817183714,-31178.828320363562,-18671.820303418674,-33867.094977747794,-25078.7690375768,-14419.110348118586,-29182.884595738007,0.0,0.0,0.0,193.0,0.0,194.0,0.0,16.0,0.0,180.0,194.0,16.0,180.0,1744420689.544766,0.0,2025-04-11 21:18:09.544,STOP,49
251.0,16137.713627542691,23657.600421619467,-31187.992535590238,-18690.595768761134,-33871.96765803905,-25083.708773101425,-14370.070620783643,-29245.961218590885,0.0,0.0,0.0,193.0,0.0,193.0,0.0,16.0,0.0,179.0,193.0,16.0,179.0,1744420689.5448227,0.0,2025-04-11 21:18:09.544,STOP,49
252.0,16114.691330753725,23661.087293754495,-31187.433741978854,-18679.822227933673,-33868.34667543729,-25070.364781661607,-14720.85889826523,-29243.390767978522,0.0,0.0,0.0,193.0,0.0,194.0,0.0,16.0,0.0,180.0,194.0,16.0,180.0,1744420689.5449352,0.0,2025-04-11 21:18:09.544,STOP,49
253.0,16106.018853905065,23671.01146829265,-31178.962430830295,-18668.668707450477,-33858.17663171013,-25061.647601324035,-14919.163575072716,-29238.808660365186,0.0,0.0,0.0,193.0,0.0,193.0,0.0,16.0,0.0,179.0,193.0,16.0,179.0,1744420689.5449886,0.0,2025-04-11 21:18:09.544,STOP,49
254.0,16125.196650647718,23669.692715369787,-31189.713619913295,-18674.524864497766,-33873.107597006274,-25082.34531668965,-14520.296695267762,-29199.894273268495,0.0,0.0,0.0,193.0,0.0,194.0,0.0,16.0,0.0,179.0,194.0,16.0,179.0,1744420689.5450432,0.0,2025-04-11 21:18:09.545,STOP,49
255.0,16132.058636195497,23659.25445070916,-31196.21797754979,-18695.42374556348,-33874.82868132933,-25088.760267348323,-14337.638239578991,-29245.22361102386,0.0,0.0,0.0,193.0,0.0,193.0,0.0,16.0,0.0,179.0,193.0,16.0,179.0,1744420689.5450993,0.0,2025-04-11 21:18:09.545,STOP,49
0.0,16112.254990608097,23661.869604810432,-31187.433741978854,-18680.895111667527,-33860.00947475547,-25066.29676417074,-14645.51116770639,-29234.56182891868,0.0,0.0,0.0,193.0,0.0,193.0,0.0,16.0,0.0,179.0,193.0,16.0,179.0,1744420689.5451484,0.0,2025-04-11 21:18:09.545,STOP,49
1.0,16094.775926444046,23669.87152932543,-31186.472616967276,-18678.32466105517,-33864.591582368805,-25064.955659503423,-14911.452223235634,-29245.558887190688,0.0,0.0,0.0,193.0,0.0,194.0,0.0,16.0,0.0,180.0,194.0,16.0,180.0,1744420689.5456424,0.0,2025-04-11 21:18:09.545,STOP,49
2.0,16119.0052174336,23668.64218338039,-31188.03723907915,-18678.74934419982,-33872.54880339489,-25079.10431374363,-14629.976705309953,-29221.754279345787,0.0,0.0,0.0,193.0,0.0,194.0,0.0,16.0,0.0,180.0,194.0,16.0,180.0,1744420689.545742,0.0,2025-04-11 21:18:09.545,STOP,49
3.0,16131.276325139563,23657.48866289719,-31192.97697460377,-18692.808591462206,-33873.91225980667,-25085.228691724384,-14315.621771290515,-29229.130355016037,0.0,0.0,0.0,193.0,0.0,193.0,0.0,16.0,0.0,179.0,193.0,16.0,179.0,1744420689.5457883,0.0,2025-04-11 21:18:09.545,STOP,49
4.0,16111.09269989642,23654.40412216236,-31192.619346692485,-18687.712393726397,-33866.73734983651,-25073.158749718517,-14562.988527177398,-29224.704709613885,0.0,0.0,0.0,193.0,0.0,194.0,0.0,16.0,0.0,180.0,194.0,16.0,180.0,1744420689.545833,0.0,2025-04-11 21:18:09.545,STOP,49
5.0,16094.61946423286,23662.808378077552,-31187.947832101327,-18678.838751177642,-33862.356407923275,-25064.374514147585,-14864.670022090677,-29226.336386959123,0.0,0.0,0.0,193.0,0.0,193.0,0.0,16.0,0.0,179.0,193.0,16.0,179.0,1744420689.5458767,0.0,2025-04-11 21:18:09.545,STOP,49
6.0,16117.015912177076,23672.06200028205,-31180.08001805306,-18668.26637605028,-33858.869535788246,-25072.309383429216,-14680.268130334394,-29217.105116499082,0.0,0.0,0.0,193.0,0.0,194.0,0.0,16.0,0.0,180.0,194.0,16.0,180.0,1744420689.5459797,0.0,2025-04-11 21:18:09.545,STOP,49
7.0,16132.684485040247,23666.786988590597,-31188.864253623993,-18684.09141112464,-33871.34180919431,-25082.390020178562,-14288.956140155333,-29217.06041301017,0.0,0.0,0.0,193.0,0.0,193.0,0.0,17.0,0.0,180.0,193.0,17.0,180.0,1744420689.546086,0.0,2025-04-11 21:18:09.546,STOP,49
8.0,16114.736034242635,23653.5324041286,-31190.831207136063,-18687.265358837292,-33872.70526560608,-25066.743799059845,-14519.73790165638,-29228.72802361584,0.0,0.0,0.0,193.0,0.0,194.0,0.0,16.0,0.0,180.0,194.0,16.0,180.0,1744420689.5461304,0.0,2025-04-11 21:18:09.546,STOP,49
9.0,16095.446478777705,23666.49641591268,-31184.058628566105,-18677.676460465966,-33865.95503878058,-25054.38328437606,-14863.395972656725,-29221.575465390142,0.0,0.0,0.0,193.0,0.0,193.0,0.0,17.0,0.0,179.0,193.0,17.0,179.0,1744420689.5461743,0.0,2025-04-11 21:18:09.546,STOP,49
10.0,16111.495031296616,23672.39727644888,-31175.45320695081,-18665.65122194901,-33864.61393411326,-25055.00913322081,-14787.869428142241,-29199.87192152404,0.0,0.0,0.0,193.0,0.0,194.0,0.0,16.0,0.0,180.0,194.0,16.0,180.0,1744420689.5462208,0.0,2025-04-11 21:18:09.546,STOP,49
11.0,16133.198575162718,23669.849177580974,-31189.22188153528,-18682.057402379203,-33882.16005351068,-25077.58439512067,-14314.347721856562,-29182.862243993553,0.0,0.0,0.0,193.0,0.0,193.0,0.0,17.0,0.0,179.0,193.0,17.0,179.0,1744420689.5462835,0.0,2025-04-11 21:18:09.546,STOP,49
12.0,16114.892496453822,23657.220441963727,-31192.08290482556,-18690.752230972317,-33879.969582554055,-25075.125703230588,-14468.038316731254,-29244.754224390297,0.0,0.0,0.0,193.0,0.0,194.0,0.0,17.0,0.0,180.0,194.0,17.0,180.0,1744420689.546329,0.0,2025-04-11 21:18:09.546,STOP,49
13.0,16093.546580499004,23666.563471146044,-31187.36668674549,-18680.291614567235,-33872.86172781727,-25060.798235034734,-14828.79547223991,-29235.36649171907,0.0,0.0,0.0,193.0,0.0,193.0,0.0,17.0,0.0,179.0,193.0,17.0,179.0,1744420689.5463731,0.0,2025-04-11 21:18:09.546,STOP,49
14.0,16111.115051640876,23680.421552708336,-31175.520262184178,-18668.422838261467,-33862.87049804575,-25054.13741518705,-14856.444580131125,-29215.272273453746,0.0,0.0,0.0,193.0,0.0,194.0,0.0,17.0,0.0,180.0,194.0,17.0,180.0,1744420689.546417,0.0,2025-04-11 21:18:09.546,STOP,49
15.0,16136.707799042202,23687.328241745025,-31185.667954166885,-18680.045745378226,-33877.46618717506,-25081.428895166984,-14373.60219640758,-29193.702840054375,0.0,0.0,0.0,193.0,0.0,194.0,0.0,17.0,0.0,179.0,194.0,17.0,179.0,1744420689.5464606,0.0,2025-04-11 21:18:09.546,STOP,49
16.0,16124.369636102872,23675.77238986163,-31187.567852445587,-18690.774582716775,-33876.952097052585,-25079.752514332835,-14421.837260942133,-29255.21484079538,0.0,0.0,0.0,193.0,0.0,193.0,0.0,17.0,0.0,179.0,193.0,17.0,179.0,1744420689.5465243,0.0,2025-04-11 21:18:09.546,STOP,49
17.0,16095.826458433445,23676.040610795095,-31183.45513146581,-18676.178893587457,-33869.196041726595,-25063.77101704729,-14777.028832081418,-29235.21002950788,0.0,0.0,0.0,193.0,0.0,194.0,0.0,17.0,0.0,180.0,194.0,17.0,180.0,1744420689.546568,0.0,2025-04-11 21:18:09.546,STOP,49
18.0,16096.56406600047,23672.710200871254,-31180.482349453254,-18671.17210282947,-33866.71499809206,-25058.00426697782,-14905.66312142171,-29221.26254096777,0.0,0.0,0.0,193.0,0.0,193.0,0.0,17.0,0.0,179.0,193.0,17.0,179.0,1744420689.5466118,0.0,2025-04-11 21:18:09.546,STOP,49
19.0,16122.805013991001,23671.145578759384,-31188.12664605697,-18677.184722087946,-33874.78397784042,-25074.05281949673,-14458.024735215276,-29173.988601444795,0.0,0.0,0.0,193.0,0.0,194.0,0.0,17.0,0.0,180.0,194.0,17.0,180.0,1744420689.5466557,0.0,2025-04-11 21:18:09.546,STOP,49
20.0,16122.67090352427,23656.661648352343,-31191.50175946972,-18694.283806596257,-33872.25823071697,-25081.67476435599,-14369.444771938894,-29240.68620689943,0.0,0.0,0.0,193.0,0.0,193.0,0.0,17.0,0.0,179.0,193.0,17.0,179.0,1744420689.5466988,0.0,2025-04-11 21:18:09.546,STOP,49
21.0,16102.263760836573,23663.45657866676,-31189.668916424387,-18682.347975057124,-33867.117329492256,-25068.73310431637,-14693.902694452132,-29233.086613784628,0.0,0.0,0.0,193.0,0.0,194.0,0.0,17.0,0.0,180.0,194.0,17.0,180.0,1744420689.5467424,0.0,2025-04-11 21:18:09.546,STOP,49
22.0,16102.107298625388,23675.615927650444,-31183.633945421454,-18672.468504007877,-33863.36223642376,-25056.506700099315,-14910.04406333495,-29226.73871835932,0.0,0.0,0.0,193.0,0.0,194.0,0.0,17.0,0.0,180.0,194.0,17.0,180.0,1744420689.546801,0.0,2025-04-11 21:18:09.546,STOP,49
23.0,16127.320066370972,23679.59453816349,-31192.440532736844,-18676.782390687753,-33878.159091253176,-25077.517339887305,-14542.894308912077,-29195.6921453109,0.0,0.0,0.0,193.0,0.0,194.0,0.0,17.0,0.0,179.0,194.0,17.0,179.0,1744420689.5468454,0.0,2025-04-11 21:18:09.546,STOP,49
24.0,16130.538717572537,23671.59261364849,-31193.334602515057,-18688.829980949162,-33874.113425506766,-25078.67963059898,-14323.087253938587,-29229.085651527126,0.0,0.0,0.0,193.0,0.0,193.0,0.0,17.0,0.0,179.0,193.0,17.0,179.0,1744420689.5468888,0.0,2025-04-11 21:18:09.546,STOP,49
25.0,16107.784641717035,23672.576090404524,-31190.11595131349,-18675.26247206479,-33872.41469292816,-25060.172386189985,-14632.36834196667,-29230.762032361275,0.0,0.0,0.0,193.0,0.0,193.0,0.0,17.0,0.0,179.0,193.0,17.0,179.0,1744420689.546948,0.0,2025-04-11 21:18:09.546,STOP,49
26.0,16098.553371256992,23687.88703535641,-31177.911898840895,-18660.353858513103,-33857.79665205439,-25045.95667671641,-14923.09748209685,-29227.185753248425,0.0,0.0,0.0,193.0,0.0,193.0,0.0,17.0,0.0,179.0,193.0,17.0,179.0,1744420689.5469916,0.0,2025-04-11 21:18:09.546,STOP,49
27.0,16113.841964464424,23685.093067299495,-31181.5105296982,-18657.872814878563,-33861.08235848932,-25059.367723389594,-14610.88831554512,-29181.96817421534,0.0,0.0,0.0,193.0,0.0,193.0,0.0,17.0,0.0,179.0,193.0,17.0,179.0,1744420689.5470347,0.0,2025-04-11 21:18:09.547,STOP,49
28.0,16126.515403570582,23673.380753204914,-31188.70779141281,-18671.73089644085,-33869.86659406026,-25070.58829910616,-14285.804544187135,-29207.918549527953,0.0,0.0,0.0,193.0,0.0,194.0,0.0,17.0,0.0,180.0,194.0,17.0,180.0,1744420689.5471184,0.0,2025-04-11 21:18:09.547,STOP,49
29.0,16108.701063239701,23666.11643625694,-31188.752494901717,-18665.78533241574,-33868.34667543729,-25060.597069334635,-14562.541492288292,-29229.242113738313,0.0,0.0,0.0,193.0,0.0,194.0,0.0,17.0,0.0,180.0,194.0,17.0,180.0,1744420689.5471618,0.0,2025-04-11 21:18:09.547,STOP,49
30.0,16088.204513574186,23671.480854926212,-31188.70779141281,-18663.617213203575,-33870.13481499372,-25058.451301866928,-14881.634996132256,-29235.612360908075,0.0,0.0,0.0,193.0,0.0,193.0,0.0,17.0,0.0,179.0,193.0,17.0,179.0,1744420689.5472057,0.0,2025-04-11 21:18:09.547,STOP,49
31.0,16105.9517986717,23681.941471331298,-31181.063494809092,-18652.553099698198,-33867.07262600334,-25056.551403588226,-14724.301066911348,-29212.768878074752,0.0,0.0,0.0,193.0,0.0,194.0,0.0,17.0,0.0,180.0,194.0,17.0,180.0,1744420689.5472677,0.0,2025-04-11 21:18:09.547,STOP,49
32.0,16127.632990793347,23671.21263399275,-31194.295727526634,-18672.021469118772,-33880.01428604296,-25075.55038637524,-14305.094099652064,-29209.81844780665,0.0,0.0,0.0,193.0,0.0,193.0,0.0,17.0,0.0,179.0,193.0,17.0,179.0,1744420689.5473115,0.0,2025-04-11 21:18:09.547,STOP,49
33.0,16120.86041222339,23660.483796654204,-31188.618384434987,-18668.89222489503,-33874.158128995674,-25056.0149617213,-14535.585288475191,-29240.149765032504,0.0,0.0,0.0,193.0,0.0,194.0,0.0,17.0,0.0,180.0,194.0,17.0,180.0,1744420689.54736,0.0,2025-04-11 21:18:09.547,STOP,49
34.0,16097.145211356308,23671.525558415124,-31187.813721634597,-18663.97484111486,-33875.47688191854,-25049.711769784903,-14867.32987968086,-29220.189657233914,0.0,0.0,0.0,193.0,0.0,193.0,0.0,17.0,0.0,179.0,193.0,17.0,179.0,1744420689.5474553,0.0,2025-04-11 21:18:09.547,STOP,49
35.0,16101.928484669745,23678.25343349617,-31183.94686984383,-18663.840730648128,-33875.5439371519,-25060.038275723255,-14811.718739476055,-29214.22174146435,0.0,0.0,0.0,193.0,0.0,193.0,0.0,17.0,0.0,179.0,193.0,17.0,179.0,1744420689.5475032,0.0,2025-04-11 21:18:09.547,STOP,49
36.0,16130.918697228277,23672.419628193336,-31192.015849592193,-18677.587053488143,-33881.62361164375,-25083.082924256676,-14322.50610858275,-29191.132389442017,0.0,0.0,0.0,193.0,0.0,194.0,0.0,17.0,0.0,180.0,194.0,17.0,180.0,1744420689.5475488,0.0,2025-04-11 21:18:09.547,STOP,49
37.0,16119.38519708934,23654.739398329188,-31195.4133147494,-18689.567588516187,-33890.65371640369,-25086.122761502596,-14473.112162722608,-29272.537442748242,0.0,0.0,0.0,193.0,0.0,193.0,0.0,17.0,0.0,180.0,193.0,17.0,180.0,1744420689.5476165,0.0,2025-04-11 21:18:09.547,STOP,49
38.0,16097.70400496769,23665.803511834565,-31188.998364090727,-18680.895111667527,-33884.50698667848,-25072.935232273965,-14861.98781275604,-29276.761922450296,0.0,0.0,0.0,193.0,0.0,194.0,0.0,17.0,0.0,180.0,194.0,17.0,180.0,1744420689.5476608,0.0,2025-04-11 21:18:09.547,STOP,49
39.0,16104.118955626363,23674.051305538575,-31176.727256384762,-18671.060344107194,-33860.63532360021,-25065.514453114803,-14878.885731564253,-29231.92432307295,0.0,0.0,0.0,193.0,0.0,193.0,0.0,17.0,0.0,179.0,193.0,17.0,179.0,1744420689.5477047,0.0,2025-04-11 21:18:09.547,STOP,49
40.0,16130.270496639074,23672.978421804717,-31186.852596623015,-18677.140018599035,-33870.246573715995,-25076.802084064733,-14366.539045159703,-29172.20046188837,0.0,0.0,0.0,193.0,0.0,194.0,0.0,17.0,0.0,180.0,194.0,17.0,180.0,1744420689.547846,0.0,2025-04-11 21:18:09.547,STOP,49
41.0,16120.838060478934,23651.788968061086,-31196.68736418335,-18692.048632150727,-33881.914184321664,-25078.120836987597,-14397.116231574564,-29229.555038160688,0.0,0.0,0.0,193.0,0.0,194.0,0.0,17.0,0.0,179.0,194.0,17.0,179.0,1744420689.5478902,0.0,2025-04-11 21:18:09.547,STOP,49
42.0,16097.838115434422,23659.790892576086,-31195.16744556039,-18680.515132011788,-33878.40496044218,-25065.402694392527,-14768.512817443947,-29230.851439339098,0.0,0.0,0.0,193.0,0.0,193.0,0.0,17.0,0.0,179.0,193.0,17.0,179.0,1744420689.547962,0.0,2025-04-11 21:18:09.547,STOP,49
43.0,16095.13355435533,23667.993982791184,-31189.043067579638,-18672.80378017471,-33870.35833243827,-25065.335639159162,-14916.86134539382,-29235.902933585996,0.0,0.0,0.0,193.0,0.0,193.0,0.0,17.0,0.0,179.0,193.0,17.0,179.0,1744420689.5480058,0.0,2025-04-11 21:18:09.548,STOP,49
44.0,16114.736034242635,23672.464331682248,-31200.397753762933,-18682.16916110148,-33880.93070756563,-25090.369592949104,-14461.33279339466,-29200.117790713048,0.0,0.0,0.0,193.0,0.0,193.0,0.0,17.0,0.0,179.0,193.0,17.0,179.0,1744420689.5480487,0.0,2025-04-11 21:18:09.548,STOP,49
45.0,16112.053824907998,23653.5324041286,-31206.298614299136,-18700.452888065924,-33883.881137833734,-25090.190778993463,-14354.200882220375,-29247.03410232474,0.0,0.0,0.0,193.0,0.0,194.0,0.0,17.0,0.0,180.0,194.0,17.0,180.0,1744420689.54811,0.0,2025-04-11 21:18:09.548,STOP,49
46.0,16100.587380002426,23658.11451174194,-31195.36861126049,-18681.520960512276,-33875.208660985074,-25069.068380483197,-14703.782165501378,-29234.293607985215,0.0,0.0,0.0,193.0,0.0,193.0,0.0,17.0,0.0,179.0,193.0,17.0,179.0,1744420689.5481536,0.0,2025-04-11 21:18:09.548,STOP,49
47.0,16093.770097943558,23667.189319990794,-31187.4113902344,-18672.200283074413,-33865.82092831384,-25058.831281522667,-14912.972141858596,-29224.056509024682,0.0,0.0,0.0,193.0,0.0,193.0,0.0,17.0,0.0,179.0,193.0,17.0,179.0,1744420689.548197,0.0,2025-04-11 21:18:09.548,STOP,49
48.0,16111.316217340973,23668.709238613756,-31190.5629862026,-18669.94275688443,-33871.69943710559,-25066.810854293213,-14548.415189792537,-29180.560014314655,0.0,0.0,0.0,193.0,0.0,193.0,0.0,17.0,0.0,179.0,193.0,17.0,179.0,1744420689.54824,0.0,2025-04-11 21:18:09.548,STOP,49
49.0,16118.982865689144,23660.841424565486,-31198.65431769542,-18686.93008267046,-33877.734408108525,-25074.410447408016,-14315.085329423588,-29222.536590401724,0.0,0.0,0.0,193.0,0.0,194.0,0.0,17.0,0.0,180.0,194.0,17.0,180.0,1744420689.548283,0.0,2025-04-11 21:18:09.548,STOP,49
50.0,16094.798278188502,23650.04553199357,-31200.442457251844,-18684.02435589127,-33874.4934051625,-25070.320078172696,-14627.22744074195,-29245.871811613062,0.0,0.0,0.0,193.0,0.0,193.0,0.0,17.0,0.0,179.0,193.0,17.0,179.0,1744420689.5483265,0.0,2025-04-11 21:18:09.548,STOP,49
51.0,16082.817743160456,23657.712180341743,-31195.681535682863,-18676.804742432207,-33869.620724871245,-25059.993572234343,-14920.303514039937,-29240.842669110618,0.0,0.0,0.0,193.0,0.0,194.0,0.0,17.0,0.0,180.0,194.0,17.0,180.0,1744420689.5483692,0.0,2025-04-11 21:18:09.548,STOP,49
52.0,16105.437708549227,23665.82586357902,-31192.88756762595,-18668.176969072458,-33869.196041726595,-25063.949831002934,-14662.677307448068,-29199.246072679292,0.0,0.0,0.0,193.0,0.0,194.0,0.0,17.0,0.0,182.0,194.0,17.0,182.0,1744420689.5484283,0.0,2025-04-11 21:18:09.548,STOP,49
53.0,16119.608714533892,23661.467273410235,-31202.23059680827,-18684.65020473602,-33874.314591206865,-25074.633964852568,-14298.50033503775,-29206.085706482616,0.0,0.0,0.0,193.0,0.0,194.0,0.0,17.0,0.0,181.0,194.0,17.0,181.0,1744420689.5484717,0.0,2025-04-11 21:18:09.548,STOP,49
54.0,16103.247237592608,23658.047456508575,-31200.93419562986,-18679.35284130011,-33873.08524526182,-25062.675781568978,-14555.768913718333,-29227.901009070996,0.0,0.0,0.0,193.0,0.0,194.0,0.0,17.0,0.0,181.0,194.0,17.0,181.0,1744420689.548515,0.0,2025-04-11 21:18:09.548,STOP,49
55.0,16087.75747868508,23670.296212470083,-31191.88173912546,-18667.55112022771,-33866.29031494741,-25049.756473273814,-14877.90225480822,-29214.333500186625,0.0,0.0,0.0,193.0,0.0,194.0,0.0,17.0,0.0,180.0,194.0,17.0,180.0,1744420689.548572,0.0,2025-04-11 21:18:09.548,STOP,49
56.0,16105.750632971602,23678.45459919627,-31181.130550042457,-18656.241137533325,-33861.439986400605,-25058.317191400194,-14743.657677609644,-29207.44916289439,0.0,0.0,0.0,193.0,0.0,194.0,0.0,17.0,0.0,180.0,194.0,17.0,180.0,1744420689.5486152,0.0,2025-04-11 21:18:09.548,STOP,49
57.0,16132.908002484799,23671.92788981532,-31187.992535590238,-18671.395620274023,-33871.431216172125,-25080.937156788965,-14313.185431144886,-29213.193561219403,0.0,0.0,0.0,193.0,0.0,194.0,0.0,17.0,0.0,179.0,194.0,17.0,179.0,1744420689.5486584,0.0,2025-04-11 21:18:09.548,STOP,49
58.0,16118.357016844395,23655.946392529775,-31188.148997801425,-18675.03895462024,-33874.0463702734,-25072.711714829413,-14510.618389918613,-29241.64733191101,0.0,0.0,0.0,193.0,0.0,194.0,0.0,17.0,0.0,180.0,194.0,17.0,180.0,1744420689.5487013,0.0,2025-04-11 21:18:09.548,STOP,49
59.0,16100.207400346686,23668.95510780276,-31185.399733233422,-18669.227501061858,-33872.772320839445,-25064.262755425305,-14862.390144156236,-29230.471459683355,0.0,0.0,0.0,193.0,0.0,194.0,0.0,17.0,0.0,180.0,194.0,17.0,180.0,1744420689.5487444,0.0,2025-04-11 21:18:09.548,STOP,49
60.0,16113.350226086406,23685.16012253286,-31177.37545697397,-18656.68817242243,-33867.743178337005,-25057.512528599804,-14833.22111764206,-29207.382107661022,0.0,0.0,0.0,193.0,0.0,194.0,0.0,17.0,0.0,180.0,194.0,17.0,180.0,1744420689.5488026,0.0,2025-04-11 21:18:09.548,STOP,49
61.0,16135.344342630427,23680.86858759744,-31191.904090869917,-18672.915538896985,-33884.08230353383,-25082.702944600936,-14357.821864822134,-29188.29371789619,0.0,0.0,0.0,193.0,0.0,194.0,0.0,17.0,0.0,180.0,194.0,17.0,180.0,1744420689.548846,0.0,2025-04-11 21:18:09.548,STOP,49
62.0,16128.817633249479,23669.15627350286,-31184.79623613313,-18677.609405232597,-33867.13968123671,-25071.460017139914,-14454.515511335792,-29236.59583766411,0.0,0.0,0.0,193.0,0.0,194.0,0.0,17.0,0.0,179.0,194.0,17.0,179.0,1744420689.5488896,0.0,2025-04-11 21:18:09.548,STOP,49
63.0,16109.751595229101,23680.041573052597,-31178.31423024109,-18665.762980671287,-33862.60227711228,-25059.457130367417,-14784.87429438523,-29219.72027060035,0.0,0.0,0.0,193.0,0.0,194.0,0.0,17.0,0.0,180.0,194.0,17.0,180.0,1744420689.5489333,0.0,2025-04-11 21:18:09.548,STOP,49
64.0,16111.495031296616,23686.03184056662,-31168.345352214023,-18652.418989231468,-33858.66837008815,-25055.120891943086,-14864.625318601766,-29216.345157187603,0.0,0.0,0.0,193.0,0.0,193.0,0.0,17.0,0.0,179.0,193.0,17.0,179.0,1744420689.5489788,0.0,2025-04-11 21:18:09.548,STOP,49
65.0,16138.607697320904,23680.667421897346,-31177.97895407426,-18658.476311978855,-33872.07941676133,-25071.43766539546,-14399.463164742372,-29178.101322424573,0.0,0.0,0.0,193.0,0.0,194.0,0.0,17.0,0.0,180.0,194.0,17.0,180.0,1744420689.549023,0.0,2025-04-11 21:18:09.549,STOP,49
66.0,16131.209269906196,23659.58972687599,-31191.07707632507,-18682.012698890292,-33883.0988267778,-25080.713639344413,-14400.156068820486,-29246.83293662464,0.0,0.0,0.0,193.0,0.0,194.0,0.0,17.0,0.0,180.0,194.0,17.0,180.0,1744420689.5490663,0.0,2025-04-11 21:18:09.549,STOP,49
67.0,16114.66897900927,23665.512939156644,-31184.907994855406,-18670.188626073435,-33870.738312094014,-25061.848767024134,-14735.029904249895,-29223.520067157755,0.0,0.0,0.0,193.0,0.0,194.0,0.0,17.0,0.0,180.0,194.0,17.0,180.0,1744420689.5491247,0.0,2025-04-11 21:18:09.549,STOP,49
68.0,16106.24237134962,23675.615927650444,-31175.900241839918,-18662.11964632507,-33861.26117244496,-25057.400769877528,-14894.800173616431,-29214.691128097907,0.0,0.0,0.0,193.0,0.0,194.0,0.0,17.0,0.0,179.0,194.0,17.0,179.0,1744420689.549168,0.0,2025-04-11 21:18:09.549,STOP,49
69.0,16125.509575070093,23681.06975329754,-31182.762227387695,-18665.919442882474,-33869.28544870442,-25079.461941654914,-14483.416316916504,-29191.892348753496,0.0,0.0,0.0,193.0,0.0,193.0,0.0,17.0,0.0,179.0,193.0,17.0,179.0,1744420689.5492108,0.0,2025-04-11 21:18:09.549,STOP,49
70.0,16127.610639048891,23661.556680388057,-31197.179102561367,-18692.51801878429,-33883.0988267778,-25095.890473829568,-14355.385524676505,-29256.287724529237,0.0,0.0,0.0,193.0,0.0,194.0,0.0,17.0,0.0,180.0,194.0,17.0,180.0,1744420689.5492685,0.0,2025-04-11 21:18:09.549,STOP,49
71.0,16108.18697311723,23658.74036058669,-31194.02750659317,-18683.912597168994,-33880.461320932074,-25076.243290453353,-14705.682063780077,-29255.527765217754,0.0,0.0,0.0,193.0,0.0,193.0,0.0,17.0,0.0,179.0,193.0,17.0,179.0,1744420689.5493116,0.0,2025-04-11 21:18:09.549,STOP,49
72.0,16102.844906192411,23672.86666308244,-31179.700038397317,-18669.49572199532,-33862.66933234565,-25061.11115945711,-14954.43462782319,-29247.63759942503,0.0,0.0,0.0,193.0,0.0,194.0,0.0,17.0,0.0,180.0,194.0,17.0,180.0,1744420689.5493546,0.0,2025-04-11 21:18:09.549,STOP,49
73.0,16123.90024946931,23670.810302592552,-31180.59410817553,-18665.807684160198,-33860.523564877934,-25069.78363630577,-14568.822332480233,-29186.68439229541,0.0,0.0,0.0,193.0,0.0,193.0,0.0,17.0,0.0,179.0,193.0,17.0,179.0,1744420690.0225153,0.0,2025-04-11 21:18:10.022,STOP,49
74.0,16132.282153640052,23656.25931695215,-31191.725276914272,-18687.332414070657,-33869.41955917115,-25079.43958991046,-14293.73941346877,-29216.83689556562,0.0,0.0,0.0,193.0,0.0,193.0,0.0,17.0,0.0,179.0,193.0,17.0,179.0,1744420690.0226672,0.0,2025-04-11 21:18:10.022,STOP,49
75.0,16118.37936858885,23656.25931695215,-31182.046971565127,-18675.396582531524,-33855.11444271975,-25061.021752479286,-14604.898048031098,-29233.93598007393,0.0,0.0,0.0,193.0,0.0,193.0,0.0,17.0,0.0,179.0,193.0,17.0,179.0,1744420690.0227726,0.0,2025-04-11 21:18:10.022,STOP,49
76.0,16102.33081606994,23667.479892668714,-31171.921631326873,-18666.36647777158,-33841.524582090926,-25049.19767966243,-14887.200580501627,-29220.659043867476,0.0,0.0,0.0,193.0,0.0,194.0,0.0,17.0,0.0,180.0,194.0,17.0,180.0,1744420690.0228243,0.0,2025-04-11 21:18:10.022,STOP,49
77.0,16109.841002206924,23662.674267610822,-31182.225785520768,-18671.12739934056,-33854.15331770817,-25067.72727581588,-14640.817301370776,-29195.088648210603,0.0,0.0,0.0,193.0,0.0,193.0,0.0,17.0,0.0,179.0,193.0,17.0,179.0,1744420690.0228744,0.0,2025-04-11 21:18:10.022,STOP,49
78.0,16124.995484947622,23652.59363086148,-31200.84478865204,-18693.74736472933,-33874.53810865142,-25087.665031870012,-14284.262273819719,-29218.557979888676,0.0,0.0,0.0,193.0,0.0,193.0,0.0,17.0,0.0,179.0,193.0,17.0,179.0,1744420690.0229251,0.0,2025-04-11 21:18:10.022,STOP,49
79.0,16116.390063332328,23651.565450616534,-31191.390000747444,-18681.431553534458,-33864.032788757424,-25067.72727581588,-14568.285890613306,-29254.11960531707,0.0,0.0,0.0,193.0,0.0,193.0,0.0,17.0,0.0,179.0,193.0,17.0,179.0,1744420690.023003,0.0,2025-04-11 21:18:10.023,STOP,49
80.0,16096.362900300373,23667.54694790208,-31185.623250677974,-18667.93109988345,-33855.40501539767,-25055.702037298925,-14887.915836324197,-29231.991378306317,0.0,0.0,0.0,193.0,0.0,193.0,0.0,17.0,0.0,179.0,193.0,17.0,179.0,1744420690.0230536,0.0,2025-04-11 21:18:10.023,STOP,49
81.0,16112.52321154156,23677.672288140333,-31181.64464016493,-18659.705657923896,-33853.8403932858,-25052.371627375083,-14746.54105264438,-29194.328688899124,0.0,0.0,0.0,193.0,0.0,193.0,0.0,17.0,0.0,180.0,193.0,17.0,180.0,1744420690.0232038,0.0,2025-04-11 21:18:10.023,STOP,49
82.0,16132.215098406685,23671.45850318176,-31194.40748624891,-18675.08365810915,-33872.07941676133,-25068.219014193895,-14294.477021035795,-29171.373447343525,0.0,0.0,0.0,193.0,0.0,193.0,0.0,17.0,0.0,179.0,193.0,17.0,179.0,1744420690.0232608,0.0,2025-04-11 21:18:10.023,STOP,49
83.0,16117.373540088362,23660.01441002064,-31191.94879435883,-18673.6084429751,-33872.54880339489,-25055.076188454175,-14494.413375188517,-29216.50161939879,0.0,0.0,0.0,193.0,0.0,194.0,0.0,17.0,0.0,180.0,194.0,17.0,180.0,1744420690.023311,0.0,2025-04-11 21:18:10.023,STOP,49
84.0,16100.52032476906,23668.77629384712,-31188.59603269053,-18663.59486145912,-33866.17855622513,-25047.253077894817,-14834.606925798289,-29203.649366336987,0.0,0.0,0.0,193.0,0.0,193.0,0.0,17.0,0.0,179.0,193.0,17.0,179.0,1744420690.02336,0.0,2025-04-11 21:18:10.023,STOP,49
85.0,16112.992598175122,23676.934680573308,-31178.40363721891,-18654.140073554525,-33855.449718886586,-25046.113138927598,-14821.26293435847,-29195.960366244362,0.0,0.0,0.0,193.0,0.0,194.0,0.0,17.0,0.0,180.0,194.0,17.0,180.0,1744420690.023429,0.0,2025-04-11 21:18:10.023,STOP,49
86.0,16137.400703120316,23672.82195959353,-31188.41721873489,-18667.66287894999,-33868.81606207086,-25067.369647904594,-14351.339858930096,-29179.174206158426,0.0,0.0,0.0,193.0,0.0,193.0,0.0,17.0,0.0,179.0,193.0,17.0,179.0,1744420690.0234785,0.0,2025-04-11 21:18:10.023,STOP,49
87.0,16123.229697135652,23655.38759891839,-31199.011945606704,-18685.052536136216,-33881.80242559939,-25074.90218578603,-14439.897470462021,-29244.486003456834,0.0,0.0,0.0,193.0,0.0,194.0,0.0,17.0,0.0,180.0,194.0,17.0,180.0,1744420690.0235267,0.0,2025-04-11 21:18:10.023,STOP,49
88.0,16102.889609681322,23670.25150898117,-31194.02750659317,-18672.423800518965,-33877.108559263776,-25056.841976266143,-14792.965625878052,-29228.21393349337,0.0,0.0,0.0,193.0,0.0,193.0,0.0,17.0,0.0,179.0,193.0,17.0,179.0,1744420690.0235765,0.0,2025-04-11 21:18:10.023,STOP,49
89.0,16107.874048694855,23684.802494621577,-31178.202471518813,-18660.152692813004,-33860.32239917784,-25049.28708664025,-14877.075240263373,-29209.68433733992,0.0,0.0,0.0,193.0,0.0,193.0,0.0,17.0,0.0,179.0,193.0,17.0,179.0,1744420690.0236256,0.0,2025-04-11 21:18:10.023,STOP,49
90.0,16135.321990885974,23685.49539869969,-31189.378343746466,-18672.22263481887,-33875.85686157428,-25078.38905792106,-14411.980141637343,-29186.01383996175,0.0,0.0,0.0,193.0,0.0,193.0,0.0,17.0,0.0,179.0,193.0,17.0,179.0,1744420690.02369,0.0,2025-04-11 21:18:10.023,STOP,49
91.0,16131.790415262034,23667.569299646533,-31196.150922316425,-18690.03697514975,-33885.222242501055,-25085.854540569133,-14406.90629564599,-29261.27216354277,0.0,0.0,0.0,193.0,0.0,193.0,0.0,17.0,0.0,180.0,193.0,17.0,180.0,1744420690.023739,0.0,2025-04-11 21:18:10.023,STOP,49
92.0,16105.124784126852,23659.232098964705,-31201.694154941342,-18687.153600115016,-33893.09005654932,-25078.701982343435,-14767.663451154644,-29258.54525071922,0.0,0.0,0.0,193.0,0.0,194.0,0.0,17.0,0.0,180.0,194.0,17.0,180.0,1744420690.0237885,0.0,2025-04-11 21:18:10.023,STOP,49
93.0,16104.767156215568,23665.758808345654,-31187.500797212222,-18677.02825987676,-33870.09011150481,-25068.95662176092,-14950.254851610049,-29246.63177092454,0.0,0.0,0.0,193.0,0.0,194.0,0.0,17.0,0.0,180.0,194.0,17.0,180.0,1744420690.023837,0.0,2025-04-11 21:18:10.023,STOP,49
94.0,16121.32979885695,23662.741322844187,-31196.821474650085,-18687.3100623262,-33874.13577725122,-25096.024584296298,-14505.142212527064,-29207.15859021647,0.0,0.0,0.0,193.0,0.0,194.0,0.0,17.0,0.0,180.0,194.0,17.0,180.0,1744420690.023886,0.0,2025-04-11 21:18:10.023,STOP,49
95.0,16120.703950012203,23647.653895336854,-31203.862274153507,-18704.85618172362,-33878.40496044218,-25099.10912503113,-14345.975440260821,-29256.958276862893,0.0,0.0,0.0,193.0,0.0,194.0,0.0,17.0,0.0,179.0,194.0,17.0,179.0,1744420690.0239356,0.0,2025-04-11 21:18:10.023,STOP,49
96.0,16103.671920737259,23657.62277336392,-31194.58630020455,-18683.64437623553,-33865.55270738038,-25070.923575272987,-14660.531539980359,-29226.828125337142,0.0,0.0,0.0,193.0,0.0,194.0,0.0,17.0,0.0,180.0,194.0,17.0,180.0,1744420690.0240693,0.0,2025-04-11 21:18:10.024,STOP,49
97.0,16089.970301386154,23665.177662989816,-31191.032372836158,-18678.4587715219,-33862.423463156636,-25063.905127514023,-14907.875944122785,-29223.743584602307,0.0,0.0,0.0,193.0,0.0,194.0,0.0,17.0,0.0,180.0,194.0,17.0,180.0,1744420690.0241196,0.0,2025-04-11 21:18:10.024,STOP,49
98.0,16116.412415076784,23672.844311337987,-31188.238404779248,-18673.69784995292,-33857.819003798846,-25070.364781661607,-14573.762068004855,-29182.750485271274,0.0,0.0,0.0,193.0,0.0,194.0,0.0,17.0,0.0,179.0,194.0,17.0,179.0,1744420690.024169,0.0,2025-04-11 21:18:10.024,STOP,49
99.0,16125.62133379237,23659.96970653173,-31195.346259516034,-18690.975748416873,-33862.26700094545,-25082.05474401173,-14273.086401592065,-29211.628939107533,0.0,0.0,0.0,193.0,0.0,193.0,0.0,17.0,0.0,179.0,193.0,17.0,179.0,1744420690.0242183,0.0,2025-04-11 21:18:10.024,STOP,49
100.0,16110.198630118208,23647.452729636756,-31191.12177981398,-18681.967995401385,-33859.763605566455,-25066.542633359746,-14586.815486766754,-29233.10896552908,0.0,0.0,0.0,193.0,0.0,194.0,0.0,17.0,0.0,180.0,194.0,17.0,180.0,1744420690.0242848,0.0,2025-04-11 21:18:10.024,STOP,49
101.0,16103.202534103697,23659.612078620445,-31186.070285567082,-18674.480161008854,-33858.735425321516,-25058.49600535584,-14902.6679876647,-29234.338311474123,0.0,0.0,0.0,193.0,0.0,193.0,0.0,17.0,0.0,179.0,193.0,17.0,179.0,1744420690.0243342,0.0,2025-04-11 21:18:10.024,STOP,49
102.0,16117.462947066182,23662.718971099734,-31185.73500940025,-18674.927195897963,-33859.51773637745,-25067.72727581588,-14690.505229294924,-29208.745564072797,0.0,0.0,0.0,193.0,0.0,194.0,0.0,17.0,0.0,180.0,194.0,17.0,180.0,1744420690.0243833,0.0,2025-04-11 21:18:10.024,STOP,49
103.0,16132.595078062426,23658.06980825303,-31193.893396126437,-18690.21578910539,-33865.68681784711,-25074.745723574844,-14292.845343690557,-29191.35590688657,0.0,0.0,0.0,193.0,0.0,193.0,0.0,17.0,0.0,179.0,193.0,17.0,179.0,1744420690.024432,0.0,2025-04-11 21:18:10.024,STOP,49
104.0,16122.67090352427,23657.667476852832,-31185.265622766692,-18681.006870389803,-33853.70628281907,-25058.406598378016,-14530.958477372942,-29219.54145664471,0.0,0.0,0.0,193.0,0.0,194.0,0.0,17.0,0.0,180.0,194.0,17.0,180.0,1744420690.024481,0.0,2025-04-11 21:18:10.024,STOP,49
105.0,16109.259856851086,23673.06782878254,-31175.87789009546,-18666.96997487187,-33839.55762857886,-25043.587391804147,-14854.723495808066,-29201.727116313832,0.0,0.0,0.0,193.0,0.0,193.0,0.0,17.0,0.0,179.0,193.0,17.0,179.0,1744420690.0245545,0.0,2025-04-11 21:18:10.024,STOP,49
106.0,16124.727264014158,23678.789875363098,-31169.999381303714,-18658.342201512125,-33837.79184076689,-25046.448415094426,-14743.389456676181,-29176.737866012798,0.0,0.0,0.0,193.0,0.0,194.0,0.0,17.0,0.0,180.0,194.0,17.0,180.0,1744420690.024598,0.0,2025-04-11 21:18:10.024,STOP,49
107.0,16142.608659578404,23673.090180526993,-31191.837035636552,-18680.1575041005,-33865.95503878058,-25079.8195695662,-14292.867695435012,-29184.76214227225,0.0,0.0,0.0,193.0,0.0,193.0,0.0,17.0,0.0,179.0,193.0,17.0,179.0,1744420690.0246403,0.0,2025-04-11 21:18:10.024,STOP,49
108.0,16124.9060779698,23658.829767564508,-31199.36957351799,-18685.410164047502,-33875.0969022628,-25077.33852593166,-14477.783677313768,-29246.02827382425,0.0,0.0,0.0,193.0,0.0,194.0,0.0,17.0,0.0,180.0,194.0,17.0,180.0,1744420690.0246828,0.0,2025-04-11 21:18:10.024,STOP,49
109.0,16104.342473070918,23668.10574151346,-31193.26754728169,-18670.233329562347,-33869.41955917115,-25062.094636213144,-14837.132672921738,-29235.478250441345,0.0,0.0,0.0,193.0,0.0,194.0,0.0,17.0,0.0,180.0,194.0,17.0,180.0,1744420690.0247293,0.0,2025-04-11 21:18:10.024,STOP,49
110.0,16109.058691150987,23666.74228510169,-31189.914785613393,-18665.65122194901,-33870.8947743052,-25067.548461860235,-14852.980059740552,-29231.991378306317,0.0,0.0,0.0,193.0,0.0,193.0,0.0,17.0,0.0,179.0,193.0,17.0,179.0,1744420690.0247717,0.0,2025-04-11 21:18:10.024,STOP,49
111.0,16132.170394917775,23668.73159035821,-31195.927404871873,-18670.970937129372,-33878.002629041985,-25079.64075561056,-14364.616795136548,-29186.036191706204,0.0,0.0,0.0,193.0,0.0,194.0,0.0,17.0,0.0,179.0,194.0,17.0,179.0,1744420690.0249214,0.0,2025-04-11 21:18:10.024,STOP,49
112.0,16118.513479055582,23648.458558137245,-31200.59891946303,-18683.55496925771,-33881.578908154836,-25078.746685832346,-14425.346484821617,-29241.759090633284,0.0,0.0,0.0,193.0,0.0,193.0,0.0,17.0,0.0,179.0,193.0,17.0,179.0,1744420690.0249655,0.0,2025-04-11 21:18:10.024,STOP,49
113.0,16098.821592190456,23657.26514545264,-31197.290861283647,-18677.050611621216,-33872.973486539544,-25067.459054882416,-14779.554579204867,-29235.187677763424,0.0,0.0,0.0,193.0,0.0,194.0,0.0,17.0,0.0,180.0,194.0,17.0,180.0,1744420690.0250075,0.0,2025-04-11 21:18:10.025,STOP,49
114.0,16103.068423636965,23674.140712516393,-31188.104294312514,-18668.556948728197,-33865.10567249128,-25060.57471759018,-14898.242342262549,-29232.527820173244,0.0,0.0,0.0,193.0,0.0,193.0,0.0,17.0,0.0,179.0,193.0,17.0,179.0,1744420690.025067,0.0,2025-04-11 21:18:10.025,STOP,49
115.0,16124.727264014158,23670.117398514438,-31195.525073471676,-18677.87762616606,-33871.99000978351,-25075.95271777543,-14424.497118532316,-29177.900156724474,0.0,0.0,0.0,193.0,0.0,194.0,0.0,17.0,0.0,180.0,194.0,17.0,180.0,1744420690.0251963,0.0,2025-04-11 21:18:10.025,STOP,49
116.0,16119.362845344884,23650.380808160404,-31201.98472761926,-18698.441231064946,-33879.52254766495,-25081.563005633714,-14368.997737049787,-29230.180887005437,0.0,0.0,0.0,193.0,0.0,193.0,0.0,17.0,0.0,179.0,193.0,17.0,179.0,1744420690.02524,0.0,2025-04-11 21:18:10.025,STOP,49
117.0,16095.781754944535,23651.364284916435,-31204.2646055537,-18694.574379274178,-33885.04342854541,-25076.064476497708,-14733.91231702713,-29246.63177092454,0.0,0.0,0.0,193.0,0.0,194.0,0.0,17.0,0.0,180.0,194.0,17.0,180.0,1744420690.0253172,0.0,2025-04-11 21:18:10.025,STOP,49
118.0,16090.37263278635,23661.511976899146,-31193.22284379278,-18685.27605358077,-33872.07941676133,-25069.76128456131,-14941.38120906129,-29244.88833485703,0.0,0.0,0.0,193.0,0.0,193.0,0.0,17.0,0.0,179.0,193.0,17.0,179.0,1744420690.025385,0.0,2025-04-11 21:18:10.025,STOP,49
119.0,16114.847792964913,23662.137825743896,-31193.40165774842,-18683.733783213353,-33866.17855622513,-25082.278261456286,-14511.691273652468,-29186.21500566185,0.0,0.0,0.0,193.0,0.0,194.0,0.0,17.0,0.0,179.0,194.0,17.0,179.0,1744420690.0254285,0.0,2025-04-11 21:18:10.025,STOP,49
120.0,16120.301618612006,23645.39636914687,-31204.197550320336,-18705.07969916817,-33880.260155231976,-25093.87881682859,-14328.07169295212,-29238.339273731624,0.0,0.0,0.0,193.0,0.0,193.0,0.0,17.0,0.0,179.0,193.0,17.0,179.0,1744420690.0254996,0.0,2025-04-11 21:18:10.025,STOP,49
121.0,16101.503801525094,23650.023180249118,-31198.184931061856,-18691.579245517165,-33871.69943710559,-25080.53482538877,-14652.931946865554,-29246.341198246624,0.0,0.0,0.0,193.0,0.0,194.0,0.0,17.0,0.0,180.0,194.0,17.0,180.0,1744420690.0255427,0.0,2025-04-11 21:18:10.025,STOP,49
122.0,16097.815763689969,23662.96484028874,-31184.058628566105,-18675.485989509343,-33852.87926827422,-25061.804063535223,-14900.164592285704,-29220.72609910084,0.0,0.0,0.0,193.0,0.0,193.0,0.0,17.0,0.0,179.0,193.0,17.0,179.0,1744420690.0255864,0.0,2025-04-11 21:18:10.025,STOP,49
123.0,16122.04505467952,23666.272898468127,-31184.192739032835,-18670.389791773534,-33859.003646254976,-25072.644659596048,-14592.045794969297,-29173.318049111134,0.0,0.0,0.0,193.0,0.0,194.0,0.0,17.0,0.0,180.0,194.0,17.0,180.0,1744420690.025629,0.0,2025-04-11 21:18:10.025,STOP,49
124.0,16127.297714626518,23650.023180249118,-31201.80591366362,-18695.870780452584,-33881.24363198801,-25097.522151174802,-14315.442957334872,-29233.041910295717,0.0,0.0,0.0,193.0,0.0,193.0,0.0,17.0,0.0,179.0,193.0,17.0,179.0,1744420690.0256724,0.0,2025-04-11 21:18:10.025,STOP,49
125.0,16103.157830614786,23645.91045926934,-31195.301556027123,-18683.532617513254,-33864.859803302264,-25072.599956107137,-14588.715385045456,-29230.560866661177,0.0,0.0,0.0,193.0,0.0,194.0,0.0,17.0,0.0,180.0,194.0,17.0,180.0,1744420690.0257163,0.0,2025-04-11 21:18:10.025,STOP,49
126.0,16095.111202610875,23667.30107871307,-31181.376419231467,-18664.623041704064,-33847.76071879396,-25046.9625052169,-14871.12967623826,-29189.008973718763,0.0,0.0,0.0,193.0,0.0,194.0,0.0,17.0,0.0,180.0,194.0,17.0,180.0,1744420690.0260098,0.0,2025-04-11 21:18:10.026,STOP,49
127.0,16110.600961518403,23672.01729679314,-31181.823454120575,-18661.49379748032,-33852.9910269965,-25058.518357100293,-14675.306043065315,-29174.457988078357,0.0,0.0,0.0,193.0,0.0,194.0,0.0,17.0,0.0,180.0,194.0,17.0,180.0,1744420690.0260968,0.0,2025-04-11 21:18:10.026,STOP,49
128.0,16128.370598360372,23663.59068913349,-31193.78163740416,-18681.252739578813,-33868.570192881845,-25078.00907826532,-14279.59075922856,-29188.405476618467,0.0,0.0,0.0,193.0,0.0,194.0,0.0,17.0,0.0,180.0,194.0,17.0,180.0,1744420690.0261416,0.0,2025-04-11 21:18:10.026,STOP,49
129.0,16112.143231885819,23643.20589819025,-31194.02750659317,-18683.577321002165,-33868.65959985967,-25071.504720628825,-14520.609619690136,-29233.623055651555,0.0,0.0,0.0,193.0,0.0,194.0,0.0,17.0,0.0,179.0,194.0,17.0,179.0,1744420690.0262136,0.0,2025-04-11 21:18:10.026,STOP,49
130.0,16095.826458433445,23652.370113416924,-31182.829282621064,-18670.635660962544,-33856.50025087598,-25057.780749533267,-14870.660289604699,-29223.698881113396,0.0,0.0,0.0,193.0,0.0,194.0,0.0,17.0,0.0,180.0,194.0,17.0,180.0,1744420690.0262568,0.0,2025-04-11 21:18:10.026,STOP,49
131.0,16108.075214394954,23659.522671642622,-31173.307439483102,-18662.276108536258,-33850.957018251065,-25060.462958867905,-14776.604148936767,-29198.10613371207,0.0,0.0,0.0,193.0,0.0,193.0,0.0,17.0,0.0,179.0,193.0,17.0,179.0,1744420690.0262997,0.0,2025-04-11 21:18:10.026,STOP,49
132.0,16131.43278735075,23656.169909974327,-31185.757361144708,-18679.039916877737,-33869.821890571344,-25083.686421356968,-14320.337989370584,-29192.562901087156,0.0,0.0,0.0,193.0,0.0,194.0,0.0,17.0,0.0,180.0,194.0,17.0,180.0,1744420690.0263426,0.0,2025-04-11 21:18:10.026,STOP,49
133.0,16123.0061796911,23639.78608128859,-31187.970183845784,-18689.07585013817,-33866.826756814335,-25076.28799394226,-14469.66999407649,-29234.852401596596,0.0,0.0,0.0,193.0,0.0,193.0,0.0,17.0,0.0,179.0,193.0,17.0,179.0,1744420690.026386,0.0,2025-04-11 21:18:10.026,STOP,49
134.0,16106.622351005359,23658.852119308965,-31180.147073286425,-18677.98938488834,-33856.94728576509,-25058.183080933464,-14810.757614464477,-29207.44916289439,0.0,0.0,0.0,193.0,0.0,194.0,0.0,17.0,0.0,179.0,194.0,17.0,179.0,1744420690.0264478,0.0,2025-04-11 21:18:10.026,STOP,49
135.0,16110.019816162565,23670.40797119236,-31176.347276729022,-18673.630794719553,-33857.57313460984,-25059.747703045334,-14847.839158515832,-29204.11875297055,0.0,0.0,0.0,193.0,0.0,193.0,0.0,17.0,0.0,179.0,193.0,17.0,179.0,1744420690.026493,0.0,2025-04-11 21:18:10.026,STOP,49
136.0,16132.23745015114,23665.82586357902,-31192.641698436943,-18687.667690237486,-33876.77328309695,-25082.837055067666,-14377.401992964984,-29182.191691659893,0.0,0.0,0.0,193.0,0.0,194.0,0.0,17.0,0.0,180.0,194.0,17.0,180.0,1744420690.026539,0.0,2025-04-11 21:18:10.026,STOP,49
137.0,16134.025589707566,23650.581973860502,-31195.905053127415,-18696.384870575057,-33875.85686157428,-25077.025601509285,-14434.845976215121,-29247.391730236024,0.0,0.0,0.0,193.0,0.0,194.0,0.0,17.0,0.0,180.0,194.0,17.0,180.0,1744420690.0265856,0.0,2025-04-11 21:18:10.026,STOP,49
138.0,16113.573743530958,23664.82003507853,-31192.08290482556,-18679.330489555658,-33866.536184136414,-25055.880851254566,-14787.511800230957,-29227.4986776708,0.0,0.0,0.0,193.0,0.0,194.0,0.0,17.0,0.0,180.0,194.0,17.0,180.0,1744420690.0266316,0.0,2025-04-11 21:18:10.026,STOP,49
139.0,16111.159755129785,23677.560529418057,-31191.099428069527,-18674.07782960866,-33867.40790217017,-25053.48921459785,-14914.00032210354,-29225.196447991904,0.0,0.0,0.0,193.0,0.0,194.0,0.0,17.0,0.0,180.0,194.0,17.0,180.0,1744420690.026683,0.0,2025-04-11 21:18:10.026,STOP,49
140.0,16141.133444444353,23686.21065452226,-31198.162579317403,-18672.513207496788,-33876.259192974474,-25060.306496656718,-14456.750685781322,-29162.924487939417,0.0,0.0,0.0,193.0,0.0,194.0,0.0,17.0,0.0,179.0,194.0,17.0,179.0,1744420690.026739,0.0,2025-04-11 21:18:10.026,STOP,49
141.0,16137.534813587048,23668.753942102667,-31204.13049508697,-18687.757097215308,-33881.35539071028,-25066.229708937375,-14382.051155811687,-29226.604607892587,0.0,0.0,0.0,193.0,0.0,194.0,0.0,17.0,0.0,180.0,194.0,17.0,180.0,1744420690.0269456,0.0,2025-04-11 21:18:10.026,STOP,49
142.0,16112.947894686211,23669.11157001395,-31198.14022757295,-18674.569567986677,-33876.90739356368,-25046.91780172799,-14734.940497272075,-29223.274197968745,0.0,0.0,0.0,193.0,0.0,193.0,0.0,17.0,0.0,179.0,193.0,17.0,179.0,1744420690.027012,0.0,2025-04-11 21:18:10.027,STOP,49
143.0,16109.32691208445,23680.86858759744,-31182.09167505404,-18660.89030038003,-33854.22037294154,-25029.14816488602,-14924.23742106407,-29195.781552288718,0.0,0.0,0.0,193.0,0.0,194.0,0.0,17.0,0.0,180.0,194.0,17.0,180.0,1744420690.0270555,0.0,2025-04-11 21:18:10.027,STOP,49
144.0,16133.869127496378,23682.20969226476,-31181.957564587305,-18658.83393989014,-33856.7908235539,-25043.72150227088,-14521.637799935079,-29148.507612765745,0.0,0.0,0.0,193.0,0.0,193.0,0.0,17.0,0.0,179.0,193.0,17.0,179.0,1744420690.0276155,0.0,2025-04-11 21:18:10.027,STOP,49
145.0,16139.211194421196,23667.949279302273,-31188.59603269053,-18680.112800611594,-33866.13385273622,-25060.887642012556,-14326.954105729355,-29208.231473950324,0.0,0.0,0.0,193.0,0.0,193.0,0.0,17.0,0.0,179.0,193.0,17.0,179.0,1744420690.0277505,0.0,2025-04-11 21:18:10.027,STOP,49
146.0,16113.976074931155,23665.78116009011,-31189.98184084676,-18679.97869014486,-33874.00166678449,-25062.698133313435,-14653.736609665944,-29234.87475334105,0.0,0.0,0.0,193.0,0.0,193.0,0.0,17.0,0.0,179.0,193.0,17.0,179.0,1744420690.0278447,0.0,2025-04-11 21:18:10.027,STOP,49
147.0,16104.856563193389,23678.298136985082,-31177.97895407426,-18671.462675507388,-33866.73734983651,-25053.556269831213,-14943.303459084447,-29228.59391314911,0.0,0.0,0.0,193.0,0.0,193.0,0.0,17.0,0.0,180.0,193.0,17.0,180.0,1744420690.0279245,0.0,2025-04-11 21:18:10.027,STOP,49
148.0,16127.029493693055,23682.813189365053,-31163.427968433854,-18658.476311978855,-33844.43030887012,-25053.33275238666,-14632.27893498885,-29165.316124596135,0.0,0.0,0.0,193.0,0.0,193.0,0.0,17.0,0.0,180.0,193.0,17.0,180.0,1744420690.0280025,0.0,2025-04-11 21:18:10.028,STOP,49
149.0,16139.121787443375,23676.286479984105,-31167.4065789469,-18675.731858698353,-33849.50415486147,-25068.95662176092,-14278.786096428168,-29183.711610282855,0.0,0.0,0.0,193.0,0.0,194.0,0.0,17.0,0.0,180.0,194.0,17.0,180.0,1744420690.028308,0.0,2025-04-11 21:18:10.028,STOP,49
150.0,16121.843888979423,23663.925965300317,-31165.953715557305,-18674.614271475588,-33851.024073484434,-25068.82251129419,-14576.824256995233,-29236.059395797183,0.0,0.0,0.0,193.0,0.0,194.0,0.0,17.0,0.0,179.0,194.0,17.0,179.0,1744420690.028412,0.0,2025-04-11 21:18:10.028,STOP,49
151.0,16106.644702749814,23674.386581705403,-31157.907087553394,-18661.87377713606,-33844.36325363675,-25056.23847916585,-14909.015883090005,-29237.065224297672,0.0,0.0,0.0,193.0,0.0,194.0,0.0,17.0,0.0,180.0,194.0,17.0,180.0,1744420690.0285244,0.0,2025-04-11 21:18:10.028,STOP,49
152.0,16126.694217526225,23693.810247637066,-31147.647636848407,-18646.138149039525,-33837.23304715551,-25042.38039760356,-14720.322456398304,-29169.384142087,0.0,0.0,0.0,193.0,0.0,193.0,0.0,17.0,0.0,179.0,193.0,17.0,179.0,1744420690.0286171,0.0,2025-04-11 21:18:10.028,STOP,49
153.0,16141.37931363336,23683.707259143266,-31166.356046957502,-18665.852387649105,-33860.7917858114,-25063.927479258477,-14296.622788503504,-29168.802996731163,0.0,0.0,0.0,193.0,0.0,194.0,0.0,17.0,0.0,180.0,194.0,17.0,180.0,1744420690.0287519,0.0,2025-04-11 21:18:10.028,STOP,49
