Sample Index,EXG Channel 0,EXG Channel 1,EXG Channel 2,EXG Channel 3,EXG Channel 4,EXG Channel 5,EXG Channel 6,EXG Channel 7,Accel Channel 0,Accel Channel 1,Accel Channel 2,Not Used,Digital Channel 0 (D11),Digital Channel 1 (D12),Digital Channel 2 (D13),Digital Channel 3 (D17),Not Used,Digital Channel 4 (D18),Analog Channel 0,Analog Channel 1,Analog Channel 2,Timestamp,Marker Channel,Timestamp (Formatted),Stimulus_Direction,Stimulus_Number
4.0,11500.598371100232,723.0565813847281,-57072.74312648096,-53468.92666446289,-32799.86623524025,-30032.116774572944,321.8427684119664,-19972.647127228633,0.0,0.0,0.0,193.0,1.0,154.0,0.0,10.0,3.0,250.0,410.0,10.0,1018.0,1744252886.484311,0.0,2025-04-09 22:41:26.484,STOP,39
5.0,11608.490241586,743.2178548834152,-57071.93846368056,-53460.70122250333,-32813.746668547,-30038.531725231616,308.7669979056118,-19983.219502355994,0.0,0.0,0.0,193.0,1.0,154.0,0.0,9.0,3.0,249.0,410.0,9.0,1017.0,1744252886.48432,0.0,2025-04-09 22:41:26.484,STOP,39
6.0,11590.765308232942,752.2032561544486,-57031.88413761665,-53465.08216441658,-32739.89650486666,-29971.118863954413,254.51931411258153,-19927.384844706638,0.0,0.0,0.0,193.0,1.0,154.0,0.0,8.0,3.0,249.0,410.0,8.0,1017.0,1744252886.4843287,0.0,2025-04-09 22:41:26.484,STOP,39
7.0,11545.726543155497,766.2401516723814,-57050.212568070005,-53460.5671120366,-32752.838164906287,-29995.12463749941,339.09831513146344,-19946.47323447147,0.0,0.0,0.0,193.0,1.0,154.0,0.0,7.0,3.0,251.0,410.0,7.0,1019.0,1744252886.484337,0.0,2025-04-09 22:41:26.484,STOP,39
8.0,11498.586714099254,728.0186686538063,-57067.73633572297,-53486.15985943793,-32789.27150836844,-30032.832030395515,287.309323228517,-19978.6150429982,0.0,0.0,0.0,193.0,1.0,154.0,0.0,7.0,3.0,252.0,410.0,7.0,1020.0,1744252886.484346,0.0,2025-04-09 22:41:26.484,STOP,39
9.0,11606.992674707493,749.4763433309012,-57056.56046349531,-53438.215367581295,-32808.0916771998,-30056.860155684968,351.88351295989906,-19992.04844141584,0.0,0.0,0.0,193.0,1.0,155.0,0.0,7.0,3.0,252.0,411.0,7.0,1020.0,1744252886.484355,0.0,2025-04-09 22:41:26.484,STOP,39
10.0,11597.001444935971,748.9175497195184,-57040.10957957621,-53486.85276351604,-32750.290066038382,-29991.280137453097,234.89448248082192,-19937.979571578453,0.0,0.0,0.0,193.0,1.0,155.0,0.0,6.0,3.0,252.0,411.0,6.0,1020.0,1744252886.4843638,0.0,2025-04-09 22:41:26.484,STOP,39
11.0,11556.030697349393,765.256674916348,-57040.914242376595,-53447.0666583856,-32747.92078112612,-29997.248053222665,362.4558880872593,-19933.688036643034,0.0,0.0,0.0,193.0,1.0,154.0,0.0,6.0,3.0,250.0,410.0,6.0,1018.0,1744252886.4843724,0.0,2025-04-09 22:41:26.484,STOP,39
12.0,11492.104708207216,724.062409885217,-57076.94525443856,-53503.68362709089,-32786.67870601162,-30033.837858896004,288.9410005737544,-19975.99988889693,0.0,0.0,0.0,193.0,1.0,154.0,0.0,6.0,3.0,248.0,410.0,6.0,1016.0,1744252886.4843812,0.0,2025-04-09 22:41:26.484,STOP,39
13.0,11591.77113673343,742.2790816162923,-57057.65569897363,-53428.13473083195,-32814.7972005364,-30060.548193520095,375.91163824935416,-19984.113572134207,0.0,0.0,0.0,193.0,1.0,153.0,0.0,5.0,3.0,249.0,409.0,5.0,1017.0,1744252886.48439,0.0,2025-04-09 22:41:26.484,STOP,39
14.0,11614.592267822298,752.9408637214738,-57045.09401858974,-53489.91495250642,-32758.62726672021,-29990.542529886072,240.34830812791685,-19923.786213849333,0.0,0.0,0.0,193.0,1.0,154.0,0.0,5.0,3.0,251.0,410.0,5.0,1019.0,1744252886.4843988,0.0,2025-04-09 22:41:26.484,STOP,39
15.0,11563.987918375484,761.6133405701329,-57033.20289053952,-53434.84025416854,-32744.031577590893,-29987.63680310688,377.498612105681,-19915.06903351176,0.0,0.0,0.0,193.0,1.0,154.0,0.0,5.0,3.0,251.0,410.0,5.0,1019.0,1744252886.4844077,0.0,2025-04-09 22:41:26.484,STOP,39
16.0,11497.402071643124,732.9360524339739,-57074.44185905956,-53501.96254276783,-32775.56988901733,-30018.772783133125,305.0566083260308,-19950.585955451246,0.0,0.0,0.0,193.0,1.0,154.0,0.0,5.0,3.0,251.0,410.0,5.0,1019.0,1744252886.4844165,0.0,2025-04-09 22:41:26.484,STOP,39
17.0,11565.977223632006,732.0196309113063,-57061.29903331984,-53422.23387029575,-32817.81468603786,-30061.91164993187,377.2527429166726,-19984.247682600937,0.0,0.0,0.0,193.0,1.0,155.0,0.0,5.0,3.0,251.0,411.0,5.0,1019.0,1744252886.4844253,0.0,2025-04-09 22:41:26.484,STOP,39
18.0,11613.608791066265,748.962253208429,-57067.2222456005,-53491.50192636275,-32783.996496676984,-30017.90106509937,235.8332557479448,-19953.5587374638,0.0,0.0,0.0,193.0,1.0,154.0,0.0,4.0,3.0,251.0,410.0,4.0,1019.0,1744252886.484434,0.0,2025-04-09 22:41:26.484,STOP,39
19.0,11571.274587067914,765.7931167832753,-57035.6615824296,-53422.77031216268,-32744.724481669007,-29989.782570574593,355.4597920727482,-19911.313940443273,0.0,0.0,0.0,193.0,1.0,155.0,0.0,4.0,3.0,251.0,411.0,4.0,1019.0,1744252886.4844425,0.0,2025-04-09 22:41:26.484,STOP,39
20.0,11500.553667611322,744.6930700174654,-57078.48752480597,-53485.08697570408,-32765.891583668184,-30014.950634831268,322.2227480677066,-19929.217687751974,0.0,0.0,0.0,193.0,1.0,155.0,0.0,4.0,3.0,251.0,411.0,4.0,1019.0,1744252886.4844563,0.0,2025-04-09 22:41:26.484,STOP,39
21.0,11545.234804777481,738.6804507589878,-57057.208664084515,-53406.900573599414,-32793.026601436926,-30046.28778055761,386.3722546544379,-19955.101007831217,0.0,0.0,0.0,193.0,1.0,155.0,0.0,4.0,3.0,252.0,411.0,4.0,1020.0,1744252886.4844654,0.0,2025-04-09 22:41:26.484,STOP,39
22.0,11615.48633760051,748.9175497195184,-57072.05022240284,-53460.61181552551,-32784.555290288365,-30026.975873348223,275.79817483403383,-19955.682153187056,0.0,0.0,0.0,193.0,1.0,155.0,0.0,4.0,3.0,252.0,411.0,4.0,1020.0,1744252886.4844742,0.0,2025-04-09 22:41:26.484,STOP,39
23.0,11573.420354535623,760.2498841583591,-57033.158187050605,-53407.392311977426,-32730.933455340084,-29982.227680948698,344.99917566766453,-19908.74348983091,0.0,0.0,0.0,193.0,1.0,154.0,0.0,4.0,3.0,249.0,410.0,4.0,1017.0,1744252886.4844828,0.0,2025-04-09 22:41:26.484,STOP,39
24.0,11517.608048630722,753.3208433772139,-57074.57596952629,-53452.81105671061,-32754.514545740432,-30004.422963192817,354.1186874054298,-19928.144804018117,0.0,0.0,0.0,193.0,1.0,153.0,0.0,4.0,3.0,251.0,409.0,4.0,1019.0,1744252886.4844913,0.0,2025-04-09 22:41:26.484,STOP,39
25.0,11521.743121354953,730.834988455175,-57070.977338668985,-53409.560431189595,-32795.194720649095,-30037.66000719786,360.57834155301356,-19955.212766553494,0.0,0.0,0.0,193.0,1.0,154.0,0.0,4.0,3.0,251.0,410.0,4.0,1019.0,1744252886.4845,0.0,2025-04-09 22:41:26.484,STOP,39
26.0,11622.415378381656,759.5569800802446,-57073.86071370372,-53421.38450400645,-32797.20637765007,-30029.166344304842,307.2694310271062,-19954.922193875576,0.0,0.0,0.0,193.0,1.0,154.0,0.0,4.0,3.0,251.0,410.0,4.0,1019.0,1744252886.4845088,0.0,2025-04-09 22:41:26.484,STOP,39
27.0,11586.943159931083,772.6103988421439,-57033.7616841509,-53396.976399061256,-32727.781859371888,-29966.179128429787,316.85832939843294,-19898.551094359293,0.0,0.0,0.0,193.0,1.0,155.0,0.0,4.0,3.0,252.0,411.0,4.0,1020.0,1744252886.4845176,0.0,2025-04-09 22:41:26.484,STOP,39
28.0,11530.773226114898,766.6648348170322,-57071.759649724925,-53422.88207088495,-32749.686568938087,-29995.929300299802,370.5472195800805,-19924.032083038343,0.0,0.0,0.0,193.0,1.0,154.0,0.0,4.0,3.0,250.0,410.0,4.0,1018.0,1744252886.4845264,0.0,2025-04-09 22:41:26.484,STOP,39
29.0,11505.359292669213,731.6620030000214,-57072.67607124759,-53409.58278293405,-32776.508662284454,-30024.248960524677,362.25472238716156,-19942.539327447335,0.0,0.0,0.0,193.0,1.0,154.0,0.0,3.0,3.0,249.0,410.0,3.0,1017.0,1744252886.4845352,0.0,2025-04-09 22:41:26.484,STOP,39
30.0,11603.818726994841,748.157590408038,-57080.34271959576,-53396.73052987225,-32806.996441721494,-30047.941809647302,357.5832077960024,-19970.926042905576,0.0,0.0,0.0,193.0,1.0,154.0,0.0,3.0,3.0,250.0,410.0,3.0,1018.0,1744252886.4845436,0.0,2025-04-09 22:41:26.484,STOP,39
31.0,11596.129726902214,768.9894162403842,-57036.19802429653,-53401.8043758636,-32730.86640010672,-29961.149985927343,284.89533482734385,-19897.70172806999,0.0,0.0,0.0,193.0,1.0,154.0,0.0,3.0,3.0,250.0,410.0,3.0,1018.0,1744252886.4845524,0.0,2025-04-09 22:41:26.484,STOP,39
32.0,11548.364049001224,776.8125267997417,-57055.12995185018,-53390.740262358224,-32743.159859557138,-29979.299602425053,387.4898418772032,-19900.361585660172,0.0,0.0,0.0,193.0,1.0,154.0,0.0,3.0,3.0,251.0,410.0,3.0,1019.0,1744252886.4845612,0.0,2025-04-09 22:41:26.484,STOP,39
33.0,11492.685853563054,728.9127384320186,-57079.515705050915,-53425.92190813088,-32776.307496584355,-30015.397669720373,337.9807279086981,-19924.32265571626,0.0,0.0,0.0,193.0,1.0,154.0,0.0,3.0,3.0,253.0,410.0,3.0,1021.0,1744252886.48457,0.0,2025-04-09 22:41:26.484,STOP,39
34.0,11612.15592767667,762.2391894148815,-57059.22032108549,-53363.02409923364,-32793.27247062593,-30032.340292017496,403.9183740518539,-19932.078711042253,0.0,0.0,0.0,193.0,1.0,155.0,0.0,3.0,3.0,252.0,411.0,3.0,1020.0,1744252886.484579,0.0,2025-04-09 22:41:26.484,STOP,39
35.0,11612.938238732606,771.2022389414595,-57040.73542842096,-53414.299001014115,-32733.883885608186,-29964.234526662178,276.26756146759527,-19890.03507972182,0.0,0.0,0.0,193.0,1.0,155.0,0.0,3.0,3.0,251.0,411.0,3.0,1019.0,1744252886.4846444,0.0,2025-04-09 22:41:26.484,STOP,39
36.0,11568.212398077536,784.769747825831,-57037.360315008205,-53373.57412261655,-32727.468934949513,-29972.616430832917,409.34984795449355,-19900.406289149083,0.0,0.0,0.0,193.0,1.0,154.0,0.0,3.0,3.0,250.0,410.0,3.0,1018.0,1744252886.4846532,0.0,2025-04-09 22:41:26.484,STOP,39
37.0,11501.693606578543,744.3354421061805,-57071.402021813636,-53432.828597167565,-32762.47176676652,-30002.388954447386,334.40444879584896,-19927.451899940002,0.0,0.0,0.0,193.0,1.0,154.0,0.0,3.0,3.0,250.0,410.0,3.0,1018.0,1744252886.4846616,0.0,2025-04-09 22:41:26.484,STOP,39
38.0,11586.00438666396,752.2703113878144,-57056.515760006405,-53358.732564298225,-32797.072267183335,-30032.295588528585,415.2507084906946,-19941.7570163914,0.0,0.0,0.0,193.0,1.0,154.0,0.0,3.0,3.0,251.0,410.0,3.0,1019.0,1744252886.4846704,0.0,2025-04-09 22:41:26.484,STOP,39
39.0,11610.926581731628,757.9476544794625,-57054.50410300543,-53436.404876280416,-32751.34059802778,-29983.389971660374,258.1402967143413,-19916.36543469017,0.0,0.0,0.0,193.0,1.0,154.0,0.0,3.0,3.0,251.0,410.0,3.0,1019.0,1744252886.4846792,0.0,2025-04-09 22:41:26.484,STOP,39
40.0,11574.157962102649,775.382015154602,-57027.90552710361,-53371.42835514884,-32721.90335058014,-29968.995448231155,404.7453885967003,-19886.50350409788,0.0,0.0,0.0,193.0,1.0,154.0,0.0,3.0,3.0,251.0,410.0,3.0,1019.0,1744252886.484688,0.0,2025-04-09 22:41:26.484,STOP,39
41.0,11500.240743188948,743.5307793057895,-57073.59249277026,-53446.329050818575,-32756.90618239715,-30001.740753858183,339.07596338700813,-19921.998074292907,0.0,0.0,0.0,193.0,1.0,154.0,0.0,3.0,3.0,252.0,410.0,3.0,1020.0,1744252886.4846969,0.0,2025-04-09 22:41:26.484,STOP,39
42.0,11566.781886432396,748.4705148304123,-57050.838416914754,-53366.66743357986,-32789.807950235365,-30038.79994616508,402.46551066225896,-19954.31869677528,0.0,0.0,0.0,193.0,1.0,155.0,0.0,3.0,3.0,252.0,411.0,3.0,1020.0,1744252886.4847057,0.0,2025-04-09 22:41:26.484,STOP,39
43.0,11634.932355276627,776.8125267997417,-57049.05027735833,-53430.83929191104,-32754.49219399598,-29994.722306099215,266.4327939072602,-19935.878507599653,0.0,0.0,0.0,193.0,1.0,155.0,0.0,3.0,3.0,251.0,411.0,3.0,1019.0,1744252886.4847143,0.0,2025-04-09 22:41:26.484,STOP,39
44.0,11581.645796495175,779.4947361343785,-57024.79863462432,-53381.88897155392,-32718.08120227828,-29975.29864016755,384.4053011423709,-19908.877600297645,0.0,0.0,0.0,193.0,1.0,154.0,0.0,3.0,3.0,250.0,410.0,3.0,1018.0,1744252886.484723,0.0,2025-04-09 22:41:26.484,STOP,39
45.0,11511.573077627789,755.6677765450212,-57075.42533581559,-53453.39220206645,-32751.608818961242,-30006.0322887936,353.1799141383069,-19937.51018494489,0.0,0.0,0.0,193.0,1.0,154.0,0.0,3.0,3.0,250.0,410.0,3.0,1018.0,1744252886.4847317,0.0,2025-04-09 22:41:26.484,STOP,39
46.0,11533.47778719399,727.7280959758873,-57074.39715557065,-53406.07355905457,-32803.28605214191,-30062.80571971008,376.6045423274687,-19998.53044730788,0.0,0.0,0.0,193.0,1.0,154.0,0.0,3.0,3.0,251.0,410.0,3.0,1019.0,1744252886.4847405,0.0,2025-04-09 22:41:26.484,STOP,39
47.0,11615.128709689227,742.4578955719347,-57083.360205097226,-53452.94516717734,-32794.61357529325,-30037.1906205643,279.5532679025254,-19972.960051651007,0.0,0.0,0.0,193.0,1.0,154.0,0.0,3.0,3.0,251.0,410.0,3.0,1019.0,1744252886.484749,0.0,2025-04-09 22:41:26.484,STOP,39
48.0,11572.213360335036,755.5560178227446,-57047.88798664665,-53413.69550391383,-32740.924685111608,-29985.289869939075,331.90105341685455,-19905.65894909608,0.0,0.0,0.0,193.0,1.0,154.0,0.0,3.0,3.0,252.0,410.0,3.0,1020.0,1744252886.4847577,0.0,2025-04-09 22:41:26.484,STOP,39
49.0,11519.731464353976,758.2605789018368,-57088.50110632195,-53462.8693417155,-32763.499947011467,-30020.225646522722,351.2576641151505,-19939.432434968046,0.0,0.0,0.0,193.0,1.0,154.0,0.0,3.0,3.0,250.0,410.0,3.0,1018.0,1744252886.4847665,0.0,2025-04-09 22:41:26.484,STOP,39
50.0,11516.870441063696,728.9127384320186,-57079.60511202874,-53426.79362616463,-32792.71367701455,-30049.305266059077,372.89415274788774,-19960.733647433957,0.0,0.0,0.0,193.0,1.0,154.0,0.0,3.0,3.0,250.0,410.0,3.0,1018.0,1744252886.4847806,0.0,2025-04-09 22:41:26.484,STOP,39
51.0,11621.163680692158,754.3713753666134,-57075.33592883777,-53429.05115235462,-32792.55721480337,-30043.046777611587,346.5414460350807,-19963.41585676859,0.0,0.0,0.0,193.0,1.0,154.0,0.0,3.0,3.0,251.0,410.0,3.0,1019.0,1744252886.4847894,0.0,2025-04-09 22:41:26.484,STOP,39
52.0,11581.846962195274,754.4384305999793,-57045.742219178945,-53426.27953604216,-32735.023824575404,-29989.357887429942,315.2490037976508,-19923.652103382603,0.0,0.0,0.0,193.0,1.0,154.0,0.0,3.0,3.0,252.0,410.0,3.0,1020.0,1744252886.4847982,0.0,2025-04-09 22:41:26.484,STOP,39
53.0,11521.340789954756,749.2751776308033,-57082.644949274654,-53445.45733278481,-32759.543688242877,-30010.524989429116,371.9777312252201,-19934.09036804323,0.0,0.0,0.0,193.0,1.0,155.0,0.0,3.0,3.0,251.0,411.0,3.0,1019.0,1744252886.4848068,0.0,2025-04-09 22:41:26.484,STOP,39
54.0,11501.335978667257,727.8845581870745,-57080.834457973775,-53437.34364954754,-32780.19670011958,-30031.759146661658,348.7095652472455,-19951.256507784907,0.0,0.0,0.0,193.0,1.0,153.0,0.0,3.0,3.0,249.0,409.0,3.0,1017.0,1744252886.4848156,0.0,2025-04-09 22:41:26.484,STOP,39
55.0,11613.832308510819,754.6619480445323,-57075.738260237966,-53405.69357939882,-32802.034354452415,-30046.019559624146,370.83779225799947,-19967.439170770547,0.0,0.0,0.0,193.0,1.0,153.0,0.0,3.0,3.0,251.0,409.0,3.0,1019.0,1744252886.484824,0.0,2025-04-09 22:41:26.484,STOP,39
56.0,11602.209401394059,768.1847534399931,-57040.511910976405,-53423.463216240794,-32731.358138484735,-29966.626163318895,286.728177872679,-19902.17207696105,0.0,0.0,0.0,193.0,1.0,154.0,0.0,2.0,3.0,250.0,410.0,2.0,1018.0,1744252886.4848328,0.0,2025-04-09 22:41:26.484,STOP,39
57.0,11559.38345901769,779.8747157901187,-57047.642117457646,-53399.837422351535,-32731.6263594182,-29981.60183210395,413.14964451189576,-19905.100155484695,0.0,0.0,0.0,193.0,1.0,154.0,0.0,3.0,3.0,252.0,410.0,3.0,1020.0,1744252886.4848413,0.0,2025-04-09 22:41:26.484,STOP,39
58.0,11511.014284016406,744.8271804841972,-57070.03856540186,-53439.77998969317,-32766.76330170194,-30019.197466277776,351.2800158596058,-19945.847385626723,0.0,0.0,0.0,193.0,1.0,154.0,0.0,2.0,3.0,250.0,410.0,2.0,1018.0,1744252886.48485,0.0,2025-04-09 22:41:26.484,STOP,39
59.0,11617.676808557131,769.3917476405798,-57056.87338791769,-53379.02794826364,-32796.06643868285,-30047.04773986909,409.7968828435997,-19964.66755445809,0.0,0.0,0.0,193.0,1.0,154.0,0.0,2.0,3.0,251.0,410.0,2.0,1019.0,1744252886.4848588,0.0,2025-04-09 22:41:26.484,STOP,39
60.0,11625.321105160845,780.8358408016969,-57036.0639138298,-53432.15804483391,-32731.514600695922,-29976.907965768336,276.26756146759527,-19910.37516717615,0.0,0.0,0.0,193.0,1.0,154.0,0.0,2.0,3.0,252.0,410.0,2.0,1020.0,1744252886.4848678,0.0,2025-04-09 22:41:26.484,STOP,39
61.0,11577.734241215498,790.0000560283728,-57033.582870195256,-53385.95698904479,-32725.34551922626,-29980.752465814647,411.58502240002423,-19905.323672929248,0.0,0.0,0.0,193.0,1.0,155.0,0.0,2.0,3.0,252.0,411.0,2.0,1020.0,1744252886.4848764,0.0,2025-04-09 22:41:26.484,STOP,39
62.0,11507.37094967019,751.5327038207894,-57073.19016137006,-53452.22991135477,-32761.5329934994,-30017.52108544363,336.6843267302903,-19953.782254908354,0.0,0.0,0.0,193.0,1.0,154.0,0.0,2.0,3.0,249.0,410.0,2.0,1017.0,1744252886.4848852,0.0,2025-04-09 22:41:26.484,STOP,39
63.0,11584.707985485553,754.1031544331497,-57059.62265248569,-53378.96089303028,-32800.089752684806,-30054.624981239438,422.31385973857164,-19972.513016761903,0.0,0.0,0.0,193.0,1.0,154.0,0.0,2.0,3.0,251.0,410.0,2.0,1019.0,1744252886.484894,0.0,2025-04-09 22:41:26.484,STOP,39
64.0,11625.119939460748,769.995244740873,-57054.414696027605,-53446.64197524095,-32752.838164906287,-29991.36954443092,278.5250876575813,-19923.205068493495,0.0,0.0,0.0,193.0,1.0,155.0,0.0,2.0,3.0,251.0,411.0,2.0,1019.0,1744252886.4849029,0.0,2025-04-09 22:41:26.484,STOP,39
65.0,11586.786697719896,787.3625501826466,-57019.14364327713,-53373.194142960805,-32714.840199332262,-29963.02753246159,423.8114266170772,-19882.010803462363,0.0,0.0,0.0,193.0,1.0,155.0,0.0,2.0,3.0,252.0,411.0,2.0,1020.0,1744252886.4849162,0.0,2025-04-09 22:41:26.484,STOP,39
66.0,11525.073531278793,769.481154618401,-57053.9676611385,-53437.522463503185,-32736.074356564804,-29992.665945609326,377.1409841943961,-19925.99903655041,0.0,0.0,0.0,193.0,1.0,155.0,0.0,2.0,3.0,252.0,411.0,2.0,1020.0,1744252886.4849248,0.0,2025-04-09 22:41:26.484,STOP,39
67.0,11567.05010736586,751.8679799876189,-57048.37972502467,-53374.37878541694,-32787.572775789835,-30051.629847482425,435.2331680337391,-19987.153409380127,0.0,0.0,0.0,193.0,1.0,154.0,0.0,2.0,3.0,250.0,410.0,2.0,1018.0,1744252886.4849336,0.0,2025-04-09 22:41:26.484,STOP,39
68.0,11623.041227226404,755.7571835228424,-57064.42827754358,-53447.73721071926,-32773.513528527445,-30017.52108544363,302.6426199248576,-19957.29147878784,0.0,0.0,0.0,193.0,1.0,154.0,0.0,2.0,3.0,250.0,410.0,2.0,1018.0,1744252886.4849424,0.0,2025-04-09 22:41:26.484,STOP,39
69.0,11589.468907054534,777.5501343667668,-57018.94247757703,-53380.70432909779,-32716.829504588786,-29964.54745108455,414.42369394584824,-19881.116733684154,0.0,0.0,0.0,193.0,1.0,154.0,0.0,2.0,3.0,250.0,410.0,2.0,1018.0,1744252886.484951,0.0,2025-04-09 22:41:26.484,STOP,39
70.0,11531.019095303905,767.1118697061384,-57057.566291995805,-53440.13761760445,-32738.018958332417,-29993.56001538754,394.19536521379536,-19916.14191724562,0.0,0.0,0.0,193.0,1.0,155.0,0.0,2.0,3.0,251.0,411.0,2.0,1019.0,1744252886.4849598,0.0,2025-04-09 22:41:26.484,STOP,39
71.0,11540.205662275037,745.2518636288481,-57059.26502457441,-53397.69165488383,-32789.36091534626,-30044.36553053445,409.5733653990466,-19973.205920840017,0.0,0.0,0.0,193.0,1.0,155.0,0.0,2.0,3.0,252.0,411.0,2.0,1020.0,1744252886.4849684,0.0,2025-04-09 22:41:26.484,STOP,39
72.0,11632.652477342186,770.8222592857194,-57060.65083273064,-53428.5594139766,-32776.44160705109,-30019.152762788864,340.5288267766031,-19962.544138734836,0.0,0.0,0.0,193.0,1.0,155.0,0.0,2.0,3.0,252.0,411.0,2.0,1020.0,1744252886.4849772,0.0,2025-04-09 22:41:26.484,STOP,39
73.0,11603.952837461573,785.1944309704818,-57010.06883502827,-53383.81122157708,-32707.24060621746,-29953.997427701644,383.2430104306949,-19902.015614749864,0.0,0.0,0.0,193.0,1.0,155.0,0.0,2.0,3.0,250.0,411.0,2.0,1018.0,1744252886.4849858,0.0,2025-04-09 22:41:26.484,STOP,39
74.0,11546.486502466978,779.7182535789316,-57049.944347136545,-53425.58663196405,-32734.487382708478,-29982.048866993056,407.9863915427198,-19921.953370803996,0.0,0.0,0.0,193.0,1.0,154.0,0.0,2.0,3.0,250.0,410.0,2.0,1018.0,1744252886.4849944,0.0,2025-04-09 22:41:26.484,STOP,39
75.0,11531.33201972628,747.3752793521022,-57052.35833553772,-53404.307771242595,-32777.20156636257,-30013.967158075233,390.2838099341166,-19945.668571671078,0.0,0.0,0.0,193.0,1.0,154.0,0.0,2.0,3.0,250.0,410.0,2.0,1018.0,1744252886.485003,0.0,2025-04-09 22:41:26.485,STOP,39
76.0,11634.3959134097,766.1730964390155,-57060.44966703054,-53409.85100386751,-32794.1888921486,-30032.94378911779,366.4792020892146,-19976.13399936366,0.0,0.0,0.0,193.0,1.0,154.0,0.0,2.0,3.0,249.0,410.0,2.0,1017.0,1744252886.4850116,0.0,2025-04-09 22:41:26.485,STOP,39
77.0,11594.498049556978,755.5560178227446,-57038.120274319685,-53427.799454665124,-32734.12975479719,-29985.111055983434,330.0011551381535,-19935.118548288174,0.0,0.0,0.0,193.0,1.0,154.0,0.0,2.0,3.0,249.0,410.0,2.0,1017.0,1744252886.4850202,0.0,2025-04-09 22:41:26.485,STOP,39
78.0,11551.627403691698,768.4306226290015,-57052.49244600445,-53425.76544591969,-32735.403804231144,-29991.45895140874,422.62678416094593,-19929.08357728524,0.0,0.0,0.0,193.0,1.0,154.0,0.0,2.0,3.0,252.0,410.0,2.0,1020.0,1744252886.4850287,0.0,2025-04-09 22:41:26.485,STOP,39
79.0,11520.111444009715,746.2800438737922,-57057.499236762436,-53430.2134430663,-32762.96350514454,-30016.694070898782,385.0535017315748,-19955.928022376065,0.0,0.0,0.0,193.0,1.0,154.0,0.0,2.0,3.0,250.0,410.0,2.0,1018.0,1744252886.4850376,0.0,2025-04-09 22:41:26.485,STOP,39
80.0,11616.492166101,758.9087794910407,-57063.91418742111,-53404.37482647596,-32801.25204339648,-30055.966085906755,408.8357578320215,-19999.066889174806,0.0,0.0,0.0,193.0,1.0,154.0,0.0,2.0,3.0,250.0,410.0,2.0,1018.0,1744252886.485051,0.0,2025-04-09 22:41:26.485,STOP,39
81.0,11604.645741539687,763.4014801265574,-57044.5128732339,-53445.18911185135,-32741.461126978535,-29991.391896175373,305.4142362373157,-19945.53446120435,0.0,0.0,0.0,193.0,1.0,154.0,0.0,2.0,3.0,250.0,410.0,2.0,1018.0,1744252886.4850595,0.0,2025-04-09 22:41:26.485,STOP,39
82.0,11561.372764274212,774.3314831652026,-57050.32432679228,-53414.164890547385,-32737.303702509846,-29990.56488163053,447.5713309730686,-19909.41404216457,0.0,0.0,0.0,193.0,1.0,154.0,0.0,2.0,3.0,249.0,410.0,2.0,1017.0,1744252886.485068,0.0,2025-04-09 22:41:26.485,STOP,39
83.0,11502.744138567941,736.1323518910827,-57079.18042888409,-53460.500056803234,-32772.44064479359,-30026.797059392582,377.6103708279575,-19955.52569097587,0.0,0.0,0.0,193.0,1.0,154.0,0.0,2.0,3.0,249.0,410.0,2.0,1017.0,1744252886.4850767,0.0,2025-04-09 22:41:26.485,STOP,39
84.0,11601.047110682382,752.5161805768229,-57067.80339095633,-53394.0036170487,-32809.85746501177,-30062.51514703216,439.21177854678376,-19985.834656457264,0.0,0.0,0.0,193.0,1.0,153.0,0.0,2.0,3.0,249.0,409.0,2.0,1017.0,1744252886.4850855,0.0,2025-04-09 22:41:26.485,STOP,39
85.0,11614.636971311209,760.8980847475631,-57057.700402462535,-53453.794533466644,-32757.733196941997,-29991.16837873082,290.97500931918734,-19928.86005984069,0.0,0.0,0.0,193.0,1.0,154.0,0.0,2.0,3.0,251.0,410.0,2.0,1019.0,1744252886.4850943,0.0,2025-04-09 22:41:26.485,STOP,39
86.0,11573.509761513444,780.0982332346717,-57046.83745465725,-53397.78106186164,-32743.785708401887,-29985.960422272736,433.8026563885995,-19912.40917592158,0.0,0.0,0.0,193.0,1.0,155.0,0.0,2.0,3.0,252.0,411.0,2.0,1020.0,1744252886.485103,0.0,2025-04-09 22:41:26.485,STOP,39
87.0,11509.092033993249,750.0798404311944,-57082.15321089664,-53464.05398417163,-32768.23851683599,-30016.80582962106,374.52583009312514,-19943.90278385911,0.0,0.0,0.0,193.0,1.0,154.0,0.0,2.0,3.0,252.0,410.0,2.0,1020.0,1744252886.4851117,0.0,2025-04-09 22:41:26.485,STOP,39
88.0,11592.933427445107,763.0885557041831,-57058.57212049629,-53380.01142501968,-32798.882758484215,-30049.059396870067,459.0154241341858,-19967.461522515005,0.0,0.0,0.0,193.0,1.0,154.0,0.0,2.0,3.0,250.0,410.0,2.0,1018.0,1744252886.48512,0.0,2025-04-09 22:41:26.485,STOP,39
89.0,11636.675791344142,779.4723843899231,-57060.18144609707,-53454.845065456044,-32765.24338307898,-30002.21014049174,299.62513442339116,-19945.601516437713,0.0,0.0,0.0,193.0,1.0,154.0,0.0,2.0,3.0,251.0,410.0,2.0,1019.0,1744252886.4851289,0.0,2025-04-09 22:41:26.485,STOP,39
90.0,11587.05491865336,783.2274774584148,-57040.847187143234,-53400.127995029456,-32744.724481669007,-29993.671774109815,410.35567645498236,-19936.23613551094,0.0,0.0,0.0,193.0,1.0,155.0,0.0,2.0,3.0,252.0,411.0,2.0,1020.0,1744252886.4851372,0.0,2025-04-09 22:41:26.485,STOP,39
91.0,11517.764510841907,761.3898231255798,-57087.6740917771,-53474.73811802127,-32774.63111575021,-30028.652254182372,364.0875654324967,-19976.402220297125,0.0,0.0,0.0,193.0,1.0,154.0,0.0,2.0,3.0,252.0,410.0,2.0,1020.0,1744252886.4851456,0.0,2025-04-09 22:41:26.485,STOP,39
92.0,11560.52339798491,747.9787764523956,-57075.78296372688,-53407.95110558881,-32814.3948691362,-30066.09142614501,442.1845605593396,-19988.9191971921,0.0,0.0,0.0,193.0,1.0,155.0,0.0,2.0,3.0,252.0,411.0,2.0,1020.0,1744252886.4851544,0.0,2025-04-09 22:41:26.485,STOP,39
93.0,11625.58932609431,758.9758347244066,-57085.953007454045,-53468.971367951795,-32797.47459858353,-30029.70278617177,340.3947163098713,-19966.075714358773,0.0,0.0,0.0,193.0,1.0,155.0,0.0,2.0,3.0,252.0,411.0,2.0,1020.0,1744252886.485168,0.0,2025-04-09 22:41:26.485,STOP,39
94.0,11580.707023228053,767.96123599544,-57047.32919303527,-53416.48947197074,-32745.082109580293,-29989.491997896672,434.1379325554291,-19924.032083038343,0.0,0.0,0.0,193.0,1.0,155.0,0.0,2.0,3.0,252.0,411.0,2.0,1020.0,1744252886.4851763,0.0,2025-04-09 22:41:26.485,STOP,39
95.0,11528.895679580652,762.2838929037921,-57080.45447831804,-53465.283330116676,-32764.52812725641,-30012.111963285442,443.7715344156664,-19946.18266179355,0.0,0.0,0.0,193.0,1.0,154.0,0.0,2.0,3.0,251.0,410.0,2.0,1019.0,1744252886.4851897,0.0,2025-04-09 22:41:26.485,STOP,39
96.0,11539.155130285637,739.351003092647,-57073.68189974808,-53421.09393132853,-32804.2918806424,-30052.121585860445,469.81131670609915,-19977.072772630785,0.0,0.0,0.0,193.0,1.0,154.0,0.0,2.0,3.0,250.0,410.0,2.0,1018.0,1744252886.485198,0.0,2025-04-09 22:41:26.485,STOP,39
97.0,11633.613602353764,766.5977795836664,-57078.21930387251,-53445.52438801818,-32801.38615386321,-30036.877696141924,411.33915321101586,-19966.72391494798,0.0,0.0,0.0,193.0,1.0,154.0,0.0,2.0,3.0,251.0,410.0,2.0,1019.0,1744252886.4852064,0.0,2025-04-09 22:41:26.485,STOP,39
98.0,11598.431956581111,781.7522623243646,-57035.2145475405,-53413.94137310283,-32733.99564433046,-29975.29864016755,430.0922668090185,-19919.89701031411,0.0,0.0,0.0,193.0,1.0,154.0,0.0,2.0,3.0,251.0,410.0,2.0,1019.0,1744252886.7314951,0.0,2025-04-09 22:41:26.731,STOP,39
99.0,11543.536072198876,782.1769454690153,-57068.898626434646,-53441.791646694146,-32750.692397438575,-29996.21987297772,485.23402038026103,-19927.094272028717,0.0,0.0,0.0,193.0,1.0,155.0,0.0,2.0,3.0,252.0,411.0,2.0,1020.0,1744252886.7315323,0.0,2025-04-09 22:41:26.731,STOP,39
100.0,11514.344693940246,737.0264216692951,-57080.78975448487,-53438.975326892774,-32794.85944448226,-30038.643483953892,468.55961901660197,-19962.32062129028,0.0,0.0,0.0,193.0,1.0,155.0,0.0,2.0,3.0,252.0,411.0,2.0,1020.0,1744252886.7315524,0.0,2025-04-09 22:41:26.731,STOP,39
101.0,11610.993636964993,746.2800438737922,-57091.183315656584,-53438.26007107021,-32823.223808196046,-30059.542365019606,454.2545025652054,-19989.85797045922,0.0,0.0,0.0,193.0,1.0,154.0,0.0,2.0,3.0,250.0,410.0,2.0,1018.0,1744252886.7315726,0.0,2025-04-09 22:41:26.731,STOP,39
102.0,11590.586494277299,752.449125343457,-57052.62655647118,-53446.30669907411,-32750.357121271747,-29985.84866355046,396.207022214773,-19931.31875173077,0.0,0.0,0.0,193.0,1.0,154.0,0.0,2.0,3.0,249.0,410.0,2.0,1017.0,1744252886.731582,0.0,2025-04-09 22:41:26.731,STOP,39
103.0,11546.888833867173,765.8601720166412,-57066.73050722248,-53436.270765813686,-32752.145260828172,-29997.918605556322,520.974459764297,-19935.83380411074,0.0,0.0,0.0,193.0,1.0,154.0,0.0,2.0,3.0,251.0,410.0,2.0,1019.0,1744252886.731591,0.0,2025-04-09 22:41:26.731,STOP,39
104.0,11503.682911835065,733.4277908119907,-57082.95787369703,-53458.89073120245,-32786.96927868954,-30032.384995506407,489.79377624914366,-19974.56937725179,0.0,0.0,0.0,193.0,1.0,155.0,0.0,2.0,3.0,252.0,411.0,2.0,1020.0,1744252886.7316,0.0,2025-04-09 22:41:26.731,STOP,39
105.0,11609.898401486684,750.5939305536665,-57075.96177768252,-53415.41658823688,-32816.652395326186,-30057.66481848536,551.3504804790593,-19990.886150704166,0.0,0.0,0.0,193.0,1.0,155.0,0.0,2.0,3.0,252.0,411.0,2.0,1020.0,1744252886.731609,0.0,2025-04-09 22:41:26.731,STOP,39
106.0,11605.651570040176,761.9486167369624,-57050.637251214655,-53458.60015852454,-32748.703092182055,-29985.960422272736,460.22241833477244,-19933.956257576498,0.0,0.0,0.0,193.0,1.0,154.0,0.0,2.0,3.0,251.0,410.0,2.0,1019.0,1744252886.7316184,0.0,2025-04-09 22:41:26.731,STOP,39
107.0,11555.33779327128,768.9894162403842,-57061.92488216459,-53427.9112133874,-32756.39209227468,-30002.187788747287,591.0024751427741,-19937.7560541339,0.0,0.0,0.0,193.0,1.0,155.0,0.0,2.0,3.0,252.0,411.0,2.0,1020.0,1744252886.7316275,0.0,2025-04-09 22:41:26.731,STOP,39
108.0,11488.41667037209,725.3364593191695,-57100.79456577237,-53485.466955359814,-32797.18402590561,-30039.00111186518,504.1212444449955,-19979.710278476512,0.0,0.0,0.0,193.0,1.0,155.0,0.0,2.0,3.0,251.0,411.0,2.0,1019.0,1744252886.7316363,0.0,2025-04-09 22:41:26.731,STOP,39
109.0,11583.76921221843,741.2509013713482,-57080.990920184966,-53407.61582942198,-32828.85644779878,-30067.81251046807,564.0462713296737,-20007.96288346802,0.0,0.0,0.0,193.0,1.0,154.0,0.0,2.0,3.0,250.0,410.0,2.0,1018.0,1744252886.731645,0.0,2025-04-09 22:41:26.731,STOP,39
110.0,11606.72445377403,751.6444625430659,-57066.77521071139,-53468.74785050724,-32770.74191221499,-29995.482265410694,419.92222308185376,-19954.56456596429,0.0,0.0,0.0,193.0,1.0,154.0,0.0,2.0,3.0,251.0,410.0,2.0,1019.0,1744252886.731654,0.0,2025-04-09 22:41:26.731,STOP,39
111.0,11563.853807908752,761.0768987032055,-57050.1678645811,-53411.862660868486,-32754.939228885083,-29990.162550230332,550.8363903565872,-19933.866850598675,0.0,0.0,0.0,193.0,1.0,155.0,0.0,2.0,3.0,252.0,411.0,2.0,1020.0,1744252886.731695,0.0,2025-04-09 22:41:26.731,STOP,39
112.0,11506.543935125344,741.5191223048118,-57077.72756549449,-53470.647748785945,-32766.852708679762,-30006.07699228251,505.84232876805413,-19936.169080277574,0.0,0.0,0.0,193.0,1.0,155.0,0.0,2.0,3.0,251.0,411.0,2.0,1019.0,1744252886.7317038,0.0,2025-04-09 22:41:26.731,STOP,39
113.0,11574.895569669672,745.3412706066694,-57059.46619027451,-53392.930733314846,-32799.173331162136,-30049.260562570165,595.3834170560142,-19967.394467281636,0.0,0.0,0.0,193.0,1.0,155.0,0.0,2.0,3.0,252.0,411.0,2.0,1020.0,1744252886.7317126,0.0,2025-04-09 22:41:26.731,STOP,39
114.0,11623.085930715315,756.0030527118507,-57062.19310309805,-53466.42326908389,-32766.696246468575,-30005.11586727093,445.04558384961894,-19943.366341992183,0.0,0.0,0.0,193.0,1.0,154.0,0.0,2.0,3.0,251.0,410.0,2.0,1019.0,1744252886.7317214,0.0,2025-04-09 22:41:26.731,STOP,39
115.0,11582.562218017843,771.448108130468,-57025.35742823571,-53399.23392525124,-32725.613740159723,-29973.398741888854,555.8208293701207,-19911.112774743175,0.0,0.0,0.0,193.0,1.0,154.0,0.0,2.0,3.0,250.0,410.0,2.0,1018.0,1744252886.73173,0.0,2025-04-09 22:41:26.731,STOP,39
116.0,11511.70718809452,750.415116598024,-57077.45934456102,-53476.459202344326,-32759.968371387527,-30007.50750392765,506.53523284616864,-19946.629696682656,0.0,0.0,0.0,193.0,1.0,154.0,0.0,2.0,3.0,249.0,410.0,2.0,1017.0,1744252886.731739,0.0,2025-04-09 22:41:26.731,STOP,39
117.0,11541.166787286615,730.4773605438901,-57065.3670508107,-53415.23777428124,-32797.96633696155,-30044.38788227891,557.3183962486263,-19966.254528314417,0.0,0.0,0.0,193.0,1.0,154.0,0.0,2.0,3.0,251.0,410.0,2.0,1019.0,1744252886.7317476,0.0,2025-04-09 22:41:26.731,STOP,39
118.0,11610.591305564798,737.1158286471164,-57083.62842603069,-53479.58844656807,-32797.18402590561,-30034.93309437431,443.3692030154709,-19969.361420793703,0.0,0.0,0.0,193.0,1.0,154.0,0.0,2.0,3.0,252.0,410.0,2.0,1020.0,1744252886.7317564,0.0,2025-04-09 22:41:26.731,STOP,39
119.0,11577.175447604115,752.4938288323676,-57039.036695842355,-53428.514710487696,-32739.136545555182,-29986.98860251768,502.40016012193684,-19923.60739989369,0.0,0.0,0.0,193.0,1.0,155.0,0.0,2.0,3.0,252.0,411.0,2.0,1020.0,1744252886.7317653,0.0,2025-04-09 22:41:26.731,STOP,39
120.0,11525.073531278793,751.1527241650491,-57070.75382122443,-53465.70801326133,-32757.19675507507,-30004.959405059744,513.0172387382077,-19944.260411770396,0.0,0.0,0.0,193.0,1.0,154.0,0.0,2.0,3.0,249.0,410.0,2.0,1017.0,1744252886.731774,0.0,2025-04-09 22:41:26.731,STOP,39
121.0,11524.13475801167,724.7329622188762,-57067.6692804896,-53429.65464945491,-32799.88858698471,-30045.75133869068,520.3039074306378,-19980.693755232543,0.0,0.0,0.0,193.0,1.0,154.0,0.0,2.0,3.0,250.0,410.0,2.0,1018.0,1744252886.731783,0.0,2025-04-09 22:41:26.731,STOP,39
122.0,11630.909041274672,761.1439539365714,-57060.29320481935,-53435.689620457844,-32796.82639799433,-30032.317940273042,474.54988653062424,-19974.994060396442,0.0,0.0,0.0,193.0,1.0,154.0,0.0,2.0,3.0,249.0,410.0,2.0,1017.0,1744252886.7317915,0.0,2025-04-09 22:41:26.731,STOP,39
123.0,11594.475697812522,767.0895179616831,-57019.881250844155,-53418.791701649636,-32730.933455340084,-29975.74567505666,468.5819707610573,-19926.915458073076,0.0,0.0,0.0,193.0,1.0,155.0,0.0,2.0,3.0,251.0,411.0,2.0,1019.0,1744252886.7318003,0.0,2025-04-09 22:41:26.731,STOP,39
124.0,11544.586604188276,770.4422796299791,-57053.69944020503,-53442.59630949453,-32753.03933060638,-30002.388954447386,525.2212912108054,-19943.99219083693,0.0,0.0,0.0,193.0,1.0,155.0,0.0,2.0,3.0,252.0,411.0,2.0,1020.0,1744252886.731809,0.0,2025-04-09 22:41:26.731,STOP,39
125.0,11528.739217369464,746.2353403848816,-57054.23588207196,-53433.85677741251,-32779.86142395275,-30026.014748336645,509.1503869474396,-19961.650068956624,0.0,0.0,0.0,193.0,1.0,155.0,0.0,2.0,3.0,252.0,411.0,2.0,1020.0,1744252886.7318175,0.0,2025-04-09 22:41:26.731,STOP,39
126.0,11634.641782598708,767.5812563396998,-57055.24171057245,-53413.78491089164,-32801.96729921905,-30036.36360601945,526.5623958781238,-19968.020316126385,0.0,0.0,0.0,193.0,1.0,154.0,0.0,2.0,3.0,249.0,410.0,2.0,1017.0,1744252886.7318325,0.0,2025-04-09 22:41:26.731,STOP,39
127.0,11611.910058487661,773.0127302423394,-57027.14556779213,-53436.02489662467,-32736.968426343017,-29966.670866807806,442.430429748348,-19915.56077188978,0.0,0.0,0.0,193.0,1.0,155.0,0.0,2.0,3.0,251.0,411.0,2.0,1019.0,1744252886.7318408,0.0,2025-04-09 22:41:26.731,STOP,39
128.0,11570.067592867326,783.9427332809846,-57039.84135864274,-53419.93164061686,-32744.76918515792,-29985.044000750066,540.1969599958611,-19937.107853544698,0.0,0.0,0.0,193.0,1.0,155.0,0.0,2.0,3.0,252.0,411.0,2.0,1020.0,1744252886.7318494,0.0,2025-04-09 22:41:26.731,STOP,39
129.0,11513.450624162035,736.221758868904,-57069.300957834836,-53460.85768471452,-32788.4891973125,-30028.38403324891,475.3992528199259,-19976.357516808213,0.0,0.0,0.0,193.0,1.0,155.0,0.0,2.0,3.0,253.0,411.0,2.0,1021.0,1744252886.7318583,0.0,2025-04-09 22:41:26.731,STOP,39
130.0,11629.3444191628,766.9777592394065,-57041.42833249907,-53390.38263444694,-32797.76517126145,-30032.51910597314,562.9957393402743,-19956.28565028735,0.0,0.0,0.0,193.0,1.0,154.0,0.0,2.0,3.0,249.0,410.0,2.0,1017.0,1744252886.7318668,0.0,2025-04-09 22:41:26.731,STOP,39
131.0,11629.031494740426,775.1137942211383,-57029.91718410459,-53449.190074108854,-32744.836240391287,-29974.963364000723,429.5111214531805,-19926.84840283971,0.0,0.0,0.0,193.0,1.0,154.0,0.0,2.0,3.0,251.0,410.0,2.0,1019.0,1744252886.7318757,0.0,2025-04-09 22:41:26.731,STOP,39
132.0,11587.34549133128,787.9436955384846,-57034.409884740104,-53413.58374519155,-32747.92078112612,-29991.771875831113,548.7576781222436,-19943.209879780996,0.0,0.0,0.0,193.0,1.0,155.0,0.0,2.0,3.0,252.0,411.0,2.0,1020.0,1744252886.7318845,0.0,2025-04-09 22:41:26.731,STOP,39
133.0,11529.94621157005,752.8738084881078,-57054.77232393889,-53457.75079223523,-32765.265734823435,-30001.539588158084,505.19412817885024,-19933.710388387488,0.0,0.0,0.0,193.0,1.0,155.0,0.0,2.0,3.0,252.0,411.0,2.0,1020.0,1744252886.731893,0.0,2025-04-09 22:41:26.731,STOP,39
134.0,11605.651570040176,755.5783695672,-57046.27866104587,-53388.97447454625,-32810.50566560098,-30046.108966601965,576.227972057816,-19970.099028360728,0.0,0.0,0.0,193.0,1.0,155.0,0.0,2.0,3.0,252.0,411.0,2.0,1020.0,1744252886.7319014,0.0,2025-04-09 22:41:26.731,STOP,39
135.0,11632.607773853277,768.8776575181076,-57042.322402277285,-53461.59529228155,-32758.694321953575,-29989.871977552415,427.0077260741861,-19941.198222780018,0.0,0.0,0.0,193.0,1.0,154.0,0.0,2.0,3.0,249.0,410.0,2.0,1017.0,1744252886.7319105,0.0,2025-04-09 22:41:26.731,STOP,39
136.0,11585.95968317505,776.8795820331076,-57022.8093293678,-53397.602247906005,-32732.542780940865,-29974.382218644885,578.9772366258188,-19910.46457415397,0.0,0.0,0.0,193.0,1.0,153.0,0.0,2.0,3.0,249.0,409.0,2.0,1017.0,1744252886.731919,0.0,2025-04-09 22:41:26.731,STOP,39
137.0,11521.94428705505,752.2926631322698,-57062.4166205426,-53467.227931884285,-32762.874098166718,-30006.300509727065,515.4312271393809,-19949.60247869521,0.0,0.0,0.0,193.0,1.0,154.0,0.0,2.0,3.0,252.0,410.0,2.0,1020.0,1744252886.7319276,0.0,2025-04-09 22:41:26.731,STOP,39
138.0,11580.997595905972,748.7163840194207,-57046.70334419052,-53393.6012856485,-32804.47069459804,-30050.55696374857,576.2056203133608,-19980.9172726771,0.0,0.0,0.0,193.0,1.0,155.0,0.0,2.0,3.0,250.0,411.0,2.0,1018.0,1744252886.7319365,0.0,2025-04-09 22:41:26.731,STOP,39
139.0,11638.843910556307,764.4520121159569,-57055.42052452809,-53463.49519056025,-32779.14616813018,-30005.406439948852,440.28466228063854,-19944.930964104053,0.0,0.0,0.0,193.0,1.0,154.0,0.0,2.0,3.0,250.0,410.0,2.0,1018.0,1744252886.731945,0.0,2025-04-09 22:41:26.731,STOP,39
140.0,11592.262875111446,772.2304191864038,-57024.26219275739,-53405.11243404299,-32739.360062999735,-29971.320029654507,545.6284338985007,-19907.156515974584,0.0,0.0,0.0,193.0,1.0,154.0,0.0,2.0,3.0,251.0,410.0,2.0,1019.0,1744252886.7319539,0.0,2025-04-09 22:41:26.731,STOP,39
141.0,11536.651734906643,767.0671662172277,-57059.71205946351,-53460.321242847596,-32759.275467309413,-29992.062448509034,519.7674655637104,-19934.98443782144,0.0,0.0,0.0,193.0,1.0,154.0,0.0,2.0,3.0,251.0,410.0,2.0,1019.0,1744252886.7319677,0.0,2025-04-09 22:41:26.731,STOP,39
142.0,11560.031659606893,747.8893694745743,-57049.944347136545,-53403.79368112012,-32802.526092830434,-30034.977797863223,551.6857566458889,-19975.57520575228,0.0,0.0,0.0,193.0,1.0,155.0,0.0,2.0,3.0,252.0,411.0,2.0,1020.0,1744252886.7319765,0.0,2025-04-09 22:41:26.731,STOP,39
143.0,11636.340515177311,756.2712736453144,-57067.35635606723,-53458.62251026899,-32805.320060887345,-30025.45595472526,449.6500432074122,-19972.87064467319,0.0,0.0,0.0,193.0,1.0,155.0,0.0,2.0,3.0,252.0,411.0,2.0,1020.0,1744252886.731985,0.0,2025-04-09 22:41:26.731,STOP,39
144.0,11596.666168769141,766.2401516723814,-57023.52458519037,-53415.215422536785,-32739.829449633296,-29971.498843610152,508.70335205833345,-19913.862039311178,0.0,0.0,0.0,193.0,1.0,155.0,0.0,2.0,3.0,251.0,411.0,2.0,1019.0,1744252886.731994,0.0,2025-04-09 22:41:26.731,STOP,39
145.0,11543.75958964343,765.2790266608032,-57055.6663937171,-53453.593367766545,-32751.988798616985,-29995.0799340105,548.3106432331375,-19932.726911631456,0.0,0.0,0.0,193.0,1.0,154.0,0.0,2.0,3.0,250.0,410.0,2.0,1018.0,1744252886.7320025,0.0,2025-04-09 22:41:26.732,STOP,39
146.0,11532.002572059939,730.3879535660689,-57063.13187636517,-53435.01906812419,-32800.223863151536,-30041.392748521896,535.9501285493527,-19985.119400634696,0.0,0.0,0.0,193.0,1.0,154.0,0.0,2.0,3.0,249.0,410.0,2.0,1017.0,1744252886.732011,0.0,2025-04-09 22:41:26.732,STOP,39
147.0,11632.87599478674,754.1925614109709,-57067.490466533956,-53443.49037927275,-32811.73501154602,-30037.347082775486,494.80056700713243,-19976.223406341483,0.0,0.0,0.0,193.0,1.0,154.0,0.0,2.0,3.0,252.0,410.0,2.0,1020.0,1744252886.7320197,0.0,2025-04-09 22:41:26.732,STOP,39
148.0,11605.897439229184,768.318863906725,-57023.61399216819,-53432.60507972301,-32741.036443833884,-29969.107206953435,463.7986974476216,-19913.37030093316,0.0,0.0,0.0,193.0,1.0,154.0,0.0,2.0,3.0,251.0,410.0,2.0,1019.0,1744252886.7320282,0.0,2025-04-09 22:41:26.732,STOP,39
149.0,11555.270738037914,771.3363494081914,-57050.8160651703,-53445.993774651746,-32755.118042840728,-29997.225701478208,545.293157731671,-19937.197260522516,0.0,0.0,0.0,193.0,1.0,154.0,0.0,2.0,3.0,251.0,410.0,2.0,1019.0,1744252886.7320368,0.0,2025-04-09 22:41:26.732,STOP,39
150.0,11524.291220222858,740.8709217156079,-57057.00749838442,-53448.139542119454,-32782.051894909375,-30024.85245762497,537.0230122832074,-19966.90272890362,0.0,0.0,0.0,193.0,1.0,154.0,0.0,2.0,3.0,251.0,410.0,2.0,1019.0,1744252886.7320452,0.0,2025-04-09 22:41:26.732,STOP,39
151.0,11632.808939553373,758.5958550686664,-57053.61003322721,-53416.757692904204,-32802.99547946399,-30038.21880080924,587.1803268409166,-19968.422647526582,0.0,0.0,0.0,193.0,1.0,154.0,0.0,2.0,3.0,251.0,410.0,2.0,1019.0,1744252886.7320542,0.0,2025-04-09 22:41:26.732,STOP,39
152.0,11614.05582595537,760.9204364920183,-57028.44196897054,-53446.79843745213,-32739.024786832906,-29968.682523808784,495.8510989965319,-19914.46553641147,0.0,0.0,0.0,193.0,1.0,154.0,0.0,2.0,3.0,249.0,410.0,2.0,1017.0,1744252886.7320628,0.0,2025-04-09 22:41:26.732,STOP,39
153.0,11561.171598574114,766.7765935393088,-57040.31074527631,-53423.99965810772,-32742.735176412487,-29980.663058836828,613.1530538979833,-19915.71723410097,0.0,0.0,0.0,193.0,1.0,154.0,0.0,2.0,3.0,251.0,410.0,2.0,1019.0,1744252886.7320716,0.0,2025-04-09 22:41:26.732,STOP,39
154.0,11513.964714284506,739.3733548371023,-57053.00653612692,-53455.828542212075,-32766.3833220462,-30006.434620193795,552.713936890833,-19947.635525183145,0.0,0.0,0.0,193.0,1.0,155.0,0.0,2.0,3.0,251.0,411.0,2.0,1019.0,1744252886.7320805,0.0,2025-04-09 22:41:26.732,STOP,39
155.0,11616.2910004009,758.2382271573815,-57039.05904758681,-53392.03666353663,-32798.70394452858,-30034.977797863223,610.3367340966147,-19971.6636504726,0.0,0.0,0.0,193.0,1.0,154.0,0.0,2.0,3.0,252.0,410.0,2.0,1020.0,1744252886.7320888,0.0,2025-04-09 22:41:26.732,STOP,39
156.0,11634.01593375396,771.7833842972975,-57017.98135256545,-53444.63031823997,-32734.889714108675,-29962.759311528127,471.15242137341755,-19919.919362058565,0.0,0.0,0.0,193.0,1.0,154.0,0.0,2.0,3.0,249.0,410.0,2.0,1017.0,1744252886.7321026,0.0,2025-04-09 22:41:26.732,STOP,39
157.0,11569.62055797822,764.0496807157613,-57030.56538469379,-53413.471986469274,-32743.092804323773,-29986.65332635085,599.3173240801483,-19932.458690697993,0.0,0.0,0.0,193.0,1.0,154.0,0.0,2.0,3.0,249.0,410.0,2.0,1017.0,1744252886.7475116,0.0,2025-04-09 22:41:26.747,STOP,39
158.0,11504.129946724172,733.8524739566415,-57067.73633572297,-53481.555400080135,-32777.514490784946,-30021.499695956674,514.0007154942413,-19973.161217351106,0.0,0.0,0.0,193.0,1.0,154.0,0.0,2.0,3.0,251.0,410.0,2.0,1019.0,1744252887.1431513,0.0,2025-04-09 22:41:27.143,STOP,39
159.0,11587.09962214227,745.7883054957755,-57043.06000984431,-53394.51770717117,-32809.388078378215,-30045.974856135235,593.9752571553299,-19980.537293021356,0.0,0.0,0.0,193.0,1.0,155.0,0.0,2.0,3.0,251.0,411.0,2.0,1019.0,1744252887.1431878,0.0,2025-04-09 22:41:27.143,STOP,39
160.0,11621.63306732572,755.9583492229401,-57041.60714645471,-53467.920835962395,-32762.49411851098,-29990.833102563993,450.6111682189904,-19937.42077796707,0.0,0.0,0.0,193.0,1.0,154.0,0.0,2.0,3.0,252.0,410.0,2.0,1020.0,1744252887.143208,0.0,2025-04-09 22:41:27.143,STOP,39
161.0,11575.543770258877,765.2343231718926,-57023.32341949027,-53411.75090214621,-32736.23081877599,-29984.440503649774,580.3853965265032,-19925.17202200556,0.0,0.0,0.0,193.0,1.0,154.0,0.0,2.0,3.0,250.0,410.0,2.0,1018.0,1744252887.143228,0.0,2025-04-09 22:41:27.143,STOP,39
162.0,11518.211545731014,749.4539915864458,-57059.10856236322,-53475.78865001067,-32756.72736844151,-30006.300509727065,526.9200237894087,-19954.31869677528,0.0,0.0,0.0,193.0,1.0,154.0,0.0,2.0,3.0,249.0,410.0,2.0,1017.0,1744252887.143246,0.0,2025-04-09 22:41:27.143,STOP,39
163.0,11566.983052132495,734.8135989682197,-57044.267004044894,-53404.933620087344,-32796.513473571955,-30047.494774758194,587.3814925410143,-19988.963900681007,0.0,0.0,0.0,193.0,1.0,154.0,0.0,2.0,3.0,249.0,410.0,2.0,1017.0,1744252887.1432662,0.0,2025-04-09 22:41:27.143,STOP,39
164.0,11632.585422108821,754.3713753666134,-57053.52062624939,-53471.11713541951,-32777.58154601831,-30013.386012719395,451.4158310193814,-19971.37307779468,0.0,0.0,0.0,193.0,1.0,154.0,0.0,2.0,3.0,249.0,410.0,2.0,1017.0,1744252887.1433332,0.0,2025-04-09 22:41:27.143,STOP,39
165.0,11593.872200712229,772.252770930859,-57010.22529723946,-53403.36899797547,-32721.657481391132,-29957.663113792314,554.233855513794,-19898.573446103746,0.0,0.0,0.0,193.0,1.0,154.0,0.0,2.0,3.0,251.0,410.0,2.0,1019.0,1744252887.1433427,0.0,2025-04-09 22:41:27.143,STOP,39
166.0,11527.6216301467,757.3218056347139,-57056.96279489551,-53465.35038535004,-32751.76528117243,-29986.45216065075,537.3135849611265,-19922.020426037365,0.0,0.0,0.0,193.0,1.0,154.0,0.0,2.0,3.0,252.0,410.0,2.0,1020.0,1744252887.1433525,0.0,2025-04-09 22:41:27.143,STOP,39
167.0,11543.781941387886,734.1877501234711,-57045.71986743449,-53414.8577946255,-32788.35508684577,-30025.120678558433,574.842163901587,-19951.8600048852,0.0,0.0,0.0,193.0,1.0,154.0,0.0,2.0,3.0,252.0,410.0,2.0,1020.0,1744252887.1433616,0.0,2025-04-09 22:41:27.143,STOP,39
168.0,11629.210308696069,749.319881119714,-57060.092039119256,-53459.69539400285,-32796.75934276096,-30024.450126224772,480.9648371892974,-19968.176778337573,0.0,0.0,0.0,193.0,1.0,155.0,0.0,2.0,3.0,250.0,411.0,2.0,1018.0,1744252887.1433709,0.0,2025-04-09 22:41:27.143,STOP,39
169.0,11596.263837368946,759.8699045026189,-57012.01343679589,-53421.8091871511,-32729.793516372865,-29963.20634641723,496.8122240081101,-19913.66087361108,0.0,0.0,0.0,193.0,1.0,154.0,0.0,2.0,3.0,249.0,410.0,2.0,1017.0,1744252887.1433797,0.0,2025-04-09 22:41:27.143,STOP,39
170.0,11536.294106995358,760.2498841583591,-57046.14455057914,-53455.60502476752,-32744.992702602474,-29991.771875831113,545.360212965037,-19931.13993777513,0.0,0.0,0.0,193.0,1.0,154.0,0.0,2.0,3.0,250.0,410.0,2.0,1018.0,1744252887.1433885,0.0,2025-04-09 22:41:27.143,STOP,39
171.0,11522.212507988514,734.6794885014879,-57047.59741396874,-53438.14831234793,-32779.30263034137,-30033.055547840067,542.1639135079281,-19966.634507970157,0.0,0.0,0.0,193.0,1.0,154.0,0.0,2.0,3.0,249.0,410.0,2.0,1017.0,1744252887.1434176,0.0,2025-04-09 22:41:27.143,STOP,39
172.0,11633.837119798318,758.7970207687641,-57046.502178490424,-53433.72266694578,-32792.44545608109,-30041.169231077343,522.5614336206238,-19980.9172726771,0.0,0.0,0.0,193.0,1.0,155.0,0.0,2.0,3.0,252.0,411.0,2.0,1020.0,1744252887.143427,0.0,2025-04-09 22:41:27.143,STOP,39
173.0,11608.780814263919,762.2838929037921,-57008.32539896076,-53433.02976286766,-32724.85378084824,-29971.007105232133,473.8569824525097,-19921.014597536876,0.0,0.0,0.0,193.0,1.0,154.0,0.0,2.0,3.0,250.0,410.0,2.0,1018.0,1744252887.1434357,0.0,2025-04-09 22:41:27.143,STOP,39
174.0,11562.535054985889,774.0185587428283,-57026.56442243629,-53427.68769594285,-32733.258036763436,-29982.093570481968,561.6322829285006,-19927.47425168446,0.0,0.0,0.0,193.0,1.0,154.0,0.0,2.0,3.0,250.0,410.0,2.0,1018.0,1744252887.1434445,0.0,2025-04-09 22:41:27.143,STOP,39
175.0,11512.020112516895,728.1527791205382,-57048.44678025804,-53453.28044334417,-32778.408560563155,-30024.204257035766,504.3447618895486,-19970.18843533855,0.0,0.0,0.0,193.0,1.0,154.0,0.0,2.0,3.0,249.0,410.0,2.0,1017.0,1744252887.1434531,0.0,2025-04-09 22:41:27.143,STOP,39
176.0,11624.002352237983,753.0526224437502,-57040.66837318759,-53410.588611434534,-32803.28605214191,-30044.56669623455,541.9627478078304,-19985.61113901271,0.0,0.0,0.0,193.0,1.0,154.0,0.0,2.0,3.0,250.0,410.0,2.0,1018.0,1744252887.143462,0.0,2025-04-09 22:41:27.143,STOP,39
177.0,11612.893535243695,757.4782678459011,-57017.37785546516,-53449.8159229536,-32734.845010619763,-29971.320029654507,452.71223219778926,-19908.788193319822,0.0,0.0,0.0,193.0,1.0,154.0,0.0,2.0,3.0,249.0,410.0,2.0,1017.0,1744252887.1434708,0.0,2025-04-09 22:41:27.143,STOP,39
178.0,11567.430087021601,769.3023406627585,-57022.96579157899,-53414.164890547385,-32734.5767896863,-29977.667925079815,584.3416552950926,-19904.116678728664,0.0,0.0,0.0,193.0,1.0,155.0,0.0,2.0,3.0,252.0,411.0,2.0,1020.0,1744252887.1434796,0.0,2025-04-09 22:41:27.143,STOP,39
179.0,11507.817984559297,734.6124332681219,-57051.397210526135,-53461.639995770456,-32765.936287157096,-30010.435582451297,513.7101428163222,-19946.47323447147,0.0,0.0,0.0,193.0,1.0,154.0,0.0,2.0,3.0,251.0,410.0,2.0,1019.0,1744252887.1435037,0.0,2025-04-09 22:41:27.143,STOP,39
180.0,11606.545639818387,749.1634189085269,-57035.70628591851,-53390.62850363595,-32798.01104045046,-30041.929190388822,582.2182395718384,-19978.43622904256,0.0,0.0,0.0,193.0,1.0,154.0,0.0,2.0,3.0,250.0,410.0,2.0,1018.0,1744252887.1435125,0.0,2025-04-09 22:41:27.143,STOP,39
181.0,11621.990695237006,757.2323986568927,-57025.268021257885,-53454.39803056694,-32741.662292678633,-29978.69610532476,437.89302562392066,-19936.012618066386,0.0,0.0,0.0,193.0,1.0,154.0,0.0,2.0,3.0,249.0,410.0,2.0,1017.0,1744252887.143521,0.0,2025-04-09 22:41:27.143,STOP,39
182.0,11574.202665591558,762.2168376704261,-57019.23305025495,-53405.26889625417,-32733.3250919968,-29980.663058836828,573.5010592342686,-19918.444146924514,0.0,0.0,0.0,193.0,1.0,154.0,0.0,2.0,3.0,249.0,410.0,2.0,1017.0,1744252887.1435297,0.0,2025-04-09 22:41:27.143,STOP,39
183.0,11505.962789769506,731.1926163664599,-57064.38357405467,-53479.253170401236,-32772.06066513785,-30014.16832377533,489.0114651932079,-19956.129188076164,0.0,0.0,0.0,193.0,1.0,153.0,0.0,2.0,3.0,249.0,409.0,2.0,1017.0,1744252887.143538,0.0,2025-04-09 22:41:27.143,STOP,39
184.0,11588.95481693206,748.8728462306078,-57034.141663806644,-53387.96864604577,-32795.239424138,-30036.430661252816,578.4407947588915,-19959.61606021119,0.0,0.0,0.0,193.0,1.0,154.0,0.0,2.0,3.0,250.0,410.0,2.0,1018.0,1744252887.1435468,0.0,2025-04-09 22:41:27.143,STOP,39
185.0,11630.372599407745,754.5948928111665,-57041.271870287885,-53465.86447547251,-32763.634057478197,-29994.342326443475,431.1651505428732,-19935.878507599653,0.0,0.0,0.0,193.0,1.0,155.0,0.0,2.0,3.0,252.0,411.0,2.0,1020.0,1744252887.1435556,0.0,2025-04-09 22:41:27.143,STOP,39
186.0,11584.372709318723,761.836858014686,-57016.7073031315,-53407.43701546634,-32733.794478630363,-29979.0760849805,556.2455125147716,-19911.380995676638,0.0,0.0,0.0,193.0,1.0,154.0,0.0,2.0,3.0,250.0,410.0,2.0,1018.0,1744252887.1435695,0.0,2025-04-09 22:41:27.143,STOP,39
187.0,11519.70911260952,743.2178548834152,-57056.47105651749,-53473.799344754145,-32761.06360686584,-30005.74171611568,511.4749683707915,-19941.958182091497,0.0,0.0,0.0,193.0,1.0,154.0,0.0,2.0,3.0,250.0,410.0,2.0,1018.0,1744252887.143578,0.0,2025-04-09 22:41:27.143,STOP,39
188.0,11563.339717786279,736.9593664359292,-57038.053219086316,-53403.16783227537,-32799.48625558451,-30047.85240266948,567.0190533422295,-19976.558682508312,0.0,0.0,0.0,193.0,1.0,154.0,0.0,2.0,3.0,250.0,410.0,2.0,1018.0,1744252887.1435869,0.0,2025-04-09 22:41:27.143,STOP,39
189.0,11639.983849523527,756.8971224900631,-57042.30005053283,-53456.5661497791,-32780.0402379084,-30013.31895748603,456.51202875519147,-19954.13988281964,0.0,0.0,0.0,193.0,1.0,154.0,0.0,2.0,3.0,249.0,410.0,2.0,1017.0,1744252887.1435955,0.0,2025-04-09 22:41:27.143,STOP,39
190.0,11599.504840314967,772.6774540755099,-57000.07760525675,-53401.24558225222,-32725.837257604275,-29965.50857609613,528.6411081124674,-19909.61520786467,0.0,0.0,0.0,193.0,1.0,154.0,0.0,2.0,3.0,249.0,410.0,2.0,1017.0,1744252887.1436043,0.0,2025-04-09 22:41:27.143,STOP,39
191.0,11537.076418051294,765.1225644496161,-57047.32919303527,-53458.75662073572,-32756.57090623032,-29995.63872762188,511.6090788375234,-19949.736589161945,0.0,0.0,0.0,193.0,1.0,154.0,0.0,2.0,3.0,252.0,410.0,2.0,1020.0,1744252887.1436129,0.0,2025-04-09 22:41:27.143,STOP,39
192.0,11540.228014019493,735.2829856017811,-57047.32919303527,-53420.311620272594,-32797.51930207245,-30034.28489378511,527.4341139118808,-19975.91048191911,0.0,0.0,0.0,193.0,1.0,155.0,0.0,2.0,3.0,252.0,411.0,2.0,1020.0,1744252887.1436217,0.0,2025-04-09 22:41:27.143,STOP,39
193.0,11633.881823287229,754.349023622158,-57055.93461465056,-53448.7653909642,-32797.429895094625,-30026.573541948026,476.33802608704883,-19968.735571948957,0.0,0.0,0.0,193.0,1.0,155.0,0.0,2.0,3.0,251.0,411.0,2.0,1019.0,1744252887.1436305,0.0,2025-04-09 22:41:27.143,STOP,39
194.0,11595.258008868457,761.5462853367669,-57015.58971590873,-53429.02880061016,-32731.112269295725,-29974.51632911162,483.6023430350236,-19924.32265571626,0.0,0.0,0.0,193.0,1.0,155.0,0.0,2.0,3.0,252.0,411.0,2.0,1020.0,1744252887.1436455,0.0,2025-04-09 22:41:27.143,STOP,39
195.0,11545.5253774554,766.1283929501049,-57040.53426272086,-53449.748867720235,-32743.67394967961,-29989.201425218755,542.8344658415873,-19922.13218475964,0.0,0.0,0.0,193.0,1.0,155.0,0.0,2.0,3.0,252.0,411.0,2.0,1020.0,1744252887.143654,0.0,2025-04-09 22:41:27.143,STOP,39
196.0,11528.202775502537,738.4569333144348,-57034.968678351484,-53431.28632680015,-32771.81479594884,-30014.61535866444,532.262090714227,-19940.66178091309,0.0,0.0,0.0,193.0,1.0,154.0,0.0,2.0,3.0,251.0,410.0,2.0,1019.0,1744252887.1436627,0.0,2025-04-09 22:41:27.143,STOP,39
197.0,11629.053846484881,752.3597183656358,-57037.87440513068,-53419.261088283194,-32795.97703170503,-30033.189658306797,526.9200237894087,-19963.549967235325,0.0,0.0,0.0,193.0,1.0,154.0,0.0,2.0,3.0,249.0,410.0,2.0,1017.0,1744252887.1436715,0.0,2025-04-09 22:41:27.143,STOP,39
198.0,11601.672959527132,754.2819683887922,-57009.80061409481,-53436.80720768061,-32732.498077451957,-29971.58825058797,455.59560723252383,-19921.595742892714,0.0,0.0,0.0,193.0,1.0,154.0,0.0,2.0,3.0,251.0,410.0,2.0,1019.0,1744252887.1436803,0.0,2025-04-09 22:41:27.143,STOP,39
199.0,11559.294052039868,770.0846517186942,-57022.56346017879,-53424.37963776346,-32734.19681003056,-29979.36665765842,560.7605648947435,-19915.94075154552,0.0,0.0,0.0,193.0,1.0,154.0,0.0,2.0,3.0,251.0,410.0,2.0,1019.0,1744252887.1436892,0.0,2025-04-09 22:41:27.143,STOP,39
200.0,11518.055083519826,737.965194936418,-57037.94146036404,-53446.19494035184,-32766.539784257388,-30005.65230913786,509.97740149228594,-19942.13699604714,0.0,0.0,0.0,193.0,1.0,155.0,0.0,2.0,3.0,250.0,411.0,2.0,1018.0,1744252887.1436977,0.0,2025-04-09 22:41:27.143,STOP,39
201.0,11617.900326001683,752.2256078989038,-57032.465282972495,-53402.72079738627,-32797.96633696155,-30032.69791992878,553.3397857355817,-19964.354630035716,0.0,0.0,0.0,193.0,1.0,155.0,0.0,2.0,3.0,251.0,411.0,2.0,1019.0,1744252887.1437116,0.0,2025-04-09 22:41:27.143,STOP,39
202.0,11603.997540950482,751.0856689316832,-57021.356465978206,-53462.399955081935,-32738.309531010334,-29974.248108178155,426.15835978488445,-19933.822147109764,0.0,0.0,0.0,193.0,1.0,155.0,0.0,2.0,3.0,251.0,411.0,2.0,1019.0,1744252887.1437204,0.0,2025-04-09 22:41:27.143,STOP,39
203.0,11564.4796567535,770.1293552076048,-57022.541108434336,-53421.33980051754,-32733.839182119274,-29974.337515155974,560.5593991946458,-19917.728891101946,0.0,0.0,0.0,193.0,1.0,155.0,0.0,2.0,3.0,251.0,411.0,2.0,1019.0,1744252887.1437292,0.0,2025-04-09 22:41:27.143,STOP,39
204.0,11502.520621123389,732.6007762671443,-57052.58185298227,-53472.368833109,-32770.54074651489,-29999.97496604621,489.14557565993977,-19936.057321555298,0.0,0.0,0.0,193.0,1.0,155.0,0.0,2.0,3.0,252.0,411.0,2.0,1020.0,1744252887.143738,0.0,2025-04-09 22:41:27.143,STOP,39
205.0,11586.116145386237,732.3325553336806,-57045.94338487904,-53408.778120133655,-32816.40652613718,-30050.624018981936,552.780992124199,-19978.95031916503,0.0,0.0,0.0,193.0,1.0,155.0,0.0,2.0,3.0,252.0,411.0,2.0,1020.0,1744252887.143757,0.0,2025-04-09 22:41:27.143,STOP,39
206.0,11616.045131211893,746.3918025960687,-57032.0629515723,-53474.53695232117,-32756.57090623032,-29988.486169396183,418.53641492562474,-19933.866850598675,0.0,0.0,0.0,193.0,1.0,155.0,0.0,2.0,3.0,252.0,411.0,2.0,1020.0,1744252887.1437657,0.0,2025-04-09 22:41:27.143,STOP,39
207.0,11576.326081314814,763.5579423377445,-57009.62180013917,-53408.934582344846,-32731.84987686275,-29971.565898843517,565.9685213528302,-19905.815411307267,0.0,0.0,0.0,193.0,1.0,155.0,0.0,2.0,3.0,251.0,411.0,2.0,1019.0,1744252887.1437747,0.0,2025-04-09 22:41:27.143,STOP,39
208.0,11517.831566075274,749.029308441795,-57043.12706507767,-53469.619568541006,-32757.107348097248,-29995.929300299802,502.13193918847315,-19942.56167919179,0.0,0.0,0.0,193.0,1.0,154.0,0.0,2.0,3.0,249.0,410.0,2.0,1017.0,1744252887.1437836,0.0,2025-04-09 22:41:27.143,STOP,39
209.0,11583.143363373681,750.191599153471,-57025.692704402536,-53391.96960830327,-32797.496950327986,-30040.766899677146,567.1531638089614,-19993.322490849794,0.0,0.0,0.0,193.0,1.0,153.0,0.0,2.0,3.0,248.0,409.0,2.0,1016.0,1744252887.1437924,0.0,2025-04-09 22:41:27.143,STOP,39
210.0,11625.946954005594,751.1303724205939,-57036.510948718904,-53468.72549876279,-32766.316266812835,-29990.251957208155,438.6529849354011,-19932.212821508983,0.0,0.0,0.0,193.0,1.0,153.0,0.0,2.0,3.0,250.0,409.0,2.0,1018.0,1744252887.1438007,0.0,2025-04-09 22:41:27.143,STOP,39
211.0,11581.511686028443,759.0875934466832,-57006.91723906008,-53409.1580997894,-32728.698280894554,-29958.758349270625,551.551646179157,-19882.256672651372,0.0,0.0,0.0,193.0,1.0,153.0,0.0,2.0,3.0,250.0,409.0,2.0,1018.0,1744252887.1438096,0.0,2025-04-09 22:41:27.143,STOP,39
212.0,11518.390359686657,745.4306775844906,-57048.78205642487,-53475.85570524403,-32755.073339351817,-29989.849625807958,506.0211427236966,-19926.289609228326,0.0,0.0,0.0,193.0,1.0,154.0,0.0,2.0,3.0,251.0,410.0,2.0,1019.0,1744252887.1438184,0.0,2025-04-09 22:41:27.143,STOP,39
213.0,11548.989897845971,730.320898332703,-57034.32047776228,-53414.164890547385,-32793.49598807049,-30035.9389228748,552.6021781685565,-19967.595632981735,0.0,0.0,0.0,193.0,1.0,154.0,0.0,2.0,3.0,252.0,410.0,2.0,1020.0,1744252887.143827,0.0,2025-04-09 22:41:27.143,STOP,39
214.0,11630.417302896656,753.0749741882056,-57041.00364935442,-53462.04232717065,-32783.59416527679,-30011.88844584089,450.7899821746328,-19953.871661886176,0.0,0.0,0.0,193.0,1.0,154.0,0.0,2.0,3.0,250.0,410.0,2.0,1018.0,1744252887.1438358,0.0,2025-04-09 22:41:27.143,STOP,39
215.0,11590.541790788388,764.67552956051,-57001.5528203908,-53414.0084283362,-32728.519466938913,-29960.725302782692,504.88120375647594,-19902.529704872337,0.0,0.0,0.0,193.0,1.0,154.0,0.0,2.0,3.0,249.0,410.0,2.0,1017.0,1744252887.1438448,0.0,2025-04-09 22:41:27.143,STOP,39
216.0,11537.746970384953,760.3169393917251,-57036.309783018805,-53456.52144629019,-32745.797365402865,-29983.859358293936,518.0240294961965,-19926.37901620615,0.0,0.0,0.0,193.0,1.0,154.0,0.0,2.0,3.0,251.0,410.0,2.0,1019.0,1744252887.143858,0.0,2025-04-09 22:41:27.143,STOP,39
217.0,11540.004496574938,732.9807559228846,-57030.38657073815,-53420.82571039507,-32779.92847918612,-30024.070146569033,535.8160180826209,-19962.09710384573,0.0,0.0,0.0,193.0,1.0,154.0,0.0,2.0,3.0,251.0,410.0,2.0,1019.0,1744252887.1438665,0.0,2025-04-09 22:41:27.143,STOP,39
218.0,11636.184052966126,754.0137474553285,-57039.41667549809,-53439.48941701525,-32791.99842119198,-30021.343233745487,485.8822209694649,-19961.09127534524,0.0,0.0,0.0,193.0,1.0,155.0,0.0,2.0,3.0,251.0,411.0,2.0,1019.0,1744252887.1438751,0.0,2025-04-09 22:41:27.143,STOP,39
219.0,11607.14913691868,765.6813580609987,-56994.46731739847,-53419.7081231723,-32718.90821682313,-29949.63883753286,471.8676771959874,-19897.053527480784,0.0,0.0,0.0,193.0,1.0,155.0,0.0,2.0,3.0,252.0,411.0,2.0,1020.0,1744252887.143884,0.0,2025-04-09 22:41:27.143,STOP,39
220.0,11553.035563592382,766.7542417948534,-57027.771416636875,-53442.261033327704,-32738.24247577697,-29978.83021579149,535.5477971491572,-19918.242981224415,0.0,0.0,0.0,193.0,1.0,154.0,0.0,2.0,3.0,250.0,410.0,2.0,1018.0,1744252887.143919,0.0,2025-04-09 22:41:27.143,STOP,39
221.0,11513.785900328863,721.9613459064182,-57043.48469298896,-53450.57588226508,-32782.320115842835,-30021.097364556477,493.14653791743973,-19954.922193875576,0.0,0.0,0.0,193.0,1.0,154.0,0.0,2.0,3.0,249.0,410.0,2.0,1017.0,1744252887.1439276,0.0,2025-04-09 22:41:27.143,STOP,39
222.0,11622.437730126112,748.4705148304123,-57037.33796326375,-53421.04922783962,-32799.86623524025,-30031.42387049483,513.4419218828585,-19960.353667778214,0.0,0.0,0.0,193.0,1.0,154.0,0.0,2.0,3.0,250.0,410.0,2.0,1018.0,1744252887.1439364,0.0,2025-04-09 22:41:27.143,STOP,39
223.0,11611.708892787563,760.8980847475631,-57002.29042795783,-53437.589518736546,-32728.787687872376,-29959.898288237848,431.25455752069445,-19905.502486884892,0.0,0.0,0.0,193.0,1.0,155.0,0.0,2.0,3.0,250.0,411.0,2.0,1018.0,1744252887.1439452,0.0,2025-04-09 22:41:27.143,STOP,39
224.0,11567.363031788234,774.1973726984708,-57017.86959384318,-53421.42920749536,-32734.62149317521,-29978.58434660248,539.4370006843807,-19921.014597536876,0.0,0.0,0.0,193.0,1.0,155.0,0.0,2.0,3.0,252.0,411.0,2.0,1020.0,1744252887.1439536,0.0,2025-04-09 22:41:27.143,STOP,39
225.0,11516.646923619142,737.4734565584013,-57038.902585375625,-53454.62154801149,-32769.467862781035,-30008.021594050122,478.5732005325795,-19947.657876927602,0.0,0.0,0.0,193.0,1.0,155.0,0.0,2.0,3.0,252.0,411.0,2.0,1020.0,1744252887.1439624,0.0,2025-04-09 22:41:27.143,STOP,39
226.0,11617.363884134757,754.4607823444346,-57031.14653004963,-53397.401082205906,-32805.52122658744,-30036.475364741727,523.2766894431936,-19967.305060303817,0.0,0.0,0.0,193.0,1.0,154.0,0.0,2.0,3.0,250.0,410.0,2.0,1018.0,1744252887.1439712,0.0,2025-04-09 22:41:27.143,STOP,39
227.0,11629.210308696069,769.9281895075071,-57001.99985527991,-53438.75180944822,-32727.357176227237,-29955.74086376916,407.56170839806896,-19901.92620777204,0.0,0.0,0.0,193.0,1.0,154.0,0.0,2.0,3.0,250.0,410.0,2.0,1018.0,1744252887.14398,0.0,2025-04-09 22:41:27.143,STOP,39
228.0,11584.417412807634,782.8922012915851,-56996.47897439945,-53385.06291926657,-32711.50978940842,-29951.091700922454,568.650730687467,-19869.963213200954,0.0,0.0,0.0,193.0,1.0,154.0,0.0,2.0,3.0,250.0,410.0,2.0,1018.0,1744252887.1439886,0.0,2025-04-09 22:41:27.143,STOP,39
229.0,11519.262077720414,749.6328055420882,-57033.80638763981,-53444.786780451155,-32743.56219095733,-29989.469646152218,493.61592455100117,-19918.958237046987,0.0,0.0,0.0,193.0,1.0,154.0,0.0,2.0,3.0,250.0,410.0,2.0,1018.0,1744252887.1439972,0.0,2025-04-09 22:41:27.143,STOP,39
230.0,11604.91396247315,754.1925614109709,-57018.09311128773,-53366.57802660204,-32780.66608675314,-30024.383070991407,564.359195752048,-19930.983475563942,0.0,0.0,0.0,193.0,1.0,154.0,0.0,2.0,3.0,250.0,410.0,2.0,1018.0,1744252887.144006,0.0,2025-04-09 22:41:27.144,STOP,39
231.0,11637.949840778094,765.413137127535,-57016.32732347576,-53437.74598094774,-32738.510696710433,-29972.907003510834,402.73373159572265,-19900.160419960073,0.0,0.0,0.0,193.0,1.0,155.0,0.0,2.0,3.0,252.0,411.0,2.0,1020.0,1744252887.1440198,0.0,2025-04-09 22:41:27.144,STOP,39
232.0,11586.406718064156,770.8446110301746,-57005.10674775919,-53380.9501982868,-32722.685661636075,-29970.045980220555,533.4243814259031,-19885.408268619572,0.0,0.0,0.0,193.0,1.0,155.0,0.0,2.0,3.0,251.0,411.0,2.0,1019.0,1744252887.1440287,0.0,2025-04-09 22:41:27.144,STOP,39
233.0,11523.151281255638,752.4714770879123,-57041.897719132634,-53438.39418153694,-32745.43973749158,-29983.255861193644,481.21070637830576,-19889.342175643706,0.0,0.0,0.0,193.0,1.0,154.0,0.0,2.0,3.0,251.0,410.0,2.0,1019.0,1744252887.1440372,0.0,2025-04-09 22:41:27.144,STOP,39
234.0,11577.443668537579,752.158552665538,-57025.35742823571,-53356.340927641504,-32783.035371665406,-30026.41707973684,542.7227071193108,-19934.112719787685,0.0,0.0,0.0,193.0,1.0,154.0,0.0,2.0,3.0,249.0,410.0,2.0,1017.0,1744252887.144046,0.0,2025-04-09 22:41:27.144,STOP,39
235.0,11641.526119890943,768.4976778623675,-57032.97937309497,-53419.95399236131,-32756.90618239715,-29988.955556029745,399.8280048165327,-19922.93684756003,0.0,0.0,0.0,193.0,1.0,154.0,0.0,2.0,3.0,249.0,410.0,2.0,1017.0,1744252887.1440547,0.0,2025-04-09 22:41:27.144,STOP,39
236.0,11605.428052595622,785.1944309704818,-56995.540201132324,-53352.63053806192,-32710.369850441202,-29945.63787527536,508.34572414704854,-19863.25768986436,0.0,0.0,0.0,193.0,1.0,154.0,0.0,2.0,3.0,249.0,410.0,2.0,1017.0,1744252887.1440635,0.0,2025-04-09 22:41:27.144,STOP,39
237.0,11534.550670927843,760.67456730301,-57050.704306448024,-53422.72560867377,-32747.406691003645,-29985.915718783825,479.7354912442555,-19898.774611803845,0.0,0.0,0.0,193.0,1.0,154.0,0.0,2.0,3.0,250.0,410.0,2.0,1018.0,1744252887.1440952,0.0,2025-04-09 22:41:27.144,STOP,39
238.0,11557.595319461265,739.9545001929403,-57038.79082665334,-53362.80058178909,-32781.91778444264,-30020.89619885638,520.460369641825,-19921.975722548454,0.0,0.0,0.0,193.0,1.0,155.0,0.0,2.0,3.0,252.0,411.0,2.0,1020.0,1744252887.144104,0.0,2025-04-09 22:41:27.144,STOP,39
239.0,11648.410457183178,764.1167359491272,-57037.829701641764,-53393.3554164595,-32763.187022589093,-29994.78936133258,438.9659093577754,-19908.408213664083,0.0,0.0,0.0,193.0,1.0,155.0,0.0,2.0,3.0,252.0,411.0,2.0,1020.0,1744252887.1441123,0.0,2025-04-09 22:41:27.144,STOP,39
240.0,11609.473718342033,775.6278843436104,-56996.814250566276,-53351.62470956144,-32701.13857998116,-29941.323988595486,487.9832849482638,-19856.08277989421,0.0,0.0,0.0,193.0,1.0,154.0,0.0,2.0,3.0,252.0,410.0,2.0,1020.0,1744252887.1441212,0.0,2025-04-09 22:41:27.144,STOP,39
241.0,11553.90728162614,772.6327505865993,-57034.141663806644,-53390.047358280106,-32721.255149990935,-29966.201480174244,510.1562154479284,-19888.872789010144,0.0,0.0,0.0,193.0,1.0,154.0,0.0,2.0,3.0,250.0,410.0,2.0,1018.0,1744252887.1441302,0.0,2025-04-09 22:41:27.144,STOP,39
242.0,11546.732371655986,741.4297153269906,-57033.13583530615,-53363.38172714493,-32759.990723131985,-30005.026460293113,503.7859682781659,-19924.590876649723,0.0,0.0,0.0,193.0,1.0,154.0,0.0,2.0,3.0,250.0,410.0,2.0,1018.0,1744252887.144142,0.0,2025-04-09 22:41:27.144,STOP,39
243.0,11653.30548921889,765.5919510831775,-57037.67323943058,-53371.18248595983,-32775.39107506169,-30013.207198763754,468.15728761640645,-19941.019408824373,0.0,0.0,0.0,193.0,1.0,155.0,0.0,2.0,3.0,251.0,411.0,2.0,1019.0,1744252887.144173,0.0,2025-04-09 22:41:27.144,STOP,39
244.0,11625.388160394212,776.6337128440993,-56996.85895405519,-53363.31467191156,-32701.920891037094,-29938.954703683223,448.398345517915,-19866.83396897721,0.0,0.0,0.0,193.0,1.0,155.0,0.0,2.0,3.0,252.0,411.0,2.0,1020.0,1744252887.1442037,0.0,2025-04-09 22:41:27.144,STOP,39
245.0,11574.806162691852,783.5404018807891,-57018.09311128773,-53364.20874168978,-32708.4699521625,-29949.01298868811,544.2426257422717,-19861.69306775249,0.0,0.0,0.0,193.0,1.0,155.0,0.0,2.0,3.0,252.0,411.0,2.0,1020.0,1744252887.1442125,0.0,2025-04-09 22:41:27.144,STOP,39
246.0,11533.47778719399,739.1498373925492,-57039.39432375364,-53383.72181459926,-32753.66517945113,-29991.9283380423,495.71698852980006,-19908.27410319735,0.0,0.0,0.0,193.0,1.0,155.0,0.0,2.0,3.0,252.0,411.0,2.0,1020.0,1744252887.1442213,0.0,2025-04-09 22:41:27.144,STOP,39
247.0,11635.40174191019,753.3431951216693,-57042.47886448847,-53359.626634076434,-32785.38230483321,-30018.95159708877,512.7043143158334,-19938.33719948974,0.0,0.0,0.0,193.0,1.0,155.0,0.0,2.0,3.0,252.0,411.0,2.0,1020.0,1744252887.1442351,0.0,2025-04-09 22:41:27.144,STOP,39
248.0,11624.315276660356,763.6249975711105,-57013.9580385635,-53388.66155012388,-32718.52823716739,-29945.50376480863,410.8474148329991,-19884.156570930074,0.0,0.0,0.0,193.0,1.0,154.0,0.0,1.0,3.0,252.0,410.0,1.0,1020.0,1744252887.144244,0.0,2025-04-09 22:41:27.144,STOP,39
249.0,11583.143363373681,785.1944309704818,-57016.52848917586,-53355.96094798577,-32716.00249004394,-29947.0683869205,534.7431343487661,-19863.525910797824,0.0,0.0,0.0,193.0,1.0,154.0,0.0,1.0,3.0,249.0,410.0,1.0,1017.0,1744252887.1442528,0.0,2025-04-09 22:41:27.144,STOP,39
250.0,11520.133795754171,740.4238868265018,-57050.90547214812,-53409.73924514523,-32754.805118418353,-29997.337460200484,468.2913980831383,-19915.09138525622,0.0,0.0,0.0,193.0,1.0,154.0,0.0,2.0,3.0,251.0,410.0,2.0,1019.0,1744252887.1442897,0.0,2025-04-09 22:41:27.144,STOP,39
251.0,11622.549488848388,756.6289015565994,-57034.29812601783,-53344.7403722692,-32780.084941397305,-30023.399594235372,537.2912332166711,-19930.491737185926,0.0,0.0,0.0,193.0,1.0,154.0,0.0,2.0,3.0,250.0,410.0,2.0,1018.0,1744252887.1442983,0.0,2025-04-09 22:41:27.144,STOP,39
252.0,11633.881823287229,767.0895179616831,-57016.52848917586,-53401.29028574113,-32716.136600510672,-29950.912886966813,404.27600196313887,-19878.725097027433,0.0,0.0,0.0,193.0,1.0,154.0,0.0,6.0,3.0,251.0,410.0,6.0,1019.0,1744252887.1443071,0.0,2025-04-09 22:41:27.144,STOP,39
253.0,11587.4348983091,778.2653901893366,-57013.91333507459,-53354.86571250745,-32708.00056552894,-29952.343398611953,540.8675123295203,-19867.281003866316,0.0,0.0,0.0,193.0,1.0,155.0,0.0,16.0,3.0,251.0,411.0,16.0,1019.0,1744252887.144316,0.0,2025-04-09 22:41:27.144,STOP,39
254.0,11520.402016687634,741.317956604714,-57053.25240531593,-53423.97730636327,-32742.75752815694,-29990.162550230332,470.0348341506522,-19910.12929798714,0.0,0.0,0.0,193.0,1.0,155.0,0.0,27.0,3.0,252.0,411.0,27.0,1020.0,1744252887.1443248,0.0,2025-04-09 22:41:27.144,STOP,39
255.0,11602.499974071978,748.9846049528844,-57031.057123071805,-53345.656793791866,-32778.45326405207,-30027.668777426337,541.8286373410986,-19943.99219083693,0.0,0.0,0.0,193.0,1.0,155.0,0.0,35.0,3.0,252.0,411.0,35.0,1020.0,1744252887.1443336,0.0,2025-04-09 22:41:27.144,STOP,39
0.0,11645.147102492703,769.5929133406775,-57028.28550675935,-53414.83544288104,-32739.807097888843,-29971.431788376784,386.4393098878038,-19908.8999520421,0.0,0.0,0.0,193.0,1.0,154.0,0.0,39.0,3.0,250.0,410.0,39.0,1018.0,1744252887.1443424,0.0,2025-04-09 22:41:27.144,STOP,39
1.0,11598.431956581111,782.5792768692108,-57004.39149193663,-53349.65775604937,-32712.448562675545,-29951.069349178,515.3418201615597,-19871.572538801734,0.0,0.0,0.0,193.0,1.0,154.0,0.0,39.0,3.0,249.0,410.0,39.0,1017.0,1744252887.144351,0.0,2025-04-09 22:41:27.144,STOP,39
2.0,11541.055028564338,760.7192707919206,-57045.898681390136,-53418.23290803825,-32736.409632731633,-29979.88074778089,463.4634212807919,-19912.498582899403,0.0,0.0,0.0,193.0,1.0,154.0,0.0,39.0,3.0,249.0,410.0,39.0,1017.0,1744252887.1443596,0.0,2025-04-09 22:41:27.144,STOP,39
3.0,11594.073366412327,755.5560178227446,-57026.22914626946,-53342.304032123575,-32768.79731044737,-30017.208161021255,530.4963029022579,-19946.38382749365,0.0,0.0,0.0,193.0,1.0,154.0,0.0,39.0,3.0,250.0,410.0,39.0,1018.0,1744252887.1443684,0.0,2025-04-09 22:41:27.144,STOP,39
4.0,11654.266614230468,765.3460818941692,-57041.29422203234,-53412.89084111343,-32754.29102829588,-29990.587233374983,408.1205020094517,-19925.306132472295,0.0,0.0,0.0,193.0,1.0,154.0,0.0,38.0,3.0,249.0,410.0,38.0,1017.0,1744252887.3489232,0.0,2025-04-09 22:41:27.348,STOP,39
5.0,11602.969360705538,771.9398465084847,-57007.09605301572,-53359.96191024326,-32707.911158551116,-29945.97315144219,497.5274798306799,-19852.864128692643,0.0,0.0,0.0,193.0,1.0,154.0,0.0,38.0,3.0,250.0,410.0,38.0,1018.0,1744252887.3489563,0.0,2025-04-09 22:41:27.348,STOP,39
6.0,11535.08711279477,757.4112126125351,-57051.061934359306,-53418.12114931597,-32734.845010619763,-29977.958497757736,479.82489822207674,-19889.543341343804,0.0,0.0,0.0,193.0,1.0,155.0,0.0,39.0,3.0,252.0,411.0,39.0,1020.0,1744252887.3490486,0.0,2025-04-09 22:41:27.349,STOP,39
7.0,11552.14149381417,741.8767502160968,-57038.902585375625,-53368.7461458142,-32765.91393541264,-30018.191637777287,510.2456224257496,-19929.642370896625,0.0,0.0,0.0,193.0,1.0,155.0,0.0,39.0,3.0,250.0,411.0,39.0,1018.0,1744252887.349059,0.0,2025-04-09 22:41:27.349,STOP,39
8.0,11655.004221797493,773.2809511758031,-57039.77430340938,-53396.77523336116,-32762.851746422264,-30008.021594050122,435.72490641175585,-19937.621943667167,0.0,0.0,0.0,193.0,1.0,154.0,0.0,39.0,3.0,249.0,410.0,39.0,1017.0,1744252887.3490686,0.0,2025-04-09 22:41:27.349,STOP,39
9.0,11626.751616805985,786.736701337898,-56993.729709831445,-53359.58193058753,-32696.42236190109,-29941.860430462413,461.85409568000983,-19871.93016671302,0.0,0.0,0.0,193.0,1.0,154.0,0.0,39.0,3.0,250.0,410.0,39.0,1018.0,1744252887.349078,0.0,2025-04-09 22:41:27.349,STOP,39
10.0,11572.682746968598,787.0496257602723,-57027.90552710361,-53390.2038204913,-32717.790629600364,-29964.323933639997,496.05226469662966,-19883.351908129684,0.0,0.0,0.0,193.0,1.0,154.0,0.0,40.0,3.0,250.0,410.0,40.0,1018.0,1744252887.3490875,0.0,2025-04-09 22:41:27.349,STOP,39
11.0,11545.413618733122,741.7649914938202,-57039.70724817601,-53383.207724476786,-32761.48829001049,-30009.65327139536,475.60041852002365,-19926.088443528228,0.0,0.0,0.0,193.0,1.0,154.0,0.0,40.0,3.0,250.0,410.0,40.0,1018.0,1744252887.3490968,0.0,2025-04-09 22:41:27.349,STOP,39
12.0,11648.209291483081,756.0701079452167,-57043.171768566586,-53380.50316339769,-32775.01109540595,-30019.912722100347,469.78896496164384,-19940.035932068342,0.0,0.0,0.0,193.0,1.0,154.0,0.0,40.0,3.0,249.0,410.0,40.0,1017.0,1744252887.349106,0.0,2025-04-09 22:41:27.349,STOP,39
13.0,11621.811881281363,769.0564714737501,-57001.41870992407,-53379.631445363935,-32703.552568382333,-29949.080043921476,418.4693596922588,-19884.93888198601,0.0,0.0,0.0,193.0,1.0,155.0,0.0,40.0,3.0,252.0,411.0,40.0,1020.0,1744252887.349115,0.0,2025-04-09 22:41:27.349,STOP,39
14.0,11570.514627756433,777.8630587891411,-57023.09990204572,-53377.955064529786,-32717.187132500072,-29969.80011103155,504.30005840063797,-19896.65119608059,0.0,0.0,0.0,193.0,1.0,155.0,0.0,41.0,3.0,251.0,411.0,41.0,1019.0,1744252887.3491397,0.0,2025-04-09 22:41:27.349,STOP,39
15.0,11524.42533068959,733.5395495342672,-57045.71986743449,-53407.325256744065,-32755.743891685473,-30012.33548073,456.2661595661831,-19933.710388387488,0.0,0.0,0.0,193.0,1.0,154.0,0.0,41.0,3.0,251.0,410.0,41.0,1019.0,1744252887.3491485,0.0,2025-04-09 22:41:27.349,STOP,39
16.0,11635.044113998903,755.5336660782893,-57039.23786154245,-53365.39338414591,-32782.67774375412,-30032.9884926067,492.94537221734197,-19956.28565028735,0.0,0.0,0.0,193.0,1.0,154.0,0.0,41.0,3.0,249.0,410.0,41.0,1017.0,1744252887.3491576,0.0,2025-04-09 22:41:27.349,STOP,39
17.0,11634.217099454057,772.1633639530378,-57004.637361125635,-53394.76357636018,-32707.352364939736,-29950.89053522236,391.8931355348987,-19893.432544879026,0.0,0.0,0.0,193.0,1.0,154.0,0.0,41.0,3.0,251.0,410.0,41.0,1019.0,1744252887.3491664,0.0,2025-04-09 22:41:27.349,STOP,39
18.0,11585.982034919505,782.4675181469344,-57012.751044362914,-53363.67229982284,-32710.056926018828,-29960.054750449035,521.4661981423138,-19884.044812207798,0.0,0.0,0.0,193.0,1.0,155.0,0.0,41.0,3.0,252.0,411.0,41.0,1020.0,1744252887.3491752,0.0,2025-04-09 22:41:27.349,STOP,39
19.0,11523.665371378109,739.8427414706638,-57046.12219883469,-53420.311620272594,-32750.312417782836,-29999.773800346113,447.12429608396246,-19927.8542313402,0.0,0.0,0.0,193.0,1.0,154.0,0.0,42.0,3.0,250.0,410.0,42.0,1018.0,1744252887.3491838,0.0,2025-04-09 22:41:27.349,STOP,39
20.0,11616.53686958991,748.6269770415995,-57033.53816670635,-53354.99982297419,-32788.71271475705,-30031.625036194928,511.07263697059597,-19946.070903071275,0.0,0.0,0.0,193.0,1.0,154.0,0.0,42.0,3.0,250.0,410.0,42.0,1018.0,1744252887.3491929,0.0,2025-04-09 22:41:27.349,STOP,39
21.0,11635.044113998903,759.5569800802446,-57021.848204356225,-53419.551660961115,-32730.531123939887,-29967.900212752847,371.5753998250246,-19901.300358927296,0.0,0.0,0.0,193.0,1.0,154.0,0.0,42.0,3.0,250.0,410.0,42.0,1018.0,1744252887.3492072,0.0,2025-04-09 22:41:27.349,STOP,39
22.0,11588.44072680959,767.7600702953423,-57010.89584957312,-53367.673262080345,-32717.47770517799,-29966.335590640974,506.26701191270496,-19890.07978321073,0.0,0.0,0.0,193.0,1.0,154.0,0.0,42.0,3.0,251.0,410.0,42.0,1019.0,1744252887.349216,0.0,2025-04-09 22:41:27.349,STOP,39
23.0,11534.684781394575,748.3811078525911,-57035.92980336306,-53424.62550695247,-32733.86153386373,-29988.732038585193,443.4809617377474,-19928.94946681851,0.0,0.0,0.0,193.0,1.0,155.0,0.0,42.0,3.0,252.0,411.0,42.0,1020.0,1744252887.3492248,0.0,2025-04-09 22:41:27.349,STOP,39
24.0,11609.853697997773,762.1497824370603,-57007.94541930502,-53334.03388667511,-32763.34348480028,-30010.524989429116,532.4409046698695,-19940.460615212993,0.0,0.0,0.0,193.0,1.0,155.0,0.0,42.0,3.0,252.0,411.0,42.0,1020.0,1744252887.3492336,0.0,2025-04-09 22:41:27.349,STOP,39
25.0,11645.795303081906,762.2391894148815,-57021.40116946711,-53413.270820769176,-32739.985911844484,-29966.782625530082,386.52871686562503,-19904.094326984206,0.0,0.0,0.0,193.0,1.0,154.0,0.0,42.0,3.0,249.0,410.0,42.0,1017.0,1744252887.3492424,0.0,2025-04-09 22:41:27.349,STOP,39
26.0,11595.459174568556,769.1011749626607,-56999.22823896745,-53356.60914857497,-32709.364021940713,-29950.46585207771,500.0308752096743,-19885.676489553036,0.0,0.0,0.0,193.0,1.0,155.0,0.0,42.0,3.0,250.0,411.0,42.0,1018.0,1744252887.3492515,0.0,2025-04-09 22:41:27.349,STOP,39
27.0,11530.505005181432,749.2081223974375,-57043.68585868906,-53425.87720464197,-32736.208467031538,-29977.667925079815,456.6684909663786,-19917.50537365739,0.0,0.0,0.0,193.0,1.0,154.0,0.0,42.0,3.0,250.0,410.0,42.0,1018.0,1744252887.3492603,0.0,2025-04-09 22:41:27.349,STOP,39
28.0,11568.324156799812,737.4511048139459,-57027.6596579146,-53357.547921842095,-32771.546575015374,-30014.280082497608,513.4419218828585,-19944.03689432584,0.0,0.0,0.0,193.0,1.0,154.0,0.0,43.0,3.0,250.0,410.0,43.0,1018.0,1744252887.3492692,0.0,2025-04-09 22:41:27.349,STOP,39
29.0,11642.040210013416,750.3704131091134,-57035.92980336306,-53414.41075973639,-32758.76137718694,-29983.99346876067,406.6229351309461,-19918.779423091346,0.0,0.0,0.0,193.0,1.0,154.0,0.0,43.0,3.0,250.0,410.0,43.0,1018.0,1744252887.3492785,0.0,2025-04-09 22:41:27.349,STOP,39
30.0,11606.67975028512,765.8154685277306,-56992.835640053236,-53361.70534631078,-32706.480646905977,-29936.853639704426,473.4322993078589,-19873.941823713998,0.0,0.0,0.0,193.0,1.0,155.0,0.0,42.0,3.0,251.0,411.0,42.0,1019.0,1744252887.3492875,0.0,2025-04-09 22:41:27.349,STOP,39
31.0,11548.185235045581,763.446183615468,-57028.57607943727,-53410.879184112455,-32723.84795234775,-29965.352113884943,479.02023542168564,-19906.195390963007,0.0,0.0,0.0,193.0,1.0,154.0,0.0,43.0,3.0,251.0,410.0,43.0,1019.0,1744252887.3492963,0.0,2025-04-09 22:41:27.349,STOP,39
32.0,11553.57200545931,736.28881410227,-57026.98910558094,-53377.19510521831,-32764.662237723143,-30012.491942941186,494.48764258475813,-19944.841557126234,0.0,0.0,0.0,193.0,1.0,154.0,0.0,43.0,3.0,249.0,410.0,43.0,1017.0,1744252887.3493056,0.0,2025-04-09 22:41:27.349,STOP,39
33.0,11658.312279976879,765.4578406164457,-57027.6596579146,-53396.127032771954,-32767.120929613226,-30005.11586727093,436.9766041012531,-19943.47810071446,0.0,0.0,0.0,193.0,1.0,154.0,0.0,43.0,3.0,251.0,410.0,43.0,1019.0,1744252887.3493147,0.0,2025-04-09 22:41:27.349,STOP,39
34.0,11623.756483048974,774.8455732876746,-56986.17482020555,-53372.32242492705,-32702.792609070853,-29942.0168926736,434.2496912777056,-19888.98454773242,0.0,0.0,0.0,193.0,1.0,155.0,0.0,43.0,3.0,251.0,411.0,43.0,1019.0,1744252887.3493235,0.0,2025-04-09 22:41:27.349,STOP,39
35.0,11568.279453310903,774.219724442926,-57020.797672366825,-53397.8034136061,-32721.679833135586,-29958.579535314984,488.6314855374677,-19894.97481524644,0.0,0.0,0.0,193.0,1.0,155.0,0.0,43.0,3.0,252.0,411.0,43.0,1020.0,1744252887.349332,0.0,2025-04-09 22:41:27.349,STOP,39
36.0,11543.983107087983,738.4345815699794,-57030.073646315774,-53395.210611249284,-32760.01307487644,-29997.538625900583,463.8657526809875,-19928.502431929403,0.0,0.0,0.0,193.0,1.0,155.0,0.0,43.0,3.0,252.0,411.0,43.0,1020.0,1744252887.3493464,0.0,2025-04-09 22:41:27.349,STOP,39
37.0,11649.505692661489,759.1993521689596,-57028.64313467064,-53379.29616919711,-32775.94986867307,-30015.55413193156,470.77244171767734,-19947.456711227504,0.0,0.0,0.0,193.0,1.0,154.0,0.0,43.0,3.0,249.0,410.0,43.0,1017.0,1744252887.3493552,0.0,2025-04-09 22:41:27.349,STOP,39
38.0,11630.05967498537,764.7872882827864,-56995.6519598546,-53395.56823916057,-32706.123018994695,-29943.223886874188,398.2186792157506,-19884.31303314126,0.0,0.0,0.0,193.0,1.0,154.0,0.0,43.0,3.0,249.0,410.0,43.0,1017.0,1744252887.349364,0.0,2025-04-09 22:41:27.349,STOP,39
39.0,11591.748784988975,786.5355356378002,-57006.26903847087,-53378.4020994189,-32706.905330050628,-29956.746692269648,499.136805431462,-19893.097268712198,0.0,0.0,0.0,193.0,1.0,155.0,0.0,43.0,3.0,252.0,411.0,43.0,1020.0,1744252887.3493729,0.0,2025-04-09 22:41:27.349,STOP,39
40.0,11531.577888915288,735.3500408351471,-57037.494425474935,-53417.40589349341,-32748.256057292947,-30006.591082404982,449.6723949518675,-19941.287629757837,0.0,0.0,0.0,193.0,1.0,155.0,0.0,43.0,3.0,251.0,411.0,43.0,1019.0,1744252887.3493817,0.0,2025-04-09 22:41:27.349,STOP,39
41.0,11630.573765107843,747.0176514408173,-57038.29908827533,-53376.85982905148,-32788.95858394606,-30045.013731123658,491.91719197239786,-19972.222444083982,0.0,0.0,0.0,193.0,1.0,155.0,0.0,43.0,3.0,252.0,411.0,43.0,1020.0,1744252887.3493905,0.0,2025-04-09 22:41:27.349,STOP,39
42.0,11634.284154687424,764.7202330494206,-57012.43811994054,-53417.33883826004,-32723.46797269201,-29963.36280862842,369.8766672464213,-19908.51997238636,0.0,0.0,0.0,193.0,1.0,155.0,0.0,43.0,3.0,252.0,411.0,43.0,1020.0,1744252887.349399,0.0,2025-04-09 22:41:27.349,STOP,39
43.0,11599.303674614868,783.4062914140573,-57005.28556171484,-53369.75197431469,-32713.901426065142,-29961.3735033719,503.8306717670765,-19894.594835590702,0.0,0.0,0.0,193.0,1.0,154.0,0.0,43.0,3.0,252.0,410.0,43.0,1020.0,1744252887.3494077,0.0,2025-04-09 22:41:27.349,STOP,39
44.0,11541.636173920177,747.8223142412083,-57034.700457418025,-53422.94912611832,-32744.47861248,-29991.570710131018,432.9756418437531,-19927.586010406736,0.0,0.0,0.0,193.0,1.0,155.0,0.0,43.0,3.0,252.0,411.0,43.0,1020.0,1744252887.3494165,0.0,2025-04-09 22:41:27.349,STOP,39
45.0,11633.323029675847,758.6852620464877,-57020.9094310891,-53346.617918803444,-32780.82254896433,-30024.003091335668,510.491491614758,-19943.791025136834,0.0,0.0,0.0,193.0,1.0,155.0,0.0,43.0,3.0,253.0,411.0,43.0,1021.0,1744252887.349425,0.0,2025-04-09 22:41:27.349,STOP,39
46.0,11659.094591032816,772.185715697493,-57009.398282694616,-53411.437977723836,-32724.965539570516,-29962.938125483768,365.02633869961966,-19906.173039218553,0.0,0.0,0.0,193.0,1.0,155.0,0.0,43.0,3.0,249.0,411.0,43.0,1017.0,1744252887.3494337,0.0,2025-04-09 22:41:27.349,STOP,39
47.0,11611.038340453904,784.2780094478143,-56995.070814498766,-53353.9939944737,-32708.179379484583,-29955.02560794659,504.85885201202063,-19885.36356513066,0.0,0.0,0.0,193.0,1.0,154.0,0.0,43.0,3.0,250.0,410.0,43.0,1018.0,1744252887.3494425,0.0,2025-04-09 22:41:27.349,STOP,39
48.0,11552.81204614783,768.9670644959289,-57027.59260268124,-53416.24360278173,-32731.022862317906,-29977.198538446253,440.4858279807363,-19913.772632333355,0.0,0.0,0.0,193.0,1.0,154.0,0.0,43.0,3.0,251.0,410.0,43.0,1019.0,1744252887.3494513,0.0,2025-04-09 22:41:27.349,STOP,39
49.0,11607.886744485706,761.76980278132,-57016.81906185378,-53343.53337806861,-32777.89447044068,-30023.22078027973,506.1329014459731,-19949.42366473957,0.0,0.0,0.0,193.0,1.0,155.0,0.0,43.0,3.0,252.0,411.0,43.0,1020.0,1744252887.34946,0.0,2025-04-09 22:41:27.349,STOP,39
50.0,11658.02170729896,772.9903784978842,-57026.519718947384,-53417.20472779331,-32751.474708494512,-29981.713590826228,361.22654214221745,-19926.42371969506,0.0,0.0,0.0,193.0,1.0,155.0,0.0,43.0,3.0,252.0,411.0,43.0,1020.0,1744252887.3494687,0.0,2025-04-09 22:41:27.349,STOP,39
51.0,11625.231698183024,786.669646104532,-56984.94547426051,-53349.143665926895,-32704.491341649456,-29945.63787527536,477.6344272654566,-19885.162399430563,0.0,0.0,0.0,193.0,1.0,154.0,0.0,43.0,3.0,251.0,410.0,43.0,1019.0,1744252887.3494818,0.0,2025-04-09 22:41:27.349,STOP,39
52.0,11567.206569577047,773.7279860649093,-57023.74810263492,-53409.962762589785,-32726.172533771103,-29971.521195354606,455.1262205989624,-19908.452917152994,0.0,0.0,0.0,193.0,1.0,154.0,0.0,44.0,3.0,249.0,410.0,44.0,1017.0,1744252887.3494906,0.0,2025-04-09 22:41:27.349,STOP,39
53.0,11586.563180275343,746.4141543405241,-57019.456567699504,-53356.83266601952,-32771.81479594884,-30021.14206804539,506.3340671460709,-19944.059246070297,0.0,0.0,0.0,193.0,1.0,155.0,0.0,44.0,3.0,251.0,411.0,44.0,1019.0,1744252887.3494995,0.0,2025-04-09 22:41:27.349,STOP,39
54.0,11661.64268990072,764.8096400272418,-57030.72184690498,-53411.013294579185,-32762.15884234415,-30008.692146383783,398.4869001492143,-19952.32939151876,0.0,0.0,0.0,193.0,1.0,155.0,0.0,44.0,3.0,252.0,411.0,44.0,1020.0,1744252887.3495083,0.0,2025-04-09 22:41:27.349,STOP,39
55.0,11625.365808649756,780.768785568331,-56982.75500330389,-53359.98426198772,-32697.159969468117,-29947.96245669871,463.97751140326403,-19890.526818099836,0.0,0.0,0.0,193.0,1.0,155.0,0.0,44.0,3.0,252.0,411.0,44.0,1020.0,1744252887.5515473,0.0,2025-04-09 22:41:27.551,STOP,39
56.0,11568.681784711098,775.4714221324232,-57024.642172413136,-53405.55946893209,-32724.607911659234,-29960.658247549327,479.9590086888086,-19881.697879039988,0.0,0.0,0.0,193.0,1.0,154.0,0.0,44.0,3.0,251.0,410.0,44.0,1019.0,1744252887.5516014,0.0,2025-04-09 22:41:27.551,STOP,39
57.0,11569.5311510004,747.2411688853704,-57020.03771305534,-53374.93757902832,-32760.884792910198,-29998.767971845624,486.7986424921325,-19922.646274882114,0.0,0.0,0.0,193.0,1.0,154.0,0.0,44.0,3.0,249.0,410.0,44.0,1017.0,1744252887.551637,0.0,2025-04-09 22:41:27.551,STOP,39
58.0,11674.78551564044,771.0234249858171,-57020.88707934464,-53387.00752103419,-32765.3327900568,-30000.109076512945,449.3594705294932,-19940.706484402,0.0,0.0,0.0,193.0,1.0,153.0,0.0,44.0,3.0,249.0,409.0,44.0,1017.0,1744252887.5516572,0.0,2025-04-09 22:41:27.551,STOP,39
59.0,11639.782683823429,781.7969658132752,-56980.22925618044,-53372.635349349424,-32698.94810902454,-29929.58932275645,429.3546592419934,-19873.98652720291,0.0,0.0,0.0,193.0,1.0,154.0,0.0,44.0,3.0,250.0,410.0,44.0,1018.0,1744252887.5516734,0.0,2025-04-09 22:41:27.551,STOP,39
60.0,11582.00342440646,776.7678233108311,-57016.5061374314,-53394.33889321553,-32724.607911659234,-29960.591192315962,487.29038087014925,-19894.97481524644,0.0,0.0,0.0,193.0,1.0,154.0,0.0,44.0,3.0,252.0,410.0,44.0,1020.0,1744252887.551689,0.0,2025-04-09 22:41:27.551,STOP,39
61.0,11542.642002420665,741.8767502160968,-57030.8112538828,-53403.07842529755,-32765.466900523534,-30006.456971938253,445.0008803607083,-19949.870699628675,0.0,0.0,0.0,193.0,1.0,154.0,0.0,44.0,3.0,250.0,410.0,44.0,1018.0,1744252887.5517044,0.0,2025-04-09 22:41:27.551,STOP,39
62.0,11652.389067696222,770.3305209077026,-57022.51875668988,-53371.450706893294,-32779.97318267503,-30021.79026863459,480.24958136672757,-19960.37601952267,0.0,0.0,0.0,193.0,1.0,154.0,0.0,44.0,3.0,250.0,410.0,44.0,1018.0,1744252887.55172,0.0,2025-04-09 22:41:27.551,STOP,39
63.0,11643.314259447368,771.96219825294,-56995.51784938787,-53398.83159385104,-32714.773144098897,-29950.152927655334,397.57047862654673,-19895.824181535743,0.0,0.0,0.0,193.0,1.0,154.0,0.0,44.0,3.0,250.0,410.0,44.0,1018.0,1744252887.5517294,0.0,2025-04-09 22:41:27.551,STOP,39
64.0,11597.426128080622,777.9748175114177,-57010.292352472825,-53382.425413420846,-32720.405783701633,-29962.848718505946,508.01044798021894,-19899.400460648594,0.0,0.0,0.0,193.0,1.0,154.0,0.0,44.0,3.0,251.0,410.0,44.0,1019.0,1744252887.5517385,0.0,2025-04-09 22:41:27.551,STOP,39
65.0,11540.898566353151,740.2003693819487,-57037.89675687513,-53421.786835406645,-32757.554382986356,-29994.677602610303,442.8551128929988,-19936.571411677767,0.0,0.0,0.0,193.0,1.0,154.0,0.0,44.0,3.0,251.0,410.0,44.0,1019.0,1744252887.551747,0.0,2025-04-09 22:41:27.551,STOP,39
66.0,11645.281212959435,763.7814597822976,-57021.91525958959,-53359.33606139852,-32783.97414493253,-30021.387937234398,505.1270729454843,-19956.889147387643,0.0,0.0,0.0,193.0,1.0,155.0,0.0,44.0,3.0,252.0,411.0,44.0,1020.0,1744252887.5517895,0.0,2025-04-09 22:41:27.551,STOP,39
67.0,11649.706858361586,773.0127302423394,-57003.67623611406,-53412.823785880064,-32720.070507534805,-29950.778776500083,378.2138679282508,-19900.94273101601,0.0,0.0,0.0,193.0,1.0,154.0,0.0,44.0,3.0,252.0,410.0,44.0,1020.0,1744252887.551799,0.0,2025-04-09 22:41:27.551,STOP,39
68.0,11603.215229894548,786.513183893345,-56996.21075346599,-53365.03575623462,-32705.966556783507,-29950.711721266714,522.5390818761686,-19884.827123263734,0.0,0.0,0.0,193.0,1.0,154.0,0.0,44.0,3.0,250.0,410.0,44.0,1018.0,1744252887.5518084,0.0,2025-04-09 22:41:27.551,STOP,39
69.0,11543.401961732145,754.1031544331497,-57027.72671314797,-53425.43016975286,-32733.99564433046,-29981.46772163722,447.07959259505185,-19921.528687659345,0.0,0.0,0.0,193.0,1.0,154.0,0.0,44.0,3.0,249.0,410.0,44.0,1017.0,1744252887.551817,0.0,2025-04-09 22:41:27.551,STOP,39
70.0,11626.30458191688,757.8805992460966,-57015.410901953095,-53350.350660127486,-32776.307496584355,-30023.399594235372,517.621698096001,-19955.548042720326,0.0,0.0,0.0,193.0,1.0,153.0,0.0,44.0,3.0,251.0,409.0,44.0,1019.0,1744252887.5518258,0.0,2025-04-09 22:41:27.551,STOP,39
71.0,11654.087800274827,759.802849269253,-57019.881250844155,-53428.648820954426,-32738.04131007687,-29975.812730290025,371.79891726957766,-19926.781347606346,0.0,0.0,0.0,193.0,1.0,154.0,0.0,44.0,3.0,252.0,410.0,44.0,1020.0,1744252887.5518343,0.0,2025-04-09 22:41:27.551,STOP,39
72.0,11603.170526405636,765.3460818941692,-57000.52464014586,-53369.148477214396,-32717.187132500072,-29960.099453937943,503.2718781556938,-19901.657986838578,0.0,0.0,0.0,193.0,1.0,155.0,0.0,44.0,3.0,252.0,411.0,44.0,1020.0,1744252887.5518434,0.0,2025-04-09 22:41:27.551,STOP,39
73.0,11540.540938441865,749.7669160088201,-57036.84622488573,-53433.07446635658,-32740.544705455868,-29984.75342807215,453.38278453144846,-19934.537402932336,0.0,0.0,0.0,193.0,1.0,154.0,0.0,44.0,3.0,252.0,410.0,44.0,1020.0,1744252887.5518525,0.0,2025-04-09 22:41:27.551,STOP,39
74.0,11600.06363392635,751.4880003318788,-57011.67816062906,-53352.51877933965,-32770.20547034806,-30025.90298961437,532.8208843256098,-19982.258377344417,0.0,0.0,0.0,193.0,1.0,154.0,0.0,44.0,3.0,249.0,410.0,44.0,1017.0,1744252887.5518613,0.0,2025-04-09 22:41:27.551,STOP,39
75.0,11670.650442916209,771.8280877862081,-57012.19225075153,-53410.745073645725,-32741.215257789525,-29971.61060233243,408.61224038746843,-19931.654027897603,0.0,0.0,0.0,193.0,1.0,153.0,0.0,44.0,3.0,248.0,409.0,44.0,1016.0,1744252887.55187,0.0,2025-04-09 22:41:27.551,STOP,39
76.0,11630.596116852299,782.8474978026745,-56975.22246542245,-53351.602357816984,-32694.65657408912,-29931.578628012972,518.6945818298557,-19870.901986468078,0.0,0.0,0.0,193.0,1.0,154.0,0.0,44.0,3.0,251.0,410.0,44.0,1019.0,1744252887.5518787,0.0,2025-04-09 22:41:27.551,STOP,39
77.0,11567.05010736586,769.5258581073116,-57018.540146176834,-53416.84709988202,-32720.361080212726,-29961.775834772092,496.0969681855403,-19904.295492684305,0.0,0.0,0.0,193.0,1.0,154.0,0.0,44.0,3.0,251.0,410.0,44.0,1019.0,1744252887.5518875,0.0,2025-04-09 22:41:27.551,STOP,39
78.0,11593.805145478862,758.4840963463898,-56998.44592791152,-53351.02121246114,-32752.033502105893,-29992.1295037424,539.1464280064616,-19922.400405693104,0.0,0.0,0.0,193.0,1.0,154.0,0.0,44.0,3.0,249.0,410.0,44.0,1017.0,1744252887.5518963,0.0,2025-04-09 22:41:27.551,STOP,39
79.0,11673.623224928764,770.6210935856216,-57010.314704217286,-53394.51770717117,-32750.178307316102,-29986.85449205095,463.1281451139623,-19927.720120873466,0.0,0.0,0.0,193.0,1.0,154.0,0.0,44.0,3.0,249.0,410.0,44.0,1017.0,1744252887.551905,0.0,2025-04-09 22:41:27.551,STOP,39
80.0,11633.926526776138,780.8805442906075,-56974.26134041087,-53362.24178817771,-32695.438885145057,-29937.63595076036,490.37492160498164,-19886.50350409788,0.0,0.0,0.0,193.0,1.0,153.0,0.0,44.0,3.0,250.0,409.0,44.0,1018.0,1744252887.551914,0.0,2025-04-09 22:41:27.551,STOP,39
81.0,11575.633177236698,777.2372099443925,-57013.19807925202,-53403.32429448656,-32718.5729406563,-29961.708779538727,517.6440498404563,-19904.943693273508,0.0,0.0,0.0,193.0,1.0,153.0,0.0,44.0,3.0,249.0,409.0,44.0,1017.0,1744252887.551928,0.0,2025-04-09 22:41:27.551,STOP,39
82.0,11567.944177144072,750.124543920105,-57013.71216937449,-53381.866619809465,-32754.603952718255,-30001.159608502345,522.6061371095344,-19942.405216980605,0.0,0.0,0.0,193.0,1.0,154.0,0.0,44.0,3.0,251.0,410.0,44.0,1019.0,1744252887.5519364,0.0,2025-04-09 22:41:27.551,STOP,39
83.0,11667.07416380336,769.9728929964177,-57021.132948533654,-53388.39332919042,-32771.703037226565,-30012.782515619103,495.4487675963363,-19956.084484587253,0.0,0.0,0.0,193.0,1.0,154.0,0.0,44.0,3.0,251.0,410.0,44.0,1019.0,1744252887.5519452,0.0,2025-04-09 22:41:27.551,STOP,39
84.0,11630.640820341208,767.4247941285126,-56991.919218530566,-53393.981265304246,-32715.04136503236,-29953.013950945613,445.80554316109937,-19900.786268804823,0.0,0.0,0.0,193.0,1.0,154.0,0.0,44.0,3.0,251.0,410.0,44.0,1019.0,1744252887.551954,0.0,2025-04-09 22:41:27.551,STOP,39
85.0,11591.167639633137,784.5909338701886,-57009.93472456154,-53392.57310540356,-32722.23862674697,-29965.01683771811,530.8986343024534,-19904.36254791767,0.0,0.0,0.0,193.0,1.0,154.0,0.0,44.0,3.0,252.0,410.0,44.0,1020.0,1744252887.5519629,0.0,2025-04-09 22:41:27.551,STOP,39
86.0,11551.314479269324,746.5706165517112,-57020.440044455536,-53403.190184019826,-32751.474708494512,-29992.196558975764,502.9366019888642,-19928.03304529584,0.0,0.0,0.0,193.0,1.0,154.0,0.0,44.0,3.0,250.0,410.0,44.0,1018.0,1744252887.551972,0.0,2025-04-09 22:41:27.551,STOP,39
87.0,11655.428904942144,765.9048755055518,-57014.44977694152,-53367.71796556926,-32777.24626985148,-30013.095440041478,533.5808436370902,-19946.875565871665,0.0,0.0,0.0,193.0,1.0,154.0,0.0,44.0,3.0,251.0,410.0,44.0,1019.0,1744252887.5519805,0.0,2025-04-09 22:41:27.551,STOP,39
88.0,11644.96828853706,772.029253486306,-56989.885209785134,-53404.08425379804,-32715.019013287907,-29949.929410210778,426.20306327379507,-19900.696861827,0.0,0.0,0.0,193.0,1.0,154.0,0.0,44.0,3.0,251.0,410.0,44.0,1019.0,1744252887.5519893,0.0,2025-04-09 22:41:27.551,STOP,39
89.0,11597.515535058445,781.126413479616,-57002.3574831912,-53383.14066924342,-32720.51754242391,-29973.532852355584,542.6780036304002,-19918.55590564679,0.0,0.0,0.0,193.0,1.0,155.0,0.0,44.0,3.0,252.0,411.0,44.0,1020.0,1744252887.551998,0.0,2025-04-09 22:41:27.551,STOP,39
90.0,11542.61965067621,749.4763433309012,-57024.709227646505,-53422.61384995149,-32749.708920682544,-29995.974003788713,486.2174971362945,-19939.253621012405,0.0,0.0,0.0,193.0,1.0,155.0,0.0,44.0,3.0,251.0,411.0,44.0,1019.0,1744252887.5520067,0.0,2025-04-09 22:41:27.552,STOP,39
91.0,11644.700067603597,769.1682301960267,-57009.84531758372,-53354.4410293628,-32782.610688520756,-30020.650329667373,551.1716665234169,-19956.17389156507,0.0,0.0,0.0,193.0,1.0,154.0,0.0,44.0,3.0,251.0,410.0,44.0,1019.0,1744252887.5520155,0.0,2025-04-09 22:41:27.552,STOP,39
92.0,11658.02170729896,775.3149599212361,-57001.79868957981,-53419.7081231723,-32732.52042919641,-29957.64076204786,400.49855715019197,-19911.291588698816,0.0,0.0,0.0,193.0,1.0,154.0,0.0,44.0,3.0,250.0,410.0,44.0,1018.0,1744252887.5520313,0.0,2025-04-09 22:41:27.552,STOP,39
93.0,11614.949895733584,789.0165792723393,-56990.95809351899,-53363.80641028958,-32713.923777809596,-29951.136404411365,549.361175222537,-19883.776591274334,0.0,0.0,0.0,193.0,1.0,155.0,0.0,44.0,3.0,251.0,411.0,44.0,1019.0,1744252887.5520399,0.0,2025-04-09 22:41:27.552,STOP,39
94.0,11563.540883486377,767.5812563396998,-57016.19321300903,-53418.367018504985,-32733.883885608186,-29974.225756433698,480.54015404464656,-19916.208972478984,0.0,0.0,0.0,193.0,1.0,155.0,0.0,44.0,3.0,252.0,411.0,44.0,1020.0,1744252887.5520487,0.0,2025-04-09 22:41:27.552,STOP,39
95.0,11642.911928047173,770.5540383522557,-56999.451756412,-53341.544072812096,-32770.3842843037,-30018.28104475511,559.7994398831654,-19955.726856675967,0.0,0.0,0.0,193.0,1.0,155.0,0.0,44.0,3.0,252.0,411.0,44.0,1020.0,1744252887.5520573,0.0,2025-04-09 22:41:27.552,STOP,39
96.0,11678.294739519923,777.5724861112221,-57005.129099503654,-53421.87624238447,-32733.123926296703,-29973.59990758895,412.9261270673427,-19926.42371969506,0.0,0.0,0.0,193.0,1.0,155.0,0.0,44.0,3.0,252.0,411.0,44.0,1020.0,1744252887.552071,0.0,2025-04-09 22:41:27.552,STOP,39
97.0,11631.49018663051,784.5238786368226,-56982.553837603795,-53362.152381199885,-32706.61475737271,-29954.757387013127,538.9676140508192,-19886.861132009166,0.0,0.0,0.0,193.0,1.0,155.0,0.0,44.0,3.0,250.0,411.0,44.0,1018.0,1744252887.55208,0.0,2025-04-09 22:41:27.552,STOP,39
98.0,11567.541845743877,771.8504395306635,-57022.116425289685,-53428.40295176541,-32733.3250919968,-29977.690276824273,485.4798895692694,-19913.124431744152,0.0,0.0,0.0,193.0,1.0,154.0,0.0,44.0,3.0,249.0,410.0,44.0,1017.0,1744252887.5520887,0.0,2025-04-09 22:41:27.552,STOP,39
99.0,11615.508689344966,767.6930150619763,-56997.48480289994,-53346.43910484781,-32759.454281265058,-30007.261634738643,556.4019747259587,-19937.934868089542,0.0,0.0,0.0,193.0,1.0,154.0,0.0,44.0,3.0,249.0,410.0,44.0,1017.0,1744252887.5520973,0.0,2025-04-09 22:41:27.552,STOP,39
100.0,11676.864227874783,779.7406053233868,-57011.29818097332,-53408.68871315583,-32744.366853757725,-29975.566861101015,439.3682407579709,-19919.18175449154,0.0,0.0,0.0,193.0,1.0,155.0,0.0,44.0,3.0,251.0,411.0,44.0,1019.0,1744252887.552106,0.0,2025-04-09 22:41:27.552,STOP,39
101.0,11631.043151741404,783.4733466474231,-56984.789012049325,-53364.36520390096,-32704.33487943827,-29948.20832588772,503.45069211133625,-19896.002995491388,0.0,0.0,0.0,193.0,1.0,154.0,0.0,44.0,3.0,251.0,410.0,44.0,1019.0,1744252887.5521147,0.0,2025-04-09 22:41:27.552,STOP,39
102.0,11571.632214979198,769.6376168295881,-57023.99397182393,-53419.7081231723,-32721.679833135586,-29969.889518009368,500.2320409097721,-19918.690016113524,0.0,0.0,0.0,193.0,1.0,154.0,0.0,44.0,3.0,249.0,410.0,44.0,1017.0,1744252887.5521238,0.0,2025-04-09 22:41:27.552,STOP,39
103.0,11581.846962195274,751.2644828873257,-57016.32732347576,-53372.300073182596,-32760.571868487823,-30003.774762603614,529.3340121905818,-19942.13699604714,0.0,0.0,0.0,193.0,1.0,154.0,0.0,44.0,3.0,250.0,410.0,44.0,1018.0,1744252887.5521326,0.0,2025-04-09 22:41:27.552,STOP,39
104.0,11672.706803406098,767.0001109838619,-57025.04450381333,-53406.78881487713,-32767.612667991245,-30002.165437002834,451.19231357482835,-19950.407141495605,0.0,0.0,0.0,193.0,1.0,154.0,0.0,44.0,3.0,250.0,410.0,44.0,1018.0,1744252887.5521412,0.0,2025-04-09 22:41:27.552,STOP,39
105.0,11640.028553012438,779.5841431121997,-56974.35074738869,-53372.009500504675,-32693.382524655168,-29936.74188098215,475.73452898675555,-19886.592911075702,0.0,0.0,0.0,193.0,1.0,155.0,0.0,44.0,3.0,252.0,411.0,44.0,1020.0,1744252887.55215,0.0,2025-04-09 22:41:27.552,STOP,39
106.0,11593.91690420114,790.2012217284706,-57001.083433757245,-53392.52840191465,-32704.17841722708,-29949.84000323296,535.8607215715315,-19889.342175643706,0.0,0.0,0.0,193.0,1.0,154.0,0.0,44.0,3.0,251.0,410.0,44.0,1019.0,1744252888.0205941,0.0,2025-04-09 22:41:28.020,STOP,39
107.0,11563.876159653206,751.9350352209849,-57018.49544268793,-53391.67903562535,-32756.056816107848,-30003.059506781043,509.5080148587245,-19941.868775113675,0.0,0.0,0.0,193.0,1.0,154.0,0.0,44.0,3.0,249.0,410.0,44.0,1017.0,1744252888.0206504,0.0,2025-04-09 22:41:28.020,STOP,39
108.0,11668.236454515036,769.8611342741411,-57023.32341949027,-53387.96864604577,-32776.0839791398,-30013.631881908404,496.1193199299956,-19951.435321740548,0.0,0.0,0.0,193.0,1.0,154.0,0.0,44.0,3.0,250.0,410.0,44.0,1018.0,1744252888.020686,0.0,2025-04-09 22:41:28.020,STOP,39
109.0,11649.393933939211,779.9194192790293,-56985.99600624991,-53391.455518180795,-32707.86645506221,-29939.40173857233,439.0776680800519,-19888.78338203232,0.0,0.0,0.0,193.0,1.0,154.0,0.0,44.0,3.0,250.0,410.0,44.0,1018.0,1744252888.0207212,0.0,2025-04-09 22:41:28.020,STOP,39
110.0,11593.313407100846,781.931076280007,-57014.360369963695,-53396.32819847205,-32726.686623893576,-29972.057637221533,522.2038057093389,-19917.348911446206,0.0,0.0,0.0,193.0,1.0,155.0,0.0,44.0,3.0,251.0,411.0,44.0,1019.0,1744252888.0207512,0.0,2025-04-09 22:41:28.020,STOP,39
111.0,11545.167749544114,736.221758868904,-57037.60618419721,-53426.07837034207,-32768.46203428054,-30014.861227853446,463.0387381361411,-19964.444037013538,0.0,0.0,0.0,193.0,1.0,155.0,0.0,44.0,3.0,250.0,411.0,44.0,1018.0,1744252888.0208025,0.0,2025-04-09 22:41:28.020,STOP,39
112.0,11649.326878705846,757.9029509905519,-57029.3583904932,-53378.89383779691,-32792.177235147625,-30031.490925728194,515.6770963283892,-19968.400295782125,0.0,0.0,0.0,193.0,1.0,154.0,0.0,44.0,3.0,252.0,410.0,44.0,1020.0,1744252888.02082,0.0,2025-04-09 22:41:28.020,STOP,39
113.0,11651.249128729001,774.6891110764875,-56994.08733774273,-53408.9569340893,-32713.320280709304,-29943.31329385201,416.3459439690047,-19893.097268712198,0.0,0.0,0.0,193.0,1.0,154.0,0.0,44.0,3.0,250.0,410.0,44.0,1018.0,1744252888.0208347,0.0,2025-04-09 22:41:28.020,STOP,39
114.0,11605.360997362257,787.1837362270041,-56996.456622654994,-53371.40600340438,-32711.196864986046,-29950.68936952226,547.1260007770063,-19878.568634816245,0.0,0.0,0.0,193.0,1.0,154.0,0.0,44.0,3.0,250.0,410.0,44.0,1018.0,1744252888.0208442,0.0,2025-04-09 22:41:28.020,STOP,39
115.0,11544.743066399464,749.0740119307056,-57025.603297424714,-53425.229004052766,-32741.885810123185,-29983.032343749088,483.8929157129426,-19915.605475378692,0.0,0.0,0.0,193.0,1.0,154.0,0.0,44.0,3.0,249.0,410.0,44.0,1017.0,1744252888.0208533,0.0,2025-04-09 22:41:28.020,STOP,39
116.0,11641.861396057773,761.1439539365714,-57008.30304721631,-53351.44589560579,-32774.832281450304,-30013.386012719395,556.424326470414,-19945.71327515999,0.0,0.0,0.0,193.0,1.0,154.0,0.0,44.0,3.0,249.0,410.0,44.0,1017.0,1744252888.020862,0.0,2025-04-09 22:41:28.020,STOP,39
117.0,11653.573710152354,763.0438522152725,-57008.973599549965,-53426.50305348672,-32735.76143214243,-29961.21704116071,388.8309465445217,-19921.193411492517,0.0,0.0,0.0,193.0,1.0,154.0,0.0,44.0,3.0,252.0,410.0,44.0,1020.0,1744252888.0208707,0.0,2025-04-09 22:41:28.020,STOP,39
118.0,11614.100529444282,779.7406053233868,-56991.67334934156,-53365.572198101545,-32716.069545277303,-29952.25399163413,525.0871807440735,-19900.205123448985,0.0,0.0,0.0,193.0,1.0,155.0,0.0,44.0,3.0,252.0,411.0,44.0,1020.0,1744252888.0208795,0.0,2025-04-09 22:41:28.020,STOP,39
119.0,11556.81300840533,754.125506177605,-57024.59746892422,-53429.118207587984,-32739.404766488646,-29979.858396036434,460.20006659031714,-19934.42564421006,0.0,0.0,0.0,193.0,1.0,154.0,0.0,44.0,3.0,251.0,410.0,44.0,1019.0,1744252888.0208883,0.0,2025-04-09 22:41:28.020,STOP,39
120.0,11620.895459758694,749.9680817089179,-57007.498384415914,-53349.12131418244,-32778.63207800771,-30014.41419296434,536.9559570498416,-19952.66466768559,0.0,0.0,0.0,193.0,1.0,154.0,0.0,44.0,3.0,252.0,410.0,44.0,1020.0,1744252888.0208972,0.0,2025-04-09 22:41:28.020,STOP,39
121.0,11666.78359112544,768.8553057736524,-57015.27679148636,-53424.938431374845,-32749.865382893728,-29971.252974421142,387.26632443265015,-19925.060263283285,0.0,0.0,0.0,193.0,1.0,154.0,0.0,44.0,3.0,249.0,410.0,44.0,1017.0,1744252888.020906,0.0,2025-04-09 22:41:28.020,STOP,39
122.0,11628.472701129043,786.7143495934426,-56981.41389863657,-53361.884160266425,-32705.36305968321,-29943.82738397448,510.04445672565186,-19892.13614370062,0.0,0.0,0.0,193.0,1.0,154.0,0.0,44.0,3.0,249.0,410.0,44.0,1017.0,1744252888.0209148,0.0,2025-04-09 22:41:28.020,STOP,39
123.0,11565.552540487355,769.0788232182055,-57017.04257929833,-53423.5079197297,-32727.513638438424,-29962.78166327258,471.5771045180684,-19913.45970791098,0.0,0.0,0.0,193.0,1.0,155.0,0.0,44.0,3.0,252.0,411.0,44.0,1020.0,1744252888.0209236,0.0,2025-04-09 22:41:28.020,STOP,39
124.0,11593.134593145203,748.2917008747698,-57011.14171876213,-53365.21457019026,-32775.34637157278,-30010.83791385149,521.3544394200372,-19947.61317343869,0.0,0.0,0.0,193.0,1.0,155.0,0.0,44.0,3.0,253.0,411.0,44.0,1021.0,1744252888.020932,0.0,2025-04-09 22:41:28.020,STOP,39
125.0,11669.01876557097,762.9544452374513,-57022.47405320097,-53425.43016975286,-32761.15301384366,-29993.537663643085,412.3449817115047,-19943.500452458913,0.0,0.0,0.0,193.0,1.0,155.0,0.0,44.0,3.0,253.0,411.0,44.0,1021.0,1744252888.0209408,0.0,2025-04-09 22:41:28.020,STOP,39
126.0,11627.958611006572,769.0341197292948,-56981.12332595865,-53378.17858197434,-32702.85966430422,-29947.02368343159,482.5965145345348,-19889.297472154794,0.0,0.0,0.0,193.0,1.0,155.0,0.0,44.0,3.0,252.0,411.0,44.0,1020.0,1744252888.020955,0.0,2025-04-09 22:41:28.020,STOP,39
127.0,11569.911130656139,766.7318900503982,-57017.73548337645,-53422.09975982902,-32721.702184880043,-29972.907003510834,492.9677239617973,-19921.84161208172,0.0,0.0,0.0,193.0,1.0,155.0,0.0,44.0,3.0,252.0,411.0,44.0,1020.0,1744252888.020964,0.0,2025-04-09 22:41:28.020,STOP,39
128.0,11571.274587067914,741.2509013713482,-57014.002742052406,-53385.018215777665,-32764.72929295651,-30011.26259699614,493.7053315288224,-19954.76573166439,0.0,0.0,0.0,193.0,1.0,155.0,0.0,44.0,3.0,252.0,411.0,44.0,1020.0,1744252888.0209725,0.0,2025-04-09 22:41:28.020,STOP,39
129.0,11664.526064935455,762.7756312818088,-57019.50127118841,-53404.240716009226,-32771.993609904486,-30002.008974791646,447.07959259505185,-19941.37703673566,0.0,0.0,0.0,193.0,1.0,155.0,0.0,44.0,3.0,252.0,411.0,44.0,1020.0,1744252888.0209813,0.0,2025-04-09 22:41:28.020,STOP,39
130.0,11628.338590662312,768.0953464621718,-56983.89494227111,-53389.555619902094,-32708.939338796063,-29944.49793630814,443.32449952656026,-19884.693012797,0.0,0.0,0.0,193.0,1.0,154.0,0.0,44.0,3.0,249.0,410.0,44.0,1017.0,1744252888.02099,0.0,2025-04-09 22:41:28.020,STOP,39
131.0,11580.505857527955,775.2032011989595,-57013.3545414632,-53407.63818116643,-32721.702184880043,-29963.183994672778,503.85302351153183,-19892.09144021171,0.0,0.0,0.0,193.0,1.0,154.0,0.0,44.0,3.0,249.0,410.0,44.0,1017.0,1744252888.0209987,0.0,2025-04-09 22:41:28.020,STOP,39
132.0,11555.069572337816,738.2334158698817,-57022.07172180078,-53407.392311977426,-32756.34738878577,-30005.69701262677,484.4517093243253,-19933.263353498383,0.0,0.0,0.0,193.0,1.0,154.0,0.0,44.0,3.0,251.0,410.0,44.0,1019.0,1744252888.0210073,0.0,2025-04-09 22:41:28.021,STOP,39
133.0,11661.173303267158,759.0875934466832,-57023.54693693483,-53392.774271103655,-32781.135473386705,-30028.920475115836,486.32925585857106,-19965.181644580563,0.0,0.0,0.0,193.0,1.0,154.0,0.0,44.0,3.0,252.0,410.0,44.0,1020.0,1744252888.021016,0.0,2025-04-09 22:41:28.021,STOP,39
134.0,11649.505692661489,774.3091314207472,-56980.78804979182,-53400.37386421846,-32704.536045138368,-29949.84000323296,419.18461551482864,-19900.473344382448,0.0,0.0,0.0,193.0,1.0,155.0,0.0,44.0,3.0,252.0,411.0,44.0,1020.0,1744252888.0210247,0.0,2025-04-09 22:41:28.021,STOP,39
135.0,11604.310465372857,787.5637158827443,-56994.020282509366,-53385.509954155685,-32709.788705085364,-29963.78749177307,527.232948211783,-19909.458745653483,0.0,0.0,0.0,193.0,1.0,155.0,0.0,44.0,3.0,252.0,411.0,44.0,1020.0,1744252888.0210335,0.0,2025-04-09 22:41:28.021,STOP,39
136.0,11556.14245607167,748.5152183193229,-57013.98039030795,-53414.63427718095,-32747.071414836817,-29992.688297353783,470.52657252866896,-19931.09523428622,0.0,0.0,0.0,193.0,1.0,154.0,0.0,44.0,3.0,250.0,410.0,44.0,1018.0,1744252888.0210423,0.0,2025-04-09 22:41:28.021,STOP,39
137.0,11664.704878891096,770.8222592857194,-57000.74815759041,-53355.60332007448,-32775.14520587268,-30008.04394579458,524.5507388771462,-19929.597667407714,0.0,0.0,0.0,193.0,1.0,154.0,0.0,45.0,3.0,249.0,410.0,45.0,1017.0,1744252888.021051,0.0,2025-04-09 22:41:28.021,STOP,39
138.0,11657.015878798471,772.1633639530378,-56988.09707022871,-53413.31552425808,-32717.85768483373,-29946.621352031394,392.6307431019239,-19885.36356513066,0.0,0.0,0.0,193.0,1.0,154.0,0.0,44.0,3.0,250.0,410.0,44.0,1018.0,1744252888.0210595,0.0,2025-04-09 22:41:28.021,STOP,39
139.0,11610.457195098066,781.1711169685266,-56996.322512188264,-53379.072651752555,-32718.08120227828,-29962.826366761492,520.0356864971741,-19896.494733869404,0.0,0.0,0.0,193.0,1.0,154.0,0.0,44.0,3.0,249.0,410.0,44.0,1017.0,1744252888.0210683,0.0,2025-04-09 22:41:28.021,STOP,39
140.0,11551.158017058136,751.2644828873257,-57025.42448346907,-53431.643954711435,-32743.986874101985,-29984.664021094326,453.785115931644,-19926.6025336507,0.0,0.0,0.0,193.0,1.0,154.0,0.0,44.0,3.0,249.0,410.0,44.0,1017.0,1744252888.021077,0.0,2025-04-09 22:41:28.021,STOP,39
141.0,11636.608736110777,762.5297620928004,-57007.20781173799,-53351.17767467233,-32776.799234962375,-30011.50846618515,535.0560587711404,-19944.10394955921,0.0,0.0,0.0,193.0,1.0,155.0,0.0,44.0,3.0,252.0,411.0,44.0,1020.0,1744252888.0210907,0.0,2025-04-09 22:41:28.021,STOP,39
142.0,11663.520236434966,769.4588028739456,-57003.22920122495,-53424.60315520802,-32730.933455340084,-29954.93620096877,378.05740571706366,-19912.543286388314,0.0,0.0,0.0,193.0,1.0,155.0,0.0,44.0,3.0,251.0,411.0,44.0,1019.0,1744252888.0210996,0.0,2025-04-09 22:41:28.021,STOP,39
143.0,11624.002352237983,785.0156170148393,-56980.20690443598,-53359.157247442876,-32705.720687594498,-29941.88278220687,515.073599228096,-19893.633710579124,0.0,0.0,0.0,193.0,1.0,155.0,0.0,44.0,3.0,252.0,411.0,44.0,1020.0,1744252888.0211084,0.0,2025-04-09 22:41:28.021,STOP,39
144.0,11555.203682804547,755.5783695672,-57025.402131724615,-53432.64978321193,-32740.81292638933,-29971.36473314342,447.1689995728731,-19921.260466725882,0.0,0.0,0.0,193.0,1.0,155.0,0.0,44.0,3.0,252.0,411.0,44.0,1020.0,1744252888.0211172,0.0,2025-04-09 22:41:28.021,STOP,39
145.0,11618.570878335344,753.9466922219625,-57004.19032623653,-53352.31761363955,-32773.06649363834,-30005.875826582414,531.5915383805678,-19940.12533904616,0.0,0.0,0.0,193.0,1.0,154.0,0.0,45.0,3.0,249.0,410.0,45.0,1017.0,1744252888.021126,0.0,2025-04-09 22:41:28.021,STOP,39
146.0,11682.250998288513,779.5394396232891,-57003.743291347426,-53413.51668995818,-32743.00339734595,-29958.06544519251,399.850356560988,-19909.592856120213,0.0,0.0,0.0,193.0,1.0,154.0,0.0,44.0,3.0,249.0,410.0,44.0,1017.0,1744252888.0211349,0.0,2025-04-09 22:41:28.021,STOP,39
147.0,11650.153893250692,804.5286899243224,-56957.96691870296,-53342.61695654595,-32690.655611831622,-29922.43676453075,511.4749683707915,-19871.12550391263,0.0,0.0,0.0,193.0,1.0,155.0,0.0,44.0,3.0,251.0,411.0,44.0,1019.0,1744252888.0211434,0.0,2025-04-09 22:41:28.021,STOP,39
148.0,11579.880008683207,781.5510966242667,-57008.59361989422,-53414.723684158766,-32726.060775048827,-29960.770006271603,477.72383424327785,-19911.716271843467,0.0,0.0,0.0,193.0,1.0,155.0,0.0,44.0,3.0,252.0,411.0,44.0,1020.0,1744252888.0211732,0.0,2025-04-09 22:41:28.021,STOP,39
149.0,11602.924657216628,753.0749741882056,-56999.07177675627,-53359.11254395396,-32768.23851683599,-30003.104210269954,509.73153230327756,-19943.500452458913,0.0,0.0,0.0,193.0,1.0,155.0,0.0,44.0,3.0,252.0,411.0,44.0,1020.0,1744252888.021182,0.0,2025-04-09 22:41:28.021,STOP,39
150.0,11690.83406815935,775.6278843436104,-57000.68110235705,-53400.15034677391,-32753.66517945113,-29984.17228271631,418.4917114367141,-19935.722045388466,0.0,0.0,0.0,193.0,1.0,155.0,0.0,44.0,3.0,252.0,411.0,44.0,1020.0,1744252888.021191,0.0,2025-04-09 22:41:28.021,STOP,39
151.0,11643.046038513905,783.6521606030656,-56961.856122238176,-53363.962872500764,-32700.42332415859,-29938.239447860655,458.72485145626683,-19885.721193041943,0.0,0.0,0.0,193.0,1.0,155.0,0.0,44.0,3.0,249.0,411.0,44.0,1017.0,1744252888.0211992,0.0,2025-04-09 22:41:28.021,STOP,39
152.0,11577.15309585966,769.9505412519624,-57005.17380299256,-53416.17654754836,-32727.33482448278,-29975.253936678644,468.7160812277891,-19922.69097837102,0.0,0.0,0.0,193.0,1.0,154.0,0.0,44.0,3.0,250.0,410.0,44.0,1018.0,1744252888.021208,0.0,2025-04-09 22:41:28.021,STOP,39
153.0,11569.821723678318,738.546340292256,-57002.04455876882,-53387.00752103419,-32759.744853942975,-30007.015765549633,484.8763924689761,-19942.382865236148,0.0,0.0,0.0,193.0,1.0,154.0,0.0,45.0,3.0,248.0,410.0,45.0,1016.0,1744252888.0212164,0.0,2025-04-09 22:41:28.021,STOP,39
154.0,11669.957538838094,765.4354888719904,-57005.93376230404,-53396.28349498314,-32769.82549069232,-30009.742678373183,454.03098512065236,-19958.94550787753,0.0,0.0,0.0,193.0,1.0,155.0,0.0,44.0,3.0,251.0,411.0,44.0,1019.0,1744252888.021225,0.0,2025-04-09 22:41:28.021,STOP,39
155.0,11639.693276845608,773.3480064091691,-56969.478067097436,-53386.828707078545,-32703.99960327144,-29940.40756707282,428.34883074150457,-19893.36548964566,0.0,0.0,0.0,193.0,1.0,155.0,0.0,44.0,3.0,252.0,411.0,44.0,1020.0,1744252888.0212336,0.0,2025-04-09 22:41:28.021,STOP,39
156.0,11589.625369265721,779.9864745123953,-56996.23310521044,-53398.451614195306,-32718.19296100056,-29959.808881260025,493.61592455100117,-19904.586065362226,0.0,0.0,0.0,193.0,1.0,155.0,0.0,44.0,3.0,250.0,411.0,44.0,1018.0,1744252888.0212474,0.0,2025-04-09 22:41:28.021,STOP,39
157.0,11559.606976462243,747.509389818834,-57001.68693085753,-53399.18922176233,-32750.96061837204,-29989.246128707666,458.5683892450797,-19933.151594776107,0.0,0.0,0.0,193.0,1.0,154.0,0.0,45.0,3.0,250.0,410.0,45.0,1018.0,1744252888.021256,0.0,2025-04-09 22:41:28.021,STOP,39
158.0,11665.442486458121,762.9544452374513,-56999.92114304557,-53372.25536969368,-32770.5854500038,-30008.759201617147,496.4769478412805,-19943.61221118119,0.0,0.0,0.0,193.0,1.0,154.0,0.0,45.0,3.0,250.0,410.0,45.0,1018.0,1744252888.021265,0.0,2025-04-09 22:41:28.021,STOP,39
159.0,11656.792361353919,777.5948378556774,-56965.85708449568,-53394.76357636018,-32696.93645202356,-29934.171430369788,412.74731311170024,-19889.520989599347,0.0,0.0,0.0,193.0,1.0,154.0,0.0,44.0,3.0,249.0,410.0,44.0,1017.0,1744252888.0212736,0.0,2025-04-09 22:41:28.021,STOP,39
160.0,11618.839099268807,802.1594050120599,-56972.629663065636,-53367.49444812471,-32695.774161311885,-29937.703005993728,527.7470383342551,-19885.87765525313,0.0,0.0,0.0,193.0,1.0,154.0,0.0,44.0,3.0,251.0,410.0,44.0,1019.0,1744252888.0212822,0.0,2025-04-09 22:41:28.021,STOP,39
161.0,11563.183255575092,763.1779626820044,-57000.27877095685,-53410.07452131206,-32734.062699563827,-29972.057637221533,462.3681858024819,-19922.020426037365,0.0,0.0,0.0,193.0,1.0,155.0,0.0,44.0,3.0,252.0,411.0,44.0,1020.0,1744252888.0212908,0.0,2025-04-09 22:41:28.021,STOP,39
162.0,11662.514407934477,773.6832825759986,-56991.67334934156,-53352.27291015064,-32773.15590061616,-30005.026460293113,523.0978754875512,-19938.89599310112,0.0,0.0,0.0,193.0,1.0,155.0,0.0,44.0,3.0,251.0,411.0,44.0,1019.0,1744252888.0212994,0.0,2025-04-09 22:41:28.021,STOP,39
163.0,11670.426925471655,784.8368030591969,-56973.07669795474,-53406.72175964377,-32709.05109751834,-29931.9139041798,396.8775745484322,-19875.41703884805,0.0,0.0,0.0,193.0,1.0,155.0,0.0,44.0,3.0,252.0,411.0,44.0,1020.0,1744252888.021308,0.0,2025-04-09 22:41:28.021,STOP,39
164.0,11618.526174846433,795.4091781865571,-56976.60827357868,-53366.33215741303,-32706.19007422806,-29945.12378515289,537.9617855503304,-19885.07299245274,0.0,0.0,0.0,193.0,1.0,155.0,0.0,44.0,3.0,251.0,411.0,44.0,1019.0,1744252888.0213168,0.0,2025-04-09 22:41:28.021,STOP,39
165.0,11562.445648008066,766.6201313281216,-57008.481861171946,-53428.13473083195,-32735.292045508868,-29973.84577677796,457.71902295577803,-19923.540344660323,0.0,0.0,0.0,193.0,1.0,154.0,0.0,44.0,3.0,252.0,410.0,44.0,1020.0,1744252888.0213253,0.0,2025-04-09 22:41:28.021,STOP,39
166.0,11641.816692568862,771.8280877862081,-56990.734576074436,-53345.76855251414,-32774.005266905464,-30004.802942848557,543.2144454973276,-19934.8056238658,0.0,0.0,0.0,193.0,1.0,154.0,0.0,44.0,3.0,252.0,410.0,44.0,1020.0,1744252888.021334,0.0,2025-04-09 22:41:28.021,STOP,39
167.0,11670.561035938386,777.3266169222137,-56995.09316624322,-53422.61384995149,-32739.136545555182,-29956.79139575856,391.5131558791585,-19902.686167083524,0.0,0.0,0.0,193.0,1.0,154.0,0.0,44.0,3.0,249.0,410.0,44.0,1017.0,1744252888.0213425,0.0,2025-04-09 22:41:28.021,STOP,39
168.0,11627.936259262116,789.7318350949091,-56973.32256714375,-53362.13002945543,-32711.778010341885,-29945.526116553083,523.522558632202,-19884.64830930809,0.0,0.0,0.0,193.0,1.0,154.0,0.0,44.0,3.0,250.0,410.0,44.0,1018.0,1744252888.021351,0.0,2025-04-09 22:41:28.021,STOP,39
169.0,11567.541845743877,769.3693958961244,-57010.82879433976,-53428.62646920997,-32736.074356564804,-29966.73792204117,474.63929350844546,-19911.157478232086,0.0,0.0,0.0,193.0,1.0,154.0,0.0,44.0,3.0,251.0,410.0,44.0,1019.0,1744252888.02136,0.0,2025-04-09 22:41:28.021,STOP,39
170.0,11617.945029490595,761.5015818478563,-56993.64030285362,-53355.35745088547,-32770.74191221499,-30013.050736552566,546.1872275098834,-19948.261374027894,0.0,0.0,0.0,193.0,1.0,155.0,0.0,45.0,3.0,251.0,411.0,45.0,1019.0,1744252888.0213685,0.0,2025-04-09 22:41:28.021,STOP,39
171.0,11675.970158096572,773.415061642535,-57008.14658500512,-53425.966611619784,-32751.541763727877,-29989.357887429942,418.93874632582026,-19941.488795457935,0.0,0.0,0.0,193.0,1.0,155.0,0.0,44.0,3.0,251.0,411.0,44.0,1019.0,1744252888.021382,0.0,2025-04-09 22:41:28.021,STOP,39
172.0,11639.961497779072,791.832899073708,-56964.67244203955,-53362.35354689998,-32695.595347356244,-29939.692311250248,517.8899190294646,-19882.83781800721,0.0,0.0,0.0,193.0,1.0,154.0,0.0,44.0,3.0,250.0,410.0,44.0,1018.0,1744252888.021391,0.0,2025-04-09 22:41:28.021,STOP,39
173.0,11573.688575469087,778.2430384448813,-57007.923067560565,-53421.63037319546,-32717.835333089275,-29958.601887059438,508.41277938041446,-19890.41505937756,0.0,0.0,0.0,193.0,1.0,154.0,0.0,44.0,3.0,249.0,410.0,44.0,1017.0,1744252888.0213995,0.0,2025-04-09 22:41:28.021,STOP,39
174.0,11588.552485531865,753.4326020994905,-57003.25155296941,-53375.56342787307,-32760.884792910198,-30006.36756496043,534.29609945966,-19936.10202504421,0.0,0.0,0.0,193.0,1.0,154.0,0.0,45.0,3.0,249.0,410.0,45.0,1017.0,1744252888.021408,0.0,2025-04-09 22:41:28.021,STOP,39
175.0,11677.870056375272,771.7610325528423,-57012.57223040727,-53418.67994292736,-32762.11413885524,-29998.99148929018,450.47705775225853,-19950.6083071957,0.0,0.0,0.0,193.0,1.0,154.0,0.0,44.0,3.0,249.0,410.0,44.0,1017.0,1744252888.021417,0.0,2025-04-09 22:41:28.021,STOP,39
176.0,11654.601890397298,793.6880938634985,-56952.84836922269,-53369.88608478142,-32684.531233850867,-29924.448421531728,489.6373140379565,-19879.93209122802,0.0,0.0,0.0,193.0,1.0,154.0,0.0,44.0,3.0,249.0,410.0,44.0,1017.0,1744252888.0214255,0.0,2025-04-09 22:41:28.021,STOP,39
177.0,11610.568953820342,799.5666026552442,-56974.641320066614,-53392.88602982593,-32691.437922887555,-29936.54071528205,540.8004570961543,-19879.954442972477,0.0,0.0,0.0,193.0,1.0,154.0,0.0,44.0,3.0,250.0,410.0,44.0,1018.0,1744252888.021434,0.0,2025-04-09 22:41:28.021,STOP,39
178.0,11583.992729662983,758.4840963463898,-56988.81232605128,-53384.83940182202,-32741.885810123185,-29988.240300207177,525.0424772551629,-19922.981551048942,0.0,0.0,0.0,193.0,1.0,154.0,0.0,44.0,3.0,252.0,410.0,44.0,1020.0,1744252888.021443,0.0,2025-04-09 22:41:28.021,STOP,39
179.0,11687.257789046502,779.4500326454679,-56995.38373892114,-53387.4992594122,-32764.170499345128,-30001.830160836,492.0960059280403,-19948.440187983535,0.0,0.0,0.0,193.0,1.0,154.0,0.0,45.0,3.0,250.0,410.0,45.0,1018.0,1744252888.0214515,0.0,2025-04-09 22:41:28.021,STOP,39
180.0,11658.02170729896,784.7473960813757,-56963.4430960945,-53389.8014890911,-32698.61283285771,-29938.30650309402,447.3254617840602,-19897.567617603258,0.0,0.0,0.0,193.0,1.0,154.0,0.0,44.0,3.0,250.0,410.0,44.0,1018.0,1744252888.02146,0.0,2025-04-09 22:41:28.021,STOP,39
