Sample Index,EXG Channel 0,EXG Channel 1,EXG Channel 2,EXG Channel 3,EXG Channel 4,EXG Channel 5,EXG Channel 6,EXG Channel 7,Accel Channel 0,Accel Channel 1,Accel Channel 2,Not Used,Digital Channel 0 (D11),Digital Channel 1 (D12),Digital Channel 2 (D13),Digital Channel 3 (D17),Not Used,Digital Channel 4 (D18),Analog Channel 0,Analog Channel 1,Analog Channel 2,Timestamp,Marker Channel,Timestamp (Formatted),Stimulus_Direction,Stimulus_Number
100.0,13571.73336407344,1912.7058282739913,-61171.7401351619,-58373.9275782022,-35015.4158491392,-32398.764180989765,-20038.96475302753,-21677.548787301635,0.0,0.0,0.0,193.0,1.0,154.0,0.0,10.0,3.0,250.0,410.0,10.0,1018.0,1744252757.8666372,0.0,2025-04-09 22:39:17.866,STOP,23
101.0,13531.276706609335,1875.9372086450112,-61186.67110045804,-58384.07527018491,-35052.87737284629,-32433.074108728662,-20104.097736370295,-21714.563276119625,0.0,0.0,0.0,193.0,1.0,155.0,0.0,9.0,3.0,252.0,411.0,9.0,1020.0,1744252757.8666463,0.0,2025-04-09 22:39:17.866,STOP,23
102.0,13651.462036545521,1896.165537377064,-61189.80034468178,-58358.79544720596,-35082.09110284938,-32465.439434699947,-19941.354684991205,-21748.225003269315,0.0,0.0,0.0,193.0,1.0,155.0,0.0,8.0,3.0,252.0,411.0,8.0,1020.0,1744252757.866655,0.0,2025-04-09 22:39:17.866,STOP,23
103.0,13652.981955168481,1918.293764387818,-61138.86071906814,-58365.18804612018,-34994.49461632903,-32364.74482592879,-20321.26728549806,-21656.694609724833,0.0,0.0,0.0,193.0,1.0,154.0,0.0,8.0,3.0,249.0,410.0,8.0,1017.0,1744252757.866664,0.0,2025-04-09 22:39:17.866,STOP,23
104.0,13583.468029912476,1908.458996827483,-61165.34753624768,-58356.24734833805,-35014.052392727426,-32388.482378540324,-20025.464299376526,-21669.23393836426,0.0,0.0,0.0,193.0,1.0,155.0,0.0,7.0,3.0,251.0,411.0,7.0,1019.0,1744252757.8666725,0.0,2025-04-09 22:39:17.866,STOP,23
105.0,13506.443918519488,1857.8993508695783,-61207.32411233475,-58414.51834613304,-35061.05811131693,-32432.917646517475,-20136.93244897514,-21716.709043587332,0.0,0.0,0.0,193.0,1.0,155.0,0.0,7.0,3.0,251.0,411.0,7.0,1019.0,1744252757.866681,0.0,2025-04-09 22:39:17.866,STOP,23
106.0,13628.17151882309,1883.9838366489216,-61193.466030772455,-58349.94415640166,-35091.70235296516,-32460.477347430868,-19916.454841667994,-21735.81978509662,0.0,0.0,0.0,193.0,1.0,155.0,0.0,7.0,3.0,252.0,411.0,7.0,1020.0,1744252757.86669,0.0,2025-04-09 22:39:17.866,STOP,23
107.0,13665.253062874444,1919.9924969664214,-61150.64008839609,-58383.47177308462,-35006.22928216807,-32371.718570198846,-20327.01168382307,-21666.439970307347,0.0,0.0,0.0,193.0,1.0,154.0,0.0,6.0,3.0,250.0,410.0,6.0,1018.0,1744252757.8666987,0.0,2025-04-09 22:39:17.866,STOP,23
108.0,13593.839239339739,1909.2413078834186,-61159.5360826893,-58349.31830755691,-35013.046564226934,-32390.51638728576,-20052.621668889722,-21675.112447156007,0.0,0.0,0.0,193.0,1.0,155.0,0.0,6.0,3.0,252.0,411.0,6.0,1020.0,1744252757.866707,0.0,2025-04-09 22:39:17.866,STOP,23
109.0,13515.96576165745,1872.3832812766173,-61201.93734192102,-58418.9886950241,-35049.92694257819,-32425.27334991376,-20153.852719527807,-21722.58755237908,0.0,0.0,0.0,193.0,1.0,154.0,0.0,6.0,3.0,249.0,410.0,6.0,1017.0,1744252757.866716,0.0,2025-04-09 22:39:17.866,STOP,23
110.0,13614.3134372608,1886.3531215611843,-61182.02193761134,-58334.677914938686,-35083.812187172436,-32459.739739863842,-19931.56462091978,-21745.45338695686,0.0,0.0,0.0,193.0,1.0,155.0,0.0,5.0,3.0,252.0,411.0,5.0,1020.0,1744252757.8667245,0.0,2025-04-09 22:39:17.866,STOP,23
111.0,13671.220978644013,1911.4317788400388,-61163.67115541353,-58389.41733710973,-35022.21077945361,-32391.611622764067,-20275.96029948715,-21687.204740906327,0.0,0.0,0.0,193.0,1.0,154.0,0.0,5.0,3.0,250.0,410.0,5.0,1018.0,1744252757.8667333,0.0,2025-04-09 22:39:17.866,STOP,23
112.0,13612.949980849025,1918.360819621184,-61137.98900103438,-58330.744007914545,-34991.29831687192,-32371.584459732112,-20093.525361242933,-21650.23495557725,0.0,0.0,0.0,193.0,1.0,154.0,0.0,5.0,3.0,250.0,410.0,5.0,1018.0,1744252757.8667464,0.0,2025-04-09 22:39:17.866,STOP,23
113.0,13539.39038984661,1894.4668047984608,-61178.4903619874,-58400.01206398154,-35020.15441896372,-32396.21608212186,-20104.477716026035,-21676.38649658996,0.0,0.0,0.0,193.0,1.0,154.0,0.0,5.0,3.0,252.0,410.0,5.0,1020.0,1744252757.8667552,0.0,2025-04-09 22:39:17.866,STOP,23
114.0,13590.330015460255,1884.587333749215,-61175.495228230386,-58338.07538009589,-35071.09404457737,-32450.910800804,-19947.434359483046,-21732.757596106243,0.0,0.0,0.0,193.0,1.0,155.0,0.0,5.0,3.0,252.0,411.0,5.0,1020.0,1744252757.8667638,0.0,2025-04-09 22:39:17.866,STOP,23
115.0,13673.143228667168,1911.5435375623154,-61177.48453348691,-58394.22296216762,-35046.46242218762,-32416.712631787377,-20185.43573444316,-21711.277569684695,0.0,0.0,0.0,193.0,1.0,154.0,0.0,4.0,3.0,250.0,410.0,4.0,1018.0,1744252757.866773,0.0,2025-04-09 22:39:17.866,STOP,23
116.0,13622.963562365005,1912.2811451293405,-61137.117283000625,-58338.47771149608,-34996.01453495199,-32374.758407444766,-20182.865283830797,-21667.57990927457,0.0,0.0,0.0,193.0,1.0,155.0,0.0,4.0,3.0,250.0,411.0,4.0,1018.0,1744252757.8667817,0.0,2025-04-09 22:39:17.866,STOP,23
117.0,13549.87335799615,1894.4444530540054,-61182.17839982252,-58398.53684884749,-35024.043622498946,-32403.323936858647,-20092.07249785334,-21698.96175848982,0.0,0.0,0.0,193.0,1.0,154.0,0.0,4.0,3.0,249.0,410.0,4.0,1017.0,1744252757.8667903,0.0,2025-04-09 22:39:17.866,STOP,23
118.0,13561.07158196826,1870.0139963643549,-61183.69831844549,-58353.78865644797,-35073.888012634285,-32444.27233270077,-20016.344787638758,-21733.450500184357,0.0,0.0,0.0,193.0,1.0,154.0,0.0,4.0,3.0,252.0,410.0,4.0,1020.0,1744252757.866799,0.0,2025-04-09 22:39:17.866,STOP,23
119.0,13677.345356624766,1904.7709589923572,-61184.100649845685,-58378.73320326009,-35071.786948655485,-32434.07993722915,-20097.5933787338,-21732.645837383967,0.0,0.0,0.0,193.0,1.0,154.0,0.0,4.0,3.0,252.0,410.0,4.0,1020.0,1744252757.8668077,0.0,2025-04-09 22:39:17.866,STOP,23
120.0,13638.542728250353,1920.2830696443405,-61131.61875386462,-58342.009287120025,-34998.40617160871,-32370.77979693172,-20265.67849703771,-21672.47494131028,0.0,0.0,0.0,193.0,1.0,155.0,0.0,4.0,3.0,252.0,411.0,4.0,1020.0,1744252757.8668163,0.0,2025-04-09 22:39:17.866,STOP,23
121.0,13568.045326238314,1910.8059299952902,-61169.706126416466,-58380.878970727805,-35021.3167096754,-32403.636861281022,-20074.951061600575,-21703.00742423623,0.0,0.0,0.0,193.0,1.0,154.0,0.0,4.0,3.0,251.0,410.0,4.0,1019.0,1744252757.866825,0.0,2025-04-09 22:39:17.866,STOP,23
122.0,13538.742189257408,1872.2268190654302,-61184.14535333459,-58377.19093289268,-35066.13195730829,-32451.5590013932,-20094.464134510057,-21748.40381722496,0.0,0.0,0.0,193.0,1.0,155.0,0.0,4.0,3.0,251.0,411.0,4.0,1019.0,1744252757.8668337,0.0,2025-04-09 22:39:17.866,STOP,23
123.0,13668.829341987293,1901.3511420906952,-61182.67013820054,-58369.189008377674,-35081.308791793446,-32461.505527675814,-20015.8754010052,-21758.506805718756,0.0,0.0,0.0,193.0,1.0,154.0,0.0,4.0,3.0,249.0,410.0,4.0,1017.0,1744252757.8668425,0.0,2025-04-09 22:39:17.866,STOP,23
124.0,13637.335734049766,1903.8992409586003,-61142.794626092276,-58373.189970635176,-35009.425581625175,-32388.057695395673,-20324.798861121995,-21692.278586897683,0.0,0.0,0.0,193.0,1.0,155.0,0.0,4.0,3.0,252.0,411.0,4.0,1020.0,1744252757.866851,0.0,2025-04-09 22:39:17.866,STOP,23
125.0,13576.918968787071,1904.6144967811701,-61166.129847303615,-58374.95575844715,-35023.55188412093,-32407.235492138327,-20055.6838578801,-21700.749898046244,0.0,0.0,0.0,193.0,1.0,154.0,0.0,4.0,3.0,249.0,410.0,4.0,1017.0,1744252757.8668597,0.0,2025-04-09 22:39:17.866,STOP,23
126.0,13522.760691971862,1858.74871715888,-61191.230856326925,-58399.14034594779,-35066.266067775025,-32448.22859146936,-20141.089873443827,-21745.11811079003,0.0,0.0,0.0,193.0,1.0,155.0,0.0,3.0,3.0,251.0,411.0,3.0,1019.0,1744252757.8671167,0.0,2025-04-09 22:39:17.867,STOP,23
127.0,13638.721542205996,1879.5358395023156,-61194.20363833948,-58363.62342400831,-35104.68871649369,-32478.7163709064,-19955.883318887154,-21766.732247678312,0.0,0.0,0.0,193.0,1.0,154.0,0.0,3.0,3.0,249.0,410.0,3.0,1017.0,1744252757.86714,0.0,2025-04-09 22:39:17.867,STOP,23
128.0,13640.93436490707,1909.5318805613376,-61145.11920751563,-58378.643796282275,-35010.09613395883,-32378.26763132425,-20355.30899230349,-21679.7169065138,0.0,0.0,0.0,193.0,1.0,155.0,0.0,3.0,3.0,252.0,411.0,3.0,1020.0,1744252757.867149,0.0,2025-04-09 22:39:17.867,STOP,23
129.0,13580.58465487774,1911.9682207069661,-61158.57495767772,-58355.80031344895,-35016.2652154285,-32396.5960617776,-20052.956945056554,-21687.428258350883,0.0,0.0,0.0,193.0,1.0,154.0,0.0,3.0,3.0,249.0,410.0,3.0,1017.0,1744252757.867158,0.0,2025-04-09 22:39:17.867,STOP,23
130.0,13524.839404206206,1878.0606243682653,-61182.51367598936,-58400.995540737575,-35042.19323899665,-32422.099402201107,-20154.14329220573,-21714.719738330812,0.0,0.0,0.0,193.0,1.0,155.0,0.0,3.0,3.0,252.0,411.0,3.0,1020.0,1744252757.8671668,0.0,2025-04-09 22:39:17.867,STOP,23
131.0,13620.728387919473,1879.7370052024135,-61189.48742025941,-58347.172540089196,-35097.42439954572,-32469.730969635366,-19916.901876557098,-21746.34745673507,0.0,0.0,0.0,193.0,1.0,154.0,0.0,3.0,3.0,250.0,410.0,3.0,1018.0,1744252757.867179,0.0,2025-04-09 22:39:17.867,STOP,23
132.0,13651.953774923537,1898.847746711701,-61165.235777525406,-58399.65443607026,-35025.563541121905,-32386.627183750534,-20338.522832217557,-21688.00940370672,0.0,0.0,0.0,193.0,1.0,155.0,0.0,3.0,3.0,253.0,411.0,3.0,1021.0,1744252757.8671875,0.0,2025-04-09 22:39:17.867,STOP,23
133.0,13589.21242823749,1896.0984821436982,-61162.15123679057,-58356.29205182697,-35019.46151488561,-32393.60092802059,-20089.434992007613,-21689.506970585226,0.0,0.0,0.0,193.0,1.0,155.0,0.0,3.0,3.0,250.0,411.0,3.0,1018.0,1744252757.8671966,0.0,2025-04-09 22:39:17.867,STOP,23
134.0,13504.074633607226,1864.291949783796,-61208.01701641286,-58433.33851496441,-35057.57123918191,-32433.8564197846,-20162.771065565477,-21733.070520528618,0.0,0.0,0.0,193.0,1.0,155.0,0.0,3.0,3.0,250.0,411.0,3.0,1018.0,1744252757.8672051,0.0,2025-04-09 22:39:17.867,STOP,23
135.0,13584.004471779404,1868.494077741394,-61193.26486507236,-58357.16376986072,-35096.17270185622,-32472.994324325842,-19946.227365282462,-21750.63899167049,0.0,0.0,0.0,193.0,1.0,154.0,0.0,3.0,3.0,248.0,410.0,3.0,1016.0,1744252757.867215,0.0,2025-04-09 22:39:17.867,STOP,23
136.0,13657.251138359445,1900.8147002237679,-61174.82467589673,-58409.89153503079,-35040.94154130716,-32409.068335183663,-20271.624061062823,-21699.00646197873,0.0,0.0,0.0,193.0,1.0,154.0,0.0,3.0,3.0,252.0,410.0,3.0,1020.0,1744252757.8672235,0.0,2025-04-09 22:39:17.867,STOP,23
137.0,13597.035538796848,1895.7855577213238,-61153.45640819745,-58356.85084543835,-35016.82400903988,-32393.690334998413,-20149.002390981008,-21684.746049016245,0.0,0.0,0.0,193.0,1.0,154.0,0.0,3.0,3.0,250.0,410.0,3.0,1018.0,1744252757.867232,0.0,2025-04-09 22:39:17.867,STOP,23
138.0,13526.672247251541,1876.808926678768,-61194.091879617205,-58424.37546543783,-35040.56156165142,-32419.059564955183,-20141.4027978662,-21719.994750022262,0.0,0.0,0.0,193.0,1.0,155.0,0.0,3.0,3.0,252.0,411.0,3.0,1020.0,1744252757.867241,0.0,2025-04-09 22:39:17.867,STOP,23
139.0,13566.011317492881,1862.1014788271762,-61191.45437377148,-58365.299804842456,-35088.12607385231,-32467.18287076746,-20000.944435709054,-21760.764331908744,0.0,0.0,0.0,193.0,1.0,154.0,0.0,3.0,3.0,249.0,410.0,3.0,1017.0,1744252757.8672495,0.0,2025-04-09 22:39:17.867,STOP,23
140.0,13658.525187793397,1892.812775708768,-61186.134658591116,-58406.181145451206,-35061.70631190614,-32430.235437182837,-20193.839990358352,-21735.708026374345,0.0,0.0,0.0,193.0,1.0,155.0,0.0,3.0,3.0,252.0,411.0,3.0,1020.0,1744252757.8672583,0.0,2025-04-09 22:39:17.867,STOP,23
141.0,13610.021902325381,1902.6698950135583,-61131.931678286994,-58343.953888887634,-34991.030095938455,-32366.46591025185,-20220.259752304526,-21660.472054537782,0.0,0.0,0.0,193.0,1.0,154.0,0.0,3.0,3.0,249.0,410.0,3.0,1017.0,1744252757.867267,0.0,2025-04-09 22:39:17.867,STOP,23
142.0,13534.070674666247,1878.9546941464776,-61182.290158544805,-58406.76229080705,-35024.55771262142,-32398.65242226749,-20096.632253722222,-21681.974432703788,0.0,0.0,0.0,193.0,1.0,155.0,0.0,3.0,3.0,252.0,411.0,3.0,1020.0,1744252757.8672805,0.0,2025-04-09 22:39:17.867,STOP,23
143.0,13533.645991521596,1853.8313333787125,-61187.83339116972,-58374.575778791404,-35072.0775213334,-32447.5580391357,-20048.86657582123,-21729.00250303775,0.0,0.0,0.0,193.0,1.0,154.0,0.0,3.0,3.0,252.0,410.0,3.0,1020.0,1744252757.8672893,0.0,2025-04-09 22:39:17.867,STOP,23
144.0,13645.717638220507,1874.841973166701,-61193.51073426136,-58398.69331105868,-35075.56439346843,-32447.98272228035,-20080.226073292026,-21737.20559325285,0.0,0.0,0.0,193.0,1.0,154.0,0.0,3.0,3.0,250.0,410.0,3.0,1018.0,1744252757.8672981,0.0,2025-04-09 22:39:17.867,STOP,23
145.0,13613.866402371694,1887.6942262285027,-61135.57501263321,-58363.84694145286,-34992.41590409469,-32372.277363810226,-20289.952491516175,-21668.921013941886,0.0,0.0,0.0,193.0,1.0,154.0,0.0,3.0,3.0,252.0,410.0,3.0,1020.0,1744252757.8673067,0.0,2025-04-09 22:39:17.867,STOP,23
146.0,13546.230023649934,1882.1286418591312,-61176.277539286326,-58396.547543590976,-35017.89689277374,-32404.486227570324,-20069.363125486747,-21696.34660438855,0.0,0.0,0.0,193.0,1.0,154.0,0.0,3.0,3.0,251.0,410.0,3.0,1019.0,1744252758.3457325,0.0,2025-04-09 22:39:18.345,STOP,23
147.0,13502.599418473175,1834.2288534914082,-61205.08893788922,-58409.44450014168,-35073.597439956364,-32459.248001485827,-20114.379538819736,-21748.068541058128,0.0,0.0,0.0,193.0,1.0,154.0,0.0,3.0,3.0,251.0,410.0,3.0,1019.0,1744252758.3457723,0.0,2025-04-09 22:39:18.345,STOP,23
148.0,13632.731274691972,1865.7224614289357,-61204.82071695575,-58390.46786909913,-35092.0823326209,-32474.402484226524,-20014.37783412669,-21766.799302911677,0.0,0.0,0.0,193.0,1.0,154.0,0.0,3.0,3.0,252.0,410.0,3.0,1020.0,1744252758.3457923,0.0,2025-04-09 22:39:18.345,STOP,23
149.0,13616.54861170633,1883.9838366489216,-61154.75280937587,-58389.77496502102,-35005.98341297906,-32389.823483207645,-20357.23124232665,-21701.822781780098,0.0,0.0,0.0,193.0,1.0,154.0,0.0,3.0,3.0,250.0,410.0,3.0,1018.0,1744252758.345812,0.0,2025-04-09 22:39:18.345,STOP,23
150.0,13555.841273765716,1889.3482553181955,-61183.07246960074,-58392.27836040001,-35027.73166033407,-32420.110096944583,-20082.863579137753,-21723.86160181303,0.0,0.0,0.0,193.0,1.0,155.0,0.0,3.0,3.0,252.0,411.0,3.0,1020.0,1744252758.3458328,0.0,2025-04-09 22:39:18.345,STOP,23
151.0,13509.05907262076,1852.9372636005003,-61196.14824010709,-58409.2880379305,-35055.20195426964,-32434.437565140437,-20168.850740057318,-21723.034587268186,0.0,0.0,0.0,193.0,1.0,154.0,0.0,3.0,3.0,249.0,410.0,3.0,1017.0,1744252758.345853,0.0,2025-04-09 22:39:18.345,STOP,23
152.0,13624.014094354403,1866.0577375957655,-61193.51073426136,-58360.91886292921,-35089.44482677517,-32469.663914402,-19952.7093711745,-21746.995657324274,0.0,0.0,0.0,193.0,1.0,155.0,0.0,3.0,3.0,252.0,411.0,3.0,1020.0,1744252758.3458705,0.0,2025-04-09 22:39:18.345,STOP,23
153.0,13644.242423086456,1897.32782808874,-61142.079370269705,-58379.44845908266,-34994.606375051306,-32371.98679113231,-20354.034942869537,-21668.25046160823,0.0,0.0,0.0,193.0,1.0,154.0,0.0,3.0,3.0,249.0,410.0,3.0,1017.0,1744252758.3458884,0.0,2025-04-09 22:39:18.345,STOP,23
154.0,13585.59144563573,1904.7039037589914,-61147.86847208363,-58345.0714761104,-34999.18848266464,-32386.40366630598,-20061.428256205112,-21667.021115663185,0.0,0.0,0.0,193.0,1.0,154.0,0.0,3.0,3.0,252.0,410.0,3.0,1020.0,1744252758.345906,0.0,2025-04-09 22:39:18.345,STOP,23
155.0,13518.513860525354,1872.271522554341,-61181.507847488865,-58398.64860756977,-35033.14078249226,-32417.830219010142,-20163.642783599233,-21701.331043402082,0.0,0.0,0.0,193.0,1.0,154.0,0.0,3.0,3.0,250.0,410.0,3.0,1018.0,1744252758.345915,0.0,2025-04-09 22:39:18.345,STOP,23
156.0,13612.614704682197,1880.2063918359747,-61181.798420166786,-58332.44274049315,-35084.728608695106,-32468.926306834976,-19934.872679099164,-21746.72743639081,0.0,0.0,0.0,193.0,1.0,154.0,0.0,2.0,3.0,252.0,410.0,2.0,1020.0,1744252758.3459241,0.0,2025-04-09 22:39:18.345,STOP,23
157.0,13648.13162662168,1898.9595054339775,-61166.263957770345,-58389.99848246557,-35026.5693696224,-32400.217044379362,-20350.21279456768,-21702.225113180295,0.0,0.0,0.0,193.0,1.0,154.0,0.0,2.0,3.0,250.0,410.0,2.0,1018.0,1744252758.3459651,0.0,2025-04-09 22:39:18.345,STOP,23
158.0,13596.275579485367,1908.5037003163936,-61147.71200987244,-58328.30766776892,-35002.921223988684,-32389.97994541883,-20127.83528898183,-21672.72081049929,0.0,0.0,0.0,193.0,1.0,155.0,0.0,2.0,3.0,252.0,411.0,2.0,1020.0,1744252758.3459797,0.0,2025-04-09 22:39:18.345,STOP,23
159.0,13528.48273855242,1883.8273744377345,-61184.167705079046,-58388.83619175389,-35021.9649102646,-32416.645576554012,-20162.860472543296,-21691.45157235284,0.0,0.0,0.0,193.0,1.0,154.0,0.0,2.0,3.0,249.0,410.0,2.0,1017.0,1744252758.3459885,0.0,2025-04-09 22:39:18.345,STOP,23
160.0,13588.385413692644,1873.8137929217569,-61184.74885043489,-58319.23285952007,-35073.99977135656,-32466.825242856175,-19962.655897457113,-21722.788718079177,0.0,0.0,0.0,193.0,1.0,155.0,0.0,2.0,3.0,252.0,411.0,2.0,1020.0,1744252758.345997,0.0,2025-04-09 22:39:18.345,STOP,23
161.0,13669.499894320954,1905.3744560926505,-61170.37667875012,-58366.752668232046,-35023.26131144301,-32408.956576461387,-20263.465674336636,-21679.560444302613,0.0,0.0,0.0,193.0,1.0,154.0,0.0,2.0,3.0,251.0,410.0,2.0,1019.0,1744252758.346006,0.0,2025-04-09 22:39:18.346,STOP,23
162.0,13623.187079809557,1920.8642150001783,-61125.96376251743,-58292.4107661737,-34972.94753467412,-32367.047055607687,-20166.682620845157,-21626.922086110364,0.0,0.0,0.0,193.0,1.0,154.0,0.0,2.0,3.0,251.0,410.0,2.0,1019.0,1744252758.3460147,0.0,2025-04-09 22:39:18.346,STOP,23
163.0,13538.608078790676,1891.6057815081815,-61179.45148699898,-58361.991746663065,-35009.73850604755,-32403.346288603105,-20121.822669723355,-21665.881176695966,0.0,0.0,0.0,193.0,1.0,154.0,0.0,2.0,3.0,249.0,410.0,2.0,1017.0,1744252758.3460236,0.0,2025-04-09 22:39:18.346,STOP,23
164.0,13558.098799955702,1858.3910892475951,-61185.419402768544,-58314.42723446217,-35064.70144566315,-32460.52205091978,-20018.49055510647,-21720.531191889193,0.0,0.0,0.0,193.0,1.0,155.0,0.0,2.0,3.0,252.0,411.0,2.0,1020.0,1744252758.3460324,0.0,2025-04-09 22:39:18.346,STOP,23
165.0,13661.56502503932,1894.2209356094522,-61183.72067018994,-58350.27943256849,-35047.95998906613,-32431.62124533907,-20169.476588902067,-21701.24163642426,0.0,0.0,0.0,193.0,1.0,154.0,0.0,2.0,3.0,249.0,410.0,2.0,1017.0,1744252758.3460414,0.0,2025-04-09 22:39:18.346,STOP,23
166.0,13612.79351863784,1907.073188671254,-61139.10658825715,-58302.26788547849,-34985.35275284681,-32375.205442333874,-20248.311191595938,-21644.33409504105,0.0,0.0,0.0,193.0,1.0,155.0,0.0,2.0,3.0,252.0,411.0,2.0,1020.0,1744252758.34605,0.0,2025-04-09 22:39:18.346,STOP,23
167.0,13537.311677612268,1889.1917931070082,-61191.074394115734,-58358.147246616754,-35020.333232919365,-32415.57269282016,-20110.892666684707,-21689.14934267394,0.0,0.0,0.0,193.0,1.0,154.0,0.0,2.0,3.0,251.0,410.0,2.0,1019.0,1744252758.3460588,0.0,2025-04-09 22:39:18.346,STOP,23
168.0,13535.188261889012,1863.330824772218,-61194.47185927295,-58328.97822010258,-35061.10281480585,-32452.788347338243,-20092.296015297892,-21718.608941866034,0.0,0.0,0.0,193.0,1.0,154.0,0.0,2.0,3.0,251.0,410.0,2.0,1019.0,1744252758.346068,0.0,2025-04-09 22:39:18.346,STOP,23
169.0,13659.79923722735,1901.8205287242567,-61194.225990083934,-58331.660429437215,-35066.333123008386,-32441.03132975475,-20076.49333196799,-21705.37670914849,0.0,0.0,0.0,193.0,1.0,154.0,0.0,2.0,3.0,251.0,410.0,2.0,1019.0,1744252758.3460772,0.0,2025-04-09 22:39:18.346,STOP,23
170.0,13630.227879312979,1912.9293457185443,-61142.66051562554,-58304.950094813124,-34984.50338655751,-32364.945991628887,-20326.497593700602,-21638.746158927224,0.0,0.0,0.0,193.0,1.0,155.0,0.0,2.0,3.0,251.0,411.0,2.0,1019.0,1744252758.346086,0.0,2025-04-09 22:39:18.346,STOP,23
171.0,13560.669250568064,1892.6116100086701,-61183.25128355638,-58333.73914167156,-35009.9620234921,-32401.021707179752,-20084.294090782892,-21665.27767959567,0.0,0.0,0.0,193.0,1.0,154.0,0.0,2.0,3.0,249.0,410.0,2.0,1017.0,1744252758.3460948,0.0,2025-04-09 22:39:18.346,STOP,23
172.0,13511.093081366193,1844.108324540654,-61212.30855134828,-58352.96164190312,-35065.10377706335,-32446.23928621284,-20148.108321202795,-21706.159020204428,0.0,0.0,0.0,193.0,1.0,155.0,0.0,2.0,3.0,252.0,411.0,2.0,1020.0,1744252758.3461092,0.0,2025-04-09 22:39:18.346,STOP,23
173.0,13632.59716422524,1870.3045690422737,-61217.18123163954,-58329.35819975832,-35095.56920475593,-32468.725141134877,-20008.655787546133,-21730.701235616358,0.0,0.0,0.0,193.0,1.0,154.0,0.0,2.0,3.0,249.0,410.0,2.0,1017.0,1744252758.3461175,0.0,2025-04-09 22:39:18.346,STOP,23
174.0,13626.048103099836,1892.9245344310445,-61168.67794617152,-58336.331944028374,-35003.68118330016,-32378.334686557617,-20375.09028614644,-21657.76749345869,0.0,0.0,0.0,193.0,1.0,155.0,0.0,2.0,3.0,251.0,411.0,2.0,1019.0,1744252758.3461263,0.0,2025-04-09 22:39:18.346,STOP,23
175.0,13566.838332037727,1896.0761303992429,-61186.31347254676,-58322.58562118836,-35011.794866537435,-32390.628146008035,-20075.30868951186,-21659.868557437487,0.0,0.0,0.0,193.0,1.0,154.0,0.0,2.0,3.0,250.0,410.0,2.0,1018.0,1744252758.3461351,0.0,2025-04-09 22:39:18.346,STOP,23
176.0,13514.490546523399,1867.1529730740756,-61202.004397154386,-58349.81004593492,-35035.80064008244,-32407.5484165607,-20173.723420348575,-21686.847112995045,0.0,0.0,0.0,193.0,1.0,154.0,0.0,2.0,3.0,251.0,410.0,2.0,1019.0,1744252758.346144,0.0,2025-04-09 22:39:18.346,STOP,23
177.0,13615.207507039013,1869.4775544974275,-61210.83333621423,-58308.57107741488,-35089.1319023528,-32458.175117751973,-19948.61900193918,-21727.102604759053,0.0,0.0,0.0,193.0,1.0,154.0,0.0,2.0,3.0,250.0,410.0,2.0,1018.0,1744252758.3461528,0.0,2025-04-09 22:39:18.346,STOP,23
178.0,13627.880946145171,1889.3035518292847,-61180.12203933264,-58352.26873782501,-35014.812352038905,-32375.786587689712,-20376.878425702864,-21662.774284216677,0.0,0.0,0.0,193.0,1.0,154.0,0.0,2.0,3.0,251.0,410.0,2.0,1019.0,1744252758.3461616,0.0,2025-04-09 22:39:18.346,STOP,23
179.0,13573.387393163133,1893.0362931533211,-61179.96557712145,-58312.90731583921,-35010.72198280358,-32383.140311615505,-20102.913093914165,-21660.114426626496,0.0,0.0,0.0,193.0,1.0,154.0,0.0,2.0,3.0,252.0,410.0,2.0,1020.0,1744252758.3461704,0.0,2025-04-09 22:39:18.346,STOP,23
180.0,13508.746148198385,1861.296816026785,-61209.67104550255,-58370.99949967855,-35036.00180578254,-32408.040154938717,-20191.984795568562,-21691.071592697095,0.0,0.0,0.0,193.0,1.0,154.0,0.0,2.0,3.0,253.0,410.0,2.0,1021.0,1744252758.3461792,0.0,2025-04-09 22:39:18.346,STOP,23
181.0,13593.012224794893,1858.5028479698717,-61210.74392923641,-58309.75571987101,-35091.47883552061,-32461.483175931357,-19965.360458536205,-21734.925715318408,0.0,0.0,0.0,193.0,1.0,154.0,0.0,2.0,3.0,250.0,410.0,2.0,1018.0,1744252758.346188,0.0,2025-04-09 22:39:18.346,STOP,23
182.0,13641.001420140437,1884.7214442159468,-61194.06952787275,-58369.99367117807,-35034.727756348584,-32394.919680943454,-20355.42075102577,-21689.596377563048,0.0,0.0,0.0,193.0,1.0,154.0,0.0,2.0,3.0,250.0,410.0,2.0,1018.0,1744252758.346197,0.0,2025-04-09 22:39:18.346,STOP,23
183.0,13591.78287884985,1901.105272901687,-61165.10166705867,-58307.051158791925,-34998.00384020851,-32377.105340612572,-20155.75261780651,-21658.10276962552,0.0,0.0,0.0,193.0,1.0,154.0,0.0,2.0,3.0,253.0,410.0,2.0,1021.0,1744252758.3462057,0.0,2025-04-09 22:39:18.346,STOP,23
184.0,13518.469157036443,1873.880848155123,-61207.77114722385,-58379.71668001613,-35025.74235507755,-32412.912835229974,-20171.62235636978,-21694.469057854305,0.0,0.0,0.0,193.0,1.0,154.0,0.0,2.0,3.0,250.0,410.0,2.0,1018.0,1744252758.3462143,0.0,2025-04-09 22:39:18.346,STOP,23
185.0,13567.68769832703,1862.682624183014,-61205.893600689604,-58315.34365598484,-35080.526480737506,-32459.627981141566,-19999.089240919264,-21721.849944812053,0.0,0.0,0.0,193.0,1.0,155.0,0.0,2.0,3.0,251.0,411.0,2.0,1019.0,1744252758.346223,0.0,2025-04-09 22:39:18.346,STOP,23
186.0,13645.807045198328,1888.521240773349,-61201.445603543,-58366.193874620665,-35049.43520420018,-32406.095553171108,-20262.549252813966,-21676.542958801147,0.0,0.0,0.0,193.0,1.0,154.0,0.0,2.0,3.0,250.0,410.0,2.0,1018.0,1744252758.3462367,0.0,2025-04-09 22:39:18.346,STOP,23
187.0,13595.06858528478,1898.5795257782372,-61164.63228042511,-58309.979237315565,-35002.74241003304,-32372.61263997706,-20225.04302561796,-21639.506118238703,0.0,0.0,0.0,193.0,1.0,155.0,0.0,2.0,3.0,252.0,411.0,2.0,1020.0,1744252758.3462455,0.0,2025-04-09 22:39:18.346,STOP,23
188.0,13520.86079369316,1873.7020341994805,-61210.40865306958,-58374.35226134685,-35031.59851212484,-32403.748620003298,-20158.07719922986,-21672.251423865728,0.0,0.0,0.0,193.0,1.0,154.0,0.0,2.0,3.0,249.0,410.0,2.0,1017.0,1744252758.346254,0.0,2025-04-09 22:39:18.346,STOP,23
189.0,13538.67513402404,1846.2987954972739,-61208.06171990177,-58329.08997882486,-35072.79277715597,-32452.408367682503,-20071.620651676734,-21712.35045341855,0.0,0.0,0.0,193.0,1.0,155.0,0.0,2.0,3.0,251.0,411.0,2.0,1019.0,1744252758.3462627,0.0,2025-04-09 22:39:18.346,STOP,23
190.0,13650.344449322754,1880.3405023027067,-61202.58554251022,-58355.53209251548,-35056.2748380035,-32433.118812217574,-20162.56989986538,-21704.549694603647,0.0,0.0,0.0,193.0,1.0,154.0,0.0,2.0,3.0,249.0,410.0,2.0,1017.0,1744252758.3462715,0.0,2025-04-09 22:39:18.346,STOP,23
191.0,13599.82950685376,1878.0829761127206,-61165.97338509243,-58326.49717646804,-35002.51889258849,-32387.767122717756,-20297.663843353253,-21663.355429572515,0.0,0.0,0.0,193.0,1.0,154.0,0.0,2.0,3.0,250.0,410.0,2.0,1018.0,1744252758.3462803,0.0,2025-04-09 22:39:18.346,STOP,23
192.0,13538.764541001861,1878.775880190835,-61201.982045409924,-58365.65743275374,-35024.89298878825,-32410.141218917517,-20130.51749831647,-21678.8675402245,0.0,0.0,0.0,193.0,1.0,154.0,0.0,2.0,3.0,251.0,410.0,2.0,1019.0,1744252758.3462887,0.0,2025-04-09 22:39:18.346,STOP,23
193.0,13524.012389661359,1852.400821733573,-61209.447528058,-58349.51947325701,-35068.41183524273,-32452.475422915868,-20132.707969273088,-21715.189124964374,0.0,0.0,0.0,193.0,1.0,154.0,0.0,2.0,3.0,252.0,410.0,2.0,1020.0,1744252758.3462975,0.0,2025-04-09 22:39:18.346,STOP,23
194.0,13636.93340264957,1874.9984353778882,-61211.3474263367,-58345.294993554955,-35082.35932378284,-32457.683379373957,-20079.264948280448,-21728.935447804386,0.0,0.0,0.0,193.0,1.0,154.0,0.0,2.0,3.0,249.0,410.0,2.0,1017.0,1744252758.3463063,0.0,2025-04-09 22:39:18.346,STOP,23
195.0,13609.396053480632,1888.4094820510725,-61154.953975075965,-58324.06083632241,-34994.98635470705,-32368.54462248619,-20366.03782964204,-21653.85593817901,0.0,0.0,0.0,193.0,1.0,155.0,0.0,2.0,3.0,252.0,411.0,2.0,1020.0,1744252758.346315,0.0,2025-04-09 22:39:18.346,STOP,23
196.0,13549.471026595955,1886.330769816729,-61183.78772542331,-58335.46022599462,-35013.58300609386,-32395.813750721667,-20105.483544526523,-21675.00068843373,0.0,0.0,0.0,193.0,1.0,154.0,0.0,2.0,3.0,250.0,410.0,2.0,1018.0,1744252758.3463235,0.0,2025-04-09 22:39:18.346,STOP,23
197.0,13503.269970806834,1848.4669147094387,-61199.79157445331,-58350.70411571314,-35050.41868095621,-32427.106192959094,-20173.65636511521,-21700.995767235254,0.0,0.0,0.0,193.0,1.0,155.0,0.0,2.0,3.0,251.0,411.0,2.0,1019.0,1744252758.3463323,0.0,2025-04-09 22:39:18.346,STOP,23
198.0,13621.153071064124,1870.9304178870225,-61205.759490222874,-58324.28435376696,-35089.9812686421,-32460.74556836433,-20002.48670607647,-21729.67305537141,0.0,0.0,0.0,193.0,1.0,154.0,0.0,2.0,3.0,250.0,410.0,2.0,1018.0,1744252758.346341,0.0,2025-04-09 22:39:18.346,STOP,23
199.0,13628.037408356358,1898.0877874002203,-61154.23871925339,-58337.69540044015,-34995.299279129424,-32367.87407015253,-20400.593626569942,-21650.592583488535,0.0,0.0,0.0,193.0,1.0,155.0,0.0,2.0,3.0,251.0,411.0,2.0,1019.0,1744252758.3463497,0.0,2025-04-09 22:39:18.346,STOP,23
200.0,13573.677965841052,1902.6475432691032,-61162.26299551285,-58314.27077225099,-34996.4615698411,-32383.587346504613,-20095.17939033263,-21658.19217660334,0.0,0.0,0.0,193.0,1.0,155.0,0.0,2.0,3.0,251.0,411.0,2.0,1019.0,1744252758.346358,0.0,2025-04-09 22:39:18.346,STOP,23
201.0,13508.701444709473,1859.262807281352,-61193.77895519483,-58359.08601988388,-35036.42648892719,-32416.35500387609,-20197.885656104765,-21693.396174120448,0.0,0.0,0.0,193.0,1.0,154.0,0.0,2.0,3.0,250.0,410.0,2.0,1018.0,1744252758.346372,0.0,2025-04-09 22:39:18.346,STOP,23
202.0,13616.526259961875,1871.0868800982096,-61192.3931470386,-58302.714920367594,-35086.98613488509,-32459.13624276355,-19985.320566334794,-21729.047206526662,0.0,0.0,0.0,193.0,1.0,155.0,0.0,2.0,3.0,252.0,411.0,2.0,1020.0,1744252758.3463807,0.0,2025-04-09 22:39:18.346,STOP,23
203.0,13640.554385251331,1890.7564152188797,-61160.20663502296,-58349.09479011236,-35003.50236934452,-32379.496977269293,-20385.439143829244,-21662.729580727766,0.0,0.0,0.0,193.0,1.0,154.0,0.0,2.0,3.0,249.0,410.0,2.0,1017.0,1744252758.3463893,0.0,2025-04-09 22:39:18.346,STOP,23
204.0,13584.473858412965,1894.0644733982651,-61156.33978323219,-58304.90539132421,-34993.46643608408,-32382.40270404848,-20107.986939905517,-21650.592583488535,0.0,0.0,0.0,193.0,1.0,155.0,0.0,2.0,3.0,252.0,411.0,2.0,1020.0,1744252758.346398,0.0,2025-04-09 22:39:18.346,STOP,23
205.0,13520.838441948707,1872.427984765528,-61190.046213870795,-58367.04324090997,-35023.50718063202,-32409.895349728507,-20190.33076647887,-21685.01426994971,0.0,0.0,0.0,193.0,1.0,154.0,0.0,2.0,3.0,250.0,410.0,2.0,1018.0,1744252758.3464065,0.0,2025-04-09 22:39:18.346,STOP,23
206.0,13587.111364258692,1862.03442359381,-61193.37662379463,-58307.45349019212,-35077.64310570277,-32472.6143446701,-19974.010583640407,-21740.379540965503,0.0,0.0,0.0,193.0,1.0,155.0,0.0,2.0,3.0,250.0,411.0,2.0,1018.0,1744252758.3464153,0.0,2025-04-09 22:39:18.346,STOP,23
207.0,13642.834263185772,1885.101423871687,-61177.86451314265,-58362.95287167464,-35022.993090509546,-32401.893425213508,-20324.843564610906,-21686.690650783858,0.0,0.0,0.0,193.0,1.0,154.0,0.0,2.0,3.0,249.0,410.0,2.0,1017.0,1744252758.3464239,0.0,2025-04-09 22:39:18.346,STOP,23
208.0,13583.512733401387,1884.2297058379302,-61157.01033556585,-58307.96758031459,-34999.79197976494,-32385.30843082767,-20173.388144181747,-21660.315592326595,0.0,0.0,0.0,193.0,1.0,154.0,0.0,2.0,3.0,251.0,410.0,2.0,1019.0,1744252758.3464324,0.0,2025-04-09 22:39:18.346,STOP,23
209.0,13518.20093610298,1864.8954468840896,-61195.991777895906,-58375.626310780804,-35024.98239576607,-32409.761239261778,-20185.56984490989,-21692.971490975797,0.0,0.0,0.0,193.0,1.0,154.0,0.0,2.0,3.0,250.0,410.0,2.0,1018.0,1744252758.346441,0.0,2025-04-09 22:39:18.346,STOP,23
210.0,13560.266919167867,1849.0257083208214,-61191.1414493491,-58315.8130426184,-35071.40696899974,-32457.191640995938,-20026.648941832656,-21727.795508837167,0.0,0.0,0.0,193.0,1.0,154.0,0.0,2.0,3.0,249.0,410.0,2.0,1017.0,1744252758.3464496,0.0,2025-04-09 22:39:18.346,STOP,23
211.0,13639.615611984207,1868.7622986748577,-61192.21433308296,-58371.781810734494,-35047.736471621574,-32422.680547556945,-20247.19360437317,-21716.083194742587,0.0,0.0,0.0,193.0,1.0,155.0,0.0,2.0,3.0,252.0,411.0,2.0,1020.0,1744252758.3464584,0.0,2025-04-09 22:39:18.346,STOP,23
212.0,13591.045271282825,1878.8652871686563,-61144.806283093254,-58310.761548371505,-34989.9572122046,-32367.82936666362,-20253.58620328739,-21658.639211492446,0.0,0.0,0.0,193.0,1.0,154.0,0.0,2.0,3.0,249.0,410.0,2.0,1017.0,1744252758.3464668,0.0,2025-04-09 22:39:18.346,STOP,23
213.0,13505.505145252366,1845.1141530411428,-61199.23278084192,-58380.14136316078,-35025.54118937745,-32406.52023631576,-20148.443597369624,-21692.971490975797,0.0,0.0,0.0,193.0,1.0,154.0,0.0,2.0,3.0,250.0,410.0,2.0,1018.0,1744252758.3464754,0.0,2025-04-09 22:39:18.346,STOP,23
214.0,13504.789889429796,1802.9587629984335,-61206.00535941188,-58345.20558657713,-35075.36322776833,-32449.010902525297,-20095.6934804551,-21727.19201173687,0.0,0.0,0.0,193.0,1.0,154.0,0.0,2.0,3.0,250.0,410.0,2.0,1018.0,1744252758.346484,0.0,2025-04-09 22:39:18.346,STOP,23
215.0,13608.054948813315,1821.8012835742575,-61218.008246184385,-58376.252159625554,-35083.6333732168,-32447.781556580256,-20155.059713728395,-21740.603058410055,0.0,0.0,0.0,193.0,1.0,154.0,0.0,2.0,3.0,250.0,410.0,2.0,1018.0,1744252758.3464925,0.0,2025-04-09 22:39:18.346,STOP,23
216.0,13563.574977347253,1829.333821455696,-61164.028783324815,-58340.06468535241,-35006.11752344579,-32375.31720105615,-20343.239050297627,-21673.056086666118,0.0,0.0,0.0,193.0,1.0,154.0,0.0,2.0,3.0,250.0,410.0,2.0,1018.0,1744252758.346558,0.0,2025-04-09 22:39:18.346,STOP,23
217.0,13478.995976328371,1805.1268822105983,-61206.69826349,-58381.281302127994,-35034.12425924829,-32412.979890463343,-20135.010198951986,-21707.097793471552,0.0,0.0,0.0,193.0,1.0,155.0,0.0,2.0,3.0,252.0,411.0,2.0,1020.0,1744252758.346567,0.0,2025-04-09 22:39:18.346,STOP,23
218.0,13427.89988850354,1734.6741836874705,-61233.453301602996,-58390.55727607695,-35088.975440141614,-32469.44039695745,-20166.056772000407,-21764.072390088128,0.0,0.0,0.0,193.0,1.0,154.0,0.0,2.0,3.0,250.0,410.0,2.0,1018.0,1744252758.3465755,0.0,2025-04-09 22:39:18.346,STOP,23
219.0,13539.256279379879,1742.0055558688111,-61237.38720862714,-58381.05778468344,-35109.91902469624,-32480.437455229458,-20086.439858250604,-21775.672945460432,0.0,0.0,0.0,193.0,1.0,155.0,0.0,2.0,3.0,252.0,411.0,2.0,1020.0,1744252758.346584,0.0,2025-04-09 22:39:18.346,STOP,23
220.0,13515.094043623692,1751.4379920289507,-61184.25711205687,-58374.26285436903,-35020.84732304184,-32391.522215786248,-20415.055205232526,-21695.13961018796,0.0,0.0,0.0,193.0,1.0,154.0,0.0,2.0,3.0,250.0,410.0,2.0,1018.0,1744252758.346593,0.0,2025-04-09 22:39:18.346,STOP,23
221.0,13438.85224328664,1731.1649598079873,-61217.53885955082,-58383.47177308462,-35041.567390151904,-32422.457030112393,-20135.21136465208,-21715.837325553577,0.0,0.0,0.0,193.0,1.0,155.0,0.0,2.0,3.0,251.0,411.0,2.0,1019.0,1744252758.3466012,0.0,2025-04-09 22:39:18.346,STOP,23
222.0,13372.288748298735,1679.0406917382113,-61243.243365674425,-58409.243334441584,-35080.6829429487,-32453.682417116455,-20217.644598203256,-21736.62444789701,0.0,0.0,0.0,193.0,1.0,154.0,0.0,2.0,3.0,249.0,410.0,2.0,1017.0,1744252758.34661,0.0,2025-04-09 22:39:18.346,STOP,23
223.0,13487.556694454754,1689.1883837209207,-61239.7564935394,-58365.72448798711,-35113.22708287562,-32483.030257586273,-20018.04352021736,-21754.751712650268,0.0,0.0,0.0,193.0,1.0,155.0,0.0,2.0,3.0,252.0,411.0,2.0,1020.0,1744252758.3466187,0.0,2025-04-09 22:39:18.346,STOP,23
224.0,13491.356491012157,1699.2690204702642,-61194.53891450631,-58390.15494467675,-35030.63738711326,-32389.93524192992,-20428.220382716703,-21682.890854226454,0.0,0.0,0.0,193.0,1.0,154.0,0.0,2.0,3.0,249.0,410.0,2.0,1017.0,1744252758.3466272,0.0,2025-04-09 22:39:18.346,STOP,23
225.0,13428.726903048386,1701.7277123603478,-61205.78184196733,-58363.1763891192,-35038.90753256172,-32407.70487877189,-20141.84983275531,-21690.065764196606,0.0,0.0,0.0,193.0,1.0,155.0,0.0,2.0,3.0,252.0,411.0,2.0,1020.0,1744252758.346636,0.0,2025-04-09 22:39:18.346,STOP,23
226.0,13367.572530218666,1671.9775404903341,-61224.8031764988,-58406.27055242903,-35052.83266935738,-32430.19073369393,-20223.277237805993,-21702.448630624847,0.0,0.0,0.0,193.0,1.0,154.0,0.0,2.0,3.0,249.0,410.0,2.0,1017.0,1744252758.3466444,0.0,2025-04-09 22:39:18.346,STOP,23
227.0,13455.481941161388,1670.9940637343007,-61234.36972312567,-58355.26387158202,-35115.395202087784,-32488.797007655743,-19986.728726235477,-21752.181262037906,0.0,0.0,0.0,193.0,1.0,154.0,0.0,2.0,3.0,251.0,410.0,2.0,1019.0,1744252758.3466532,0.0,2025-04-09 22:39:18.346,STOP,23
228.0,13494.4857352359,1705.2816397287418,-61201.222086098445,-58400.39204363729,-35037.387613938765,-32403.547454303203,-20399.14076318035,-21693.53028458718,0.0,0.0,0.0,193.0,1.0,154.0,0.0,2.0,3.0,250.0,410.0,2.0,1018.0,1744252758.346662,0.0,2025-04-09 22:39:18.346,STOP,23
229.0,13442.652039844043,1721.3301922476521,-61178.19978930948,-58336.84603415085,-35011.0125554815,-32391.678677997435,-20144.04030371193,-21671.49146455425,0.0,0.0,0.0,193.0,1.0,154.0,0.0,2.0,3.0,251.0,410.0,2.0,1019.0,1744252758.3466706,0.0,2025-04-09 22:39:18.346,STOP,23
230.0,13366.700812184909,1688.4731278983509,-61224.66906603207,-58410.85266004237,-35050.08340478938,-32422.99347197932,-20208.078051576384,-21709.71294757282,0.0,0.0,0.0,193.0,1.0,154.0,0.0,2.0,3.0,252.0,410.0,2.0,1020.0,1744252758.3466792,0.0,2025-04-09 22:39:18.346,STOP,23
231.0,13435.722999062897,1681.633494095027,-61225.94311546602,-58348.04425812296,-35105.80630371646,-32474.08955980415,-20008.81224975732,-21745.16281427894,0.0,0.0,0.0,193.0,1.0,154.0,0.0,2.0,3.0,249.0,410.0,2.0,1017.0,1744252758.346712,0.0,2025-04-09 22:39:18.346,STOP,23
232.0,13519.877316937127,1722.917166103979,-61207.949961179496,-58399.78854653699,-35051.78213736798,-32413.784553263733,-20330.342093746913,-21710.11527897302,0.0,0.0,0.0,193.0,1.0,154.0,0.0,2.0,3.0,252.0,410.0,2.0,1020.0,1744252758.3467212,0.0,2025-04-09 22:39:18.346,STOP,23
233.0,13472.424563458511,1737.982241866856,-61172.34363226219,-58337.09190333985,-35010.27494791448,-32384.30260232718,-20215.588237713368,-21676.922938456886,0.0,0.0,0.0,193.0,1.0,154.0,0.0,2.0,3.0,252.0,410.0,2.0,1020.0,1744252758.34673,0.0,2025-04-09 22:39:18.346,STOP,23
234.0,13397.099184644127,1710.9366310759344,-61220.109310163185,-58410.07034898643,-35042.26029423002,-32415.773858520253,-20194.398783969737,-21705.06378472612,0.0,0.0,0.0,193.0,1.0,154.0,0.0,2.0,3.0,252.0,410.0,2.0,1020.0,1744252758.3467386,0.0,2025-04-09 22:39:18.346,STOP,23
235.0,13440.170996209503,1706.3545234625965,-61211.90621994808,-58344.49033075456,-35086.51674825153,-32447.37922518006,-20064.199872517573,-21717.78192732119,0.0,0.0,0.0,193.0,1.0,154.0,0.0,2.0,3.0,250.0,410.0,2.0,1018.0,1744252758.3467472,0.0,2025-04-09 22:39:18.346,STOP,23
236.0,13529.265049608357,1728.527453962261,-61224.93728696553,-58401.777851793515,-35083.4322075167,-32438.885562287043,-20246.143072383773,-21730.50006991626,0.0,0.0,0.0,193.0,1.0,154.0,0.0,2.0,3.0,251.0,410.0,2.0,1019.0,1744252758.3467557,0.0,2025-04-09 22:39:18.346,STOP,23
237.0,13489.76951715583,1745.3583175371073,-61178.17743756503,-58349.87710116829,-35018.992128252044,-32388.54943377369,-20302.760041089063,-21680.9686042033,0.0,0.0,0.0,193.0,1.0,154.0,0.0,2.0,3.0,250.0,410.0,2.0,1018.0,1744252758.3467643,0.0,2025-04-09 22:39:18.346,STOP,23
238.0,13422.289600645257,1735.3000325322191,-61227.88771723363,-58406.248200684575,-35050.239867000564,-32422.07705045665,-20167.93431853465,-21718.027796510196,0.0,0.0,0.0,193.0,1.0,155.0,0.0,2.0,3.0,252.0,411.0,2.0,1020.0,1744252758.346773,0.0,2025-04-09 22:39:18.346,STOP,23
239.0,13423.250725656835,1711.5848316651384,-61231.843976002216,-58375.87217996981,-35096.12799836731,-32464.85828934411,-20145.89549850172,-21760.786683653198,0.0,0.0,0.0,193.0,1.0,154.0,0.0,2.0,3.0,249.0,410.0,2.0,1017.0,1744252758.3467815,0.0,2025-04-09 22:39:18.346,STOP,23
240.0,13546.520596327853,1750.8791984175682,-61227.708903277984,-58382.622406795315,-35090.69652446467,-32453.213030482893,-20140.911059488186,-21741.58653516609,0.0,0.0,0.0,193.0,1.0,155.0,0.0,2.0,3.0,251.0,411.0,2.0,1019.0,1744252758.3467903,0.0,2025-04-09 22:39:18.346,STOP,23
241.0,13526.292267595802,1779.40002434254,-61165.68281241451,-58345.96554588861,-35001.42365711018,-32367.963477130354,-20355.197233581213,-21657.588679503046,0.0,0.0,0.0,193.0,1.0,154.0,0.0,2.0,3.0,250.0,410.0,2.0,1018.0,1744252758.346799,0.0,2025-04-09 22:39:18.346,STOP,23
242.0,13460.75695285284,1778.5953615421488,-61207.45822280148,-58378.66614802673,-35032.58198888088,-32408.35307936109,-20127.7011785151,-21700.034642223676,0.0,0.0,0.0,193.0,1.0,154.0,0.0,2.0,3.0,252.0,410.0,2.0,1020.0,1744252758.3468077,0.0,2025-04-09 22:39:18.346,STOP,23
243.0,13426.04469371375,1740.3515267791186,-61223.05974043128,-58384.41054635174,-35073.70919867864,-32446.909838546497,-20183.625243142276,-21730.85769782754,0.0,0.0,0.0,193.0,1.0,154.0,0.0,2.0,3.0,249.0,410.0,2.0,1017.0,1744252758.3468163,0.0,2025-04-09 22:39:18.346,STOP,23
244.0,13553.941375487017,1766.7265852363807,-61225.54078406582,-58366.59620602086,-35098.7878559575,-32467.406388212014,-20048.978334543506,-21746.54862243517,0.0,0.0,0.0,193.0,1.0,155.0,0.0,2.0,3.0,251.0,411.0,2.0,1019.0,1744252758.3468251,0.0,2025-04-09 22:39:18.346,STOP,23
245.0,13542.653744537085,1783.3786348555846,-61184.14535333459,-58380.16371490523,-35022.858980042816,-32391.723381486343,-20411.121298208393,-21689.462267096314,0.0,0.0,0.0,193.0,1.0,154.0,0.0,2.0,3.0,249.0,410.0,2.0,1017.0,1744252758.3468337,0.0,2025-04-09 22:39:18.346,STOP,23
246.0,13489.09896482217,1792.7440157823582,-61201.78087970983,-58368.8760839553,-35034.43718367066,-32409.872997984054,-20136.194841408116,-21705.86844752651,0.0,0.0,0.0,193.0,1.0,154.0,0.0,2.0,3.0,251.0,410.0,2.0,1019.0,1744252758.3468645,0.0,2025-04-09 22:39:18.346,STOP,23
247.0,13428.70455130393,1751.0133088843,-61230.81579575728,-58405.46588962864,-35075.54204172397,-32451.000207781817,-20232.888487921773,-21745.16281427894,0.0,0.0,0.0,193.0,1.0,154.0,0.0,2.0,3.0,250.0,410.0,2.0,1018.0,1744252758.3468733,0.0,2025-04-09 22:39:18.346,STOP,23
248.0,13536.90934621207,1764.8043352132245,-61236.15786268209,-58361.79058096297,-35119.75379225657,-32492.23917630186,-20016.590656827768,-21769.97325062433,0.0,0.0,0.0,193.0,1.0,154.0,0.0,2.0,3.0,250.0,410.0,2.0,1018.0,1744252758.3468819,0.0,2025-04-09 22:39:18.346,STOP,23
249.0,13557.58470983323,1794.7109692944252,-61190.739117948906,-58388.59032256488,-35032.69374760315,-32396.484303055324,-20428.868583305906,-21692.30093864214,0.0,0.0,0.0,193.0,1.0,154.0,0.0,2.0,3.0,251.0,410.0,2.0,1019.0,1744252758.3468904,0.0,2025-04-09 22:39:18.346,STOP,23
250.0,13505.57220048573,1806.8703182781123,-61188.54864699229,-58346.72550520009,-35027.463439400606,-32398.94299494541,-20139.279382142948,-21684.38842110496,0.0,0.0,0.0,193.0,1.0,155.0,0.0,2.0,3.0,252.0,411.0,2.0,1020.0,1744252758.346899,0.0,2025-04-09 22:39:18.346,STOP,23
251.0,13440.41686539851,1778.818878986702,-61219.57286829625,-58401.24140992659,-35054.46434670262,-32425.720384802866,-20222.450223261145,-21716.641988353967,0.0,0.0,0.0,193.0,1.0,155.0,0.0,2.0,3.0,252.0,411.0,2.0,1020.0,1744252758.3469076,0.0,2025-04-09 22:39:18.346,STOP,23
252.0,13538.87629972414,1789.726530280892,-61214.74489149391,-58335.34846727234,-35106.387449072296,-32470.17800452447,-19999.849200230743,-21749.186128280893,0.0,0.0,0.0,193.0,1.0,155.0,0.0,2.0,3.0,251.0,411.0,2.0,1019.0,1744252758.3469162,0.0,2025-04-09 22:39:18.346,STOP,23
253.0,13593.682777128552,1822.3600771856402,-61184.860609157164,-58383.51647657353,-35037.72289010559,-32393.064486153664,-20387.160228152305,-21692.61386306451,0.0,0.0,0.0,193.0,1.0,154.0,0.0,2.0,3.0,248.0,410.0,2.0,1016.0,1744252758.3469248,0.0,2025-04-09 22:39:18.346,STOP,23
254.0,13533.288363610312,1827.3892196880843,-61173.97530960743,-58332.219223048596,-35023.015442254,-32392.259823353274,-20176.830312827864,-21682.868502482,0.0,0.0,0.0,193.0,1.0,154.0,0.0,2.0,3.0,250.0,410.0,2.0,1018.0,1744252758.3469336,0.0,2025-04-09 22:39:18.346,STOP,23
255.0,13453.827912071696,1792.296980893252,-61223.50677532039,-58409.60096235287,-35059.337026993875,-32430.213085438383,-20215.588237713368,-21726.700273358856,0.0,0.0,0.0,193.0,1.0,154.0,0.0,2.0,3.0,249.0,410.0,2.0,1017.0,1744252758.3469422,0.0,2025-04-09 22:39:18.346,STOP,23
0.0,13526.739302484906,1802.914059509523,-61205.33480707822,-58330.65460093673,-35098.1843588572,-32468.658085901512,-20028.14650871116,-21763.96063136585,0.0,0.0,0.0,193.0,1.0,155.0,0.0,2.0,3.0,252.0,411.0,2.0,1020.0,1744252758.3469505,0.0,2025-04-09 22:39:18.346,STOP,23
1.0,13609.21723952499,1838.1404087710869,-61189.889751659604,-58380.29782537196,-35055.11254729182,-32411.191750906917,-20305.82223007944,-21714.38446216398,0.0,0.0,0.0,193.0,1.0,154.0,0.0,2.0,3.0,250.0,410.0,2.0,1018.0,1744252758.346959,0.0,2025-04-09 22:39:18.346,STOP,23
2.0,13558.2999656558,1849.8974263545783,-61149.25428023986,-58319.47872870907,-35006.22928216807,-32374.043151622198,-20238.409368802237,-21664.9647551733,0.0,0.0,0.0,193.0,1.0,155.0,0.0,2.0,3.0,251.0,411.0,2.0,1019.0,1744252758.346968,0.0,2025-04-09 22:39:18.346,STOP,23
3.0,13492.161153812547,1841.6943361394808,-61187.69928070299,-58380.588398049884,-35028.581026623375,-32400.12763740154,-20186.955653066118,-21699.609959079025,0.0,0.0,0.0,193.0,1.0,154.0,0.0,2.0,3.0,250.0,410.0,2.0,1018.0,1744252758.3469768,0.0,2025-04-09 22:39:18.346,STOP,23
4.0,13512.903572667072,1816.459216649439,-61189.95680689297,-58333.7167899271,-35080.392370270776,-32452.788347338243,-20091.26783505295,-21750.415474225938,0.0,0.0,0.0,193.0,1.0,155.0,0.0,2.0,3.0,252.0,411.0,2.0,1020.0,1744252758.3469853,0.0,2025-04-09 22:39:18.346,STOP,23
5.0,13611.921800604083,1839.3474029716735,-61196.01412964036,-58375.80512473645,-35072.16692831122,-32433.387033151037,-20203.65240617423,-21730.276552471703,0.0,0.0,0.0,193.0,1.0,154.0,0.0,2.0,3.0,249.0,410.0,2.0,1017.0,1744252758.347015,0.0,2025-04-09 22:39:18.347,STOP,23
6.0,13576.740154831428,1855.4853624684051,-61142.012315036336,-58327.882984624266,-35001.06602919889,-32365.705950940366,-20310.4937446706,-21655.308801568604,0.0,0.0,0.0,193.0,1.0,154.0,0.0,2.0,3.0,249.0,410.0,2.0,1017.0,1744252758.3470235,0.0,2025-04-09 22:39:18.347,STOP,23
7.0,13507.226229575424,1841.2920047392852,-61190.046213870795,-58381.303653872455,-35035.48771566006,-32404.821503737156,-20153.09276021633,-21698.894703256454,0.0,0.0,0.0,193.0,1.0,154.0,0.0,2.0,3.0,249.0,410.0,2.0,1017.0,1744252758.347032,0.0,2025-04-09 22:39:18.347,STOP,23
8.0,13502.219438817436,1820.2366614623859,-61189.30860630377,-58351.39701979125,-35068.903573620744,-32438.080899486653,-20142.02864671095,-21726.052072769653,0.0,0.0,0.0,193.0,1.0,154.0,0.0,2.0,3.0,252.0,410.0,2.0,1020.0,1744252758.347041,0.0,2025-04-09 22:39:18.347,STOP,23
9.0,13622.360065264711,1849.808019376757,-61197.48934477441,-58357.70021172765,-35088.79662618597,-32446.485155401846,-20104.88004742623,-21742.368846222027,0.0,0.0,0.0,193.0,1.0,155.0,0.0,2.0,3.0,252.0,411.0,2.0,1020.0,1744252758.3470492,0.0,2025-04-09 22:39:18.347,STOP,23
10.0,13605.059815056304,1870.8633626536564,-61142.05701852525,-58336.53310972847,-35006.98924147955,-32366.242392807293,-20388.45662933071,-21679.940423958353,0.0,0.0,0.0,193.0,1.0,155.0,0.0,2.0,3.0,251.0,411.0,2.0,1019.0,1744252758.623719,0.0,2025-04-09 22:39:18.623,STOP,23
11.0,13535.367075844655,1864.5601707172598,-61180.189094566005,-58358.706040228135,-35030.30211094643,-32399.725306001343,-20136.016027452475,-21705.77904054869,0.0,0.0,0.0,193.0,1.0,155.0,0.0,2.0,3.0,250.0,411.0,2.0,1018.0,1744252758.6237583,0.0,2025-04-09 22:39:18.623,STOP,23
12.0,13494.441031746988,1831.9042720680563,-61195.09770811769,-58369.971319433615,-35065.55081195245,-32429.050794726707,-20196.745717137543,-21727.929619303897,0.0,0.0,0.0,193.0,1.0,154.0,0.0,2.0,3.0,250.0,410.0,2.0,1018.0,1744252758.6237788,0.0,2025-04-09 22:39:18.623,STOP,23
13.0,13621.957733864516,1858.1228683141314,-61196.50586801838,-58342.38926677576,-35096.23975708959,-32454.911763061496,-20036.14843322616,-21748.940259091887,0.0,0.0,0.0,193.0,1.0,155.0,0.0,2.0,3.0,252.0,411.0,2.0,1020.0,1744252758.623799,0.0,2025-04-09 22:39:18.623,STOP,23
14.0,13620.370760008189,1884.0955953711982,-61146.348553460666,-58354.50391227054,-35005.715192045594,-32361.392064260493,-20413.98232149867,-21667.57990927457,0.0,0.0,0.0,193.0,1.0,154.0,0.0,2.0,3.0,249.0,410.0,2.0,1017.0,1744252758.6238103,0.0,2025-04-09 22:39:18.623,STOP,23
15.0,13557.115323199669,1880.1393366026089,-61168.14150430459,-58344.44562726565,-35020.17677070818,-32387.945936673397,-20120.861544711774,-21684.790752505156,0.0,0.0,0.0,193.0,1.0,154.0,0.0,2.0,3.0,252.0,410.0,2.0,1020.0,1744252758.62382,0.0,2025-04-09 22:39:18.623,STOP,23
16.0,13492.496429979377,1838.0957052821764,-61198.18224885253,-58387.47273534212,-35057.63829441527,-32426.256826669793,-20222.316112794415,-21726.119128003018,0.0,0.0,0.0,193.0,1.0,154.0,0.0,2.0,3.0,249.0,410.0,2.0,1017.0,1744252758.6238298,0.0,2025-04-09 22:39:18.623,STOP,23
17.0,13598.64486439763,1845.4941326968828,-61202.58554251022,-58340.48936849706,-35105.15810312726,-32477.62113542809,-20007.15822066763,-21772.16372158095,0.0,0.0,0.0,193.0,1.0,154.0,0.0,2.0,3.0,251.0,410.0,2.0,1019.0,1744252758.623839,0.0,2025-04-09 22:39:18.623,STOP,23
18.0,13629.93730663506,1876.3171883007515,-61161.39127747909,-58375.11222065833,-35019.64032884125,-32384.235547093816,-20424.04060650356,-21696.860694511022,0.0,0.0,0.0,193.0,1.0,154.0,0.0,2.0,3.0,249.0,410.0,2.0,1017.0,1744252758.623848,0.0,2025-04-09 22:39:18.623,STOP,23
19.0,13571.934529773538,1881.8157174367568,-61158.999640822374,-58331.61572594831,-35016.71225031761,-32391.343401830603,-20156.512577117992,-21693.619691565,0.0,0.0,0.0,193.0,1.0,154.0,0.0,2.0,3.0,252.0,410.0,2.0,1020.0,1744252758.6238604,0.0,2025-04-09 22:39:18.623,STOP,23
20.0,13497.48086899291,1847.5728449312264,-61198.78574595282,-58397.10633720236,-35051.424509456694,-32422.814658023675,-20242.231517104094,-21728.555468148646,0.0,0.0,0.0,193.0,1.0,154.0,0.0,2.0,3.0,250.0,410.0,2.0,1018.0,1744252758.6239712,0.0,2025-04-09 22:39:18.623,STOP,23
21.0,13575.3543466752,1843.5495309292712,-61201.713824476465,-58334.54380447195,-35105.91806243874,-32478.112873806105,-20017.037691716872,-21777.237567572305,0.0,0.0,0.0,193.0,1.0,155.0,0.0,2.0,3.0,252.0,411.0,2.0,1020.0,1744252758.6239803,0.0,2025-04-09 22:39:18.623,STOP,23
22.0,13633.491234003453,1871.6009702206816,-61179.51854223234,-58387.04805219747,-35043.17671575269,-32405.425000837447,-20383.203969383714,-21720.01710176672,0.0,0.0,0.0,193.0,1.0,154.0,0.0,2.0,3.0,249.0,410.0,2.0,1017.0,1744252758.6239893,0.0,2025-04-09 22:39:18.623,STOP,23
23.0,13587.245474725423,1889.4153105515613,-61142.23583248089,-58314.047254806435,-35002.04950595492,-32377.574727246134,-20204.792345141454,-21680.208644891816,0.0,0.0,0.0,193.0,1.0,154.0,0.0,2.0,3.0,252.0,410.0,2.0,1020.0,1744252758.6239984,0.0,2025-04-09 22:39:18.623,STOP,23
24.0,13507.449747019977,1859.106345070165,-61192.01316738286,-58391.60780806635,-35036.69470986065,-32412.622262552057,-20216.459955747123,-21707.85775278303,0.0,0.0,0.0,193.0,1.0,154.0,0.0,2.0,3.0,249.0,410.0,2.0,1017.0,1744252758.6240075,0.0,2025-04-09 22:39:18.624,STOP,23
25.0,13546.855872494683,1833.8712255801233,-61198.852801186185,-58341.74106618656,-35098.5866902574,-32476.704713905423,-20058.433122448103,-21764.854701144064,0.0,0.0,0.0,193.0,1.0,155.0,0.0,2.0,3.0,252.0,411.0,2.0,1020.0,1744252758.6240163,0.0,2025-04-09 22:39:18.624,STOP,23
26.0,13631.971315380493,1857.8769991251231,-61195.92472266254,-58395.631122068306,-35066.86956487531,-32436.002187252307,-20300.97190153264,-21745.900421845963,0.0,0.0,0.0,193.0,1.0,154.0,0.0,2.0,3.0,250.0,410.0,2.0,1018.0,1744252758.6240253,0.0,2025-04-09 22:39:18.624,STOP,23
27.0,13584.518561901876,1869.5446097307934,-61150.70714362945,-58335.54963297244,-35010.07378221438,-32384.7943407052,-20277.971956488127,-21684.366069360505,0.0,0.0,0.0,193.0,1.0,155.0,0.0,2.0,3.0,252.0,411.0,2.0,1020.0,1744252758.6240356,0.0,2025-04-09 22:39:18.624,STOP,23
28.0,13511.137784855102,1856.7147084134472,-61192.32609180523,-58395.899343001765,-35031.35264293583,-32406.65434678249,-20180.361888451804,-21700.459325368327,0.0,0.0,0.0,193.0,1.0,154.0,0.0,2.0,3.0,250.0,410.0,2.0,1018.0,1744252758.6240447,0.0,2025-04-09 22:39:18.624,STOP,23
29.0,13525.264087350857,1839.816789605235,-61189.66623421505,-58350.815874435415,-35076.547870224465,-32447.155707735506,-20098.46509676756,-21731.55060190566,0.0,0.0,0.0,193.0,1.0,155.0,0.0,2.0,3.0,252.0,411.0,2.0,1020.0,1744252758.6240535,0.0,2025-04-09 22:39:18.624,STOP,23
30.0,13630.27258280189,1863.1967143054862,-61198.562228508265,-58386.69042428618,-35081.26408830453,-32445.434623412446,-20184.273443731483,-21744.82753811211,0.0,0.0,0.0,193.0,1.0,155.0,0.0,2.0,3.0,250.0,411.0,2.0,1018.0,1744252758.6240623,0.0,2025-04-09 22:39:18.624,STOP,23
31.0,13603.115213288691,1885.1237756161424,-61130.59057361968,-58331.01222884801,-34992.01357269449,-32358.77691015922,-20341.495614230113,-21657.186348102852,0.0,0.0,0.0,193.0,1.0,155.0,0.0,2.0,3.0,251.0,411.0,2.0,1019.0,1744252758.6240711,0.0,2025-04-09 22:39:18.624,STOP,23
32.0,13533.355418843677,1869.65636845307,-61176.63516719761,-58375.492200314075,-35023.52953237647,-32399.613547279067,-20140.97811472155,-21691.00453746373,0.0,0.0,0.0,193.0,1.0,155.0,0.0,2.0,3.0,251.0,411.0,2.0,1019.0,1744252758.62408,0.0,2025-04-09 22:39:18.624,STOP,23
33.0,13508.612037731653,1832.7312866129025,-61193.01899588335,-58370.46305781163,-35073.93271612319,-32445.099347245618,-20163.486321388045,-21735.663322885433,0.0,0.0,0.0,193.0,1.0,155.0,0.0,2.0,3.0,251.0,411.0,2.0,1019.0,1744252758.624089,0.0,2025-04-09 22:39:18.624,STOP,23
34.0,13636.396960782644,1867.4435457519944,-61185.978196379925,-58354.660374481726,-35082.42637901621,-32440.785460565745,-20089.03266060742,-21732.019988539218,0.0,0.0,0.0,193.0,1.0,154.0,0.0,2.0,3.0,250.0,410.0,2.0,1018.0,1744252758.6240976,0.0,2025-04-09 22:39:18.624,STOP,23
35.0,13612.79351863784,1888.1859646065195,-61130.32235268621,-58338.522414985,-34993.86876748428,-32351.60200018907,-20387.115524663393,-21651.57606024457,0.0,0.0,0.0,193.0,1.0,155.0,0.0,2.0,3.0,251.0,411.0,2.0,1019.0,1744252758.6241128,0.0,2025-04-09 22:39:18.624,STOP,23
36.0,13531.947258942993,1870.7516039313798,-61175.47287648593,-58364.11516238632,-35029.81037256841,-32396.46195131087,-20122.604980779288,-21693.083249698073,0.0,0.0,0.0,193.0,1.0,154.0,0.0,2.0,3.0,249.0,410.0,2.0,1017.0,1744252758.6241217,0.0,2025-04-09 22:39:18.624,STOP,23
37.0,13477.587816427687,1822.8741673081122,-61201.713824476465,-58392.27836040001,-35074.022123101015,-32441.076033243662,-20227.56877274141,-21747.889727102487,0.0,0.0,0.0,193.0,1.0,155.0,0.0,2.0,3.0,251.0,411.0,2.0,1019.0,1744252758.6241305,0.0,2025-04-09 22:39:18.624,STOP,23
38.0,13603.40578596661,1853.5407607007935,-61197.57875175223,-58348.93832790117,-35103.459370548655,-32464.545364921734,-20044.239764718983,-21762.016029598242,0.0,0.0,0.0,193.0,1.0,155.0,0.0,2.0,3.0,250.0,411.0,2.0,1018.0,1744252758.6241393,0.0,2025-04-09 22:39:18.624,STOP,23
39.0,13608.747852891429,1869.5669614752487,-61151.511806429844,-58369.680746755694,-35013.80652353841,-32371.450349265382,-20431.506089151633,-21681.549749559137,0.0,0.0,0.0,193.0,1.0,155.0,0.0,2.0,3.0,251.0,411.0,2.0,1019.0,1744252758.6241481,0.0,2025-04-09 22:39:18.624,STOP,23
40.0,13550.25333765189,1874.7972696777904,-61160.20663502296,-58340.26585105251,-35013.94063400515,-32379.45227378038,-20122.582629034834,-21665.970583673785,0.0,0.0,0.0,193.0,1.0,155.0,0.0,2.0,3.0,252.0,411.0,2.0,1020.0,1744252758.624157,0.0,2025-04-09 22:39:18.624,STOP,23
41.0,13487.37788049911,1842.9683855734331,-61192.75077494988,-58389.77496502102,-35050.61984665631,-32411.45997184038,-20227.635827974776,-21707.589531849568,0.0,0.0,0.0,193.0,1.0,155.0,0.0,2.0,3.0,252.0,411.0,2.0,1020.0,1744252758.624166,0.0,2025-04-09 22:39:18.624,STOP,23
42.0,13588.49717241492,1851.4173449775394,-61196.30470231828,-58330.92282187019,-35102.252376348064,-32456.23051598436,-20004.67717703309,-21747.286230002195,0.0,0.0,0.0,193.0,1.0,154.0,0.0,2.0,3.0,250.0,410.0,2.0,1018.0,1744252758.6241748,0.0,2025-04-09 22:39:18.624,STOP,23
43.0,13617.912068118105,1878.909990657567,-61166.73334440391,-58378.04029918198,-35026.83759055586,-32376.479491767826,-20413.043548231548,-21685.43895309436,0.0,0.0,0.0,193.0,1.0,155.0,0.0,2.0,3.0,251.0,411.0,2.0,1019.0,1744252758.6241837,0.0,2025-04-09 22:39:18.624,STOP,23
44.0,13557.897634255605,1882.2180488369524,-61162.285347257304,-58331.57102245939,-35018.388631151756,-32379.496977269293,-20158.568937607877,-21673.167845388394,0.0,0.0,0.0,193.0,1.0,155.0,0.0,2.0,3.0,251.0,411.0,2.0,1019.0,1744252758.6241925,0.0,2025-04-09 22:39:18.624,STOP,23
45.0,13486.327348509712,1851.4396967219946,-61201.46795528746,-58398.08981395839,-35050.01634955601,-32411.772896262755,-20231.43562453218,-21713.423337152402,0.0,0.0,0.0,193.0,1.0,154.0,0.0,2.0,3.0,250.0,410.0,2.0,1018.0,1744252758.6242013,0.0,2025-04-09 22:39:18.624,STOP,23
46.0,13556.86945401066,1842.5437024287824,-61202.58554251022,-58338.9694498741,-35106.65567000576,-32472.65904815901,-20018.088223706272,-21759.602041197068,0.0,0.0,0.0,193.0,1.0,155.0,0.0,2.0,3.0,252.0,411.0,2.0,1020.0,1744252758.62421,0.0,2025-04-09 22:39:18.624,STOP,23
47.0,13624.394074010144,1871.4668597539498,-61186.82756266923,-58396.525191846515,-35052.31857923491,-32413.404573607993,-20359.622878983366,-21724.576857635602,0.0,0.0,0.0,193.0,1.0,154.0,0.0,2.0,3.0,249.0,410.0,2.0,1017.0,1744252758.6242187,0.0,2025-04-09 22:39:18.624,STOP,23
48.0,13571.487494884432,1880.2063918359747,-61156.31743148773,-58334.27558353849,-35015.05822122791,-32385.68841048341,-20230.720368709608,-21689.01523220721,0.0,0.0,0.0,193.0,1.0,155.0,0.0,2.0,3.0,252.0,411.0,2.0,1020.0,1744252758.6242275,0.0,2025-04-09 22:39:18.624,STOP,23
49.0,13501.14655508358,1864.5601707172598,-61188.191019081,-58391.138421432785,-35030.97266328009,-32398.36184958957,-20206.893409120254,-21693.217360164806,0.0,0.0,0.0,193.0,1.0,154.0,0.0,2.0,3.0,249.0,410.0,2.0,1017.0,1744252758.6242363,0.0,2025-04-09 22:39:18.624,STOP,23
50.0,13531.813148476262,1840.6438041500812,-61193.756603450376,-58340.332906285876,-35089.93656515319,-32457.549268907223,-20066.658564407655,-21743.799357867167,0.0,0.0,0.0,193.0,1.0,155.0,0.0,2.0,3.0,252.0,411.0,2.0,1020.0,1744252758.6242497,0.0,2025-04-09 22:39:18.624,STOP,23
51.0,13630.607858968719,1871.3774527761286,-61187.69928070299,-58385.59518880787,-35062.53332645098,-32425.250998169304,-20272.004040718562,-21732.511726917237,0.0,0.0,0.0,193.0,1.0,154.0,0.0,2.0,3.0,251.0,410.0,2.0,1019.0,1744252758.6242585,0.0,2025-04-09 22:39:18.624,STOP,23
52.0,13576.717803086973,1871.0198248648437,-61150.93066107401,-58338.656525451726,-35012.53247410446,-32385.084913383118,-20306.515134157555,-21694.424354365394,0.0,0.0,0.0,193.0,1.0,154.0,0.0,2.0,3.0,252.0,410.0,2.0,1020.0,1744252758.624267,0.0,2025-04-09 22:39:18.624,STOP,23
53.0,13509.215534831947,1858.7263654144247,-61190.381490037624,-58391.20547666615,-35032.82785806988,-32408.35307936109,-20192.722403135587,-21710.96464526232,0.0,0.0,0.0,193.0,1.0,154.0,0.0,2.0,3.0,249.0,410.0,2.0,1017.0,1744252758.6242757,0.0,2025-04-09 22:39:18.624,STOP,23
54.0,13510.489584265899,1827.9256615550116,-61190.11326910416,-58355.93442391568,-35071.54107946647,-32455.04587352823,-20131.344512861313,-21745.341628234582,0.0,0.0,0.0,193.0,1.0,155.0,0.0,2.0,3.0,252.0,411.0,2.0,1020.0,1744252758.6242845,0.0,2025-04-09 22:39:18.624,STOP,23
55.0,13620.326056519278,1859.5980834481818,-61193.48838251691,-58377.32504335941,-35075.74320742407,-32451.80487058221,-20161.787588809442,-21747.040360813186,0.0,0.0,0.0,193.0,1.0,154.0,0.0,2.0,3.0,250.0,410.0,2.0,1018.0,1744252758.624293,0.0,2025-04-09 22:39:18.624,STOP,23
56.0,13588.228951481457,1873.1879440770083,-61139.01718127933,-58344.13270284328,-34999.38964836474,-32378.55820400217,-20368.250652343115,-21679.7169065138,0.0,0.0,0.0,193.0,1.0,155.0,0.0,2.0,3.0,251.0,411.0,2.0,1019.0,1744252758.624302,0.0,2025-04-09 22:39:18.624,STOP,23
57.0,13530.53909904231,1873.7690894328464,-61171.82954213972,-58369.39017407777,-35021.74139282005,-32403.36864034756,-20158.390123652236,-21704.52734285919,0.0,0.0,0.0,193.0,1.0,154.0,0.0,2.0,3.0,249.0,410.0,2.0,1017.0,1744252758.6243105,0.0,2025-04-09 22:39:18.624,STOP,23
58.0,13496.519743981331,1836.5087314258494,-61186.58169348022,-58366.37268857631,-35072.412797500234,-32442.305379188703,-20204.166496296704,-21745.386331723494,0.0,0.0,0.0,193.0,1.0,155.0,0.0,2.0,3.0,252.0,411.0,2.0,1020.0,1744252758.624319,0.0,2025-04-09 22:39:18.624,STOP,23
59.0,13614.022864582881,1854.7030514124694,-61188.839219670204,-58353.29691806995,-35091.143559353775,-32464.18773701045,-20083.8917593827,-21759.78085515271,0.0,0.0,0.0,193.0,1.0,154.0,0.0,2.0,3.0,248.0,410.0,2.0,1016.0,1744252758.6243277,0.0,2025-04-09 22:39:18.624,STOP,23
60.0,13600.991797565437,1872.8303161657234,-61133.898631799064,-58349.49712151255,-34999.568462320385,-32379.765198202756,-20415.457536632723,-21687.607072306524,0.0,0.0,0.0,193.0,1.0,155.0,0.0,2.0,3.0,252.0,411.0,2.0,1020.0,1744252758.6243365,0.0,2025-04-09 22:39:18.624,STOP,23
61.0,13541.53615731432,1877.3453685456955,-61157.79264662178,-58344.46797901011,-35018.96977650759,-32400.32880310164,-20135.65839954119,-21695.54194158816,0.0,0.0,0.0,193.0,1.0,154.0,0.0,2.0,3.0,249.0,410.0,2.0,1017.0,1744252758.624345,0.0,2025-04-09 22:39:18.624,STOP,23
62.0,13487.400232243566,1835.8381790921903,-61176.76927766434,-58368.8760839553,-35051.24569550106,-32426.010957480787,-20216.95169412514,-21713.356281919037,0.0,0.0,0.0,193.0,1.0,154.0,0.0,2.0,3.0,252.0,410.0,2.0,1020.0,1744252758.6243541,0.0,2025-04-09 22:39:18.624,STOP,23
63.0,13600.343596976232,1850.2774060103186,-61183.45244925648,-58329.64877243624,-35095.72566696712,-32464.433606199458,-20008.275807890393,-21750.236660270293,0.0,0.0,0.0,193.0,1.0,154.0,0.0,2.0,3.0,251.0,410.0,2.0,1019.0,1744252758.6243658,0.0,2025-04-09 22:39:18.624,STOP,23
64.0,13621.242478041946,1879.3570255466732,-61137.92194580102,-58354.28039482599,-35012.24190142655,-32367.248221307782,-20428.846231561452,-21681.594453048045,0.0,0.0,0.0,193.0,1.0,155.0,0.0,2.0,3.0,251.0,411.0,2.0,1019.0,1744252758.624377,0.0,2025-04-09 22:39:18.624,STOP,23
65.0,13560.982174990437,1879.1558598465754,-61150.66244014054,-58328.19590904664,-35025.20591321062,-32384.101436627083,-20152.153986949204,-21693.10560144253,0.0,0.0,0.0,193.0,1.0,154.0,0.0,2.0,3.0,251.0,410.0,2.0,1019.0,1744252758.6243913,0.0,2025-04-09 22:39:18.624,STOP,23
66.0,13496.05035734777,1850.3221094992293,-61177.35042302018,-58378.59909279336,-35055.17960252519,-32408.37543110555,-20259.82233999042,-21725.001540780253,0.0,0.0,0.0,193.0,1.0,155.0,0.0,2.0,3.0,251.0,411.0,2.0,1019.0,1744252758.6244,0.0,2025-04-09 22:39:18.624,STOP,23
67.0,13595.470916684977,1862.7943829052906,-61168.02974558232,-58311.56621117189,-35091.925870409716,-32455.85053632862,-20014.95897948253,-21761.479587731315,0.0,0.0,0.0,193.0,1.0,154.0,0.0,2.0,3.0,249.0,410.0,2.0,1017.0,1744252758.6244087,0.0,2025-04-09 22:39:18.624,STOP,23
68.0,13633.245364814446,1885.1237756161424,-61146.907347072054,-58366.73031648759,-35027.17286672269,-32380.748674958788,-20405.108678949917,-21696.34660438855,0.0,0.0,0.0,193.0,1.0,155.0,0.0,2.0,3.0,252.0,411.0,2.0,1020.0,1744252758.6244175,0.0,2025-04-09 22:39:18.624,STOP,23
69.0,13569.744058816917,1888.6553512400808,-61138.41368417903,-58319.635190920264,-35012.867750271296,-32381.620392992547,-20179.311356462404,-21681.616804792502,0.0,0.0,0.0,193.0,1.0,154.0,0.0,2.0,3.0,249.0,410.0,2.0,1017.0,1744252758.6244261,0.0,2025-04-09 22:39:18.624,STOP,23
70.0,13483.086345563692,1847.7293071424137,-61189.2415510704,-58398.58155233641,-35051.871544345806,-32423.149934190507,-20241.605668259344,-21732.802299595154,0.0,0.0,0.0,193.0,1.0,155.0,0.0,2.0,3.0,251.0,411.0,2.0,1019.0,1744252758.6244347,0.0,2025-04-09 22:39:18.624,STOP,23
71.0,13546.945279472504,1838.229815748908,-61184.167705079046,-58330.29697302544,-35101.5371205255,-32464.321847477182,-20049.514776410437,-21753.74588414978,0.0,0.0,0.0,193.0,1.0,155.0,0.0,2.0,3.0,249.0,411.0,2.0,1017.0,1744252758.6244433,0.0,2025-04-09 22:39:18.624,STOP,23
72.0,13627.880946145171,1868.5611329747599,-61167.35919324866,-58381.10248817236,-35051.2233437566,-32404.08389617013,-20341.115634574373,-21707.47777312729,0.0,0.0,0.0,193.0,1.0,155.0,0.0,2.0,3.0,252.0,411.0,2.0,1020.0,1744252758.624452,0.0,2025-04-09 22:39:18.624,STOP,23
73.0,13572.962710018483,1874.551400488782,-61134.591535877174,-58321.73625489906,-35009.44793336963,-32375.205442333874,-20236.643580990265,-21667.24463310774,0.0,0.0,0.0,193.0,1.0,154.0,0.0,2.0,3.0,249.0,410.0,2.0,1017.0,1744252758.6244607,0.0,2025-04-09 22:39:18.624,STOP,23
74.0,13502.040624861793,1859.1957520479862,-61174.46704798545,-58387.20451440865,-35030.43622141316,-32402.36281184707,-20204.121792807793,-21696.547770088648,0.0,0.0,0.0,193.0,1.0,155.0,0.0,2.0,3.0,252.0,411.0,2.0,1020.0,1744252758.6244695,0.0,2025-04-09 22:39:18.624,STOP,23
75.0,13533.780101988328,1843.7059931404583,-61166.97921359292,-58330.118159069796,-35072.479852733595,-32448.742681591833,-20087.02100360644,-21738.72551187581,0.0,0.0,0.0,193.0,1.0,154.0,0.0,2.0,3.0,249.0,410.0,2.0,1017.0,1744252758.624478,0.0,2025-04-09 22:39:18.624,STOP,23
76.0,13624.684646688063,1862.2132375494525,-61180.613777710656,-58382.46594458413,-35069.70823642114,-32434.75048956281,-20238.744644969065,-21737.898497330963,0.0,0.0,0.0,193.0,1.0,155.0,0.0,1.0,3.0,253.0,411.0,1.0,1021.0,1744252758.6244867,0.0,2025-04-09 22:39:18.624,STOP,23
77.0,13585.569093891276,1874.7078626999692,-61134.79270157727,-58333.51562422701,-35005.20110192312,-32371.40564577647,-20321.40139596479,-21667.982240674763,0.0,0.0,0.0,193.0,1.0,154.0,0.0,2.0,3.0,249.0,410.0,2.0,1017.0,1744252758.808317,0.0,2025-04-09 22:39:18.808,STOP,23
78.0,13516.569258757741,1867.197676562986,-61181.55255097778,-58385.23756089659,-35032.22436096959,-32401.73696300232,-20181.591234396845,-21696.860694511022,0.0,0.0,0.0,193.0,1.0,155.0,0.0,2.0,3.0,252.0,411.0,2.0,1020.0,1744252758.8083563,0.0,2025-04-09 22:39:18.808,STOP,23
79.0,13507.561505742253,1833.2677284798299,-61194.516562761855,-58365.99270892057,-35082.85106216086,-32449.882620559052,-20168.89544354623,-21744.24639275627,0.0,0.0,0.0,193.0,1.0,154.0,0.0,2.0,3.0,251.0,410.0,2.0,1019.0,1744252758.808376,0.0,2025-04-09 22:39:18.808,STOP,23
80.0,13628.260925800912,1864.940150373,-61193.600141239185,-58374.41931658022,-35081.26408830453,-32446.216934468383,-20152.779835793954,-21738.770215364722,0.0,0.0,0.0,193.0,1.0,154.0,0.0,1.0,3.0,251.0,410.0,1.0,1019.0,1744252758.8084197,0.0,2025-04-09 22:39:18.808,STOP,23
81.0,13588.854800326206,1872.2491708098855,-61146.37090520512,-58355.75560996003,-34999.993145465036,-32377.93235515742,-20381.348774593924,-21674.933633200366,0.0,0.0,0.0,193.0,1.0,155.0,0.0,2.0,3.0,252.0,411.0,2.0,1020.0,1744252758.8084304,0.0,2025-04-09 22:39:18.808,STOP,23
82.0,13520.659627993064,1864.0460805947878,-61184.14535333459,-58380.29782537196,-35026.68112834467,-32405.46970432636,-20154.14329220573,-21703.208589936326,0.0,0.0,0.0,193.0,1.0,154.0,0.0,2.0,3.0,250.0,410.0,2.0,1018.0,1744252758.80844,0.0,2025-04-09 22:39:18.808,STOP,23
83.0,13489.76951715583,1831.1443127565758,-61193.2425133279,-58382.197723650665,-35060.544021194466,-32436.538629119234,-20217.6222464588,-21733.15992750644,0.0,0.0,0.0,193.0,1.0,155.0,0.0,2.0,3.0,252.0,411.0,2.0,1020.0,1744252758.8084493,0.0,2025-04-09 22:39:18.808,STOP,23
84.0,13612.145318048635,1856.3794322466174,-61194.40480403958,-58359.197778606154,-35087.857852918845,-32459.38211195256,-20065.429218462614,-21747.330933491103,0.0,0.0,0.0,193.0,1.0,154.0,0.0,2.0,3.0,250.0,410.0,2.0,1018.0,1744252758.8084583,0.0,2025-04-09 22:39:18.808,STOP,23
85.0,13599.49423068693,1869.65636845307,-61152.13765527459,-58372.85469446835,-35013.65006132723,-32375.11603535605,-20439.262144477623,-21679.04635418014,0.0,0.0,0.0,193.0,1.0,155.0,0.0,2.0,3.0,253.0,411.0,2.0,1021.0,1744252758.8084671,0.0,2025-04-09 22:39:18.808,STOP,23
86.0,13537.982229945927,1869.7904789198017,-61176.25518754187,-58367.15499963224,-35032.44787841414,-32402.02753568024,-20162.346382420827,-21701.174581190895,0.0,0.0,0.0,193.0,1.0,154.0,0.0,2.0,3.0,249.0,410.0,2.0,1017.0,1744252758.808476,0.0,2025-04-09 22:39:18.808,STOP,23
87.0,13471.642252402575,1828.1491789995646,-61207.19000186802,-58407.924581518724,-35070.91523062172,-32437.56680936418,-20257.855386478353,-21734.903363573954,0.0,0.0,0.0,193.0,1.0,155.0,0.0,2.0,3.0,253.0,411.0,2.0,1021.0,1744252758.8084853,0.0,2025-04-09 22:39:18.808,STOP,23
88.0,13589.480649170953,1847.4163827200393,-61200.663292487065,-58352.51460701402,-35107.54973978397,-32474.983629582362,-20035.96961927052,-21769.012125612753,0.0,0.0,0.0,193.0,1.0,154.0,0.0,3.0,3.0,249.0,410.0,3.0,1017.0,1744252758.808494,0.0,2025-04-09 22:39:18.808,STOP,23
89.0,13616.034521583859,1877.0994993566871,-61154.41753320903,-58381.504819572554,-35019.573273607886,-32375.563070245156,-20445.23006024719,-21684.18725540486,0.0,0.0,0.0,193.0,1.0,154.0,0.0,12.0,3.0,251.0,410.0,12.0,1019.0,1744252758.808503,0.0,2025-04-09 22:39:18.808,STOP,23
90.0,13555.193073176513,1886.2413628389077,-61157.41266696605,-58341.20462431963,-35019.014479996506,-32383.27442208224,-20165.85560630031,-21673.57017678859,0.0,0.0,0.0,193.0,1.0,154.0,0.0,23.0,3.0,250.0,410.0,23.0,1018.0,1744252758.8085127,0.0,2025-04-09 22:39:18.808,STOP,23
91.0,13482.482848463398,1848.3998594760728,-61194.56126625076,-58401.286113415495,-35050.19516351166,-32416.779687020742,-20257.073075422417,-21707.276607427193,0.0,0.0,0.0,193.0,1.0,154.0,0.0,32.0,3.0,249.0,410.0,32.0,1017.0,1744252758.8085215,0.0,2025-04-09 22:39:18.808,STOP,23
92.0,13567.397125649111,1845.8964640970785,-61189.37566153713,-58334.230880049574,-35098.27376583502,-32466.400559711525,-20025.06196797633,-21749.655514914455,0.0,0.0,0.0,193.0,1.0,154.0,0.0,39.0,3.0,251.0,410.0,39.0,1019.0,1744252758.8085303,0.0,2025-04-09 22:39:18.808,STOP,23
93.0,13623.567059465297,1874.9313801445223,-61167.42624848202,-58388.52326733152,-35038.34873895034,-32396.573710033146,-20405.689824305755,-21708.997691750254,0.0,0.0,0.0,193.0,1.0,154.0,0.0,39.0,3.0,249.0,410.0,39.0,1017.0,1744252758.8085427,0.0,2025-04-09 22:39:18.808,STOP,23
94.0,13576.918968787071,1889.907048929578,-61136.46908241142,-58317.623533919286,-35004.329383889366,-32368.54462248619,-20211.497868478047,-21663.355429572515,0.0,0.0,0.0,193.0,1.0,155.0,0.0,39.0,3.0,252.0,411.0,39.0,1020.0,1744252758.8085515,0.0,2025-04-09 22:39:18.808,STOP,23
95.0,13494.642197447087,1857.4746677249275,-61181.28433004431,-58391.47369759962,-35035.286549959965,-32396.84193096661,-20239.348142069357,-21686.131857172473,0.0,0.0,0.0,193.0,1.0,154.0,0.0,39.0,3.0,250.0,410.0,39.0,1018.0,1744252758.808566,0.0,2025-04-09 22:39:18.808,STOP,23
96.0,13543.704276526485,1839.1909407604865,-61175.070545085735,-58329.78288290297,-35082.538137738484,-32449.681454858957,-20061.092980038284,-21729.740110604776,0.0,0.0,0.0,193.0,1.0,155.0,0.0,38.0,3.0,252.0,411.0,38.0,1020.0,1744252758.808575,0.0,2025-04-09 22:39:18.808,STOP,23
97.0,13627.165690322601,1872.6962056989917,-61167.605062437666,-58383.40471785125,-35051.51391643452,-32407.056678182686,-20335.371236249357,-21712.95395051884,0.0,0.0,0.0,193.0,1.0,154.0,0.0,38.0,3.0,250.0,410.0,38.0,1018.0,1744252758.8085835,0.0,2025-04-09 22:39:18.808,STOP,23
98.0,13579.489419399431,1882.3745110481395,-61127.684846840486,-58323.8149671334,-35002.80946526641,-32368.969305630842,-20304.235256223114,-21666.70819124081,0.0,0.0,0.0,193.0,1.0,155.0,0.0,39.0,3.0,252.0,411.0,39.0,1020.0,1744252758.8085923,0.0,2025-04-09 22:39:18.808,STOP,23
99.0,13503.806412673763,1858.5028479698717,-61165.81692288124,-58387.65154929776,-35014.83470378336,-32398.160683889473,-20205.932284108672,-21683.695517026845,0.0,0.0,0.0,193.0,1.0,154.0,0.0,39.0,3.0,249.0,410.0,39.0,1017.0,1744252758.8086014,0.0,2025-04-09 22:39:18.808,STOP,23
100.0,13514.647008734586,1829.1550075000534,-61165.59340543669,-58344.13270284328,-35061.81807062842,-32447.938018791443,-20109.640968995212,-21728.19784023736,0.0,0.0,0.0,193.0,1.0,154.0,0.0,39.0,3.0,252.0,410.0,39.0,1020.0,1744252758.8086104,0.0,2025-04-09 22:39:18.808,STOP,23
101.0,13623.74587342094,1857.8993508695783,-61167.42624848202,-58375.64866252526,-35057.01244557052,-32431.80005929471,-20213.53187722348,-21719.033625010685,0.0,0.0,0.0,193.0,1.0,154.0,0.0,39.0,3.0,248.0,410.0,39.0,1016.0,1744252758.8086195,0.0,2025-04-09 22:39:18.808,STOP,23
102.0,13585.099707257714,1874.685510955514,-61115.50314611234,-58329.04527533594,-34985.531566802456,-32366.26474455175,-20348.379951522347,-21648.133891598452,0.0,0.0,0.0,193.0,1.0,154.0,0.0,40.0,3.0,250.0,410.0,40.0,1018.0,1744252758.8086283,0.0,2025-04-09 22:39:18.808,STOP,23
103.0,13521.978380915927,1874.7749179333352,-61151.15417851856,-58364.83041820889,-35006.1622269347,-32393.35505883158,-20185.79336235444,-21679.605147791524,0.0,0.0,0.0,193.0,1.0,154.0,0.0,40.0,3.0,251.0,410.0,40.0,1019.0,1744252758.8086376,0.0,2025-04-09 22:39:18.808,STOP,23
104.0,13504.320502796234,1833.6924116244809,-61163.84996936917,-58346.39022903326,-35050.75395712304,-32431.643597083523,-20184.273443731483,-21708.997691750254,0.0,0.0,0.0,193.0,1.0,155.0,0.0,40.0,3.0,252.0,411.0,40.0,1020.0,1744252758.8086464,0.0,2025-04-09 22:39:18.808,STOP,23
105.0,13620.236649541457,1857.8546473806678,-61173.93060611852,-58345.51851099951,-35066.1766607972,-32443.199448966916,-20125.93539070313,-21719.882991299986,0.0,0.0,0.0,193.0,1.0,154.0,0.0,40.0,3.0,251.0,410.0,40.0,1019.0,1744252758.8086553,0.0,2025-04-09 22:39:18.808,STOP,23
106.0,13587.625454381163,1866.75064167388,-61132.40106492056,-58336.53310972847,-34992.03592443895,-32371.495052754293,-20427.013388516116,-21654.727656212766,0.0,0.0,0.0,193.0,1.0,154.0,0.0,41.0,3.0,252.0,410.0,41.0,1020.0,1744252758.8086643,0.0,2025-04-09 22:39:18.808,STOP,23
107.0,13526.336971084711,1870.684548698014,-61164.07348681373,-58346.99372613356,-35014.47707587208,-32401.915776957965,-20177.120885505785,-21676.364144845506,0.0,0.0,0.0,193.0,1.0,154.0,0.0,41.0,3.0,249.0,410.0,41.0,1017.0,1744252758.8086734,0.0,2025-04-09 22:39:18.808,STOP,23
108.0,13483.533380452798,1836.2852139812965,-61181.373737022135,-58355.95677566013,-35048.0717477884,-32438.12560297556,-20242.76795897102,-21708.52830511669,0.0,0.0,0.0,193.0,1.0,155.0,0.0,41.0,3.0,251.0,411.0,41.0,1019.0,1744252758.808682,0.0,2025-04-09 22:39:18.808,STOP,23
109.0,13604.03163481136,1852.3114147557517,-61185.2405888129,-58321.60214443233,-35081.04057085998,-32467.80871961221,-20067.21735801904,-21727.549639648158,0.0,0.0,0.0,193.0,1.0,154.0,0.0,41.0,3.0,249.0,410.0,41.0,1017.0,1744252758.8086956,0.0,2025-04-09 22:39:18.808,STOP,23
110.0,13604.411614467099,1870.5280864868269,-61139.7324371019,-58334.00736260502,-34995.07576168487,-32378.759369702268,-20470.3310692705,-21656.940478913843,0.0,0.0,0.0,193.0,1.0,155.0,0.0,41.0,3.0,252.0,411.0,41.0,1020.0,1744252758.8087044,0.0,2025-04-09 22:39:18.808,STOP,23
111.0,13538.853947979684,1866.1247928291314,-61163.469989713434,-58318.24938276403,-35010.78903803695,-32404.41917233696,-20182.485304175058,-21671.402057576426,0.0,0.0,0.0,193.0,1.0,155.0,0.0,41.0,3.0,251.0,411.0,41.0,1019.0,1744252758.808713,0.0,2025-04-09 22:39:18.808,STOP,23
112.0,13472.513970436332,1826.6739638655145,-61195.23181858443,-58361.05297339594,-35045.79186985396,-32428.76022204879,-20278.664860566245,-21685.573063561093,0.0,0.0,0.0,193.0,1.0,154.0,0.0,42.0,3.0,250.0,410.0,42.0,1018.0,1744252758.8087218,0.0,2025-04-09 22:39:18.808,STOP,23
113.0,13586.35140494721,1849.0257083208214,-61185.32999579072,-58289.639149861236,-35083.946297639166,-32460.119719519585,-20039.702360594554,-21709.176505705895,0.0,0.0,0.0,193.0,1.0,154.0,0.0,42.0,3.0,251.0,410.0,42.0,1019.0,1744252758.8087306,0.0,2025-04-09 22:39:18.808,STOP,23
114.0,13612.07826281527,1868.5834847192152,-61153.277594241816,-58330.02875209198,-35006.87748275727,-32376.7924161902,-20445.900612580852,-21645.585792730548,0.0,0.0,0.0,193.0,1.0,154.0,0.0,42.0,3.0,252.0,410.0,42.0,1020.0,1744252758.8087394,0.0,2025-04-09 22:39:18.808,STOP,23
115.0,13558.702297055996,1879.7370052024135,-61140.604155135654,-58271.534236852436,-34993.555843061906,-32369.59515447559,-20189.727269378578,-21628.017321588675,0.0,0.0,0.0,193.0,1.0,154.0,0.0,42.0,3.0,249.0,410.0,42.0,1017.0,1744252758.8087482,0.0,2025-04-09 22:39:18.808,STOP,23
116.0,13490.797697400772,1854.166609545542,-61177.86451314265,-58330.25226953653,-35024.69182308815,-32397.490131555813,-20271.020563962527,-21668.04929590813,0.0,0.0,0.0,193.0,1.0,154.0,0.0,42.0,3.0,252.0,410.0,42.0,1020.0,1744252758.8087568,0.0,2025-04-09 22:39:18.808,STOP,23
117.0,13563.776143047351,1844.041269307288,-61184.90531264607,-58270.23783567403,-35087.008486629544,-32456.90106831802,-20057.5837561588,-21715.457345897838,0.0,0.0,0.0,193.0,1.0,154.0,0.0,42.0,3.0,249.0,410.0,42.0,1017.0,1744252758.808766,0.0,2025-04-09 22:39:18.808,STOP,23
118.0,13621.018960597392,1864.6942811839917,-61169.08027757172,-58325.4689962231,-35029.54215163495,-32392.393933820003,-20403.164077182304,-21663.444836550338,0.0,0.0,0.0,193.0,1.0,154.0,0.0,42.0,3.0,253.0,410.0,42.0,1021.0,1744252758.8087747,0.0,2025-04-09 22:39:18.808,STOP,23
119.0,13565.608986092686,1869.5669614752487,-61140.738265602384,-58264.336975137834,-34992.97469770607,-32371.11507309855,-20240.152804869747,-21635.125176325462,0.0,0.0,0.0,193.0,1.0,154.0,0.0,42.0,3.0,249.0,410.0,42.0,1017.0,1744252758.8087835,0.0,2025-04-09 22:39:18.808,STOP,23
120.0,13499.760746927352,1857.6311299361146,-61175.227007296926,-58327.97239160209,-35014.83470378336,-32388.88470994052,-20248.19943287366,-21666.305859840617,0.0,0.0,0.0,193.0,1.0,154.0,0.0,43.0,3.0,252.0,410.0,43.0,1020.0,1744252758.8087924,0.0,2025-04-09 22:39:18.808,STOP,23
121.0,13541.20088114749,1848.3551559871623,-61169.39320199409,-58265.81219027188,-35064.34381775186,-32436.672739585967,-20099.4932770125,-21714.317406930615,0.0,0.0,0.0,193.0,1.0,154.0,0.0,43.0,3.0,249.0,410.0,43.0,1017.0,1744252758.8088012,0.0,2025-04-09 22:39:18.808,STOP,23
122.0,13630.786672924361,1871.2433423093967,-61166.15219904807,-58314.337827484356,-35033.83368657037,-32397.60189027809,-20314.092375527904,-21691.63038630848,0.0,0.0,0.0,193.0,1.0,154.0,0.0,42.0,3.0,252.0,410.0,42.0,1020.0,1744252758.8088098,0.0,2025-04-09 22:39:18.808,STOP,23
123.0,13574.192055963524,1874.394938277595,-61131.730512586895,-58265.34280363832,-34986.93972670314,-32360.565049715646,-20311.901904571285,-21646.703379953313,0.0,0.0,0.0,193.0,1.0,154.0,0.0,43.0,3.0,249.0,410.0,43.0,1017.0,1744252758.8088186,0.0,2025-04-09 22:39:18.808,STOP,23
124.0,13503.00174987337,1853.5184089563381,-61180.323205032735,-58329.760531158514,-35021.02613699748,-32395.187901876918,-20224.461880262123,-21683.919034471397,0.0,0.0,0.0,193.0,1.0,154.0,0.0,43.0,3.0,250.0,410.0,43.0,1018.0,1744252759.2793188,0.0,2025-04-09 22:39:19.279,STOP,23
125.0,13517.955066913972,1830.1608360005423,-61176.81398115325,-58289.75090858351,-35061.9745328396,-32439.332597176148,-20167.95667027911,-21720.732357589288,0.0,0.0,0.0,193.0,1.0,154.0,0.0,43.0,3.0,251.0,410.0,43.0,1019.0,1744252759.2793553,0.0,2025-04-09 22:39:19.279,STOP,23
126.0,13630.809024668817,1866.0130341068548,-61177.305719531265,-58312.996722817035,-35056.45365195914,-32428.737870304332,-20222.13729883877,-21717.983093021285,0.0,0.0,0.0,193.0,1.0,154.0,0.0,43.0,3.0,252.0,410.0,43.0,1020.0,1744252759.2793753,0.0,2025-04-09 22:39:19.279,STOP,23
127.0,13594.018053295382,1891.1140431301646,-61119.369997903115,-58268.449696117605,-34975.13800563073,-32342.884819851497,-20392.32348112148,-21623.524620953158,0.0,0.0,0.0,193.0,1.0,154.0,0.0,43.0,3.0,249.0,410.0,43.0,1017.0,1744252759.2793925,0.0,2025-04-09 22:39:19.279,STOP,23
128.0,13526.180508873524,1882.262752325863,-61157.47972219941,-58302.3125889674,-35001.35660187681,-32370.623334720534,-20196.164571781705,-21651.598411989024,0.0,0.0,0.0,193.0,1.0,154.0,0.0,43.0,3.0,252.0,410.0,43.0,1020.0,1744252759.2794132,0.0,2025-04-09 22:39:19.279,STOP,23
129.0,13500.364244027645,1843.8848070961008,-61167.64976592657,-58294.958865041604,-35040.69567211815,-32405.536759559724,-20215.38707201327,-21685.126028671984,0.0,0.0,0.0,193.0,1.0,154.0,0.0,43.0,3.0,249.0,410.0,43.0,1017.0,1744252759.2794323,0.0,2025-04-09 22:39:19.279,STOP,23
130.0,13619.007303596414,1863.263769538852,-61176.32224277523,-58294.601237130315,-35063.20387878465,-32426.21212318088,-20119.27457085545,-21714.093889486063,0.0,0.0,0.0,193.0,1.0,154.0,0.0,43.0,3.0,251.0,410.0,43.0,1019.0,1744252759.27945,0.0,2025-04-09 22:39:19.279,STOP,23
131.0,13596.968483563482,1873.3891097771061,-61128.10952998514,-58294.735347597045,-34981.44119756713,-32344.807069874656,-20446.61586840342,-21647.172766586875,0.0,0.0,0.0,193.0,1.0,154.0,0.0,43.0,3.0,249.0,410.0,43.0,1017.0,1744252759.2794719,0.0,2025-04-09 22:39:19.279,STOP,23
132.0,13543.123131170647,1876.1830778340195,-61145.856815082654,-58292.54487664043,-34991.56653780538,-32360.20742180436,-20176.271519216483,-21647.03865612014,0.0,0.0,0.0,193.0,1.0,154.0,0.0,43.0,3.0,251.0,410.0,43.0,1019.0,1744252759.2795007,0.0,2025-04-09 22:39:19.279,STOP,23
133.0,13483.533380452798,1833.9606325579446,-61178.33389977621,-58330.83341489237,-35040.181581995676,-32411.616434051568,-20263.577433058912,-21702.96272074732,0.0,0.0,0.0,193.0,1.0,153.0,0.0,43.0,3.0,248.0,409.0,43.0,1016.0,1744252759.2795165,0.0,2025-04-09 22:39:19.279,STOP,23
134.0,13585.859666569195,1840.5767489167154,-61193.22016158345,-58307.27467623648,-35090.47300702012,-32454.531783405757,-20078.75085815798,-21739.798395609665,0.0,0.0,0.0,193.0,1.0,154.0,0.0,43.0,3.0,251.0,410.0,43.0,1019.0,1744252759.2795317,0.0,2025-04-09 22:39:19.279,STOP,23
135.0,13608.88196335816,1867.398842263084,-61138.81601557923,-58321.7139031546,-34994.09228492883,-32350.59617168858,-20487.430153778812,-21651.33019105556,0.0,0.0,0.0,193.0,1.0,153.0,0.0,43.0,3.0,250.0,409.0,43.0,1018.0,1744252759.279547,0.0,2025-04-09 22:39:19.279,STOP,23
136.0,13557.115323199669,1881.458089525472,-61145.11920751563,-58292.366062684785,-34997.66856404168,-32368.991657375296,-20194.957577581117,-21667.401095318928,0.0,0.0,0.0,193.0,1.0,154.0,0.0,43.0,3.0,251.0,410.0,43.0,1019.0,1744252759.279563,0.0,2025-04-09 22:39:19.279,STOP,23
137.0,13483.779249641806,1842.2084262619528,-61178.26684454285,-58347.08313311138,-35033.185485981165,-32400.88759671302,-20294.35578517387,-21695.318424143607,0.0,0.0,0.0,193.0,1.0,154.0,0.0,43.0,3.0,251.0,410.0,43.0,1019.0,1744252759.2795784,0.0,2025-04-09 22:39:19.279,STOP,23
138.0,13579.757640332895,1845.6729466525253,-61168.70029791597,-58281.01137650149,-35073.48568123409,-32437.343291919628,-20058.92486082612,-21723.9286570464,0.0,0.0,0.0,193.0,1.0,154.0,0.0,43.0,3.0,250.0,410.0,43.0,1018.0,1744252759.279594,0.0,2025-04-09 22:39:19.279,STOP,23
139.0,13607.876134857672,1858.9498828589778,-61144.56041390424,-58334.253231794035,-35003.614128066794,-32360.945029371385,-20458.864624364927,-21666.462322051804,0.0,0.0,0.0,193.0,1.0,154.0,0.0,43.0,3.0,249.0,410.0,43.0,1017.0,1744252759.279646,0.0,2025-04-09 22:39:19.279,STOP,23
140.0,13549.918061485061,1859.5310282148157,-61136.64789636707,-58286.33109168185,-34988.88432847075,-32363.895459639487,-20218.315150536913,-21657.074589380576,0.0,0.0,0.0,193.0,1.0,155.0,0.0,43.0,3.0,252.0,411.0,43.0,1020.0,1744252759.2796617,0.0,2025-04-09 22:39:19.279,STOP,23
141.0,13470.368202968622,1820.5048823958496,-61184.793553923795,-58362.86346469683,-35024.088325987854,-32404.687393270422,-20284.789238546997,-21702.6721480694,0.0,0.0,0.0,193.0,1.0,154.0,0.0,44.0,3.0,249.0,410.0,44.0,1017.0,1744252759.279677,0.0,2025-04-09 22:39:19.279,STOP,23
142.0,13550.812131263272,1820.750751584858,-61170.331975261215,-58286.286388192944,-35061.41573922822,-32437.99149250883,-20077.49916046848,-21714.63033135299,0.0,0.0,0.0,193.0,1.0,154.0,0.0,44.0,3.0,251.0,410.0,44.0,1019.0,1744252759.279692,0.0,2025-04-09 22:39:19.279,STOP,23
143.0,13613.240553526944,1846.0305745638102,-61161.368925734634,-58345.18323483268,-35015.371145650286,-32382.626221493036,-20380.27589086007,-21677.43702857936,0.0,0.0,0.0,193.0,1.0,154.0,0.0,43.0,3.0,248.0,410.0,43.0,1016.0,1744252759.279707,0.0,2025-04-09 22:39:19.279,STOP,23
144.0,13546.855872494683,1846.7234786419249,-61142.213480736435,-58295.808231330906,-34989.73369476005,-32371.852680665575,-20275.669726809232,-21668.317516841595,0.0,0.0,0.0,193.0,1.0,155.0,0.0,43.0,3.0,252.0,411.0,43.0,1020.0,1744252759.2797225,0.0,2025-04-09 22:39:19.279,STOP,23
145.0,13476.29141524928,1828.462103421939,-61178.04332709829,-58355.8226651934,-35012.62188108228,-32387.767122717756,-20257.117778911328,-21675.268909367194,0.0,0.0,0.0,193.0,1.0,154.0,0.0,44.0,3.0,250.0,410.0,44.0,1018.0,1744252759.2797377,0.0,2025-04-09 22:39:19.279,STOP,23
146.0,13499.71604343844,1806.3115246667296,-61176.5904637087,-58303.87721107927,-35061.505146206044,-32437.32094017517,-20127.07532967035,-21717.87133429901,0.0,0.0,0.0,193.0,1.0,155.0,0.0,44.0,3.0,252.0,411.0,44.0,1020.0,1744252759.2797527,0.0,2025-04-09 22:39:19.279,STOP,23
147.0,13607.920838346583,1845.069449552232,-61161.301870501266,-58335.6166882058,-35028.089288245355,-32393.064486153664,-20299.161410231758,-21687.942348473352,0.0,0.0,0.0,193.0,1.0,154.0,0.0,43.0,3.0,251.0,410.0,43.0,1019.0,1744252759.2797685,0.0,2025-04-09 22:39:19.279,STOP,23
148.0,13566.3018901708,1856.5135427133494,-61114.56437284522,-58281.77133581297,-34971.58407826234,-32337.967436071332,-20354.41492252528,-21637.159185070897,0.0,0.0,0.0,193.0,1.0,155.0,0.0,44.0,3.0,251.0,411.0,44.0,1019.0,1744252759.2797837,0.0,2025-04-09 22:39:19.279,STOP,23
149.0,13489.367185755633,1838.6321471491037,-61165.81692288124,-58341.53990048646,-35004.64230831174,-32377.150044101483,-20229.8262989314,-21676.788827990156,0.0,0.0,0.0,193.0,1.0,155.0,0.0,44.0,3.0,252.0,411.0,44.0,1020.0,1744252759.279799,0.0,2025-04-09 22:39:19.279,STOP,23
150.0,13472.513970436332,1796.655571062037,-61183.96653937895,-58325.62545843428,-35057.68299790419,-32437.075070986164,-20194.175266525184,-21732.645837383967,0.0,0.0,0.0,193.0,1.0,154.0,0.0,44.0,3.0,250.0,410.0,44.0,1018.0,1744252759.2798142,0.0,2025-04-09 22:39:19.279,STOP,23
151.0,13589.54770440432,1825.4669696649278,-61185.75467893537,-58339.93057488568,-35059.15821303823,-32433.767012806777,-20206.893409120254,-21733.316389717627,0.0,0.0,0.0,193.0,1.0,154.0,0.0,44.0,3.0,250.0,410.0,44.0,1018.0,1744252759.2798295,0.0,2025-04-09 22:39:19.279,STOP,23
152.0,13563.686736069529,1843.974214073922,-61127.70719858494,-58303.74310061254,-34974.601563763805,-32351.177317044418,-20422.096004735948,-21645.317571797084,0.0,0.0,0.0,193.0,1.0,154.0,0.0,44.0,3.0,252.0,410.0,44.0,1020.0,1744252759.2798448,0.0,2025-04-09 22:39:19.279,STOP,23
153.0,13498.084366093204,1841.2920047392852,-61163.738210646894,-58325.62545843428,-34999.859034998306,-32379.31816331365,-20191.247188001536,-21664.51772028419,0.0,0.0,0.0,193.0,1.0,154.0,0.0,44.0,3.0,252.0,410.0,44.0,1020.0,1744252759.27986,0.0,2025-04-09 22:39:19.279,STOP,23
154.0,13462.478037175899,1810.0666177352211,-61177.14925732008,-58323.546746199936,-35044.16019250872,-32418.746640532812,-20238.297610079957,-21703.566217847612,0.0,0.0,0.0,193.0,1.0,155.0,0.0,44.0,3.0,252.0,411.0,44.0,1020.0,1744252759.279884,0.0,2025-04-09 22:39:19.279,STOP,23
155.0,13599.963617320493,1853.3395950006957,-61170.041402583294,-58297.261094720496,-35064.90261136325,-32430.973044749862,-20123.610809279777,-21726.72262510331,0.0,0.0,0.0,193.0,1.0,154.0,0.0,44.0,3.0,251.0,410.0,44.0,1019.0,1744252759.2798991,0.0,2025-04-09 22:39:19.279,STOP,23
156.0,13592.296968972323,1875.0654906112543,-61113.625599578096,-58294.40007143022,-34976.72497948706,-32337.6321599045,-20480.277595553114,-21647.977429387265,0.0,0.0,0.0,193.0,1.0,155.0,0.0,44.0,3.0,252.0,411.0,44.0,1020.0,1744252759.2799144,0.0,2025-04-09 22:39:19.279,STOP,23
157.0,13515.474023279432,1853.876036867623,-61153.2328907529,-58306.93940006965,-35005.9610612346,-32375.853642923077,-20187.536798421956,-21673.078438410575,0.0,0.0,0.0,193.0,1.0,154.0,0.0,44.0,3.0,250.0,410.0,44.0,1018.0,1744252759.27993,0.0,2025-04-09 22:39:19.279,STOP,23
158.0,13453.269118460312,1809.26195493483,-61181.06081259976,-58345.18323483268,-35041.857962829825,-32409.493018328314,-20284.364555402346,-21698.268854411705,0.0,0.0,0.0,193.0,1.0,155.0,0.0,44.0,3.0,249.0,411.0,44.0,1017.0,1744252759.2799451,0.0,2025-04-09 22:39:19.279,STOP,23
159.0,13570.794590806318,1830.6749261230143,-61174.33293751871,-58291.181420228655,-35075.78791091298,-32437.76797506428,-20076.24746277898,-21727.840212326075,0.0,0.0,0.0,193.0,1.0,154.0,0.0,44.0,3.0,249.0,410.0,44.0,1017.0,1744252759.2799609,0.0,2025-04-09 22:39:19.279,STOP,23
160.0,13585.524390402365,1860.6486154375812,-61130.702332341956,-58321.44568222114,-34984.36927609078,-32345.11999429703,-20480.47876125321,-21652.93951665634,0.0,0.0,0.0,193.0,1.0,154.0,0.0,44.0,3.0,251.0,410.0,44.0,1019.0,1744252759.279976,0.0,2025-04-09 22:39:19.279,STOP,23
161.0,13526.471081551443,1868.717595185947,-61137.6313731231,-58289.706205094604,-34986.917374958684,-32360.989732860296,-20196.611606670813,-21660.092074882043,0.0,0.0,0.0,193.0,1.0,154.0,0.0,44.0,3.0,249.0,410.0,44.0,1017.0,1744252759.2799911,0.0,2025-04-09 22:39:19.279,STOP,23
162.0,13456.890101062072,1828.6632691220368,-61173.86355088515,-58350.07826686839,-35022.32253817589,-32395.478474554835,-20298.423802664736,-21706.42724113789,0.0,0.0,0.0,193.0,1.0,154.0,0.0,44.0,3.0,250.0,410.0,44.0,1018.0,1744252759.2800064,0.0,2025-04-09 22:39:19.280,STOP,23
163.0,13545.403009105088,1824.528196397805,-61176.7916294088,-58294.48947840804,-35077.06196034693,-32452.229553726862,-20065.36216322925,-21749.58845968109,0.0,0.0,0.0,193.0,1.0,154.0,0.0,44.0,3.0,251.0,410.0,44.0,1019.0,1744252759.2800217,0.0,2025-04-09 22:39:19.280,STOP,23
164.0,13595.202695751512,1854.36777524564,-61152.67409714152,-58347.70898195613,-35014.83470378336,-32380.502805769782,-20471.158083815346,-21702.6721480694,0.0,0.0,0.0,193.0,1.0,154.0,0.0,44.0,3.0,250.0,410.0,44.0,1018.0,1744252759.280037,0.0,2025-04-09 22:39:19.280,STOP,23
165.0,13533.377770588133,1857.362909002651,-61139.46421616843,-58290.1085364948,-34998.18265416416,-32369.72926494232,-20258.59299404538,-21664.9647551733,0.0,0.0,0.0,193.0,1.0,155.0,0.0,44.0,3.0,251.0,411.0,44.0,1019.0,1744252759.280052,0.0,2025-04-09 22:39:19.280,STOP,23
166.0,13458.298260962756,1835.3911442030842,-61181.77606842233,-58361.90233968524,-35024.49065738805,-32402.720439758355,-20297.529732886524,-21702.426278880394,0.0,0.0,0.0,193.0,1.0,154.0,0.0,44.0,3.0,250.0,410.0,44.0,1018.0,1744252759.2800672,0.0,2025-04-09 22:39:19.280,STOP,23
167.0,13522.559526271765,1823.9917545308776,-61173.57297820723,-58293.01426327399,-35069.90940212124,-32450.396710681525,-20104.634178237222,-21746.906250346452,0.0,0.0,0.0,193.0,1.0,154.0,0.0,44.0,3.0,251.0,410.0,44.0,1019.0,1744252759.2800825,0.0,2025-04-09 22:39:19.280,STOP,23
168.0,13602.69053014404,1851.4173449775394,-61161.88301585711,-58345.294993554955,-35026.45761090012,-32393.533872787226,-20376.27492860257,-21705.130839959485,0.0,0.0,0.0,193.0,1.0,154.0,0.0,44.0,3.0,250.0,410.0,44.0,1018.0,1744252759.2800975,0.0,2025-04-09 22:39:19.280,STOP,23
169.0,13551.572090574753,1861.6991474269805,-61119.369997903115,-58280.02789974546,-34978.379008576754,-32352.11609031154,-20301.821267821942,-21652.17955734486,0.0,0.0,0.0,193.0,1.0,154.0,0.0,44.0,3.0,249.0,410.0,44.0,1017.0,1744252759.280121,0.0,2025-04-09 22:39:19.280,STOP,23
170.0,13470.122333779615,1836.5534349147601,-61163.78291413581,-58348.088961611866,-35006.765724034994,-32379.65343948048,-20255.933136455194,-21678.264043124207,0.0,0.0,0.0,193.0,1.0,154.0,0.0,44.0,3.0,252.0,410.0,44.0,1020.0,1744252759.280136,0.0,2025-04-09 22:39:19.280,STOP,23
171.0,13481.745240896375,1806.4232833890062,-61170.041402583294,-58308.07933903686,-35060.387558983275,-32437.52210587527,-20155.149120706217,-21728.06372977063,0.0,0.0,0.0,193.0,1.0,154.0,0.0,44.0,3.0,249.0,410.0,44.0,1017.0,1744252759.2801511,0.0,2025-04-09 22:39:19.280,STOP,23
172.0,13581.814000822784,1835.5699581587266,-61174.06471658525,-58346.23376682208,-35048.51878267751,-32420.579483578145,-20278.53075009951,-21722.028758767698,0.0,0.0,0.0,193.0,1.0,155.0,0.0,44.0,3.0,252.0,411.0,44.0,1020.0,1744252759.2801664,0.0,2025-04-09 22:39:19.280,STOP,23
173.0,13544.10660792668,1843.9965658183773,-61128.75773057434,-58298.646902876724,-34984.324572601865,-32360.609753204557,-20379.5606350375,-21658.28158358116,0.0,0.0,0.0,193.0,1.0,154.0,0.0,44.0,3.0,250.0,410.0,44.0,1018.0,1744252759.2801814,0.0,2025-04-09 22:39:19.280,STOP,23
174.0,13473.385688470089,1832.0160307903327,-61174.77997240782,-58346.345525544355,-35017.49456137354,-32389.93524192992,-20226.741758196564,-21681.460342581315,0.0,0.0,0.0,193.0,1.0,154.0,0.0,44.0,3.0,251.0,410.0,44.0,1019.0,1744252759.2801971,0.0,2025-04-09 22:39:19.280,STOP,23
175.0,13455.593699883664,1805.2833444217856,-61185.218237068446,-58327.391246246254,-35064.34381775186,-32433.27527442876,-20220.840897660364,-21719.033625010685,0.0,0.0,0.0,193.0,1.0,154.0,0.0,44.0,3.0,250.0,410.0,44.0,1018.0,1744252759.2802122,0.0,2025-04-09 22:39:19.280,STOP,23
176.0,13579.802343821806,1838.3862779600952,-61188.5933504812,-58332.30863002642,-35075.56439346843,-32437.499754130815,-20189.14612402274,-21730.12009026052,0.0,0.0,0.0,193.0,1.0,154.0,0.0,44.0,3.0,252.0,410.0,44.0,1020.0,1744252759.2802272,0.0,2025-04-09 22:39:19.280,STOP,23
177.0,13554.477817353943,1849.5845019322041,-61133.831576565695,-58308.59342915934,-34994.38285760675,-32353.479546723313,-20460.85392962145,-21662.327249327573,0.0,0.0,0.0,193.0,1.0,154.0,0.0,44.0,3.0,249.0,410.0,44.0,1017.0,1744252759.2802427,0.0,2025-04-09 22:39:19.280,STOP,23
178.0,13494.083403835702,1848.332804242707,-61161.97242283493,-58321.669199665695,-35013.761820049505,-32377.26180282376,-20214.783574912977,-21685.595415305546,0.0,0.0,0.0,193.0,1.0,155.0,0.0,44.0,3.0,251.0,411.0,44.0,1019.0,1744252759.2802577,0.0,2025-04-09 22:39:19.280,STOP,23
179.0,13454.945499294461,1810.781873557791,-61178.66917594304,-58333.44856899364,-35055.000788569545,-32415.7515067758,-20287.96318625965,-21731.12591876101,0.0,0.0,0.0,193.0,1.0,154.0,0.0,44.0,3.0,250.0,410.0,44.0,1018.0,1744252759.2802727,0.0,2025-04-09 22:39:19.280,STOP,23
180.0,13574.907311786093,1832.1948447459752,-61181.53019923332,-58308.25815299251,-35088.081370363405,-32445.255809456805,-20133.713797773577,-21765.21232905535,0.0,0.0,0.0,193.0,1.0,154.0,0.0,44.0,3.0,251.0,410.0,44.0,1019.0,1744252759.2802875,0.0,2025-04-09 22:39:19.280,STOP,23
181.0,13559.439904623021,1842.2531297508633,-61136.96082078944,-58322.49621421054,-35001.177787921166,-32357.54756421418,-20504.77510747613,-21681.549749559137,0.0,0.0,0.0,193.0,1.0,154.0,0.0,44.0,3.0,250.0,410.0,44.0,1018.0,1744252759.2803028,0.0,2025-04-09 22:39:19.280,STOP,23
182.0,13503.404081273566,1850.299757754774,-61151.735323874396,-58303.58663840135,-35007.257462413014,-32370.17629983143,-20211.542571966955,-21676.073572167585,0.0,0.0,0.0,193.0,1.0,154.0,0.0,44.0,3.0,249.0,410.0,44.0,1017.0,1744252759.280318,0.0,2025-04-09 22:39:19.280,STOP,23
183.0,13448.865824802617,1818.0014870168552,-61173.192998551494,-58339.30472604093,-35034.526590648486,-32393.489169298315,-20306.425727179736,-21695.7207555438,0.0,0.0,0.0,193.0,1.0,154.0,0.0,44.0,3.0,252.0,410.0,44.0,1020.0,1744252759.2803411,0.0,2025-04-09 22:39:19.280,STOP,23
184.0,13547.39231436161,1828.8644348221344,-61179.831466654716,-58289.214466716585,-35083.49926275006,-32437.723271575367,-20079.35435525827,-21734.076349029106,0.0,0.0,0.0,193.0,1.0,154.0,0.0,44.0,3.0,250.0,410.0,44.0,1018.0,1744252759.2803564,0.0,2025-04-09 22:39:19.280,STOP,23
185.0,13567.68769832703,1848.8915978540897,-61151.735323874396,-58334.74497017205,-35011.794866537435,-32358.486337481303,-20509.625436022932,-21682.57792980408,0.0,0.0,0.0,193.0,1.0,154.0,0.0,44.0,3.0,252.0,410.0,44.0,1020.0,1744252759.2803714,0.0,2025-04-09 22:39:19.280,STOP,23
186.0,13513.797642445285,1853.4513537229723,-61146.19209124948,-58289.01330101649,-35003.54707283343,-32362.777872416722,-20240.04104614747,-21671.84909246553,0.0,0.0,0.0,193.0,1.0,154.0,0.0,44.0,3.0,249.0,410.0,44.0,1017.0,1744252759.2803867,0.0,2025-04-09 22:39:19.280,STOP,23
187.0,13439.343981664657,1816.7274375829027,-61179.5408939768,-58353.11810411431,-35029.98918652406,-32396.08197165513,-20329.179803035237,-21715.971436020307,0.0,0.0,0.0,193.0,1.0,154.0,0.0,44.0,3.0,253.0,410.0,44.0,1021.0,1744252759.280402,0.0,2025-04-09 22:39:19.280,STOP,23
188.0,13511.316598810745,1810.8265770467017,-61182.58073122272,-58293.99774003003,-35084.21451857263,-32450.84374557063,-20097.16869558915,-21757.54568070718,0.0,0.0,0.0,193.0,1.0,154.0,0.0,44.0,3.0,249.0,410.0,44.0,1017.0,1744252759.2804172,0.0,2025-04-09 22:39:19.280,STOP,23
189.0,13572.962710018483,1849.0480600652768,-61157.92675708852,-58344.17740633219,-35019.99795675254,-32373.238488821804,-20459.24460402067,-21692.077421197584,0.0,0.0,0.0,193.0,1.0,154.0,0.0,44.0,3.0,252.0,410.0,44.0,1020.0,1744252759.2804394,0.0,2025-04-09 22:39:19.280,STOP,23
190.0,13511.71893021094,1857.2735020248297,-61131.90932654254,-58284.38648991424,-34989.24195638204,-32355.044168835186,-20279.134247199803,-21658.929784170366,0.0,0.0,0.0,193.0,1.0,154.0,0.0,44.0,3.0,249.0,410.0,44.0,1017.0,1744252759.2804549,0.0,2025-04-09 22:39:19.280,STOP,23
191.0,13441.825025299195,1846.7905338752907,-61167.046268826285,-58349.40771453473,-35009.35852639181,-32380.391047047502,-20298.602616620377,-21693.28441539817,0.0,0.0,0.0,193.0,1.0,155.0,0.0,44.0,3.0,252.0,411.0,44.0,1020.0,1744252759.2804692,0.0,2025-04-09 22:39:19.280,STOP,23
192.0,13485.477982220411,1823.231795219397,-61161.34657399018,-58290.04148126143,-35055.31371299192,-32435.063413985186,-20121.71091100108,-21734.76925310722,0.0,0.0,0.0,193.0,1.0,153.0,0.0,44.0,3.0,249.0,409.0,44.0,1017.0,1744252759.2804778,0.0,2025-04-09 22:39:19.280,STOP,23
193.0,13563.39616339161,1835.7934756032796,-61160.83248386771,-58347.70898195613,-35028.31280568991,-32397.244262366807,-20362.34979180691,-21710.852886540044,0.0,0.0,0.0,193.0,1.0,155.0,0.0,44.0,3.0,252.0,411.0,44.0,1020.0,1744252759.2804866,0.0,2025-04-09 22:39:19.280,STOP,23
194.0,13508.299113309278,1844.8012286187684,-61124.890878783575,-58293.03661501844,-34982.46937781208,-32356.474680480325,-20353.520852747068,-21668.116351141496,0.0,0.0,0.0,193.0,1.0,154.0,0.0,44.0,3.0,249.0,410.0,44.0,1017.0,1744252759.2804952,0.0,2025-04-09 22:39:19.280,STOP,23
195.0,13443.099074733147,1839.1462372715757,-61163.62645192462,-58345.67497321069,-35005.33521238985,-32375.25014582278,-20280.453000122667,-21695.363127632514,0.0,0.0,0.0,193.0,1.0,155.0,0.0,44.0,3.0,252.0,411.0,44.0,1020.0,1744252759.2805037,0.0,2025-04-09 22:39:19.280,STOP,23
196.0,13453.716153349418,1817.8673765501235,-61164.20759728046,-58299.563324399394,-35052.72091063511,-32418.344309132615,-20202.04308057345,-21732.891706572977,0.0,0.0,0.0,193.0,1.0,154.0,0.0,44.0,3.0,249.0,410.0,44.0,1017.0,1744252759.2805123,0.0,2025-04-09 22:39:19.280,STOP,23
197.0,13551.616794063664,1839.9061965830563,-61173.05888808476,-58333.38151376027,-35051.13393677878,-32408.442486338914,-20275.513264598045,-21728.86839257102,0.0,0.0,0.0,193.0,1.0,155.0,0.0,44.0,3.0,252.0,411.0,44.0,1020.0,1744252759.2805212,0.0,2025-04-09 22:39:19.280,STOP,23
198.0,13510.042549376793,1852.043193822288,-61120.5769921037,-58292.70133885161,-34975.04859865292,-32343.39890997397,-20428.57801062799,-21670.99972617623,0.0,0.0,0.0,193.0,1.0,154.0,0.0,44.0,3.0,250.0,410.0,44.0,1018.0,1744252759.2805345,0.0,2025-04-09 22:39:19.280,STOP,23
199.0,13443.881385789084,1847.7963623757796,-61155.11043728715,-58322.07153106589,-34993.46643608408,-32361.704988682868,-20232.352046054846,-21675.067743667096,0.0,0.0,0.0,193.0,1.0,155.0,0.0,44.0,3.0,251.0,411.0,44.0,1019.0,1744252759.2805433,0.0,2025-04-09 22:39:19.280,STOP,23
200.0,13415.248801141835,1805.6186205886152,-61169.32614676072,-58314.9636763291,-35044.16019250872,-32405.737925259822,-20241.650371748256,-21709.847058039555,0.0,0.0,0.0,193.0,1.0,154.0,0.0,44.0,3.0,250.0,410.0,44.0,1018.0,1744252759.2805521,0.0,2025-04-09 22:39:19.280,STOP,23
201.0,13531.477872309431,1831.233719734397,-61176.70222243098,-58316.483594952064,-35070.84817538836,-32424.04400396872,-20176.7632575945,-21729.516593160224,0.0,0.0,0.0,193.0,1.0,155.0,0.0,44.0,3.0,251.0,411.0,44.0,1019.0,1744252759.2805607,0.0,2025-04-09 22:39:19.280,STOP,23
202.0,13517.753901213873,1856.647653180081,-61116.86660252412,-58299.04923427692,-34979.31778184388,-32334.21234300284,-20488.614796234942,-21655.42056029088,0.0,0.0,0.0,193.0,1.0,154.0,0.0,44.0,3.0,249.0,410.0,44.0,1017.0,1744252759.2805693,0.0,2025-04-09 22:39:19.280,STOP,23
203.0,13445.401304412044,1848.5339699428048,-61152.96466981944,-58314.181365273165,-35001.311898387896,-32370.332762042617,-20213.062490589917,-21684.924862971886,0.0,0.0,0.0,193.0,1.0,155.0,0.0,44.0,3.0,251.0,411.0,44.0,1019.0,1744252759.280578,0.0,2025-04-09 22:39:19.280,STOP,23
204.0,13391.958283419406,1803.3163909097186,-61178.4903619874,-58343.66331620971,-35039.98041629558,-32414.097477686108,-20295.249854952082,-21738.54669792017,0.0,0.0,0.0,193.0,1.0,154.0,0.0,44.0,3.0,250.0,410.0,44.0,1018.0,1744252759.2805867,0.0,2025-04-09 22:39:19.280,STOP,23
205.0,13512.14361335559,1818.4485219059613,-61182.37956552262,-58312.54968792793,-35077.7772161695,-32446.775728079767,-20116.32414058735,-21763.066561587642,0.0,0.0,0.0,193.0,1.0,154.0,0.0,44.0,3.0,251.0,410.0,44.0,1019.0,1744252759.2805953,0.0,2025-04-09 22:39:19.280,STOP,23
206.0,13513.39531104509,1836.620490148126,-61138.86071906814,-58335.21435680561,-34994.42756109566,-32355.178279301916,-20525.897505986395,-21677.705249512823,0.0,0.0,0.0,193.0,1.0,154.0,0.0,44.0,3.0,252.0,410.0,44.0,1020.0,1744252759.280604,0.0,2025-04-09 22:39:19.280,STOP,23
207.0,13454.140836494069,1849.3833362321063,-61144.56041390424,-58306.693530880635,-34991.58888954984,-32371.11507309855,-20224.61834247331,-21679.202816391327,0.0,0.0,0.0,193.0,1.0,154.0,0.0,44.0,3.0,251.0,410.0,44.0,1019.0,1744252759.2806127,0.0,2025-04-09 22:39:19.280,STOP,23
208.0,13382.972882148371,1812.8605857921345,-61174.91408287455,-58356.31440357142,-35022.65781434272,-32405.872035726552,-20317.10986102937,-21711.702252829346,0.0,0.0,0.0,193.0,1.0,154.0,0.0,44.0,3.0,250.0,410.0,44.0,1018.0,1744252759.2806215,0.0,2025-04-09 22:39:19.280,STOP,23
209.0,13486.215589787435,1817.4873968943832,-61168.63324268261,-58294.69064410814,-35066.86956487531,-32444.719367589878,-20089.12206758524,-21746.749788135265,0.0,0.0,0.0,193.0,1.0,154.0,0.0,44.0,3.0,250.0,410.0,44.0,1018.0,1744252759.2806304,0.0,2025-04-09 22:39:19.280,STOP,23
210.0,13510.154308099069,1833.4018389465618,-61142.45934992545,-58342.769246431504,-34998.76379951999,-32364.16368057295,-20507.770241233142,-21690.266929896705,0.0,0.0,0.0,193.0,1.0,154.0,0.0,44.0,3.0,251.0,410.0,44.0,1019.0,1744252759.2806392,0.0,2025-04-09 22:39:19.280,STOP,23
211.0,13444.104903233636,1834.1841500024975,-61138.81601557923,-58298.177516243166,-34990.270136626976,-32372.098549854585,-20246.61245901733,-21681.236825136762,0.0,0.0,0.0,193.0,1.0,154.0,0.0,44.0,3.0,250.0,410.0,44.0,1018.0,1744252759.2806478,0.0,2025-04-09 22:39:19.280,STOP,23
212.0,13365.180893561948,1806.3115246667296,-61179.429135254526,-58367.087944398874,-35018.83566604086,-32400.239396123816,-20318.272151741046,-21711.568142362612,0.0,0.0,0.0,193.0,1.0,154.0,0.0,44.0,3.0,250.0,410.0,44.0,1018.0,1744252759.2806563,0.0,2025-04-09 22:39:19.280,STOP,23
213.0,13445.446007900955,1812.3464956696625,-61166.57688219272,-58290.9579027841,-35058.8229368714,-32441.008978010297,-20101.013195635463,-21742.927639833408,0.0,0.0,0.0,193.0,1.0,154.0,0.0,44.0,3.0,251.0,410.0,44.0,1019.0,1744252759.2806697,0.0,2025-04-09 22:39:19.280,STOP,23
214.0,13499.067842849237,1834.1170947691317,-61161.927719346015,-58356.91790067171,-35020.892026530746,-32392.058657653175,-20443.553679413042,-21721.469965156313,0.0,0.0,0.0,193.0,1.0,154.0,0.0,44.0,3.0,251.0,410.0,44.0,1019.0,1744252759.280678,0.0,2025-04-09 22:39:19.280,STOP,23
215.0,13429.285696659768,1833.4241906910172,-61140.44769292447,-58300.72561511107,-34993.488787828544,-32366.197689318386,-20313.801802849986,-21677.079400668074,0.0,0.0,0.0,193.0,1.0,155.0,0.0,44.0,3.0,252.0,411.0,44.0,1020.0,1744252759.2806869,0.0,2025-04-09 22:39:19.280,STOP,23
216.0,13364.085658083637,1821.466007407428,-61174.444696240986,-58362.1258571298,-35007.34686939083,-32383.140311615505,-20303.296482955993,-21697.10656370003,0.0,0.0,0.0,193.0,1.0,154.0,0.0,44.0,3.0,249.0,410.0,44.0,1017.0,1744252759.2806957,0.0,2025-04-09 22:39:19.280,STOP,23
217.0,13397.322702088679,1797.9296204959894,-61173.461219484954,-58304.54776341293,-35058.08532930438,-32433.99053025133,-20151.148158448716,-21737.272648486218,0.0,0.0,0.0,193.0,1.0,154.0,0.0,44.0,3.0,252.0,410.0,44.0,1020.0,1744252759.2807045,0.0,2025-04-09 22:39:19.280,STOP,23
218.0,13481.186447284992,1822.293021952274,-61174.13177181862,-58352.492255269564,-35037.40996568322,-32401.580500791133,-20344.848375898408,-21714.63033135299,0.0,0.0,0.0,193.0,1.0,154.0,0.0,44.0,3.0,249.0,410.0,44.0,1017.0,1744252759.280713,0.0,2025-04-09 22:39:19.280,STOP,23
219.0,13432.347885650146,1833.7594668578467,-61126.09787298416,-58297.28344646496,-34978.669581254675,-32352.049035078173,-20387.562559552498,-21670.731505242766,0.0,0.0,0.0,193.0,1.0,154.0,0.0,44.0,3.0,252.0,410.0,44.0,1020.0,1744252759.280722,0.0,2025-04-09 22:39:19.280,STOP,23
220.0,13369.807704664196,1830.1161325116316,-61163.00060307987,-58344.378572032285,-35001.33425013236,-32378.289983068706,-20280.54240710049,-21710.71877607331,0.0,0.0,0.0,193.0,1.0,154.0,0.0,44.0,3.0,249.0,410.0,44.0,1017.0,1744252759.2807305,0.0,2025-04-09 22:39:19.280,STOP,23
221.0,13359.056515581193,1792.4087396155287,-61181.68666144451,-58322.78678688846,-35065.23788753008,-32434.146992462516,-20238.319961824414,-21754.751712650268,0.0,0.0,0.0,193.0,1.0,155.0,0.0,44.0,3.0,252.0,411.0,44.0,1020.0,1744252759.2807393,0.0,2025-04-09 22:39:19.280,STOP,23
222.0,13477.967796083427,1835.6593651365479,-61171.60602469517,-58328.26296428001,-35053.34675947986,-32406.296718871206,-20265.812607504442,-21721.134688989485,0.0,0.0,0.0,193.0,1.0,154.0,0.0,44.0,3.0,249.0,410.0,44.0,1017.0,1744252759.280748,0.0,2025-04-09 22:39:19.280,STOP,23
223.0,13449.111693991625,1861.229760793419,-61107.18829717497,-58285.77229807047,-34965.14677585921,-32324.511685909238,-20452.874356850905,-21640.757815928202,0.0,0.0,0.0,193.0,1.0,154.0,0.0,44.0,3.0,252.0,410.0,44.0,1020.0,1744252759.2807567,0.0,2025-04-09 22:39:19.280,STOP,23
224.0,13376.69204195643,1847.014051319844,-61150.751847118365,-58320.84218512085,-34996.86390124129,-32363.18020381692,-20228.552249497443,-21677.23586287926,0.0,0.0,0.0,193.0,1.0,153.0,0.0,44.0,3.0,251.0,409.0,44.0,1019.0,1744252759.2807653,0.0,2025-04-09 22:39:19.280,STOP,23
225.0,13335.453073436389,1799.5612978412269,-61176.411649753056,-58331.168691059196,-35052.56444842392,-32417.763163776777,-20275.557968086956,-21735.551564163157,0.0,0.0,0.0,193.0,1.0,154.0,0.0,44.0,3.0,252.0,410.0,44.0,1020.0,1744252759.280774,0.0,2025-04-09 22:39:19.280,STOP,23
226.0,13459.572310396708,1830.786684845291,-61174.26588228535,-58314.44958620663,-35069.484718976586,-32428.983739493342,-20162.74871382102,-21745.408683467947,0.0,0.0,0.0,193.0,1.0,153.0,0.0,44.0,3.0,249.0,409.0,44.0,1017.0,1744252759.2807825,0.0,2025-04-09 22:39:19.280,STOP,23
227.0,13443.814330555717,1849.8750746101232,-61116.911306013026,-58308.81694660389,-34975.42857830865,-32334.97230231432,-20499.187171362304,-21662.684877238855,0.0,0.0,0.0,193.0,1.0,154.0,0.0,44.0,3.0,252.0,410.0,44.0,1020.0,1744252759.2807913,0.0,2025-04-09 22:39:19.280,STOP,23
228.0,13376.401469278511,1852.1326008001092,-61144.247489481866,-58310.58273441586,-34994.65107854022,-32360.49799448228,-20213.19660105665,-21676.43120007887,0.0,0.0,0.0,193.0,1.0,154.0,0.0,44.0,3.0,249.0,410.0,44.0,1017.0,1744252759.2808044,0.0,2025-04-09 22:39:19.280,STOP,23
229.0,13312.609590603066,1810.1560247130424,-61175.91991137504,-58348.26777556751,-35039.39927093974,-32405.380297348536,-20306.6939481132,-21720.19591572236,0.0,0.0,0.0,193.0,1.0,154.0,0.0,44.0,3.0,251.0,410.0,44.0,1019.0,1744252759.2808132,0.0,2025-04-09 22:39:19.280,STOP,23
230.0,13428.905717004029,1819.7896265732797,-61174.35528926317,-58302.849030834324,-35075.72085567962,-32438.393823909024,-20107.02581489394,-21751.466006215338,0.0,0.0,0.0,193.0,1.0,154.0,0.0,44.0,3.0,250.0,410.0,44.0,1018.0,1744252759.2808218,0.0,2025-04-09 22:39:19.280,STOP,23
231.0,13436.214737440914,1835.6370133920925,-61135.038570766286,-58335.1696533167,-34994.09228492883,-32350.21619203284,-20521.404805350878,-21680.09688616954,0.0,0.0,0.0,193.0,1.0,154.0,0.0,44.0,3.0,251.0,410.0,44.0,1019.0,1744252759.2808306,0.0,2025-04-09 22:39:19.280,STOP,23
232.0,13361.537559215732,1832.530120912805,-61148.47196918392,-58308.19109775915,-35003.614128066794,-32365.34832302908,-20235.503642023046,-21681.125066414486,0.0,0.0,0.0,193.0,1.0,154.0,0.0,44.0,3.0,250.0,410.0,44.0,1018.0,1744252759.2808392,0.0,2025-04-09 22:39:19.280,STOP,23
233.0,13290.459011847855,1807.004428744844,-61170.6896031725,-58353.00634539204,-35024.088325987854,-32385.464893038858,-20326.58700067842,-21699.85582826803,0.0,0.0,0.0,193.0,1.0,154.0,0.0,44.0,3.0,252.0,410.0,44.0,1020.0,1744252759.2808478,0.0,2025-04-09 22:39:19.280,STOP,23
234.0,13383.062289126194,1815.3192776822184,-61167.64976592657,-58288.92389403867,-35072.16692831122,-32433.767012806777,-20085.92576812813,-21739.48547118729,0.0,0.0,0.0,193.0,1.0,154.0,0.0,44.0,3.0,249.0,410.0,44.0,1017.0,1744252759.2808564,0.0,2025-04-09 22:39:19.280,STOP,23
235.0,13412.857164485118,1830.6078708896484,-61150.66244014054,-58351.30761281343,-35010.65492757022,-32373.372599288537,-20485.10557235546,-21701.554560846635,0.0,0.0,0.0,193.0,1.0,154.0,0.0,44.0,3.0,251.0,410.0,44.0,1019.0,1744252759.2808647,0.0,2025-04-09 22:39:19.280,STOP,23
236.0,13356.709582413387,1836.3075657257518,-61133.00456202085,-58293.77422258547,-34990.73952326054,-32361.12384332703,-20258.257717878547,-21669.658621508912,0.0,0.0,0.0,193.0,1.0,154.0,0.0,44.0,3.0,250.0,410.0,44.0,1018.0,1744252759.2808735,0.0,2025-04-09 22:39:19.280,STOP,23
237.0,13282.993529199783,1806.1550624555425,-61172.54479796229,-58360.40477280674,-35018.76861080749,-32384.36965756055,-20313.06419528296,-21693.798505520645,0.0,0.0,0.0,193.0,1.0,154.0,0.0,44.0,3.0,250.0,410.0,44.0,1018.0,1744252759.2808824,0.0,2025-04-09 22:39:19.280,STOP,23
238.0,13341.823320606152,1803.1599286985313,-61171.807190395266,-58295.517658652985,-35071.87635563331,-32434.83989654063,-20113.440765552612,-21731.170622249916,0.0,0.0,0.0,193.0,1.0,154.0,0.0,44.0,3.0,251.0,410.0,44.0,1019.0,1744252759.2808912,0.0,2025-04-09 22:39:19.280,STOP,23
239.0,13409.191478394447,1820.1249027401095,-61172.09776307318,-58361.41060130723,-35039.51102966202,-32393.869148954054,-20410.920132508294,-21710.33879641757,0.0,0.0,0.0,193.0,1.0,154.0,0.0,44.0,3.0,251.0,410.0,44.0,1019.0,1744252759.2808995,0.0,2025-04-09 22:39:19.280,STOP,23
240.0,13357.871873125063,1829.4455801779725,-61139.3301057017,-58301.61968488928,-35005.89400600124,-32363.60488696157,-20336.198250794205,-21679.024002435686,0.0,0.0,0.0,193.0,1.0,155.0,0.0,44.0,3.0,252.0,411.0,44.0,1020.0,1744252759.2809083,0.0,2025-04-09 22:39:19.280,STOP,23
241.0,13297.63392181801,1817.397989916562,-61169.01322233835,-58352.559310502926,-35016.89106427325,-32378.848776680086,-20285.30332866947,-21689.059935696117,0.0,0.0,0.0,193.0,1.0,155.0,0.0,44.0,3.0,252.0,411.0,44.0,1020.0,1744252759.2809172,0.0,2025-04-09 22:39:19.280,STOP,23
242.0,13319.270410450747,1788.2289634023862,-61174.936434619005,-58307.72171112558,-35071.719893422116,-32436.628036097056,-20159.641821341735,-21738.72551187581,0.0,0.0,0.0,193.0,1.0,154.0,0.0,45.0,3.0,249.0,410.0,45.0,1017.0,1744252759.2809262,0.0,2025-04-09 22:39:19.280,STOP,23
243.0,13426.603487325132,1830.585519145193,-61160.63131816761,-58336.197833561644,-35041.74620410755,-32398.8982914565,-20311.63368363782,-21720.10650874454,0.0,0.0,0.0,193.0,1.0,155.0,0.0,44.0,3.0,252.0,411.0,44.0,1020.0,1744252759.2809396,0.0,2025-04-09 22:39:19.280,STOP,23
244.0,13369.204207563902,1837.8274843487127,-61123.3262566717,-58296.009397031004,-34985.84449122482,-32353.07721532312,-20393.75399276662,-21676.744124501245,0.0,0.0,0.0,193.0,1.0,154.0,0.0,44.0,3.0,250.0,410.0,44.0,1018.0,1744252759.438315,0.0,2025-04-09 22:39:19.438,STOP,23
245.0,13305.725253310831,1837.782780859802,-61156.831521610206,-58336.6672201952,-35004.105866444814,-32369.058712608665,-20257.073075422417,-21689.6187293075,0.0,0.0,0.0,193.0,1.0,155.0,0.0,44.0,3.0,252.0,411.0,44.0,1020.0,1744252759.438356,0.0,2025-04-09 22:39:19.438,STOP,23
246.0,13297.320997395635,1801.304733908741,-61160.743076889885,-58311.387397216255,-35046.44007044316,-32415.08095444214,-20226.831165174386,-21730.410662938437,0.0,0.0,0.0,193.0,1.0,154.0,0.0,45.0,3.0,250.0,410.0,45.0,1018.0,1744252759.4383664,0.0,2025-04-09 22:39:19.438,STOP,23
247.0,13397.836792211152,1815.6769055935033,-61176.143428819596,-58334.454397494126,-35066.15430905275,-32427.28500691474,-20213.688339434666,-21740.49129968778,0.0,0.0,0.0,193.0,1.0,155.0,0.0,44.0,3.0,251.0,411.0,44.0,1019.0,1744252759.438376,0.0,2025-04-09 22:39:19.438,STOP,23
248.0,13354.295594012214,1827.7691993438245,-61126.209631706435,-58312.840260605844,-34983.631668523754,-32347.7351483983,-20458.730513898197,-21661.8131592051,0.0,0.0,0.0,193.0,1.0,154.0,0.0,44.0,3.0,249.0,410.0,44.0,1017.0,1744252759.4383852,0.0,2025-04-09 22:39:19.438,STOP,23
249.0,13293.118869438038,1831.7925133457798,-61152.11530353014,-58327.57006020189,-34993.913470973195,-32368.723436441833,-20216.102327835837,-21676.699421012334,0.0,0.0,0.0,193.0,1.0,154.0,0.0,44.0,3.0,252.0,410.0,44.0,1020.0,1744252759.4383943,0.0,2025-04-09 22:39:19.438,STOP,23
250.0,13249.734133450287,1794.1968791719532,-61170.66725142804,-58335.840205650355,-35036.67235811619,-32406.27436712675,-20264.806779003953,-21709.71294757282,0.0,0.0,0.0,193.0,1.0,154.0,0.0,45.0,3.0,249.0,410.0,45.0,1017.0,1744252759.4384036,0.0,2025-04-09 22:39:19.438,STOP,23
251.0,13362.677498182953,1814.4699113929166,-61178.46801024294,-58318.67406590868,-35070.445843988164,-32433.945826762418,-20125.37659709175,-21741.675942143913,0.0,0.0,0.0,193.0,1.0,154.0,0.0,44.0,3.0,250.0,410.0,44.0,1018.0,1744252759.4384124,0.0,2025-04-09 22:39:19.438,STOP,23
252.0,13357.26837602477,1842.588405917693,-61123.57212586071,-58319.858708364816,-34978.7589882325,-32340.090851794586,-20493.889807926396,-21667.75872323021,0.0,0.0,0.0,193.0,1.0,155.0,0.0,44.0,3.0,252.0,411.0,44.0,1020.0,1744252759.4384215,0.0,2025-04-09 22:39:19.438,STOP,23
253.0,13289.162610669448,1838.9003680825674,-61146.4826639274,-58311.14152802724,-34995.8133692519,-32362.06261659415,-20198.399746227235,-21673.212548877305,0.0,0.0,0.0,193.0,1.0,154.0,0.0,44.0,3.0,249.0,410.0,44.0,1017.0,1744252759.4384308,0.0,2025-04-09 22:39:19.438,STOP,23
254.0,13221.682694158877,1789.9947512143556,-61179.98792886591,-58362.23761585208,-35039.24280872856,-32409.98475670633,-20300.48016315462,-21725.87325881401,0.0,0.0,0.0,193.0,1.0,155.0,0.0,44.0,3.0,253.0,411.0,44.0,1021.0,1744252759.4384396,0.0,2025-04-09 22:39:19.438,STOP,23
255.0,13336.011867047771,1810.2901351797743,-61172.94712936248,-58305.97827505807,-35074.93854462368,-32442.908876289,-20085.54578847239,-21750.8848608595,0.0,0.0,0.0,193.0,1.0,154.0,0.0,44.0,3.0,249.0,410.0,44.0,1017.0,1744252759.4384484,0.0,2025-04-09 22:39:19.438,STOP,23
0.0,13360.665841181975,1839.8391413496902,-61129.09300674117,-58333.44856899364,-34990.94068896064,-32340.023796561218,-20496.14733411638,-21653.252441078715,0.0,0.0,0.0,193.0,1.0,155.0,0.0,44.0,3.0,252.0,411.0,44.0,1020.0,1744252759.438457,0.0,2025-04-09 22:39:19.438,STOP,23
1.0,13287.508581579756,1830.4067051895506,-61143.10755051465,-58305.33007446886,-34995.94747971863,-32361.45911949386,-20208.681548676675,-21661.38847606045,0.0,0.0,0.0,193.0,1.0,154.0,0.0,44.0,3.0,249.0,410.0,44.0,1017.0,1744252759.4384973,0.0,2025-04-09 22:39:19.438,STOP,23
2.0,13209.791566108654,1792.945181482456,-61182.53602773381,-58372.18414213469,-35026.278796944476,-32396.327840844137,-20300.234293965616,-21702.515685858212,0.0,0.0,0.0,193.0,1.0,155.0,0.0,44.0,3.0,252.0,411.0,44.0,1020.0,1744252759.4385066,0.0,2025-04-09 22:39:19.438,STOP,23
3.0,13298.527991596222,1804.3222194102073,-61175.7410974194,-58302.17847850067,-35069.88705037678,-32440.89721928802,-20071.55359644337,-21740.49129968778,0.0,0.0,0.0,193.0,1.0,154.0,0.0,44.0,3.0,252.0,410.0,44.0,1020.0,1744252759.438518,0.0,2025-04-09 22:39:19.438,STOP,23
4.0,13347.344201486612,1825.8245975762127,-61152.070600041225,-58355.286223326475,-35004.821122267385,-32368.946953886385,-20447.84521434846,-21687.830589751076,0.0,0.0,0.0,193.0,1.0,154.0,0.0,44.0,3.0,250.0,410.0,44.0,1018.0,1744252759.438527,0.0,2025-04-09 22:39:19.438,STOP,23
5.0,13290.637825803498,1831.8372168346903,-61133.831576565695,-58296.434080175655,-34982.80465397891,-32359.82744214862,-20258.05655217845,-21676.20768263432,0.0,0.0,0.0,193.0,1.0,154.0,0.0,44.0,3.0,251.0,410.0,44.0,1019.0,1744252759.4385357,0.0,2025-04-09 22:39:19.438,STOP,23
6.0,13215.603019667033,1803.8751845211011,-61180.14439107709,-58370.954796189646,-35018.63450034076,-32394.539701287715,-20297.19445671969,-21717.826630810097,0.0,0.0,0.0,193.0,1.0,154.0,0.0,44.0,3.0,251.0,410.0,44.0,1019.0,1744252759.4385448,0.0,2025-04-09 22:39:19.438,STOP,23
7.0,13265.380354569,1793.0345884602773,-61174.77997240782,-58306.268847735984,-35069.46236723213,-32443.311207689192,-20118.671073755155,-21750.415474225938,0.0,0.0,0.0,193.0,1.0,154.0,0.0,45.0,3.0,250.0,410.0,45.0,1018.0,1744252759.4385536,0.0,2025-04-09 22:39:19.438,STOP,23
8.0,13338.694076382408,1818.8285015617016,-61173.17064680703,-58364.33867983087,-35037.83464882787,-32394.673811754445,-20376.051411158016,-21711.63519759598,0.0,0.0,0.0,193.0,1.0,155.0,0.0,44.0,3.0,252.0,411.0,44.0,1020.0,1744252759.4385624,0.0,2025-04-09 22:39:19.438,STOP,23
9.0,13296.225761917325,1837.782780859802,-61126.12022472861,-58297.50696390951,-34982.022342922966,-32345.07529080812,-20333.381930992837,-21657.923955669878,0.0,0.0,0.0,193.0,1.0,155.0,0.0,44.0,3.0,250.0,411.0,44.0,1018.0,1744252759.4385717,0.0,2025-04-09 22:39:19.438,STOP,23
10.0,13219.6710371579,1818.4708736504167,-61174.86937938564,-58361.74587747406,-35017.62867184027,-32380.011067391762,-20273.076924452416,-21700.43697362387,0.0,0.0,0.0,193.0,1.0,155.0,0.0,44.0,3.0,251.0,411.0,44.0,1019.0,1744252759.4385805,0.0,2025-04-09 22:39:19.438,STOP,23
11.0,13236.90423213294,1791.5817250706823,-61177.50688523136,-58316.43889146315,-35065.19318404116,-32427.553227848202,-20176.80796108341,-21735.64097114098,0.0,0.0,0.0,193.0,1.0,154.0,0.0,45.0,3.0,249.0,410.0,45.0,1017.0,1744252759.438589,0.0,2025-04-09 22:39:19.438,STOP,23
12.0,13337.576489159643,1814.4475596484615,-61180.613777710656,-58353.45338028114,-35060.90164910575,-32416.109134687085,-20276.362630887346,-21737.473814186313,0.0,0.0,0.0,193.0,1.0,155.0,0.0,44.0,3.0,252.0,411.0,44.0,1020.0,1744252759.438598,0.0,2025-04-09 22:39:19.438,STOP,23
13.0,13298.282122407214,1832.530120912805,-61120.66639908152,-58302.67021687868,-34985.39745633572,-32347.601037931567,-20417.960932011716,-21678.085229168562,0.0,0.0,0.0,193.0,1.0,154.0,0.0,44.0,3.0,250.0,410.0,44.0,1018.0,1744252759.4386067,0.0,2025-04-09 22:39:19.438,STOP,23
14.0,13228.388217495469,1821.1530829850535,-61166.4874752149,-58351.15115060224,-35015.54995960593,-32386.493073283804,-20243.416159560224,-21710.852886540044,0.0,0.0,0.0,193.0,1.0,154.0,0.0,44.0,3.0,252.0,410.0,44.0,1020.0,1744252759.4386156,0.0,2025-04-09 22:39:19.438,STOP,23
15.0,13206.528211418177,1783.3786348555846,-61180.21144631046,-58342.61278422031,-35061.19222178367,-32430.95069300541,-20241.58331651489,-21736.44563394137,0.0,0.0,0.0,193.0,1.0,154.0,0.0,44.0,3.0,251.0,410.0,44.0,1019.0,1744252759.4386244,0.0,2025-04-09 22:39:19.438,STOP,23
16.0,13321.773805829742,1803.7410740543694,-61184.25711205687,-58345.2726418105,-35072.59161145587,-32435.197524451916,-20180.004260540518,-21738.390235708983,0.0,0.0,0.0,193.0,1.0,154.0,0.0,44.0,3.0,250.0,410.0,44.0,1018.0,1744252759.4386387,0.0,2025-04-09 22:39:19.438,STOP,23
