Sample Index,EXG Channel 0,EXG Channel 1,EXG Channel 2,EXG Channel 3,EXG Channel 4,EXG Channel 5,EXG Channel 6,EXG Channel 7,Accel Channel 0,Accel Channel 1,Accel Channel 2,Not Used,Digital Channel 0 (D11),Digital Channel 1 (D12),Digital Channel 2 (D13),Digital Channel 3 (D17),Not Used,Digital Channel 4 (D18),Analog Channel 0,Analog Channel 1,Analog Channel 2,Timestamp,Marker Channel,Timestamp (Formatted),Stimulus_Direction,Stimulus_Number
150.0,15236.200718426791,2530.7986176965974,-63405.77464172538,-61126.32139042871,-36480.68445690685,-34005.318165459415,-28751.406520772758,-22341.55205983544,0.0,0.0,0.0,193.0,1.0,154.0,0.0,10.0,3.0,250.0,410.0,10.0,1018.0,1744252693.4928353,0.0,2025-04-09 22:38:13.492,STOP,15
151.0,15252.226919201246,2571.6352548164436,-63339.59112639322,-61119.81703279222,-36375.452444011265,-33894.47586470555,-29334.205905700437,-22256.88365183874,0.0,0.0,0.0,193.0,1.0,155.0,0.0,9.0,3.0,252.0,411.0,9.0,1020.0,1744252693.9627082,0.0,2025-04-09 22:38:13.962,STOP,15
152.0,15172.81117115154,2554.200894141304,-63370.34712676372,-61115.41373913452,-36402.095723401995,-33931.80327794591,-28981.651840406877,-22283.392820762732,0.0,0.0,0.0,193.0,1.0,154.0,0.0,8.0,3.0,249.0,410.0,8.0,1017.0,1744252693.9627488,0.0,2025-04-09 22:38:13.962,STOP,15
153.0,15106.247676163635,2520.136835591416,-63393.45883053051,-61156.36213497665,-36427.666119058864,-33958.51361257,-29096.09277201805,-22317.680396757176,0.0,0.0,0.0,193.0,1.0,154.0,0.0,8.0,3.0,252.0,410.0,8.0,1020.0,1744252693.9627693,0.0,2025-04-09 22:38:13.962,STOP,15
154.0,15214.854802471973,2524.3166118045583,-63401.99719691244,-61112.99975073335,-36484.48425346425,-34009.76616260602,-28751.406520772758,-22355.52190012001,0.0,0.0,0.0,193.0,1.0,154.0,0.0,7.0,3.0,251.0,410.0,7.0,1019.0,1744252693.9627895,0.0,2025-04-09 22:38:13.962,STOP,15
155.0,15257.948965781805,2558.6935947768206,-63360.087676058734,-61141.47587316941,-36399.860548956465,-33911.083210835845,-29295.827960470673,-22264.08091355335,0.0,0.0,0.0,193.0,1.0,154.0,0.0,7.0,3.0,250.0,410.0,7.0,1018.0,1744252693.9628067,0.0,2025-04-09 22:38:13.962,STOP,15
156.0,15192.368947549934,2563.141591923427,-63354.16446377808,-61095.78890750276,-36392.19390060829,-33915.77707717146,-29039.252285868202,-22262.382180974746,0.0,0.0,0.0,193.0,1.0,155.0,0.0,6.0,3.0,252.0,411.0,6.0,1020.0,1744252693.962827,0.0,2025-04-09 22:38:13.962,STOP,15
157.0,15101.240885405647,2519.8015594245862,-63405.037034158355,-61172.701260173475,-36431.26474991617,-33958.08892942535,-29083.553443378623,-22308.337367574855,0.0,0.0,0.0,193.0,1.0,155.0,0.0,6.0,3.0,251.0,411.0,6.0,1019.0,1744252693.9628775,0.0,2025-04-09 22:38:13.962,STOP,15
158.0,15187.33980504749,2517.901661145885,-63402.041900401346,-61116.55367810174,-36482.74081739674,-34013.29773822996,-28789.628003791335,-22353.554946607943,0.0,0.0,0.0,193.0,1.0,154.0,0.0,6.0,3.0,250.0,410.0,6.0,1018.0,1744252693.9628868,0.0,2025-04-09 22:38:13.962,STOP,15
159.0,15263.961585040282,2553.977376696751,-63374.37044076568,-61157.4350187105,-36417.339613120515,-33937.27945533746,-29189.277194652226,-22298.79317269244,0.0,0.0,0.0,193.0,1.0,155.0,0.0,5.0,3.0,252.0,411.0,5.0,1020.0,1744252693.9628956,0.0,2025-04-09 22:38:13.962,STOP,15
160.0,15200.39322380939,2561.9793012117507,-63350.99051606542,-61100.30395988274,-36387.94706916178,-33918.705155695105,-29108.542693679658,-22269.02064907797,0.0,0.0,0.0,193.0,1.0,154.0,0.0,5.0,3.0,249.0,410.0,5.0,1017.0,1744252693.9629047,0.0,2025-04-09 22:38:13.962,STOP,15
161.0,15120.955124015229,2543.0473736581057,-63395.51519102039,-61168.1862077935,-36414.947976463794,-33946.175449630675,-29057.08897794354,-22296.245073824535,0.0,0.0,0.0,193.0,1.0,154.0,0.0,5.0,3.0,250.0,410.0,5.0,1018.0,1744252693.962914,0.0,2025-04-09 22:38:13.962,STOP,15
162.0,15164.451618725256,2521.522643747645,-63397.97388291048,-61119.3252944142,-36468.21218350079,-34004.8264270814,-28857.13027204636,-22355.365437908822,0.0,0.0,0.0,193.0,1.0,155.0,0.0,5.0,3.0,251.0,411.0,5.0,1019.0,1744252693.9629233,0.0,2025-04-09 22:38:13.962,STOP,15
163.0,15269.996556043216,2553.7315075077427,-63393.794106697336,-61162.285347257304,-36440.808944798584,-33964.45917659511,-29058.407730866402,-22335.673551043696,0.0,0.0,0.0,193.0,1.0,154.0,0.0,5.0,3.0,249.0,410.0,5.0,1017.0,1744252693.9629323,0.0,2025-04-09 22:38:13.962,STOP,15
164.0,15215.81592748355,2569.0871559485386,-63346.453111940995,-61100.52747732729,-36382.023856881126,-33909.831513146346,-29213.10415424158,-22264.483244953542,0.0,0.0,0.0,193.0,1.0,155.0,0.0,5.0,3.0,250.0,411.0,5.0,1018.0,1744252693.9629412,0.0,2025-04-09 22:38:13.962,STOP,15
165.0,15128.934696785773,2547.137742893427,-63395.73870846495,-61163.62645192462,-36411.90813921787,-33949.394100832236,-29028.054061896095,-22296.513294758,0.0,0.0,0.0,193.0,1.0,154.0,0.0,4.0,3.0,251.0,410.0,4.0,1019.0,1744252693.96295,0.0,2025-04-09 22:38:13.962,STOP,15
166.0,15130.208746219725,2510.6373441979104,-63402.98067366847,-61138.2795737123,-36458.10919500699,-34002.14421774676,-28953.935677282298,-22342.446129613654,0.0,0.0,0.0,193.0,1.0,154.0,0.0,4.0,3.0,249.0,410.0,4.0,1017.0,1744252693.9629588,0.0,2025-04-09 22:38:13.962,STOP,15
167.0,15242.213337685269,2523.042562370606,-63423.23135414498,-61178.19978930948,-36475.4094452154,-34012.49307542957,-28927.270046147114,-22354.29255417497,0.0,0.0,0.0,193.0,1.0,155.0,0.0,4.0,3.0,251.0,411.0,4.0,1019.0,1744252693.9629676,0.0,2025-04-09 22:38:13.962,STOP,15
168.0,15212.798441982084,2547.8306469715417,-63355.617327167674,-61128.55656487424,-36378.447577768275,-33927.42233603267,-29302.265262873803,-22271.70285841261,0.0,0.0,0.0,193.0,1.0,155.0,0.0,4.0,3.0,253.0,411.0,4.0,1021.0,1744252693.9629767,0.0,2025-04-09 22:38:13.962,STOP,15
169.0,15152.672249397308,2554.938501708329,-63377.90201638961,-61145.298021471266,-36386.00246739417,-33941.347472828325,-28990.458427722268,-22280.911777128196,0.0,0.0,0.0,193.0,1.0,154.0,0.0,4.0,3.0,250.0,410.0,4.0,1018.0,1744252693.9629853,0.0,2025-04-09 22:38:13.962,STOP,15
170.0,15121.871545537895,2517.0299431121284,-63391.35776655171,-61144.69452437098,-36427.755526036686,-33982.56408960391,-29016.811134435076,-22320.65317876973,0.0,0.0,0.0,193.0,1.0,155.0,0.0,4.0,3.0,250.0,411.0,4.0,1018.0,1744252693.962994,0.0,2025-04-09 22:38:13.962,STOP,15
171.0,15253.232747701735,2537.012402655173,-63400.58903701175,-61140.44769292447,-36458.73504385174,-34001.63012762429,-28801.072096952452,-22342.535536591477,0.0,0.0,0.0,193.0,1.0,155.0,0.0,4.0,3.0,252.0,411.0,4.0,1020.0,1744252693.9630053,0.0,2025-04-09 22:38:13.963,STOP,15
172.0,15232.579735825031,2558.0900976765274,-63346.38605670763,-61126.29903868426,-36371.742054431685,-33902.81306538738,-29325.667539318507,-22253.083855281337,0.0,0.0,0.0,193.0,1.0,154.0,0.0,4.0,3.0,249.0,410.0,4.0,1017.0,1744252693.96302,0.0,2025-04-09 22:38:13.963,STOP,15
173.0,15154.393333720367,2547.204798126793,-63381.835923413746,-61134.99386727737,-36398.07240940004,-33931.1103738678,-28972.666439135843,-22275.435599736644,0.0,0.0,0.0,193.0,1.0,155.0,0.0,4.0,3.0,252.0,411.0,4.0,1020.0,1744252693.9630287,0.0,2025-04-09 22:38:13.963,STOP,15
174.0,15093.484830079655,2501.942515604796,-63410.155583638625,-61166.129847303615,-36438.73023256424,-33969.75654003102,-29071.50585311721,-22320.049681669436,0.0,0.0,0.0,193.0,1.0,154.0,0.0,4.0,3.0,249.0,410.0,4.0,1017.0,1744252693.9630375,0.0,2025-04-09 22:38:13.963,STOP,15
175.0,15207.322264590535,2504.9823528507177,-63428.14873792515,-61145.25331798236,-36494.63194544696,-34019.66798539973,-28753.418177773736,-22355.410141397733,0.0,0.0,0.0,193.0,1.0,154.0,0.0,3.0,3.0,250.0,410.0,3.0,1018.0,1744252693.9630463,0.0,2025-04-09 22:38:13.963,STOP,15
176.0,15235.708980048774,2547.4730190602563,-63364.31215576079,-61147.24262323888,-36387.70119997278,-33904.24357703252,-29339.99500751436,-22263.4550647086,0.0,0.0,0.0,193.0,1.0,155.0,0.0,3.0,3.0,251.0,411.0,3.0,1019.0,1744252693.9630551,0.0,2025-04-09 22:38:13.963,STOP,15
177.0,15175.828656653006,2559.878237232952,-63364.26745227188,-61109.8258030207,-36381.97915339222,-33912.42431550316,-29003.31068078407,-22266.450198465613,0.0,0.0,0.0,193.0,1.0,154.0,0.0,3.0,3.0,249.0,410.0,3.0,1017.0,1744252693.963064,0.0,2025-04-09 22:38:13.963,STOP,15
178.0,15095.384728358356,2517.3205157900475,-63401.70662423452,-61168.72264966043,-36417.40666835388,-33950.444632821636,-29081.094751488537,-22303.50939077251,0.0,0.0,0.0,193.0,1.0,154.0,0.0,3.0,3.0,250.0,410.0,3.0,1018.0,1744252693.9630728,0.0,2025-04-09 22:38:13.963,STOP,15
179.0,15203.05308139957,2529.524568262645,-63399.18087711107,-61112.32919839969,-36466.58050615555,-33996.019839766006,-28744.16455556924,-22335.025350454493,0.0,0.0,0.0,193.0,1.0,155.0,0.0,3.0,3.0,252.0,411.0,3.0,1020.0,1744252693.9630816,0.0,2025-04-09 22:38:13.963,STOP,15
180.0,15252.182215712335,2557.978338954251,-63362.680478415554,-61144.739227859885,-36390.09283662949,-33903.79654214341,-29260.04281759773,-22261.756332129997,0.0,0.0,0.0,193.0,1.0,154.0,0.0,3.0,3.0,251.0,410.0,3.0,1019.0,1744252693.9630904,0.0,2025-04-09 22:38:13.963,STOP,15
181.0,15184.948168390772,2551.9657196957733,-63356.51139694588,-61099.45459359344,-36382.85087142597,-33911.19496955812,-29052.819794752577,-22257.241279750026,0.0,0.0,0.0,193.0,1.0,154.0,0.0,3.0,3.0,250.0,410.0,3.0,1018.0,1744252693.9630992,0.0,2025-04-09 22:38:13.963,STOP,15
182.0,15102.202010417226,2525.7024199607877,-63392.92238866358,-61162.26299551285,-36404.30854610307,-33935.960702414595,-29068.018980982186,-22292.98171913406,0.0,0.0,0.0,193.0,1.0,155.0,0.0,3.0,3.0,252.0,411.0,3.0,1020.0,1744252693.963108,0.0,2025-04-09 22:38:13.963,STOP,15
183.0,15164.742191403175,2511.419655253846,-63406.33343533677,-61115.34668390116,-36471.989628313735,-34000.64665086826,-28793.561910815468,-22341.864984257816,0.0,0.0,0.0,193.0,1.0,154.0,0.0,3.0,3.0,249.0,410.0,3.0,1017.0,1744252693.9631171,0.0,2025-04-09 22:38:13.963,STOP,15
184.0,15248.15890171038,2540.611033512477,-63394.554066008815,-61165.369887992136,-36427.71082254777,-33945.52724904147,-29153.514403523735,-22309.32084433089,0.0,0.0,0.0,193.0,1.0,154.0,0.0,3.0,3.0,251.0,410.0,3.0,1019.0,1744252693.9631257,0.0,2025-04-09 22:38:13.963,STOP,15
185.0,15188.77031669263,2547.6071295269885,-63360.512359203385,-61102.38267211708,-36383.275554570624,-33914.86065564879,-29137.219981815815,-22265.06439030938,0.0,0.0,0.0,193.0,1.0,155.0,0.0,3.0,3.0,250.0,411.0,3.0,1018.0,1744252693.9631343,0.0,2025-04-09 22:38:13.963,STOP,15
186.0,15111.32152215499,2533.816103198064,-63397.146868365635,-61161.81596062374,-36400.754618734674,-33936.586551259345,-29035.877172455454,-22278.475436982568,0.0,0.0,0.0,193.0,1.0,154.0,0.0,3.0,3.0,250.0,410.0,3.0,1018.0,1744252693.9631433,0.0,2025-04-09 22:38:13.963,STOP,15
187.0,15144.849138837952,2511.8219866540417,-63398.957359666514,-61117.33598915768,-36454.21999147177,-33992.95765077563,-28874.452873999224,-22325.3693968498,0.0,0.0,0.0,193.0,1.0,155.0,0.0,3.0,3.0,252.0,411.0,3.0,1020.0,1744252693.963157,0.0,2025-04-09 22:38:13.963,STOP,15
188.0,15250.036448244626,2538.331155578036,-63405.26055160291,-61167.42624848202,-36443.55820936659,-33978.98781049107,-29007.110477341474,-22332.968989964604,0.0,0.0,0.0,193.0,1.0,154.0,0.0,3.0,3.0,249.0,410.0,3.0,1017.0,1744252693.9631655,0.0,2025-04-09 22:38:13.963,STOP,15
189.0,15204.081261644515,2553.2397691297256,-63345.402579951595,-61108.305884397734,-36367.62933345191,-33915.620614960266,-29230.69497712791,-22276.284966025945,0.0,0.0,0.0,193.0,1.0,155.0,0.0,3.0,3.0,252.0,411.0,3.0,1020.0,1744252693.9631746,0.0,2025-04-09 22:38:13.963,STOP,15
190.0,15122.318580427002,2539.7616672231757,-63387.24504557193,-61158.82082686673,-36393.95968842026,-33947.069519408884,-28996.605157447477,-22307.17507686318,0.0,0.0,0.0,193.0,1.0,155.0,0.0,3.0,3.0,252.0,411.0,3.0,1020.0,1744252693.9631832,0.0,2025-04-09 22:38:13.963,STOP,15
191.0,15120.910420526317,2510.950268620285,-63391.98361539646,-61136.7820068338,-36437.79145929712,-33989.180205962686,-28966.16208149935,-22337.685208044673,0.0,0.0,0.0,193.0,1.0,154.0,0.0,3.0,3.0,249.0,410.0,3.0,1017.0,1744252693.9631996,0.0,2025-04-09 22:38:13.963,STOP,15
192.0,15258.708925093286,2543.6061672694887,-63392.63181598566,-61146.37090520512,-36442.88765703293,-33990.275441440994,-28873.916432132297,-22346.581202337886,0.0,0.0,0.0,193.0,1.0,154.0,0.0,3.0,3.0,252.0,410.0,3.0,1020.0,1744252693.9632082,0.0,2025-04-09 22:38:13.963,STOP,15
193.0,15225.91891597735,2565.5555803245998,-63330.69513210001,-61105.69073029647,-36352.11722279993,-33898.499178707505,-29295.403277326022,-22256.615430905276,0.0,0.0,0.0,193.0,1.0,155.0,0.0,3.0,3.0,251.0,411.0,3.0,1019.0,1744252693.9632168,0.0,2025-04-09 22:38:13.963,STOP,15
194.0,15159.444827967267,2567.3437198810243,-63364.558024949794,-61130.99290501987,-36374.42426376632,-33930.41746978968,-28967.97257280023,-22285.203312063615,0.0,0.0,0.0,193.0,1.0,154.0,0.0,3.0,3.0,249.0,410.0,3.0,1017.0,1744252693.9632256,0.0,2025-04-09 22:38:13.963,STOP,15
195.0,15114.56252510101,2520.762684436165,-63384.31696704829,-61146.19209124948,-36420.69237478881,-33977.89257501275,-29024.991872905717,-22331.270257386,0.0,0.0,0.0,193.0,1.0,155.0,0.0,3.0,3.0,252.0,411.0,3.0,1020.0,1744252693.9632344,0.0,2025-04-09 22:38:13.963,STOP,15
196.0,15233.697323047796,2528.630498484433,-63400.94666492304,-61144.940393559984,-36465.842898588526,-34019.15389527725,-28776.954564685177,-22373.492702662075,0.0,0.0,0.0,193.0,1.0,154.0,0.0,3.0,3.0,249.0,410.0,3.0,1017.0,1744252693.9632432,0.0,2025-04-09 22:38:13.963,STOP,15
197.0,15236.87127076045,2563.9462547238177,-63330.85159431119,-61127.99777126286,-36358.107490313945,-33906.814027644876,-29340.03971100327,-22277.514311970986,0.0,0.0,0.0,193.0,1.0,154.0,0.0,3.0,3.0,251.0,410.0,3.0,1019.0,1744252693.9632518,0.0,2025-04-09 22:38:13.963,STOP,15
198.0,15151.152330774348,2545.7742864816532,-63369.475408729966,-61139.218346979425,-36390.02578139613,-33952.94802820063,-28972.152349013373,-22314.104117644325,0.0,0.0,0.0,193.0,1.0,155.0,0.0,3.0,3.0,251.0,411.0,3.0,1019.0,1744252693.9632604,0.0,2025-04-09 22:38:13.963,STOP,15
199.0,15084.99116718664,2511.8443383984973,-63396.856295687714,-61177.41747825355,-36427.01791846966,-33983.927546015686,-29083.866367800998,-22340.032141212483,0.0,0.0,0.0,193.0,1.0,154.0,0.0,3.0,3.0,249.0,410.0,3.0,1017.0,1744252693.9632692,0.0,2025-04-09 22:38:13.963,STOP,15
200.0,15214.161898393859,2526.8870624169185,-63396.722185220984,-61134.122149243616,-36472.36960796948,-34020.070316799916,-28753.440529518193,-22359.99224901107,0.0,0.0,0.0,193.0,1.0,155.0,0.0,3.0,3.0,251.0,411.0,3.0,1019.0,1744252693.9632776,0.0,2025-04-09 22:38:13.963,STOP,15
201.0,15254.01505875767,2567.9919204702283,-63336.037199024824,-61141.4311696805,-36365.05888283955,-33907.3504695118,-29312.83763800116,-22261.286945496435,0.0,0.0,0.0,193.0,1.0,154.0,0.0,3.0,3.0,249.0,410.0,3.0,1017.0,1744252693.9632864,0.0,2025-04-09 22:38:13.963,STOP,15
202.0,15180.097839843971,2562.582798312044,-63346.810739852284,-61112.798585033255,-36372.032627109606,-33928.65168197771,-28994.03470683512,-22271.859320623797,0.0,0.0,0.0,193.0,1.0,154.0,0.0,3.0,3.0,250.0,410.0,3.0,1018.0,1744252693.9632995,0.0,2025-04-09 22:38:13.963,STOP,15
203.0,15092.747222512631,2519.555690235578,-63389.68138571756,-61179.22796955443,-36413.428057840836,-33967.74488303004,-29078.52430087618,-22319.245018869045,0.0,0.0,0.0,193.0,1.0,154.0,0.0,3.0,3.0,251.0,410.0,3.0,1019.0,1744252693.963308,0.0,2025-04-09 22:38:13.963,STOP,15
204.0,15182.735345689696,2518.7733791796422,-63392.810629941305,-61127.10370148465,-36465.97700905526,-34027.602854681354,-28755.87686966382,-22367.4800834036,0.0,0.0,0.0,193.0,1.0,154.0,0.0,3.0,3.0,250.0,410.0,3.0,1018.0,1744252693.963317,0.0,2025-04-09 22:38:13.963,STOP,15
205.0,15240.022866728648,2549.708193505787,-63367.97784185146,-61174.310585774256,-36399.72643848973,-33957.507784069516,-29225.151744502993,-22318.99914968004,0.0,0.0,0.0,193.0,1.0,154.0,0.0,3.0,3.0,252.0,410.0,3.0,1020.0,1744252693.9633255,0.0,2025-04-09 22:38:13.963,STOP,15
206.0,15174.979290363704,2551.652795273399,-63349.8505770982,-61115.50314611234,-36381.91209815885,-33941.39217631724,-29072.109350217506,-22289.159570832202,0.0,0.0,0.0,193.0,1.0,155.0,0.0,2.0,3.0,251.0,411.0,2.0,1019.0,1744252693.9633343,0.0,2025-04-09 22:38:13.963,STOP,15
207.0,15102.269065650591,2528.719905462254,-63384.31696704829,-61178.17743756503,-36401.469874557246,-33963.47569983908,-29064.397998380424,-22310.95252167613,0.0,0.0,0.0,193.0,1.0,154.0,0.0,3.0,3.0,250.0,410.0,3.0,1018.0,1744252693.963343,0.0,2025-04-09 22:38:13.963,STOP,15
208.0,15154.795665120562,2507.753969163176,-63394.554066008815,-61131.328181186705,-36466.44639568882,-34024.65242441326,-28823.66971059677,-22362.026257756504,0.0,0.0,0.0,193.0,1.0,154.0,0.0,2.0,3.0,252.0,410.0,2.0,1020.0,1744252693.9633515,0.0,2025-04-09 22:38:13.963,STOP,15
209.0,15241.2969161626,2536.6100712549774,-63386.9097694051,-61177.48453348691,-36427.91198824787,-33969.33185688637,-29111.783696625676,-22325.682321272176,0.0,0.0,0.0,193.0,1.0,154.0,0.0,2.0,3.0,251.0,410.0,2.0,1019.0,1744252693.9633603,0.0,2025-04-09 22:38:13.963,STOP,15
210.0,15175.828656653006,2545.684879503832,-63352.97982132195,-61120.264067681324,-36378.89461265739,-33930.77509770097,-29162.56686002813,-22279.88359688325,0.0,0.0,0.0,193.0,1.0,154.0,0.0,2.0,3.0,249.0,410.0,2.0,1017.0,1744252693.9633691,0.0,2025-04-09 22:38:13.963,STOP,15
211.0,15107.387615130856,2535.3360218210246,-63385.54631299333,-61169.10262931617,-36393.60206050898,-33947.74007174255,-29022.443774037813,-22297.385012791758,0.0,0.0,0.0,193.0,1.0,155.0,0.0,2.0,3.0,252.0,411.0,2.0,1020.0,1744252693.963378,0.0,2025-04-09 22:38:13.963,STOP,15
212.0,15122.698560082741,2499.662637670355,-63397.772717210384,-61137.85489056765,-36455.002302527704,-34010.839046339875,-28898.838627199966,-22357.958240265638,0.0,0.0,0.0,193.0,1.0,154.0,0.0,2.0,3.0,249.0,410.0,2.0,1017.0,1744252693.9633868,0.0,2025-04-09 22:38:13.963,STOP,15
213.0,15235.753683537685,2528.4516845287903,-63406.73576673696,-61176.36694626415,-36454.06352926058,-33999.305546200936,-28971.191224001795,-22359.61226935533,0.0,0.0,0.0,193.0,1.0,154.0,0.0,2.0,3.0,248.0,410.0,2.0,1016.0,1744252693.9633956,0.0,2025-04-09 22:38:13.963,STOP,15
214.0,15198.716842975242,2551.0269464286503,-63346.251946240896,-61116.911306013026,-36374.692484699786,-33919.64392896222,-29268.134149090547,-22280.777666661463,0.0,0.0,0.0,193.0,1.0,155.0,0.0,2.0,3.0,251.0,411.0,2.0,1019.0,1744252693.9634044,0.0,2025-04-09 22:38:13.963,STOP,15
215.0,15121.08923448196,2531.916204919363,-63397.52684802137,-61169.25909152736,-36405.96257519276,-33958.200688147626,-29000.22614004924,-22315.780498478474,0.0,0.0,0.0,193.0,1.0,154.0,0.0,2.0,3.0,250.0,410.0,2.0,1018.0,1744252693.9634132,0.0,2025-04-09 22:38:13.963,STOP,15
216.0,15102.313769139502,2495.4381579683018,-63406.6687115036,-61156.85387335466,-36445.12283147846,-33999.48436015658,-28998.460352237267,-22352.3256006629,0.0,0.0,0.0,193.0,1.0,155.0,0.0,2.0,3.0,252.0,411.0,2.0,1020.0,1744252693.9634216,0.0,2025-04-09 22:38:13.963,STOP,15
217.0,15243.532090608132,2534.3078415760806,-63403.45006030203,-61153.836387853196,-36452.767128082174,-34000.557243890435,-28850.871783598875,-22355.99128675357,0.0,0.0,0.0,193.0,1.0,155.0,0.0,2.0,3.0,249.0,411.0,2.0,1017.0,1744252693.9634352,0.0,2025-04-09 22:38:13.963,STOP,15
218.0,15219.258096129668,2548.2776818606476,-63349.962335820484,-61134.56918413272,-36371.183260820304,-33922.59435923032,-29321.28659740527,-22289.78541967695,0.0,0.0,0.0,193.0,1.0,154.0,0.0,2.0,3.0,250.0,410.0,2.0,1018.0,1744252693.963444,0.0,2025-04-09 22:38:13.963,STOP,15
219.0,15140.825824835996,2534.5984142539996,-63389.033185128355,-61156.85387335466,-36402.31924084655,-33956.8148799914,-28984.40110497488,-22313.768841477497,0.0,0.0,0.0,193.0,1.0,155.0,0.0,2.0,3.0,251.0,411.0,2.0,1019.0,1744252693.9634526,0.0,2025-04-09 22:38:13.963,STOP,15
220.0,15090.623806789376,2497.271001013637,-63402.42188005709,-61169.48260897191,-36434.21518018427,-33985.71568557211,-29059.70413204481,-22331.56083006392,0.0,0.0,0.0,193.0,1.0,154.0,0.0,2.0,3.0,250.0,410.0,2.0,1018.0,1744252693.9634612,0.0,2025-04-09 22:38:13.963,STOP,15
221.0,15215.793575739095,2515.890004144908,-63408.09922314873,-61147.06380928324,-36469.41917770138,-34021.92551158971,-28764.437587790202,-22365.3790194248,0.0,0.0,0.0,193.0,1.0,154.0,0.0,2.0,3.0,251.0,410.0,2.0,1019.0,1744252693.96347,0.0,2025-04-09 22:38:13.963,STOP,15
222.0,15213.96073269376,2540.0522399010947,-63354.67855390055,-61149.25428023986,-36373.30667654356,-33922.77317318597,-29334.4741266339,-22284.778628918964,0.0,0.0,0.0,193.0,1.0,155.0,0.0,2.0,3.0,252.0,411.0,2.0,1020.0,1744252693.9634786,0.0,2025-04-09 22:38:13.963,STOP,15
223.0,15147.5760516615,2547.2718533601587,-63369.36365000769,-61131.39523642007,-36378.89461265739,-33940.38634781675,-28982.769427629642,-22294.188713334646,0.0,0.0,0.0,193.0,1.0,155.0,0.0,2.0,3.0,252.0,411.0,2.0,1020.0,1744252693.9634871,0.0,2025-04-09 22:38:13.963,STOP,15
224.0,15074.463495548189,2507.418692996346,-63405.77464172538,-61183.92183589004,-36418.90423523238,-33980.26185992502,-29078.121969475982,-22337.931077233683,0.0,0.0,0.0,193.0,1.0,155.0,0.0,2.0,3.0,251.0,411.0,2.0,1019.0,1744252693.963496,0.0,2025-04-09 22:38:13.963,STOP,15
225.0,15189.597331237475,2517.16405357886,-63409.865010960704,-61140.67121036902,-36469.352122468015,-34029.39099423778,-28736.430851987705,-22380.533502165497,0.0,0.0,0.0,193.0,1.0,155.0,0.0,2.0,3.0,251.0,411.0,2.0,1019.0,1744252693.9635046,0.0,2025-04-09 22:38:13.963,STOP,15
226.0,15230.568078824053,2552.8821412184407,-63364.51332146089,-61165.86162637015,-36382.82851968152,-33928.539923255434,-29281.567547508188,-22298.569655247888,0.0,0.0,0.0,193.0,1.0,155.0,0.0,2.0,3.0,252.0,411.0,2.0,1020.0,1744252693.9635131,0.0,2025-04-09 22:38:13.963,STOP,15
227.0,15170.084258327994,2548.1882748828266,-63357.91955684657,-61120.7781578038,-36377.08412135651,-33934.016100646986,-29020.40976529238,-22293.428754023167,0.0,0.0,0.0,193.0,1.0,154.0,0.0,2.0,3.0,249.0,410.0,2.0,1017.0,1744252693.9635217,0.0,2025-04-09 22:38:13.963,STOP,15
228.0,15094.289492880047,2520.807387925075,-63390.6648624736,-61178.04332709829,-36405.940223448306,-33954.17737414567,-29083.441684656347,-22315.4675740561,0.0,0.0,0.0,193.0,1.0,154.0,0.0,2.0,3.0,249.0,410.0,2.0,1017.0,1744252693.9635303,0.0,2025-04-09 22:38:13.963,STOP,15
229.0,15174.688717685785,2520.3380012915136,-63391.60363574072,-61120.264067681324,-36468.12277652297,-34009.028555038996,-28770.472558793135,-22356.550080364952,0.0,0.0,0.0,193.0,1.0,155.0,0.0,2.0,3.0,252.0,411.0,2.0,1020.0,1744252693.9635391,0.0,2025-04-09 22:38:13.963,STOP,15
230.0,15256.764323325673,2565.5555803245998,-63350.029391053846,-61147.42143719452,-36395.5913657655,-33923.175504586165,-29194.976889488327,-22296.580349991364,0.0,0.0,0.0,193.0,1.0,154.0,0.0,2.0,3.0,249.0,410.0,2.0,1017.0,1744252693.9635477,0.0,2025-04-09 22:38:13.963,STOP,15
231.0,15198.87330518643,2576.396176385424,-63323.54257387431,-61085.32829109768,-36370.222135808726,-33906.59051020032,-29099.579644153077,-22273.289832268936,0.0,0.0,0.0,193.0,1.0,155.0,0.0,2.0,3.0,252.0,411.0,2.0,1020.0,1744252693.9635613,0.0,2025-04-09 22:38:13.963,STOP,15
232.0,15112.081481466472,2544.008498669684,-63377.54438847833,-61164.76639089184,-36405.716706003754,-33945.72841474157,-29051.210469151792,-22312.56184727691,0.0,0.0,0.0,193.0,1.0,155.0,0.0,2.0,3.0,252.0,411.0,2.0,1020.0,1744252693.96357,0.0,2025-04-09 22:38:13.963,STOP,15
233.0,15150.57118541851,2515.040637855606,-63389.949606651026,-61127.23781195138,-36464.94882881032,-34010.23554923959,-28847.317856230482,-22368.843539815374,0.0,0.0,0.0,193.0,1.0,154.0,0.0,2.0,3.0,249.0,410.0,2.0,1017.0,1744252693.9635785,0.0,2025-04-09 22:38:13.963,STOP,15
234.0,15256.83137855904,2555.3408331085247,-63374.10221983221,-61164.56522519174,-36423.888674245914,-33960.54762131544,-29065.537937347646,-22337.305228388934,0.0,0.0,0.0,193.0,1.0,155.0,0.0,2.0,3.0,252.0,411.0,2.0,1020.0,1744252693.9635868,0.0,2025-04-09 22:38:13.963,STOP,15
235.0,15197.82277319703,2560.0346994441393,-63329.84576581071,-61107.85884950863,-36368.4339962523,-33917.028774860955,-29191.244148164293,-22282.923434129174,0.0,0.0,0.0,193.0,1.0,155.0,0.0,2.0,3.0,252.0,411.0,2.0,1020.0,1744252693.9635956,0.0,2025-04-09 22:38:13.963,STOP,15
236.0,15118.004693747127,2546.847170215508,-63368.87191162967,-61161.27951875681,-36391.05396164107,-33947.13657464225,-29016.721727457254,-22313.075937399382,0.0,0.0,0.0,193.0,1.0,154.0,0.0,2.0,3.0,250.0,410.0,2.0,1018.0,1744252693.9636042,0.0,2025-04-09 22:38:13.963,STOP,15
237.0,15118.675246080787,2511.2408412982036,-63382.97586238097,-61135.88793705559,-36447.4027094129,-34004.06646776992,-28932.992092727673,-22357.511205376533,0.0,0.0,0.0,193.0,1.0,155.0,0.0,2.0,3.0,251.0,411.0,2.0,1019.0,1744252693.9636128,0.0,2025-04-09 22:38:13.963,STOP,15
238.0,15238.212375427769,2534.777228209642,-63395.604597998215,-61170.331975261215,-36456.38811068393,-34002.34538344686,-28924.81135425703,-22357.019466998514,0.0,0.0,0.0,193.0,1.0,154.0,0.0,2.0,3.0,249.0,410.0,2.0,1017.0,1744252693.9636216,0.0,2025-04-09 22:38:13.963,STOP,15
239.0,15207.590485523999,2568.1707344258707,-63327.27531519834,-61116.86660252412,-36367.31640902953,-33917.453458005606,-29292.22932961337,-22283.437524251643,0.0,0.0,0.0,193.0,1.0,154.0,0.0,2.0,3.0,251.0,410.0,2.0,1019.0,1744252693.9636304,0.0,2025-04-09 22:38:13.963,STOP,15
240.0,15137.562470145522,2558.8053534990972,-63365.608556939194,-61150.70714362945,-36391.25512734117,-33945.63900776375,-28994.83936963551,-22307.80092570793,0.0,0.0,0.0,193.0,1.0,155.0,0.0,2.0,3.0,251.0,411.0,2.0,1019.0,1744252693.9636388,0.0,2025-04-09 22:38:13.963,STOP,15
241.0,15107.029987219572,2511.5090622316675,-63383.713469947994,-61154.50694018685,-36438.864343030975,-33999.26084271203,-29018.107535613482,-22356.37126640931,0.0,0.0,0.0,193.0,1.0,155.0,0.0,2.0,3.0,251.0,411.0,2.0,1019.0,1744252693.9636476,0.0,2025-04-09 22:38:13.963,STOP,15
242.0,15237.541823094109,2535.716001476765,-63390.03901362885,-61151.48945468539,-36460.76905259718,-34019.35506097735,-28817.120649471362,-22377.203092241656,0.0,0.0,0.0,193.0,1.0,154.0,0.0,2.0,3.0,251.0,410.0,2.0,1019.0,1744252693.9636562,0.0,2025-04-09 22:38:13.963,STOP,15
243.0,15223.43787234281,2561.9345977228404,-63330.15869023308,-61130.32235268621,-36365.4835659842,-33917.34169928333,-29332.12719346609,-22278.609547449298,0.0,0.0,0.0,193.0,1.0,154.0,0.0,2.0,3.0,249.0,410.0,2.0,1017.0,1744252693.9636648,0.0,2025-04-09 22:38:13.963,STOP,15
244.0,15150.61588890742,2553.0833069185387,-63365.22857728346,-61141.98996329188,-36387.05299938357,-33947.94123744265,-28968.55371815607,-22296.960329647107,0.0,0.0,0.0,193.0,1.0,155.0,0.0,2.0,3.0,251.0,411.0,2.0,1019.0,1744252693.9636734,0.0,2025-04-09 22:38:13.963,STOP,15
245.0,15092.70251902372,2513.7889401661087,-63394.01762414189,-61173.01418459585,-36429.2977964041,-33988.37554316229,-29067.594297837535,-22346.84942327135,0.0,0.0,0.0,193.0,1.0,154.0,0.0,2.0,3.0,250.0,410.0,2.0,1018.0,1744252693.963682,0.0,2025-04-09 22:38:13.963,STOP,15
246.0,15218.565192051554,2529.949251407296,-63401.81838295679,-61145.74505636038,-36474.716541137284,-34026.708784903145,-28749.6854364497,-22370.631679371796,0.0,0.0,0.0,193.0,1.0,154.0,0.0,2.0,3.0,252.0,410.0,2.0,1020.0,1744252693.9636953,0.0,2025-04-09 22:38:13.963,STOP,15
247.0,15236.223070171247,2566.807278014097,-63339.21114673748,-61145.6332976381,-36373.79841492158,-33911.46319049158,-29328.148582953047,-22270.182939789647,0.0,0.0,0.0,193.0,1.0,154.0,0.0,2.0,3.0,251.0,410.0,2.0,1019.0,1744252693.963704,0.0,2025-04-09 22:38:13.963,STOP,15
248.0,15165.748019903664,2565.265007646681,-63355.86319635668,-61124.93558227248,-36387.03064763911,-33934.39608030273,-28984.937546841807,-22289.628957465764,0.0,0.0,0.0,193.0,1.0,154.0,0.0,2.0,3.0,250.0,410.0,2.0,1018.0,1744252693.9637127,0.0,2025-04-09 22:38:13.963,STOP,15
249.0,15090.981434700661,2528.608146739977,-63389.05553687282,-61178.53506547631,-36421.027650955635,-33969.64478130874,-29086.816798069096,-22338.71338828962,0.0,0.0,0.0,193.0,1.0,155.0,0.0,2.0,3.0,252.0,411.0,2.0,1020.0,1744252693.9637213,0.0,2025-04-09 22:38:13.963,STOP,15
250.0,15194.112383617448,2527.4011525393908,-63396.81159219881,-61133.116320743124,-36478.20341327231,-34025.099459302364,-28751.07124460593,-22382.47810393311,0.0,0.0,0.0,193.0,1.0,155.0,0.0,2.0,3.0,252.0,411.0,2.0,1020.0,1744252693.96373,0.0,2025-04-09 22:38:13.963,STOP,15
251.0,15243.085055719026,2561.822839000564,-63353.53861493333,-61160.318393745234,-36390.3387058185,-33926.61767323228,-29272.93977414844,-22298.681413970164,0.0,0.0,0.0,193.0,1.0,154.0,0.0,2.0,3.0,249.0,410.0,2.0,1017.0,1744252693.9637387,0.0,2025-04-09 22:38:13.963,STOP,15
252.0,15179.561397977042,2566.941388480829,-63344.59791715121,-61109.937561742976,-36381.465063269745,-33924.8071819314,-29046.4048440939,-22288.466666754088,0.0,0.0,0.0,193.0,1.0,155.0,0.0,2.0,3.0,251.0,411.0,2.0,1019.0,1744252693.9637473,0.0,2025-04-09 22:38:13.963,STOP,15
253.0,15093.663644035298,2530.4409897853125,-63398.01858639939,-61187.654577214074,-36425.721517291255,-33964.12390042828,-29079.820702054585,-22334.913591732216,0.0,0.0,0.0,193.0,1.0,155.0,0.0,2.0,3.0,252.0,411.0,2.0,1020.0,1744252693.963756,0.0,2025-04-09 22:38:13.963,STOP,15
254.0,15164.228101280702,2518.97454487974,-63402.667749246095,-61134.747998088365,-36481.422064473874,-34022.81958136792,-28803.441381864715,-22378.700659120164,0.0,0.0,0.0,193.0,1.0,154.0,0.0,2.0,3.0,250.0,410.0,2.0,1018.0,1744252693.963765,0.0,2025-04-09 22:38:13.963,STOP,15
255.0,15246.773093554151,2554.4020598414018,-63376.42680125556,-61174.802324152275,-36415.64088054191,-33952.121013655786,-29155.01197040224,-22314.729966489074,0.0,0.0,0.0,193.0,1.0,155.0,0.0,2.0,3.0,252.0,411.0,2.0,1020.0,1744252693.9637735,0.0,2025-04-09 22:38:13.963,STOP,15
0.0,15185.99870038017,2562.426336100857,-63347.12366427466,-61116.084291468185,-36382.1356156034,-33929.92573141167,-29116.365804239013,-22285.516236485986,0.0,0.0,0.0,193.0,1.0,154.0,0.0,2.0,3.0,250.0,410.0,2.0,1018.0,1744252693.9637823,0.0,2025-04-09 22:38:13.963,STOP,15
1.0,15097.932827226261,2531.7150392192652,-63395.604597998215,-61187.5428184918,-36412.154008406884,-33962.58163006087,-29033.88786719893,-22320.764937492007,0.0,0.0,0.0,193.0,1.0,154.0,0.0,2.0,3.0,252.0,410.0,2.0,1020.0,1744252693.963791,0.0,2025-04-09 22:38:13.963,STOP,15
2.0,15133.248583465647,2505.4070359953685,-63394.66582473109,-61138.25722196785,-36459.472651418764,-34010.99550855107,-28867.65794368481,-22358.539385621476,0.0,0.0,0.0,193.0,1.0,155.0,0.0,2.0,3.0,251.0,411.0,2.0,1019.0,1744252693.9637997,0.0,2025-04-09 22:38:13.963,STOP,15
3.0,15243.44268363031,2543.0250219136506,-63384.04874611482,-61168.72264966043,-36433.54462785061,-33966.40377836273,-29018.956901902784,-22328.297475373445,0.0,0.0,0.0,193.0,1.0,154.0,0.0,2.0,3.0,249.0,410.0,2.0,1017.0,1744252693.9638083,0.0,2025-04-09 22:38:13.963,STOP,15
4.0,15201.264941843147,2564.706214035298,-63321.977951762434,-61101.533305827776,-36355.3805774904,-33898.074495562854,-29217.038061265717,-22259.632916406743,0.0,0.0,0.0,193.0,1.0,155.0,0.0,2.0,3.0,252.0,411.0,2.0,1020.0,1744252693.963817,0.0,2025-04-09 22:38:13.963,STOP,15
5.0,15118.630542591876,2545.483713803734,-63368.44722848502,-61158.15027453307,-36381.42035978084,-33935.33485356985,-28981.428322962325,-22297.40736453621,0.0,0.0,0.0,193.0,1.0,154.0,0.0,2.0,3.0,250.0,410.0,2.0,1018.0,1744252693.9638307,0.0,2025-04-09 22:38:13.963,STOP,15
6.0,15103.386652873356,2501.4507772267793,-63388.1614670946,-61148.315506972736,-36441.97123551026,-33996.24335721056,-28931.852153760454,-22345.530670348486,0.0,0.0,0.0,193.0,1.0,154.0,0.0,2.0,3.0,250.0,410.0,2.0,1018.0,1744252693.9638393,0.0,2025-04-09 22:38:13.963,STOP,15
7.0,15233.004418969682,2528.8987194178962,-63391.98361539646,-61165.16872229204,-36450.48725014773,-33996.086894999375,-28865.17690005027,-22344.61424882582,0.0,0.0,0.0,193.0,1.0,155.0,0.0,2.0,3.0,251.0,411.0,2.0,1019.0,1744252693.963848,0.0,2025-04-09 22:38:13.963,STOP,15
8.0,15207.545782035088,2554.64792903041,-63325.08484424173,-61119.571163603214,-36354.08417631199,-33910.92674862465,-29275.17494859397,-22270.2052915341,0.0,0.0,0.0,193.0,1.0,154.0,0.0,2.0,3.0,249.0,410.0,2.0,1017.0,1744252693.9638565,0.0,2025-04-09 22:38:13.963,STOP,15
9.0,15132.600382876442,2545.17078938136,-63366.01088833939,-61149.65661164006,-36380.2357173247,-33945.50489729702,-28954.047436004574,-22301.207161093615,0.0,0.0,0.0,193.0,1.0,155.0,0.0,2.0,3.0,252.0,411.0,2.0,1020.0,1744252693.963865,0.0,2025-04-09 22:38:13.963,STOP,15
10.0,15104.75010928513,2517.141701834405,-63370.078905830254,-61140.402989435555,-36410.92466246184,-33964.74974927303,-29009.83739016502,-22306.973911163084,0.0,0.0,0.0,193.0,1.0,154.0,0.0,2.0,3.0,249.0,410.0,2.0,1017.0,1744252693.9638736,0.0,2025-04-09 22:38:13.963,STOP,15
11.0,15235.597221326498,2538.97935616724,-63381.72416469147,-61129.562393374734,-36446.888619290425,-33992.465912397616,-28756.435663275202,-22328.677455029185,0.0,0.0,0.0,193.0,1.0,154.0,0.0,2.0,3.0,250.0,410.0,2.0,1018.0,1744252693.9638824,0.0,2025-04-09 22:38:13.963,STOP,15
12.0,15216.01709318365,2554.3126528635803,-63336.50658565839,-61131.90932654254,-36360.47677522621,-33909.92092012417,-29304.947472208438,-22258.627087906254,0.0,0.0,0.0,193.0,1.0,155.0,0.0,2.0,3.0,252.0,411.0,2.0,1020.0,1744252693.9638913,0.0,2025-04-09 22:38:13.963,STOP,15
13.0,15139.127092257393,2542.5332835356335,-63369.56481570779,-61136.133806244594,-36383.72258945973,-33947.24833336453,-28956.729645339212,-22284.935091130148,0.0,0.0,0.0,193.0,1.0,154.0,0.0,2.0,3.0,249.0,410.0,2.0,1017.0,1744252693.9639,0.0,2025-04-09 22:38:13.963,STOP,15
14.0,15081.750164240619,2509.720922675243,-63393.436478786054,-61167.940338604494,-36414.36683110796,-33980.150101202744,-29065.783806536652,-22315.355815333824,0.0,0.0,0.0,193.0,1.0,155.0,0.0,2.0,3.0,252.0,411.0,2.0,1020.0,1744252693.9639084,0.0,2025-04-09 22:38:13.963,STOP,15
15.0,15206.562305279054,2521.075608858539,-63393.659996230606,-61121.00167524835,-36454.62232287196,-34016.31522373143,-28723.757412881543,-22334.17598416519,0.0,0.0,0.0,193.0,1.0,154.0,0.0,2.0,3.0,250.0,410.0,2.0,1018.0,1744252694.0021255,0.0,2025-04-09 22:38:14.002,STOP,15
16.0,15230.63513405742,2547.517722549167,-63343.41327469508,-61134.41272192154,-36358.532173458596,-33918.88396965074,-29285.233233598858,-22253.575593659352,0.0,0.0,0.0,193.0,1.0,154.0,0.0,2.0,3.0,249.0,410.0,2.0,1017.0,1744252694.002157,0.0,2025-04-09 22:38:14.002,STOP,15
17.0,15162.730534402197,2555.944330208818,-63352.01869631037,-61095.83361099167,-36364.254220039154,-33936.22892334806,-28978.7908171166,-22262.181015274648,0.0,0.0,0.0,193.0,1.0,155.0,0.0,2.0,3.0,252.0,411.0,2.0,1020.0,1744252694.0021677,0.0,2025-04-09 22:38:14.002,STOP,15
18.0,15079.13501013935,2517.812254168064,-63391.491877018445,-61152.070600041225,-36399.16764487835,-33967.52136558549,-29061.84989951252,-22296.714460458097,0.0,0.0,0.0,193.0,1.0,154.0,0.0,2.0,3.0,249.0,410.0,2.0,1017.0,1744252694.0021777,0.0,2025-04-09 22:38:14.002,STOP,15
19.0,15180.500171244166,2518.0581233570724,-63395.98457765396,-61095.744204013856,-36456.902200806406,-34021.65729065624,-28734.083918819895,-22350.671571573206,0.0,0.0,0.0,193.0,1.0,154.0,0.0,2.0,3.0,250.0,410.0,2.0,1018.0,1744252694.0021868,0.0,2025-04-09 22:38:14.002,STOP,15
20.0,15233.719674792252,2552.4798098182455,-63371.19649305302,-61137.92194580102,-36391.880976185916,-33944.43201356316,-29223.184790990927,-22303.867018683795,0.0,0.0,0.0,193.0,1.0,155.0,0.0,2.0,3.0,252.0,411.0,2.0,1020.0,1744252694.0022783,0.0,2025-04-09 22:38:14.002,STOP,15
21.0,15172.028860095605,2556.4807720757453,-63350.230556753944,-61073.772439214285,-36362.77900490511,-33923.82370517537,-29048.7070737728,-22255.900175082705,0.0,0.0,0.0,193.0,1.0,154.0,0.0,2.0,3.0,251.0,410.0,2.0,1019.0,1744252694.002288,0.0,2025-04-09 22:38:14.002,STOP,15
22.0,15088.388632343846,2526.2165100832594,-63395.00110089793,-61139.710085357445,-36390.18224360731,-33945.57195253038,-29031.719747986765,-22265.913756598682,0.0,0.0,0.0,193.0,1.0,154.0,0.0,2.0,3.0,249.0,410.0,2.0,1017.0,1744252694.0022967,0.0,2025-04-09 22:38:14.002,STOP,15
23.0,15156.248528510157,2519.175710579838,-63392.96709215249,-61081.528494540275,-36442.03829074363,-33999.73022934559,-28783.660088021767,-22311.041928653947,0.0,0.0,0.0,193.0,1.0,155.0,0.0,2.0,3.0,252.0,411.0,2.0,1020.0,1744252694.2101133,0.0,2025-04-09 22:38:14.210,STOP,15
24.0,15237.653581816387,2545.3719550814576,-63388.51909500588,-61131.931678286994,-36409.851778727985,-33953.015083433995,-29081.78765556665,-22289.874826654774,0.0,0.0,0.0,193.0,1.0,154.0,0.0,2.0,3.0,249.0,410.0,2.0,1017.0,1744252694.2101476,0.0,2025-04-09 22:38:14.210,STOP,15
25.0,15184.590540479487,2557.3971935984127,-63344.03912353983,-61063.60239548712,-36354.95589434575,-33909.6526991907,-29133.15196432495,-22247.182994745137,0.0,0.0,0.0,193.0,1.0,154.0,0.0,2.0,3.0,250.0,410.0,2.0,1018.0,1744252694.2101583,0.0,2025-04-09 22:38:14.210,STOP,15
26.0,15108.527554098077,2542.913263191374,-63389.14494385063,-61125.18145146149,-36378.58168823501,-33940.296940838925,-28996.851026636486,-22280.040059094437,0.0,0.0,0.0,193.0,1.0,155.0,0.0,2.0,3.0,251.0,411.0,2.0,1019.0,1744252694.2101777,0.0,2025-04-09 22:38:14.210,STOP,15
27.0,15129.13586248587,2517.6110884679665,-63399.85142944472,-61087.1164306541,-36432.427040627845,-33991.124807730295,-28861.980600593164,-22309.410251308713,0.0,0.0,0.0,193.0,1.0,155.0,0.0,2.0,3.0,251.0,411.0,2.0,1019.0,1744252694.210195,0.0,2025-04-09 22:38:14.210,STOP,15
28.0,15245.700209820297,2551.8763127179523,-63401.37134806769,-61116.53132635729,-36420.178284666334,-33966.04615045144,-28939.563505597536,-22295.216893579593,0.0,0.0,0.0,193.0,1.0,154.0,0.0,2.0,3.0,248.0,410.0,2.0,1016.0,1744252694.2102041,0.0,2025-04-09 22:38:14.210,STOP,15
29.0,15207.76929947964,2580.419490387379,-63341.423969438554,-61052.94061338194,-36343.69061514027,-33891.39132397072,-29218.379165933035,-22231.134442226226,0.0,0.0,0.0,193.0,1.0,155.0,0.0,2.0,3.0,252.0,411.0,2.0,1020.0,1744252694.2102137,0.0,2025-04-09 22:38:14.210,STOP,15
30.0,15119.502260625633,2553.418583085368,-63399.02441489988,-61109.26700940931,-36387.65649648386,-33932.1609058572,-28965.290363465592,-22275.055620080904,0.0,0.0,0.0,193.0,1.0,154.0,0.0,2.0,3.0,250.0,410.0,2.0,1018.0,1744252694.2102234,0.0,2025-04-09 22:38:14.210,STOP,15
31.0,15095.27296963608,2507.0163615961505,-63419.02922618738,-61106.8753727526,-36441.59125585452,-33986.54270011696,-28964.64216287639,-22323.22362938209,0.0,0.0,0.0,193.0,1.0,154.0,0.0,2.0,3.0,250.0,410.0,2.0,1018.0,1744252694.2102323,0.0,2025-04-09 22:38:14.210,STOP,15
32.0,15231.73036953573,2540.0522399010947,-63418.58219129827,-61112.26214316633,-36450.48725014773,-33984.39693264925,-28830.554047889003,-22323.067167170902,0.0,0.0,0.0,193.0,1.0,154.0,0.0,2.0,3.0,250.0,410.0,2.0,1018.0,1744252694.210241,0.0,2025-04-09 22:38:14.210,STOP,15
33.0,15208.305741346569,2563.163943667882,-63354.075056800255,-61079.69565149494,-36354.01712107863,-33890.877233848245,-29290.329431334667,-22240.186898730626,0.0,0.0,0.0,193.0,1.0,155.0,0.0,2.0,3.0,252.0,411.0,2.0,1020.0,1744252694.21025,0.0,2025-04-09 22:38:14.210,STOP,15
34.0,15134.85790906643,2559.3417953660246,-63390.75426945142,-61100.214552904916,-36378.51463300164,-33924.226036575565,-28946.20197370076,-22266.78547463244,0.0,0.0,0.0,193.0,1.0,154.0,0.0,2.0,3.0,250.0,410.0,2.0,1018.0,1744252694.2102585,0.0,2025-04-09 22:38:14.210,STOP,15
35.0,15086.22051313168,2518.885137901919,-63415.117670907704,-61122.38748340458,-36424.22395041275,-33969.42126386419,-29030.4009950639,-22315.4675740561,0.0,0.0,0.0,193.0,1.0,154.0,0.0,2.0,3.0,250.0,410.0,2.0,1018.0,1744252694.2102988,0.0,2025-04-09 22:38:14.210,STOP,15
36.0,15218.431081584822,2536.520664277156,-63422.538450066866,-61107.121241941604,-36458.846802574015,-34010.50377017305,-28749.998360872076,-22354.069036730416,0.0,0.0,0.0,193.0,1.0,154.0,0.0,2.0,3.0,252.0,410.0,2.0,1020.0,1744252694.210308,0.0,2025-04-09 22:38:14.210,STOP,15
37.0,15218.989875196205,2560.4370308443345,-63364.714487160985,-61102.74030002837,-36359.98503684819,-33906.679917178146,-29311.42947810048,-22260.571689673867,0.0,0.0,0.0,193.0,1.0,153.0,0.0,2.0,3.0,249.0,409.0,2.0,1017.0,1744252694.2103195,0.0,2025-04-09 22:38:14.210,STOP,15
38.0,15147.553699917044,2555.676109275354,-63387.89324616114,-61090.84917197814,-36375.318333544536,-33933.63612099125,-28956.21555521674,-22281.247053295025,0.0,0.0,0.0,193.0,1.0,155.0,0.0,2.0,3.0,252.0,411.0,2.0,1020.0,1744252694.210328,0.0,2025-04-09 22:38:14.210,STOP,15
39.0,15075.670489748776,2511.8443383984973,-63421.689083777565,-61139.03953302378,-36412.48928457371,-33969.82359526439,-29065.068550714084,-22320.876696214284,0.0,0.0,0.0,193.0,1.0,154.0,0.0,2.0,3.0,251.0,410.0,2.0,1019.0,1744252694.2103372,0.0,2025-04-09 22:38:14.210,STOP,15
40.0,15190.178476593313,2522.9978588816953,-63424.79597625685,-61093.88900922406,-36464.233572987745,-34011.86722658482,-28726.104346049353,-22350.448054128654,0.0,0.0,0.0,193.0,1.0,154.0,0.0,2.0,3.0,249.0,410.0,2.0,1017.0,1744252694.210346,0.0,2025-04-09 22:38:14.210,STOP,15
41.0,15225.516584577153,2558.2465598877147,-63376.180932066556,-61114.94435250096,-36367.47287124072,-33910.54676896892,-29281.679306230464,-22273.289832268936,0.0,0.0,0.0,193.0,1.0,155.0,0.0,2.0,3.0,252.0,411.0,2.0,1020.0,1744252694.2103543,0.0,2025-04-09 22:38:14.210,STOP,15
42.0,15162.596423935465,2559.945292466318,-63379.73485943495,-61075.62763400408,-36367.29405728508,-33920.82857141836,-29001.008451105172,-22268.79713163342,0.0,0.0,0.0,193.0,1.0,155.0,0.0,2.0,3.0,251.0,411.0,2.0,1019.0,1744252694.2103636,0.0,2025-04-09 22:38:14.210,STOP,15
43.0,15083.381841585857,2525.7918269386087,-63415.76587149691,-61138.19016673448,-36394.25026109818,-33947.58360953136,-29064.621515824976,-22296.22272208008,0.0,0.0,0.0,193.0,1.0,154.0,0.0,2.0,3.0,250.0,410.0,2.0,1018.0,1744252694.2103722,0.0,2025-04-09 22:38:14.210,STOP,15
44.0,15169.436057738789,2524.8977571603964,-63414.71533950751,-61081.08145965117,-36446.061604745584,-33998.14325548926,-28744.32101778043,-22333.304266131436,0.0,0.0,0.0,193.0,1.0,155.0,0.0,2.0,3.0,252.0,411.0,2.0,1020.0,1744252694.2103808,0.0,2025-04-09 22:38:14.210,STOP,15
45.0,15237.675933560842,2554.938501708329,-63388.183818839054,-61126.18727996198,-36378.84990916847,-33922.21437957459,-29170.97111594333,-22273.043963079926,0.0,0.0,0.0,193.0,1.0,154.0,0.0,2.0,3.0,249.0,410.0,2.0,1017.0,1744252694.2103896,0.0,2025-04-09 22:38:14.210,STOP,15
46.0,15180.276653799612,2560.0123476996837,-63354.87971960065,-61061.814255930694,-36338.70617612674,-33902.88012062074,-29058.18421342185,-22246.64655287821,0.0,0.0,0.0,193.0,1.0,154.0,0.0,2.0,3.0,252.0,410.0,2.0,1020.0,1744252694.2103984,0.0,2025-04-09 22:38:14.210,STOP,15
47.0,15084.633539275354,2520.1815390803267,-63414.44711857404,-61144.96274530444,-36385.57778424952,-33947.62831302027,-29015.470029767755,-22296.535646502452,0.0,0.0,0.0,193.0,1.0,155.0,0.0,2.0,3.0,252.0,411.0,2.0,1020.0,1744252694.2104073,0.0,2025-04-09 22:38:14.210,STOP,15
48.0,15126.61011536242,2489.0008555651734,-63424.8183280013,-61102.82970700619,-36451.31426469258,-34012.06839228492,-28813.589073847423,-22354.873699530806,0.0,0.0,0.0,193.0,1.0,155.0,0.0,2.0,3.0,251.0,411.0,2.0,1019.0,1744252694.2104204,0.0,2025-04-09 22:38:14.210,STOP,15
49.0,15235.574869582042,2531.871501430452,-63403.718281235495,-61134.390370177076,-36408.57772929403,-33952.70215901162,-29053.356236619504,-22311.55601877642,0.0,0.0,0.0,193.0,1.0,154.0,0.0,2.0,3.0,250.0,410.0,2.0,1018.0,1744252694.2104309,0.0,2025-04-09 22:38:14.210,STOP,15
50.0,15178.868493898928,2544.9919754257176,-63356.109065545694,-61069.27973857877,-36354.419452478825,-33900.82376013086,-29170.702895009865,-22257.800073361406,0.0,0.0,0.0,193.0,1.0,154.0,0.0,2.0,3.0,251.0,410.0,2.0,1019.0,1744252694.2104468,0.0,2025-04-09 22:38:14.210,STOP,15
51.0,15091.249655634125,2524.048390871095,-63407.83100221527,-61135.507957399845,-36387.32122031703,-33942.37565307327,-29001.299023783093,-22296.468591269087,0.0,0.0,0.0,193.0,1.0,154.0,0.0,2.0,3.0,252.0,410.0,2.0,1020.0,1744252694.210456,0.0,2025-04-09 22:38:14.210,STOP,15
52.0,15105.286551152058,2500.266134770648,-63408.680368504574,-61101.19802966095,-36425.94503473581,-33989.6719443407,-28905.63355751438,-22330.26442888551,0.0,0.0,0.0,193.0,1.0,154.0,0.0,2.0,3.0,249.0,410.0,2.0,1017.0,1744252694.2104647,0.0,2025-04-09 22:38:14.210,STOP,15
53.0,15229.942229979306,2530.7986176965974,-63407.003987670425,-61124.08621598318,-36417.0937439315,-33972.12582494329,-28903.800714469042,-22317.255713612525,0.0,0.0,0.0,193.0,1.0,155.0,0.0,2.0,3.0,252.0,411.0,2.0,1020.0,1744252694.2104735,0.0,2025-04-09 22:38:14.210,STOP,15
54.0,15197.331034819012,2551.9880714402284,-63344.32969621774,-61070.57613975718,-36332.09005976797,-33895.23582401703,-29240.797965621707,-22243.852584821296,0.0,0.0,0.0,193.0,1.0,154.0,0.0,2.0,3.0,250.0,410.0,2.0,1018.0,1744252694.2104828,0.0,2025-04-09 22:38:14.210,STOP,15
55.0,15121.312751926513,2541.259234101681,-63391.22365608498,-61115.19022168997,-36366.221173551225,-33936.452440792615,-28950.739377825186,-22284.64451845223,0.0,0.0,0.0,193.0,1.0,154.0,0.0,2.0,3.0,250.0,410.0,2.0,1018.0,1744252694.2104945,0.0,2025-04-09 22:38:14.210,STOP,15
56.0,15095.161210913804,2507.5975069519886,-63406.10991789221,-61110.272837909804,-36417.20550265378,-33976.97615349009,-28979.193148516795,-22318.596818279842,0.0,0.0,0.0,193.0,1.0,155.0,0.0,2.0,3.0,252.0,411.0,2.0,1020.0,1744252694.210504,0.0,2025-04-09 22:38:14.210,STOP,15
57.0,15229.092863690003,2533.480827031234,-63411.183763883564,-61106.6742070525,-36441.12186922096,-33990.275441440994,-28795.64062304981,-22336.85819349983,0.0,0.0,0.0,193.0,1.0,154.0,0.0,2.0,3.0,251.0,410.0,2.0,1019.0,1744252694.210514,0.0,2025-04-09 22:38:14.210,STOP,15
58.0,15220.465090330255,2566.4049466139018,-63338.74176010392,-61071.38080255757,-36336.71687087022,-33879.813120342864,-29302.064097173705,-22245.014875532972,0.0,0.0,0.0,193.0,1.0,154.0,0.0,2.0,3.0,250.0,410.0,2.0,1018.0,1744252694.210523,0.0,2025-04-09 22:38:14.210,STOP,15
59.0,15145.51969117161,2558.8053534990972,-63376.02446985537,-61086.13295389807,-36365.90824912885,-33915.128876582254,-28940.323464909015,-22277.69312592663,0.0,0.0,0.0,193.0,1.0,154.0,0.0,2.0,3.0,252.0,410.0,2.0,1020.0,1744252694.210532,0.0,2025-04-09 22:38:14.210,STOP,15
60.0,15091.719042267687,2527.490559517212,-63394.88934217565,-61108.730567542385,-36400.01701116765,-33945.750766486024,-29029.261056096682,-22301.363623304802,0.0,0.0,0.0,193.0,1.0,154.0,0.0,2.0,3.0,250.0,410.0,2.0,1018.0,1744252694.2105408,0.0,2025-04-09 22:38:14.210,STOP,15
61.0,15198.96271216425,2529.233995584726,-63421.55497331083,-61100.482773838376,-36464.34533171002,-34002.70301135814,-28718.951787823655,-22359.4781588886,0.0,0.0,0.0,193.0,1.0,154.0,0.0,2.0,3.0,250.0,410.0,2.0,1018.0,1744252694.2105496,0.0,2025-04-09 22:38:14.210,STOP,15
62.0,15210.697378003286,2550.803428984097,-63365.54150170583,-61108.55175358675,-36359.515650214635,-33904.71296366608,-29304.85806523062,-22285.85151265282,0.0,0.0,0.0,193.0,1.0,155.0,0.0,2.0,3.0,252.0,411.0,2.0,1020.0,1744252694.2105584,0.0,2025-04-09 22:38:14.210,STOP,15
63.0,15146.5255196721,2553.4409348298236,-63372.73876342044,-61076.07466889318,-36360.566182204035,-33909.4515334906,-28951.007598758653,-22268.77477988896,0.0,0.0,0.0,193.0,1.0,154.0,0.0,2.0,3.0,250.0,410.0,2.0,1018.0,1744252694.2105672,0.0,2025-04-09 22:38:14.210,STOP,15
64.0,15077.212760116192,2516.538204734112,-63401.483106789965,-61119.3252944142,-36395.34549657649,-33925.50008600952,-29044.61670453748,-22277.938995115637,0.0,0.0,0.0,193.0,1.0,154.0,0.0,2.0,3.0,252.0,410.0,2.0,1020.0,1744252694.210576,0.0,2025-04-09 22:38:14.210,STOP,15
65.0,15183.227084067714,2519.2874693021145,-63411.09435690575,-61077.46047704941,-36454.82348857206,-33987.92850827319,-28699.237549214075,-22332.209030653125,0.0,0.0,0.0,193.0,1.0,154.0,0.0,2.0,3.0,251.0,410.0,2.0,1019.0,1744252694.21059,0.0,2025-04-09 22:38:14.210,STOP,15
66.0,15216.307665861568,2542.4438765578125,-63385.43455427105,-61126.366093917626,-36378.29111555709,-33914.68184169315,-29232.863096340072,-22286.90204464222,0.0,0.0,0.0,193.0,1.0,154.0,0.0,2.0,3.0,250.0,410.0,2.0,1018.0,1744252694.2105987,0.0,2025-04-09 22:38:14.210,STOP,15
67.0,15158.416647722323,2551.9657196957733,-63369.4083534966,-61069.8161804457,-36357.95102810276,-33902.99187934302,-29006.462276752267,-22263.969154831073,0.0,0.0,0.0,193.0,1.0,155.0,0.0,2.0,3.0,251.0,411.0,2.0,1019.0,1744252694.2106073,0.0,2025-04-09 22:38:14.210,STOP,15
68.0,15073.256501347603,2517.231108812226,-63414.93885695206,-61142.39229469208,-36395.97134542124,-33940.945141428136,-29042.716806258777,-22308.65029199723,0.0,0.0,0.0,193.0,1.0,154.0,0.0,2.0,3.0,249.0,410.0,2.0,1017.0,1744252694.210616,0.0,2025-04-09 22:38:14.210,STOP,15
69.0,15138.769464346107,2499.0591405700616,-63425.243011145954,-61095.00659644683,-36462.154860753406,-34002.814770080426,-28753.865212662844,-22355.588955353374,0.0,0.0,0.0,193.0,1.0,155.0,0.0,2.0,3.0,252.0,411.0,2.0,1020.0,1744252694.2106247,0.0,2025-04-09 22:38:14.210,STOP,15
70.0,15217.604067039976,2533.5478822646,-63403.159487624114,-61137.51961440082,-36402.69922050228,-33931.758574457,-29138.09169984957,-22299.03904188145,0.0,0.0,0.0,193.0,1.0,154.0,0.0,2.0,3.0,249.0,410.0,2.0,1017.0,1744252694.2106335,0.0,2025-04-09 22:38:14.210,STOP,15
71.0,15172.610005451443,2559.453554088301,-63356.958431834995,-61058.4614942624,-36349.25619950965,-33888.932632080636,-29097.143304007448,-22249.5522796574,0.0,0.0,0.0,193.0,1.0,154.0,0.0,2.0,3.0,250.0,410.0,2.0,1018.0,1744252694.210642,0.0,2025-04-09 22:38:14.210,STOP,15
72.0,15091.026138189573,2530.2174723407593,-63405.64053125865,-61131.05996025324,-36380.86156616945,-33929.411641289196,-29006.574035474547,-22293.160533089704,0.0,0.0,0.0,193.0,1.0,155.0,0.0,2.0,3.0,252.0,411.0,2.0,1020.0,1744252694.2106512,0.0,2025-04-09 22:38:14.210,STOP,15
73.0,15115.836574534962,2496.7345591467097,-63420.10210992124,-61100.88510523857,-36445.90514253439,-33997.80797932243,-28826.217809464673,-22348.548155849952,0.0,0.0,0.0,193.0,1.0,154.0,0.0,2.0,3.0,249.0,410.0,2.0,1017.0,1744252694.21066,0.0,2025-04-09 22:38:14.210,STOP,15
74.0,15217.58171529552,2522.9531553927845,-63414.44711857404,-61141.8335010807,-36421.519389333655,-33963.07336843888,-28996.202826047283,-22330.197373652147,0.0,0.0,0.0,193.0,1.0,154.0,0.0,2.0,3.0,249.0,410.0,2.0,1017.0,1744252694.2106693,0.0,2025-04-09 22:38:14.210,STOP,15
75.0,15175.381621763901,2548.434144071835,-63354.83501611174,-61074.37593631458,-36348.2280192647,-33898.9015101077,-29192.473494109334,-22269.84766362282,0.0,0.0,0.0,193.0,1.0,155.0,0.0,2.0,3.0,252.0,411.0,2.0,1020.0,1744252694.6817296,0.0,2025-04-09 22:38:14.681,STOP,15
76.0,15095.116507424893,2532.363239808469,-63403.852391702225,-61132.04343700927,-36379.989848135694,-33934.61959774728,-28979.88605259491,-22307.108021629814,0.0,0.0,0.0,193.0,1.0,154.0,0.0,2.0,3.0,249.0,410.0,2.0,1017.0,1744252694.6817718,0.0,2025-04-09 22:38:14.681,STOP,15
77.0,15091.853152734418,2493.0241695671284,-63413.77656624038,-61111.949218743954,-36428.4484301148,-33978.94310700215,-28924.565485068022,-22336.522917332997,0.0,0.0,0.0,193.0,1.0,154.0,0.0,2.0,3.0,250.0,410.0,2.0,1018.0,1744252694.6817918,0.0,2025-04-09 22:38:14.681,STOP,15
78.0,15216.844107728495,2518.7733791796422,-63419.9679994545,-61132.55752713174,-36436.696223818806,-33980.73124655858,-28860.974772092675,-22346.983533738083,0.0,0.0,0.0,193.0,1.0,155.0,0.0,2.0,3.0,251.0,411.0,2.0,1019.0,1744252694.6818097,0.0,2025-04-09 22:38:14.681,STOP,15
79.0,15181.215427066736,2537.1241613774496,-63363.932176105045,-61093.75489875733,-36357.14636530237,-33903.84124563232,-29272.090407859137,-22285.02449810797,0.0,0.0,0.0,193.0,1.0,154.0,0.0,2.0,3.0,250.0,410.0,2.0,1018.0,1744252694.6818335,0.0,2025-04-09 22:38:14.681,STOP,15
80.0,15108.125222697881,2530.0833618740276,-63400.25376084492,-61121.0240269928,-36380.39217953589,-33931.51270526799,-28963.03283727561,-22301.609492493808,0.0,0.0,0.0,193.0,1.0,155.0,0.0,2.0,3.0,252.0,411.0,2.0,1020.0,1744252694.6818924,0.0,2025-04-09 22:38:14.681,STOP,15
81.0,15078.956196183706,2500.6684661708437,-63405.886400447656,-61118.85590778064,-36411.48345607322,-33967.14138592975,-29002.148390072394,-22326.531687561477,0.0,0.0,0.0,193.0,1.0,154.0,0.0,2.0,3.0,249.0,410.0,2.0,1017.0,1744252694.6819081,0.0,2025-04-09 22:38:14.681,STOP,15
82.0,15209.646846013886,2518.393399523902,-63415.050615674336,-61113.066805966715,-36445.45810764529,-33993.784665320476,-28762.291820322494,-22349.151652950248,0.0,0.0,0.0,193.0,1.0,154.0,0.0,2.0,3.0,252.0,410.0,2.0,1020.0,1744252694.6819236,0.0,2025-04-09 22:38:14.681,STOP,15
83.0,15199.566209264543,2537.9511759222955,-63354.0527050558,-61098.51582032631,-36349.233847765194,-33898.789751385426,-29308.32258562119,-22272.529872957453,0.0,0.0,0.0,193.0,1.0,155.0,0.0,2.0,3.0,251.0,411.0,2.0,1019.0,1744252694.6819391,0.0,2025-04-09 22:38:14.681,STOP,15
84.0,15126.453653151233,2534.26313808717,-63382.37236528067,-61099.789869760265,-36366.26587704013,-33925.678899965154,-28947.096043478974,-22287.30437604241,0.0,0.0,0.0,193.0,1.0,154.0,0.0,2.0,3.0,250.0,410.0,2.0,1018.0,1744252694.6819549,0.0,2025-04-09 22:38:14.681,STOP,15
85.0,15072.831818202952,2502.25544002717,-63399.47144978899,-61125.919059028514,-36395.90429018787,-33949.036472920954,-29045.51077431569,-22299.79900119293,0.0,0.0,0.0,193.0,1.0,155.0,0.0,2.0,3.0,252.0,411.0,2.0,1020.0,1744252694.68197,0.0,2025-04-09 22:38:14.681,STOP,15
86.0,15189.932607404306,2511.2855447871143,-63407.272208603885,-61093.6207882906,-36443.06647098857,-33996.6233368663,-28697.8740928023,-22336.254696399534,0.0,0.0,0.0,193.0,1.0,155.0,0.0,2.0,3.0,252.0,411.0,2.0,1020.0,1744252694.6819851,0.0,2025-04-09 22:38:14.681,STOP,15
87.0,15209.222162869235,2542.689745746821,-63356.37728647915,-61108.14942218655,-36352.00546407765,-33895.66050716168,-29275.97961139436,-22264.595003675822,0.0,0.0,0.0,193.0,1.0,154.0,0.0,2.0,3.0,249.0,410.0,2.0,1017.0,1744252694.682004,0.0,2025-04-09 22:38:14.682,STOP,15
88.0,15141.071694025004,2540.4098678123796,-63369.14013256314,-61079.74035498386,-36363.80718515005,-33910.21149280208,-28969.134863511907,-22264.349134486813,0.0,0.0,0.0,193.0,1.0,155.0,0.0,2.0,3.0,251.0,411.0,2.0,1019.0,1744252694.6820197,0.0,2025-04-09 22:38:14.682,STOP,15
89.0,15065.276928577057,2512.984277365718,-63399.78437421136,-61133.071617254216,-36389.221118595735,-33938.46409779359,-29059.637076811443,-22297.519123258488,0.0,0.0,0.0,193.0,1.0,155.0,0.0,2.0,3.0,251.0,411.0,2.0,1019.0,1744252694.682035,0.0,2025-04-09 22:38:14.682,STOP,15
90.0,15163.28932801358,2508.06689358555,-63406.95928418152,-61083.3166340967,-36448.229723957746,-33995.773970577,-28713.654424387747,-22343.317847647413,0.0,0.0,0.0,193.0,1.0,154.0,0.0,2.0,3.0,250.0,410.0,2.0,1018.0,1744252694.6820502,0.0,2025-04-09 22:38:14.682,STOP,15
91.0,15215.324189105535,2534.6431177429104,-63374.75042042141,-61123.95210551645,-36377.128824845415,-33911.03850734693,-29219.384994433523,-22281.224701550567,0.0,0.0,0.0,193.0,1.0,154.0,0.0,2.0,3.0,250.0,410.0,2.0,1018.0,1744252694.6820652,0.0,2025-04-09 22:38:14.682,STOP,15
92.0,15149.85592959594,2538.8675974449634,-63360.646469670115,-61070.75495371282,-36358.44276648078,-33906.79167590042,-29038.51467830118,-22262.78451237494,0.0,0.0,0.0,193.0,1.0,155.0,0.0,2.0,3.0,252.0,411.0,2.0,1020.0,1744252694.6820805,0.0,2025-04-09 22:38:14.682,STOP,15
93.0,15074.59760601492,2521.679105958832,-63395.179914853565,-61135.016219021825,-36381.085083614,-33932.02679539046,-29051.344579618526,-22293.89814065673,0.0,0.0,0.0,193.0,1.0,154.0,0.0,2.0,3.0,249.0,410.0,2.0,1017.0,1744252694.6820958,0.0,2025-04-09 22:38:14.682,STOP,15
94.0,15139.127092257393,2503.976524350229,-63399.516153277895,-61086.0658986647,-36442.5523808661,-33998.00914502253,-28782.14016939881,-22354.225498941603,0.0,0.0,0.0,193.0,1.0,154.0,0.0,2.0,3.0,250.0,410.0,2.0,1018.0,1744252694.6821115,0.0,2025-04-09 22:38:14.682,STOP,15
95.0,15216.084148417014,2522.707286203776,-63391.93891190755,-61139.37480919061,-36402.31924084655,-33942.7109292401,-29097.43387668537,-22312.964178677106,0.0,0.0,0.0,193.0,1.0,155.0,0.0,2.0,3.0,251.0,411.0,2.0,1019.0,1744252694.682136,0.0,2025-04-09 22:38:14.682,STOP,15
96.0,15171.29125252858,2548.098867905005,-63338.272373470354,-61058.84147391814,-36341.611902905934,-33890.385495470226,-29119.204475784838,-22243.07027376536,0.0,0.0,0.0,193.0,1.0,154.0,0.0,2.0,3.0,250.0,410.0,2.0,1018.0,1744252694.6821516,0.0,2025-04-09 22:38:14.682,STOP,15
97.0,15089.50621956661,2526.8200071835527,-63389.43551652855,-61127.61779160712,-36377.30763880106,-33930.57393200087,-28996.091067325007,-22293.22758832307,0.0,0.0,0.0,193.0,1.0,155.0,0.0,2.0,3.0,252.0,411.0,2.0,1020.0,1744252694.682167,0.0,2025-04-09 22:38:14.682,STOP,15
98.0,15105.800641274529,2498.0533120695727,-63398.30915907731,-61092.50320106783,-36435.55628485159,-33987.36971466181,-28860.57244069248,-22348.726969805597,0.0,0.0,0.0,193.0,1.0,154.0,0.0,2.0,3.0,249.0,410.0,2.0,1017.0,1744252694.6821823,0.0,2025-04-09 22:38:14.682,STOP,15
99.0,15224.935439221317,2538.97935616724,-63385.54631299333,-61113.13386120008,-36406.007278681675,-33947.18127813116,-28945.844345789475,-22315.51227754501,0.0,0.0,0.0,193.0,1.0,155.0,0.0,2.0,3.0,252.0,411.0,2.0,1020.0,1744252694.682197,0.0,2025-04-09 22:38:14.682,STOP,15
100.0,15189.083241115004,2562.113411678483,-63322.134413973625,-61048.60437495761,-36321.51768464061,-33871.40886442767,-29195.043944721696,-22226.3958724017,0.0,0.0,0.0,193.0,1.0,154.0,0.0,2.0,3.0,250.0,410.0,2.0,1018.0,1744252694.682212,0.0,2025-04-09 22:38:14.682,STOP,15
101.0,15100.972664472183,2535.112504376472,-63378.460810001,-61108.305884397734,-36359.62740893691,-33913.56425447038,-28946.7831190566,-22273.222777035568,0.0,0.0,0.0,193.0,1.0,154.0,0.0,2.0,3.0,251.0,410.0,2.0,1019.0,1744252694.6822388,0.0,2025-04-09 22:38:14.682,STOP,15
102.0,15077.503332794111,2492.3536172334693,-63401.23723760096,-61107.45651810843,-36419.75360152168,-33970.784720275966,-28938.73649105269,-22337.66285630022,0.0,0.0,0.0,193.0,1.0,154.0,0.0,2.0,3.0,250.0,410.0,2.0,1018.0,1744252694.682254,0.0,2025-04-09 22:38:14.682,STOP,15
103.0,15201.555514521066,2517.49932974569,-63411.608447028215,-61123.14744271606,-36441.43479364333,-33979.41249363572,-28837.728957859155,-22352.571469851908,0.0,0.0,0.0,193.0,1.0,155.0,0.0,2.0,3.0,253.0,411.0,2.0,1021.0,1744252694.6822689,0.0,2025-04-09 22:38:14.682,STOP,15
104.0,15179.449639254766,2546.3330800930357,-63340.86517582717,-61081.103811395624,-36339.309673227035,-33882.696495377604,-29286.842559199642,-22254.84964309331,0.0,0.0,0.0,193.0,1.0,154.0,0.0,2.0,3.0,250.0,410.0,2.0,1018.0,1744252694.682284,0.0,2025-04-09 22:38:14.682,STOP,15
105.0,15101.12912668337,2534.419600298357,-63385.34514729323,-61110.76457628782,-36370.266839297634,-33924.53896099794,-28936.322502651514,-22282.632861451253,0.0,0.0,0.0,193.0,1.0,155.0,0.0,2.0,3.0,252.0,411.0,2.0,1020.0,1744252694.6822991,0.0,2025-04-09 22:38:14.682,STOP,15
106.0,15049.697762691709,2482.272980484126,-63404.768813224895,-61126.410797406534,-36412.01989794015,-33961.37463586028,-29014.508904756178,-22315.84755371184,0.0,0.0,0.0,193.0,1.0,154.0,0.0,2.0,3.0,250.0,410.0,2.0,1018.0,1744252694.6823142,0.0,2025-04-09 22:38:14.682,STOP,15
107.0,15181.595406722476,2502.1213295604384,-63405.528772536374,-61105.020177962804,-36440.0042819982,-33987.43676989517,-28738.844840388876,-22339.383940623276,0.0,0.0,0.0,193.0,1.0,154.0,0.0,2.0,3.0,250.0,410.0,2.0,1018.0,1744252694.6823292,0.0,2025-04-09 22:38:14.682,STOP,15
108.0,15186.401031780368,2534.6654694873655,-63337.646524625605,-61092.88318072358,-36330.368975444915,-33880.3495622098,-29292.721067991388,-22245.5513173999,0.0,0.0,0.0,193.0,1.0,154.0,0.0,2.0,3.0,251.0,410.0,2.0,1019.0,1744252694.6823444,0.0,2025-04-09 22:38:14.682,STOP,15
109.0,15111.656798321821,2525.9259374053404,-63372.29172853133,-61096.90649472553,-36357.05695832455,-33918.056955105894,-28931.047490960063,-22275.61441369229,0.0,0.0,0.0,193.0,1.0,153.0,0.0,2.0,3.0,250.0,409.0,2.0,1018.0,1744252694.6823597,0.0,2025-04-09 22:38:14.682,STOP,15
110.0,15045.607393456388,2489.6043526654666,-63401.08077538977,-61140.80532083575,-36391.79156920809,-33949.885839210256,-29045.22020163777,-22310.840762953852,0.0,0.0,0.0,193.0,1.0,153.0,0.0,2.0,3.0,249.0,409.0,2.0,1017.0,1744252694.682383,0.0,2025-04-09 22:38:14.682,STOP,15
111.0,15163.870473369418,2501.584887693511,-63403.092432390746,-61098.53817207077,-36440.13839246493,-33995.34928743235,-28701.11509574832,-22345.262449415022,0.0,0.0,0.0,193.0,1.0,154.0,0.0,2.0,3.0,249.0,410.0,2.0,1017.0,1744252694.682398,0.0,2025-04-09 22:38:14.682,STOP,15
112.0,15194.090031872993,2531.871501430452,-63355.058533556294,-61120.64404733707,-36350.99963557716,-33895.213472272575,-29262.009771109795,-22262.091608296825,0.0,0.0,0.0,193.0,1.0,154.0,0.0,2.0,3.0,252.0,410.0,2.0,1020.0,1744252694.682413,0.0,2025-04-09 22:38:14.682,STOP,15
113.0,15129.985228775173,2535.5818910100334,-63353.62802191115,-61077.86280844961,-36345.746975630165,-33903.23774853203,-28970.54302341259,-22257.241279750026,0.0,0.0,0.0,193.0,1.0,154.0,0.0,2.0,3.0,250.0,410.0,2.0,1018.0,1744252694.682428,0.0,2025-04-09 22:38:14.682,STOP,15
114.0,15053.698724949209,2502.25544002717,-63387.133286849654,-61138.95012604596,-36373.843118410485,-33931.62446399027,-29036.815945722574,-22289.69601269913,0.0,0.0,0.0,193.0,1.0,154.0,0.0,2.0,3.0,252.0,410.0,2.0,1020.0,1744252694.682443,0.0,2025-04-09 22:38:14.682,STOP,15
115.0,15142.189281247769,2498.008608580662,-63390.4636967735,-61087.5187620543,-36434.72927030674,-33986.855624539334,-28713.58736915438,-22335.51708883251,0.0,0.0,0.0,193.0,1.0,154.0,0.0,2.0,3.0,249.0,410.0,2.0,1017.0,1744252694.682458,0.0,2025-04-09 22:38:14.682,STOP,15
116.0,15204.349482577978,2523.981335637729,-63369.90009187462,-61137.050227767264,-36377.70997020125,-33916.22411206056,-29169.518252553735,-22292.557035989408,0.0,0.0,0.0,193.0,1.0,154.0,0.0,2.0,3.0,250.0,410.0,2.0,1018.0,1744252694.6824727,0.0,2025-04-09 22:38:14.682,STOP,15
117.0,15147.3748859614,2533.525530520145,-63341.96041130548,-61070.8667124351,-36345.63521690789,-33892.1512832822,-29047.857707483498,-22259.92348908466,0.0,0.0,0.0,193.0,1.0,155.0,0.0,2.0,3.0,251.0,411.0,2.0,1019.0,1744252694.6824875,0.0,2025-04-09 22:38:14.682,STOP,15
118.0,15057.654983717799,2506.815195896053,-63392.743574707936,-61145.34272496018,-36384.77312144913,-33928.361109299796,-29022.443774037813,-22304.202294850624,0.0,0.0,0.0,193.0,1.0,154.0,0.0,2.0,3.0,249.0,410.0,2.0,1017.0,1744252694.6825027,0.0,2025-04-09 22:38:14.682,STOP,15
119.0,15110.695673310242,2493.694721900788,-63395.73870846495,-61096.68297728097,-36441.54655236561,-33988.263784440016,-28804.067230709465,-22349.3751703948,0.0,0.0,0.0,193.0,1.0,154.0,0.0,2.0,3.0,250.0,410.0,2.0,1018.0,1744252694.6825178,0.0,2025-04-09 22:38:14.682,STOP,15
120.0,15218.185212395814,2530.97743165224,-63374.97393786597,-61132.04343700927,-36390.897499429884,-33928.47286802207,-29046.248381882717,-22291.305338299913,0.0,0.0,0.0,193.0,1.0,154.0,0.0,2.0,3.0,251.0,410.0,2.0,1019.0,1744252694.6825328,0.0,2025-04-09 22:38:14.682,STOP,15
121.0,15167.938490860284,2547.0259841711504,-63324.503698885885,-61060.60726173011,-36333.96760630222,-33876.86269007477,-29128.7263189228,-22231.804994559883,0.0,0.0,0.0,193.0,1.0,154.0,0.0,2.0,3.0,249.0,410.0,2.0,1017.0,1744252694.6825476,0.0,2025-04-09 22:38:14.682,STOP,15
122.0,15078.911492694795,2523.3107833040694,-63382.2606065584,-61130.38940791958,-36377.21823182324,-33922.415545274685,-28972.64408739139,-22284.711573685596,0.0,0.0,0.0,193.0,1.0,155.0,0.0,2.0,3.0,252.0,411.0,2.0,1020.0,1744252694.6825624,0.0,2025-04-09 22:38:14.682,STOP,15
123.0,15087.718080010187,2489.0455590540837,-63395.13521136466,-61106.45068960795,-36433.20935168378,-33986.83327279488,-28887.77451369459,-22350.448054128654,0.0,0.0,0.0,193.0,1.0,154.0,0.0,2.0,3.0,250.0,410.0,2.0,1018.0,1744252694.6825776,0.0,2025-04-09 22:38:14.682,STOP,15
124.0,15216.598238539487,2525.523606005145,-63386.55214149382,-61125.85200379515,-36418.5466073211,-33957.977170703074,-28911.310900606026,-22324.452975327134,0.0,0.0,0.0,193.0,1.0,154.0,0.0,2.0,3.0,251.0,410.0,2.0,1019.0,1744252694.6825924,0.0,2025-04-09 22:38:14.682,STOP,15
125.0,15176.566264220031,2543.5391120361223,-63329.37637917714,-61074.08536363666,-36342.28245523959,-33880.30485872088,-29229.577389905142,-22239.806919074887,0.0,0.0,0.0,193.0,1.0,154.0,0.0,2.0,3.0,249.0,410.0,2.0,1017.0,1744252694.6826155,0.0,2025-04-09 22:38:14.682,STOP,15
126.0,15101.553809828021,2537.034754399628,-63370.48123723045,-61111.81510827722,-36366.355284017955,-33913.29603353692,-28959.389502929393,-22266.450198465613,0.0,0.0,0.0,193.0,1.0,155.0,0.0,2.0,3.0,249.0,411.0,2.0,1017.0,1744252694.6826303,0.0,2025-04-09 22:38:14.682,STOP,15
127.0,15068.070896633972,2490.9678090772404,-63396.49866777643,-61119.03472173628,-36422.860494000975,-33969.37656037528,-28961.691732608288,-22316.02636766748,0.0,0.0,0.0,193.0,1.0,154.0,0.0,2.0,3.0,250.0,410.0,2.0,1018.0,1744252694.682646,0.0,2025-04-09 22:38:14.682,STOP,15
128.0,15197.53220051911,2516.78407392312,-63404.54529578034,-61127.37192241811,-36442.97706401075,-33986.63210709478,-28789.449189835694,-22342.46848135811,0.0,0.0,0.0,193.0,1.0,154.0,0.0,2.0,3.0,249.0,410.0,2.0,1017.0,1744252694.6826608,0.0,2025-04-09 22:38:14.682,STOP,15
129.0,15186.825714925018,2548.5011993052008,-63329.17521347704,-61089.91039871102,-36333.297053968556,-33876.86269007477,-29285.590861510143,-22243.584363887832,0.0,0.0,0.0,193.0,1.0,155.0,0.0,2.0,3.0,249.0,411.0,2.0,1017.0,1744252694.682676,0.0,2025-04-09 22:38:14.682,STOP,15
130.0,15112.595571588943,2542.9579666802847,-63363.64160342713,-61101.15332617204,-36358.48746996969,-33911.82081840287,-28923.78317401209,-22273.49099796903,0.0,0.0,0.0,193.0,1.0,154.0,0.0,2.0,3.0,249.0,410.0,2.0,1017.0,1744252694.682691,0.0,2025-04-09 22:38:14.682,STOP,15
131.0,15056.425637772756,2496.8239661245307,-63392.27418807438,-61134.189204476985,-36403.50388330268,-33959.5641445594,-29017.25816932418,-22318.529763046477,0.0,0.0,0.0,193.0,1.0,155.0,0.0,2.0,3.0,251.0,411.0,2.0,1019.0,1744252694.682706,0.0,2025-04-09 22:38:14.682,STOP,15
132.0,15189.887903915394,2517.2534605566816,-63388.67555721707,-61101.15332617204,-36431.89059876092,-33984.39693264925,-28712.91681682072,-22332.164327164213,0.0,0.0,0.0,193.0,1.0,154.0,0.0,2.0,3.0,249.0,410.0,2.0,1017.0,1744252694.682727,0.0,2025-04-09 22:38:14.682,STOP,15
133.0,15194.24649408418,2550.132876650438,-63331.991533278415,-61103.41085236202,-36333.18529524628,-33882.31651572186,-29281.299326574725,-22246.57949764484,0.0,0.0,0.0,193.0,1.0,154.0,0.0,2.0,3.0,249.0,410.0,2.0,1017.0,1744252694.682742,0.0,2025-04-09 22:38:14.682,STOP,15
134.0,15125.067844995005,2549.5964347835106,-63350.47642594295,-61086.222360875894,-36351.02198732162,-33907.14930381171,-28942.357473654447,-22267.187806032634,0.0,0.0,0.0,193.0,1.0,155.0,0.0,2.0,3.0,252.0,411.0,2.0,1020.0,1744252694.6827571,0.0,2025-04-09 22:38:14.682,STOP,15
135.0,15049.965983625172,2495.415806223846,-63389.90490316212,-61142.66051562554,-36394.27261284264,-33947.53890604245,-29038.581733534545,-22308.404422808224,0.0,0.0,0.0,193.0,1.0,154.0,0.0,2.0,3.0,250.0,410.0,2.0,1018.0,1744252694.6827722,0.0,2025-04-09 22:38:14.682,STOP,15
136.0,15152.739304630675,2494.879364356919,-63401.43840330105,-61106.33893088567,-36453.88471530494,-34007.978023049596,-28695.750677079046,-22357.824129798908,0.0,0.0,0.0,193.0,1.0,155.0,0.0,2.0,3.0,252.0,411.0,2.0,1020.0,1744252694.6827867,0.0,2025-04-09 22:38:14.682,STOP,15
137.0,15193.263017328147,2533.0561438865834,-63358.768923135875,-61135.798530077765,-36370.11037708645,-33912.893702136724,-29242.250829011304,-22283.88455914075,0.0,0.0,0.0,193.0,1.0,155.0,0.0,2.0,3.0,251.0,411.0,2.0,1019.0,1744252694.6827953,0.0,2025-04-09 22:38:14.682,STOP,15
138.0,15137.249545723147,2548.009460927184,-63340.95458280499,-61076.298186337735,-36347.87039135342,-33904.578853199346,-29002.21544530576,-22264.505596698,0.0,0.0,0.0,193.0,1.0,154.0,0.0,5.0,3.0,251.0,410.0,5.0,1019.0,1744252694.682804,0.0,2025-04-09 22:38:14.682,STOP,15
139.0,15058.817274429473,2519.622745468944,-63376.60561521121,-61136.46908241142,-36375.29598180008,-33928.11524011078,-29038.98406493474,-22294.434582523656,0.0,0.0,0.0,193.0,1.0,154.0,0.0,15.0,3.0,250.0,410.0,15.0,1018.0,1744252694.6828125,0.0,2025-04-09 22:38:14.682,STOP,15
140.0,15130.655781108831,2503.753006905676,-63382.394717025134,-61083.160171885516,-36437.456183130285,-33980.32891515838,-28736.788479898987,-22332.633713797775,0.0,0.0,0.0,193.0,1.0,155.0,0.0,26.0,3.0,252.0,411.0,26.0,1020.0,1744252694.682826,0.0,2025-04-09 22:38:14.682,STOP,15
141.0,15204.19302036679,2530.7986176965974,-63362.747533648915,-61129.47298639691,-36380.32512430252,-33910.63617594673,-29131.4755834908,-22286.857341153307,0.0,0.0,0.0,193.0,1.0,154.0,0.0,35.0,3.0,250.0,410.0,35.0,1018.0,1744252694.6828346,0.0,2025-04-09 22:38:14.682,STOP,15
142.0,15152.471083697212,2542.4438765578125,-63324.52605063034,-61060.45079951892,-36331.73243185669,-33878.159091253176,-29064.979143736262,-22244.21021273258,0.0,0.0,0.0,193.0,1.0,155.0,0.0,39.0,3.0,251.0,411.0,39.0,1019.0,1744252694.6828432,0.0,2025-04-09 22:38:14.682,STOP,15
143.0,15073.256501347603,2523.4448937708016,-63369.14013256314,-61129.76355907483,-36360.074443826015,-33906.56815845587,-28977.87439559393,-22261.59986991881,0.0,0.0,0.0,193.0,1.0,154.0,0.0,39.0,3.0,248.0,410.0,39.0,1016.0,1744252694.682852,0.0,2025-04-09 22:38:14.682,STOP,15
144.0,15110.628618076877,2504.0882830725054,-63373.29755703182,-61085.887084709066,-36418.39014510991,-33969.75654003102,-28792.42197184825,-22324.050643926937,0.0,0.0,0.0,193.0,1.0,155.0,0.0,38.0,3.0,252.0,411.0,38.0,1020.0,1744252694.6828609,0.0,2025-04-09 22:38:14.682,STOP,15
145.0,15208.037520413105,2532.810274697575,-63368.73780116294,-61127.886012540584,-36392.506825030665,-33930.372766300774,-28970.319505968037,-22295.999204635526,0.0,0.0,0.0,193.0,1.0,154.0,0.0,39.0,3.0,250.0,410.0,39.0,1018.0,1744252694.6828694,0.0,2025-04-09 22:38:14.682,STOP,15
146.0,15165.278633270102,2551.8763127179523,-63313.66310282506,-61060.74137219684,-36325.18337073128,-33867.094977747794,-29145.19955458636,-22230.95562827058,0.0,0.0,0.0,193.0,1.0,154.0,0.0,38.0,3.0,249.0,410.0,38.0,1017.0,1744252694.682878,0.0,2025-04-09 22:38:14.682,STOP,15
147.0,15080.230245617659,2533.2126060977707,-63369.16248430759,-61125.18145146149,-36365.21534505074,-33908.57981545685,-28946.872526034418,-22271.367582245777,0.0,0.0,0.0,193.0,1.0,155.0,0.0,38.0,3.0,252.0,411.0,38.0,1020.0,1744252694.6828868,0.0,2025-04-09 22:38:14.682,STOP,15
148.0,15080.36435608439,2499.550878948078,-63380.517170490886,-61105.78013727428,-36420.200636410795,-33966.62729580728,-28894.122409119896,-22326.57639105039,0.0,0.0,0.0,193.0,1.0,154.0,0.0,39.0,3.0,249.0,410.0,39.0,1017.0,1744252694.6828957,0.0,2025-04-09 22:38:14.682,STOP,15
149.0,15204.90827618936,2524.2048530822817,-63384.67459495957,-61128.69067534098,-36426.79440102511,-33966.0685021959,-28855.252725512117,-22334.064225442915,0.0,0.0,0.0,193.0,1.0,154.0,0.0,39.0,3.0,250.0,410.0,39.0,1018.0,1744252694.6829045,0.0,2025-04-09 22:38:14.682,STOP,15
150.0,15169.078429827505,2542.577987024544,-63322.2461726959,-61083.94248294145,-36341.94717907276,-33884.39522795621,-29251.236230282335,-22260.77285537396,0.0,0.0,0.0,193.0,1.0,155.0,0.0,39.0,3.0,252.0,411.0,39.0,1020.0,1744252694.6829128,0.0,2025-04-09 22:38:14.682,STOP,15
151.0,15094.244789391136,2536.095981132505,-63362.76988539337,-61116.75484380184,-36369.05984509705,-33922.14732434122,-28945.97845625621,-22294.434582523656,0.0,0.0,0.0,193.0,1.0,154.0,0.0,39.0,3.0,249.0,410.0,39.0,1017.0,1744252694.6829212,0.0,2025-04-09 22:38:14.682,STOP,15
152.0,15059.26430931858,2499.3497132479806,-63380.80774316881,-61122.45453863795,-36413.98685145222,-33965.19678416214,-28993.58767194601,-22329.07978642938,0.0,0.0,0.0,193.0,1.0,155.0,0.0,40.0,3.0,252.0,411.0,40.0,1020.0,1744252694.68293,0.0,2025-04-09 22:38:14.682,STOP,15
153.0,15191.117249860437,2514.7724169221424,-63387.356804294206,-61115.50314611234,-36440.674834331854,-33985.08983672736,-28764.281125579015,-22340.90385924624,0.0,0.0,0.0,193.0,1.0,154.0,0.0,40.0,3.0,250.0,410.0,40.0,1018.0,1744252694.6829383,0.0,2025-04-09 22:38:14.682,STOP,15
154.0,15179.069659599027,2536.78888521062,-63324.97308551945,-61097.30882612572,-36340.80724010554,-33885.89279483471,-29286.70844873291,-22250.91573606917,0.0,0.0,0.0,193.0,1.0,155.0,0.0,40.0,3.0,251.0,411.0,40.0,1019.0,1744252694.6829517,0.0,2025-04-09 22:38:14.682,STOP,15
155.0,15114.651932078832,2540.8569027014855,-63350.76699862087,-61096.81708774771,-36355.447632723764,-33912.37961201425,-28923.067918189518,-22263.70093389761,0.0,0.0,0.0,193.0,1.0,154.0,0.0,40.0,3.0,251.0,410.0,40.0,1019.0,1744252694.6829605,0.0,2025-04-09 22:38:14.682,STOP,15
156.0,15062.125332608859,2507.5304517186228,-63365.11681856118,-61120.21936419242,-36382.5379470036,-33942.15213562872,-29024.32132057206,-22297.250902325024,0.0,0.0,0.0,193.0,1.0,154.0,0.0,41.0,3.0,248.0,410.0,41.0,1016.0,1744252694.6829689,0.0,2025-04-09 22:38:14.682,STOP,15
157.0,15169.659575183341,2503.3730272499356,-63383.04291761434,-61099.923980226995,-36441.3006831766,-33999.9760985346,-28691.72736307709,-22347.56467909392,0.0,0.0,0.0,193.0,1.0,154.0,0.0,41.0,3.0,251.0,410.0,41.0,1019.0,1744252694.6829777,0.0,2025-04-09 22:38:14.682,STOP,15
158.0,15182.95886313425,2532.6314607419326,-63331.45509141149,-61114.65377982304,-36343.80237386255,-33896.77809438445,-29269.296439802223,-22261.041076307425,0.0,0.0,0.0,193.0,1.0,154.0,0.0,41.0,3.0,249.0,410.0,41.0,1017.0,1744252694.682986,0.0,2025-04-09 22:38:14.682,STOP,15
159.0,15110.874487265884,2531.0668386300613,-63348.911803831084,-61094.00076794634,-36356.00642633515,-33923.98016738655,-28945.285552178095,-22291.998242378027,0.0,0.0,0.0,193.0,1.0,154.0,0.0,41.0,3.0,252.0,410.0,41.0,1020.0,1744252694.6829948,0.0,2025-04-09 22:38:14.682,STOP,15
160.0,15040.220623042658,2499.640285925899,-63381.85827515821,-61148.00258255036,-36390.137540118405,-33948.23181012056,-29049.824660995564,-22317.12160314579,0.0,0.0,0.0,193.0,1.0,154.0,0.0,41.0,3.0,250.0,410.0,41.0,1018.0,1744252694.6830032,0.0,2025-04-09 22:38:14.683,STOP,15
161.0,15141.071694025004,2503.9988760946844,-63382.48412400295,-61095.945369713954,-36437.187962196826,-33993.784665320476,-28700.28808120347,-22329.772690507496,0.0,0.0,0.0,193.0,1.0,155.0,0.0,42.0,3.0,252.0,411.0,42.0,1020.0,1744252694.6830118,0.0,2025-04-09 22:38:14.683,STOP,15
162.0,15198.24745634168,2541.7286207352427,-63341.8039490943,-61127.550736373756,-36350.44084196578,-33897.2027775291,-29187.779627773718,-22246.266573222467,0.0,0.0,0.0,193.0,1.0,154.0,0.0,42.0,3.0,250.0,410.0,42.0,1018.0,1744252694.6830204,0.0,2025-04-09 22:38:14.683,STOP,15
163.0,15133.986191032673,2537.16886486636,-63332.46091991197,-61078.28749159426,-36340.18139126079,-33896.46516996207,-28991.240738778204,-22245.752483099997,0.0,0.0,0.0,193.0,1.0,153.0,0.0,42.0,3.0,249.0,409.0,42.0,1017.0,1744252694.6830287,0.0,2025-04-09 22:38:14.683,STOP,15
164.0,15055.665678461275,2511.643172698399,-63368.78250465185,-61144.69452437098,-36364.410682250345,-33920.56035048489,-29012.765468688664,-22275.569710203377,0.0,0.0,0.0,193.0,1.0,154.0,0.0,42.0,3.0,251.0,410.0,42.0,1019.0,1744252694.6830375,0.0,2025-04-09 22:38:14.683,STOP,15
165.0,15118.854060036429,2495.728730646221,-63375.21980705498,-61096.012424947316,-36427.93433999233,-33982.83231053738,-28738.68837817769,-22325.347045105344,0.0,0.0,0.0,193.0,1.0,154.0,0.0,42.0,3.0,252.0,410.0,42.0,1020.0,1744252694.683046,0.0,2025-04-09 22:38:14.683,STOP,15
166.0,15206.696415745786,2531.200949096793,-63354.87971960065,-61137.72078010092,-36378.71579870174,-33924.38249878675,-29074.478635129766,-22288.13139058726,0.0,0.0,0.0,193.0,1.0,154.0,0.0,42.0,3.0,250.0,410.0,42.0,1018.0,1744252694.6830547,0.0,2025-04-09 22:38:14.683,STOP,15
167.0,15152.336973230478,2544.0979056475053,-63317.08291972672,-61070.218511845895,-36337.990920304175,-33886.38453321273,-29088.783751581166,-22243.53966039892,0.0,0.0,0.0,193.0,1.0,155.0,0.0,42.0,3.0,252.0,411.0,42.0,1020.0,1744252694.6830635,0.0,2025-04-09 22:38:14.683,STOP,15
168.0,15072.02715540256,2528.1834635953264,-63360.84763537021,-61135.70912309994,-36364.969475861726,-33918.92867313966,-28986.45746546477,-22282.007012606504,0.0,0.0,0.0,193.0,1.0,154.0,0.0,42.0,3.0,250.0,410.0,42.0,1018.0,1744252694.683072,0.0,2025-04-09 22:38:14.683,STOP,15
169.0,15094.490658580144,2496.1310620464164,-63368.04489708482,-61100.88510523857,-36416.17732240884,-33979.948935502645,-28824.18380071924,-22325.391748594255,0.0,0.0,0.0,193.0,1.0,154.0,0.0,43.0,3.0,252.0,410.0,43.0,1020.0,1744252694.683086,0.0,2025-04-09 22:38:14.683,STOP,15
170.0,15204.617703511442,2521.790864681109,-63369.318946518775,-61140.51474815783,-36401.91690944635,-33951.22694387758,-28918.3740518539,-22302.03417563846,0.0,0.0,0.0,193.0,1.0,155.0,0.0,43.0,3.0,251.0,411.0,43.0,1019.0,1744252694.6830945,0.0,2025-04-09 22:38:14.683,STOP,15
171.0,15170.531293217098,2550.8928359619185,-63303.0907276977,-61070.643194990545,-36319.438972406264,-33873.666390617655,-29170.702895009865,-22231.469718393055,0.0,0.0,0.0,193.0,1.0,154.0,0.0,43.0,3.0,249.0,410.0,43.0,1017.0,1744252694.683103,0.0,2025-04-09 22:38:14.683,STOP,15
172.0,15089.394460844334,2534.26313808717,-63354.47738820045,-61124.33208517219,-36355.82761237951,-33912.44666724762,-28934.713177050733,-22269.758256644996,0.0,0.0,0.0,193.0,1.0,154.0,0.0,43.0,3.0,252.0,410.0,43.0,1020.0,1744252694.683112,0.0,2025-04-09 22:38:14.683,STOP,15
173.0,15072.921225180773,2493.6276666674216,-63371.911748875595,-61113.89382051156,-36413.24924388519,-33966.98492371856,-28919.357528609937,-22319.73675724706,0.0,0.0,0.0,193.0,1.0,155.0,0.0,43.0,3.0,252.0,411.0,43.0,1020.0,1744252694.6831207,0.0,2025-04-09 22:38:14.683,STOP,15
174.0,15201.421404054334,2518.907489646374,-63380.69598444653,-61127.7295503294,-36430.52714234914,-33973.62339182179,-28822.127440229353,-22333.237210898067,0.0,0.0,0.0,193.0,1.0,154.0,0.0,43.0,3.0,251.0,410.0,43.0,1019.0,1744252694.6831293,0.0,2025-04-09 22:38:14.683,STOP,15
175.0,15179.583749721498,2543.4720568027565,-63310.39974813459,-61082.89195095205,-36329.027870777594,-33873.75579759548,-29260.489852486833,-22236.409453917677,0.0,0.0,0.0,193.0,1.0,154.0,0.0,43.0,3.0,250.0,410.0,43.0,1018.0,1744252694.683138,0.0,2025-04-09 22:38:14.683,STOP,15
176.0,15104.504240096121,2539.4934462897118,-63352.8010073663,-61113.424433878004,-36356.94519960227,-33914.88300739325,-28916.09417391946,-22268.35009674431,0.0,0.0,0.0,193.0,1.0,155.0,0.0,43.0,3.0,251.0,411.0,43.0,1019.0,1744252694.6831467,0.0,2025-04-09 22:38:14.683,STOP,15
177.0,15060.963041897183,2507.0163615961505,-63373.83399889875,-61129.13771023008,-36400.57580477903,-33957.373673602786,-28982.07652355153,-22307.309187329913,0.0,0.0,0.0,193.0,1.0,154.0,0.0,43.0,3.0,249.0,410.0,43.0,1017.0,1744252694.6831553,0.0,2025-04-09 22:38:14.683,STOP,15
178.0,15194.738232462196,2519.622745468944,-63375.331565777255,-61110.25048616535,-36428.04609871461,-33983.860490782325,-28715.867247088823,-22331.359664363823,0.0,0.0,0.0,193.0,1.0,155.0,0.0,43.0,3.0,252.0,411.0,43.0,1020.0,1744252694.683164,0.0,2025-04-09 22:38:14.683,STOP,15
179.0,15190.5361045046,2540.029888156639,-63320.458033139475,-61105.06488145172,-36335.24165573617,-33889.11144603627,-29271.285745058747,-22252.100378525305,0.0,0.0,0.0,193.0,1.0,154.0,0.0,43.0,3.0,250.0,410.0,43.0,1018.0,1744252694.6831725,0.0,2025-04-09 22:38:14.683,STOP,15
180.0,15126.56541187351,2543.6061672694887,-63343.77090260636,-61094.112526668614,-36352.184278033295,-33909.36212651278,-28921.838572244476,-22260.012896062482,0.0,0.0,0.0,193.0,1.0,154.0,0.0,43.0,3.0,249.0,410.0,43.0,1017.0,1744252694.6831808,0.0,2025-04-09 22:38:14.683,STOP,15
181.0,15062.438257031234,2504.0882830725054,-63365.25092902791,-61127.70719858494,-36383.16379584835,-33933.457307035605,-29023.31549207157,-22284.331594029856,0.0,0.0,0.0,193.0,1.0,155.0,0.0,43.0,3.0,252.0,411.0,43.0,1020.0,1744252694.6831896,0.0,2025-04-09 22:38:14.683,STOP,15
182.0,15161.992926835172,2502.1213295604384,-63386.82036242728,-61103.25439015084,-36449.03438675814,-33997.0256682665,-28673.488339601558,-22343.22844066959,0.0,0.0,0.0,193.0,1.0,154.0,0.0,43.0,3.0,251.0,410.0,43.0,1019.0,1744252694.6831982,0.0,2025-04-09 22:38:14.683,STOP,15
183.0,15188.613854481442,2531.6926874748096,-63343.525033417354,-61129.87531779711,-36366.3329322735,-33906.389344500225,-29256.06420708468,-22280.285928283447,0.0,0.0,0.0,193.0,1.0,154.0,0.0,43.0,3.0,250.0,410.0,43.0,1018.0,1744252694.6832068,0.0,2025-04-09 22:38:14.683,STOP,15
184.0,15125.38076941738,2534.821931698553,-63346.609574152186,-61092.88318072358,-36366.82467065152,-33919.42041151767,-28976.510939182157,-22281.023535850472,0.0,0.0,0.0,193.0,1.0,155.0,0.0,43.0,3.0,252.0,411.0,43.0,1020.0,1744252694.6832204,0.0,2025-04-09 22:38:14.683,STOP,15
185.0,15049.11661733587,2505.0270563396284,-63377.432629756055,-61144.33689645969,-36386.427150538824,-33938.79937396042,-29041.219239380272,-22290.18775107715,0.0,0.0,0.0,193.0,1.0,154.0,0.0,43.0,3.0,249.0,410.0,43.0,1017.0,1744252694.683229,0.0,2025-04-09 22:38:14.683,STOP,15
186.0,15135.640220122365,2494.789957379098,-63385.054574615315,-61091.810296989715,-36442.5523808661,-33992.28709844197,-28698.05290675794,-22315.71344324511,0.0,0.0,0.0,193.0,1.0,155.0,0.0,43.0,3.0,252.0,411.0,43.0,1020.0,1744252694.6832376,0.0,2025-04-09 22:38:14.683,STOP,15
187.0,15204.282427344613,2533.078495631039,-63350.74464687642,-61126.366093917626,-36364.07540608352,-33911.351431769304,-29160.86812744953,-22255.989582060527,0.0,0.0,0.0,193.0,1.0,155.0,0.0,43.0,3.0,251.0,411.0,43.0,1019.0,1744252694.683246,0.0,2025-04-09 22:38:14.683,STOP,15
188.0,15142.993944048161,2544.1202573919604,-63329.66695185506,-61061.59073848614,-36334.57110340251,-33897.158074040184,-29021.057965881584,-22232.63200910473,0.0,0.0,0.0,193.0,1.0,154.0,0.0,43.0,3.0,250.0,410.0,43.0,1018.0,1744252694.6832547,0.0,2025-04-09 22:38:14.683,STOP,15
189.0,15057.4538180177,2517.4769780012343,-63376.672670444575,-61131.596402120165,-36362.644894438374,-33927.06470812139,-29003.31068078407,-22263.388009475235,0.0,0.0,0.0,193.0,1.0,155.0,0.0,43.0,3.0,252.0,411.0,43.0,1020.0,1744252694.6832633,0.0,2025-04-09 22:38:14.683,STOP,15
190.0,15113.489641367156,2497.2262975247263,-63379.35487977921,-61080.25444510632,-36417.049040442595,-33984.64280183826,-28760.257811577063,-22307.51035303001,0.0,0.0,0.0,193.0,1.0,154.0,0.0,44.0,3.0,249.0,410.0,44.0,1017.0,1744252694.6832716,0.0,2025-04-09 22:38:14.683,STOP,15
191.0,15202.494287788188,2523.489597259712,-63375.55508322181,-61125.47202413941,-36386.360095305456,-33939.69344373864,-29027.27175084016,-22281.023535850472,0.0,0.0,0.0,193.0,1.0,154.0,0.0,44.0,3.0,252.0,410.0,44.0,1020.0,1744252694.6832805,0.0,2025-04-09 22:38:14.683,STOP,15
192.0,15154.66155465383,2541.4827515462343,-63326.78357682033,-61049.23022380236,-36326.70328935424,-33886.02690530144,-29113.013042570718,-22220.897343265697,0.0,0.0,0.0,193.0,1.0,155.0,0.0,43.0,3.0,251.0,411.0,43.0,1019.0,1744252694.6832893,0.0,2025-04-09 22:38:14.683,STOP,15
193.0,15081.928978196262,2537.8841206889297,-63363.61925168267,-61098.02408194829,-36344.85290585195,-33907.32811776735,-28966.564412899545,-22242.802052831896,0.0,0.0,0.0,193.0,1.0,154.0,0.0,43.0,3.0,249.0,410.0,43.0,1017.0,1744252694.6832976,0.0,2025-04-09 22:38:14.683,STOP,15
194.0,15077.570388027478,2489.0902625429944,-63387.73678394995,-61078.22043636089,-36418.099572431995,-33979.792473291454,-28838.690082870733,-22297.78734419195,0.0,0.0,0.0,193.0,1.0,155.0,0.0,43.0,3.0,252.0,411.0,43.0,1020.0,1744252694.6833065,0.0,2025-04-09 22:38:14.683,STOP,15
195.0,15184.747002690674,2505.719960417743,-63398.08564163276,-61115.167869945515,-36420.133581177426,-33972.23758366556,-28892.11075211892,-22306.906855929716,0.0,0.0,0.0,193.0,1.0,154.0,0.0,44.0,3.0,249.0,410.0,44.0,1017.0,1744252695.1607172,0.0,2025-04-09 22:38:15.160,STOP,15
196.0,15158.371944233411,2536.006574154684,-63326.09067274221,-61044.134026066546,-36329.40785043334,-33887.36800996876,-29200.363659902057,-22226.105299723782,0.0,0.0,0.0,193.0,1.0,154.0,0.0,44.0,3.0,250.0,410.0,44.0,1018.0,1744252695.1607563,0.0,2025-04-09 22:38:15.160,STOP,15
197.0,15094.490658580144,2535.5595392655778,-63358.835978369236,-61073.03483164726,-36346.037548308086,-33906.52345496696,-28919.357528609937,-22236.54356438441,0.0,0.0,0.0,193.0,1.0,154.0,0.0,44.0,3.0,252.0,410.0,44.0,1020.0,1744252695.1607764,0.0,2025-04-09 22:38:15.160,STOP,15
198.0,15073.904701936806,2500.7802248931202,-63374.95158612151,-61065.16701759899,-36397.893595444395,-33949.34939734333,-28912.316729106515,-22265.600832176307,0.0,0.0,0.0,193.0,1.0,154.0,0.0,44.0,3.0,249.0,410.0,44.0,1017.0,1744252695.1607964,0.0,2025-04-09 22:38:15.160,STOP,15
199.0,15195.520543518132,2515.6664867003547,-63392.810629941305,-61084.50127655283,-36431.085935960524,-33977.4678918681,-28757.419140031237,-22300.357794804313,0.0,0.0,0.0,193.0,1.0,154.0,0.0,44.0,3.0,250.0,410.0,44.0,1018.0,1744252695.1608443,0.0,2025-04-09 22:38:15.160,STOP,15
200.0,15170.978328106205,2536.095981132505,-63333.22087922345,-61056.85216866162,-36343.62355990691,-33880.997762799,-29255.058378584195,-22214.52709609593,0.0,0.0,0.0,193.0,1.0,154.0,0.0,44.0,3.0,251.0,410.0,44.0,1019.0,1744252695.1608617,0.0,2025-04-09 22:38:15.160,STOP,15
201.0,15112.170888444292,2543.136780635927,-63354.67855390055,-61056.98627912835,-36358.21924903623,-33896.91220485118,-28921.39153735537,-22221.5455438549,0.0,0.0,0.0,193.0,1.0,154.0,0.0,44.0,3.0,250.0,410.0,44.0,1018.0,1744252695.1608791,0.0,2025-04-09 22:38:15.160,STOP,15
202.0,15057.945556395718,2498.299181258581,-63375.5103797329,-61080.85794220662,-36392.61858375294,-33939.64874024972,-28986.68098290932,-22264.662058909187,0.0,0.0,0.0,193.0,1.0,155.0,0.0,44.0,3.0,252.0,411.0,44.0,1020.0,1744252695.1608891,0.0,2025-04-09 22:38:15.160,STOP,15
203.0,15176.923892131317,2506.9269546183295,-63390.82132468478,-61070.75495371282,-36437.746755808206,-33989.381371662785,-28677.310487903418,-22308.538533274954,0.0,0.0,0.0,193.0,1.0,154.0,0.0,44.0,3.0,248.0,410.0,44.0,1016.0,1744252695.1609013,0.0,2025-04-09 22:38:15.160,STOP,15
204.0,15189.82084868203,2544.3214230920585,-63330.024579766345,-61069.235035089856,-36339.22026624921,-33884.50698667848,-29265.22842231136,-22229.97215151455,0.0,0.0,0.0,193.0,1.0,155.0,0.0,44.0,3.0,252.0,411.0,44.0,1020.0,1744252695.16091,0.0,2025-04-09 22:38:15.160,STOP,15
205.0,15126.90068804034,2548.2553301161925,-63347.54834741931,-61050.437218002946,-36349.99380707667,-33904.55650145489,-28925.794831013067,-22239.806919074887,0.0,0.0,0.0,193.0,1.0,154.0,0.0,44.0,3.0,249.0,410.0,44.0,1017.0,1744252695.1609192,0.0,2025-04-09 22:38:15.160,STOP,15
206.0,15052.536434237532,2505.7646639066534,-63381.768868180385,-61099.81222150472,-36384.99663889368,-33935.62542624777,-29023.091974627016,-22264.662058909187,0.0,0.0,0.0,193.0,1.0,155.0,0.0,44.0,3.0,251.0,411.0,44.0,1019.0,1744252695.1609278,0.0,2025-04-09 22:38:15.160,STOP,15
207.0,15166.127999559403,2513.8336436550194,-63384.071097859276,-61051.3089360367,-36433.03053772814,-33978.16079594622,-28670.850833755834,-22299.21785583709,0.0,0.0,0.0,193.0,1.0,155.0,0.0,44.0,3.0,251.0,411.0,44.0,1019.0,1744252695.1609368,0.0,2025-04-09 22:38:15.160,STOP,15
208.0,15210.004473925172,2549.2835103611365,-63337.73593160343,-61076.07466889318,-36345.09877504096,-33874.716922607055,-29219.630863622533,-22223.57955260033,0.0,0.0,0.0,193.0,1.0,154.0,0.0,44.0,3.0,249.0,410.0,44.0,1017.0,1744252695.1609457,0.0,2025-04-09 22:38:15.160,STOP,15
209.0,15141.317563214012,2553.418583085368,-63339.16644324857,-61032.3546567386,-36343.645911651365,-33883.054123288886,-28955.81322381654,-22219.466831620557,0.0,0.0,0.0,193.0,1.0,155.0,0.0,44.0,3.0,250.0,411.0,44.0,1018.0,1744252695.1609545,0.0,2025-04-09 22:38:15.160,STOP,15
210.0,15053.765780182575,2515.1076930889717,-63383.713469947994,-61101.19802966095,-36375.25127831117,-33919.08513535084,-29011.580826232534,-22260.906965840695,0.0,0.0,0.0,193.0,1.0,154.0,0.0,44.0,3.0,251.0,410.0,44.0,1019.0,1744252695.1609635,0.0,2025-04-09 22:38:15.160,STOP,15
211.0,15123.145594971847,2494.387625978902,-63394.621121242184,-61052.60533721511,-36438.68552907533,-33986.56505186141,-28700.645709114757,-22320.161440391716,0.0,0.0,0.0,193.0,1.0,154.0,0.0,44.0,3.0,250.0,410.0,44.0,1018.0,1744252695.1609724,0.0,2025-04-09 22:38:15.160,STOP,15
212.0,15195.118212117937,2522.483768759223,-63373.67753668756,-61098.09113718166,-36381.263897569646,-33915.419449260175,-29115.494086205257,-22268.260689766492,0.0,0.0,0.0,193.0,1.0,154.0,0.0,44.0,3.0,250.0,410.0,44.0,1018.0,1744252695.1609812,0.0,2025-04-09 22:38:15.160,STOP,15
213.0,15141.541080658566,2540.4098678123796,-63341.4016176941,-61029.69479914842,-36343.645911651365,-33887.882100091236,-29037.397091078412,-22228.31812242486,0.0,0.0,0.0,193.0,1.0,155.0,0.0,44.0,3.0,252.0,411.0,44.0,1020.0,1744252695.16099,0.0,2025-04-09 22:38:15.160,STOP,15
214.0,15057.766742440075,2516.7170186897542,-63388.8096676838,-61101.0192157053,-36373.82076666603,-33922.884931908244,-28999.086201082016,-22270.004125834006,0.0,0.0,0.0,193.0,1.0,154.0,0.0,44.0,3.0,249.0,410.0,44.0,1017.0,1744252695.1610043,0.0,2025-04-09 22:38:15.161,STOP,15
215.0,15099.475097593679,2489.1573177763603,-63398.21975209949,-61064.407058287514,-36434.19282843982,-33985.84979603884,-28797.74168702861,-22319.75910899152,0.0,0.0,0.0,193.0,1.0,155.0,0.0,44.0,3.0,252.0,411.0,44.0,1020.0,1744252695.1610131,0.0,2025-04-09 22:38:15.161,STOP,15
216.0,15205.064738400548,2532.0503153860946,-63379.77956292386,-61099.74516627135,-36391.27747908563,-33936.40773730371,-28989.944337599798,-22289.18192257666,0.0,0.0,0.0,193.0,1.0,154.0,0.0,44.0,3.0,250.0,410.0,44.0,1018.0,1744252695.161022,0.0,2025-04-09 22:38:15.161,STOP,15
217.0,15149.543005173566,2543.8296847140414,-63336.12660600265,-61039.395456242026,-36336.4262981923,-33884.998725056495,-29131.296769535158,-22234.777776572442,0.0,0.0,0.0,193.0,1.0,154.0,0.0,44.0,3.0,251.0,410.0,44.0,1019.0,1744252695.1610308,0.0,2025-04-09 22:38:15.161,STOP,15
218.0,15065.79101869953,2522.819044926053,-63386.798010682825,-61102.82970700619,-36367.29405728508,-33923.64489121972,-28954.941505782786,-22271.658154923698,0.0,0.0,0.0,193.0,1.0,155.0,0.0,44.0,3.0,252.0,411.0,44.0,1020.0,1744252695.1610396,0.0,2025-04-09 22:38:15.161,STOP,15
219.0,15072.541245525033,2487.570343920034,-63390.508400262406,-61073.079535136174,-36414.67975553033,-33964.43682485066,-28879.638478712855,-22293.987547634548,0.0,0.0,0.0,193.0,1.0,155.0,0.0,44.0,3.0,251.0,411.0,44.0,1019.0,1744252695.1610484,0.0,2025-04-09 22:38:15.161,STOP,15
220.0,15190.71491846024,2504.915297617352,-63398.17504861058,-61100.59453256065,-36418.7477730212,-33960.59232480435,-28855.56564993449,-22298.79317269244,0.0,0.0,0.0,193.0,1.0,155.0,0.0,44.0,3.0,252.0,411.0,44.0,1020.0,1744252695.1610575,0.0,2025-04-09 22:38:15.161,STOP,15
221.0,15162.842293124473,2535.112504376472,-63324.5484023748,-61040.17776729796,-36321.71885034071,-33868.592544626306,-29212.88063679703,-22211.978997228027,0.0,0.0,0.0,193.0,1.0,155.0,0.0,44.0,3.0,252.0,411.0,44.0,1020.0,1744252695.161066,0.0,2025-04-09 22:38:15.161,STOP,15
222.0,15091.361414356401,2538.107638133483,-63363.105161560205,-61067.58100600017,-36347.15513553085,-33890.07257104785,-28908.651043015845,-22225.702968323585,0.0,0.0,0.0,193.0,1.0,154.0,0.0,44.0,3.0,250.0,410.0,44.0,1018.0,1744252695.1610749,0.0,2025-04-09 22:38:15.161,STOP,15
223.0,15063.533492509545,2501.9872190937067,-63377.365574522686,-61066.642232733044,-36390.87514768543,-33930.97626340106,-28946.000808000663,-22264.729114142552,0.0,0.0,0.0,193.0,1.0,154.0,0.0,44.0,3.0,251.0,410.0,44.0,1019.0,1744252695.1610837,0.0,2025-04-09 22:38:15.161,STOP,15
224.0,15184.232912568203,2513.2524982991813,-63391.35776655171,-61071.35845081311,-36423.10636318998,-33959.810013748414,-28732.87692461931,-22297.3626610473,0.0,0.0,0.0,193.0,1.0,155.0,0.0,44.0,3.0,251.0,411.0,44.0,1019.0,1744252695.1610923,0.0,2025-04-09 22:38:15.161,STOP,15
225.0,15162.730534402197,2527.1105798614717,-63330.91864954456,-61053.87938664906,-36321.987071274176,-33863.36223642376,-29248.08463431414,-22212.470735606043,0.0,0.0,0.0,193.0,1.0,154.0,0.0,44.0,3.0,249.0,410.0,44.0,1017.0,1744252695.161101,0.0,2025-04-09 22:38:15.161,STOP,15
226.0,15093.484830079655,2524.0930943600056,-63360.69117315903,-61060.02611637427,-36342.5283244286,-33890.54195768142,-28893.29539457505,-22228.92161952515,0.0,0.0,0.0,193.0,1.0,155.0,0.0,44.0,3.0,253.0,411.0,44.0,1021.0,1744252695.16111,0.0,2025-04-09 22:38:15.161,STOP,15
227.0,15037.851338130396,2483.2117537512486,-63383.3111385478,-61090.24567487785,-36381.35330454747,-33926.528266254456,-28991.687773667312,-22260.459930951587,0.0,0.0,0.0,193.0,1.0,154.0,0.0,44.0,3.0,249.0,410.0,44.0,1017.0,1744252695.1611187,0.0,2025-04-09 22:38:15.161,STOP,15
228.0,15164.09399081397,2494.097053300983,-63392.43065028556,-61063.781209442765,-36432.47174411675,-33973.8692610108,-28670.04617095544,-22307.64446349674,0.0,0.0,0.0,193.0,1.0,154.0,0.0,44.0,3.0,250.0,410.0,44.0,1018.0,1744252695.161132,0.0,2025-04-09 22:38:15.161,STOP,15
229.0,15177.90736888735,2523.400190281891,-63343.41327469508,-61077.415773560504,-36343.40004246236,-33879.63430638723,-29244.39659647901,-22233.034340504928,0.0,0.0,0.0,193.0,1.0,155.0,0.0,44.0,3.0,252.0,411.0,44.0,1020.0,1744252695.1611412,0.0,2025-04-09 22:38:15.161,STOP,15
230.0,15115.52365011259,2525.9259374053404,-63350.29761198731,-61046.4586074899,-36347.44570820877,-33893.15711178268,-28927.4265083583,-22235.805956817385,0.0,0.0,0.0,193.0,1.0,155.0,0.0,44.0,3.0,251.0,411.0,44.0,1019.0,1744252695.1611497,0.0,2025-04-09 22:38:15.161,STOP,15
231.0,15045.294469034014,2493.9182393453407,-63376.02446985537,-61094.62661679109,-36371.51853698713,-33919.50981849549,-29024.63424499443,-22259.78937861793,0.0,0.0,0.0,193.0,1.0,154.0,0.0,44.0,3.0,250.0,410.0,44.0,1018.0,1744252695.1611583,0.0,2025-04-09 22:38:15.161,STOP,15
232.0,15147.352534216945,2498.1427190473937,-63380.40541176861,-61048.58202321315,-36424.22395041275,-33978.38431339077,-28670.560261077913,-22305.342233817846,0.0,0.0,0.0,193.0,1.0,155.0,0.0,44.0,3.0,252.0,411.0,44.0,1020.0,1744252695.1611671,0.0,2025-04-09 22:38:15.161,STOP,15
233.0,15198.090994130493,2530.6421554854105,-63340.798120593805,-61079.874465450586,-36341.678958139295,-33884.19406225611,-29181.185863159404,-22233.59313411631,0.0,0.0,0.0,193.0,1.0,155.0,0.0,44.0,3.0,251.0,411.0,44.0,1019.0,1744252695.161176,0.0,2025-04-09 22:38:15.161,STOP,15
234.0,15139.641182379864,2540.0969433900054,-63320.882716284126,-61016.28375247524,-36321.16005672933,-33871.34180919431,-28964.955087298764,-22210.861410005262,0.0,0.0,0.0,193.0,1.0,154.0,0.0,44.0,3.0,250.0,410.0,44.0,1018.0,1744252695.1611848,0.0,2025-04-09 22:38:15.161,STOP,15
235.0,15051.798826670507,2504.423559239335,-63369.63187094115,-61090.983282444875,-36360.29796127057,-33908.02102184547,-28990.525482955636,-22251.340419213822,0.0,0.0,0.0,193.0,1.0,155.0,0.0,44.0,3.0,253.0,411.0,44.0,1021.0,1744252695.1611936,0.0,2025-04-09 22:38:15.161,STOP,15
236.0,15113.355530900424,2482.675311884321,-63383.33349029226,-61049.23022380236,-36430.1471626934,-33977.13261570127,-28714.570845910413,-22313.120640888294,0.0,0.0,0.0,193.0,1.0,155.0,0.0,44.0,3.0,249.0,411.0,44.0,1017.0,1744252695.1612024,0.0,2025-04-09 22:38:15.161,STOP,15
237.0,15189.865552170939,2510.100902330983,-63369.63187094115,-61098.64993079304,-36382.090912114494,-33912.42431550316,-29070.611783338998,-22263.63387866424,0.0,0.0,0.0,193.0,1.0,155.0,0.0,44.0,3.0,249.0,411.0,44.0,1017.0,1744252695.1612113,0.0,2025-04-09 22:38:15.161,STOP,15
238.0,15149.833577851485,2540.1863503678264,-63319.943943017,-61018.18365075394,-36327.843228321464,-33868.54784113739,-29068.577774593567,-22218.34924439779,0.0,0.0,0.0,193.0,1.0,155.0,0.0,44.0,3.0,251.0,411.0,44.0,1019.0,1744252695.16122,0.0,2025-04-09 22:38:15.161,STOP,15
239.0,15064.36050705439,2517.007591367673,-63372.26937678688,-61090.51389581131,-36367.42816775181,-33909.965623613076,-28974.700447881278,-22263.83504436434,0.0,0.0,0.0,193.0,1.0,154.0,0.0,44.0,3.0,250.0,410.0,44.0,1018.0,1744252695.161229,0.0,2025-04-09 22:38:15.161,STOP,15
240.0,15092.07667017897,2487.4362334533016,-63380.53952223534,-61053.54411048223,-36427.26378765867,-33962.0675399384,-28811.867989524366,-22297.94380640314,0.0,0.0,0.0,193.0,1.0,154.0,0.0,44.0,3.0,249.0,410.0,44.0,1017.0,1744252695.1612375,0.0,2025-04-09 22:38:15.161,STOP,15
241.0,15204.081261644515,2522.394361781402,-63368.38017325165,-61088.79281148825,-36393.691467486795,-33926.260045320996,-28935.137860195384,-22274.78739914744,0.0,0.0,0.0,193.0,1.0,155.0,0.0,44.0,3.0,251.0,411.0,44.0,1019.0,1744252695.161246,0.0,2025-04-09 22:38:15.161,STOP,15
242.0,15162.641127424376,2550.1775801393487,-63312.47846036893,-61026.90083109151,-36327.61971087691,-33865.217431213554,-29151.6815604784,-22224.78654680092,0.0,0.0,0.0,193.0,1.0,154.0,0.0,44.0,3.0,249.0,410.0,44.0,1017.0,1744252695.161255,0.0,2025-04-09 22:38:15.161,STOP,15
243.0,15082.17484738527,2532.6314607419326,-63363.73101040495,-61081.394384073545,-36366.847022395974,-33899.88498686373,-28939.094118963974,-22264.796169375917,0.0,0.0,0.0,193.0,1.0,155.0,0.0,44.0,3.0,251.0,411.0,44.0,1019.0,1744252695.1612692,0.0,2025-04-09 22:38:15.161,STOP,15
244.0,15067.623861744865,2486.296294486081,-63377.432629756055,-61068.58683450065,-36418.41249685437,-33947.851830464824,-28906.52762729259,-22302.168286105192,0.0,0.0,0.0,193.0,1.0,155.0,0.0,44.0,3.0,251.0,411.0,44.0,1019.0,1744252695.1612775,0.0,2025-04-09 22:38:15.161,STOP,15
245.0,15197.800421452574,2510.8608616424635,-63379.15371407911,-61084.99301493085,-36420.35709862198,-33946.0636909084,-28807.7999720335,-22304.425812295176,0.0,0.0,0.0,193.0,1.0,154.0,0.0,44.0,3.0,249.0,410.0,44.0,1017.0,1744252695.1612864,0.0,2025-04-09 22:38:15.161,STOP,15
246.0,15173.057040340549,2539.135818378427,-63311.517335357355,-61037.763778896784,-36323.46228640822,-33849.32534090583,-29221.419003178955,-22208.35801462627,0.0,0.0,0.0,193.0,1.0,155.0,0.0,44.0,3.0,251.0,411.0,44.0,1019.0,1744252695.1612954,0.0,2025-04-09 22:38:15.161,STOP,15
247.0,15098.268103393091,2534.6431177429104,-63353.13628353313,-61067.625709489075,-36356.60992343544,-33886.27277449045,-28904.918301691807,-22242.131500498235,0.0,0.0,0.0,193.0,1.0,154.0,0.0,44.0,3.0,250.0,410.0,44.0,1018.0,1744252695.161304,0.0,2025-04-09 22:38:15.161,STOP,15
248.0,15052.759951682086,2490.0066840656623,-63375.66684194408,-61083.1154683966,-36401.51457804615,-33934.57489425837,-28962.295229708583,-22290.12069584378,0.0,0.0,0.0,193.0,1.0,154.0,0.0,44.0,3.0,248.0,410.0,44.0,1016.0,1744252695.1613128,0.0,2025-04-09 22:38:15.161,STOP,15
249.0,15170.598348450465,2503.3730272499356,-63390.68721421805,-61079.38272707257,-36439.1996191978,-33968.05780745242,-28701.807999826433,-22322.28485611497,0.0,0.0,0.0,193.0,1.0,155.0,0.0,44.0,3.0,250.0,411.0,44.0,1018.0,1744252695.1613214,0.0,2025-04-09 22:38:15.161,STOP,15
250.0,15172.274729284612,2537.079457888539,-63324.637809352615,-61062.305994308714,-36338.817934849016,-33862.31170443436,-29260.959239120395,-22234.375445172245,0.0,0.0,0.0,193.0,1.0,155.0,0.0,44.0,3.0,251.0,411.0,44.0,1019.0,1744252695.16133,0.0,2025-04-09 22:38:15.161,STOP,15
251.0,15112.640275077854,2539.2475771007034,-63350.230556753944,-61058.528549495764,-36355.22411527921,-33891.86071060428,-28912.137915150874,-22251.005143046994,0.0,0.0,0.0,193.0,1.0,155.0,0.0,44.0,3.0,250.0,411.0,44.0,1018.0,1744252695.1613388,0.0,2025-04-09 22:38:15.161,STOP,15
252.0,15045.540338223022,2495.4381579683018,-63377.52203673388,-61099.05226219324,-36388.327048817526,-33928.09288836633,-29011.93845414382,-22279.593024205333,0.0,0.0,0.0,193.0,1.0,155.0,0.0,44.0,3.0,251.0,411.0,44.0,1019.0,1744252695.1613474,0.0,2025-04-09 22:38:15.161,STOP,15
253.0,15153.23104300869,2490.856050354964,-63392.385946796654,-61071.73843046885,-36445.502811134196,-33985.045133238455,-28665.91109823121,-22333.728949276086,0.0,0.0,0.0,193.0,1.0,155.0,0.0,44.0,3.0,250.0,411.0,44.0,1018.0,1744252695.161356,0.0,2025-04-09 22:38:15.161,STOP,15
254.0,15179.270825299123,2522.97550713724,-63343.56973690626,-61090.15626790003,-36356.25229552416,-33888.351486724794,-29247.63759942503,-22259.342343728822,0.0,0.0,0.0,193.0,1.0,155.0,0.0,44.0,3.0,252.0,411.0,44.0,1020.0,1744252695.1613648,0.0,2025-04-09 22:38:15.161,STOP,15
255.0,15115.009559990116,2531.9609084082736,-63350.20820500949,-61054.214662815895,-36361.77317640462,-33903.03658283193,-28946.380787656402,-22256.235451249537,0.0,0.0,0.0,193.0,1.0,154.0,0.0,44.0,3.0,250.0,410.0,44.0,1018.0,1744252695.1613736,0.0,2025-04-09 22:38:15.161,STOP,15
0.0,15041.226451543147,2508.1563005633716,-63378.95254837901,-61105.04252970726,-36385.53308076061,-33920.91797839617,-29025.058928139086,-22269.802960133908,0.0,0.0,0.0,193.0,1.0,154.0,0.0,44.0,3.0,249.0,410.0,44.0,1017.0,1744252695.1613824,0.0,2025-04-09 22:38:15.161,STOP,15
1.0,15131.035760764571,2494.432329467813,-63384.49578100393,-61057.27685180627,-36439.82546804255,-33978.607830835324,-28677.28813615896,-22312.673605999185,0.0,0.0,0.0,193.0,1.0,155.0,0.0,44.0,3.0,251.0,411.0,44.0,1019.0,1744252695.1613908,0.0,2025-04-09 22:38:15.161,STOP,15
2.0,15185.171685835325,2516.9628878787626,-63360.244138269925,-61102.76265177282,-36371.42913000931,-33902.99187934302,-29158.00710415925,-22266.606660676796,0.0,0.0,0.0,193.0,1.0,155.0,0.0,44.0,3.0,249.0,411.0,44.0,1017.0,1744252695.1614516,0.0,2025-04-09 22:38:15.161,STOP,15
3.0,15119.971647259194,2525.076571116039,-63346.944850319014,-61046.01157260079,-36356.74403390218,-33896.66633566217,-29011.714936699267,-22251.429826191645,0.0,0.0,0.0,193.0,1.0,154.0,0.0,44.0,3.0,249.0,410.0,44.0,1017.0,1744252695.1614609,0.0,2025-04-09 22:38:15.161,STOP,15
4.0,15044.020419600061,2506.9269546183295,-63386.32862404927,-61108.32823614219,-36385.22015633823,-33914.88300739325,-29019.448640280803,-22268.707724655596,0.0,0.0,0.0,193.0,1.0,155.0,0.0,44.0,3.0,252.0,411.0,44.0,1020.0,1744252695.1614692,0.0,2025-04-09 22:38:15.161,STOP,15
5.0,15109.779251787575,2494.5664399345446,-63383.445249014534,-61053.94644188243,-36435.645691829406,-33965.64381905125,-28766.538651769002,-22307.309187329913,0.0,0.0,0.0,193.0,1.0,155.0,0.0,44.0,3.0,252.0,411.0,44.0,1020.0,1744252695.161478,0.0,2025-04-09 22:38:15.161,STOP,15
6.0,15189.619682981931,2514.5936029665,-63377.76790592288,-61108.01531171981,-36397.267746599646,-33921.700289452114,-29046.47189932727,-22280.68825968364,0.0,0.0,0.0,193.0,1.0,154.0,0.0,44.0,3.0,249.0,410.0,44.0,1017.0,1744252695.1614864,0.0,2025-04-09 22:38:15.161,STOP,15
7.0,15140.37878994689,2536.5430160216115,-63326.67181809805,-61033.24872651682,-36336.49335342566,-33870.58184988282,-29100.89839707594,-22225.59120960131,0.0,0.0,0.0,193.0,1.0,155.0,0.0,44.0,3.0,252.0,411.0,44.0,1020.0,1744252695.1614952,0.0,2025-04-09 22:38:15.161,STOP,15
8.0,15061.968870397672,2521.7014577032874,-63369.43070524105,-61091.27385512279,-36362.75665316065,-33897.24748101801,-28957.26608720614,-22255.229622749048,0.0,0.0,0.0,193.0,1.0,155.0,0.0,44.0,3.0,250.0,411.0,44.0,1018.0,1744252695.1615038,0.0,2025-04-09 22:38:15.161,STOP,15
9.0,15074.038812403538,2489.4031869653686,-63383.04291761434,-61063.222415831384,-36424.62628181294,-33958.759481759014,-28831.64928336731,-22312.3159780879,0.0,0.0,0.0,193.0,1.0,155.0,0.0,44.0,3.0,250.0,411.0,44.0,1018.0,1744252695.1615126,0.0,2025-04-09 22:38:15.161,STOP,15
10.0,15185.953996891261,2512.5372424766115,-63388.74261245044,-61100.88510523857,-36423.754563779185,-33944.968455430084,-28902.39255456836,-22314.953483933627,0.0,0.0,0.0,193.0,1.0,155.0,0.0,44.0,3.0,251.0,411.0,44.0,1019.0,1744252695.1615214,0.0,2025-04-09 22:38:15.161,STOP,15
11.0,15142.770426603607,2525.6353647274213,-63331.67860885604,-61044.625764444565,-36344.02589130711,-33872.92878305064,-29189.232491163315,-22233.906058538683,0.0,0.0,0.0,193.0,1.0,155.0,0.0,44.0,3.0,250.0,411.0,44.0,1018.0,1744252695.16153,0.0,2025-04-09 22:38:15.161,STOP,15
12.0,15073.904701936806,2525.5683094940555,-63366.61438543969,-61080.67912825097,-36360.87910662641,-33898.566233940874,-28929.48286884819,-22257.420093705667,0.0,0.0,0.0,193.0,1.0,155.0,0.0,44.0,3.0,252.0,411.0,44.0,1020.0,1744252695.1615388,0.0,2025-04-09 22:38:15.161,STOP,15
13.0,15049.854224902896,2480.104861271961,-63386.68625196055,-61078.958043927916,-36417.63018579843,-33956.07727242437,-28919.49163907667,-22311.868943198795,0.0,0.0,0.0,193.0,1.0,155.0,0.0,44.0,3.0,251.0,411.0,44.0,1019.0,1744252695.1615477,0.0,2025-04-09 22:38:15.161,STOP,15
14.0,15185.10463060196,2513.4760157437345,-63385.948644393524,-61081.30497709572,-36428.33667139252,-33957.91011546971,-28777.40159957428,-22318.46270781311,0.0,0.0,0.0,193.0,1.0,155.0,0.0,44.0,3.0,250.0,411.0,44.0,1018.0,1744252695.1615565,0.0,2025-04-09 22:38:15.161,STOP,15
15.0,15174.800476408063,2556.9948621982176,-63303.00132071988,-61029.113653792585,-36314.365126414916,-33848.61008508326,-29251.482099471345,-22227.78168055793,0.0,0.0,0.0,193.0,1.0,154.0,0.0,44.0,3.0,250.0,410.0,44.0,1018.0,1744252695.161565,0.0,2025-04-09 22:38:15.161,STOP,15
16.0,15097.485792337155,2543.2485393582033,-63339.747588604405,-61046.436255745444,-36339.33202497149,-33880.886004076725,-28893.563615508512,-22246.557145900388,0.0,0.0,0.0,193.0,1.0,154.0,0.0,44.0,3.0,248.0,410.0,44.0,1016.0,1744252695.161574,0.0,2025-04-09 22:38:15.161,STOP,15
17.0,15043.685143433231,2492.8006521225757,-63369.676574430065,-61075.35941307061,-36394.71964773174,-33923.890760408736,-28969.939526312297,-22280.397687005723,0.0,0.0,0.0,193.0,1.0,154.0,0.0,44.0,3.0,249.0,410.0,44.0,1017.0,1744252695.1616027,0.0,2025-04-09 22:38:15.161,STOP,15
18.0,15180.47781949971,2517.5440332346,-63371.79999015332,-61051.28658429225,-36429.96834873776,-33954.73616775706,-28684.373639151294,-22303.867018683795,0.0,0.0,0.0,193.0,1.0,154.0,0.0,44.0,3.0,250.0,410.0,44.0,1018.0,1744252695.1616116,0.0,2025-04-09 22:38:15.161,STOP,15
19.0,15183.629415467909,2546.556597537589,-63313.68545456952,-61050.79484591423,-36329.76547834462,-33861.68585558961,-29243.435471467434,-22232.855526549283,0.0,0.0,0.0,193.0,1.0,155.0,0.0,44.0,3.0,251.0,411.0,44.0,1019.0,1744252695.1616204,0.0,2025-04-09 22:38:15.161,STOP,15
20.0,15108.236981420157,2537.8841206889297,-63344.79908285131,-61049.409037758,-36354.44180422328,-33901.20373978659,-28897.76574346611,-22265.667887409676,0.0,0.0,0.0,193.0,1.0,154.0,0.0,44.0,3.0,250.0,410.0,44.0,1018.0,1744252695.1616297,0.0,2025-04-09 22:38:15.161,STOP,15
21.0,15043.97571611115,2503.3506755054805,-63370.302423274814,-61093.352567357135,-36387.410627294856,-33925.23186507605,-29013.525428000146,-22286.27619579747,0.0,0.0,0.0,193.0,1.0,155.0,0.0,44.0,3.0,251.0,411.0,44.0,1019.0,1744252695.1616385,0.0,2025-04-09 22:38:15.161,STOP,15
22.0,15148.246603995158,2499.7743963926314,-63379.28782454584,-61057.74623843983,-36445.10047973401,-33983.1228832153,-28668.883880243768,-22334.712426032118,0.0,0.0,0.0,193.0,1.0,154.0,0.0,44.0,3.0,249.0,410.0,44.0,1017.0,1744252695.161647,0.0,2025-04-09 22:38:15.161,STOP,15
23.0,15181.349537533468,2533.2126060977707,-63332.57267863425,-61081.193218373446,-36352.56425768903,-33880.48367267653,-29218.513276399768,-22251.765102358473,0.0,0.0,0.0,193.0,1.0,154.0,0.0,44.0,3.0,250.0,410.0,44.0,1018.0,1744252695.1616592,0.0,2025-04-09 22:38:15.161,STOP,15
24.0,15125.045493250549,2545.483713803734,-63326.20243146449,-61027.39256946952,-36342.729490128695,-33879.343733709306,-28941.99984574316,-22237.16941322916,0.0,0.0,0.0,193.0,1.0,155.0,0.0,44.0,3.0,251.0,411.0,44.0,1019.0,1744252695.1616678,0.0,2025-04-09 22:38:15.161,STOP,15
25.0,15046.702628934698,2512.201966309782,-63366.793199395324,-61090.80446848923,-36380.45923476925,-33912.267853291974,-29007.17753257484,-22278.49778872702,0.0,0.0,0.0,193.0,1.0,154.0,0.0,44.0,3.0,249.0,410.0,44.0,1017.0,1744252695.1616764,0.0,2025-04-09 22:38:15.161,STOP,15
26.0,15128.46531015221,2506.7034371737764,-63372.58230120925,-61039.64132543103,-36440.98775875423,-33968.86247025281,-28698.656403858236,-22322.374263092788,0.0,0.0,0.0,193.0,1.0,156.0,0.0,44.0,3.0,252.0,412.0,44.0,1020.0,1744252695.1616852,0.0,2025-04-09 22:38:15.161,STOP,15
27.0,15198.426270297323,2534.5984142539996,-63348.75534161989,-61085.70827075342,-36375.25127831117,-33894.56527168337,-29121.5737606971,-22268.41715197768,0.0,0.0,0.0,193.0,1.0,155.0,0.0,44.0,3.0,249.0,411.0,44.0,1017.0,1744252695.1616938,0.0,2025-04-09 22:38:15.161,STOP,15
28.0,15138.456539923733,2545.2154928702707,-63321.26269593987,-61024.03980780123,-36341.18721976128,-33875.38747494072,-29026.69060548432,-22243.74082609902,0.0,0.0,0.0,193.0,1.0,155.0,0.0,44.0,3.0,250.0,411.0,44.0,1018.0,1744252695.1617026,0.0,2025-04-09 22:38:15.161,STOP,15
29.0,15054.257518560591,2521.008553625173,-63368.424876740566,-61096.83943949216,-36373.641952710386,-33908.46805673457,-28991.531311456125,-22285.762105674996,0.0,0.0,0.0,193.0,1.0,155.0,0.0,44.0,3.0,252.0,411.0,44.0,1020.0,1744252695.1617112,0.0,2025-04-09 22:38:15.161,STOP,15
30.0,15096.926998725772,2493.9405910897963,-63377.34322277823,-61056.293375050234,-36433.7010900618,-33966.180260918176,-28782.766018243554,-22322.03898692596,0.0,0.0,0.0,193.0,1.0,154.0,0.0,44.0,3.0,250.0,410.0,44.0,1018.0,1744252695.16172,0.0,2025-04-09 22:38:15.161,STOP,15
31.0,15199.879133686916,2525.1436263494047,-63362.54636794882,-61094.85013423564,-36392.216252352744,-33920.180370829155,-28990.816055633553,-22288.444315009634,0.0,0.0,0.0,193.0,1.0,155.0,0.0,44.0,3.0,252.0,411.0,44.0,1020.0,1744252695.1617284,0.0,2025-04-09 22:38:15.161,STOP,15
32.0,15144.513862671121,2540.588681768022,-63315.65240808159,-61032.60052592761,-36336.76157435913,-33875.58864064082,-29119.942083351863,-22249.596983146308,0.0,0.0,0.0,193.0,1.0,154.0,0.0,44.0,3.0,249.0,410.0,44.0,1017.0,1744252695.1617625,0.0,2025-04-09 22:38:15.161,STOP,15
33.0,15059.063143618483,2520.0027251246843,-63368.71544941849,-61099.90162848254,-36372.926696887815,-33919.688632451136,-28954.807395316053,-22298.45789652561,0.0,0.0,0.0,193.0,1.0,154.0,0.0,44.0,3.0,251.0,410.0,44.0,1019.0,1744252695.1617713,0.0,2025-04-09 22:38:15.161,STOP,15
34.0,15077.324518838468,2492.8006521225757,-63363.06045807129,-61062.37304954208,-36409.18122639433,-33958.826536992376,-28869.647248941335,-22317.70274850163,0.0,0.0,0.0,193.0,1.0,155.0,0.0,44.0,3.0,251.0,411.0,44.0,1019.0,1744252695.16178,0.0,2025-04-09 22:38:15.161,STOP,15
35.0,15207.590485523999,2533.078495631039,-63351.90693758809,-61075.00178515933,-36394.87610994293,-33930.10454536731,-28852.548164433025,-22289.78541967695,0.0,0.0,0.0,193.0,1.0,154.0,0.0,45.0,3.0,249.0,410.0,45.0,1017.0,1744252695.1617887,0.0,2025-04-09 22:38:15.161,STOP,15
36.0,15166.820903637517,2551.2057603842927,-63293.79240200429,-61027.437272958436,-36315.1697892153,-33850.80055603988,-29195.11099995506,-22215.868200763252,0.0,0.0,0.0,193.0,1.0,155.0,0.0,44.0,3.0,250.0,411.0,44.0,1018.0,1744252695.1617973,0.0,2025-04-09 22:38:15.161,STOP,15
37.0,15091.5625800565,2540.298109090103,-63340.97693454945,-61069.63736649005,-36347.89274309787,-33887.166844268664,-28909.656871516334,-22254.514366926476,0.0,0.0,0.0,193.0,1.0,155.0,0.0,44.0,3.0,251.0,411.0,44.0,1019.0,1744252695.1618059,0.0,2025-04-09 22:38:15.161,STOP,15
38.0,15056.000954628105,2493.851184111975,-63364.78154239435,-61078.91334043901,-36398.787665222604,-33941.682748995154,-28934.48965960618,-22306.526876273976,0.0,0.0,0.0,193.0,1.0,154.0,0.0,44.0,3.0,250.0,410.0,44.0,1018.0,1744252695.1618145,0.0,2025-04-09 22:38:15.161,STOP,15
39.0,15181.19307532228,2514.1912715663043,-63374.4598477435,-61081.260273606815,-36425.31918589106,-33960.12293817079,-28730.641750173778,-22327.313998617414,0.0,0.0,0.0,193.0,1.0,155.0,0.0,44.0,3.0,252.0,411.0,44.0,1020.0,1744252695.1618233,0.0,2025-04-09 22:38:15.161,STOP,15
40.0,15166.485627470689,2543.136780635927,-63307.89635275559,-61054.23701456035,-36324.53517014208,-33859.67419858863,-29242.384939478034,-22235.73890158402,0.0,0.0,0.0,193.0,1.0,154.0,0.0,44.0,3.0,250.0,410.0,44.0,1018.0,1744252695.161832,0.0,2025-04-09 22:38:15.161,STOP,15
41.0,15094.311844624503,2539.4487428008015,-63342.29568747231,-61066.84339843314,-36350.843173365975,-33899.415600230175,-28896.044659143052,-22276.21791079258,0.0,0.0,0.0,193.0,1.0,154.0,0.0,44.0,3.0,250.0,410.0,44.0,1018.0,1744252695.1618416,0.0,2025-04-09 22:38:15.161,STOP,15
42.0,15038.052503830493,2499.0591405700616,-63365.31798426127,-61094.93954121346,-36390.24929884068,-33936.29597858143,-28993.945299857296,-22305.632806495763,0.0,0.0,0.0,193.0,1.0,154.0,0.0,44.0,3.0,251.0,410.0,44.0,1019.0,1744252695.1618547,0.0,2025-04-09 22:38:15.161,STOP,15
43.0,15159.847159367462,2514.9288791333292,-63375.28686228835,-61067.53630251125,-36437.5008866192,-33968.66130455271,-28669.62148781079,-22324.542382304953,0.0,0.0,0.0,193.0,1.0,154.0,0.0,44.0,3.0,251.0,410.0,44.0,1019.0,1744252695.1618643,0.0,2025-04-09 22:38:15.161,STOP,15
44.0,15176.700374686763,2539.2252253562483,-63317.373492404644,-61070.03969789025,-36341.18721976128,-33860.7917858114,-29249.291628514726,-22237.21411671807,0.0,0.0,0.0,193.0,1.0,154.0,0.0,45.0,3.0,250.0,410.0,45.0,1018.0,1744252695.161873,0.0,2025-04-09 22:38:15.161,STOP,15
45.0,15121.960952515718,2550.2669871171697,-63318.13345171612,-61032.824043372166,-36335.30871096953,-33871.63238187222,-28914.95423495224,-22238.73403534103,0.0,0.0,0.0,193.0,1.0,154.0,0.0,44.0,3.0,251.0,410.0,44.0,1019.0,1744252695.1618817,0.0,2025-04-09 22:38:15.161,STOP,15
46.0,15039.035980586528,2509.005666852673,-63357.383114979646,-61092.302035367735,-36373.39608352138,-33910.01032710199,-29002.975404617242,-22273.803922391406,0.0,0.0,0.0,193.0,1.0,153.0,0.0,44.0,3.0,249.0,409.0,44.0,1017.0,1744252695.1618907,0.0,2025-04-09 22:38:15.161,STOP,15
47.0,15141.675191125298,2510.4808819867235,-63358.79127488033,-61043.46347373289,-36425.565055080064,-33959.65355153722,-28654.556412047914,-22315.13229788927,0.0,0.0,0.0,193.0,1.0,154.0,0.0,45.0,3.0,250.0,410.0,45.0,1018.0,1744252695.1619053,0.0,2025-04-09 22:38:15.161,STOP,15
48.0,15181.282482300101,2535.492484032212,-63330.024579766345,-61088.725756254884,-36356.498164713164,-33885.69162913461,-29180.604717803566,-22267.567785688378,0.0,0.0,0.0,193.0,1.0,154.0,0.0,44.0,3.0,252.0,410.0,44.0,1020.0,1744252695.161914,0.0,2025-04-09 22:38:15.161,STOP,15
49.0,15123.100891482938,2550.736373750731,-63312.52316385784,-61029.515985192775,-36335.42046969181,-33874.94044005161,-28971.88412807991,-22246.266573222467,0.0,0.0,0.0,193.0,1.0,154.0,0.0,44.0,3.0,249.0,410.0,44.0,1017.0,1744252695.1619227,0.0,2025-04-09 22:38:15.161,STOP,15
50.0,15045.607393456388,2523.914280404363,-63346.85544334119,-61088.01050043232,-36358.93450485879,-33891.52543443745,-29002.528369728134,-22258.515329183978,0.0,0.0,0.0,193.0,1.0,154.0,0.0,44.0,3.0,252.0,410.0,44.0,1020.0,1744252695.161932,0.0,2025-04-09 22:38:15.161,STOP,15
51.0,15112.729682055675,2500.914335359852,-63357.96426033548,-61040.87067137608,-36428.35902313698,-33954.26678112349,-28703.126752749296,-22307.286835585455,0.0,0.0,0.0,193.0,1.0,154.0,0.0,44.0,3.0,250.0,410.0,44.0,1018.0,1744252695.1619406,0.0,2025-04-09 22:38:15.161,STOP,15
52.0,15190.71491846024,2532.6091089974775,-63339.79229209332,-61086.579988787176,-36374.35720853296,-33890.251385003496,-29081.13945497745,-22269.937070600638,0.0,0.0,0.0,193.0,1.0,154.0,0.0,45.0,3.0,250.0,410.0,45.0,1018.0,1744252695.1619492,0.0,2025-04-09 22:38:15.161,STOP,15
53.0,15130.655781108831,2541.594510268511,-63310.15387894558,-61025.760892124286,-36336.2251324922,-33868.88311730422,-29047.969466205774,-22239.11401499677,0.0,0.0,0.0,193.0,1.0,154.0,0.0,44.0,3.0,251.0,410.0,44.0,1019.0,1744252695.1619577,0.0,2025-04-09 22:38:15.161,STOP,15
54.0,15049.31778303597,2519.9580216357735,-63355.77378937886,-61096.61592204761,-36361.192031048784,-33902.343678753816,-28966.07267452153,-22274.98856484754,0.0,0.0,0.0,193.0,1.0,154.0,0.0,44.0,3.0,251.0,410.0,44.0,1019.0,1744252695.1619663,0.0,2025-04-09 22:38:15.161,STOP,15
55.0,15084.141800897338,2494.521736445634,-63358.411295224585,-61056.49454075033,-36413.4951130742,-33961.262877138004,-28787.951622957185,-22329.973856207595,0.0,0.0,0.0,193.0,1.0,154.0,0.0,45.0,3.0,248.0,410.0,45.0,1016.0,1744252695.161975,0.0,2025-04-09 22:38:15.161,STOP,15
56.0,15183.137677089891,2518.9521931352847,-63361.74170514843,-61103.768480273306,-36397.4912640442,-33934.17256285818,-28930.7792700266,-22312.65125425473,0.0,0.0,0.0,193.0,1.0,155.0,0.0,45.0,3.0,252.0,411.0,45.0,1020.0,1744252695.1619835,0.0,2025-04-09 22:38:15.161,STOP,15
57.0,15139.149444001849,2541.0580684015836,-63302.46487885295,-61032.08643580514,-36326.5244753986,-33859.27186718844,-29133.397833513958,-22227.848735791296,0.0,0.0,0.0,193.0,1.0,155.0,0.0,44.0,3.0,251.0,411.0,44.0,1019.0,1744252695.1619923,0.0,2025-04-09 22:38:15.161,STOP,15
58.0,15059.17490234076,2523.914280404363,-63354.2538707559,-61090.71506151141,-36363.62837119441,-33901.20373978659,-28926.86771474692,-22273.043963079926,0.0,0.0,0.0,193.0,1.0,154.0,0.0,44.0,3.0,250.0,410.0,44.0,1018.0,1744252695.162001,0.0,2025-04-09 22:38:15.162,STOP,15
59.0,15057.386762784334,2487.883268342408,-63361.987574337436,-61069.68206997897,-36413.204540396284,-33949.37174908778,-28886.366353793903,-22318.57446653539,0.0,0.0,0.0,193.0,1.0,155.0,0.0,44.0,3.0,252.0,411.0,44.0,1020.0,1744252695.6467457,0.0,2025-04-09 22:38:15.646,STOP,15
60.0,15182.489476500688,2514.5936029665,-63362.09933305971,-61080.90264569553,-36416.11026717547,-33941.03454840595,-28810.973919746153,-22316.629864767776,0.0,0.0,0.0,193.0,1.0,154.0,0.0,45.0,3.0,250.0,410.0,45.0,1018.0,1744252695.6467836,0.0,2025-04-09 22:38:15.646,STOP,15
61.0,15146.637278394375,2533.88315843143,-63304.47653585393,-61039.03782833074,-36331.95594930124,-33854.51094561946,-29209.30435768418,-22232.319084682356,0.0,0.0,0.0,193.0,1.0,155.0,0.0,44.0,3.0,252.0,411.0,44.0,1020.0,1744252695.6468344,0.0,2025-04-09 22:38:15.646,STOP,15
62.0,15081.012556673593,2530.7539142076866,-63341.49102467192,-61065.56934899919,-36359.62740893691,-33885.08813203432,-28910.238016872172,-22261.197538518612,0.0,0.0,0.0,193.0,1.0,155.0,0.0,44.0,3.0,251.0,411.0,44.0,1019.0,1744252695.6468546,0.0,2025-04-09 22:38:15.646,STOP,15
63.0,15049.183672569237,2496.2204690242374,-63351.88458584364,-61069.19033160095,-36394.317316331544,-33917.8557894058,-28959.613020373945,-22287.103210342313,0.0,0.0,0.0,193.0,1.0,154.0,0.0,44.0,3.0,250.0,410.0,44.0,1018.0,1744252695.6468723,0.0,2025-04-09 22:38:15.646,STOP,15
64.0,15169.369002505424,2504.535317961612,-63372.06821108678,-61075.314709581704,-36434.595159840006,-33963.520403327995,-28692.24145319956,-22342.60259182484,0.0,0.0,0.0,193.0,1.0,155.0,0.0,44.0,3.0,250.0,411.0,44.0,1018.0,1744252695.6468897,0.0,2025-04-09 22:38:15.646,STOP,15
65.0,15171.648880439865,2542.935614935829,-63301.8390300082,-61053.2088343154,-36329.318443455515,-33851.98519849601,-29252.77850064975,-22243.941991799118,0.0,0.0,0.0,193.0,1.0,155.0,0.0,44.0,3.0,251.0,411.0,44.0,1019.0,1744252695.646907,0.0,2025-04-09 22:38:15.646,STOP,15
66.0,15105.666530807797,2547.1153911489714,-63324.97308551945,-61043.441121988435,-36348.675054153806,-33866.98321902552,-28886.72398170519,-22235.202459717093,0.0,0.0,0.0,193.0,1.0,154.0,0.0,44.0,3.0,250.0,410.0,44.0,1018.0,1744252695.646917,0.0,2025-04-09 22:38:15.646,STOP,15
67.0,15050.234204558636,2513.073684343539,-63350.2529084984,-61077.46047704941,-36386.15892960536,-33903.61772818777,-28990.570186444544,-22279.190692805136,0.0,0.0,0.0,193.0,1.0,155.0,0.0,44.0,3.0,252.0,411.0,44.0,1020.0,1744252695.646926,0.0,2025-04-09 22:38:15.646,STOP,15
