Sample Index,EXG Channel 0,EXG Channel 1,EXG Channel 2,EXG Channel 3,EXG Channel 4,EXG Channel 5,EXG Channel 6,EXG Channel 7,Accel Channel 0,Accel Channel 1,Accel Channel 2,Not Used,Digital Channel 0 (D11),Digital Channel 1 (D12),Digital Channel 2 (D13),Digital Channel 3 (D17),Not Used,Digital Channel 4 (D18),Analog Channel 0,Analog Channel 1,Analog Channel 2,Timestamp,Marker Channel,Timestamp (Formatted),Stimulus_Direction,Stimulus_Number
47.0,11650.913852562173,834.2565100498808,-57324.893155681275,-53725.904670465556,-32878.454968745114,-30120.67438610487,686.8244036226754,-20065.026887062417,0.0,0.0,0.0,193.0,1.0,155.0,0.0,10.0,3.0,251.0,411.0,10.0,1019.0,1744252878.2902212,0.0,2025-04-09 22:41:18.290,STOP,38
48.0,11608.557296819365,797.3761316986241,-57338.61712677684,-53749.664574821545,-32907.91456793721,-30152.659732420416,638.8799117660418,-20091.804276919876,0.0,0.0,0.0,193.0,1.0,154.0,0.0,9.0,3.0,249.0,410.0,9.0,1017.0,1744252878.2902298,0.0,2025-04-09 22:41:18.290,STOP,38
49.0,11718.639638261753,820.8454633766966,-57326.01074290404,-53698.076748618696,-32927.89702748025,-30176.665505965415,707.8350434106641,-20106.288207326914,0.0,0.0,0.0,193.0,1.0,154.0,0.0,8.0,3.0,251.0,410.0,8.0,1019.0,1744252878.2902384,0.0,2025-04-09 22:41:18.290,STOP,38
50.0,11720.27131560699,837.3634025291685,-57298.115765823815,-53736.07471419272,-32857.623142912766,-30102.748287051712,572.6293412005116,-20056.421465447125,0.0,0.0,0.0,193.0,1.0,154.0,0.0,8.0,3.0,249.0,410.0,8.0,1017.0,1744252878.290247,0.0,2025-04-09 22:41:18.290,STOP,38
51.0,11674.472591218066,846.8852456671293,-57301.6249897033,-53698.25556257434,-32859.83596561384,-30109.96790051078,711.9254126459853,-20057.762570114442,0.0,0.0,0.0,193.0,1.0,154.0,0.0,7.0,3.0,252.0,410.0,7.0,1020.0,1744252878.2902555,0.0,2025-04-09 22:41:18.290,STOP,38
52.0,11609.473718342033,806.0933120361939,-57333.92326044122,-53753.39731614558,-32896.202253842624,-30140.1651072699,629.0898476946173,-20090.239654808003,0.0,0.0,0.0,193.0,1.0,155.0,0.0,7.0,3.0,251.0,411.0,7.0,1019.0,1744252878.2902725,0.0,2025-04-09 22:41:18.290,STOP,38
53.0,11703.55221075442,822.9688790999508,-57314.92427765421,-53677.28962627526,-32928.07584143589,-30171.099921596044,727.6833924869767,-20100.521457257444,0.0,0.0,0.0,193.0,1.0,155.0,0.0,6.0,3.0,251.0,411.0,6.0,1019.0,1744252878.2902813,0.0,2025-04-09 22:41:18.290,STOP,38
54.0,11729.614344789308,829.3838297586238,-57305.76006242753,-53746.870606764634,-32874.85633788781,-30114.795877313125,551.9539775793526,-20064.7363143845,0.0,0.0,0.0,193.0,1.0,155.0,0.0,6.0,3.0,252.0,411.0,6.0,1020.0,1744252878.29029,0.0,2025-04-09 22:41:18.290,STOP,38
55.0,11692.64455946023,849.5674550017661,-57283.58713192787,-53684.777460667785,-32851.02937829845,-30104.20115044131,711.0089911233176,-20050.028866532906,0.0,0.0,0.0,193.0,1.0,155.0,0.0,6.0,3.0,252.0,411.0,6.0,1020.0,1744252878.2902987,0.0,2025-04-09 22:41:18.290,STOP,38
56.0,11620.023741724937,818.0067918308725,-57331.82219646242,-53760.92985402702,-32892.08953286285,-30142.042653804143,628.7322197833323,-20092.363070531257,0.0,0.0,0.0,193.0,1.0,154.0,0.0,5.0,3.0,250.0,410.0,5.0,1018.0,1744252878.2903073,0.0,2025-04-09 22:41:18.290,STOP,38
57.0,11685.737870423542,814.2293470179256,-57313.38200728679,-53681.58116121068,-32928.83580074737,-30180.152378100443,717.9603836489182,-20117.37467257675,0.0,0.0,0.0,193.0,1.0,154.0,0.0,5.0,3.0,249.0,410.0,5.0,1017.0,1744252878.2903159,0.0,2025-04-09 22:41:18.290,STOP,38
58.0,11736.923365226194,828.1991873024926,-57314.72311195411,-53753.12909521212,-32891.173111340184,-30141.483860192762,561.0511375726626,-20099.090945612304,0.0,0.0,0.0,193.0,1.0,155.0,0.0,5.0,3.0,251.0,411.0,5.0,1019.0,1744252878.2903244,0.0,2025-04-09 22:41:18.290,STOP,38
59.0,11681.468687232576,830.0990855811937,-57295.67942567819,-53701.11658586462,-32867.36850349528,-30126.21761872979,683.1587175320051,-20070.279547009417,0.0,0.0,0.0,193.0,1.0,155.0,0.0,5.0,3.0,252.0,411.0,5.0,1020.0,1744252878.2903333,0.0,2025-04-09 22:41:18.290,STOP,38
60.0,11621.186032436613,818.3867714866128,-57336.02432442002,-53765.4896098959,-32890.971945640085,-30146.602409673025,641.0927344671172,-20092.69834669809,0.0,0.0,0.0,193.0,1.0,155.0,0.0,5.0,3.0,251.0,411.0,5.0,1019.0,1744252878.2903416,0.0,2025-04-09 22:41:18.290,STOP,38
61.0,11655.563015408876,807.7696928703419,-57316.89123116627,-53694.433414272484,-32924.164286156214,-30178.364238544018,712.4842062573679,-20108.277512583438,0.0,0.0,0.0,193.0,1.0,155.0,0.0,4.0,3.0,252.0,411.0,4.0,1020.0,1744252878.2903502,0.0,2025-04-09 22:41:18.290,STOP,38
62.0,11738.555042571432,828.1097803246714,-57323.775568458506,-53742.534368340304,-32913.01076567302,-30155.185479543863,586.8003471851763,-20099.381518290225,0.0,0.0,0.0,193.0,1.0,154.0,0.0,4.0,3.0,249.0,410.0,4.0,1017.0,1744252878.290359,0.0,2025-04-09 22:41:18.290,STOP,38
63.0,11700.154745597214,841.2973095533025,-57283.45302146114,-53696.02038812881,-32854.58330566684,-30110.95137726681,658.1024119976058,-20052.129930511706,0.0,0.0,0.0,193.0,1.0,154.0,0.0,4.0,3.0,249.0,410.0,4.0,1017.0,1744252878.2903676,0.0,2025-04-09 22:41:18.290,STOP,38
64.0,11650.64563162871,845.4547340219897,-57313.091434608876,-53737.10289443766,-32866.8097098839,-30133.414880444394,675.000330805818,-20080.226073292026,0.0,0.0,0.0,193.0,1.0,154.0,0.0,4.0,3.0,251.0,410.0,4.0,1019.0,1744252878.2903762,0.0,2025-04-09 22:41:18.290,STOP,38
65.0,11645.325916448346,815.1904720295039,-57310.856260163346,-53703.61998124361,-32908.27219584849,-30173.983296630777,694.0887205706503,-20112.926675430142,0.0,0.0,0.0,193.0,1.0,155.0,0.0,4.0,3.0,251.0,411.0,4.0,1019.0,1744252878.2903855,0.0,2025-04-09 22:41:18.290,STOP,38
66.0,11736.766903015006,827.6627454355652,-57324.06614113643,-53727.69281002198,-32923.00199544454,-30175.033828620177,633.8060657746871,-20114.200724864095,0.0,0.0,0.0,193.0,1.0,154.0,0.0,4.0,3.0,252.0,410.0,4.0,1020.0,1744252878.290394,0.0,2025-04-09 22:41:18.290,STOP,38
67.0,11706.74851021153,836.4022775175903,-57283.69889065014,-53710.59372551367,-32855.27620974496,-30108.24681618772,615.0976556655951,-20055.996782302474,0.0,0.0,0.0,193.0,1.0,155.0,0.0,4.0,3.0,252.0,411.0,4.0,1020.0,1744252878.2904072,0.0,2025-04-09 22:41:18.290,STOP,38
68.0,11656.412381698177,845.2982718108025,-57311.83973691938,-53725.85996697664,-32865.5580121944,-30125.032976273655,693.3734647480804,-20069.11725629774,0.0,0.0,0.0,193.0,1.0,155.0,0.0,4.0,3.0,252.0,411.0,4.0,1020.0,1744252878.290416,0.0,2025-04-09 22:41:18.290,STOP,38
69.0,11626.34928540579,807.0097335588615,-57323.552051013954,-53726.21759488793,-32903.91360567971,-30157.666523178403,667.9371795579409,-20099.44857352359,0.0,0.0,0.0,193.0,1.0,154.0,0.0,4.0,3.0,250.0,410.0,4.0,1018.0,1744252878.2904243,0.0,2025-04-09 22:41:18.290,STOP,38
70.0,11724.965181942605,819.9737453429395,-57334.39264707478,-53713.96883892642,-32939.274065408004,-30181.49348276776,665.5678946456784,-20125.153079647192,0.0,0.0,0.0,193.0,1.0,154.0,0.0,4.0,3.0,249.0,410.0,4.0,1017.0,1744252878.2904332,0.0,2025-04-09 22:41:18.290,STOP,38
71.0,11698.344254296333,822.3877337441128,-57303.636646704275,-53734.48774033639,-32867.90494536221,-30109.856141788503,573.2775417897155,-20066.77032312993,0.0,0.0,0.0,193.0,1.0,154.0,0.0,3.0,3.0,251.0,410.0,3.0,1019.0,1744252878.290442,0.0,2025-04-09 22:41:18.290,STOP,38
72.0,11649.68450661713,828.9367948695177,-57319.528737012,-53718.21567037293,-32868.35198025131,-30127.983406541756,718.2956598157477,-20069.139608042195,0.0,0.0,0.0,193.0,1.0,155.0,0.0,3.0,3.0,251.0,411.0,3.0,1019.0,1744252878.2904503,0.0,2025-04-09 22:41:18.290,STOP,38
73.0,11604.556334561865,797.3314282097135,-57346.06025768045,-53753.75494405687,-32908.451009804136,-30165.26611629321,644.1772752019496,-20107.472849783047,0.0,0.0,0.0,193.0,1.0,154.0,0.0,3.0,3.0,250.0,410.0,3.0,1018.0,1744252878.290459,0.0,2025-04-09 22:41:18.290,STOP,38
74.0,11723.244097619547,834.1447513276042,-57317.204155588646,-53674.227437284884,-32920.20802738763,-30172.798654174647,718.7873981937645,-20106.31055907137,0.0,0.0,0.0,193.0,1.0,154.0,0.0,3.0,3.0,249.0,410.0,3.0,1017.0,1744252878.2904675,0.0,2025-04-09 22:41:18.290,STOP,38
75.0,11716.136242882758,830.9484518704953,-57298.65220769074,-53720.45084481846,-32855.87970684525,-30099.28376666114,578.8878296479976,-20042.183404229094,0.0,0.0,0.0,193.0,1.0,154.0,0.0,3.0,3.0,250.0,410.0,3.0,1018.0,1744252878.290476,0.0,2025-04-09 22:41:18.290,STOP,38
76.0,11658.424038699155,830.7696379148529,-57307.48114675059,-53679.65891118752,-32858.83013711335,-30108.693851076827,730.030325654784,-20034.226183203005,0.0,0.0,0.0,193.0,1.0,154.0,0.0,3.0,3.0,250.0,410.0,3.0,1018.0,1744252878.2904844,0.0,2025-04-09 22:41:18.290,STOP,38
77.0,11593.559276289854,796.6161723871437,-57345.792036746985,-53735.9853072149,-32892.76008519651,-30138.242857246743,645.9654147583741,-20065.36216322925,0.0,0.0,0.0,193.0,1.0,154.0,0.0,3.0,3.0,250.0,410.0,3.0,1018.0,1744252878.2904932,0.0,2025-04-09 22:41:18.290,STOP,38
78.0,11678.294739519923,807.8367481037078,-57324.62493474781,-53649.75227710632,-32922.37614659979,-30168.97650587279,741.0273839267951,-20084.964643116553,0.0,0.0,0.0,193.0,1.0,154.0,0.0,3.0,3.0,249.0,410.0,3.0,1017.0,1744252878.2905016,0.0,2025-04-09 22:41:18.290,STOP,38
79.0,11707.754338712019,817.0009633303838,-57320.691027723675,-53716.29342034977,-32873.31406752039,-30113.834752301547,569.164820809939,-20055.236822990995,0.0,0.0,0.0,193.0,1.0,154.0,0.0,3.0,3.0,250.0,410.0,3.0,1018.0,1744252878.29051,0.0,2025-04-09 22:41:18.290,STOP,38
80.0,11663.967271324072,835.6870216950205,-57301.31206528092,-53649.819332339684,-32848.54833466391,-30096.221577670764,728.0857238871722,-20025.956037754542,0.0,0.0,0.0,193.0,1.0,154.0,0.0,3.0,3.0,250.0,410.0,3.0,1018.0,1744252878.2905185,0.0,2025-04-09 22:41:18.290,STOP,38
81.0,11607.462061341055,822.1642162995597,-57334.83968196389,-53708.02327490131,-32871.16830005268,-30113.365365667985,665.3667289455807,-20038.651828605158,0.0,0.0,0.0,193.0,1.0,155.0,0.0,3.0,3.0,251.0,411.0,3.0,1019.0,1744252878.290527,0.0,2025-04-09 22:41:18.290,STOP,38
82.0,11666.761239380985,811.8600621056631,-57324.49082428108,-53639.02343976778,-32920.00686168753,-30166.83073840508,733.9865844233733,-20081.947157615086,0.0,0.0,0.0,193.0,1.0,155.0,0.0,3.0,3.0,252.0,411.0,3.0,1020.0,1744252878.29054,0.0,2025-04-09 22:41:18.290,STOP,38
83.0,11726.485100565566,824.1088180671715,-57325.85428069285,-53705.16225161103,-32879.88548039025,-30128.341034453042,599.3620275690589,-20055.48269218,0.0,0.0,0.0,193.0,1.0,155.0,0.0,3.0,3.0,249.0,411.0,3.0,1017.0,1744252878.2905486,0.0,2025-04-09 22:41:18.290,STOP,38
84.0,11682.206294799602,838.7715624298528,-57292.19255354316,-53644.723134603875,-32834.958474035084,-30096.892130004424,716.5745754926892,-20022.75973829743,0.0,0.0,0.0,193.0,1.0,154.0,0.0,3.0,3.0,249.0,410.0,3.0,1017.0,1744252878.2905571,0.0,2025-04-09 22:41:18.290,STOP,38
85.0,11615.508689344966,819.1243790536379,-57339.086513410395,-53711.130167380594,-32865.379198238756,-30127.44696467483,682.3987582205247,-20053.20281424556,0.0,0.0,0.0,193.0,1.0,155.0,0.0,3.0,3.0,249.0,411.0,3.0,1017.0,1744252878.2905655,0.0,2025-04-09 22:41:18.290,STOP,38
86.0,11634.30650643188,794.895088064085,-57330.92812668421,-53654.96023356441,-32907.80280921493,-30165.176709315387,733.092514645161,-20077.767381401944,0.0,0.0,0.0,193.0,1.0,156.0,0.0,3.0,3.0,252.0,412.0,3.0,1020.0,1744252878.2905743,0.0,2025-04-09 22:41:18.290,STOP,38
87.0,11734.062341935914,832.2672047933585,-57328.02239990502,-53686.58795196867,-32889.38497178376,-30139.852182847524,634.4095628749803,-20072.96175634405,0.0,0.0,0.0,193.0,1.0,155.0,0.0,3.0,3.0,250.0,411.0,3.0,1018.0,1744252878.290583,0.0,2025-04-09 22:41:18.290,STOP,38
88.0,11694.633864716752,840.0009083748947,-57288.66097791922,-53646.33246020466,-32833.05857575638,-30088.689039789326,680.5435634307341,-20029.82288954531,0.0,0.0,0.0,193.0,1.0,154.0,0.0,3.0,3.0,250.0,410.0,3.0,1018.0,1744252878.2905917,0.0,2025-04-09 22:41:18.290,STOP,38
89.0,11638.843910556307,836.5140362398669,-57332.42569356271,-53690.34304503716,-32863.278134259956,-30113.991214512735,703.0294183527731,-20047.972506043017,0.0,0.0,0.0,193.0,1.0,154.0,0.0,3.0,3.0,250.0,410.0,3.0,1018.0,1744252878.2906003,0.0,2025-04-09 22:41:18.290,STOP,38
90.0,11628.852680784785,802.0029428008727,-57335.06319940844,-53667.05252731473,-32902.572501012386,-30158.11355806751,709.2432033113485,-20083.534131471413,0.0,0.0,0.0,193.0,1.0,155.0,0.0,3.0,3.0,252.0,411.0,3.0,1020.0,1744252878.290609,0.0,2025-04-09 22:41:18.290,STOP,38
91.0,11729.726103511584,824.1758733005373,-57337.94657444317,-53673.93686460696,-32908.38395457077,-30162.270982536196,690.7359589023541,-20085.814009405854,0.0,0.0,0.0,193.0,1.0,155.0,0.0,3.0,3.0,252.0,411.0,3.0,1020.0,1744252878.2906172,0.0,2025-04-09 22:41:18.290,STOP,38
92.0,11701.898181664728,840.7832194308305,-57294.070100077406,-53663.72211739089,-32836.59015138032,-30093.181740424843,653.0732694951618,-20032.661561091132,0.0,0.0,0.0,193.0,1.0,155.0,0.0,3.0,3.0,251.0,411.0,3.0,1019.0,1744252878.2906258,0.0,2025-04-09 22:41:18.290,STOP,38
93.0,11654.043096785916,847.5334462563331,-57316.086568365885,-53667.23134127037,-32847.38604395223,-30110.057307488598,741.4744188159012,-20047.324305453814,0.0,0.0,0.0,193.0,1.0,154.0,0.0,3.0,3.0,249.0,410.0,3.0,1017.0,1744252878.2906344,0.0,2025-04-09 22:41:18.290,STOP,38
94.0,11613.362921877257,806.3391812252023,-57331.464568551135,-53680.441222243455,-32886.68041070466,-30148.189383529352,696.9944473498401,-20088.138590829207,0.0,0.0,0.0,193.0,1.0,155.0,0.0,3.0,3.0,252.0,411.0,3.0,1020.0,1744252878.7698793,0.0,2025-04-09 22:41:18.769,STOP,38
95.0,11723.311152852912,825.6957919234982,-57325.2284318481,-53649.03702128375,-32912.206102872624,-30171.234032062774,718.5191772603008,-20109.953893417587,0.0,0.0,0.0,193.0,1.0,155.0,0.0,3.0,3.0,252.0,411.0,3.0,1020.0,1744252878.7699273,0.0,2025-04-09 22:41:18.769,STOP,38
96.0,11715.398635315732,840.3585362861796,-57288.124536052295,-53670.69586166095,-32835.651378113194,-30087.549100822107,614.2706411207487,-20037.266020448926,0.0,0.0,0.0,193.0,1.0,155.0,0.0,3.0,3.0,251.0,411.0,3.0,1019.0,1744252878.7699473,0.0,2025-04-09 22:41:18.769,STOP,38
97.0,11662.961442823584,843.0630973652718,-57304.70953043813,-53653.23914924135,-32843.47448867255,-30105.698717319814,759.4005178690575,-20036.95309602655,0.0,0.0,0.0,193.0,1.0,155.0,0.0,2.0,3.0,250.0,411.0,2.0,1018.0,1744252878.7699673,0.0,2025-04-09 22:41:18.769,STOP,38
98.0,11609.853697997773,807.5238236813335,-57328.64824874976,-53696.668588718014,-32876.55507046641,-30140.478031692273,680.4094529640023,-20085.25521579447,0.0,0.0,0.0,193.0,1.0,154.0,0.0,3.0,3.0,249.0,410.0,3.0,1017.0,1744252878.7700157,0.0,2025-04-09 22:41:18.770,STOP,38
99.0,11705.809736944406,824.5335012118222,-57315.70658871014,-53632.921413531476,-32907.17696037018,-30174.005648375234,763.9379219934848,-20107.94223641661,0.0,0.0,0.0,193.0,1.0,155.0,0.0,2.0,3.0,249.0,411.0,2.0,1017.0,1744252878.7700365,0.0,2025-04-09 22:41:18.770,STOP,38
100.0,11714.83984170435,835.2846902948249,-57301.736748425574,-53691.706501448934,-32846.76019510748,-30104.62583358596,606.0228474167404,-20048.508947909948,0.0,0.0,0.0,193.0,1.0,154.0,0.0,3.0,3.0,251.0,410.0,3.0,1019.0,1744252878.7700512,0.0,2025-04-09 22:41:18.770,STOP,38
101.0,11673.73498365104,850.1709521020595,-57293.57836169939,-53639.403419423514,-32837.50657290299,-30101.362478895484,763.9379219934848,-20033.756796569443,0.0,0.0,0.0,193.0,1.0,154.0,0.0,2.0,3.0,250.0,410.0,2.0,1018.0,1744252878.7700603,0.0,2025-04-09 22:41:18.770,STOP,38
102.0,11612.20063116558,823.281803522325,-57325.87663243731,-53700.87071667561,-32866.87676511726,-30126.53054315216,683.3822349765582,-20067.77615163042,0.0,0.0,0.0,193.0,1.0,154.0,0.0,2.0,3.0,250.0,410.0,2.0,1018.0,1744252878.7700696,0.0,2025-04-09 22:41:18.770,STOP,38
103.0,11691.102289092814,823.5500244557887,-57309.939838640676,-53625.299468672216,-32905.47822779158,-30168.52947098368,779.2712186898254,-20100.655567724178,0.0,0.0,0.0,193.0,1.0,154.0,0.0,3.0,3.0,249.0,410.0,3.0,1017.0,1744252878.770079,0.0,2025-04-09 22:41:18.770,STOP,38
104.0,11729.74845525604,833.2953850383026,-57310.25276306305,-53698.65789397453,-32863.769872637975,-30113.186551712344,601.843071203598,-20057.71786662553,0.0,0.0,0.0,193.0,1.0,154.0,0.0,2.0,3.0,250.0,410.0,2.0,1018.0,1744252878.7700877,0.0,2025-04-09 22:41:18.770,STOP,38
105.0,11684.128544822759,845.2088648329812,-57285.44232671766,-53635.04482925473,-32829.996386766004,-30096.1545224374,759.5793318246999,-20036.5284128819,0.0,0.0,0.0,193.0,1.0,154.0,0.0,2.0,3.0,251.0,410.0,2.0,1019.0,1744252878.7700968,0.0,2025-04-09 22:41:18.770,STOP,38
106.0,11616.2910004009,822.3877337441128,-57328.3800278163,-53703.463519032426,-32856.572610923366,-30120.67438610487,704.2587642978149,-20061.07062829383,0.0,0.0,0.0,193.0,1.0,154.0,0.0,3.0,3.0,252.0,410.0,3.0,1020.0,1744252878.770106,0.0,2025-04-09 22:41:18.770,STOP,38
107.0,11656.188864253625,807.5461754257889,-57317.85235617786,-53634.597794365625,-32904.114771379805,-30160.460491235317,773.4597651314456,-20076.985070346007,0.0,0.0,0.0,193.0,1.0,155.0,0.0,2.0,3.0,252.0,411.0,2.0,1020.0,1744252878.770115,0.0,2025-04-09 22:41:18.770,STOP,38
108.0,11721.232440618569,821.6277744326323,-57329.34115282788,-53704.46934753291,-32885.24989905953,-30142.40028171543,632.6214233185558,-20072.134741799207,0.0,0.0,0.0,193.0,1.0,154.0,0.0,2.0,3.0,248.0,410.0,2.0,1016.0,1744252878.7701235,0.0,2025-04-09 22:41:18.770,STOP,38
109.0,11676.014861585481,833.5189024828557,-57294.986521600076,-53651.60747189611,-32838.802974081394,-30108.135057465443,730.9243954329962,-20038.38360767169,0.0,0.0,0.0,193.0,1.0,155.0,0.0,2.0,3.0,251.0,411.0,2.0,1019.0,1744252878.7701323,0.0,2025-04-09 22:41:18.770,STOP,38
110.0,11617.25212541248,824.1758733005373,-57336.96309768714,-53709.52084177981,-32864.194555782626,-30128.162220497397,709.9808108783735,-20062.25527074996,0.0,0.0,0.0,193.0,1.0,155.0,0.0,2.0,3.0,251.0,411.0,2.0,1019.0,1744252878.7701411,0.0,2025-04-09 22:41:18.770,STOP,38
111.0,11635.848776799296,804.7298556244202,-57327.9329929272,-53661.308128989716,-32898.169207354695,-30170.295258795653,752.7844015102866,-20099.582683990324,0.0,0.0,0.0,193.0,1.0,155.0,0.0,2.0,3.0,252.0,411.0,2.0,1020.0,1744252878.7701497,0.0,2025-04-09 22:41:18.770,STOP,38
112.0,11727.423873832688,827.6627454355652,-57336.89604245377,-53695.95333289544,-32898.70564922162,-30162.53920346966,665.8361155791421,-20105.371785804247,0.0,0.0,0.0,193.0,1.0,155.0,0.0,2.0,3.0,252.0,411.0,2.0,1020.0,1744252878.7701604,0.0,2025-04-09 22:41:18.770,STOP,38
113.0,11691.437565259645,833.8988821385959,-57297.221696045606,-53666.13610579206,-32838.87002931476,-30108.403278398906,688.0090460788067,-20059.863634093243,0.0,0.0,0.0,193.0,1.0,154.0,0.0,2.0,3.0,250.0,410.0,2.0,1018.0,1744252878.7701795,0.0,2025-04-09 22:41:18.770,STOP,38
114.0,11638.039247755916,835.3070420392802,-57329.519966783526,-53696.042739873265,-32856.52790743446,-30121.47904890526,741.2061978824376,-20059.26013699295,0.0,0.0,0.0,193.0,1.0,154.0,0.0,2.0,3.0,251.0,410.0,2.0,1019.0,1744252878.770196,0.0,2025-04-09 22:41:18.770,STOP,38
115.0,11614.77108177794,800.1700997555375,-57337.767760487535,-53683.14578332255,-32897.1633788542,-30159.409959245917,733.3160320897141,-20094.531189743422,0.0,0.0,0.0,193.0,1.0,155.0,0.0,2.0,3.0,252.0,411.0,2.0,1020.0,1744252878.770205,0.0,2025-04-09 22:41:18.770,STOP,38
116.0,11717.70086499463,820.9572220989731,-57346.46258908065,-53682.0728995887,-32920.185675643166,-30167.50129073874,715.0993603586388,-20094.754707187978,0.0,0.0,0.0,193.0,1.0,155.0,0.0,2.0,3.0,252.0,411.0,2.0,1020.0,1744252878.770214,0.0,2025-04-09 22:41:18.770,STOP,38
117.0,11693.918608894182,830.9931553594059,-57306.788242672475,-53683.7716321673,-32846.38021545175,-30094.85812125899,663.2656649667817,-20029.889944778675,0.0,0.0,0.0,193.0,1.0,154.0,0.0,2.0,3.0,250.0,410.0,2.0,1018.0,1744252878.770223,0.0,2025-04-09 22:41:18.770,STOP,38
118.0,11648.16458799417,841.9455101425065,-57326.8824609378,-53682.76580366681,-32855.54443067842,-30114.706470335303,770.3081691632473,-20049.31361071034,0.0,0.0,0.0,193.0,1.0,154.0,0.0,2.0,3.0,249.0,410.0,2.0,1017.0,1744252878.7702317,0.0,2025-04-09 22:41:18.770,STOP,38
119.0,11597.828459480817,798.2031462434705,-57350.97764146062,-53709.476138290906,-32896.42577128718,-30157.375950500485,718.2956598157477,-20094.330024043327,0.0,0.0,0.0,193.0,1.0,155.0,0.0,2.0,3.0,251.0,411.0,2.0,1019.0,1744252878.7702405,0.0,2025-04-09 22:41:18.770,STOP,38
120.0,11710.704768980118,819.1243790536379,-57342.8863099678,-53668.72890814888,-32921.41502158821,-30184.220395591306,766.8436487726747,-20116.234733609526,0.0,0.0,0.0,193.0,1.0,155.0,0.0,2.0,3.0,252.0,411.0,2.0,1020.0,1744252878.7702494,0.0,2025-04-09 22:41:18.770,STOP,38
121.0,11705.630922988765,826.992193101906,-57313.40435903125,-53706.86098418963,-32851.83404109884,-30115.48878139124,644.356089157592,-20069.519587697934,0.0,0.0,0.0,193.0,1.0,154.0,0.0,2.0,3.0,250.0,410.0,2.0,1018.0,1744252878.770258,0.0,2025-04-09 22:41:18.770,STOP,38
122.0,11646.152930993192,824.6229081896435,-57332.805673218456,-53689.65014095904,-32868.84371862933,-30140.858011348013,781.2605239463478,-20085.590491961302,0.0,0.0,0.0,193.0,1.0,154.0,0.0,2.0,3.0,249.0,410.0,2.0,1017.0,1744252878.770267,0.0,2025-04-09 22:41:18.770,STOP,38
123.0,11588.373671576222,790.4470909174789,-57360.968871232144,-53740.992097972885,-32901.857245189814,-30162.82977614758,711.0760463566836,-20102.063727624864,0.0,0.0,0.0,193.0,1.0,154.0,0.0,2.0,3.0,250.0,410.0,2.0,1018.0,1744252878.7702756,0.0,2025-04-09 22:41:18.770,STOP,38
124.0,11682.340405266334,805.0874835357051,-57345.56851930243,-53669.84649537164,-32934.33432988338,-30195.26215735223,804.5063381798672,-20124.035492424428,0.0,0.0,0.0,193.0,1.0,154.0,0.0,2.0,3.0,251.0,410.0,2.0,1019.0,1744252878.7702842,0.0,2025-04-09 22:41:18.770,STOP,38
125.0,11694.052719360914,808.6190591596436,-57338.97475468812,-53741.95322298446,-32883.484111247555,-30136.544124668137,634.2978041527039,-20081.63423319271,0.0,0.0,0.0,193.0,1.0,155.0,0.0,2.0,3.0,251.0,411.0,2.0,1019.0,1744252878.7702928,0.0,2025-04-09 22:41:18.770,STOP,38
126.0,11653.171378752158,823.572376200244,-57326.97186791562,-53690.097175848154,-32870.52009946348,-30134.420708944883,794.2692392193364,-20059.997744559972,0.0,0.0,0.0,193.0,1.0,155.0,0.0,2.0,3.0,252.0,411.0,2.0,1020.0,1744252878.7703013,0.0,2025-04-09 22:41:18.770,STOP,38
127.0,11597.895514714184,805.802739358275,-57355.26917639604,-53749.59751958818,-32891.06135261791,-30153.48674696526,728.868034943108,-20089.434992007613,0.0,0.0,0.0,193.0,1.0,154.0,0.0,2.0,3.0,251.0,410.0,2.0,1019.0,1744252878.77031,0.0,2025-04-09 22:41:18.770,STOP,38
128.0,11665.397782969212,804.7298556244202,-57335.174958130716,-53666.82900987018,-32926.17594315719,-30185.20387234734,826.7686756573529,-20117.106451643285,0.0,0.0,0.0,193.0,1.0,154.0,0.0,2.0,3.0,249.0,410.0,2.0,1017.0,1744252878.7703228,0.0,2025-04-09 22:41:18.770,STOP,38
129.0,11709.587181757353,818.5655854422553,-57335.7337517421,-53738.84633050518,-32889.45202701712,-30135.67240663438,653.0509177507065,-20085.992823361496,0.0,0.0,0.0,193.0,1.0,155.0,0.0,2.0,3.0,251.0,411.0,2.0,1019.0,1744252878.770332,0.0,2025-04-09 22:41:18.770,STOP,38
130.0,11661.106248033793,822.186568044015,-57310.00689387404,-53680.70944317692,-32861.467642959076,-30119.82501981557,792.4587479184567,-20057.851977092265,0.0,0.0,0.0,193.0,1.0,155.0,0.0,2.0,3.0,252.0,411.0,2.0,1020.0,1744252878.7703407,0.0,2025-04-09 22:41:18.770,STOP,38
131.0,11591.413508822145,799.767768355342,-57354.73273452911,-53754.49255162389,-32890.59196598434,-30154.559630699117,737.6969740029543,-20102.846038680796,0.0,0.0,0.0,193.0,1.0,155.0,0.0,2.0,3.0,251.0,411.0,2.0,1019.0,1744252878.7703495,0.0,2025-04-09 22:41:18.770,STOP,38
132.0,11635.714666332564,796.9738002984286,-57331.21869936213,-53679.86007688762,-32924.3207483674,-30187.64021249297,802.3382189677023,-20141.291039143925,0.0,0.0,0.0,193.0,1.0,155.0,0.0,2.0,3.0,250.0,411.0,2.0,1018.0,1744252878.770358,0.0,2025-04-09 22:41:18.770,STOP,38
133.0,11703.663969476696,803.701675379476,-57345.792036746985,-53741.66265030654,-32918.285777364465,-30165.847261649047,666.9089993129968,-20120.861544711774,0.0,0.0,0.0,193.0,1.0,154.0,0.0,2.0,3.0,251.0,410.0,2.0,1019.0,1744252878.770367,0.0,2025-04-09 22:41:18.770,STOP,38
134.0,11662.44735270111,811.2789167498252,-57307.14587058376,-53692.60057122714,-32856.59496266782,-30126.709357107804,775.1137942211383,-20058.455474192557,0.0,0.0,0.0,193.0,1.0,155.0,0.0,2.0,3.0,251.0,411.0,2.0,1019.0,1744252878.770376,0.0,2025-04-09 22:41:18.770,STOP,38
135.0,11607.797337507885,806.1380155251045,-57345.233243135604,-53741.617946817634,-32877.94087862264,-30150.893944608444,774.219724442926,-20084.62936694972,0.0,0.0,0.0,193.0,1.0,155.0,0.0,2.0,3.0,252.0,411.0,2.0,1020.0,1744252878.7703846,0.0,2025-04-09 22:41:18.770,STOP,38
136.0,11618.190898679602,787.6307711161103,-57333.52092904102,-53692.10883284913,-32914.77655348498,-30174.363276286516,794.380997941613,-20098.93448340112,0.0,0.0,0.0,193.0,1.0,154.0,0.0,2.0,3.0,251.0,410.0,2.0,1019.0,1744252878.7703931,0.0,2025-04-09 22:41:18.770,STOP,38
137.0,11723.266449364,818.6996959089871,-57332.224527862614,-53707.55388826774,-32912.40726857272,-30161.242802291254,739.5074653038341,-20093.838285665308,0.0,0.0,0.0,193.0,1.0,154.0,0.0,2.0,3.0,251.0,410.0,2.0,1019.0,1744252878.770402,0.0,2025-04-09 22:41:18.770,STOP,38
138.0,11691.03523385945,832.6024809601881,-57288.884495363774,-53680.77649841029,-32844.346206706316,-30100.04372597262,744.3801455950911,-20048.955982799052,0.0,0.0,0.0,193.0,1.0,154.0,0.0,2.0,3.0,250.0,410.0,2.0,1018.0,1744252878.770411,0.0,2025-04-09 22:41:18.770,STOP,38
139.0,11632.741884320008,830.6578791925764,-57327.530661527,-53705.98926615588,-32869.38016049626,-30128.00575828621,803.8581375906632,-20071.955927843563,0.0,0.0,0.0,193.0,1.0,155.0,0.0,2.0,3.0,251.0,411.0,2.0,1019.0,1744252878.7704196,0.0,2025-04-09 22:41:18.770,STOP,38
140.0,11606.791509007397,796.4373584315013,-57334.459702308144,-53698.18850734097,-32902.572501012386,-30161.35456101353,787.6754746050209,-20088.60797746277,0.0,0.0,0.0,193.0,1.0,155.0,0.0,2.0,3.0,251.0,411.0,2.0,1019.0,1744252878.7704284,0.0,2025-04-09 22:41:18.770,STOP,38
141.0,11716.359760327312,820.7113529099647,-57332.26923135153,-53679.45774548742,-32921.19150414366,-30172.485729752272,794.4704049194343,-20097.88395141172,0.0,0.0,0.0,193.0,1.0,154.0,0.0,2.0,3.0,250.0,410.0,2.0,1018.0,1744252878.7704372,0.0,2025-04-09 22:41:18.770,STOP,38
142.0,11686.743698924029,813.670553406543,-57311.34799854136,-53706.033969644785,-32866.18386103915,-30114.997043013223,706.5833457211669,-20050.16297699964,0.0,0.0,0.0,193.0,1.0,154.0,0.0,2.0,3.0,249.0,410.0,2.0,1017.0,1744252878.770446,0.0,2025-04-09 22:41:18.770,STOP,38
143.0,11641.414361168667,828.4003530025904,-57323.23912659158,-53692.891143905064,-32866.47443371706,-30123.91538905089,835.2399868059143,-20048.665410121135,0.0,0.0,0.0,193.0,1.0,154.0,0.0,2.0,3.0,251.0,410.0,2.0,1019.0,1744252878.7704597,0.0,2025-04-09 22:41:18.770,STOP,38
144.0,11596.822630980329,797.8455183321856,-57339.086513410395,-53717.52276629482,-32899.420905044186,-30155.565459199606,774.1079657206495,-20088.764439673956,0.0,0.0,0.0,193.0,1.0,155.0,0.0,2.0,3.0,251.0,411.0,2.0,1019.0,1744252878.7704685,0.0,2025-04-09 22:41:18.770,STOP,38
145.0,11697.181963584659,807.0991405366827,-57340.15939714425,-53675.23326578537,-32940.525763097496,-30193.317555584617,818.7220476534424,-20126.382425592237,0.0,0.0,0.0,193.0,1.0,155.0,0.0,2.0,3.0,252.0,411.0,2.0,1020.0,1744252878.7704773,0.0,2025-04-09 22:41:18.770,STOP,38
146.0,11697.047853117927,820.3984284875904,-57317.15945209974,-53720.76376924083,-32874.92339312117,-30112.650109845414,667.1548685020052,-20062.05410504986,0.0,0.0,0.0,193.0,1.0,155.0,0.0,2.0,3.0,252.0,411.0,2.0,1020.0,1744252878.770486,0.0,2025-04-09 22:41:18.770,STOP,38
147.0,11662.939091079128,845.5664927442662,-57309.73867294058,-53671.008786083315,-32861.959381337096,-30114.505304635204,832.4460187490009,-20056.7343898695,0.0,0.0,0.0,193.0,1.0,154.0,0.0,2.0,3.0,250.0,410.0,2.0,1018.0,1744252878.7704947,0.0,2025-04-09 22:41:18.770,STOP,38
148.0,11598.655474025665,805.735684124909,-57343.713324512646,-53725.85996697664,-32892.156588096215,-30149.8657643635,767.0001109838619,-20089.97143387454,0.0,0.0,0.0,193.0,1.0,154.0,0.0,2.0,3.0,251.0,410.0,2.0,1019.0,1744252878.7705033,0.0,2025-04-09 22:41:18.770,STOP,38
149.0,11682.630977944253,807.4344167035123,-57336.851338964865,-53661.24107375635,-32935.988358973074,-30189.160131115932,853.3225480702578,-20109.93154167313,0.0,0.0,0.0,193.0,1.0,155.0,0.0,2.0,3.0,252.0,411.0,2.0,1020.0,1744252878.770512,0.0,2025-04-09 22:41:18.770,STOP,38
150.0,11711.55413526942,824.2652802783585,-57326.6812952377,-53729.950336211965,-32886.32278279338,-30126.552894896617,661.4775254103572,-20073.006459832963,0.0,0.0,0.0,193.0,1.0,155.0,0.0,2.0,3.0,252.0,411.0,2.0,1020.0,1744252878.7705207,0.0,2025-04-09 22:41:18.770,STOP,38
151.0,11673.623224928764,841.4314200200344,-57302.742576926066,-53661.91162609001,-32861.13236679225,-30105.117571963976,820.3313732542246,-20048.151319998662,0.0,0.0,0.0,193.0,1.0,155.0,0.0,2.0,3.0,250.0,411.0,2.0,1018.0,1744252878.7705293,0.0,2025-04-09 22:41:18.770,STOP,38
152.0,11607.037378196404,811.122454538638,-57343.44510357918,-53731.22438564592,-32887.663887460694,-30131.24676123223,760.4286981140016,-20076.761552901455,0.0,0.0,0.0,193.0,1.0,154.0,0.0,2.0,3.0,249.0,410.0,2.0,1017.0,1744252878.770538,0.0,2025-04-09 22:41:18.770,STOP,38
153.0,11671.946844094617,815.570451685244,-57320.86984167932,-53650.445181184434,-32921.727946010586,-30165.534337226673,859.8269057067521,-20096.699308955587,0.0,0.0,0.0,193.0,1.0,154.0,0.0,2.0,3.0,249.0,410.0,2.0,1017.0,1744252878.7705464,0.0,2025-04-09 22:41:18.770,STOP,38
154.0,11725.859251720816,833.8541786496853,-57324.9825626591,-53721.769597741324,-32890.86018691781,-30124.362423939994,693.9099066150078,-20076.582738945814,0.0,0.0,0.0,193.0,1.0,155.0,0.0,2.0,3.0,251.0,411.0,2.0,1019.0,1744252878.770555,0.0,2025-04-09 22:41:18.770,STOP,38
155.0,11687.92834138016,847.667556723065,-57290.60557968683,-53660.63757665606,-32847.58720965233,-30099.48493236124,817.380942986124,-20050.49825316647,0.0,0.0,0.0,193.0,1.0,155.0,0.0,2.0,3.0,252.0,411.0,2.0,1020.0,1744252878.7705636,0.0,2025-04-09 22:41:18.770,STOP,38
156.0,11611.552430576377,813.6482016620877,-57348.69776352618,-53739.807455516755,-32885.69693394863,-30142.467336948794,776.2313814439037,-20086.283396039416,0.0,0.0,0.0,193.0,1.0,154.0,0.0,2.0,3.0,249.0,410.0,2.0,1017.0,1744252878.7705724,0.0,2025-04-09 22:41:18.770,STOP,38
157.0,11637.502805888987,791.2964572067806,-57347.267251881036,-53685.62682695709,-32938.13412644078,-30188.48957878227,816.218652274448,-20121.04035866742,0.0,0.0,0.0,193.0,1.0,154.0,0.0,2.0,3.0,249.0,410.0,2.0,1017.0,1744252878.7705812,0.0,2025-04-09 22:41:18.770,STOP,38
158.0,11730.039027933959,822.5665476997552,-57343.75802800155,-53722.820129730724,-32917.70463200863,-30151.698607408838,710.8525289121305,-20092.296015297892,0.0,0.0,0.0,193.0,1.0,155.0,0.0,2.0,3.0,250.0,411.0,2.0,1018.0,1744252878.7706509,0.0,2025-04-09 22:41:18.770,STOP,38
159.0,11699.439489774644,846.7064317114869,-57288.01277733002,-53662.53747493476,-32844.16739275067,-30090.18660666783,790.8717740621298,-20030.225220945504,0.0,0.0,0.0,193.0,1.0,155.0,0.0,2.0,3.0,251.0,411.0,2.0,1019.0,1744252878.7706597,0.0,2025-04-09 22:41:18.770,STOP,38
160.0,11638.083951244826,837.5869199737216,-57329.94464992818,-53711.085463891686,-32870.25187853001,-30123.222484972775,807.993210314895,-20063.50696843946,0.0,0.0,0.0,193.0,1.0,155.0,0.0,2.0,3.0,252.0,411.0,2.0,1020.0,1744252878.7706685,0.0,2025-04-09 22:41:18.770,STOP,38
161.0,11630.931393019127,806.8085678587637,-57327.687123738186,-53681.82703039969,-32911.75906798352,-30165.06495059311,810.4966056938894,-20110.244466095504,0.0,0.0,0.0,193.0,1.0,155.0,0.0,2.0,3.0,252.0,411.0,2.0,1020.0,1744252878.770677,0.0,2025-04-09 22:41:18.770,STOP,38
162.0,11724.071112164393,823.1029895666826,-57336.3819523313,-53702.323580065204,-32926.690033279665,-30173.983296630777,751.4880003318788,-20136.664228041678,0.0,0.0,0.0,193.0,1.0,154.0,0.0,2.0,3.0,250.0,410.0,2.0,1018.0,1744252878.770686,0.0,2025-04-09 22:41:18.770,STOP,38
163.0,11688.487134991543,830.2555477923809,-57293.354844254834,-53688.39844326955,-32858.6066196688,-30103.128266707456,721.7154767174097,-20061.87529109422,0.0,0.0,0.0,193.0,1.0,154.0,0.0,2.0,3.0,251.0,410.0,2.0,1019.0,1744252878.7706945,0.0,2025-04-09 22:41:18.770,STOP,38
164.0,11646.10822750428,845.7453066999086,-57307.43644326168,-53688.19727756945,-32858.36075047979,-30103.843522530024,811.5024341943782,-20040.48467165049,0.0,0.0,0.0,193.0,1.0,154.0,0.0,2.0,3.0,251.0,410.0,2.0,1019.0,1744252878.7707033,0.0,2025-04-09 22:41:18.770,STOP,38
165.0,11615.463985856055,807.702637636976,-57314.119614853815,-53689.98541712588,-32884.75816068151,-30141.081528792565,803.4334544460123,-20067.485578952503,0.0,0.0,0.0,193.0,1.0,155.0,0.0,2.0,3.0,252.0,411.0,2.0,1020.0,1744252878.770712,0.0,2025-04-09 22:41:18.770,STOP,38
166.0,11719.623115017786,822.9688790999508,-57318.947591656164,-53670.82997212768,-32915.268291863,-30168.77534017269,820.2643180208586,-20104.142439859206,0.0,0.0,0.0,193.0,1.0,155.0,0.0,2.0,3.0,252.0,411.0,2.0,1020.0,1744252878.7707205,0.0,2025-04-09 22:41:18.770,STOP,38
167.0,11700.870001419784,826.6122134461658,-57291.20907678713,-53697.495603262854,-32850.93997132063,-30098.0544207161,707.0080288658177,-20054.566270657335,0.0,0.0,0.0,193.0,1.0,155.0,0.0,2.0,3.0,251.0,411.0,2.0,1019.0,1744252878.7707293,0.0,2025-04-09 22:41:18.770,STOP,38
168.0,11648.92454730565,829.7414576699088,-57307.9281816397,-53681.82703039969,-32860.327703991854,-30107.1068772205,833.2283298049367,-20047.704285109554,0.0,0.0,0.0,193.0,1.0,155.0,0.0,2.0,3.0,250.0,411.0,2.0,1018.0,1744252878.770738,0.0,2025-04-09 22:41:18.770,STOP,38
169.0,11601.449442082578,794.9174398085404,-57325.56370801493,-53714.81820521572,-32884.62405021478,-30139.1145752805,777.4160239000349,-20076.49333196799,0.0,0.0,0.0,193.0,1.0,154.0,0.0,2.0,3.0,249.0,410.0,2.0,1017.0,1744252878.7707465,0.0,2025-04-09 22:41:18.770,STOP,38
170.0,11707.17319335618,809.6472394045877,-57312.309123552935,-53655.45197194243,-32912.58608252837,-30172.105750096533,856.9211789275622,-20098.59920723429,0.0,0.0,0.0,193.0,1.0,154.0,0.0,2.0,3.0,250.0,410.0,2.0,1018.0,1744252878.7707553,0.0,2025-04-09 22:41:18.770,STOP,38
171.0,11712.023521902982,823.3041552667803,-57294.15950705523,-53709.38673131308,-32851.34230272083,-30096.489798604227,697.6649996834993,-20041.222279217516,0.0,0.0,0.0,193.0,1.0,154.0,0.0,2.0,3.0,249.0,410.0,2.0,1017.0,1744252878.7707636,0.0,2025-04-09 22:41:18.770,STOP,38
172.0,11670.650442916209,838.1457135851042,-57288.23629477457,-53659.63174815557,-32843.34037820582,-30094.14286543642,852.3390713142243,-20029.44290988957,0.0,0.0,0.0,193.0,1.0,155.0,0.0,2.0,3.0,252.0,411.0,2.0,1020.0,1744252878.7707725,0.0,2025-04-09 22:41:18.770,STOP,38
173.0,11601.24827638248,798.6948846214873,-57330.92812668421,-53731.85023449067,-32887.73094269406,-30135.270075234184,752.9855672103844,-20079.73433491401,0.0,0.0,0.0,193.0,1.0,155.0,0.0,2.0,3.0,252.0,411.0,2.0,1020.0,1744252878.770787,0.0,2025-04-09 22:41:18.770,STOP,38
174.0,11685.804925656907,812.6423731615989,-57311.03507411898,-53653.596777152634,-32917.950501197636,-30176.889023409967,856.764716716375,-20116.659416754177,0.0,0.0,0.0,193.0,1.0,154.0,0.0,2.0,3.0,250.0,410.0,2.0,1018.0,1744252878.7707956,0.0,2025-04-09 22:41:18.770,STOP,38
175.0,11716.784443471963,818.8561581201742,-57314.65605672074,-53731.60436530165,-32877.180919311155,-30125.278845462664,680.7000256419213,-20089.144419329696,0.0,0.0,0.0,193.0,1.0,154.0,0.0,2.0,3.0,250.0,410.0,2.0,1018.0,1744252878.7708044,0.0,2025-04-09 22:41:18.770,STOP,38
176.0,11677.758297652996,837.1398850846155,-57292.08079482088,-53666.3149197477,-32852.526945176956,-30107.1068772205,825.0699430787496,-20051.839357833785,0.0,0.0,0.0,193.0,1.0,155.0,0.0,2.0,3.0,251.0,411.0,2.0,1019.0,1744252878.7708127,0.0,2025-04-09 22:41:18.770,STOP,38
177.0,11617.453291112577,821.8736436216407,-57325.76487371503,-53728.94450771147,-32873.761102409495,-30124.876514062467,763.9379219934848,-20065.026887062417,0.0,0.0,0.0,193.0,1.0,155.0,0.0,2.0,3.0,251.0,411.0,2.0,1019.0,1744252878.7708213,0.0,2025-04-09 22:41:18.770,STOP,38
178.0,11665.777762624952,808.1720242705375,-57306.162393827726,-53653.08268703016,-32910.08268714937,-30166.048427349142,847.9804811454394,-20106.332910815825,0.0,0.0,0.0,193.0,1.0,155.0,0.0,2.0,3.0,252.0,411.0,2.0,1020.0,1744252878.7708304,0.0,2025-04-09 22:41:18.770,STOP,38
179.0,11717.857327205817,814.8104923737636,-57321.182766101694,-53727.13401641059,-32892.5142160075,-30139.740424125248,691.6523804250218,-20100.83438167982,0.0,0.0,0.0,193.0,1.0,155.0,0.0,2.0,3.0,252.0,411.0,2.0,1020.0,1744252878.7708392,0.0,2025-04-09 22:41:18.770,STOP,38
180.0,11672.975024339561,823.795893644797,-57290.918504109206,-53672.30518726173,-32853.08573878834,-30101.451885873306,799.0972160216828,-20046.944325798075,0.0,0.0,0.0,193.0,1.0,154.0,0.0,2.0,3.0,250.0,410.0,2.0,1018.0,1744252878.7708483,0.0,2025-04-09 22:41:18.770,STOP,38
181.0,11623.220041182047,824.0864663227161,-57317.67354222221,-53719.7802924848,-32864.79805288292,-30112.538351123138,776.2090296994484,-20065.853901607265,0.0,0.0,0.0,193.0,1.0,154.0,0.0,2.0,3.0,251.0,410.0,2.0,1019.0,1744252878.770857,0.0,2025-04-09 22:41:18.770,STOP,38
182.0,11635.647611099197,795.2080124864593,-57313.27024856451,-53669.198294782436,-32908.451009804136,-30155.878383621977,821.605422688177,-20092.743050187,0.0,0.0,0.0,193.0,1.0,155.0,0.0,2.0,3.0,250.0,411.0,2.0,1018.0,1744252878.770866,0.0,2025-04-09 22:41:18.770,STOP,38
183.0,11712.671722492185,803.8581375906632,-57335.68904825319,-53723.89301346458,-32915.31299535191,-30160.192270301854,720.0837993721723,-20102.26489332496,0.0,0.0,0.0,193.0,1.0,154.0,0.0,2.0,3.0,250.0,410.0,2.0,1018.0,1744252878.7708757,0.0,2025-04-09 22:41:18.770,STOP,38
184.0,11678.004166842005,817.023315074839,-57288.99625408605,-53685.11273683462,-32845.374386951255,-30106.279862675652,764.027328971306,-20053.851014834763,0.0,0.0,0.0,193.0,1.0,155.0,0.0,2.0,3.0,251.0,411.0,2.0,1019.0,1744252878.770884,0.0,2025-04-09 22:41:18.770,STOP,38
185.0,11635.044113998903,827.3274692687356,-57314.141966598276,-53712.44892030346,-32854.35978822229,-30117.411031414395,804.5063381798672,-20062.85876785025,0.0,0.0,0.0,193.0,1.0,155.0,0.0,2.0,3.0,252.0,411.0,2.0,1020.0,1744252878.7708929,0.0,2025-04-09 22:41:18.770,STOP,38
186.0,11615.463985856055,793.285762463303,-57317.94176315567,-53691.43828051547,-32895.084666619856,-30155.274886521685,807.0767887922274,-20096.386384533213,0.0,0.0,0.0,193.0,1.0,155.0,0.0,2.0,3.0,250.0,411.0,2.0,1018.0,1744252878.7709017,0.0,2025-04-09 22:41:18.770,STOP,38
187.0,11705.027425888471,801.4888526784007,-57335.242013364084,-53706.928039423,-32925.30422512344,-30175.570270487104,764.4296603715015,-20120.928599945142,0.0,0.0,0.0,193.0,1.0,154.0,0.0,2.0,3.0,250.0,410.0,2.0,1018.0,1744252878.7709103,0.0,2025-04-09 22:41:18.770,STOP,38
188.0,11679.769954653973,809.2672597488476,-57295.14298381126,-53702.904725421045,-32854.896230089216,-30103.709412063294,713.4453312689461,-20054.275697979414,0.0,0.0,0.0,193.0,1.0,154.0,0.0,2.0,3.0,250.0,410.0,2.0,1018.0,1744252878.770924,0.0,2025-04-09 22:41:18.770,STOP,38
189.0,11633.16656746466,817.8726813641407,-57319.238164334085,-53707.82210920121,-32867.07793081736,-30121.456697160807,808.2167277594481,-20064.512796939947,0.0,0.0,0.0,193.0,1.0,154.0,0.0,2.0,3.0,249.0,410.0,2.0,1017.0,1744252878.770933,0.0,2025-04-09 22:41:18.770,STOP,38
190.0,11601.29297987139,792.6152101296437,-57326.65894349325,-53717.25454536135,-32897.252785832025,-30152.97265684279,763.2673696598256,-20103.15896310317,0.0,0.0,0.0,193.0,1.0,155.0,0.0,2.0,3.0,251.0,411.0,2.0,1019.0,1744252878.7709415,0.0,2025-04-09 22:41:18.770,STOP,38
191.0,11704.26746657699,803.2993439792805,-57326.0330946485,-53687.61613221361,-32925.930073968186,-30183.326325813097,800.1477480110823,-20128.997579693507,0.0,0.0,0.0,193.0,1.0,155.0,0.0,2.0,3.0,250.0,411.0,2.0,1018.0,1744252878.77095,0.0,2025-04-09 22:41:18.770,STOP,38
192.0,11697.964274640593,811.7930068722972,-57290.44911747565,-53712.85125170365,-32847.98954105253,-30099.9543189948,695.9886188493513,-20052.15228225616,0.0,0.0,0.0,193.0,1.0,154.0,0.0,2.0,3.0,252.0,410.0,2.0,1020.0,1744252878.7709591,0.0,2025-04-09 22:41:18.770,STOP,38
193.0,11650.377410695244,826.701620423987,-57299.367463513314,-53685.31390253471,-32852.03520679894,-30117.075755247566,837.4081060180791,-20065.630384162712,0.0,0.0,0.0,193.0,1.0,154.0,0.0,2.0,3.0,250.0,410.0,2.0,1018.0,1744252878.7709677,0.0,2025-04-09 22:41:18.770,STOP,38
194.0,11592.888723956195,791.4082159290572,-57322.0768358799,-53724.071827420215,-32879.59490771233,-30138.622836902483,774.2420761873814,-20074.59343368929,0.0,0.0,0.0,193.0,1.0,154.0,0.0,2.0,3.0,251.0,410.0,2.0,1019.0,1744252878.7709763,0.0,2025-04-09 22:41:18.770,STOP,38
195.0,11680.574617454366,791.832899073708,-57320.75808295704,-53669.131239549075,-32925.639501290265,-30180.197081589355,842.5043037538891,-20104.678881726133,0.0,0.0,0.0,193.0,1.0,155.0,0.0,2.0,3.0,251.0,411.0,2.0,1019.0,1744252878.770985,0.0,2025-04-09 22:41:18.770,STOP,38
196.0,11696.533762995454,803.2546404903699,-57307.3246845394,-53732.38667635759,-32865.245087772026,-30114.19238021283,672.4745836823682,-20065.093942295785,0.0,0.0,0.0,193.0,1.0,154.0,0.0,2.0,3.0,249.0,410.0,2.0,1017.0,1744252878.7709937,0.0,2025-04-09 22:41:18.770,STOP,38
197.0,11657.574672409854,821.1583877990709,-57292.68429192118,-53674.83093438518,-32850.67175038716,-30111.711336578293,831.1496175705931,-20061.562366671846,0.0,0.0,0.0,193.0,1.0,154.0,0.0,2.0,3.0,251.0,410.0,2.0,1019.0,1744252878.771002,0.0,2025-04-09 22:41:18.771,STOP,38
198.0,11591.614674522243,788.8601170611522,-57331.464568551135,-53741.46148460644,-32885.093436848336,-30142.15441252642,753.834933499686,-20095.78288743292,0.0,0.0,0.0,193.0,1.0,154.0,0.0,2.0,3.0,249.0,410.0,2.0,1017.0,1744252878.7710104,0.0,2025-04-09 22:41:18.771,STOP,38
199.0,11663.699050390607,791.475271162423,-57320.66867597922,-53669.667681416,-32929.484001336576,-30185.628555491992,840.2691293083584,-20131.54567856141,0.0,0.0,0.0,193.0,1.0,154.0,0.0,2.0,3.0,252.0,410.0,2.0,1020.0,1744252878.7710192,0.0,2025-04-09 22:41:18.771,STOP,38
200.0,11709.810699201906,810.2730882493363,-57316.377141043806,-53735.962955470444,-32884.26642230349,-30124.049499517623,668.1830487469493,-20085.858712894766,0.0,0.0,0.0,193.0,1.0,155.0,0.0,2.0,3.0,252.0,411.0,2.0,1020.0,1744252878.7710278,0.0,2025-04-09 22:41:18.771,STOP,38
201.0,11672.326823750356,827.3945245021015,-57283.81064937242,-53667.90189360403,-32843.67565437265,-30105.072868475065,826.7463239128977,-20055.48269218,0.0,0.0,0.0,193.0,1.0,155.0,0.0,2.0,3.0,251.0,411.0,2.0,1019.0,1744252878.7710366,0.0,2025-04-09 22:41:18.771,STOP,38
202.0,11603.997540950482,805.1768905135264,-57328.96117317214,-53742.24379566238,-32871.97296285307,-30136.812345601604,777.7289483224092,-20084.338794271804,0.0,0.0,0.0,193.0,1.0,155.0,0.0,2.0,3.0,249.0,411.0,2.0,1017.0,1744252878.7710452,0.0,2025-04-09 22:41:18.771,STOP,38
203.0,11644.051867014394,794.8727363196298,-57314.34313229837,-53670.874675616586,-32913.86013196232,-30172.753950685736,854.9542254154951,-20111.18323936263,0.0,0.0,0.0,193.0,1.0,154.0,0.0,2.0,3.0,249.0,410.0,2.0,1017.0,1744252878.7710588,0.0,2025-04-09 22:41:18.771,STOP,38
204.0,11714.973952171082,810.0942742936938,-57326.16720511523,-53734.912423481044,-32904.42769580218,-30146.445947461838,700.3695607625915,-20113.239599852517,0.0,0.0,0.0,193.0,1.0,154.0,0.0,2.0,3.0,250.0,410.0,2.0,1018.0,1744252878.7710671,0.0,2025-04-09 22:41:18.771,STOP,38
205.0,11671.745678394518,817.1574255415709,-57288.95155059714,-53681.93878912197,-32856.81848011237,-30108.872665032468,787.2060879714594,-20075.44279997859,0.0,0.0,0.0,193.0,1.0,155.0,0.0,2.0,3.0,251.0,411.0,2.0,1019.0,1744252878.7710755,0.0,2025-04-09 22:41:18.771,STOP,38
206.0,11612.088872443304,807.7249893814313,-57326.30131558196,-53734.3312781252,-32874.2081372986,-30132.744328110737,786.9825705269063,-20097.928654900632,0.0,0.0,0.0,193.0,1.0,155.0,0.0,2.0,3.0,251.0,411.0,2.0,1019.0,1744252878.7710843,0.0,2025-04-09 22:41:18.771,STOP,38
207.0,11620.671942314142,784.0544920032611,-57321.87567017981,-53692.04177761576,-32911.736716239066,-30174.653848964437,825.5169779678557,-20127.58941979282,0.0,0.0,0.0,193.0,1.0,155.0,0.0,2.0,3.0,252.0,411.0,2.0,1020.0,1744252878.771093,0.0,2025-04-09 22:41:18.771,STOP,38
208.0,11712.202335858625,806.5626986697554,-57330.39168481728,-53723.088350664184,-32915.31299535191,-30164.170880814898,750.8397997426748,-20115.608884764777,0.0,0.0,0.0,193.0,1.0,155.0,0.0,2.0,3.0,249.0,411.0,2.0,1017.0,1744252878.7711017,0.0,2025-04-09 22:41:18.771,STOP,38
209.0,11685.246132045524,822.0524575772831,-57279.586169670365,-53684.55394322323,-32844.36855845077,-30091.326545635053,773.3256546647137,-20032.706264580043,0.0,0.0,0.0,193.0,1.0,154.0,0.0,2.0,3.0,249.0,410.0,2.0,1017.0,1744252878.77111,0.0,2025-04-09 22:41:18.771,STOP,38
210.0,11631.937221519616,823.572376200244,-57314.05255962045,-53711.59955401416,-32864.55218369391,-30113.745345323725,828.5344634693222,-20045.469110664024,0.0,0.0,0.0,193.0,1.0,154.0,0.0,2.0,3.0,251.0,410.0,2.0,1019.0,1744252878.7711186,0.0,2025-04-09 22:41:18.771,STOP,38
211.0,11608.87022124174,789.284800205803,-57321.92037366872,-53701.8765451761,-32905.41117255821,-30152.145642297943,806.1827190140151,-20087.6915559401,0.0,0.0,0.0,193.0,1.0,155.0,0.0,2.0,3.0,252.0,411.0,2.0,1020.0,1744252878.7711272,0.0,2025-04-09 22:41:18.771,STOP,38
212.0,11718.304362094923,812.9552975839732,-57326.368370815326,-53696.467423017915,-32929.01461470302,-30169.334133784072,790.2012217284706,-20111.36205331827,0.0,0.0,0.0,193.0,1.0,155.0,0.0,2.0,3.0,252.0,411.0,2.0,1020.0,1744252878.7711356,0.0,2025-04-09 22:41:18.771,STOP,38
213.0,11698.053681618416,828.5344634693222,-57288.258646519025,-53703.41881554351,-32857.131404534746,-30095.61808057047,723.8165406962086,-20051.660543878144,0.0,0.0,0.0,193.0,1.0,154.0,0.0,2.0,3.0,249.0,410.0,2.0,1017.0,1744252878.7711442,0.0,2025-04-09 22:41:18.771,STOP,38
214.0,11642.934279791627,831.216672803959,-57312.08560610838,-53701.205992842435,-32867.39085523973,-30113.43242090135,842.7278211984421,-20059.058971292852,0.0,0.0,0.0,193.0,1.0,154.0,0.0,2.0,3.0,250.0,410.0,2.0,1018.0,1744252878.9499764,0.0,2025-04-09 22:41:18.949,STOP,38
215.0,11596.554410046865,790.670608362032,-57327.82123420492,-53723.513033808835,-32899.55501551092,-30148.792880629648,796.8620415761521,-20091.44664900859,0.0,0.0,0.0,193.0,1.0,155.0,0.0,2.0,3.0,251.0,411.0,2.0,1019.0,1744252878.9500308,0.0,2025-04-09 22:41:18.950,STOP,38
216.0,11712.537612025453,819.6608209205652,-57310.833908418885,-53670.181771538475,-32919.828047731884,-30166.473110493793,847.8910741676182,-20098.129820600727,0.0,0.0,0.0,193.0,1.0,155.0,0.0,2.0,3.0,252.0,411.0,2.0,1020.0,1744252878.9500523,0.0,2025-04-09 22:41:18.950,STOP,38
217.0,11707.106138122814,825.8746058791406,-57288.79508838595,-53714.25941160434,-32856.10322428981,-30100.021374228167,706.6056974656221,-20055.817968346833,0.0,0.0,0.0,193.0,1.0,154.0,0.0,2.0,3.0,250.0,410.0,2.0,1018.0,1744252878.9500692,0.0,2025-04-09 22:41:18.950,STOP,38
218.0,11659.11694277727,835.7987804172969,-57294.78535589998,-53680.91060887702,-32855.20915451159,-30104.24585393022,860.2292371069476,-20042.049293762364,0.0,0.0,0.0,193.0,1.0,154.0,0.0,2.0,3.0,249.0,410.0,2.0,1017.0,1744252878.9500847,0.0,2025-04-09 22:41:18.950,STOP,38
219.0,11600.287151370901,802.8523090901743,-57323.48499578059,-53729.61506004514,-32889.11675085029,-30132.185534499353,784.2333059589037,-20068.82668361982,0.0,0.0,0.0,193.0,1.0,154.0,0.0,2.0,3.0,249.0,410.0,2.0,1017.0,1744252878.95014,0.0,2025-04-09 22:41:18.950,STOP,38
220.0,11692.912780393694,813.2458702618922,-57311.34799854136,-53660.8163906117,-32925.348928612344,-30172.955116385834,868.5440860443218,-20102.510762513968,0.0,0.0,0.0,193.0,1.0,154.0,0.0,2.0,3.0,249.0,410.0,2.0,1017.0,1744252878.9501555,0.0,2025-04-09 22:41:18.950,STOP,38
221.0,11710.771824213485,819.5043587093782,-57304.03897810447,-53730.66559203454,-32873.80580589841,-30111.420763900373,691.965304847396,-20064.646907406677,0.0,0.0,0.0,193.0,1.0,154.0,0.0,2.0,3.0,251.0,410.0,2.0,1019.0,1744252878.9501717,0.0,2025-04-09 22:41:18.950,STOP,38
222.0,11661.888559089728,831.9319286265288,-57291.969036098606,-53676.01557684131,-32860.93120109215,-30105.47519987526,846.4829142669338,-20049.023038032417,0.0,0.0,0.0,193.0,1.0,154.0,0.0,2.0,3.0,250.0,410.0,2.0,1018.0,1744252878.9501877,0.0,2025-04-09 22:41:18.950,STOP,38
223.0,11592.285226855902,800.4830241779118,-57331.55397552896,-53744.23310091891,-32890.681372962164,-30134.510115922705,769.3693958961244,-20084.092925082794,0.0,0.0,0.0,193.0,1.0,154.0,0.0,2.0,3.0,249.0,410.0,2.0,1017.0,1744252878.9502032,0.0,2025-04-09 22:41:18.950,STOP,38
224.0,11659.87690208875,802.1370532676045,-57312.800861930955,-53663.43154471297,-32921.63853903276,-30170.004686117732,875.0037401919055,-20105.349434059794,0.0,0.0,0.0,193.0,1.0,154.0,0.0,2.0,3.0,250.0,410.0,2.0,1018.0,1744252878.9502184,0.0,2025-04-09 22:41:18.950,STOP,38
225.0,11708.827222445872,811.0553993052721,-57317.78530094449,-53738.48870259389,-32889.67554446167,-30128.944531553334,699.5201944732898,-20086.015175105953,0.0,0.0,0.0,193.0,1.0,154.0,0.0,2.0,3.0,251.0,410.0,2.0,1019.0,1744252878.9502335,0.0,2025-04-09 22:41:18.950,STOP,38
226.0,11660.636861400231,814.5199196958447,-57289.57739944189,-53681.223533299395,-32857.60079116831,-30108.783258054646,817.3585912416687,-20059.14837827067,0.0,0.0,0.0,193.0,1.0,155.0,0.0,2.0,3.0,252.0,411.0,2.0,1020.0,1744252878.9502475,0.0,2025-04-09 22:41:18.950,STOP,38
227.0,11593.000482678472,791.0952915066829,-57332.60450751836,-53751.51976961133,-32881.517157735485,-30136.67823513487,783.4286431585125,-20079.93550061411,0.0,0.0,0.0,193.0,1.0,155.0,0.0,2.0,3.0,253.0,411.0,2.0,1021.0,1744252878.9502563,0.0,2025-04-09 22:41:18.950,STOP,38
228.0,11627.01983773945,779.5841431121997,-57318.254687578046,-53685.51506823481,-32917.68228026418,-30177.470168765805,850.3497660577019,-20126.22596338105,0.0,0.0,0.0,193.0,1.0,155.0,0.0,2.0,3.0,251.0,411.0,2.0,1019.0,1744252878.9502652,0.0,2025-04-09 22:41:18.950,STOP,38
229.0,11708.089614878847,804.1710620130375,-57317.897059666764,-53727.53634781079,-32895.151721853224,-30133.325473466575,733.740715234365,-20081.276605281426,0.0,0.0,0.0,193.0,1.0,154.0,0.0,2.0,3.0,249.0,410.0,2.0,1017.0,1744252878.9502735,0.0,2025-04-09 22:41:18.950,STOP,38
230.0,11674.472591218066,817.9397365975067,-57272.03128004447,-53670.56175119421,-32835.85254381329,-30079.010734440177,806.6968091364872,-20012.67910154809,0.0,0.0,0.0,193.0,1.0,155.0,0.0,2.0,3.0,251.0,411.0,2.0,1019.0,1744252878.9502823,0.0,2025-04-09 22:41:18.950,STOP,38
231.0,11617.96738123505,812.8882423506072,-57310.96801888562,-53718.03685641728,-32862.78639588194,-30104.1564469524,809.4013702155794,-20039.590601872278,0.0,0.0,0.0,193.0,1.0,155.0,0.0,2.0,3.0,251.0,411.0,2.0,1019.0,1744252878.950291,0.0,2025-04-09 22:41:18.950,STOP,38
232.0,11613.29586664389,774.6667593320321,-57314.07491136491,-53691.68414970448,-32906.99814641454,-30155.92308711089,830.5237687258445,-20091.938387386606,0.0,0.0,0.0,193.0,1.0,155.0,0.0,2.0,3.0,252.0,411.0,2.0,1020.0,1744252878.9502995,0.0,2025-04-09 22:41:18.950,STOP,38
233.0,11713.118757381291,797.8902218210962,-57317.15945209974,-53713.49945229286,-32904.09241963535,-30156.995970844746,781.5287448798115,-20100.655567724178,0.0,0.0,0.0,193.0,1.0,155.0,0.0,2.0,3.0,250.0,411.0,2.0,1018.0,1744252878.950308,0.0,2025-04-09 22:41:18.950,STOP,38
234.0,11678.205332542102,815.056361562772,-57274.31115797892,-53693.06995786071,-32835.651378113194,-30088.487874089227,774.5326488653003,-20030.091110478774,0.0,0.0,0.0,193.0,1.0,155.0,0.0,2.0,3.0,250.0,411.0,2.0,1018.0,1744252878.9503224,0.0,2025-04-09 22:41:18.950,STOP,38
235.0,11631.713704075064,826.8133791462635,-57297.556972212435,-53705.698693477956,-32846.82725034085,-30100.08842946153,848.7180887124645,-20035.92491578161,0.0,0.0,0.0,193.0,1.0,155.0,0.0,2.0,3.0,251.0,411.0,2.0,1019.0,1744252878.950331,0.0,2025-04-09 22:41:18.950,STOP,38
236.0,11595.325064101824,785.5073553928561,-57314.76781544302,-53710.25844934684,-32891.75425669602,-30145.797746872635,820.1749110430374,-20085.769305916943,0.0,0.0,0.0,193.0,1.0,155.0,0.0,2.0,3.0,252.0,411.0,2.0,1020.0,1744252878.9503396,0.0,2025-04-09 22:41:18.950,STOP,38
237.0,11701.205277586614,801.3994457005795,-57319.12640561181,-53696.2215538289,-32918.53164655348,-30165.355523271028,820.7113529099647,-20104.634178237222,0.0,0.0,0.0,193.0,1.0,154.0,0.0,2.0,3.0,252.0,410.0,2.0,1020.0,1744252878.9503481,0.0,2025-04-09 22:41:18.950,STOP,38
238.0,11688.867114647284,809.379018471124,-57283.20715227213,-53708.49266153487,-32851.16348876518,-30090.23131015674,722.5424912622561,-20045.804386830856,0.0,0.0,0.0,193.0,1.0,154.0,0.0,2.0,3.0,249.0,410.0,2.0,1017.0,1744252878.9503572,0.0,2025-04-09 22:41:18.950,STOP,38
239.0,11636.96636402206,815.7045621519759,-57305.89417289427,-53701.429510286995,-32863.009913326496,-30113.991214512735,841.3867165311237,-20062.232919005506,0.0,0.0,0.0,193.0,1.0,154.0,0.0,2.0,3.0,250.0,410.0,2.0,1018.0,1744252878.9503655,0.0,2025-04-09 22:41:18.950,STOP,38
240.0,11592.933427445107,789.0612827612499,-57319.46168177864,-53726.19524314347,-32887.060390360406,-30136.92410432388,794.7386258528979,-20078.616747691245,0.0,0.0,0.0,193.0,1.0,154.0,0.0,2.0,3.0,249.0,410.0,2.0,1017.0,1744252878.9503741,0.0,2025-04-09 22:41:18.950,STOP,38
241.0,11704.17805959917,813.7599603843643,-57303.05550134844,-53665.62201566959,-32912.74254473955,-30159.29820052364,862.8667429526738,-20090.552579230378,0.0,0.0,0.0,193.0,1.0,154.0,0.0,2.0,3.0,250.0,410.0,2.0,1018.0,1744252878.9503827,0.0,2025-04-09 22:41:18.950,STOP,38
242.0,11700.17709734167,813.4023324730794,-57291.969036098606,-53723.021295430815,-32862.92050634867,-30095.685135803837,697.9555723614184,-20047.704285109554,0.0,0.0,0.0,193.0,1.0,154.0,0.0,2.0,3.0,251.0,410.0,2.0,1019.0,1744252878.9503913,0.0,2025-04-09 22:41:18.950,STOP,38
243.0,11656.300622975901,827.7298006689311,-57291.969036098606,-53680.441222243455,-32859.143061535724,-30103.9552812523,852.763754458875,-20049.023038032417,0.0,0.0,0.0,193.0,1.0,155.0,0.0,2.0,3.0,251.0,411.0,2.0,1019.0,1744252878.9504,0.0,2025-04-09 22:41:18.950,STOP,38
244.0,11597.58259029181,797.5325939098113,-57322.32270506892,-53736.05236244826,-32890.189634584145,-30134.800688600626,773.4821168759009,-20082.796523904388,0.0,0.0,0.0,193.0,1.0,155.0,0.0,2.0,3.0,252.0,411.0,2.0,1020.0,1744252878.9504085,0.0,2025-04-09 22:41:18.950,STOP,38
245.0,11682.541570966432,801.2429834893923,-57310.699797952155,-53667.34309999265,-32931.093326937356,-30178.475997266294,853.411955048079,-20116.033567909428,0.0,0.0,0.0,193.0,1.0,155.0,0.0,2.0,3.0,250.0,411.0,2.0,1018.0,1744252878.9504168,0.0,2025-04-09 22:41:18.950,STOP,38
246.0,11718.483176050566,821.7171814104536,-57295.43355648918,-53726.99990594386,-32872.53175646446,-30102.34595565152,687.0479210672285,-20049.5818316438,0.0,0.0,0.0,193.0,1.0,153.0,0.0,2.0,3.0,250.0,409.0,2.0,1018.0,1744252878.9504254,0.0,2025-04-09 22:41:18.950,STOP,38
247.0,11676.663062174686,838.6598037075763,-57275.0711172904,-53663.40919296852,-32849.73297712004,-30090.924214234856,851.4226497915566,-20031.096938979263,0.0,0.0,0.0,193.0,1.0,154.0,0.0,2.0,3.0,251.0,410.0,2.0,1019.0,1744252878.950434,0.0,2025-04-09 22:41:18.950,STOP,38
248.0,11609.831346253319,811.1448062830933,-57321.07100737942,-53737.147597926574,-32886.23337581556,-30129.659787375902,766.1283929501049,-20088.20564606257,0.0,0.0,0.0,193.0,1.0,155.0,0.0,2.0,3.0,252.0,411.0,2.0,1020.0,1744252878.9504428,0.0,2025-04-09 22:41:18.950,STOP,38
249.0,11665.30837599139,805.1768905135264,-57307.3246845394,-53661.59870166764,-32925.55009431244,-30166.83073840508,850.7520974578974,-20106.556428260377,0.0,0.0,0.0,193.0,1.0,155.0,0.0,2.0,3.0,252.0,411.0,2.0,1020.0,1744252878.9504564,0.0,2025-04-09 22:41:18.950,STOP,38
250.0,11716.113891138302,815.7045621519759,-57320.02047539002,-53738.30988863825,-32907.22166385909,-30135.091261278543,686.064444311195,-20095.11233509926,0.0,0.0,0.0,193.0,1.0,155.0,0.0,2.0,3.0,252.0,411.0,2.0,1020.0,1744252878.9504724,0.0,2025-04-09 22:41:18.950,STOP,38
251.0,11668.459971959588,822.6783064220317,-57289.733861653076,-53681.2682367883,-32868.68725641814,-30108.783258054646,800.2818584778141,-20060.86946259373,0.0,0.0,0.0,193.0,1.0,154.0,0.0,2.0,3.0,250.0,410.0,2.0,1018.0,1744252878.9504812,0.0,2025-04-09 22:41:18.950,STOP,38
252.0,11613.228811410525,816.0621900632609,-57318.63466723379,-53733.12428392462,-32877.471491989076,-30121.30023494962,787.4072536715572,-20066.367991729738,0.0,0.0,0.0,193.0,1.0,154.0,0.0,2.0,3.0,250.0,410.0,2.0,1018.0,1744252878.95049,0.0,2025-04-09 22:41:18.950,STOP,38
253.0,11636.385218666222,795.0962537641828,-57307.078815350396,-53674.07097507369,-32916.274120363494,-30162.002761602733,846.5499695002997,-20102.242541580505,0.0,0.0,0.0,193.0,1.0,154.0,0.0,2.0,3.0,251.0,410.0,2.0,1019.0,1744252878.9504988,0.0,2025-04-09 22:41:18.950,STOP,38
254.0,11713.968123670593,807.6579341480654,-57321.71920796862,-53726.75403675486,-32917.90579770873,-30156.83950863356,727.6610407425214,-20119.632198766732,0.0,0.0,0.0,193.0,1.0,154.0,0.0,2.0,3.0,252.0,410.0,2.0,1020.0,1744252878.9505076,0.0,2025-04-09 22:41:18.950,STOP,38
255.0,11675.277254018458,817.9844400864173,-57279.76498362601,-53684.53159147878,-32862.38406448175,-30099.86491201698,773.4597651314456,-20057.315535225338,0.0,0.0,0.0,193.0,1.0,155.0,0.0,2.0,3.0,252.0,411.0,2.0,1020.0,1744252878.9505165,0.0,2025-04-09 22:41:18.950,STOP,38
0.0,11625.902250516683,822.0524575772831,-57305.6259519608,-53712.69478949247,-32869.40251224071,-30106.168103953376,810.7201231384424,-20049.425369432614,0.0,0.0,0.0,193.0,1.0,155.0,0.0,2.0,3.0,252.0,411.0,2.0,1020.0,1744252878.9505248,0.0,2025-04-09 22:41:18.950,STOP,38
1.0,11615.06165445586,789.3742071836242,-57305.35773102734,-53685.91739963501,-32901.70078297863,-30148.63641841846,829.1603123140708,-20083.958814616064,0.0,0.0,0.0,193.0,1.0,154.0,0.0,2.0,3.0,249.0,410.0,2.0,1017.0,1744252879.3128655,0.0,2025-04-09 22:41:19.312,STOP,38
2.0,11717.834975461361,813.670553406543,-57312.48793750858,-53697.8755829186,-32912.47432380609,-30151.9668283423,786.736701337898,-20092.83245716482,0.0,0.0,0.0,193.0,1.0,154.0,0.0,2.0,3.0,249.0,410.0,2.0,1017.0,1744252879.3129103,0.0,2025-04-09 22:41:19.312,STOP,38
3.0,11690.767012925984,821.6277744326323,-57275.65226264623,-53689.65014095904,-32845.41909044017,-30084.799836254104,747.1741136520045,-20035.902564037155,0.0,0.0,0.0,193.0,1.0,154.0,0.0,2.0,3.0,248.0,410.0,2.0,1016.0,1744252879.3129303,0.0,2025-04-09 22:41:19.312,STOP,38
4.0,11634.507672131977,822.0301058328279,-57306.34120778337,-53702.94942890995,-32865.22273602757,-30108.403278398906,827.7521524133864,-20057.36023871425,0.0,0.0,0.0,193.0,1.0,154.0,0.0,2.0,3.0,251.0,410.0,2.0,1019.0,1744252879.3129506,0.0,2025-04-09 22:41:19.312,STOP,38
5.0,11598.29784611438,783.093366991683,-57315.460719521136,-53707.53153652329,-32900.29262307795,-30133.750156611226,788.6365996165991,-20080.270776780937,0.0,0.0,0.0,193.0,1.0,154.0,0.0,2.0,3.0,250.0,410.0,2.0,1018.0,1744252879.3129709,0.0,2025-04-09 22:41:19.312,STOP,38
6.0,11708.715463723596,803.6569718905654,-57308.01758861752,-53676.66377743051,-32913.70366975113,-30152.883249864968,827.4839314799227,-20094.017099620953,0.0,0.0,0.0,193.0,1.0,154.0,0.0,2.0,3.0,249.0,410.0,2.0,1017.0,1744252879.312985,0.0,2025-04-09 22:41:19.312,STOP,38
7.0,11683.41328900019,799.9689340554397,-57286.314044751416,-53716.33812383868,-32852.5045934325,-30094.38873462543,718.0050871378288,-20049.447721177068,0.0,0.0,0.0,193.0,1.0,154.0,0.0,2.0,3.0,252.0,410.0,2.0,1020.0,1744252879.312994,0.0,2025-04-09 22:41:19.312,STOP,38
8.0,11641.481416402034,817.8056261307748,-57294.04774833295,-53691.88531540458,-32854.180974266645,-30102.837694029535,845.9241206555511,-20045.357351941748,0.0,0.0,0.0,193.0,1.0,154.0,0.0,2.0,3.0,252.0,410.0,2.0,1020.0,1744252879.3130372,0.0,2025-04-09 22:41:19.313,STOP,38
9.0,11594.63216002371,788.9271722945181,-57313.02437937551,-53727.357533855145,-32884.15466358121,-30131.53733391015,777.05839598875,-20078.16971280214,0.0,0.0,0.0,193.0,1.0,154.0,0.0,2.0,3.0,252.0,410.0,2.0,1020.0,1744252879.3130462,0.0,2025-04-09 22:41:19.313,STOP,38
10.0,11699.417138030189,810.3848469716129,-57294.78535589998,-53660.168190022494,-32913.59191102885,-30157.890040622955,852.0484986363052,-20098.68861421211,0.0,0.0,0.0,193.0,1.0,154.0,0.0,2.0,3.0,249.0,410.0,2.0,1017.0,1744252879.3130553,0.0,2025-04-09 22:41:19.313,STOP,38
11.0,11703.105175865314,812.3294487392246,-57284.32473949489,-53724.54121405378,-32860.9535528366,-30101.451885873306,679.0683482966839,-20063.194044017084,0.0,0.0,0.0,193.0,1.0,154.0,0.0,2.0,3.0,249.0,410.0,2.0,1017.0,1744252879.3130643,0.0,2025-04-09 22:41:19.313,STOP,38
12.0,11660.97213756706,825.9416611125066,-57277.66391964721,-53675.45678322992,-32851.16348876518,-30104.715240563783,837.765733929364,-20052.040523533884,0.0,0.0,0.0,193.0,1.0,154.0,0.0,2.0,3.0,251.0,410.0,2.0,1019.0,1744252879.3130736,0.0,2025-04-09 22:41:19.313,STOP,38
13.0,11605.115128173247,803.8134341017526,-57305.13421358279,-53728.765693755835,-32876.1080355773,-30119.109763992998,769.9058377630517,-20063.43991320609,0.0,0.0,0.0,193.0,1.0,155.0,0.0,2.0,3.0,252.0,411.0,2.0,1020.0,1744252879.3130825,0.0,2025-04-09 22:41:19.313,STOP,38
14.0,11689.716480936586,812.9552975839732,-57284.81647787291,-53646.555977649215,-32910.57442552739,-30153.643209176447,867.2923883548247,-20095.268797310448,0.0,0.0,0.0,193.0,1.0,155.0,0.0,2.0,3.0,251.0,411.0,2.0,1019.0,1744252879.3130913,0.0,2025-04-09 22:41:19.313,STOP,38
15.0,11726.88743196576,829.2720710363474,-57280.86021910432,-53717.790987228276,-32865.98269533905,-30103.91057776339,691.674732169477,-20072.514721454947,0.0,0.0,0.0,193.0,1.0,154.0,0.0,2.0,3.0,251.0,410.0,2.0,1019.0,1744252879.3131,0.0,2025-04-09 22:41:19.313,STOP,38
16.0,11669.063469059882,829.316774525258,-57268.32089046489,-53665.845533114145,-32852.34813122131,-30099.775505039157,837.0281263623389,-20052.174634000618,0.0,0.0,0.0,193.0,1.0,155.0,0.0,2.0,3.0,252.0,411.0,2.0,1020.0,1744252879.3131092,0.0,2025-04-09 22:41:19.313,STOP,38
17.0,11605.428052595622,809.9154603380514,-57312.242068319574,-53737.147597926574,-32879.75136992352,-30122.887208805947,781.3946344130796,-20073.431142977613,0.0,0.0,0.0,193.0,1.0,154.0,0.0,2.0,3.0,251.0,410.0,2.0,1019.0,1744252879.3131175,0.0,2025-04-09 22:41:19.313,STOP,38
18.0,11655.272442730957,802.5617364122554,-57296.81936464541,-53663.94563483544,-32919.40336458723,-30164.26028779272,862.7996877193079,-20110.020948650952,0.0,0.0,0.0,193.0,1.0,154.0,0.0,2.0,3.0,250.0,410.0,2.0,1018.0,1744252879.3131268,0.0,2025-04-09 22:41:19.313,STOP,38
19.0,11731.380132601278,826.2545855348809,-57291.45494597613,-53715.622868016115,-32883.8640909033,-30113.700641834814,728.6445174985549,-20069.340773742293,0.0,0.0,0.0,193.0,1.0,154.0,0.0,2.0,3.0,249.0,410.0,2.0,1017.0,1744252879.3131354,0.0,2025-04-09 22:41:19.313,STOP,38
20.0,11688.353024524811,839.509169996878,-57254.59691936933,-53655.206102753415,-32836.07606125785,-30077.803740239593,839.3750595301461,-20032.48274713549,0.0,0.0,0.0,193.0,1.0,154.0,0.0,2.0,3.0,249.0,410.0,2.0,1017.0,1744252879.3131444,0.0,2025-04-09 22:41:19.313,STOP,38
21.0,11617.162718434658,821.6277744326323,-57303.77075717101,-53721.16610064103,-32867.14498605073,-30107.173932453865,821.2924982658027,-20052.264040978436,0.0,0.0,0.0,193.0,1.0,154.0,0.0,2.0,3.0,253.0,410.0,2.0,1021.0,1744252879.3131533,0.0,2025-04-09 22:41:19.313,STOP,38
22.0,11633.144215720204,799.7454166108867,-57294.539486710964,-53670.53939944976,-32903.42186730169,-30144.00960731621,860.8550859516962,-20080.06961108084,0.0,0.0,0.0,193.0,1.0,155.0,0.0,2.0,3.0,252.0,411.0,2.0,1020.0,1744252879.313162,0.0,2025-04-09 22:41:19.313,STOP,38
23.0,11724.60755403132,820.4878354654116,-57302.809632159435,-53707.48683303438,-32901.432562045164,-30134.48776417825,766.1283929501049,-20079.91314886965,0.0,0.0,0.0,193.0,1.0,154.0,0.0,2.0,3.0,250.0,410.0,2.0,1018.0,1744252879.3131769,0.0,2025-04-09 22:41:19.313,STOP,38
24.0,11687.861286146795,827.1486553130932,-57265.70573636362,-53677.937826864465,-32843.54154390592,-30083.704600775793,788.3683786831355,-20031.320456423815,0.0,0.0,0.0,193.0,1.0,154.0,0.0,2.0,3.0,249.0,410.0,2.0,1017.0,1744252879.3131895,0.0,2025-04-09 22:41:19.313,STOP,38
25.0,11638.262765200468,829.7638094143641,-57294.62889368879,-53704.8269754442,-32853.93510507764,-30100.58016783955,833.9435856275065,-20047.145491498173,0.0,0.0,0.0,193.0,1.0,154.0,0.0,2.0,3.0,248.0,410.0,2.0,1016.0,1744252879.3131986,0.0,2025-04-09 22:41:19.313,STOP,38
26.0,11616.335703889812,789.4189106725348,-57300.976789114095,-53691.639446215566,-32897.5657102544,-30140.63449390346,820.443131976501,-20085.16580881665,0.0,0.0,0.0,193.0,1.0,154.0,0.0,2.0,3.0,250.0,410.0,2.0,1018.0,1744252879.3132074,0.0,2025-04-09 22:41:19.313,STOP,38
27.0,11725.009885431515,815.0116580738614,-57300.23918154707,-53687.5714287247,-32907.71340223711,-30146.937685839857,800.9524108114733,-20087.78096291792,0.0,0.0,0.0,193.0,1.0,155.0,0.0,2.0,3.0,252.0,411.0,2.0,1020.0,1744252879.3132164,0.0,2025-04-09 22:41:19.313,STOP,38
28.0,11698.143088596236,828.73562916942,-57258.88845430475,-53682.22936179988,-32828.58822686532,-30076.082655916533,760.3616428806357,-20022.40211038615,0.0,0.0,0.0,193.0,1.0,155.0,0.0,2.0,3.0,252.0,411.0,2.0,1020.0,1744252879.313233,0.0,2025-04-09 22:41:19.313,STOP,38
29.0,11640.87791930174,830.8366931482188,-57287.409280229724,-53685.29155079026,-32840.836982826826,-30097.830903271548,865.7277662429532,-20027.274790677406,0.0,0.0,0.0,193.0,1.0,154.0,0.0,2.0,3.0,250.0,410.0,2.0,1018.0,1744252879.313242,0.0,2025-04-09 22:41:19.313,STOP,38
30.0,11597.090851913794,788.6589513610544,-57306.83294616139,-53702.56944925421,-32878.54437572293,-30133.97367405578,812.6200214171436,-20067.306764996858,0.0,0.0,0.0,193.0,1.0,154.0,0.0,2.0,3.0,249.0,410.0,2.0,1017.0,1744252879.3132508,0.0,2025-04-09 22:41:19.313,STOP,38
31.0,11698.32190255188,801.0194660448392,-57307.905829895244,-53667.030175570275,-32909.12156213779,-30166.786034916167,851.31089106928,-20095.15703858817,0.0,0.0,0.0,193.0,1.0,154.0,0.0,1.0,3.0,250.0,410.0,1.0,1018.0,1744252879.3132594,0.0,2025-04-09 22:41:19.313,STOP,38
32.0,11692.286931548946,811.7035998944759,-57281.95545458263,-53699.01552188582,-32840.99344503802,-30091.594766568516,717.1333691040718,-20026.20190694355,0.0,0.0,0.0,193.0,1.0,154.0,0.0,2.0,3.0,251.0,410.0,2.0,1019.0,1744252879.3132682,0.0,2025-04-09 22:41:19.313,STOP,38
33.0,11656.97117530956,833.8988821385959,-57278.44623070315,-53651.786285851755,-32831.8515815558,-30090.834807257037,862.5314667858443,-20013.19319167056,0.0,0.0,0.0,193.0,1.0,155.0,0.0,2.0,3.0,252.0,411.0,2.0,1020.0,1744252879.3132772,0.0,2025-04-09 22:41:19.313,STOP,38
34.0,11601.516497315944,800.5500794112778,-57302.92139088171,-53688.01846361381,-32861.802919125905,-30110.280824933154,794.8503845751744,-20025.82192728781,0.0,0.0,0.0,193.0,1.0,154.0,0.0,2.0,3.0,252.0,410.0,2.0,1020.0,1744252879.313286,0.0,2025-04-09 22:41:19.313,STOP,38
35.0,11695.684396706152,812.0165243168502,-57295.36650125581,-53618.169262190975,-32903.01953590149,-30149.910467852413,872.1427169016263,-20056.510872424948,0.0,0.0,0.0,193.0,1.0,154.0,0.0,7.0,3.0,250.0,410.0,7.0,1018.0,1744252879.3132946,0.0,2025-04-09 22:41:19.313,STOP,38
36.0,11708.69311197914,816.2633557633586,-57285.732899395574,-53678.831896642674,-32845.57555265135,-30090.074847945554,704.1470055755384,-20013.5731713263,0.0,0.0,0.0,193.0,1.0,154.0,0.0,18.0,3.0,250.0,410.0,18.0,1018.0,1744252879.3133032,0.0,2025-04-09 22:41:19.313,STOP,38
37.0,11653.372544452257,820.6666494210541,-57283.90005635024,-53627.51229137329,-32838.75827059249,-30091.639470057427,865.0795656537492,-19998.91042696362,0.0,0.0,0.0,193.0,1.0,154.0,0.0,28.0,3.0,249.0,410.0,28.0,1017.0,1744252879.3133123,0.0,2025-04-09 22:41:19.313,STOP,38
38.0,11602.567029305343,799.0078090438616,-57312.08560610838,-53683.83868740067,-32859.925372591664,-30109.632624343947,792.414044429546,-20027.09597672176,0.0,0.0,0.0,193.0,1.0,154.0,0.0,36.0,3.0,249.0,410.0,36.0,1017.0,1744252879.3133261,0.0,2025-04-09 22:41:19.313,STOP,38
39.0,11675.724288907562,803.2993439792805,-57294.00304484404,-53600.84666023811,-32896.67164047618,-30149.0163980742,887.69953104252,-20061.83058760531,0.0,0.0,0.0,193.0,1.0,155.0,0.0,39.0,3.0,252.0,411.0,39.0,1020.0,1744252879.313335,0.0,2025-04-09 22:41:19.313,STOP,38
40.0,11710.436548046655,812.3518004836799,-57303.27901879299,-53678.988358853865,-32868.396683740226,-30107.9562435098,701.3753892630804,-20043.122177496218,0.0,0.0,0.0,193.0,1.0,155.0,0.0,39.0,3.0,252.0,411.0,39.0,1020.0,1744252879.3133438,0.0,2025-04-09 22:41:19.313,STOP,38
41.0,11678.272387775469,836.379925773135,-57263.73878285156,-53601.33839861613,-32826.48716288652,-30073.75807449318,842.0572688647829,-20002.06202293182,0.0,0.0,0.0,193.0,1.0,155.0,0.0,39.0,3.0,250.0,411.0,39.0,1018.0,1744252879.3133523,0.0,2025-04-09 22:41:19.313,STOP,38
42.0,11618.213250424058,822.2983267662916,-57303.3237222819,-53664.88440810257,-32847.29663697441,-30104.75994405269,802.8523090901743,-20037.422482660113,0.0,0.0,0.0,193.0,1.0,154.0,0.0,38.0,3.0,250.0,410.0,38.0,1018.0,1744252879.313361,0.0,2025-04-09 22:41:19.313,STOP,38
43.0,11647.382276938233,804.3051724797693,-57301.133251325286,-53606.12167192956,-32898.32566956588,-30157.0183225892,866.5547807877995,-20079.17554130263,0.0,0.0,0.0,193.0,1.0,154.0,0.0,38.0,3.0,250.0,410.0,38.0,1018.0,1744252879.3133698,0.0,2025-04-09 22:41:19.313,STOP,38
44.0,11731.782464001473,833.7871234163193,-57297.44521349016,-53648.925262561475,-32867.6590761732,-30109.72203132177,741.4297153269906,-20034.91908728112,0.0,0.0,0.0,193.0,1.0,154.0,0.0,38.0,3.0,251.0,410.0,38.0,1019.0,1744252879.3133783,0.0,2025-04-09 22:41:19.313,STOP,38
45.0,11682.943902366627,832.8036466602858,-57264.632852629766,-53599.907886970985,-32822.12857271774,-30069.108911646475,825.7628471568642,-19976.536330763858,0.0,0.0,0.0,193.0,1.0,155.0,0.0,39.0,3.0,251.0,411.0,39.0,1019.0,1744252879.3134243,0.0,2025-04-09 22:41:19.313,STOP,38
46.0,11625.812843538863,824.6899634230094,-57304.754233927044,-53654.26732948629,-32845.240276484525,-30096.087467204034,823.0806378222272,-20007.895828234654,0.0,0.0,0.0,193.0,1.0,155.0,0.0,39.0,3.0,252.0,411.0,39.0,1020.0,1744252879.3134334,0.0,2025-04-09 22:41:19.313,STOP,38
47.0,11636.407570410678,806.607402158666,-57287.94572209665,-53603.99825620631,-32870.54245120793,-30127.402261185918,864.8783999536515,-20035.52258438141,0.0,0.0,0.0,193.0,1.0,155.0,0.0,39.0,3.0,252.0,411.0,39.0,1020.0,1744252879.3134425,0.0,2025-04-09 22:41:19.313,STOP,38
48.0,11727.334466854867,825.7181436679535,-57296.506440223035,-53633.72607633187,-32874.521061720974,-30127.558723397105,796.7949863427862,-20048.710113610043,0.0,0.0,0.0,193.0,1.0,154.0,0.0,39.0,3.0,250.0,410.0,39.0,1018.0,1744252879.3134513,0.0,2025-04-09 22:41:19.313,STOP,38
49.0,11686.922512879672,830.8366931482188,-57258.95550953812,-53614.81650052268,-32812.33850864631,-30073.445150070806,800.0359892888057,-20009.639264302168,0.0,0.0,0.0,193.0,1.0,154.0,0.0,40.0,3.0,250.0,410.0,40.0,1018.0,1744252879.31346,0.0,2025-04-09 22:41:19.313,STOP,38
50.0,11632.719532575553,830.9931553594059,-57292.68429192118,-53641.638593869044,-32832.27626470045,-30095.595728826014,856.7870684608304,-20024.68198832059,0.0,0.0,0.0,193.0,1.0,154.0,0.0,40.0,3.0,251.0,410.0,40.0,1019.0,1744252879.3134687,0.0,2025-04-09 22:41:19.313,STOP,38
51.0,11607.819689252341,796.124434009127,-57302.36259727032,-53635.53656763275,-32873.135253564746,-30124.67534836237,835.5305594838333,-20038.16009022714,0.0,0.0,0.0,193.0,1.0,154.0,0.0,40.0,3.0,250.0,410.0,40.0,1018.0,1744252879.3134778,0.0,2025-04-09 22:41:19.313,STOP,38
52.0,11721.098330151837,820.0631523207609,-57299.90390538024,-53620.58325059214,-32888.446198516634,-30135.06890953409,827.5286349688333,-20052.532261911903,0.0,0.0,0.0,193.0,1.0,154.0,0.0,40.0,3.0,249.0,410.0,40.0,1017.0,1744252879.3134863,0.0,2025-04-09 22:41:19.313,STOP,38
53.0,11698.478364763067,826.6569169350764,-57265.77279159699,-53633.882538543054,-32819.60282559429,-30063.23040285473,750.5939305536665,-19991.981386182473,0.0,0.0,0.0,193.0,1.0,155.0,0.0,41.0,3.0,250.0,411.0,41.0,1018.0,1744252879.313501,0.0,2025-04-09 22:41:19.313,STOP,38
54.0,11654.512483419478,840.5597019862774,-57277.6192161583,-53624.42775063846,-32820.74276456151,-30079.72599026275,868.9240657000621,-20006.465316589514,0.0,0.0,0.0,193.0,1.0,155.0,0.0,41.0,3.0,253.0,411.0,41.0,1021.0,1744252879.3135133,0.0,2025-04-09 22:41:19.313,STOP,38
55.0,11600.801241493375,799.477195677423,-57300.507402480536,-53654.28968123075,-32861.244125514524,-30120.473220404772,807.7249893814313,-20048.754817098954,0.0,0.0,0.0,193.0,1.0,155.0,0.0,41.0,3.0,251.0,411.0,41.0,1019.0,1744252879.313522,0.0,2025-04-09 22:41:19.313,STOP,38
56.0,11705.630922988765,820.286669765314,-57296.14881231175,-53610.23439290934,-32895.88932942025,-30153.576153943082,854.6413009931208,-20072.760590643953,0.0,0.0,0.0,193.0,1.0,154.0,0.0,41.0,3.0,250.0,410.0,41.0,1018.0,1744252879.3135304,0.0,2025-04-09 22:41:19.313,STOP,38
57.0,11707.799042200928,830.1661408145596,-57270.98074805507,-53655.58608240916,-32827.91767453166,-30079.994211196212,718.1168458601053,-20011.695624792057,0.0,0.0,0.0,193.0,1.0,155.0,0.0,41.0,3.0,250.0,411.0,41.0,1018.0,1744252879.313539,0.0,2025-04-09 22:41:19.313,STOP,38
58.0,11657.284099731934,833.0271641048389,-57276.68044289118,-53622.79607329322,-32824.45315414109,-30091.90769099089,878.3341501157463,-20008.34286312376,0.0,0.0,0.0,193.0,1.0,155.0,0.0,42.0,3.0,251.0,411.0,42.0,1019.0,1744252879.313548,0.0,2025-04-09 22:41:19.313,STOP,38
59.0,11596.397947835678,798.0019805433727,-57308.48697525108,-53680.37416701009,-32858.98659932454,-30129.77154609818,795.8115095867527,-20061.562366671846,0.0,0.0,0.0,193.0,1.0,155.0,0.0,42.0,3.0,250.0,411.0,42.0,1018.0,1744252879.3135567,0.0,2025-04-09 22:41:19.313,STOP,38
60.0,11697.427832773667,819.8396348762077,-57281.15079178224,-53596.37631134705,-32883.8640909033,-30149.68695040786,891.5440310888328,-20064.579852173312,0.0,0.0,0.0,193.0,1.0,154.0,0.0,42.0,3.0,249.0,410.0,42.0,1017.0,1744252879.3135653,0.0,2025-04-09 22:41:19.313,STOP,38
61.0,11712.135280625258,818.4985302088893,-57278.71445163661,-53667.298396503735,-32837.86420081427,-30087.459693844285,718.8991569160411,-20012.14265968116,0.0,0.0,0.0,193.0,1.0,155.0,0.0,42.0,3.0,250.0,411.0,42.0,1018.0,1744252879.313574,0.0,2025-04-09 22:41:19.313,STOP,38
62.0,11661.508579433988,828.087428580216,-57267.09154451985,-53610.3014481427,-32825.3472239193,-30081.514129819174,871.3157023567799,-19995.825886228788,0.0,0.0,0.0,193.0,1.0,155.0,0.0,42.0,3.0,252.0,411.0,42.0,1020.0,1744252879.313583,0.0,2025-04-09 22:41:19.313,STOP,38
63.0,11599.191915892592,806.607402158666,-57305.96122812763,-53681.31294027722,-32856.438500456636,-30113.76769706818,793.1293002521159,-20035.142604725672,0.0,0.0,0.0,193.0,1.0,155.0,0.0,42.0,3.0,250.0,411.0,42.0,1018.0,1744252879.313602,0.0,2025-04-09 22:41:19.313,STOP,38
64.0,11660.346288722312,801.0641695337498,-57294.24891403305,-53609.98852372033,-32900.404381800225,-30159.119386568,873.4167663355788,-20074.056991822363,0.0,0.0,0.0,193.0,1.0,154.0,0.0,42.0,3.0,250.0,410.0,42.0,1018.0,1744252879.3136108,0.0,2025-04-09 22:41:19.313,STOP,38
65.0,11715.778614971474,815.9727830854396,-57296.26057103403,-53676.86494313061,-32864.12750054926,-30111.33135692255,717.5804039931779,-20043.6809711076,0.0,0.0,0.0,193.0,1.0,155.0,0.0,42.0,3.0,251.0,411.0,42.0,1019.0,1744252879.3136196,0.0,2025-04-09 22:41:19.313,STOP,38
66.0,11676.193675541124,836.0446496063054,-57259.40254442723,-53609.787358020236,-32816.63004358173,-30074.652144271393,860.1621818735817,-19991.266130359905,0.0,0.0,0.0,193.0,1.0,155.0,0.0,42.0,3.0,252.0,411.0,42.0,1020.0,1744252879.3136284,0.0,2025-04-09 22:41:19.313,STOP,38
67.0,11615.4416341116,828.4003530025904,-57298.51809722401,-53669.80179188273,-32838.15477349219,-30095.14869393691,823.3488587556909,-20020.01047372943,0.0,0.0,0.0,193.0,1.0,156.0,0.0,43.0,3.0,252.0,412.0,43.0,1020.0,1744252879.3136373,0.0,2025-04-09 22:41:19.313,STOP,38
68.0,11647.002297282494,809.5354806823112,-57286.582265684876,-53607.105148685594,-32880.623087957276,-30135.538296167648,872.7909174908302,-20056.220299747027,0.0,0.0,0.0,193.0,1.0,155.0,0.0,42.0,3.0,250.0,411.0,42.0,1018.0,1744252879.313651,0.0,2025-04-09 22:41:19.313,STOP,38
69.0,11724.965181942605,824.2876320228139,-57296.12646056729,-53659.274120244285,-32873.69404717613,-30116.405202913906,755.5560178227446,-20045.759683341945,0.0,0.0,0.0,193.0,1.0,154.0,0.0,43.0,3.0,250.0,410.0,43.0,1018.0,1744252879.31366,0.0,2025-04-09 22:41:19.313,STOP,38
70.0,11679.345271509323,831.4401902485121,-57261.30244270593,-53617.63282032405,-32823.223808196046,-30074.361571593476,817.5821086862218,-19998.619854285702,0.0,0.0,0.0,193.0,1.0,155.0,0.0,43.0,3.0,249.0,411.0,43.0,1017.0,1744252879.3136685,0.0,2025-04-09 22:41:19.313,STOP,38
71.0,11629.299715673891,833.3400885272132,-57292.930161110184,-53657.39657371004,-32840.769927593465,-30095.305156148097,835.3070420392802,-20017.01533997242,0.0,0.0,0.0,193.0,1.0,155.0,0.0,43.0,3.0,252.0,411.0,43.0,1020.0,1744252879.3136773,0.0,2025-04-09 22:41:19.313,STOP,38
72.0,11634.530023876432,809.44607370449,-57286.04582381795,-53624.65126808301,-32874.02932334296,-30137.48289793526,850.2603590798807,-20057.82962534781,0.0,0.0,0.0,193.0,1.0,155.0,0.0,43.0,3.0,252.0,411.0,43.0,1020.0,1744252879.313686,0.0,2025-04-09 22:41:19.313,STOP,38
73.0,11733.972934958094,831.1049140816825,-57290.4714692201,-53639.02343976778,-32881.315992035394,-30137.460546190807,794.0010182858728,-20062.00940156095,0.0,0.0,0.0,193.0,1.0,155.0,0.0,43.0,3.0,249.0,411.0,43.0,1017.0,1744252879.3136947,0.0,2025-04-09 22:41:19.313,STOP,38
74.0,11692.801021671417,833.6083094606769,-57253.4122769132,-53625.38887565004,-32816.361822648265,-30071.008809925177,780.478212890412,-19997.30110136284,0.0,0.0,0.0,193.0,1.0,154.0,0.0,43.0,3.0,249.0,410.0,43.0,1017.0,1744252879.3137035,0.0,2025-04-09 22:41:19.313,STOP,38
75.0,11636.139349477215,838.3692310296573,-57286.649320918244,-53643.829064825666,-32834.35497693479,-30091.415952612875,854.9765771599505,-20014.087261448774,0.0,0.0,0.0,193.0,1.0,154.0,0.0,43.0,3.0,249.0,410.0,43.0,1017.0,1744252879.3137124,0.0,2025-04-09 22:41:19.313,STOP,38
76.0,11607.797337507885,801.6006114006772,-57297.489916979066,-53646.3101084602,-32869.93895410764,-30128.00575828621,827.059248335272,-20050.833529333297,0.0,0.0,0.0,193.0,1.0,154.0,0.0,43.0,3.0,250.0,410.0,43.0,1018.0,1744252879.3137212,0.0,2025-04-09 22:41:19.313,STOP,38
77.0,11714.951600426628,820.4878354654116,-57298.02635884599,-53626.43940763944,-32893.87767241927,-30151.45273821983,838.1904170740148,-20076.985070346007,0.0,0.0,0.0,193.0,1.0,154.0,0.0,43.0,3.0,249.0,410.0,43.0,1017.0,1744252879.31373,0.0,2025-04-09 22:41:19.313,STOP,38
78.0,11700.400614786222,830.4567134924786,-57262.21886422859,-53642.28679445825,-32822.12857271774,-30065.53263253363,742.9496339499515,-19996.161162395616,0.0,0.0,0.0,193.0,1.0,154.0,0.0,43.0,3.0,249.0,410.0,43.0,1017.0,1744252879.3137386,0.0,2025-04-09 22:41:19.313,STOP,38
79.0,11653.573710152354,843.9124636545735,-57278.93796908116,-53624.6065645941,-32831.963340278075,-30081.2012053968,865.9959871764169,-20006.510020078425,0.0,0.0,0.0,193.0,1.0,154.0,0.0,43.0,3.0,249.0,410.0,43.0,1017.0,1744252879.3137472,0.0,2025-04-09 22:41:19.313,STOP,38
80.0,11594.989787934994,798.6278293881213,-57309.55985898493,-53666.5160854478,-32871.72709366406,-30121.43434541635,794.4033496860683,-20050.945288055576,0.0,0.0,0.0,193.0,1.0,154.0,0.0,43.0,3.0,251.0,410.0,43.0,1019.0,1744252879.313756,0.0,2025-04-09 22:41:19.313,STOP,38
81.0,11696.198486828624,810.4071987160681,-57299.926257124695,-53610.815538265175,-32901.70078297863,-30151.944476597844,873.3720628466682,-20072.380610988213,0.0,0.0,0.0,193.0,1.0,154.0,0.0,43.0,3.0,249.0,410.0,43.0,1017.0,1744252879.3137648,0.0,2025-04-09 22:41:19.313,STOP,38
82.0,11703.12752760977,823.3935622446015,-57275.98753881306,-53661.97868132337,-32835.517267646464,-30076.820263483558,724.9117761745186,-20012.209714914527,0.0,0.0,0.0,193.0,1.0,154.0,0.0,43.0,3.0,250.0,410.0,43.0,1018.0,1744252879.3137736,0.0,2025-04-09 22:41:19.313,STOP,38
83.0,11658.088762532327,839.7773909303417,-57270.31019572142,-53615.151776689505,-32824.25198844099,-30079.457769329285,879.8987722276179,-20005.191267155562,0.0,0.0,0.0,193.0,1.0,155.0,0.0,43.0,3.0,251.0,411.0,43.0,1019.0,1744252879.3137867,0.0,2025-04-09 22:41:19.313,STOP,38
84.0,11602.477622327522,814.3411057402022,-57295.612370444826,-53669.93590234946,-32847.43074744115,-30103.7541155522,802.7181986234425,-20042.16105248464,0.0,0.0,0.0,193.0,1.0,155.0,0.0,43.0,3.0,251.0,411.0,43.0,1019.0,1744252879.3137953,0.0,2025-04-09 22:41:19.313,STOP,38
85.0,11678.384146497745,811.1001027941827,-57289.800916886445,-53605.56287831818,-32897.521006765484,-30153.643209176447,884.9949699634278,-20083.131800071216,0.0,0.0,0.0,193.0,1.0,155.0,0.0,43.0,3.0,252.0,411.0,43.0,1020.0,1744252879.313804,0.0,2025-04-09 22:41:19.313,STOP,38
86.0,11697.204315329112,814.5199196958447,-57296.88641987878,-53687.25850430233,-32863.36754123778,-30103.597653341014,699.7437119178429,-20048.978334543506,0.0,0.0,0.0,193.0,1.0,155.0,0.0,43.0,3.0,251.0,411.0,43.0,1019.0,1744252879.3138127,0.0,2025-04-09 22:41:19.313,STOP,38
87.0,11656.054753786893,827.2604140353696,-57277.1721812692,-53629.59100360764,-32840.38994793772,-30093.53936833613,845.5888444887215,-20037.422482660113,0.0,0.0,0.0,193.0,1.0,154.0,0.0,44.0,3.0,250.0,410.0,44.0,1018.0,1744252879.3138216,0.0,2025-04-09 22:41:19.313,STOP,38
88.0,11595.548581546376,805.8250911027302,-57315.12544335431,-53694.88044916159,-32868.26257327349,-30116.829886058556,773.7279860649093,-20068.603166175268,0.0,0.0,0.0,193.0,1.0,154.0,0.0,44.0,3.0,249.0,410.0,44.0,1017.0,1744252879.31383,0.0,2025-04-09 22:41:19.313,STOP,38
89.0,11650.422114184155,803.5005096793783,-57293.48895472157,-53614.592983078124,-32900.89612017824,-30146.40124397293,873.4614698244894,-20070.54776794288,0.0,0.0,0.0,193.0,1.0,154.0,0.0,43.0,3.0,249.0,410.0,43.0,1017.0,1744252879.3138387,0.0,2025-04-09 22:41:19.313,STOP,38
90.0,11708.000207901026,815.7045621519759,-57298.451041990644,-53682.00584435533,-32875.97392511057,-30105.318737664074,723.995354651851,-20035.76845357042,0.0,0.0,0.0,193.0,1.0,155.0,0.0,43.0,3.0,250.0,411.0,43.0,1018.0,1744252879.7814586,0.0,2025-04-09 22:41:19.781,STOP,38
91.0,11661.39682071171,824.9358326120177,-57263.85054157383,-53622.86312852659,-32835.02552926845,-30070.29355410261,831.7531146708864,-19994.66359551711,0.0,0.0,0.0,193.0,1.0,155.0,0.0,44.0,3.0,251.0,411.0,44.0,1019.0,1744252879.781495,0.0,2025-04-09 22:41:19.781,STOP,38
92.0,11606.299770629379,815.0787133072273,-57299.34511176886,-53678.60837919812,-32852.19166901013,-30090.61128981248,810.3624952271575,-20017.551781839345,0.0,0.0,0.0,193.0,1.0,155.0,0.0,44.0,3.0,251.0,411.0,44.0,1019.0,1744252879.781515,0.0,2025-04-09 22:41:19.781,STOP,38
93.0,11637.838082055818,806.1827190140151,-57279.27324524799,-53616.02349472326,-32879.6619629457,-30129.548028653626,865.9959871764169,-20047.05608452035,0.0,0.0,0.0,193.0,1.0,155.0,0.0,43.0,3.0,250.0,411.0,43.0,1018.0,1744252879.7815337,0.0,2025-04-09 22:41:19.781,STOP,38
94.0,11719.779577228974,823.6617831780652,-57293.153678554736,-53665.75612613632,-32879.32668677887,-30129.615083886994,757.3218056347139,-20069.519587697934,0.0,0.0,0.0,193.0,1.0,155.0,0.0,44.0,3.0,251.0,411.0,44.0,1019.0,1744252879.781551,0.0,2025-04-09 22:41:19.781,STOP,38
95.0,11671.924492350161,820.8678151211519,-57263.06823051789,-53638.62110836758,-32831.046918755404,-30088.845502000513,785.2167827149372,-20037.266020448926,0.0,0.0,0.0,193.0,1.0,154.0,0.0,44.0,3.0,250.0,410.0,44.0,1018.0,1744252879.7815676,0.0,2025-04-09 22:41:19.781,STOP,38
96.0,11617.520346345944,817.671515664043,-57298.49574547956,-53672.059318072716,-32855.387968467236,-30098.076772460554,811.8377103612078,-20022.849145275253,0.0,0.0,0.0,193.0,1.0,154.0,0.0,44.0,3.0,252.0,410.0,44.0,1020.0,1744252879.7815845,0.0,2025-04-09 22:41:19.781,STOP,38
97.0,11613.72054978854,794.5821636417107,-57288.884495363774,-53637.79409382273,-32881.114826335295,-30127.737537352747,828.154483813582,-20043.34569494077,0.0,0.0,0.0,193.0,1.0,154.0,0.0,44.0,3.0,249.0,410.0,44.0,1017.0,1744252879.7816017,0.0,2025-04-09 22:41:19.781,STOP,38
98.0,11718.438472561655,815.9727830854396,-57294.85241113334,-53643.71730610339,-32894.30235556392,-30137.90758107991,802.4276259455236,-20061.91999458313,0.0,0.0,0.0,193.0,1.0,154.0,0.0,44.0,3.0,250.0,410.0,44.0,1018.0,1744252879.7816107,0.0,2025-04-09 22:41:19.781,STOP,38
99.0,11695.259713561501,832.2448530489032,-57252.33939317935,-53634.53073913226,-32825.12370647475,-30068.61717326846,758.931131235496,-20001.950264209543,0.0,0.0,0.0,193.0,1.0,155.0,0.0,44.0,3.0,251.0,411.0,44.0,1019.0,1744252879.7816513,0.0,2025-04-09 22:41:19.781,STOP,38
100.0,11647.762256593975,843.9795188879394,-57273.75236436753,-53640.65511711301,-32829.1470204767,-30088.353763622497,865.9065801985956,-20009.885133491174,0.0,0.0,0.0,193.0,1.0,154.0,0.0,44.0,3.0,250.0,410.0,44.0,1018.0,1744252879.78166,0.0,2025-04-09 22:41:19.781,STOP,38
101.0,11601.427090338122,798.1584427545599,-57298.38398675728,-53661.33048073417,-32875.70570417711,-30135.046557789632,815.2351755184145,-20056.644982891678,0.0,0.0,0.0,193.0,1.0,154.0,0.0,44.0,3.0,250.0,410.0,44.0,1018.0,1744252879.781669,0.0,2025-04-09 22:41:19.781,STOP,38
102.0,11700.870001419784,811.345971983191,-57300.95443736964,-53634.5083873878,-32906.14878012524,-30164.796729659647,841.766696186864,-20084.07057333834,0.0,0.0,0.0,193.0,1.0,154.0,0.0,44.0,3.0,251.0,410.0,44.0,1019.0,1744252879.7816775,0.0,2025-04-09 22:41:19.781,STOP,38
103.0,11693.27040830498,824.8687773786519,-57262.263567717506,-53655.89900683153,-32825.61544485277,-30078.496644317707,731.483189044379,-20011.11447943622,0.0,0.0,0.0,193.0,1.0,154.0,0.0,44.0,3.0,249.0,410.0,44.0,1017.0,1744252879.7816865,0.0,2025-04-09 22:41:19.781,STOP,38
104.0,11651.87497757375,838.860969407674,-57270.84663758834,-53625.34417216112,-32828.185895465125,-30084.19633915381,871.896847712618,-20006.286502633873,0.0,0.0,0.0,193.0,1.0,155.0,0.0,44.0,3.0,251.0,411.0,44.0,1019.0,1744252879.7816954,0.0,2025-04-09 22:41:19.781,STOP,38
105.0,11596.889686213695,805.9815533139174,-57299.41216700222,-53668.639501171056,-32867.21204128409,-30116.33814768054,792.0117130293504,-20042.67514260711,0.0,0.0,0.0,193.0,1.0,155.0,0.0,44.0,3.0,251.0,411.0,44.0,1019.0,1744252879.781704,0.0,2025-04-09 22:41:19.781,STOP,38
106.0,11699.528896752465,822.8571203776742,-57281.553123182435,-53599.282038126235,-32892.53656775195,-30140.992121814743,882.5586298177993,-20053.694552623576,0.0,0.0,0.0,193.0,1.0,155.0,0.0,44.0,3.0,252.0,411.0,44.0,1020.0,1744252879.7817128,0.0,2025-04-09 22:41:19.781,STOP,38
107.0,11703.373396798777,819.7725796428418,-57275.98753881306,-53670.248826771836,-32841.17225899366,-30081.827054241545,718.1391976045606,-20011.24858990295,0.0,0.0,0.0,193.0,1.0,154.0,0.0,44.0,3.0,249.0,410.0,44.0,1017.0,1744252879.7817216,0.0,2025-04-09 22:41:19.781,STOP,38
108.0,11656.501788676,832.669536193554,-57274.981710312575,-53626.23824193934,-32836.59015138032,-30088.82315025606,863.3584813306906,-20013.10378469274,0.0,0.0,0.0,193.0,1.0,155.0,0.0,44.0,3.0,248.0,411.0,44.0,1016.0,1744252879.7817307,0.0,2025-04-09 22:41:19.781,STOP,38
109.0,11589.155982632159,800.7735968558309,-57312.89026890878,-53693.24877181635,-32869.04488432943,-30121.23317971625,776.0972709771718,-20055.86267183574,0.0,0.0,0.0,193.0,1.0,155.0,0.0,44.0,3.0,249.0,411.0,44.0,1017.0,1744252879.7817397,0.0,2025-04-09 22:41:19.781,STOP,38
110.0,11676.797172641418,817.7832743863195,-57281.21784701561,-53598.63383753703,-32890.74842819553,-30137.05821479061,883.5421065738328,-20057.002610802963,0.0,0.0,0.0,193.0,1.0,155.0,0.0,44.0,3.0,252.0,411.0,44.0,1020.0,1744252879.7817483,0.0,2025-04-09 22:41:19.781,STOP,38
111.0,11707.396710800733,815.5033964518782,-57290.73969015357,-53678.80954489822,-32858.673674902166,-30094.455789858795,701.2636305408038,-20029.01822674492,0.0,0.0,0.0,193.0,1.0,155.0,0.0,44.0,3.0,252.0,411.0,44.0,1020.0,1744252879.781757,0.0,2025-04-09 22:41:19.781,STOP,38
112.0,11671.678623161153,836.4916844954115,-57254.79808506943,-53606.99338996332,-32815.937139503614,-30067.43253081233,855.8259434492521,-19991.668461760102,0.0,0.0,0.0,193.0,1.0,155.0,0.0,44.0,3.0,250.0,411.0,44.0,1018.0,1744252879.781766,0.0,2025-04-09 22:41:19.781,STOP,38
113.0,11607.39500610769,816.7550941413754,-57294.74065241106,-53677.42373674199,-32841.9992735385,-30098.344993394017,801.3323904672135,-20025.799575543355,0.0,0.0,0.0,193.0,1.0,154.0,0.0,44.0,3.0,250.0,410.0,44.0,1018.0,1744252879.7817748,0.0,2025-04-09 22:41:19.781,STOP,38
114.0,11648.477512416544,800.5947829001884,-57281.93310283818,-53612.491919099324,-32886.009858371006,-30145.149546283432,870.376929089657,-20067.753799885966,0.0,0.0,0.0,193.0,1.0,154.0,0.0,44.0,3.0,249.0,410.0,44.0,1017.0,1744252879.7817893,0.0,2025-04-09 22:41:19.781,STOP,38
115.0,11720.293667351445,822.1642162995597,-57286.11287905132,-53672.75222215083,-32862.92050634867,-30113.410069156896,730.7455814773538,-20053.314572967836,0.0,0.0,0.0,193.0,1.0,154.0,0.0,44.0,3.0,250.0,410.0,44.0,1018.0,1744252879.781798,0.0,2025-04-09 22:41:19.781,STOP,38
116.0,11677.914759864183,829.9649751144618,-57252.07117224589,-53619.219794180375,-32819.78163954993,-30077.781388495136,824.5335012118222,-20009.035767201873,0.0,0.0,0.0,193.0,1.0,155.0,0.0,44.0,3.0,250.0,411.0,44.0,1018.0,1744252879.7818067,0.0,2025-04-09 22:41:19.781,STOP,38
117.0,11618.05678821287,826.2322337904255,-57292.594884943355,-53672.37224249509,-32842.245142727515,-30099.373173638964,820.3760767431352,-20023.38558714218,0.0,0.0,0.0,193.0,1.0,155.0,0.0,44.0,3.0,251.0,411.0,44.0,1019.0,1744252879.7818155,0.0,2025-04-09 22:41:19.781,STOP,38
118.0,11624.896422016194,800.2371549889035,-57290.918504109206,-53632.54143387573,-32886.16632058219,-30149.418729474397,852.3614230586795,-20069.11725629774,0.0,0.0,0.0,193.0,1.0,155.0,0.0,44.0,3.0,250.0,411.0,44.0,1018.0,1744252879.7818244,0.0,2025-04-09 22:41:19.781,STOP,38
119.0,11711.844707947339,814.6763819070318,-57304.08368159339,-53668.57244593769,-32893.207120085615,-30137.237028746255,755.7795352672977,-20060.333020726805,0.0,0.0,0.0,193.0,1.0,155.0,0.0,44.0,3.0,250.0,411.0,44.0,1018.0,1744252879.7818332,0.0,2025-04-09 22:41:19.781,STOP,38
120.0,11684.195600056124,831.6637076930651,-57250.506550134014,-53627.266422184286,-32818.08290697133,-30066.247888356196,784.8591548036522,-19986.773429724388,0.0,0.0,0.0,193.0,1.0,155.0,0.0,44.0,3.0,250.0,411.0,44.0,1018.0,1744252879.7818418,0.0,2025-04-09 22:41:19.781,STOP,38
121.0,11630.73022731903,837.0281263623389,-57279.34030048136,-53653.61912889709,-32830.555180377385,-30088.443170600316,851.7802777028415,-20001.726746764987,0.0,0.0,0.0,193.0,1.0,154.0,0.0,44.0,3.0,249.0,410.0,44.0,1017.0,1744252879.7818506,0.0,2025-04-09 22:41:19.781,STOP,38
122.0,11605.830383995817,801.7794253563196,-57291.9243326097,-53648.165303249996,-32880.757198424006,-30134.085432778054,826.6345651906211,-20054.141587512684,0.0,0.0,0.0,193.0,1.0,155.0,0.0,44.0,3.0,249.0,411.0,44.0,1017.0,1744252879.7818594,0.0,2025-04-09 22:41:19.781,STOP,38
123.0,11718.84080396185,825.8075506457748,-57289.06330931942,-53637.41411416699,-32893.65415497472,-30139.516906680696,815.056361562772,-20062.389381216693,0.0,0.0,0.0,193.0,1.0,155.0,0.0,44.0,3.0,252.0,411.0,44.0,1020.0,1744252879.781868,0.0,2025-04-09 22:41:19.781,STOP,38
124.0,11693.78449842745,833.6083094606769,-57254.68632634715,-53644.320803203686,-32825.7495553195,-30070.8970512029,751.2644828873257,-20003.96192121052,0.0,0.0,0.0,193.0,1.0,154.0,0.0,44.0,3.0,250.0,410.0,44.0,1018.0,1744252879.7818766,0.0,2025-04-09 22:41:19.781,STOP,38
125.0,11643.82834956984,838.9950798744059,-57276.74749812455,-53645.639556126545,-32836.32193044686,-30090.946565979313,853.4343067925342,-20018.177630684095,0.0,0.0,0.0,193.0,1.0,154.0,0.0,44.0,3.0,249.0,410.0,44.0,1017.0,1744252879.7818854,0.0,2025-04-09 22:41:19.781,STOP,38
126.0,11594.252180367968,796.1467857535823,-57297.981655357085,-53670.76291689431,-32874.386951254244,-30129.793897842635,793.4869281634008,-20068.64786966418,0.0,0.0,0.0,193.0,1.0,153.0,0.0,44.0,3.0,249.0,409.0,44.0,1017.0,1744252879.7818942,0.0,2025-04-09 22:41:19.781,STOP,38
127.0,11705.988550900049,822.8571203776742,-57283.43066971668,-53619.93505000294,-32892.13423635176,-30141.126232281476,850.6179869911656,-20067.373820230227,0.0,0.0,0.0,193.0,1.0,154.0,0.0,44.0,3.0,249.0,410.0,44.0,1017.0,1744252879.781903,0.0,2025-04-09 22:41:19.781,STOP,38
128.0,11689.448260003122,816.509224952367,-57271.38307945527,-53675.836762885665,-32837.43951766962,-30079.77069375166,710.2043283229266,-20016.85887776123,0.0,0.0,0.0,193.0,1.0,154.0,0.0,44.0,3.0,251.0,410.0,44.0,1019.0,1744252879.7819118,0.0,2025-04-09 22:41:19.781,STOP,38
129.0,11639.983849523527,827.215710546459,-57278.04389930295,-53645.43839042645,-32834.64554961271,-30088.28670838913,852.8755131811516,-20019.362273140225,0.0,0.0,0.0,193.0,1.0,155.0,0.0,44.0,3.0,252.0,411.0,44.0,1020.0,1744252879.7819252,0.0,2025-04-09 22:41:19.781,STOP,38
130.0,11583.255122095958,797.3537799541689,-57303.703701937644,-53693.315827049715,-32865.1556807942,-30117.366327925483,775.8737535326187,-20060.02009630443,0.0,0.0,0.0,193.0,1.0,155.0,0.0,44.0,3.0,252.0,411.0,44.0,1020.0,1744252879.781934,0.0,2025-04-09 22:41:19.781,STOP,38
131.0,11676.12662030776,802.6287916456213,-57295.165335555714,-53631.37914316406,-32905.03119290247,-30164.528508726184,846.9746526449505,-20110.088003884317,0.0,0.0,0.0,193.0,1.0,155.0,0.0,44.0,3.0,249.0,411.0,44.0,1017.0,1744252879.7819428,0.0,2025-04-09 22:41:19.781,STOP,38
132.0,11701.31703630889,820.286669765314,-57276.47927719108,-53686.78911766876,-32839.27236071496,-30087.929080477847,691.2947525137369,-20040.194098972574,0.0,0.0,0.0,193.0,1.0,154.0,0.0,44.0,3.0,250.0,410.0,44.0,1018.0,1744252879.7819517,0.0,2025-04-09 22:41:19.781,STOP,38
133.0,11650.153893250692,828.4227047470457,-57267.82915208687,-53630.86505304159,-32826.844790797804,-30076.84261522801,866.5324290433442,-19996.76465949591,0.0,0.0,0.0,193.0,1.0,155.0,0.0,44.0,3.0,249.0,411.0,44.0,1017.0,1744252879.7819605,0.0,2025-04-09 22:41:19.781,STOP,38
134.0,11585.982034919505,796.6832276205097,-57307.65996070623,-53700.58014399769,-32858.29369524642,-30106.838656287036,790.4023874285683,-20031.901601779653,0.0,0.0,0.0,193.0,1.0,154.0,0.0,44.0,3.0,250.0,410.0,44.0,1018.0,1744252879.781969,0.0,2025-04-09 22:41:19.781,STOP,38
135.0,11662.492056190022,804.7522073688755,-57288.05748081893,-53617.52106160177,-32897.118675365295,-30144.389586971953,872.9250279575621,-20070.54776794288,0.0,0.0,0.0,193.0,1.0,155.0,0.0,44.0,3.0,252.0,411.0,44.0,1020.0,1744252879.7819777,0.0,2025-04-09 22:41:19.781,STOP,38
136.0,11707.799042200928,817.4927017084005,-57295.76883265601,-53697.093271862665,-32867.055579072905,-30107.777429554157,693.1499473035274,-20060.735352126998,0.0,0.0,0.0,193.0,1.0,155.0,0.0,44.0,3.0,252.0,411.0,44.0,1020.0,1744252879.7819865,0.0,2025-04-09 22:41:19.781,STOP,38
137.0,11664.548416679909,833.4071437605792,-57262.17416073968,-53630.686239085946,-32829.61640711027,-30076.552042550094,830.9484518704953,-20014.489592848968,0.0,0.0,0.0,193.0,1.0,154.0,0.0,44.0,3.0,250.0,410.0,44.0,1018.0,1744252879.7819953,0.0,2025-04-09 22:41:19.781,STOP,38
138.0,11598.655474025665,813.1117597951603,-57303.43548100418,-53697.0709201182,-32855.54443067842,-30103.418839385373,796.0126752868504,-20033.28740993588,0.0,0.0,0.0,193.0,1.0,154.0,0.0,44.0,3.0,250.0,410.0,44.0,1018.0,1744252879.782004,0.0,2025-04-09 22:41:19.782,STOP,38
139.0,11639.358000678778,799.4995474218783,-57286.2693412625,-53628.38400940705,-32891.35192529582,-30142.176764270876,866.2195046209699,-20062.277622494417,0.0,0.0,0.0,193.0,1.0,155.0,0.0,44.0,3.0,251.0,411.0,44.0,1019.0,1744252879.7820127,0.0,2025-04-09 22:41:19.782,STOP,38
140.0,11707.754338712019,805.6462771470877,-57303.994274615565,-53692.265295060315,-32888.80382642792,-30126.664653618893,720.1508546055383,-20064.803369617865,0.0,0.0,0.0,193.0,1.0,155.0,0.0,44.0,3.0,250.0,411.0,44.0,1018.0,1744252879.7820215,0.0,2025-04-09 22:41:19.782,STOP,38
141.0,11666.940053336628,821.5383674548111,-57262.732954351064,-53642.979698536365,-32833.639721112224,-30082.363496108475,792.1011200071716,-20020.16693594062,0.0,0.0,0.0,193.0,1.0,154.0,0.0,44.0,3.0,249.0,410.0,44.0,1017.0,1744252879.7820303,0.0,2025-04-09 22:41:19.782,STOP,38
142.0,11609.026683452927,819.1690825425485,-57299.456870491136,-53690.320693292706,-32853.73393937754,-30108.447981887817,804.2828207353141,-20046.67610486461,0.0,0.0,0.0,193.0,1.0,154.0,0.0,44.0,3.0,252.0,410.0,44.0,1020.0,1744252879.782039,0.0,2025-04-09 22:41:19.782,STOP,38
143.0,11602.499974071978,785.6861693484985,-57302.07202459241,-53657.95536732142,-32900.76200971151,-30150.849241119537,828.7579809138753,-20073.96758484454,0.0,0.0,0.0,193.0,1.0,155.0,0.0,44.0,3.0,252.0,411.0,44.0,1020.0,1744252879.7820475,0.0,2025-04-09 22:41:19.782,STOP,38
144.0,11698.590123485343,806.8756230921297,-57311.01272237453,-53684.03985310076,-32913.27898660648,-30151.810366131114,753.2090846549374,-20090.530227485924,0.0,0.0,0.0,193.0,1.0,154.0,0.0,44.0,3.0,252.0,410.0,44.0,1020.0,1744252879.7821107,0.0,2025-04-09 22:41:19.782,STOP,38
145.0,11673.936149351139,822.186568044015,-57262.06240201741,-53654.35673646411,-32841.01579678247,-30079.27895537364,750.5268753203005,-20022.78209004189,0.0,0.0,0.0,193.0,1.0,154.0,0.0,44.0,3.0,250.0,410.0,44.0,1018.0,1744252879.7821195,0.0,2025-04-09 22:41:19.782,STOP,38
146.0,11623.06357897086,826.0087163458725,-57286.71637615161,-53670.40528898303,-32846.46962242957,-30092.28767064663,829.540291969811,-20014.936627738076,0.0,0.0,0.0,193.0,1.0,154.0,0.0,44.0,3.0,251.0,410.0,44.0,1019.0,1744252879.7821283,0.0,2025-04-09 22:41:19.782,STOP,38
147.0,11591.81584022234,783.24982920287,-57300.52975422499,-53673.40042274004,-32886.99333512704,-30139.740424125248,800.7288933669203,-20064.31163123985,0.0,0.0,0.0,193.0,1.0,155.0,0.0,44.0,3.0,252.0,411.0,44.0,1020.0,1744252879.7821374,0.0,2025-04-09 22:41:19.782,STOP,38
148.0,11699.864172919295,802.7181986234425,-57301.66969319221,-53654.781419608764,-32911.08851564986,-30151.43038647537,793.6880938634985,-20077.007422090464,0.0,0.0,0.0,193.0,1.0,154.0,0.0,44.0,3.0,250.0,410.0,44.0,1018.0,1744252879.7821465,0.0,2025-04-09 22:41:19.782,STOP,38
149.0,11677.065393574881,807.8143963592526,-57270.44430618815,-53675.30032101874,-32842.446308427614,-30089.71722003427,708.8855754000635,-20031.096938979263,0.0,0.0,0.0,193.0,1.0,154.0,0.0,44.0,3.0,249.0,410.0,44.0,1017.0,1744252879.7821553,0.0,2025-04-09 22:41:19.782,STOP,38
150.0,11627.623334839742,821.5830709437217,-57286.49285870706,-53666.02434706978,-32842.245142727515,-30108.380926654452,842.9736903874506,-20045.692628108576,0.0,0.0,0.0,193.0,1.0,155.0,0.0,44.0,3.0,252.0,411.0,44.0,1020.0,1744252879.7821639,0.0,2025-04-09 22:41:19.782,STOP,38
151.0,11583.880970940707,789.2624484613477,-57300.75327166954,-53689.71719619241,-32869.62602968526,-30134.86774383399,787.7648815828421,-20075.06282032285,0.0,0.0,0.0,193.0,1.0,154.0,0.0,44.0,3.0,252.0,410.0,44.0,1020.0,1744252879.7821727,0.0,2025-04-09 22:41:19.782,STOP,38
152.0,11688.062451846892,806.7191608809425,-57293.31014076593,-53637.525872889266,-32902.81837020139,-30153.956133598822,845.186513088526,-20079.287300024906,0.0,0.0,0.0,193.0,1.0,154.0,0.0,44.0,3.0,250.0,410.0,44.0,1018.0,1744252879.7821813,0.0,2025-04-09 22:41:19.782,STOP,38
153.0,11691.303454792913,817.8279778752301,-57271.78541085547,-53683.68222518948,-32840.65816887119,-30075.81443498307,690.2442205243374,-20017.395319628158,0.0,0.0,0.0,193.0,1.0,154.0,0.0,44.0,3.0,250.0,410.0,44.0,1018.0,1744252879.78219,0.0,2025-04-09 22:41:19.782,STOP,38
154.0,11650.980907795538,833.5636059717663,-57267.87385557579,-53639.358715934606,-32832.946817034106,-30078.8989757179,846.0582311222829,-20010.555685824835,0.0,0.0,0.0,193.0,1.0,155.0,0.0,44.0,3.0,251.0,411.0,44.0,1019.0,1744252879.782199,0.0,2025-04-09 22:41:19.782,STOP,38
155.0,11592.978130934016,801.220631744937,-57296.48408847858,-53692.22059157141,-32860.908849347696,-30107.330394665052,773.9962069983729,-20045.044427519373,0.0,0.0,0.0,193.0,1.0,154.0,0.0,44.0,3.0,250.0,410.0,44.0,1018.0,1744252879.7822075,0.0,2025-04-09 22:41:19.782,STOP,38
156.0,11675.478419718555,807.4791201924229,-57284.16827728371,-53621.05263722571,-32898.236262588056,-30148.904639351924,874.6461122806206,-20071.508892954458,0.0,0.0,0.0,193.0,1.0,154.0,0.0,44.0,3.0,250.0,410.0,44.0,1018.0,1744252879.782216,0.0,2025-04-09 22:41:19.782,STOP,38
157.0,11702.389920042744,817.5374051973112,-57277.6192161583,-53691.05830085973,-32850.29177073143,-30087.884376988935,693.5746304481781,-20028.794709300364,0.0,0.0,0.0,193.0,1.0,154.0,0.0,44.0,3.0,251.0,410.0,44.0,1019.0,1744252879.782225,0.0,2025-04-09 22:41:19.782,STOP,38
158.0,11670.27046326047,843.1301525986377,-57255.87096880328,-53625.03124773875,-32827.269473942455,-30078.496644317707,842.6160624761657,-20017.462374861523,0.0,0.0,0.0,193.0,1.0,154.0,0.0,44.0,3.0,252.0,410.0,44.0,1020.0,1744252879.7822337,0.0,2025-04-09 22:41:19.782,STOP,38
159.0,11600.756538004463,816.0174865743503,-57297.44521349016,-53694.5228212503,-32861.28882900343,-30112.024261000668,767.4694976174233,-20059.103674781763,0.0,0.0,0.0,193.0,1.0,154.0,0.0,44.0,3.0,250.0,410.0,44.0,1018.0,1744252879.7822473,0.0,2025-04-09 22:41:19.782,STOP,38
160.0,11661.888559089728,809.6695911490431,-57275.83107660188,-53617.72222730186,-32894.70468696412,-30153.822023132092,862.6655772525761,-20088.49621874049,0.0,0.0,0.0,193.0,1.0,154.0,0.0,44.0,3.0,251.0,410.0,44.0,1019.0,1744252879.782256,0.0,2025-04-09 22:41:19.782,STOP,38
161.0,11714.705731237618,816.9115563525626,-57283.07304180539,-53688.53255373628,-32869.08958781834,-30109.744383066227,701.9118311300077,-20048.26307872094,0.0,0.0,0.0,193.0,1.0,154.0,0.0,44.0,3.0,251.0,410.0,44.0,1019.0,1744252879.7822645,0.0,2025-04-09 22:41:19.782,STOP,38
162.0,11662.603814912298,824.511149467367,-57253.70284959112,-53629.79216930773,-32833.23738971203,-30077.71433326177,819.9290418540289,-20010.06394744682,0.0,0.0,0.0,193.0,1.0,154.0,0.0,44.0,3.0,249.0,410.0,44.0,1017.0,1744252879.7822733,0.0,2025-04-09 22:41:19.782,STOP,38
163.0,11594.766270490441,807.6579341480654,-57300.06036759143,-53701.205992842435,-32863.30048600441,-30110.236121444243,775.2702564323255,-20051.705247367056,0.0,0.0,0.0,193.0,1.0,154.0,0.0,44.0,3.0,250.0,410.0,44.0,1018.0,1744252879.782282,0.0,2025-04-09 22:41:19.782,STOP,38
164.0,11626.036360983415,789.8882973060963,-57286.582265684876,-53638.509349645305,-32898.54918701043,-30151.9668283423,834.8823588946294,-20091.8936838977,0.0,0.0,0.0,193.0,1.0,155.0,0.0,44.0,3.0,251.0,411.0,44.0,1019.0,1744252879.7822907,0.0,2025-04-09 22:41:19.782,STOP,38
165.0,11717.164423127702,819.4820069649228,-57288.7727366415,-53678.87660013159,-32887.663887460694,-30117.545141881128,725.8952529305521,-20056.823796847322,0.0,0.0,0.0,193.0,1.0,155.0,0.0,44.0,3.0,252.0,411.0,44.0,1020.0,1744252879.7822998,0.0,2025-04-09 22:41:19.782,STOP,38
166.0,11677.199504041613,833.6306612051322,-57247.75728556601,-53632.09439898663,-32831.4492501556,-30063.185699365822,781.9087245355516,-19993.747173994445,0.0,0.0,0.0,193.0,1.0,155.0,0.0,44.0,3.0,250.0,411.0,44.0,1018.0,1744252879.7823083,0.0,2025-04-09 22:41:19.782,STOP,38
167.0,11621.074273714337,829.2944227808026,-57286.8728383628,-53677.71430941991,-32847.16252650768,-30095.707487548294,806.8309196032191,-20025.73252030999,0.0,0.0,0.0,193.0,1.0,154.0,0.0,44.0,3.0,249.0,410.0,44.0,1017.0,1744252879.782317,0.0,2025-04-09 22:41:19.782,STOP,38
168.0,11613.049997454882,799.8795270776185,-57290.11384130882,-53650.69105037345,-32889.67554446167,-30139.695720636337,814.5646231847553,-20070.391305731693,0.0,0.0,0.0,193.0,1.0,155.0,0.0,44.0,3.0,251.0,411.0,44.0,1019.0,1744252879.7823255,0.0,2025-04-09 22:41:19.782,STOP,38
169.0,11718.12554813928,827.5286349688333,-57287.43163197418,-53656.50250393183,-32892.62597472977,-30129.72684260927,773.4821168759009,-20068.64786966418,0.0,0.0,0.0,193.0,1.0,155.0,0.0,44.0,3.0,251.0,411.0,44.0,1019.0,1744252879.782334,0.0,2025-04-09 22:41:19.782,STOP,38
170.0,11687.816582657884,835.3964490171014,-57245.52211112048,-53645.773666593275,-32824.475505885544,-30067.05255115659,752.0467939432614,-20011.33799688077,0.0,0.0,0.0,193.0,1.0,154.0,0.0,44.0,3.0,250.0,410.0,44.0,1018.0,1744252879.782343,0.0,2025-04-09 22:41:19.782,STOP,38
171.0,11636.988715766516,839.8667979081629,-57272.455963189124,-53659.49763768884,-32839.27236071496,-30082.76582750867,822.3206785107468,-20023.474994120003,0.0,0.0,0.0,193.0,1.0,154.0,0.0,45.0,3.0,249.0,410.0,45.0,1017.0,1744252879.7823515,0.0,2025-04-09 22:41:19.782,STOP,38
172.0,11591.72643324452,785.5073553928561,-57295.187687300175,-53672.95338785093,-32884.802864170415,-30128.229275730762,789.4859659059008,-20067.64204116369,0.0,0.0,0.0,193.0,1.0,154.0,0.0,44.0,3.0,251.0,410.0,44.0,1019.0,1744252879.7823603,0.0,2025-04-09 22:41:19.782,STOP,38
173.0,11703.060472376405,811.3906754721016,-57293.4218994882,-53649.30524221722,-32901.94665216764,-30147.071796306587,814.4752162069341,-20083.60118670478,0.0,0.0,0.0,193.0,1.0,154.0,0.0,44.0,3.0,252.0,410.0,44.0,1020.0,1744252879.7823691,0.0,2025-04-09 22:41:19.782,STOP,38
174.0,11695.863210661795,831.7307629264311,-57254.82043681389,-53667.81248662621,-32825.7495553195,-30073.13222564843,713.2665173133037,-20031.946305268564,0.0,0.0,0.0,193.0,1.0,154.0,0.0,44.0,3.0,249.0,410.0,44.0,1017.0,1744252879.7823832,0.0,2025-04-09 22:41:19.782,STOP,38
175.0,11644.87888155924,838.4362862630232,-57274.065288789905,-53653.395611452535,-32840.144078748715,-30090.56658632357,839.4868182524226,-20025.397244143158,0.0,0.0,0.0,193.0,1.0,153.0,0.0,44.0,3.0,250.0,409.0,44.0,1018.0,1744252879.7823918,0.0,2025-04-09 22:41:19.782,STOP,38
176.0,11584.640930252186,790.0224077728282,-57305.08951009387,-53699.30609456374,-32879.17022456768,-30130.28563622065,773.0574337312501,-20058.54488117038,0.0,0.0,0.0,193.0,1.0,154.0,0.0,44.0,3.0,252.0,410.0,44.0,1020.0,1744252879.7824008,0.0,2025-04-09 22:41:19.782,STOP,38
177.0,11692.398690271222,814.7210853959424,-57287.00694882953,-53633.99429726533,-32902.348983567834,-30152.25740102022,847.3322805562354,-20075.375744745226,0.0,0.0,0.0,193.0,1.0,154.0,0.0,44.0,3.0,252.0,410.0,44.0,1020.0,1744252879.7824097,0.0,2025-04-09 22:41:19.782,STOP,38
178.0,11704.490984021544,831.5519489707887,-57262.84471307334,-53680.597684454646,-32838.22182872556,-30073.243984370707,694.3792932485692,-20023.229124930993,0.0,0.0,0.0,193.0,1.0,154.0,0.0,44.0,3.0,249.0,410.0,44.0,1017.0,1744252879.7824185,0.0,2025-04-09 22:41:19.782,STOP,38
179.0,11652.25495722949,835.3740972726462,-57264.81166658541,-53638.46464615639,-32837.70773860309,-30080.888280974425,847.1981700895036,-20020.658674318634,0.0,0.0,0.0,193.0,1.0,154.0,0.0,44.0,3.0,251.0,410.0,44.0,1019.0,1744252879.7824273,0.0,2025-04-09 22:41:19.782,STOP,38
180.0,11590.966473933038,802.315867223247,-57294.18185879968,-53697.18267884049,-32862.24995401502,-30112.180723211855,770.6657970745322,-20066.569157429836,0.0,0.0,0.0,193.0,1.0,154.0,0.0,44.0,3.0,252.0,410.0,44.0,1020.0,1744252879.782436,0.0,2025-04-09 22:41:19.782,STOP,38
181.0,11672.148009794713,810.5636609272553,-57277.19453301365,-53622.05846572619,-32903.31010857941,-30148.412900973908,862.0620801522828,-20080.002555847474,0.0,0.0,0.0,193.0,1.0,154.0,0.0,44.0,3.0,248.0,410.0,44.0,1016.0,1744252879.7824445,0.0,2025-04-09 22:41:19.782,STOP,38
182.0,11705.385053799755,821.9406988550066,-57275.249931246035,-53695.3721875396,-32860.01477956948,-30088.19730141131,686.2656100112928,-20027.073624977307,0.0,0.0,0.0,193.0,1.0,154.0,0.0,44.0,3.0,249.0,410.0,44.0,1017.0,1744252879.7824533,0.0,2025-04-09 22:41:19.782,STOP,38
183.0,11653.819579341362,822.9018238665848,-57256.49681764803,-53635.87184379958,-32832.67859610064,-30074.33921984902,847.9804811454394,-20004.632473544178,0.0,0.0,0.0,193.0,1.0,154.0,0.0,44.0,3.0,251.0,410.0,44.0,1019.0,1744252879.782462,0.0,2025-04-09 22:41:19.782,STOP,38
184.0,11589.647721010175,803.3440474681911,-57295.254742533536,-53701.8765451761,-32856.75142487901,-30096.109818948487,784.702692592465,-20040.283505950392,0.0,0.0,0.0,193.0,1.0,154.0,0.0,44.0,3.0,252.0,410.0,44.0,1020.0,1744252879.7824707,0.0,2025-04-09 22:41:19.782,STOP,38
185.0,11645.63884087072,799.2313264884147,-57275.42874520168,-53623.31016341569,-32893.52004450799,-30136.85704909051,865.7724697318638,-20076.739201157,0.0,0.0,0.0,193.0,1.0,154.0,0.0,44.0,3.0,250.0,410.0,44.0,1018.0,1744252879.7824793,0.0,2025-04-09 22:41:19.782,STOP,38
186.0,11703.015768887493,808.5520039262777,-57288.23629477457,-53697.40619628504,-32876.37625651077,-30109.498513877217,705.5104619873122,-20056.712038125042,0.0,0.0,0.0,193.0,1.0,154.0,0.0,44.0,3.0,250.0,410.0,44.0,1018.0,1744252879.782488,0.0,2025-04-09 22:41:19.782,STOP,38
187.0,11662.02266955646,819.3255447537357,-57253.47933214657,-53640.386896179545,-32833.48325890103,-30073.981591937732,811.0106958163615,-20005.39243285566,0.0,0.0,0.0,193.0,1.0,155.0,0.0,44.0,3.0,250.0,411.0,44.0,1018.0,1744252879.7824967,0.0,2025-04-09 22:41:19.782,STOP,38
188.0,11607.48441308551,818.0514953197832,-57286.76107964052,-53693.20406832744,-32850.51528817598,-30099.23906317223,790.0000560283728,-20041.222279217516,0.0,0.0,0.0,193.0,1.0,155.0,0.0,44.0,3.0,251.0,411.0,44.0,1019.0,1744252879.7825055,0.0,2025-04-09 22:41:19.782,STOP,38
189.0,11624.53879410491,796.6385241315991,-57281.57547492689,-53640.319840946184,-32894.79409394194,-30148.457604462816,830.4567134924786,-20085.523436727934,0.0,0.0,0.0,193.0,1.0,154.0,0.0,44.0,3.0,249.0,410.0,44.0,1017.0,1744252879.782519,0.0,2025-04-09 22:41:19.782,STOP,38
190.0,11707.17319335618,806.8979748365849,-57295.36650125581,-53683.61516995611,-32896.7163439651,-30126.48583966325,727.7504477203427,-20064.244576006484,0.0,0.0,0.0,193.0,1.0,154.0,0.0,44.0,3.0,250.0,410.0,44.0,1018.0,1744252879.782528,0.0,2025-04-09 22:41:19.782,STOP,38
191.0,11671.87978886125,816.6209836746435,-57252.048820501426,-53645.57250089318,-32835.42786066864,-30071.56760353656,770.1293552076048,-20005.683005533578,0.0,0.0,0.0,193.0,1.0,155.0,0.0,44.0,3.0,251.0,411.0,44.0,1019.0,1744252879.7825367,0.0,2025-04-09 22:41:19.782,STOP,38
192.0,11616.715683545552,816.8892046081072,-57288.23629477457,-53684.68805368997,-32853.24220099953,-30101.206016684297,814.4528644624787,-20026.760700554933,0.0,0.0,0.0,193.0,1.0,154.0,0.0,45.0,3.0,249.0,410.0,45.0,1017.0,1744252879.7825453,0.0,2025-04-09 22:41:19.782,STOP,38
193.0,11602.835250238806,786.446128659979,-57289.465640719616,-53661.75516387882,-32892.93889915215,-30141.103880537023,813.6482016620877,-20064.959831829052,0.0,0.0,0.0,193.0,1.0,154.0,0.0,44.0,3.0,249.0,410.0,44.0,1017.0,1744252879.782554,0.0,2025-04-09 22:41:19.782,STOP,38
194.0,11702.211106087101,803.6346201461101,-57295.813536144924,-53669.757088393824,-32913.547207539945,-30150.58102018607,775.0690907322277,-20086.797486161886,0.0,0.0,0.0,193.0,1.0,155.0,0.0,44.0,3.0,253.0,411.0,44.0,1021.0,1744252879.7825627,0.0,2025-04-09 22:41:19.782,STOP,38
195.0,11670.717498149574,807.6579341480654,-57258.016736271,-53666.29256800325,-32846.69313987412,-30083.771656009158,730.0079739103287,-20029.44290988957,0.0,0.0,0.0,193.0,1.0,155.0,0.0,44.0,3.0,250.0,411.0,44.0,1018.0,1744252879.7825718,0.0,2025-04-09 22:41:19.782,STOP,38
196.0,11627.556279606377,824.5782047007328,-57276.926312080184,-53667.790134881754,-32850.6046951538,-30099.999022483713,825.1593500565708,-20042.33986644028,0.0,0.0,0.0,193.0,1.0,154.0,0.0,45.0,3.0,249.0,410.0,45.0,1017.0,1744252879.7825804,0.0,2025-04-09 22:41:19.782,STOP,38
197.0,11591.592322777788,787.4072536715572,-57284.86118136182,-53673.80275414023,-32880.60073621282,-30123.848333817525,798.9184020660404,-20045.804386830856,0.0,0.0,0.0,193.0,1.0,154.0,0.0,44.0,3.0,251.0,410.0,44.0,1019.0,1744252879.7825892,0.0,2025-04-09 22:41:19.782,STOP,38
198.0,11697.494888007031,805.4227597025347,-57286.8728383628,-53644.164340992495,-32912.18375112817,-30150.558668441616,829.4955884809004,-20068.469055708534,0.0,0.0,0.0,193.0,1.0,154.0,0.0,44.0,3.0,251.0,410.0,44.0,1019.0,1744252879.782598,0.0,2025-04-09 22:41:19.782,STOP,38
199.0,11692.353986782311,818.990268586906,-57254.73102983607,-53671.5675796947,-32839.94291304862,-30074.38392333793,712.4395027684573,-20014.556648082336,0.0,0.0,0.0,193.0,1.0,154.0,0.0,44.0,3.0,250.0,410.0,44.0,1018.0,1744252879.7826068,0.0,2025-04-09 22:41:19.782,STOP,38
200.0,11653.283137474435,841.5208269978556,-57256.04978275893,-53635.82714031066,-32831.181029222134,-30073.981591937732,862.6208737636655,-19998.597502541244,0.0,0.0,0.0,193.0,1.0,154.0,0.0,45.0,3.0,250.0,410.0,45.0,1018.0,1744252879.7826157,0.0,2025-04-09 22:41:19.782,STOP,38
201.0,11592.307578600357,801.0418177892946,-57285.755251140035,-53681.983492610874,-32866.04975057241,-30110.504342377706,796.5267654093225,-20039.970581528018,0.0,0.0,0.0,193.0,1.0,154.0,0.0,45.0,3.0,250.0,410.0,45.0,1018.0,1744252879.7826242,0.0,2025-04-09 22:41:19.782,STOP,38
202.0,11688.911818136194,810.9212888385402,-57272.47831493358,-53618.437483124435,-32898.39272479925,-30141.752081126226,876.9483419595173,-20059.84128234879,0.0,0.0,0.0,193.0,1.0,155.0,0.0,44.0,3.0,251.0,411.0,44.0,1019.0,1744252879.7826333,0.0,2025-04-09 22:41:19.782,STOP,38
203.0,11700.288856063946,824.5335012118222,-57259.246082216036,-53679.70361467644,-32842.669825872166,-30075.81443498307,712.5959649796445,-20012.433232359082,0.0,0.0,0.0,193.0,1.0,155.0,0.0,44.0,3.0,251.0,411.0,44.0,1019.0,1744252879.7826416,0.0,2025-04-09 22:41:19.782,STOP,38
204.0,11659.675736388654,845.5441409998109,-57247.37730591027,-53624.13717796054,-32830.51047688848,-30073.042818670612,864.0290336643499,-20007.82877300129,0.0,0.0,0.0,193.0,1.0,154.0,0.0,45.0,3.0,250.0,410.0,45.0,1018.0,1744252879.782655,0.0,2025-04-09 22:41:19.782,STOP,38
205.0,11605.562163062354,820.0184488318503,-57276.88160859128,-53683.950446122944,-32858.36075047979,-30101.67540331786,781.1711169685266,-20049.179500243605,0.0,0.0,0.0,193.0,1.0,154.0,0.0,45.0,3.0,250.0,410.0,45.0,1018.0,1744252879.7826636,0.0,2025-04-09 22:41:19.782,STOP,38
206.0,11681.580445954854,820.510187209867,-57260.34131769435,-53605.160546917985,-32896.358716053815,-30135.225371745277,876.5907140482324,-20061.383552716205,0.0,0.0,0.0,193.0,1.0,154.0,0.0,44.0,3.0,250.0,410.0,44.0,1018.0,1744252879.7826722,0.0,2025-04-09 22:41:19.782,STOP,38
207.0,11708.447242790133,822.3430302552022,-57264.990480541055,-53681.40234725504,-32858.517212690975,-30085.693906032313,709.4443690114462,-20026.24661043246,0.0,0.0,0.0,193.0,1.0,154.0,0.0,44.0,3.0,250.0,410.0,44.0,1018.0,1744252879.782681,0.0,2025-04-09 22:41:19.782,STOP,38
208.0,11656.188864253625,826.3216407682468,-57247.220843699084,-53628.18284370695,-32836.97013103606,-30080.24008038522,843.6218909766544,-20017.350616139247,0.0,0.0,0.0,193.0,1.0,154.0,0.0,44.0,3.0,252.0,410.0,44.0,1020.0,1744252879.7826896,0.0,2025-04-09 22:41:19.782,STOP,38
209.0,11598.34254960329,812.9552975839732,-57283.54242843896,-53694.05343461674,-32856.97494232356,-30098.38969688293,788.7930618277862,-20039.590601872278,0.0,0.0,0.0,193.0,1.0,155.0,0.0,45.0,3.0,251.0,411.0,45.0,1019.0,1744252879.7826984,0.0,2025-04-09 22:41:19.782,STOP,38
210.0,11644.610660625776,806.0933120361939,-57264.364631696306,-53618.12455870206,-32889.25086131702,-30133.19136299984,883.2515338959139,-20058.991916059484,0.0,0.0,0.0,193.0,1.0,154.0,0.0,44.0,3.0,250.0,410.0,44.0,1018.0,1744252879.7827072,0.0,2025-04-09 22:41:19.782,STOP,38
211.0,11704.89331542174,816.1292452966268,-57278.826210358886,-53685.76093742382,-32877.672657689174,-30110.459638888795,738.7922094812643,-20053.962773557043,0.0,0.0,0.0,193.0,1.0,154.0,0.0,44.0,3.0,250.0,410.0,44.0,1018.0,1744252879.8674643,0.0,2025-04-09 22:41:19.867,STOP,38
212.0,11651.494997918011,816.7327423969201,-57251.40061991222,-53641.504483402314,-32841.44047992712,-30081.24590888571,822.1418645551043,-20019.4740318625,0.0,0.0,0.0,193.0,1.0,154.0,0.0,45.0,3.0,249.0,410.0,45.0,1017.0,1744252879.8674915,0.0,2025-04-09 22:41:19.867,STOP,38
213.0,11596.040319924394,805.9144980805514,-57288.95155059714,-53696.26625731782,-32864.77570113846,-30099.574339339062,806.8085678587637,-20035.902564037155,0.0,0.0,0.0,193.0,1.0,154.0,0.0,44.0,3.0,250.0,410.0,44.0,1018.0,1744252879.8675036,0.0,2025-04-09 22:41:19.867,STOP,38
214.0,11606.992674707493,779.897067534574,-57284.14592553925,-53651.69687887393,-32901.387858556256,-30142.467336948794,843.2642630653695,-20079.77903840292,0.0,0.0,0.0,193.0,1.0,154.0,0.0,44.0,3.0,251.0,410.0,44.0,1019.0,1744252879.867514,0.0,2025-04-09 22:41:19.867,STOP,38
215.0,11700.378263041766,803.7240271239314,-57293.846582632854,-53685.068033345706,-32900.69495447814,-30136.566476412594,763.6473493155657,-20080.516645969947,0.0,0.0,0.0,193.0,1.0,154.0,0.0,44.0,3.0,252.0,410.0,44.0,1020.0,1744252879.8675241,0.0,2025-04-09 22:41:19.867,STOP,38
216.0,11669.242283015525,822.0524575772831,-57245.99149775404,-53650.42282943998,-32830.37636642175,-30068.259545357174,790.3800356841131,-20005.683005533578,0.0,0.0,0.0,193.0,1.0,154.0,0.0,45.0,3.0,252.0,410.0,45.0,1020.0,1744252879.8675342,0.0,2025-04-09 22:41:19.867,STOP,38
217.0,11621.63306732572,828.73562916942,-57273.57355041189,-53676.86494313061,-32840.45700317109,-30090.968917723767,853.7248794704533,-20022.312703408326,0.0,0.0,0.0,193.0,1.0,154.0,0.0,45.0,3.0,249.0,410.0,45.0,1017.0,1744252879.8675568,0.0,2025-04-09 22:41:19.867,STOP,38
218.0,11600.085985670805,785.7979280707751,-57283.87770460579,-53672.551056450735,-32882.008896113504,-30140.433328203362,836.7375536844199,-20076.135704056705,0.0,0.0,0.0,193.0,1.0,154.0,0.0,44.0,3.0,250.0,410.0,44.0,1018.0,1744252879.8675663,0.0,2025-04-09 22:41:19.867,STOP,38
219.0,11700.780594441962,803.2322887459146,-57289.4209372307,-53669.93590234946,-32903.4665707906,-30154.134947554467,821.5160157103558,-20086.328099528328,0.0,0.0,0.0,193.0,1.0,154.0,0.0,44.0,3.0,251.0,410.0,44.0,1019.0,1744252879.867614,0.0,2025-04-09 22:41:19.867,STOP,38
220.0,11671.142181294224,806.9650300699509,-57253.63579435775,-53676.68612917497,-32832.589189122824,-30080.53065306314,761.6356923145881,-20011.315645136314,0.0,0.0,0.0,193.0,1.0,155.0,0.0,44.0,3.0,252.0,411.0,44.0,1020.0,1744252879.8676229,0.0,2025-04-09 22:41:19.867,STOP,38
221.0,11629.366770907256,819.2808412648251,-57272.590073655854,-53671.54522795025,-32838.64651187021,-30090.0524962011,871.181591890048,-20005.370081111203,0.0,0.0,0.0,193.0,1.0,155.0,0.0,44.0,3.0,252.0,411.0,44.0,1020.0,1744252879.8676317,0.0,2025-04-09 22:41:19.867,STOP,38
222.0,11596.643817024687,788.0107507718504,-57281.10608829333,-53684.933922878976,-32866.899116861714,-30118.282749448153,825.606384945677,-20038.048331504862,0.0,0.0,0.0,193.0,1.0,154.0,0.0,45.0,3.0,249.0,410.0,45.0,1017.0,1744252879.8676405,0.0,2025-04-09 22:41:19.867,STOP,38
223.0,11698.008978129505,802.0923497786939,-57282.42484121619,-53650.55693990671,-32904.584158013364,-30156.280715022174,862.5538185302995,-20080.270776780937,0.0,0.0,0.0,193.0,1.0,154.0,0.0,44.0,3.0,249.0,410.0,44.0,1017.0,1744252879.8676493,0.0,2025-04-09 22:41:19.867,STOP,38
