Sample Index,EXG Channel 0,EXG Channel 1,EXG Channel 2,EXG Channel 3,EXG Channel 4,EXG Channel 5,EXG Channel 6,EXG Channel 7,Accel Channel 0,Accel Channel 1,Accel Channel 2,Not Used,Digital Channel 0 (D11),Digital Channel 1 (D12),Digital Channel 2 (D13),Digital Channel 3 (D17),Not Used,Digital Channel 4 (D18),Analog Channel 0,Analog Channel 1,Analog Channel 2,Timestamp,Marker Channel,Timestamp (Formatted),Stimulus_Direction,Stimulus_Number
112.0,7064.894683944546,-12920.045902734508,-21660.673220237877,-24039.94936227195,20935.2920574298,5959.265644462782,36239.352672022906,45863.11976469991,0.0,0.0,0.0,193.0,0.0,192.0,0.0,1.0,0.0,178.0,192.0,1.0,178.0,1744418774.053291,0.0,2025-04-11 20:46:14.053,STOP,31
113.0,7058.613843752604,-12905.249047905094,-21687.7188310288,-24012.501420080833,20809.608198357608,6241.612880422221,36000.47957902904,45985.674379548356,0.0,0.0,0.0,193.0,0.0,193.0,0.0,1.0,0.0,179.0,193.0,1.0,179.0,1744418774.0533376,0.0,2025-04-11 20:46:14.053,STOP,31
114.0,7079.557428307227,-12883.254931361073,-21648.603278232014,-24000.99027168635,20879.837379436183,6333.031515244426,35837.66947241658,46049.46625822381,0.0,0.0,0.0,193.0,0.0,192.0,0.0,1.0,0.0,178.0,192.0,1.0,178.0,1744418774.0533779,0.0,2025-04-11 20:46:14.053,STOP,31
115.0,7072.226056125886,-12913.295675909005,-21631.23597279024,-24034.89786802505,21044.748550027438,6146.8861874206295,36164.943714731184,46015.78217932966,0.0,0.0,0.0,193.0,0.0,193.0,0.0,1.0,0.0,179.0,193.0,1.0,179.0,1744418774.0534184,0.0,2025-04-11 20:46:14.053,STOP,31
116.0,7071.3319863476745,-12917.184879444228,-21667.75872323021,-24047.705417597943,20947.13848199111,5902.089882146106,36213.91638683276,45859.43172686479,0.0,0.0,0.0,193.0,0.0,192.0,0.0,1.0,0.0,179.0,192.0,1.0,179.0,1744418774.0534632,0.0,2025-04-11 20:46:14.053,STOP,31
117.0,7062.212474609909,-12906.79131827251,-21699.542903845657,-24025.711301053918,20824.36034969811,6131.105855835182,36006.78277096543,45933.75127717868,0.0,0.0,0.0,193.0,0.0,192.0,0.0,1.0,0.0,178.0,192.0,1.0,178.0,1744418774.053506,0.0,2025-04-11 20:46:14.053,STOP,31
118.0,7084.631274298582,-12879.566893525945,-21659.19800510383,-23998.933911196462,20841.50413769533,6311.327971378323,35822.470286186974,46032.97067081579,0.0,0.0,0.0,193.0,0.0,193.0,0.0,1.0,0.0,178.0,193.0,1.0,178.0,1744418774.0535939,0.0,2025-04-11 20:46:14.053,STOP,31
119.0,7066.951044434434,-12909.048844462497,-21629.112557066986,-24024.61606557561,21027.135375396654,6224.580851147277,36136.646406250766,46022.77827534417,0.0,0.0,0.0,193.0,0.0,192.0,0.0,1.0,0.0,178.0,192.0,1.0,178.0,1744418774.0536273,0.0,2025-04-11 20:46:14.053,STOP,31
120.0,7059.373803064085,-12916.111995710373,-21657.85690043651,-24042.385702417578,20969.24435725741,6003.008008361818,36284.36908535589,45876.93314277329,0.0,0.0,0.0,193.0,0.0,193.0,0.0,1.0,0.0,179.0,193.0,1.0,179.0,1744418774.053659,0.0,2025-04-11 20:46:14.053,STOP,31
121.0,7054.657584984016,-12901.628065303334,-21684.746049016245,-24022.827926019185,20842.577021429184,6165.795763229819,36099.85543487733,45914.95346009177,0.0,0.0,0.0,193.0,0.0,193.0,0.0,1.0,0.0,179.0,193.0,1.0,179.0,1744418774.0536923,0.0,2025-04-11 20:46:14.053,STOP,31
122.0,7070.504971802828,-12880.12568713733,-21661.276717338173,-23999.336242596655,20820.046463018236,6359.093649279314,35871.51001352191,46035.89874933944,0.0,0.0,0.0,193.0,0.0,193.0,0.0,1.0,0.0,178.0,193.0,1.0,178.0,1744418774.0537455,0.0,2025-04-11 20:46:14.053,STOP,31
123.0,7061.944253676445,-12904.243219404605,-21628.821984389066,-24021.017434718306,20983.68358417554,6249.279528770391,36106.449199491646,46047.63341517847,0.0,0.0,0.0,193.0,0.0,193.0,0.0,1.0,0.0,179.0,193.0,1.0,179.0,1744418774.0537784,0.0,2025-04-11 20:46:14.053,STOP,31
124.0,7053.405887294518,-12913.720359053656,-21659.063894637096,-24050.812310077228,20958.694333874504,5965.635891632544,36329.65371962234,45913.03121006861,0.0,0.0,0.0,193.0,0.0,192.0,0.0,1.0,0.0,178.0,192.0,1.0,178.0,1744418774.0538125,0.0,2025-04-11 20:46:14.053,STOP,31
125.0,7065.118201389098,-12888.105259907874,-21673.57017678859,-24010.199190401938,20835.98325681487,6055.512256087334,36160.09338618438,45892.1323290029,0.0,0.0,0.0,193.0,0.0,193.0,0.0,1.0,0.0,179.0,193.0,1.0,179.0,1744418774.0538447,0.0,2025-04-11 20:46:14.053,STOP,31
126.0,7073.410698582018,-12870.44738178818,-21667.870481952486,-23993.50243729382,20768.838616471126,6326.102474463281,35922.80726704685,46032.61304290451,0.0,0.0,0.0,193.0,0.0,193.0,0.0,1.0,0.0,178.0,193.0,1.0,178.0,1744418774.0538769,0.0,2025-04-11 20:46:14.053,STOP,31
127.0,7077.9704544509,-12885.914788951253,-21624.17282154236,-24003.247797876335,20943.830423811727,6311.663247545153,36063.35503618181,46076.69068297037,0.0,0.0,0.0,193.0,0.0,193.0,0.0,1.0,0.0,178.0,193.0,1.0,178.0,1744418774.0539105,0.0,2025-04-11 20:46:14.053,STOP,31
128.0,7065.609939767116,-12916.916658510765,-21639.684932194345,-24043.413882662524,21042.78159651537,6065.503485858856,36362.84606013847,45991.97757148476,0.0,0.0,0.0,193.0,0.0,192.0,0.0,1.0,0.0,179.0,192.0,1.0,179.0,1744418774.0539424,0.0,2025-04-11 20:46:14.053,STOP,31
129.0,7072.315463103708,-12898.543524568502,-21663.04250515014,-24013.686062536963,20934.19682195149,6040.223662879904,36230.97076785216,45927.82806489802,0.0,0.0,0.0,193.0,0.0,192.0,0.0,1.0,0.0,178.0,192.0,1.0,178.0,1744418774.053975,0.0,2025-04-11 20:46:14.053,STOP,31
130.0,7075.198838138443,-12879.432783059214,-21670.552691287125,-23987.35570756861,20833.390454458055,6325.230756429524,35971.19879379258,46048.102801812034,0.0,0.0,0.0,193.0,0.0,193.0,0.0,1.0,0.0,179.0,193.0,1.0,179.0,1744418774.0540082,0.0,2025-04-11 20:46:14.054,STOP,31
131.0,7066.124029889587,-12892.352091354382,-21633.359388513494,-24002.107858909116,20947.96549653596,6345.8167130728625,36011.38723032323,46093.72271224531,0.0,0.0,0.0,193.0,0.0,192.0,0.0,1.0,0.0,178.0,192.0,1.0,178.0,1744418774.05404,0.0,2025-04-11 20:46:14.054,STOP,31
132.0,7037.022058608778,-12936.005048275596,-21655.532319013157,-24062.971659060917,21015.177192113068,6104.239058999903,36380.30277255807,46035.58582491706,0.0,0.0,0.0,193.0,0.0,193.0,0.0,1.0,0.0,179.0,193.0,1.0,179.0,1744418774.0540717,0.0,2025-04-11 20:46:14.054,STOP,31
133.0,7047.236805824853,-12918.905963767287,-21692.68091829788,-24046.923106542006,20867.052181607745,5984.992502330841,36311.43704789127,45923.35771600696,0.0,0.0,0.0,193.0,0.0,193.0,0.0,1.0,0.0,179.0,193.0,1.0,179.0,1744418774.054119,0.0,2025-04-11 20:46:14.054,STOP,31
134.0,7053.741163461347,-12897.872972234843,-21707.969511505307,-24016.658844549518,20770.939680449927,6257.5273224744,36055.24135294454,46028.00858354671,0.0,0.0,0.0,193.0,0.0,192.0,0.0,1.0,0.0,178.0,192.0,1.0,178.0,1744418774.0541508,0.0,2025-04-11 20:46:14.054,STOP,31
135.0,7056.803352451725,-12901.806879258977,-21668.362220330506,-24021.46446960741,20878.786847446783,6336.093704234803,36000.01019239547,46090.03467441019,0.0,0.0,0.0,193.0,0.0,193.0,0.0,1.0,0.0,179.0,193.0,1.0,179.0,1744418774.0541825,0.0,2025-04-11 20:46:14.054,STOP,31
136.0,7032.574061462172,-12944.744580357621,-21670.262118609207,-24068.71605738593,21003.68839546304,6128.244832544903,36367.7857956631,46061.312682785116,0.0,0.0,0.0,193.0,0.0,192.0,0.0,1.0,0.0,178.0,192.0,1.0,178.0,1744418774.054214,0.0,2025-04-11 20:46:14.054,STOP,31
137.0,7044.174616834476,-12925.969115015163,-21697.173618933397,-24056.266135724323,20884.486542282884,5935.550443595701,36337.141554014874,45916.00399208117,0.0,0.0,0.0,193.0,0.0,193.0,0.0,1.0,0.0,179.0,193.0,1.0,179.0,1744418774.0542588,0.0,2025-04-11 20:46:14.054,STOP,31
138.0,7051.483637271362,-12894.45315533318,-21704.214418436815,-24014.84835324864,20793.246721416323,6232.381609962179,36100.05660057743,46011.69181009434,0.0,0.0,0.0,193.0,0.0,193.0,0.0,1.0,0.0,178.0,193.0,1.0,178.0,1744418774.0542903,0.0,2025-04-11 20:46:14.054,STOP,31
139.0,7061.228997853876,-12886.27241686254,-21670.6644500094,-24010.60152180213,20852.41178898952,6366.380317971745,35978.61957295174,46112.16290142094,0.0,0.0,0.0,193.0,0.0,192.0,0.0,1.0,0.0,178.0,192.0,1.0,178.0,1744418774.0543215,0.0,2025-04-11 20:46:14.054,STOP,31
140.0,7044.487541256851,-12918.056597477986,-21649.385589287947,-24047.839528064673,21031.65042777663,6230.23584249447,36336.20278074775,46100.94232570438,0.0,0.0,0.0,193.0,0.0,192.0,0.0,1.0,0.0,178.0,192.0,1.0,178.0,1744418774.0543537,0.0,2025-04-11 20:46:14.054,STOP,31
141.0,7045.336907546152,-12922.41518764677,-21681.281528625674,-24058.680124125498,20948.3454761917,6003.030360106273,36393.64676399789,45937.48401850272,0.0,0.0,0.0,193.0,0.0,192.0,0.0,1.0,0.0,178.0,192.0,1.0,178.0,1744418774.0543857,0.0,2025-04-11 20:46:14.054,STOP,31
142.0,7045.873349413079,-12903.46090834867,-21708.550656861145,-24024.392548131054,20800.466334875386,6205.224240448981,36165.21193566465,45978.79004225612,0.0,0.0,0.0,193.0,0.0,193.0,0.0,1.0,0.0,179.0,193.0,1.0,179.0,1744418774.054418,0.0,2025-04-11 20:46:14.054,STOP,31
143.0,7052.444762282939,-12888.105259907874,-21691.965662475308,-24015.630664304575,20783.858988745094,6366.983815072038,35976.69732292859,46080.44577603886,0.0,0.0,0.0,193.0,0.0,192.0,0.0,1.0,0.0,178.0,192.0,1.0,178.0,1744418774.0544517,0.0,2025-04-11 20:46:14.054,STOP,31
144.0,7031.367067261585,-12925.857356292887,-21667.7140197413,-24047.504251897844,20959.76721760836,6253.6604706836315,36278.42352133078,46095.66731401293,0.0,0.0,0.0,193.0,0.0,193.0,0.0,1.0,0.0,179.0,193.0,1.0,179.0,1744418774.054485,0.0,2025-04-11 20:46:14.054,STOP,31
145.0,7037.513796986795,-12927.824309804953,-21683.114371671007,-24056.646115380063,20927.133670703613,5988.8146506326975,36416.914929975865,45938.40044002538,0.0,0.0,0.0,193.0,0.0,192.0,0.0,1.0,0.0,178.0,192.0,1.0,178.0,1744418774.0545175,0.0,2025-04-11 20:46:14.054,STOP,31
146.0,7042.274718555775,-12906.83602176142,-21705.756688804235,-24018.782260272776,20808.043576245735,6120.756998152376,36214.47518044415,45936.83581791351,0.0,0.0,0.0,193.0,0.0,193.0,0.0,1.0,0.0,178.0,193.0,1.0,178.0,1744418774.0545506,0.0,2025-04-11 20:46:14.054,STOP,31
147.0,7048.399096536529,-12890.429841331226,-21685.081325183073,-24000.230312374868,20799.72872730836,6388.754414171507,35991.20360508008,46062.96671187481,0.0,0.0,0.0,193.0,0.0,193.0,0.0,1.0,0.0,178.0,193.0,1.0,178.0,1744418774.0545833,0.0,2025-04-11 20:46:14.054,STOP,31
148.0,7037.178520819965,-12920.69410332371,-21642.121272339973,-24022.671463807997,20970.227834013443,6332.53977686641,36225.78516313853,46101.232898382295,0.0,0.0,0.0,193.0,0.0,192.0,0.0,1.0,0.0,178.0,192.0,1.0,178.0,1744418774.0546305,0.0,2025-04-11 20:46:14.054,STOP,31
149.0,7028.707209671404,-12944.94574605772,-21671.826740721077,-24067.66552539653,20953.08404601622,6031.148854631049,36486.42885523187,45988.334237138544,0.0,0.0,0.0,193.0,0.0,192.0,0.0,1.0,0.0,178.0,192.0,1.0,178.0,1744418774.0546637,0.0,2025-04-11 20:46:14.054,STOP,31
150.0,7040.710096443903,-12916.626085832846,-21688.076458940086,-24025.577190587188,20844.36516098561,6086.067090757739,36328.24555972166,45945.91062616237,0.0,0.0,0.0,193.0,0.0,192.0,0.0,1.0,0.0,178.0,192.0,1.0,178.0,1744418774.054696,0.0,2025-04-11 20:46:14.054,STOP,31
151.0,7045.627480224071,-12898.320007123948,-21688.72465952929,-24000.811457730706,20774.62771828505,6378.338501255334,36079.69416137864,46067.79468867716,0.0,0.0,0.0,193.0,0.0,193.0,0.0,1.0,0.0,179.0,193.0,1.0,179.0,1744418774.054729,0.0,2025-04-11 20:46:14.054,STOP,31
152.0,7044.688706956948,-12918.45892887818,-21647.262173564694,-24014.580132315175,20916.605999065163,6357.484323678533,36197.48785465811,46104.89858447297,0.0,0.0,0.0,193.0,0.0,192.0,0.0,0.0,0.0,178.0,192.0,0.0,178.0,1744418774.054783,0.0,2025-04-11 20:46:14.054,STOP,31
153.0,7037.804369664714,-12935.647420364312,-21658.48274928126,-24051.773435088806,20974.42996197104,6096.080672273716,36501.60568971702,46000.29242042213,0.0,0.0,0.0,193.0,0.0,193.0,0.0,1.0,0.0,179.0,193.0,1.0,179.0,1744418774.054816,0.0,2025-04-11 20:46:14.054,STOP,31
154.0,7029.713038171893,-12925.835004548431,-21690.512799085715,-24028.438213877467,20875.32232705621,6069.862076027641,36385.734246460706,45921.502521217175,0.0,0.0,0.0,193.0,0.0,192.0,0.0,0.0,0.0,178.0,192.0,0.0,178.0,1744418774.0548608,0.0,2025-04-11 20:46:14.054,STOP,31
155.0,7028.81896839368,-12909.339417140416,-21702.783906791676,-24003.113687409605,20776.97465145286,6354.1539137546915,36132.06429863743,46063.88313339748,0.0,0.0,0.0,193.0,0.0,193.0,0.0,0.0,0.0,179.0,193.0,0.0,179.0,1744418774.0548952,0.0,2025-04-11 20:46:14.054,STOP,31
156.0,7041.782980177758,-12905.450213605192,-21655.174691101874,-23996.050536161725,20882.094905626167,6382.540629212932,36135.14883937226,46104.02686643921,0.0,0.0,0.0,193.0,0.0,192.0,0.0,1.0,0.0,178.0,192.0,1.0,178.0,1744418774.054931,0.0,2025-04-11 20:46:14.054,STOP,31
157.0,7016.793729876725,-12944.431655935246,-21663.780112717166,-24042.966847773416,20964.19286301051,6177.7092430244975,36510.12170435449,46058.11638332801,0.0,0.0,0.0,193.0,0.0,193.0,0.0,0.0,0.0,179.0,193.0,0.0,179.0,1744418774.0549712,0.0,2025-04-11 20:46:14.054,STOP,31
158.0,7024.661543924993,-12933.479301152147,-21690.602206063537,-24031.94743775695,20834.999780058835,6031.417075564513,36441.74771806571,45943.49663776119,0.0,0.0,0.0,193.0,0.0,192.0,0.0,1.0,0.0,178.0,192.0,1.0,178.0,1744418774.055033,0.0,2025-04-11 20:46:14.055,STOP,31
159.0,7032.5293579732615,-12909.831155518432,-21709.891761528466,-24007.33816711166,20708.600665164075,6275.162848849636,36182.713351573155,46059.1222118285,0.0,0.0,0.0,193.0,0.0,192.0,0.0,0.0,0.0,178.0,192.0,0.0,178.0,1744418774.0550992,0.0,2025-04-11 20:46:14.055,STOP,31
160.0,7043.481712756362,-12898.007082701575,-21667.266984852195,-24006.198228144436,20769.509168804787,6337.121884479748,36102.98467910107,46146.539884393205,0.0,0.0,0.0,193.0,0.0,193.0,0.0,0.0,0.0,179.0,193.0,0.0,179.0,1744418774.0551794,0.0,2025-04-11 20:46:14.055,STOP,31
161.0,7008.925915828457,-12950.623089149367,-21662.327249327573,-24062.904603827552,20985.739944665427,6182.291350637835,36477.21993651628,46129.91018651846,0.0,0.0,0.0,193.0,0.0,193.0,0.0,0.0,0.0,179.0,193.0,0.0,179.0,1744418774.0552485,0.0,2025-04-11 20:46:14.055,STOP,31
162.0,7010.155261773499,-12946.398609447315,-21691.29511014165,-24059.440083436977,20905.877161726614,5989.306389010714,36467.56398291159,45978.34300736702,0.0,0.0,0.0,193.0,0.0,193.0,0.0,0.0,0.0,179.0,193.0,0.0,179.0,1744418774.055306,0.0,2025-04-11 20:46:14.055,STOP,31
163.0,7021.420540978974,-12915.93318175473,-21706.091964971063,-24013.88722823706,20774.67242177396,6227.7771506043855,36210.809494353474,46028.92500506938,0.0,0.0,0.0,193.0,0.0,192.0,0.0,0.0,0.0,178.0,192.0,0.0,178.0,1744418774.0553963,0.0,2025-04-11 20:46:14.055,STOP,31
164.0,7052.802390194224,-12886.093602906896,-21667.19992961883,-23984.360573811602,20802.545047109732,6370.895370351716,36036.242370157524,46090.481709299296,0.0,0.0,0.0,193.0,0.0,193.0,0.0,0.0,0.0,179.0,193.0,0.0,179.0,1744418774.0554328,0.0,2025-04-11 20:46:14.055,STOP,31
165.0,7045.515721501794,-12912.625123575346,-21652.783054445157,-24023.297312652747,20989.092706333722,6234.929708830084,36377.73232194571,46067.7723369327,0.0,0.0,0.0,193.0,0.0,193.0,0.0,0.0,0.0,178.0,193.0,0.0,178.0,1744418774.0554678,0.0,2025-04-11 20:46:14.055,STOP,31
166.0,7034.183387062953,-12927.153757471295,-21688.657604295924,-24048.62183912061,20911.487449584896,5984.433708719458,36483.07609356357,45930.46557074375,0.0,0.0,0.0,193.0,0.0,193.0,0.0,0.0,0.0,179.0,193.0,0.0,179.0,1744418774.0555017,0.0,2025-04-11 20:46:14.055,STOP,31
167.0,7024.169805546976,-12912.848641019898,-21700.638139323968,-24001.660824020008,20754.98053490884,6186.694644295531,36282.58094579947,45990.14472843942,0.0,0.0,0.0,193.0,0.0,192.0,0.0,0.0,0.0,178.0,192.0,0.0,178.0,1744418774.055557,0.0,2025-04-11 20:46:14.055,STOP,31
168.0,7026.62849743706,-12896.911847223264,-21677.995822190744,-23986.57339651268,20731.91353463096,6395.415234019189,36080.498824179034,46105.859709484546,0.0,0.0,0.0,193.0,0.0,193.0,0.0,0.0,0.0,179.0,193.0,0.0,179.0,1744418774.0555923,0.0,2025-04-11 20:46:14.055,STOP,31
169.0,7029.578927705161,-12912.915696253265,-21645.742254941735,-24023.073795208194,20937.1919557085,6267.563255734833,36341.58955116148,46111.24647989828,0.0,0.0,0.0,193.0,0.0,193.0,0.0,0.0,0.0,179.0,193.0,0.0,179.0,1744418774.055625,0.0,2025-04-11 20:46:14.055,STOP,31
170.0,7034.697477185426,-12915.262629421071,-21673.8160459776,-24045.13496698558,20920.785775278306,5988.434670976958,36522.70573648283,45972.039815430624,0.0,0.0,0.0,193.0,0.0,193.0,0.0,0.0,0.0,179.0,193.0,0.0,179.0,1744418774.0556571,0.0,2025-04-11 20:46:14.055,STOP,31
171.0,7035.815064408192,-12895.50368732258,-21699.565255590114,-24009.282768879268,20772.526654306253,6134.21274831447,36340.226094749705,45985.316751637074,0.0,0.0,0.0,193.0,0.0,193.0,0.0,0.0,0.0,178.0,193.0,0.0,178.0,1744418774.05569,0.0,2025-04-11 20:46:14.055,STOP,31
172.0,7051.662451227004,-12865.798218941478,-21675.112447156007,-23986.79691395723,20742.1953370804,6386.206315303602,36091.85351036233,46111.31353513164,0.0,0.0,0.0,193.0,0.0,193.0,0.0,0.0,0.0,179.0,193.0,0.0,179.0,1744418774.055722,0.0,2025-04-11 20:46:14.055,STOP,31
173.0,7046.521550002283,-12892.486201821113,-21634.074644336062,-24007.025242689284,20935.560278363264,6319.82163427134,36282.536242310554,46145.53405589271,0.0,0.0,0.0,193.0,0.0,193.0,0.0,0.0,0.0,179.0,193.0,0.0,179.0,1744418774.0557551,0.0,2025-04-11 20:46:14.055,STOP,31
174.0,7035.77036091928,-12919.688274823222,-21660.025019648674,-24037.825946548695,20962.67294438755,6053.031212452795,36539.44719307985,46026.30985096811,0.0,0.0,0.0,193.0,0.0,193.0,0.0,0.0,0.0,178.0,193.0,0.0,178.0,1744418774.0557876,0.0,2025-04-11 20:46:14.055,STOP,31
175.0,7037.759666175803,-12903.304446137483,-21684.23195889377,-23997.391640829046,20828.271904977788,6108.7317596354205,36395.54666227659,45980.95816146829,0.0,0.0,0.0,193.0,0.0,192.0,0.0,0.0,0.0,178.0,192.0,0.0,178.0,1744418774.0558195,0.0,2025-04-11 20:46:14.055,STOP,31
176.0,7047.7955994362355,-12883.679614505723,-21683.18142690437,-23970.36838178258,20762.378962323543,6385.960446114594,36141.8320109644,46108.51956707473,0.0,0.0,0.0,193.0,0.0,193.0,0.0,0.0,0.0,179.0,193.0,0.0,179.0,1744418774.0558531,0.0,2025-04-11 20:46:14.055,STOP,31
177.0,7035.926823130468,-12910.367597385359,-21652.5595370006,-24001.12438215308,20911.487449584896,6363.11696328127,36244.89590464782,46156.50876242027,0.0,0.0,0.0,193.0,0.0,193.0,0.0,0.0,0.0,179.0,193.0,0.0,179.0,1744418774.0558848,0.0,2025-04-11 20:46:14.055,STOP,31
178.0,7021.644058423527,-12935.714475597677,-21664.9647551733,-24051.438158921977,20976.598081183205,6069.303282416258,36574.137100474494,46065.82773516509,0.0,0.0,0.0,193.0,0.0,193.0,0.0,0.0,0.0,179.0,193.0,0.0,179.0,1744418774.0559373,0.0,2025-04-11 20:46:14.055,STOP,31
179.0,7034.652773696515,-12910.188783429718,-21681.99678444824,-24022.738519041362,20836.206774259423,6011.054636365729,36458.13154675145,45965.78132698314,0.0,0.0,0.0,193.0,0.0,193.0,0.0,0.0,0.0,179.0,193.0,0.0,179.0,1744418774.0559692,0.0,2025-04-11 20:46:14.055,STOP,31
180.0,7047.259157569309,-12883.545504038992,-21687.025926950686,-23991.110800637103,20716.826107123627,6313.406683612667,36197.62196512485,46074.00847363573,0.0,0.0,0.0,193.0,0.0,193.0,0.0,0.0,0.0,179.0,193.0,0.0,179.0,1744418774.0560007,0.0,2025-04-11 20:46:14.056,STOP,31
181.0,7044.5098930013055,-12895.011948944564,-21655.085284124052,-24006.75702175582,20833.792785858248,6367.8331813613395,36196.750247091084,46121.863558514546,0.0,0.0,0.0,193.0,0.0,193.0,0.0,0.0,0.0,178.0,193.0,0.0,178.0,1744418774.0560317,0.0,2025-04-11 20:46:14.056,STOP,31
182.0,7022.515776457283,-12934.641591863823,-21661.611993505,-24058.613068892133,20956.77208385135,6140.761809439875,36574.204155707856,46071.75094744575,0.0,0.0,0.0,193.0,0.0,193.0,0.0,0.0,0.0,179.0,193.0,0.0,179.0,1744418774.05608,0.0,2025-04-11 20:46:14.056,STOP,31
183.0,7021.934631101446,-12933.166376729772,-21693.68674679837,-24053.785092089784,20835.804442859226,6007.277191552782,36554.1769926759,45960.23809435822,0.0,0.0,0.0,193.0,0.0,193.0,0.0,0.0,0.0,178.0,193.0,0.0,178.0,1744418774.056111,0.0,2025-04-11 20:46:14.056,STOP,31
184.0,7020.302953756208,-12910.50170785209,-21715.077366242098,-24035.61312384762,20724.53745896071,6273.374709293212,36315.46036189322,46075.863668425525,0.0,0.0,0.0,193.0,0.0,193.0,0.0,0.0,0.0,179.0,193.0,0.0,179.0,1744418774.0561428,0.0,2025-04-11 20:46:14.056,STOP,31
185.0,7034.049276596222,-12895.906018722775,-21673.167845388394,-24018.670501550496,20783.30019513371,6386.921571126172,36215.65982290028,46154.586512397116,0.0,0.0,0.0,193.0,0.0,193.0,0.0,0.0,0.0,179.0,193.0,0.0,179.0,1744418774.0561745,0.0,2025-04-11 20:46:14.056,STOP,31
186.0,7013.2845059972415,-12939.558975643991,-21667.177577874372,-24065.028019550806,20942.466967399952,6209.225202706481,36583.4354261679,46136.86157904406,0.0,0.0,0.0,193.0,0.0,193.0,0.0,0.0,0.0,179.0,193.0,0.0,179.0,1744418774.0562053,0.0,2025-04-11 20:46:14.056,STOP,31
187.0,7012.032808307745,-12939.000182032607,-21695.67605205489,-24069.364257975132,20854.89283262406,5976.789412115742,36607.99999332428,45990.6588185619,0.0,0.0,0.0,193.0,0.0,193.0,0.0,0.0,0.0,179.0,193.0,0.0,179.0,1744418774.0562365,0.0,2025-04-11 20:46:14.056,STOP,31
188.0,7009.127081528554,-12923.823347547454,-21716.53022963169,-24038.116519226616,20743.268220814254,6217.0930167547485,36383.566127248545,46065.872438654,0.0,0.0,0.0,193.0,0.0,193.0,0.0,0.0,0.0,178.0,193.0,0.0,178.0,1744418774.0562673,0.0,2025-04-11 20:46:14.056,STOP,31
189.0,7033.8257591516685,-12905.6960827942,-21678.219339635296,-24020.86097250712,20775.767657252272,6378.427908233155,36196.05734301297,46138.82853255612,0.0,0.0,0.0,193.0,0.0,193.0,0.0,0.0,0.0,179.0,193.0,0.0,179.0,1744418774.0562985,0.0,2025-04-11 20:46:14.056,STOP,31
190.0,7031.948212617423,-12928.27134469406,-21642.344789784525,-24046.76664433082,20967.00918281188,6251.7829241493855,36509.473503765286,46125.84216902759,0.0,0.0,0.0,193.0,0.0,193.0,0.0,0.0,0.0,178.0,193.0,0.0,178.0,1744418774.0563293,0.0,2025-04-11 20:46:14.056,STOP,31
191.0,7021.822872379169,-12932.629934862845,-21675.179502389372,-24056.489653168876,20911.19687690698,5996.928333869974,36627.267197044755,45980.53347832364,0.0,0.0,0.0,193.0,0.0,193.0,0.0,0.0,0.0,179.0,193.0,0.0,179.0,1744418774.05636,0.0,2025-04-11 20:46:14.056,STOP,31
192.0,7013.932706586445,-12913.36273114237,-21708.05891848313,-24030.829850534185,20771.900805461504,6164.6781760070535,36424.89450274641,46017.413856674895,0.0,0.0,0.0,193.0,0.0,192.0,0.0,0.0,0.0,178.0,192.0,0.0,178.0,1744418774.0563908,0.0,2025-04-11 20:46:14.056,STOP,31
193.0,7029.042485838233,-12895.660149533767,-21685.841284494556,-24015.474202093388,20730.885354386017,6369.196637773113,36198.11370350286,46129.552558607174,0.0,0.0,0.0,193.0,0.0,192.0,0.0,0.0,0.0,178.0,192.0,0.0,178.0,1744418774.0564215,0.0,2025-04-11 20:46:14.056,STOP,31
194.0,7032.171730061977,-12913.921524753754,-21638.81321416059,-24030.673388322997,20910.52632457332,6267.876180157206,36429.52131384866,46138.761477322754,0.0,0.0,0.0,193.0,0.0,193.0,0.0,0.0,0.0,179.0,193.0,0.0,179.0,1744418774.0564668,0.0,2025-04-11 20:46:14.056,STOP,31
195.0,7021.2640787677865,-12927.667847593768,-21666.462322051804,-24069.610127164142,20913.05207169677,5981.148002284527,36615.82310388364,46007.981420514756,0.0,0.0,0.0,193.0,0.0,192.0,0.0,0.0,0.0,179.0,192.0,0.0,179.0,1744418774.056498,0.0,2025-04-11 20:46:14.056,STOP,31
196.0,7014.804424620203,-12913.630952075835,-21698.939406745365,-24046.252554208346,20787.39056436903,6083.6083988676555,36434.103421461994,45999.53246111065,0.0,0.0,0.0,193.0,0.0,193.0,0.0,0.0,0.0,179.0,193.0,0.0,179.0,1744418774.0565288,0.0,2025-04-11 20:46:14.056,STOP,31
197.0,7036.284451041753,-12887.814687229955,-21688.836418251565,-24020.101013195635,20727.2420200398,6328.225890186535,36174.91259275825,46116.74500903428,0.0,0.0,0.0,193.0,0.0,192.0,0.0,0.0,0.0,178.0,192.0,0.0,178.0,1744418774.0565748,0.0,2025-04-11 20:46:14.056,STOP,31
198.0,7040.799503421725,-12905.539620583013,-21650.34671429953,-24028.32645515519,20875.70230671195,6266.602130723254,36329.4749056667,46147.21043672686,0.0,0.0,0.0,193.0,0.0,193.0,0.0,0.0,0.0,179.0,193.0,0.0,179.0,1744418774.0566068,0.0,2025-04-11 20:46:14.056,STOP,31
199.0,7032.730523673359,-12928.22664120515,-21679.04635418014,-24073.991069077383,20862.738294927873,6005.086720596161,36621.23222604182,46039.13975228545,0.0,0.0,0.0,193.0,0.0,193.0,0.0,0.0,0.0,179.0,193.0,0.0,179.0,1744418774.056638,0.0,2025-04-11 20:46:14.056,STOP,31
200.0,7029.780093405258,-12914.592077087413,-21709.53413361718,-24054.52269965681,20723.084595571112,6034.747485488354,36489.066361077596,45979.75116726771,0.0,0.0,0.0,193.0,0.0,193.0,0.0,0.0,0.0,178.0,193.0,0.0,178.0,1744418774.0566692,0.0,2025-04-11 20:46:14.056,STOP,31
201.0,7033.468131240384,-12898.342358868404,-21707.544828360657,-24029.779318544784,20681.57740611761,6323.643782573197,36228.75794515109,46101.90345071596,0.0,0.0,0.0,193.0,0.0,193.0,0.0,0.0,0.0,179.0,193.0,0.0,179.0,1744418774.5315716,0.0,2025-04-11 20:46:14.531,STOP,31
202.0,7037.938480131445,-12906.143117683307,-21658.14747311443,-24026.56066734322,20857.3738762586,6322.548547094888,36294.47207384969,46144.014137269754,0.0,0.0,0.0,193.0,0.0,192.0,0.0,0.0,0.0,178.0,192.0,0.0,178.0,1744418774.531731,0.0,2025-04-11 20:46:14.531,STOP,31
203.0,7008.188308261431,-12951.94184207223,-21679.49338906925,-24075.399228978065,20939.51653713185,6093.085538516705,36654.91630493597,46086.79367146417,0.0,0.0,0.0,193.0,0.0,193.0,0.0,0.0,0.0,179.0,193.0,0.0,179.0,1744418774.5317693,0.0,2025-04-11 20:46:14.531,STOP,31
204.0,7009.752930373304,-12938.03905702103,-21704.34852890355,-24052.354580444644,20790.16218068149,6010.674656709988,36562.55889684664,45992.13403369594,0.0,0.0,0.0,193.0,0.0,192.0,0.0,0.0,0.0,178.0,192.0,0.0,178.0,1744418774.531806,0.0,2025-04-11 20:46:14.531,STOP,31
205.0,7014.737369386837,-12913.07215846445,-21712.19399120736,-24026.583019087677,20703.504467428265,6275.296959316369,36308.86659727891,46107.64784904097,0.0,0.0,0.0,193.0,0.0,193.0,0.0,0.0,0.0,179.0,193.0,0.0,179.0,1744418774.5318477,0.0,2025-04-11 20:46:14.531,STOP,31
206.0,7030.472997483373,-12904.93612348272,-21669.502159297725,-24023.073795208194,20800.242817430833,6307.461119587555,36276.948306196726,46165.65062590249,0.0,0.0,0.0,193.0,0.0,193.0,0.0,0.0,0.0,179.0,193.0,0.0,179.0,1744418774.5318832,0.0,2025-04-11 20:46:14.531,STOP,31
207.0,7015.474976953862,-12934.730998841644,-21668.317516841595,-24063.99983930586,20933.682731829016,6099.321675219736,36642.13110710753,46108.65367754146,0.0,0.0,0.0,193.0,0.0,193.0,0.0,0.0,0.0,179.0,193.0,0.0,179.0,1744418774.5319183,0.0,2025-04-11 20:46:14.531,STOP,31
208.0,7008.568287917172,-12934.865109308375,-21699.900531756943,-24053.740388600876,20821.96871304139,5980.835077862153,36612.04565907069,45958.87463794645,0.0,0.0,0.0,193.0,0.0,193.0,0.0,0.0,0.0,179.0,193.0,0.0,179.0,1744418774.531954,0.0,2025-04-11 20:46:14.531,STOP,31
209.0,7005.5284506712505,-12924.046864992008,-21718.094851743565,-24026.65007432104,20703.258598239256,6269.753726691452,36368.38929276339,46054.048365837145,0.0,0.0,0.0,193.0,0.0,193.0,0.0,0.0,0.0,178.0,193.0,0.0,178.0,1744418774.5320392,0.0,2025-04-11 20:46:14.532,STOP,31
210.0,7032.842282395635,-12900.309312380472,-21661.09790338253,-24002.17491414248,20774.091276418123,6379.9254751116605,36244.0018348696,46124.858692271555,0.0,0.0,0.0,193.0,0.0,193.0,0.0,0.0,0.0,179.0,193.0,0.0,179.0,1744418774.5320916,0.0,2025-04-11 20:46:14.532,STOP,31
211.0,7005.751968115803,-12949.28198448205,-21656.269926580182,-24049.6276676211,20935.60498185217,6219.194080733548,36625.43435399942,46119.53897709119,0.0,0.0,0.0,193.0,0.0,193.0,0.0,0.0,0.0,179.0,193.0,0.0,179.0,1744418774.5321312,0.0,2025-04-11 20:46:14.532,STOP,31
212.0,7008.031846050245,-12951.315993227481,-21691.496275841746,-24068.313725985736,20833.74808236934,5949.27441469126,36675.32344762367,45972.24098113072,0.0,0.0,0.0,193.0,0.0,193.0,0.0,0.0,0.0,178.0,193.0,0.0,178.0,1744418774.5321715,0.0,2025-04-11 20:46:14.532,STOP,31
213.0,7004.723787870859,-12938.553147143502,-21721.894648300964,-24045.984333274882,20696.79894409167,6137.632565216132,36460.187907241336,46045.91233085541,0.0,0.0,0.0,193.0,0.0,193.0,0.0,0.0,0.0,179.0,193.0,0.0,179.0,1744418774.5322938,0.0,2025-04-11 20:46:14.532,STOP,31
214.0,7027.410808492996,-12914.525021854046,-21688.210569406816,-24019.832792262172,20685.556016630653,6311.663247545153,36275.71896025169,46151.97135829584,0.0,0.0,0.0,193.0,0.0,192.0,0.0,0.0,0.0,178.0,192.0,0.0,178.0,1744418774.5323415,0.0,2025-04-11 20:46:14.532,STOP,31
215.0,7011.205793762898,-12943.045847779018,-21661.00849640471,-24045.224373963403,20852.925879111994,6223.530319157877,36586.25174596927,46149.24444547229,0.0,0.0,0.0,193.0,0.0,193.0,0.0,0.0,0.0,179.0,193.0,0.0,179.0,1744418774.5323834,0.0,2025-04-11 20:46:14.532,STOP,31
216.0,7005.7072646268925,-12952.99237406163,-21688.456438595826,-24064.62568815061,20823.734500853363,5976.6105981601,36718.417610933495,45989.09419645002,0.0,0.0,0.0,193.0,0.0,193.0,0.0,0.0,0.0,179.0,193.0,0.0,179.0,1744418774.5324235,0.0,2025-04-11 20:46:14.532,STOP,31
217.0,7009.1047297841,-12930.7523883286,-21714.362110419526,-24027.499440610343,20703.01272905025,6160.610158516188,36528.360727830026,46009.791911815635,0.0,0.0,0.0,193.0,0.0,192.0,0.0,0.0,0.0,178.0,192.0,0.0,178.0,1744418774.532464,0.0,2025-04-11 20:46:14.532,STOP,31
218.0,7007.696569883415,-12919.352998656394,-21703.476810869794,-24028.90760051103,20643.93706845487,6365.977986571549,36314.834513048474,46123.1376079485,0.0,0.0,0.0,193.0,0.0,193.0,0.0,0.0,0.0,179.0,193.0,0.0,179.0,1744418774.5325036,0.0,2025-04-11 20:46:14.532,STOP,31
219.0,6995.514869155272,-12951.22658624966,-21665.411790062404,-24059.395379948066,20822.013416530302,6238.014249564916,36552.724129286304,46128.27850917322,0.0,0.0,0.0,193.0,0.0,192.0,0.0,0.0,0.0,178.0,192.0,0.0,178.0,1744418774.532538,0.0,2025-04-11 20:46:14.532,STOP,31
220.0,6986.596523117605,-12974.22653129417,-21696.458363110825,-24090.19608380748,20810.301102435722,5953.588301371134,36778.94613491847,46000.31477216659,0.0,0.0,0.0,193.0,0.0,193.0,0.0,0.0,0.0,179.0,193.0,0.0,179.0,1744418774.532575,0.0,2025-04-11 20:46:14.532,STOP,31
221.0,6991.871534809057,-12953.081781039451,-21711.456383640336,-24050.007647276838,20732.405273008975,6054.551131075756,36600.60156590957,45977.02425444416,0.0,0.0,0.0,193.0,0.0,193.0,0.0,0.0,0.0,179.0,193.0,0.0,179.0,1744418774.53261,0.0,2025-04-11 20:46:14.532,STOP,31
222.0,6996.900677311502,-12939.08958901043,-21704.34852890355,-24030.606333089632,20706.834877352107,6330.326954165334,36353.97241758971,46121.39417188099,0.0,0.0,0.0,193.0,0.0,192.0,0.0,0.0,0.0,178.0,192.0,0.0,178.0,1744418774.5326452,0.0,2025-04-11 20:46:14.532,STOP,31
223.0,6998.308837212186,-12957.08274329695,-21670.977374431775,-24046.230202463892,20863.162978072523,6296.821689226829,36482.494948207735,46148.88681756101,0.0,0.0,0.0,193.0,0.0,193.0,0.0,0.0,0.0,179.0,193.0,0.0,179.0,1744418774.5326836,0.0,2025-04-11 20:46:14.532,STOP,31
224.0,7002.466261680873,-12964.727039900667,-21690.222226407794,-24088.497351228878,20898.18816163399,6031.551186031245,36775.16869010552,46031.02606904818,0.0,0.0,0.0,193.0,0.0,192.0,0.0,0.0,0.0,178.0,192.0,0.0,178.0,1744418774.532817,0.0,2025-04-11 20:46:14.532,STOP,31
225.0,7007.137776272032,-12944.99044954663,-21699.095868956552,-24048.66654260952,20769.10683740459,6032.177034875994,36639.96298789537,45954.58310301103,0.0,0.0,0.0,193.0,0.0,193.0,0.0,0.0,0.0,179.0,193.0,0.0,179.0,1744418774.5328593,0.0,2025-04-11 20:46:14.532,STOP,31
226.0,6987.2223719623535,-12950.958365316197,-21689.842246752054,-24016.547085827242,20686.070106753126,6325.610736085265,36386.27068832763,46086.86072669754,0.0,0.0,0.0,193.0,0.0,193.0,0.0,0.0,0.0,178.0,193.0,0.0,178.0,1744418774.532906,0.0,2025-04-11 20:46:14.532,STOP,31
227.0,6987.021206262256,-12963.274176511071,-21644.51290899669,-24022.537353341264,20799.63932033054,6316.4688726030445,36416.93728172032,46137.95681452237,0.0,0.0,0.0,193.0,0.0,193.0,0.0,0.0,0.0,179.0,193.0,0.0,179.0,1744418774.53295,0.0,2025-04-11 20:46:14.532,STOP,31
228.0,6955.058211691166,-13009.855211955932,-21659.265060337195,-24079.735467402395,20891.79556271977,6054.059392697739,36777.783844206795,46085.89960168596,0.0,0.0,0.0,193.0,0.0,193.0,0.0,0.0,0.0,178.0,193.0,0.0,178.0,1744418774.5330431,0.0,2025-04-11 20:46:14.533,STOP,31
229.0,6956.533426825217,-12996.95825540522,-21676.900586712432,-24052.488690911377,20780.34976486561,5957.544560139723,36695.37296240008,45969.06703341807,0.0,0.0,0.0,193.0,0.0,193.0,0.0,0.0,0.0,179.0,193.0,0.0,179.0,1744418774.5330863,0.0,2025-04-11 20:46:14.533,STOP,31
230.0,6968.245740919798,-12967.610414935401,-21682.175598403883,-24009.99802470184,20648.675638279397,6289.445613556578,36442.440622143826,46080.49047952777,0.0,0.0,0.0,193.0,0.0,193.0,0.0,0.0,0.0,179.0,193.0,0.0,179.0,1744418774.533131,0.0,2025-04-11 20:46:14.533,STOP,31
231.0,6964.892979251502,-12979.300377285526,-21652.023095133674,-24016.3682718716,20696.016633035735,6372.7058616525965,36398.452389055776,46151.25610247327,0.0,0.0,0.0,193.0,0.0,193.0,0.0,0.0,0.0,179.0,193.0,0.0,179.0,1744418774.533168,0.0,2025-04-11 20:46:14.533,STOP,31
232.0,6944.999926686279,-13020.606401038935,-21648.04448462063,-24069.833644608694,20839.000742316337,6148.316699065769,36763.098748099655,46090.816985466125,0.0,0.0,0.0,193.0,0.0,193.0,0.0,0.0,0.0,179.0,193.0,0.0,179.0,1744418774.5332134,0.0,2025-04-11 20:46:14.533,STOP,31
233.0,6962.94837748389,-13002.210915352216,-21672.89962445493,-24061.965830560428,20764.01063966878,5940.825455287154,36749.821811893205,45936.321727791044,0.0,0.0,0.0,193.0,0.0,193.0,0.0,0.0,0.0,178.0,193.0,0.0,178.0,1744418774.5332556,0.0,2025-04-11 20:46:14.533,STOP,31
234.0,6972.939607255413,-12972.974833604674,-21694.558464832124,-24026.337149898667,20657.437522105876,6191.589676331244,36509.13822759846,46016.96682178579,0.0,0.0,0.0,193.0,0.0,193.0,0.0,0.0,0.0,179.0,193.0,0.0,179.0,1744418774.5332928,0.0,2025-04-11 20:46:14.533,STOP,31
235.0,6980.136868970021,-12960.323746242972,-21657.588679503046,-24015.98829221586,20738.462595756366,6325.63308782972,36370.80328116456,46098.66244776994,0.0,0.0,0.0,193.0,0.0,193.0,0.0,0.0,0.0,179.0,193.0,0.0,179.0,1744418774.53333,0.0,2025-04-11 20:46:14.533,STOP,31
236.0,6955.840522747103,-13005.116642131406,-21642.165975828884,-24056.981391546895,20929.793528293794,6185.8676297506845,36716.048326021235,46072.55561024614,0.0,0.0,0.0,193.0,0.0,193.0,0.0,0.0,0.0,178.0,193.0,0.0,178.0,1744418774.5333672,0.0,2025-04-11 20:46:14.533,STOP,31
237.0,6959.752078026781,-13006.636560754367,-21672.743162243743,-24062.4799206829,20854.64696343505,5967.044051533228,36781.44953029746,45913.47824495772,0.0,0.0,0.0,193.0,0.0,193.0,0.0,0.0,0.0,179.0,193.0,0.0,179.0,1744418774.5334027,0.0,2025-04-11 20:46:14.533,STOP,31
238.0,6956.779296014225,-12991.772650691588,-21703.253293425238,-24035.5237168698,20710.746432631782,6178.871533736174,36570.00202775026,45972.64331253091,0.0,0.0,0.0,193.0,0.0,192.0,0.0,0.0,0.0,178.0,192.0,0.0,178.0,1744418774.5334392,0.0,2025-04-11 20:46:14.533,STOP,31
239.0,6978.907523024979,-12963.542397444535,-21673.413714577404,-24020.123364940093,20690.920435299926,6336.943070524106,36372.524365487625,46069.0240346222,0.0,0.0,0.0,193.0,0.0,193.0,0.0,0.0,0.0,178.0,193.0,0.0,178.0,1744418774.53352,0.0,2025-04-11 20:46:14.533,STOP,31
240.0,6966.390546130007,-12995.6171507379,-21646.703379953313,-24053.360408945133,20857.060951836225,6188.5051355964115,36675.54696506822,46073.472031768804,0.0,0.0,0.0,193.0,0.0,193.0,0.0,0.0,0.0,179.0,193.0,0.0,179.0,1744418774.53356,0.0,2025-04-11 20:46:14.533,STOP,31
241.0,6961.137886183011,-13007.664740999311,-21681.95208095933,-24070.593603920177,20823.533335153264,5913.9139549629635,36834.51257163436,45934.4441812568,0.0,0.0,0.0,193.0,0.0,192.0,0.0,0.0,0.0,178.0,192.0,0.0,178.0,1744418774.5335958,0.0,2025-04-11 20:46:14.533,STOP,31
242.0,6961.2719966497425,-12987.816391923,-21707.947159760854,-24035.926048269994,20702.699804627875,6075.517067374834,36640.05239487319,45939.115695847955,0.0,0.0,0.0,193.0,0.0,193.0,0.0,0.0,0.0,179.0,193.0,0.0,179.0,1744418774.5336318,0.0,2025-04-11 20:46:14.533,STOP,31
243.0,6974.973616000845,-12960.346097987425,-21688.232921151273,-24014.870704993096,20659.85151050705,6345.079105505837,36397.55831927757,46056.95409261633,0.0,0.0,0.0,193.0,0.0,192.0,0.0,0.0,0.0,178.0,192.0,0.0,178.0,1744418774.5336993,0.0,2025-04-11 20:46:14.533,STOP,31
244.0,6967.7316507973255,-12986.072955855485,-21654.750007957224,-24040.888135539073,20820.13586999606,6300.375616595223,36608.15645553547,46088.60416276505,0.0,0.0,0.0,193.0,0.0,193.0,0.0,0.0,0.0,179.0,193.0,0.0,179.0,1744418774.5337436,0.0,2025-04-11 20:46:14.533,STOP,31
245.0,6969.810363031669,-13004.96017992022,-21674.33013610007,-24070.928880087005,20807.373023912078,6017.268421324304,36844.36969093915,45964.44022231582,0.0,0.0,0.0,193.0,0.0,192.0,0.0,0.0,0.0,178.0,192.0,0.0,178.0,1744418774.5337908,0.0,2025-04-11 20:46:14.533,STOP,31
246.0,6968.290444408709,-12996.801793194032,-21706.159020204428,-24045.55965013023,20713.361586733055,6065.257616669848,36688.086293707645,45927.33632652001,0.0,0.0,0.0,193.0,0.0,193.0,0.0,0.0,0.0,179.0,193.0,0.0,179.0,1744418774.533842,0.0,2025-04-11 20:46:14.533,STOP,31
247.0,6979.511020125273,-12971.276101026071,-21700.839305024067,-24023.09614695265,20639.04203641916,6317.899384248184,36418.05486894308,46044.951205843834,0.0,0.0,0.0,193.0,0.0,193.0,0.0,0.0,0.0,179.0,193.0,0.0,179.0,1744418774.5338862,0.0,2025-04-11 20:46:14.533,STOP,31
248.0,6982.036767248723,-12977.400479006825,-21645.898717152922,-24028.393510388556,20794.118439450078,6283.544753020376,36510.25581482123,46072.95794164633,0.0,0.0,0.0,193.0,0.0,192.0,0.0,0.0,0.0,178.0,192.0,0.0,178.0,1744418774.533926,0.0,2025-04-11 20:46:14.533,STOP,31
249.0,6952.152484911977,-13018.080653915484,-21673.48076981077,-24075.28747025579,20830.12709976758,6056.182808420994,36840.838115315215,45993.34102789653,0.0,0.0,0.0,193.0,0.0,193.0,0.0,0.0,0.0,179.0,193.0,0.0,179.0,1744418774.5339644,0.0,2025-04-11 20:46:14.533,STOP,31
250.0,6948.576205799128,-13004.33433107547,-21707.47777312729,-24057.67429562501,20689.534627143697,6005.444348507446,36727.78299186027,45918.216814782245,0.0,0.0,0.0,193.0,0.0,193.0,0.0,0.0,0.0,179.0,193.0,0.0,179.0,1744418774.5340035,0.0,2025-04-11 20:46:14.534,STOP,31
251.0,6953.650051790482,-12982.519028487091,-21706.024909737698,-24032.886211024073,20632.98471367177,6285.7128722325415,36473.822471359075,46054.24953153724,0.0,0.0,0.0,193.0,0.0,193.0,0.0,0.0,0.0,178.0,193.0,0.0,178.0,1744418774.5340433,0.0,2025-04-11 20:46:14.534,STOP,31
252.0,6958.612139059561,-12989.537476246058,-21664.942403428842,-24041.2234117059,20753.505319774787,6317.809977270363,36488.619326188484,46106.84318624058,0.0,0.0,0.0,193.0,0.0,192.0,0.0,0.0,0.0,178.0,192.0,0.0,178.0,1744418774.534081,0.0,2025-04-11 20:46:14.534,STOP,31
253.0,6955.28172913572,-13012.090386401462,-21664.540072028645,-24084.161112804548,20850.73540815537,6042.704706514443,36836.41246991306,46032.098952782035,0.0,0.0,0.0,193.0,0.0,192.0,0.0,0.0,0.0,178.0,192.0,0.0,178.0,1744418774.5341196,0.0,2025-04-11 20:46:14.534,STOP,31
254.0,6958.500380337284,-12999.394595550848,-21696.14543868845,-24068.29137424128,20716.0884995566,5914.204527640883,36778.208527351446,45899.262535484144,0.0,0.0,0.0,193.0,0.0,193.0,0.0,0.0,0.0,179.0,193.0,0.0,179.0,1744418774.534217,0.0,2025-04-11 20:46:14.534,STOP,31
255.0,6968.469258364351,-12971.47726672617,-21702.068650969108,-24026.717129554407,20637.075082907093,6236.986069319973,36527.48900979626,45997.38669364294,0.0,0.0,0.0,193.0,0.0,192.0,0.0,0.0,0.0,178.0,192.0,0.0,178.0,1744418774.534254,0.0,2025-04-11 20:46:14.534,STOP,31
0.0,6980.226275947843,-12966.962214346197,-21659.28741208165,-24018.84931550614,20723.039892082204,6359.093649279314,36453.817660071574,46074.187287591376,0.0,0.0,0.0,193.0,0.0,193.0,0.0,0.0,0.0,179.0,193.0,0.0,179.0,1744418774.5342927,0.0,2025-04-11 20:46:14.534,STOP,31
1.0,6962.434287361418,-13004.133165375373,-21648.603278232014,-24062.636382894085,20873.623594477605,6191.6790833090645,36824.16371395156,46047.81222913411,0.0,0.0,0.0,193.0,0.0,193.0,0.0,0.0,0.0,179.0,193.0,0.0,179.0,1744418774.5343273,0.0,2025-04-11 20:46:14.534,STOP,31
2.0,6965.340014140608,-12998.567581006,-21677.43702857936,-24060.021228792815,20780.238006143332,5980.119822039584,36821.10152496118,45895.17216624882,0.0,0.0,0.0,193.0,0.0,193.0,0.0,0.0,0.0,179.0,193.0,0.0,179.0,1744418774.5343828,0.0,2025-04-11 20:46:14.534,STOP,31
3.0,6968.2010374308875,-12977.623996451379,-21698.984110234276,-24022.69381555245,20652.296620881156,6248.631328181187,36588.82219658163,45977.89597247791,0.0,0.0,0.0,193.0,0.0,193.0,0.0,0.0,0.0,179.0,193.0,0.0,179.0,1744418774.534416,0.0,2025-04-11 20:46:14.534,STOP,31
4.0,6979.108688725078,-12970.404382992314,-21671.737333743255,-24016.815306760705,20669.529815856196,6398.365664287289,36433.477572617245,46080.334017316585,0.0,0.0,0.0,193.0,0.0,193.0,0.0,0.0,0.0,178.0,193.0,0.0,178.0,1744418774.534448,0.0,2025-04-11 20:46:14.534,STOP,31
5.0,6959.014470459756,-13013.900877702341,-21654.8617666795,-24062.301106727256,20834.93272482547,6223.060932524316,36767.59144873518,46079.775223705205,0.0,0.0,0.0,193.0,0.0,193.0,0.0,0.0,0.0,179.0,193.0,0.0,179.0,1744418774.5344794,0.0,2025-04-11 20:46:14.534,STOP,31
6.0,6963.864799006557,-13010.682226500778,-21676.922938456886,-24066.4808829404,20765.73172399184,5953.208321715394,36859.74769112441,45930.28675678811,0.0,0.0,0.0,193.0,0.0,193.0,0.0,0.0,0.0,178.0,193.0,0.0,178.0,1744418774.5345106,0.0,2025-04-11 20:46:14.534,STOP,31
7.0,6967.441078119407,-12981.110868586406,-21696.458363110825,-24019.497516095344,20619.730129209773,6170.6013882877105,36649.44012754442,45976.75603351069,0.0,0.0,0.0,193.0,0.0,192.0,0.0,0.0,0.0,178.0,192.0,0.0,178.0,1744418774.5345457,0.0,2025-04-11 20:46:14.534,STOP,31
8.0,6982.930837026935,-12961.08370555445,-21666.238804607252,-24002.957225198417,20629.676655492385,6391.8389549063395,36444.87696228945,46094.84029946808,0.0,0.0,0.0,193.0,0.0,193.0,0.0,0.0,0.0,178.0,193.0,0.0,178.0,1744418774.5345788,0.0,2025-04-11 20:46:14.534,STOP,31
9.0,6974.683043322926,-12994.052528626029,-21636.28746703714,-24032.75210055734,20841.25826850632,6282.829497197807,36715.51188415431,46113.258136899254,0.0,0.0,0.0,193.0,0.0,192.0,0.0,0.0,0.0,178.0,192.0,0.0,178.0,1744418774.5346117,0.0,2025-04-11 20:46:14.534,STOP,31
10.0,6968.849238020091,-13008.022368910595,-21666.462322051804,-24059.08245552569,20815.240837960344,5991.943894856441,36895.711647952994,45975.593742799014,0.0,0.0,0.0,193.0,0.0,193.0,0.0,0.0,0.0,179.0,193.0,0.0,179.0,1744418774.534644,0.0,2025-04-11 20:46:14.534,STOP,31
11.0,6962.031955961223,-12991.90676115832,-21689.708136285324,-24026.024225476292,20668.680449566895,6110.475195702934,36722.10564876862,45979.34883586751,0.0,0.0,0.0,193.0,0.0,192.0,0.0,0.0,0.0,178.0,192.0,0.0,178.0,1744418774.534676,0.0,2025-04-11 20:46:14.534,STOP,31
12.0,6974.4818776228285,-12969.510313214101,-21675.20185413383,-24004.521847310287,20620.244219332246,6348.320108451857,36485.87006162048,46108.45251184136,0.0,0.0,0.0,193.0,0.0,193.0,0.0,0.0,0.0,179.0,193.0,0.0,179.0,1744418774.5347075,0.0,2025-04-11 20:46:14.534,STOP,31
13.0,6973.0737177221445,-12989.246903568139,-21632.599429202015,-24026.38185338758,20802.098012220624,6255.873293384707,36668.237944631335,46146.91986404894,0.0,0.0,0.0,193.0,0.0,193.0,0.0,0.0,0.0,178.0,193.0,0.0,178.0,1744418774.5347593,0.0,2025-04-11 20:46:14.534,STOP,31
14.0,6967.28461590822,-13004.624903753389,-21648.178595087364,-24050.789958332774,20809.20586695741,6000.415206005002,36940.57159907479,46028.455618435815,0.0,0.0,0.0,193.0,0.0,192.0,0.0,0.0,0.0,178.0,192.0,0.0,178.0,1744418774.534794,0.0,2025-04-11 20:46:14.534,STOP,31
15.0,6977.365252657563,-12974.85238013892,-21664.182444117363,-24010.62387354659,20658.912737239927,6032.981697676385,36807.981050965915,45976.644274788414,0.0,0.0,0.0,193.0,0.0,193.0,0.0,0.0,0.0,179.0,193.0,0.0,179.0,1744418774.534848,0.0,2025-04-11 20:46:14.534,STOP,31
16.0,6972.470220621851,-12969.018574836085,-21672.877272710477,-23996.072887906183,20584.30261424811,6319.4640063600555,36559.36259738953,46103.758645505746,0.0,0.0,0.0,193.0,0.0,193.0,0.0,0.0,0.0,178.0,193.0,0.0,178.0,1744418774.5349057,0.0,2025-04-11 20:46:14.534,STOP,31
17.0,6959.148580926488,-13000.892162429353,-21638.321475782574,-24017.105879438626,20757.550985521197,6366.983815072038,36650.66947348946,46147.67982336043,0.0,0.0,0.0,193.0,0.0,192.0,0.0,0.0,0.0,178.0,192.0,0.0,178.0,1744418774.5357637,0.0,2025-04-11 20:46:14.535,STOP,31
18.0,6950.856083733569,-13025.590840052468,-21649.72086545478,-24058.43425493649,20833.368102713597,6107.301247990281,36981.40823619464,46054.83067689308,0.0,0.0,0.0,193.0,0.0,192.0,0.0,0.0,0.0,178.0,192.0,0.0,178.0,1744418774.5358253,0.0,2025-04-11 20:46:14.535,STOP,31
19.0,6956.3993163584855,-13008.983493922175,-21673.95015644433,-24029.71226331142,20719.977703091827,6033.585194776678,36868.241354017424,45954.426640799844,0.0,0.0,0.0,193.0,0.0,192.0,0.0,0.0,0.0,178.0,192.0,0.0,178.0,1744418774.5358884,0.0,2025-04-11 20:46:14.535,STOP,31
20.0,6970.682081065426,-12981.222627308684,-21681.32623211458,-23996.877550706573,20593.086849819047,6318.860509259762,36606.10009504558,46079.015264393725,0.0,0.0,0.0,193.0,0.0,193.0,0.0,0.0,0.0,179.0,193.0,0.0,179.0,1744418774.5359273,0.0,2025-04-11 20:46:14.535,STOP,31
21.0,6983.422575404951,-12981.244979053137,-21634.544030969624,-23997.771620484786,20697.402441191967,6367.073222049859,36583.83775756809,46129.887834774,0.0,0.0,0.0,193.0,0.0,192.0,0.0,0.0,0.0,178.0,192.0,0.0,178.0,1744418774.5359693,0.0,2025-04-11 20:46:14.535,STOP,31
22.0,6956.712240780859,-13024.495604574156,-21635.683969936847,-24048.778301331797,20833.949248069435,6175.854048234707,36961.001093506944,46063.88313339748,0.0,0.0,0.0,193.0,0.0,193.0,0.0,0.0,0.0,179.0,193.0,0.0,179.0,1744418774.536003,0.0,2025-04-11 20:46:14.536,STOP,31
23.0,6949.3585168550635,-13022.372188850903,-21671.200891876328,-24044.95615302994,20750.934869162425,6032.378200576091,36918.55513078632,45924.430599740816,0.0,0.0,0.0,193.0,0.0,193.0,0.0,0.0,0.0,179.0,193.0,0.0,179.0,1744418774.5360408,0.0,2025-04-11 20:46:14.536,STOP,31
24.0,6956.980461714324,-12994.231342581672,-21687.29414788415,-24012.47906833638,20629.56489677011,6281.376633808212,36646.44499378741,46010.23894670474,0.0,0.0,0.0,193.0,0.0,192.0,0.0,0.0,0.0,178.0,192.0,0.0,178.0,1744418774.536082,0.0,2025-04-11 20:46:14.536,STOP,31
25.0,6978.460488135874,-12979.836819152453,-21637.159185070897,-24001.92904495347,20706.276083740722,6376.528009954454,36546.84562049456,46084.40203480745,0.0,0.0,0.0,193.0,0.0,193.0,0.0,0.0,0.0,179.0,193.0,0.0,179.0,1744418774.5361204,0.0,2025-04-11 20:46:14.536,STOP,31
26.0,6962.881322250524,-13020.204069638738,-21628.352597755504,-24048.152452487047,20856.099826824648,6186.784051273353,36909.61443300419,46057.84816239455,0.0,0.0,0.0,193.0,0.0,193.0,0.0,0.0,0.0,179.0,193.0,0.0,179.0,1744418774.5361617,0.0,2025-04-11 20:46:14.536,STOP,31
27.0,6963.820095517647,-13017.164232392817,-21662.126083627474,-24052.779263589295,20766.759904236784,5940.847807031609,36935.94478797255,45908.069122799534,0.0,0.0,0.0,193.0,0.0,193.0,0.0,0.0,0.0,178.0,193.0,0.0,178.0,1744418774.536198,0.0,2025-04-11 20:46:14.536,STOP,31
28.0,6962.18841817241,-12993.091403614451,-21687.204740906327,-24013.239027647858,20638.147966640947,6195.635342077654,36711.60032887463,45974.02912068715,0.0,0.0,0.0,193.0,0.0,193.0,0.0,0.0,0.0,179.0,193.0,0.0,179.0,1744418774.5362377,0.0,2025-04-11 20:46:14.536,STOP,31
29.0,6965.4964763517955,-12991.437374524758,-21668.943365686344,-24012.501420080833,20639.131443396982,6373.6446349197195,36549.41607110692,46061.804421163135,0.0,0.0,0.0,193.0,0.0,192.0,0.0,0.0,0.0,178.0,192.0,0.0,178.0,1744418774.536406,0.0,2025-04-11 20:46:14.536,STOP,31
30.0,6949.425572088429,-13031.268183144115,-21649.609106732503,-24051.415807177524,20805.29431167773,6253.5263602169,36880.557165212296,46054.9200838709,0.0,0.0,0.0,193.0,0.0,193.0,0.0,0.0,0.0,179.0,193.0,0.0,179.0,1744418774.5364497,0.0,2025-04-11 20:46:14.536,STOP,31
31.0,6954.0523831906785,-13034.732703534688,-21686.265967639207,-24068.850167852663,20673.888406024984,5987.831173876664,37004.96697485053,45898.86020408395,0.0,0.0,0.0,193.0,0.0,192.0,0.0,0.0,0.0,179.0,192.0,0.0,179.0,1744418774.5364895,0.0,2025-04-11 20:46:14.536,STOP,31
32.0,6943.32354585213,-13030.374113365902,-21716.329063931593,-24046.207850719435,20579.899320590415,6187.186382673548,36803.68951603049,45918.12740780442,0.0,0.0,0.0,193.0,0.0,193.0,0.0,0.0,0.0,179.0,193.0,0.0,179.0,1744418774.536532,0.0,2025-04-11 20:46:14.536,STOP,31
33.0,6962.434287361418,-13004.155517119827,-21673.57017678859,-24022.85027776364,20670.535644356685,6386.45218449261,36571.29842892867,46015.49160665174,0.0,0.0,0.0,193.0,0.0,193.0,0.0,0.0,0.0,178.0,193.0,0.0,178.0,1744418774.5367944,0.0,2025-04-11 20:46:14.536,STOP,31
34.0,6953.13596166801,-13033.369247122913,-21630.31955126757,-24058.94834505896,20868.79561767526,6241.791694377863,36825.50481861887,46034.78116211667,0.0,0.0,0.0,193.0,0.0,192.0,0.0,0.0,0.0,178.0,192.0,0.0,178.0,1744418774.5368266,0.0,2025-04-11 20:46:14.536,STOP,31
35.0,6952.711278523359,-13039.828901270497,-21648.80444393211,-24067.57611841871,20854.08816982367,5983.740804641343,37037.354652566275,45908.58321292201,0.0,0.0,0.0,193.0,0.0,193.0,0.0,0.0,0.0,179.0,193.0,0.0,179.0,1744418774.5368588,0.0,2025-04-11 20:46:14.536,STOP,31
36.0,6944.731705752815,-13023.221555140204,-21689.39521186295,-24020.525696340286,20683.253786951755,6160.900731194107,36878.27728727785,45916.383971736905,0.0,0.0,0.0,193.0,0.0,192.0,0.0,0.0,0.0,178.0,192.0,0.0,178.0,1744418774.5368905,0.0,2025-04-11 20:46:14.536,STOP,31
37.0,6964.4459443623955,-12991.347967546937,-21676.565310545604,-23992.541312282243,20580.2569485017,6434.262565882513,36621.3439847641,46043.61010117651,0.0,0.0,0.0,193.0,0.0,193.0,0.0,0.0,0.0,179.0,193.0,0.0,179.0,1744418774.5369227,0.0,2025-04-11 20:46:14.536,STOP,31
38.0,6965.898807751991,-13008.24588635515,-21626.29623726562,-24016.077699193684,20751.605421496086,6370.336576740334,36772.106501115144,46075.95307540335,0.0,0.0,0.0,193.0,0.0,192.0,0.0,0.0,0.0,178.0,192.0,0.0,178.0,1744418774.5369544,0.0,2025-04-11 20:46:14.536,STOP,31
39.0,6950.364345355552,-13037.05728495804,-21644.736426441246,-24057.00374329135,20825.522640409785,6082.6696256005325,37067.52950758094,45976.84544048851,0.0,0.0,0.0,193.0,0.0,192.0,0.0,0.0,0.0,178.0,192.0,0.0,178.0,1744418774.5369856,0.0,2025-04-11 20:46:14.536,STOP,31
40.0,6959.908540237969,-13018.371226593403,-21667.57990927457,-24026.493612109854,20706.00786280726,6085.5530006352665,36928.74752625794,45904.80576810906,0.0,0.0,0.0,193.0,0.0,193.0,0.0,0.0,0.0,178.0,193.0,0.0,178.0,1744418774.5370169,0.0,2025-04-11 20:46:14.537,STOP,31
41.0,6976.225313690343,-12990.722118702188,-21668.20575811932,-23999.760925741306,20614.812745429605,6357.1490475117025,36664.99694168531,46016.69860085232,0.0,0.0,0.0,193.0,0.0,192.0,0.0,0.0,0.0,178.0,192.0,0.0,178.0,1744418774.5370474,0.0,2025-04-11 20:46:14.537,STOP,31
42.0,6973.81132528917,-13002.747357219143,-21622.89877210841,-24007.94166421195,20754.220575597355,6349.7506200969965,36726.061907537216,46056.574112960596,0.0,0.0,0.0,193.0,0.0,193.0,0.0,0.0,0.0,179.0,193.0,0.0,179.0,1744418774.5370796,0.0,2025-04-11 20:46:14.537,STOP,31
43.0,6947.905653465468,-13047.428494385302,-21635.929839125853,-24058.613068892133,20846.04154181976,6099.276971730826,37092.943441026626,45996.49262386473,0.0,0.0,0.0,193.0,0.0,193.0,0.0,0.0,0.0,179.0,193.0,0.0,179.0,1744418774.5371108,0.0,2025-04-11 20:46:14.537,STOP,31
44.0,6952.532464567717,-13036.699657046755,-21666.439970307347,-24040.66461809452,20691.412173677945,6003.052711850729,36999.93783234809,45885.87384055541,0.0,0.0,0.0,193.0,0.0,193.0,0.0,0.0,0.0,178.0,193.0,0.0,178.0,1744418774.5371635,0.0,2025-04-11 20:46:14.537,STOP,31
45.0,6963.931854239924,-13008.067072399506,-21675.693592511845,-24010.98150145787,20577.865311844984,6277.353319806257,36734.89084659706,46000.62769658896,0.0,0.0,0.0,193.0,0.0,193.0,0.0,0.0,0.0,179.0,193.0,0.0,179.0,1744418774.5371957,0.0,2025-04-11 20:46:14.537,STOP,31
46.0,6956.5781303141275,-13023.199203395749,-21650.32436255507,-24027.007702232328,20664.18774893138,6336.808960057373,36706.37002067209,46076.5789242481,0.0,0.0,0.0,193.0,0.0,192.0,0.0,0.0,0.0,178.0,192.0,0.0,178.0,1744418774.5372276,0.0,2025-04-11 20:46:14.537,STOP,31
47.0,6933.600537014072,-13064.125247493417,-21650.70434221081,-24070.52654868681,20799.79578254173,6140.381829784135,37083.846281033315,46036.54694992864,0.0,0.0,0.0,193.0,0.0,193.0,0.0,0.0,0.0,179.0,193.0,0.0,179.0,1744418774.5372598,0.0,2025-04-11 20:46:14.537,STOP,31
48.0,6932.237080602298,-13054.737514822187,-21688.210569406816,-24064.04454279477,20639.734940497274,5962.707813108899,37051.615065528764,45906.86212859895,0.0,0.0,0.0,193.0,0.0,193.0,0.0,0.0,0.0,179.0,193.0,0.0,179.0,1744418774.537504,0.0,2025-04-11 20:46:14.537,STOP,31
49.0,6933.309964336153,-13030.06118894353,-21702.806258536133,-24031.56745810121,20512.77703199113,6241.009383321927,36815.20066442498,46021.817150332594,0.0,0.0,0.0,193.0,0.0,193.0,0.0,0.0,0.0,179.0,193.0,0.0,179.0,1744418774.5375462,0.0,2025-04-11 20:46:14.537,STOP,31
50.0,6955.371136113541,-13007.798851466043,-21646.882193908954,-24005.773544999785,20621.630027488474,6400.846707921828,36674.76465401228,46086.5254505307,0.0,0.0,0.0,193.0,0.0,193.0,0.0,0.0,0.0,179.0,193.0,0.0,179.0,1744418774.5375807,0.0,2025-04-11 20:46:14.537,STOP,31
51.0,6938.56262428315,-13041.997020482662,-21630.207792545294,-24042.89979254005,20833.70337888043,6260.500104486955,37029.665652473646,46062.89965664144,0.0,0.0,0.0,193.0,0.0,193.0,0.0,0.0,0.0,178.0,193.0,0.0,178.0,1744418774.537614,0.0,2025-04-11 20:46:14.537,STOP,31
52.0,6948.017412187745,-13035.470311101713,-21653.408903289903,-24044.151490229546,20711.685205898906,6023.14693011605,37073.96680998407,45918.0380008266,0.0,0.0,0.0,193.0,0.0,193.0,0.0,0.0,0.0,179.0,193.0,0.0,179.0,1744418774.5376537,0.0,2025-04-11 20:46:14.537,STOP,31
53.0,6943.32354585213,-13022.796871995553,-21681.281528625674,-24019.139888184058,20592.393945740932,6210.499252140433,36855.25499048889,45991.99992322921,0.0,0.0,0.0,193.0,0.0,193.0,0.0,0.0,0.0,179.0,193.0,0.0,179.0,1744418774.5376954,0.0,2025-04-11 20:46:14.537,STOP,31
54.0,6961.003775716278,-13003.395557808348,-21653.38655154545,-24004.678309521474,20636.091606151058,6358.914835323672,36661.5547730392,46089.07354939861,0.0,0.0,0.0,193.0,0.0,193.0,0.0,0.0,0.0,178.0,193.0,0.0,178.0,1744418774.5377374,0.0,2025-04-11 20:46:14.537,STOP,31
55.0,6954.767639013248,-13029.167119165317,-21618.629588917447,-24026.4712603654,20812.804497814715,6222.368028446202,36949.93698000157,46077.76356670423,0.0,0.0,0.0,193.0,0.0,193.0,0.0,0.0,0.0,179.0,193.0,0.0,179.0,1744418774.5377767,0.0,2025-04-11 20:46:14.537,STOP,31
56.0,6940.306060350664,-13048.72489556371,-21651.66546722239,-24052.198118233457,20764.100046646603,5952.202493214905,37101.593566130825,45935.695878946295,0.0,0.0,0.0,193.0,0.0,193.0,0.0,0.0,0.0,178.0,193.0,0.0,178.0,1744418774.537818,0.0,2025-04-11 20:46:14.537,STOP,31
57.0,6939.657859761461,-13027.691904031266,-21680.432162336372,-24014.066042192706,20624.02166414519,6164.141734140127,36917.12461914118,45956.90768443438,0.0,0.0,0.0,193.0,0.0,193.0,0.0,0.0,0.0,178.0,193.0,0.0,178.0,1744418774.5378888,0.0,2025-04-11 20:46:14.537,STOP,31
58.0,6951.638394789505,-13004.401386308837,-21666.171749373883,-24000.61029203061,20582.715640391783,6406.546402757932,36689.51680535279,46081.585715006084,0.0,0.0,0.0,193.0,0.0,192.0,0.0,0.0,0.0,178.0,192.0,0.0,178.0,1744418774.5379293,0.0,2025-04-11 20:46:14.537,STOP,31
59.0,6935.902766692969,-13038.06311345853,-21635.52750772566,-24034.786109302775,20782.897863733517,6302.3872735962,36918.30926159731,46108.60897405255,0.0,0.0,0.0,193.0,0.0,193.0,0.0,0.0,0.0,179.0,193.0,0.0,179.0,1744418774.5380788,0.0,2025-04-11 20:46:14.538,STOP,31
60.0,6931.119493379533,-13057.263261945638,-21657.968659158785,-24064.089246283682,20760.009677411283,6013.647438722544,37155.03658712347,45989.8541557615,0.0,0.0,0.0,193.0,0.0,192.0,0.0,0.0,0.0,178.0,192.0,0.0,178.0,1744418774.538118,0.0,2025-04-11 20:46:14.538,STOP,31
61.0,6936.260394604254,-13035.470311101713,-21674.978336689277,-24028.48291736638,20632.94001018286,6105.848384600686,36994.81928286782,45951.18563785382,0.0,0.0,0.0,193.0,0.0,193.0,0.0,0.0,0.0,179.0,193.0,0.0,179.0,1744418774.5381513,0.0,2025-04-11 20:46:14.538,STOP,31
62.0,6947.637432532005,-13012.224496868193,-21663.578947017068,-23999.93973969695,20574.69136413233,6371.007129073993,36741.41755597801,46060.44096475136,0.0,0.0,0.0,193.0,0.0,192.0,0.0,0.0,0.0,178.0,192.0,0.0,178.0,1744418774.538185,0.0,2025-04-11 20:46:14.538,STOP,31
63.0,6943.480008063318,-13031.111720932928,-21614.360405726482,-24009.953321212928,20745.97278189335,6333.098570477792,36877.07029307727,46085.34080807457,0.0,0.0,0.0,193.0,0.0,193.0,0.0,0.0,0.0,179.0,193.0,0.0,179.0,1744418774.5384097,0.0,2025-04-11 20:46:14.538,STOP,31
64.0,6933.175853869421,-13052.077657232006,-21624.776318642656,-24045.04556000776,20802.03095698726,6073.483058629401,37178.282401356984,45981.91928647987,0.0,0.0,0.0,193.0,0.0,192.0,0.0,0.0,0.0,178.0,192.0,0.0,178.0,1744418774.5384421,0.0,2025-04-11 20:46:14.538,STOP,31
65.0,6926.827958444114,-13047.92023276332,-21660.829682449064,-24026.448908620943,20655.001181960248,6071.136125461594,37054.14081265221,45907.577384421515,0.0,0.0,0.0,193.0,0.0,193.0,0.0,0.0,0.0,179.0,193.0,0.0,179.0,1744418774.5384731,0.0,2025-04-11 20:46:14.538,STOP,31
66.0,6938.272051605231,-13023.176851651295,-21665.52354878468,-24000.74440249734,20531.30662814458,6348.16364624067,36777.001533150855,46021.034839276654,0.0,0.0,0.0,193.0,0.0,193.0,0.0,0.0,0.0,178.0,193.0,0.0,178.0,1744418775.0124457,0.0,2025-04-11 20:46:15.012,STOP,31
67.0,6946.2516243757755,-13024.428549340792,-21617.444946461314,-24007.33816711166,20666.55703384364,6344.341497938812,36799.26387062835,46057.64699669445,0.0,0.0,0.0,193.0,0.0,193.0,0.0,0.0,0.0,179.0,193.0,0.0,179.0,1744418775.0126257,0.0,2025-04-11 20:46:15.012,STOP,31
68.0,6928.3478770670745,-13057.531482879102,-21636.175708314862,-24057.339019458177,20722.27993277072,6081.864962800141,37164.35726456133,45987.216649915776,0.0,0.0,0.0,193.0,0.0,192.0,0.0,0.0,0.0,178.0,192.0,0.0,178.0,1744418775.0126684,0.0,2025-04-11 20:46:15.012,STOP,31
69.0,6927.185586355399,-13053.284651432592,-21671.96085118781,-24046.029036763794,20574.49019843223,5976.163563270994,37104.07460976537,45882.29756144257,0.0,0.0,0.0,193.0,0.0,193.0,0.0,0.0,0.0,179.0,193.0,0.0,179.0,1744418775.012703,0.0,2025-04-11 20:46:15.012,STOP,31
70.0,6935.366324826041,-13029.412988354325,-21679.985127447264,-24016.927065482985,20484.68088921081,6239.131836787682,36843.34151069421,45989.027141216655,0.0,0.0,0.0,193.0,0.0,192.0,0.0,0.0,0.0,178.0,192.0,0.0,178.0,1744418775.0127356,0.0,2025-04-11 20:46:15.012,STOP,31
71.0,6953.158313412466,-13021.992209195163,-21627.7043971663,-24009.059251434715,20628.916696180906,6289.62442751222,36781.15895761955,46048.30396751213,0.0,0.0,0.0,193.0,0.0,193.0,0.0,0.0,0.0,179.0,193.0,0.0,179.0,1744418775.0127685,0.0,2025-04-11 20:46:15.012,STOP,31
72.0,6927.789083455692,-13067.030974272606,-21632.80059490211,-24055.640286879574,20771.498474061307,6123.774483653842,37168.291171585464,46017.34680144153,0.0,0.0,0.0,193.0,0.0,192.0,0.0,0.0,0.0,178.0,192.0,0.0,178.0,1744418775.0128012,0.0,2025-04-11 20:46:15.012,STOP,31
73.0,6914.400388526963,-13072.01541328614,-21674.53130180017,-24062.52462417181,20653.973001715305,5970.597978901623,37168.782909963484,45888.5336981456,0.0,0.0,0.0,193.0,0.0,193.0,0.0,0.0,0.0,179.0,193.0,0.0,179.0,1744418775.0128343,0.0,2025-04-11 20:46:15.012,STOP,31
74.0,6916.479100761307,-13047.808474041043,-21678.04052567965,-24021.017434718306,20612.041129117148,6255.225092795503,36929.73100301397,45970.229324129745,0.0,0.0,0.0,193.0,0.0,193.0,0.0,0.0,0.0,178.0,193.0,0.0,178.0,1744418775.01292,0.0,2025-04-11 20:46:15.012,STOP,31
75.0,6930.068961390133,-13038.756017536643,-21641.607182217504,-24010.735632268865,20660.36560062952,6386.9662746150825,36789.49615830137,46044.63828142146,0.0,0.0,0.0,193.0,0.0,193.0,0.0,0.0,0.0,179.0,193.0,0.0,179.0,1744418775.0129533,0.0,2025-04-11 20:46:15.012,STOP,31
76.0,6915.763844938737,-13072.171875497328,-21626.89973436591,-24052.53339440029,20804.042613988237,6223.016229035406,37141.04439509445,46030.064944036596,0.0,0.0,0.0,193.0,0.0,193.0,0.0,0.0,0.0,178.0,193.0,0.0,178.0,1744418775.012986,0.0,2025-04-11 20:46:15.012,STOP,31
77.0,6919.496586262773,-13073.848256331476,-21656.582851002557,-24053.18159498949,20706.81252560765,5992.390929745547,37222.85177980087,45881.291732942074,0.0,0.0,0.0,193.0,0.0,193.0,0.0,1.0,0.0,179.0,193.0,1.0,179.0,1744418775.0130184,0.0,2025-04-11 20:46:15.013,STOP,31
78.0,6923.363438053541,-13051.988250254184,-21674.82187447809,-24018.961074228417,20586.873064860472,6198.98810374595,37017.573358723326,45947.40819304087,0.0,0.0,0.0,193.0,0.0,193.0,0.0,3.0,0.0,178.0,193.0,3.0,178.0,1744418775.0132513,0.0,2025-04-11 20:46:15.013,STOP,31
79.0,6932.482949791307,-13036.72200879121,-21645.161109585897,-24011.517943324798,20570.511587919187,6360.59121615782,36818.598129582184,46051.030880335675,0.0,0.0,0.0,193.0,0.0,193.0,0.0,4.0,0.0,179.0,193.0,4.0,179.0,1744418775.0132854,0.0,2025-04-11 20:46:15.013,STOP,31
80.0,6914.422740271419,-13072.35068945297,-21618.09314705052,-24050.05235076575,20738.261430056267,6230.638173894665,37114.62463314827,46068.71111019982,0.0,0.0,0.0,193.0,0.0,193.0,0.0,5.0,0.0,179.0,193.0,5.0,179.0,1744418775.0133188,0.0,2025-04-11 20:46:15.013,STOP,31
81.0,6908.723045435316,-13079.749116867677,-21647.820967176078,-24075.75685688935,20700.57638890462,5949.050897246707,37283.04502761901,45939.89800690389,0.0,0.0,0.0,193.0,0.0,193.0,0.0,6.0,0.0,179.0,193.0,6.0,179.0,1744418775.0133524,0.0,2025-04-11 20:46:15.013,STOP,31
82.0,6912.411083270441,-13060.928948036308,-21676.14062740095,-24038.56355411572,20544.06947422856,6094.627808884122,37108.88023482326,45963.233228115234,0.0,0.0,0.0,193.0,0.0,193.0,0.0,7.0,0.0,178.0,193.0,7.0,178.0,1744418775.013385,0.0,2025-04-11 20:46:15.013,STOP,31
83.0,6921.195318841376,-13049.529558364102,-21667.311688341106,-24018.782260272776,20497.37668006142,6326.929489008127,36881.76415941288,46088.69356974287,0.0,0.0,0.0,193.0,0.0,192.0,0.0,8.0,0.0,178.0,192.0,8.0,178.0,1744418775.0134184,0.0,2025-04-11 20:46:15.013,STOP,31
84.0,6911.181737325399,-13071.724840608222,-21627.57028669957,-24035.121385469603,20702.789211605694,6272.838267426285,37105.929804555155,46123.07055271513,0.0,0.0,0.0,193.0,0.0,193.0,0.0,9.0,0.0,179.0,193.0,9.0,179.0,1744418775.0134513,0.0,2025-04-11 20:46:15.013,STOP,31
85.0,6898.284780774687,-13093.07075656304,-21651.352542800018,-24070.90652834255,20713.04866231068,6009.691179953955,37354.10122324243,45996.24675467572,0.0,0.0,0.0,193.0,0.0,193.0,0.0,9.0,0.0,179.0,193.0,9.0,179.0,1744418775.0134847,0.0,2025-04-11 20:46:15.013,STOP,31
86.0,6911.315847792131,-13063.521750393124,-21661.164958615896,-24029.51109761132,20592.662166674396,6063.268311413326,37185.36790434932,45948.57048375255,0.0,0.0,0.0,193.0,0.0,193.0,0.0,10.0,0.0,178.0,193.0,10.0,178.0,1744418775.0135183,0.0,2025-04-11 20:46:15.013,STOP,31
87.0,6926.537385766195,-13036.230270413193,-21645.228164819262,-23998.241007118348,20542.795424794607,6334.014992000461,36935.006014705425,46076.86949692601,0.0,0.0,0.0,193.0,0.0,193.0,0.0,11.0,0.0,179.0,193.0,11.0,179.0,1744418775.0135517,0.0,2025-04-11 20:46:15.013,STOP,31
88.0,6920.055379874156,-13061.957128281252,-21612.66167314788,-24023.677292308486,20697.223627236322,6296.508764804455,37058.43234758763,46119.42721836892,0.0,0.0,0.0,193.0,0.0,192.0,0.0,11.0,0.0,178.0,192.0,11.0,178.0,1744418775.0135853,0.0,2025-04-11 20:46:15.013,STOP,31
89.0,6910.17590882491,-13087.505172193667,-21625.111594809485,-24059.48478692589,20765.463503058374,6038.167302390016,37369.63568563887,46023.068848022085,0.0,0.0,0.0,193.0,0.0,193.0,0.0,12.0,0.0,179.0,193.0,12.0,179.0,1744418775.0136204,0.0,2025-04-11 20:46:15.013,STOP,31
90.0,6910.399426269463,-13071.97070979723,-21656.29227832464,-24026.98535048787,20633.543507283153,6017.111959113116,37255.261809261065,45954.47134428875,0.0,0.0,0.0,193.0,0.0,193.0,0.0,12.0,0.0,178.0,193.0,12.0,178.0,1744418775.013681,0.0,2025-04-11 20:46:15.013,STOP,31
91.0,6917.46257751734,-13051.027125242606,-21663.66835399489,-24000.342071097144,20532.513622345166,6297.268724115936,36991.04183805488,46080.199906849855,0.0,0.0,0.0,193.0,0.0,193.0,0.0,12.0,0.0,179.0,193.0,12.0,179.0,1744418775.0137148,0.0,2025-04-11 20:46:15.013,STOP,31
92.0,6931.901804435469,-13048.054343230051,-21611.342920225015,-23999.55976004121,20668.635746077987,6350.376468941745,36993.18760552259,46126.468017872336,0.0,0.0,0.0,193.0,0.0,193.0,0.0,13.0,0.0,178.0,193.0,13.0,178.0,1744418775.0137484,0.0,2025-04-11 20:46:15.013,STOP,31
93.0,6902.553963965651,-13091.662596662354,-21624.061062820085,-24055.640286879574,20786.228273657354,6152.02708864535,37368.11576701591,46075.081357369585,0.0,0.0,0.0,193.0,0.0,193.0,0.0,13.0,0.0,179.0,193.0,13.0,179.0,1744418775.0139089,0.0,2025-04-11 20:46:15.013,STOP,31
94.0,6914.467443760329,-13073.647090631377,-21651.933688155856,-24041.737501828375,20646.440463833867,6007.3665985306025,37282.441530518714,45927.22456779773,0.0,0.0,0.0,193.0,0.0,192.0,0.0,13.0,0.0,178.0,192.0,13.0,178.0,1744418775.0139432,0.0,2025-04-11 20:46:15.013,STOP,31
95.0,6921.307077563653,-13052.278822932103,-21667.62461276348,-24018.826963761683,20523.192944907303,6290.272628101424,37017.52865523442,46023.78410384466,0.0,0.0,0.0,193.0,0.0,192.0,0.0,14.0,0.0,178.0,192.0,14.0,178.0,1744418775.0139785,0.0,2025-04-11 20:46:15.013,STOP,31
96.0,6939.1437696389885,-13045.238023428683,-21628.9560948558,-24012.61317880311,20581.68746014684,6362.379355714244,36930.75918325892,46105.904412973454,0.0,0.0,0.0,193.0,0.0,192.0,0.0,14.0,0.0,178.0,192.0,14.0,178.0,1744418775.014042,0.0,2025-04-11 20:46:15.014,STOP,31
97.0,6925.822129943625,-13078.45271568927,-21637.963847871288,-24072.33703998769,20655.559975571632,6122.388675497613,37293.930327168746,46087.464223797826,0.0,0.0,0.0,193.0,0.0,192.0,0.0,14.0,0.0,178.0,192.0,14.0,178.0,1744418775.0140765,0.0,2025-04-11 20:46:15.014,STOP,31
98.0,6923.1175688645335,-13067.835637072998,-21658.460397536805,-24049.60531587664,20548.91980277536,5960.718507852377,37292.43276029024,45953.62197799945,0.0,0.0,0.0,193.0,0.0,192.0,0.0,14.0,0.0,178.0,192.0,14.0,178.0,1744418775.0141106,0.0,2025-04-11 20:46:15.014,STOP,31
99.0,6886.84068761357,-13084.286520992104,-21666.417618562893,-24013.306082881223,20568.812855340584,6244.272738012402,37055.92895220863,46057.4234792499,0.0,0.0,0.0,193.0,0.0,192.0,0.0,14.0,0.0,178.0,192.0,14.0,178.0,1744418775.0141456,0.0,2025-04-11 20:46:15.014,STOP,31
100.0,6897.591876696572,-13078.519770922634,-21621.825888374555,-24001.57141704219,20658.51040583973,6407.88750742525,36904.317069568286,46166.812916614166,0.0,0.0,0.0,193.0,0.0,192.0,0.0,14.0,0.0,179.0,192.0,14.0,179.0,1744418775.014209,0.0,2025-04-11 20:46:15.014,STOP,31
101.0,6872.848495584548,-13118.439986519812,-21605.866742833467,-24034.875516280594,20806.12132622258,6263.048203354861,37242.9907015551,46164.53303867973,0.0,0.0,0.0,193.0,0.0,192.0,0.0,15.0,0.0,178.0,192.0,15.0,178.0,1744418775.0142481,0.0,2025-04-11 20:46:15.014,STOP,31
102.0,6871.395632194953,-13117.344751041503,-21644.691722952335,-24050.29821995476,20710.52291518723,5974.75540337031,37320.59595830393,46004.271030935175,0.0,0.0,0.0,193.0,0.0,193.0,0.0,15.0,0.0,179.0,193.0,15.0,179.0,1744418775.014282,0.0,2025-04-11 20:46:15.014,STOP,31
103.0,6867.081745515078,-13093.45073621878,-21668.943365686344,-24013.574303814687,20577.507683933698,6176.256379634903,37094.28454569394,46025.05815327861,0.0,0.0,0.0,193.0,0.0,193.0,0.0,15.0,0.0,179.0,193.0,15.0,179.0,1744418775.0143385,0.0,2025-04-11 20:46:15.014,STOP,31
104.0,6863.237245468766,-13089.203904772272,-21642.389493273437,-23994.955300683418,20566.08594251704,6402.79130968944,36878.14317681112,46114.17455842192,0.0,0.0,0.0,193.0,0.0,193.0,0.0,15.0,0.0,179.0,193.0,15.0,179.0,1744418775.0143728,0.0,2025-04-11 20:46:15.014,STOP,31
105.0,6851.681393585372,-13125.816062190064,-21607.543123667612,-24023.90080975304,20745.257526070778,6295.458232815055,37153.404909778226,46111.380590365006,0.0,0.0,0.0,193.0,0.0,193.0,0.0,15.0,0.0,179.0,193.0,15.0,179.0,1744418775.0144365,0.0,2025-04-11 20:46:15.014,STOP,31
106.0,6836.683373055861,-13148.816007234574,-21638.656751949402,-24060.222394492914,20698.67649062592,5988.3452639991365,37328.68728979675,45966.11660314997,0.0,0.0,0.0,193.0,0.0,192.0,0.0,15.0,0.0,178.0,192.0,15.0,178.0,1744418775.0144696,0.0,2025-04-11 20:46:15.014,STOP,31
107.0,6827.094474684534,-13137.751893729199,-21670.373877331484,-24044.307952440733,20549.813872553572,6057.993299721873,37136.10465956982,45954.493696033205,0.0,0.0,0.0,193.0,0.0,193.0,0.0,15.0,0.0,178.0,193.0,15.0,178.0,1744418775.0145028,0.0,2025-04-11 20:46:15.014,STOP,31
108.0,6828.346172374031,-13124.117329611461,-21667.62461276348,-24035.367254658613,20494.940339915793,6286.159907121648,36885.49690073692,46061.60325546304,0.0,0.0,0.0,193.0,0.0,192.0,0.0,15.0,0.0,179.0,192.0,15.0,179.0,1744418775.0145357,0.0,2025-04-11 20:46:15.014,STOP,31
109.0,6816.678561768361,-13150.335925857536,-21621.110632551987,-24046.923106542006,20703.057432539157,6267.116220845726,37068.535336081426,46089.85586045455,0.0,0.0,0.0,193.0,0.0,193.0,0.0,15.0,0.0,179.0,193.0,15.0,179.0,1744418775.0145853,0.0,2025-04-11 20:46:15.014,STOP,31
110.0,6797.456061536796,-13171.123048200972,-21651.039618377643,-24083.1329325596,20735.176889321436,6041.207139635938,37347.30629292802,45989.25065866121,0.0,0.0,0.0,193.0,0.0,192.0,0.0,15.0,0.0,178.0,192.0,15.0,178.0,1744418775.0146184,0.0,2025-04-11 20:46:15.014,STOP,31
111.0,6793.902134168403,-13156.84028349403,-21682.62263329299,-24046.76664433082,20582.3580124805,6073.997148751873,37188.564203806425,45929.43739049881,0.0,0.0,0.0,193.0,0.0,193.0,0.0,16.0,0.0,178.0,193.0,16.0,178.0,1744418775.0146513,0.0,2025-04-11 20:46:15.014,STOP,31
112.0,6808.743692486727,-13133.706227982788,-21670.396229075937,-24024.61606557561,20512.262941868656,6337.278346690935,36932.88259898217,46049.93564485737,0.0,0.0,0.0,193.0,0.0,192.0,0.0,16.0,0.0,178.0,192.0,16.0,178.0,1744418775.0146844,0.0,2025-04-11 20:46:15.014,STOP,31
113.0,6823.317029871587,-13131.918088426362,-21621.244743018717,-24024.526658597788,20636.203364873334,6301.403796840167,37015.964033122546,46067.034729365674,0.0,0.0,0.0,193.0,0.0,193.0,0.0,16.0,0.0,179.0,193.0,16.0,179.0,1744418775.0147178,0.0,2025-04-11 20:46:15.014,STOP,31
114.0,6808.229602364255,-13152.347582858514,-21638.99202811623,-24066.547938173764,20679.744563072272,6078.825125554219,37357.99042677766,45966.56363803907,0.0,0.0,0.0,193.0,0.0,193.0,0.0,16.0,0.0,179.0,193.0,16.0,179.0,1744418775.014756,0.0,2025-04-11 20:46:15.014,STOP,31
115.0,6808.63193376445,-13141.730504242243,-21673.72663899978,-24052.75691184484,20583.31913749208,6034.747485488354,37249.249190002585,45873.1780497048,0.0,0.0,0.0,193.0,0.0,193.0,0.0,16.0,0.0,179.0,193.0,16.0,179.0,1744418775.0148067,0.0,2025-04-11 20:46:15.014,STOP,31
116.0,6816.164471645889,-13118.618800475455,-21684.589586805057,-24030.673388322997,20490.29117706909,6300.017988683938,36974.926230302604,45989.809452272595,0.0,0.0,0.0,193.0,0.0,193.0,0.0,16.0,0.0,178.0,193.0,16.0,178.0,1744418775.0148418,0.0,2025-04-11 20:46:15.014,STOP,31
117.0,6826.133349672956,-13108.113480581462,-21632.957057113297,-24022.33618764117,20618.210210586814,6363.340480725823,36948.6182270787,46022.934737555355,0.0,0.0,0.0,193.0,0.0,193.0,0.0,16.0,0.0,179.0,193.0,16.0,179.0,1744418775.0148833,0.0,2025-04-11 20:46:15.014,STOP,31
118.0,6801.881706938948,-13151.565271802578,-21643.32826654056,-24071.688839398485,20743.894069659003,6170.713147009987,37322.20528390471,45969.849344474,0.0,0.0,0.0,193.0,0.0,192.0,0.0,16.0,0.0,178.0,192.0,16.0,178.0,1744418775.01492,0.0,2025-04-11 20:46:15.014,STOP,31
119.0,6806.620276763472,-13139.048294907607,-21663.556595272614,-24050.43233042149,20638.66205676342,6024.376276061092,37275.33367578193,45851.452154094244,0.0,0.0,0.0,193.0,0.0,193.0,0.0,16.0,0.0,179.0,193.0,16.0,179.0,1744418775.014954,0.0,2025-04-11 20:46:15.014,STOP,31
120.0,6809.101320398012,-13125.301972067593,-21675.76064774521,-24014.736594526363,20512.888790713405,6281.57779950831,37018.959166879555,45952.392632054405,0.0,0.0,0.0,193.0,0.0,192.0,0.0,16.0,0.0,178.0,192.0,16.0,178.0,1744418775.0150125,0.0,2025-04-11 20:46:15.015,STOP,31
121.0,6817.438521079841,-13121.055140621083,-21632.934705368843,-24005.572379299687,20579.094657790025,6370.962425585083,36931.295625125844,46035.07173479459,0.0,0.0,0.0,193.0,0.0,193.0,0.0,16.0,0.0,179.0,193.0,16.0,179.0,1744418775.0150511,0.0,2025-04-11 20:46:15.015,STOP,31
122.0,6802.06052089459,-13151.095885169016,-21618.361367983984,-24038.272981437804,20731.935886375417,6204.352522415224,37314.695097767726,46015.29044095164,0.0,0.0,0.0,193.0,0.0,192.0,0.0,16.0,0.0,178.0,192.0,16.0,178.0,1744418775.0151453,0.0,2025-04-11 20:46:15.015,STOP,31
123.0,6790.214096333278,-13163.769324275176,-21654.61589749049,-24050.52173739931,20635.018722417204,6002.7844909172645,37352.9165807863,45872.015758993126,0.0,0.0,0.0,193.0,0.0,193.0,0.0,16.0,0.0,179.0,193.0,16.0,179.0,1744418775.0151792,0.0,2025-04-11 20:46:15.015,STOP,31
124.0,6788.940046899324,-13143.40688507639,-21678.19698789084,-24022.55970508572,20532.73713978972,6241.5681769333105,37124.54880768643,45946.245902329196,0.0,0.0,0.0,193.0,0.0,192.0,0.0,16.0,0.0,179.0,192.0,16.0,179.0,1744418775.0152323,0.0,2025-04-11 20:46:15.015,STOP,31
125.0,6798.9759801597575,-13129.50410002519,-21650.927859655367,-24014.08839393716,20543.085997472524,6370.537742440431,36952.328616658284,46030.44492369234,0.0,0.0,0.0,193.0,0.0,193.0,0.0,16.0,0.0,179.0,193.0,16.0,179.0,1744418775.0152657,0.0,2025-04-11 20:46:15.015,STOP,31
126.0,6794.2150585907775,-13151.051181680106,-21612.616969658968,-24036.32837967019,20713.00395882177,6246.418505480112,37274.26079204807,46008.40610365941,0.0,0.0,0.0,193.0,0.0,192.0,0.0,16.0,0.0,178.0,192.0,16.0,178.0,1744418775.0152984,0.0,2025-04-11 20:46:15.015,STOP,31
127.0,6792.583381245539,-13149.240690379225,-21644.33409504105,-24056.80257759125,20622.859373433515,6000.9069443830185,37391.83096788299,45855.69898554075,0.0,0.0,0.0,193.0,0.0,193.0,0.0,16.0,0.0,179.0,193.0,16.0,179.0,1744418775.015334,0.0,2025-04-11 20:46:15.015,STOP,31
128.0,6803.043997650623,-13104.537201468613,-21665.747066229233,-24025.867763265105,20473.259147794146,6141.544120495811,37167.06182564042,45874.49680262766,0.0,0.0,0.0,193.0,0.0,193.0,0.0,16.0,0.0,179.0,193.0,16.0,179.0,1744418775.0153687,0.0,2025-04-11 20:46:15.015,STOP,31
129.0,6817.1703001463775,-13099.664521177356,-21639.483766494246,-24002.4654868204,20494.068621882037,6336.96542226856,36943.16440143161,45972.352739853,0.0,0.0,0.0,193.0,0.0,193.0,0.0,16.0,0.0,179.0,193.0,16.0,179.0,1744418775.0154023,0.0,2025-04-11 20:46:15.015,STOP,31
130.0,6788.761232943682,-13155.856806737997,-21620.820059874066,-24037.311856426222,20688.23822596529,6277.286264572891,37218.73905882109,45990.16708018388,0.0,0.0,0.0,193.0,0.0,193.0,0.0,16.0,0.0,179.0,193.0,16.0,179.0,1744418775.0154393,0.0,2025-04-11 20:46:15.015,STOP,31
131.0,6781.139288084422,-13157.89081548343,-21646.546917742126,-24060.691781126476,20668.345173400066,6044.783418748787,37417.513122262135,45843.830209234984,0.0,0.0,0.0,193.0,0.0,193.0,0.0,16.0,0.0,179.0,193.0,16.0,179.0,1744418775.015478,0.0,2025-04-11 20:46:15.015,STOP,31
132.0,6786.838982920526,-13136.12021638396,-21663.064856894598,-24023.923161497496,20539.68853231532,6145.902710664596,37233.49121016159,45819.153883356325,0.0,0.0,0.0,193.0,0.0,193.0,0.0,16.0,0.0,179.0,193.0,16.0,179.0,1744418775.0156512,0.0,2025-04-11 20:46:15.015,STOP,31
133.0,6800.048863893612,-13109.722806182242,-21644.93759214134,-23993.100105893627,20482.713935698743,6390.989588617038,36972.98162853499,45931.51610273315,0.0,0.0,0.0,193.0,0.0,193.0,0.0,16.0,0.0,179.0,193.0,16.0,179.0,1744418775.0157087,0.0,2025-04-11 20:46:15.015,STOP,31
134.0,6791.957532400791,-13129.101768624994,-21606.827867845044,-24012.70258578093,20643.691199265864,6332.20450069958,37143.52543872898,45964.66373976037,0.0,0.0,0.0,193.0,0.0,193.0,0.0,16.0,0.0,179.0,193.0,16.0,179.0,1744418775.0157523,0.0,2025-04-11 20:46:15.015,STOP,31
135.0,6779.775831672649,-13156.884986982941,-21628.88903962243,-24055.3273624572,20685.645423608476,6064.251788169359,37426.29735783307,45865.51140135663,0.0,0.0,0.0,193.0,0.0,193.0,0.0,17.0,0.0,179.0,193.0,17.0,179.0,1744418775.0159159,0.0,2025-04-11 20:46:15.015,STOP,31
136.0,6779.686424694828,-13146.290260111125,-21659.645039992934,-24034.6743505805,20559.715695347273,6064.899988758563,37272.83028040294,45818.81860718949,0.0,0.0,0.0,193.0,0.0,193.0,0.0,17.0,0.0,179.0,193.0,17.0,179.0,1744418775.0159552,0.0,2025-04-11 20:46:15.015,STOP,31
137.0,6792.2257533342545,-13119.512870253668,-21661.23201384926,-24007.740498511852,20487.16193284535,6327.756503552974,36989.521919431914,45943.54134125011,0.0,0.0,0.0,193.0,0.0,193.0,0.0,17.0,0.0,179.0,193.0,17.0,179.0,1744418775.015993,0.0,2025-04-11 20:46:15.015,STOP,31
138.0,6797.545468514618,-13118.21646907526,-21616.126193538454,-24011.339129369157,20629.520193281198,6327.421227386145,37040.72976597903,45986.21082141529,0.0,0.0,0.0,193.0,0.0,193.0,0.0,17.0,0.0,179.0,193.0,17.0,179.0,1744418775.0160358,0.0,2025-04-11 20:46:15.016,STOP,31
139.0,6780.468735750764,-13150.805312491097,-21635.371045514472,-24060.5800224042,20697.111868514046,6085.351834935169,37384.946630590755,45919.893195616394,0.0,0.0,0.0,193.0,0.0,193.0,0.0,17.0,0.0,179.0,193.0,17.0,179.0,1744418775.0161543,0.0,2025-04-11 20:46:15.016,STOP,31
140.0,6790.839945178026,-13136.991934417718,-21660.80733070461,-24040.955190772438,20561.5038349037,5996.883630381064,37286.82247243196,45827.24521484914,0.0,0.0,0.0,193.0,0.0,193.0,0.0,17.0,0.0,178.0,193.0,17.0,178.0,1744418775.016219,0.0,2025-04-11 20:46:15.016,STOP,31
141.0,6799.49007028223,-13115.73542544072,-21664.29420283964,-24011.22737064688,20450.5274236831,6255.873293384707,37021.619024469735,45951.78913495412,0.0,0.0,0.0,193.0,0.0,193.0,0.0,17.0,0.0,178.0,193.0,17.0,178.0,1744418775.0162597,0.0,2025-04-11 20:46:15.016,STOP,31
142.0,6800.831174949548,-13114.014341117661,-21616.528524938647,-24015.429498604477,20547.042256241115,6285.690520488086,36986.97382056401,46014.195205473334,0.0,0.0,0.0,193.0,0.0,193.0,0.0,17.0,0.0,179.0,193.0,17.0,179.0,1744418775.0163057,0.0,2025-04-11 20:46:15.016,STOP,31
143.0,6773.047956591601,-13148.79365549012,-21618.853106362,-24064.022191050317,20663.76306578673,6097.533535663311,37366.75231060413,45971.905704963894,0.0,0.0,0.0,193.0,0.0,193.0,0.0,17.0,0.0,178.0,193.0,17.0,178.0,1744418775.01635,0.0,2025-04-11 20:46:15.016,STOP,31
144.0,6775.81957290406,-13143.07160890956,-21645.965772386287,-24054.85797582364,20567.427047184356,5951.733106581343,37336.420993378284,45848.34526161495,0.0,0.0,0.0,193.0,0.0,193.0,0.0,17.0,0.0,179.0,193.0,17.0,179.0,1744418775.0163949,0.0,2025-04-11 20:46:15.016,STOP,31
145.0,6770.05282283459,-13131.940440170818,-21671.782037232166,-24024.95134174244,20451.086217294484,6239.243595509958,37093.4575311491,45957.66764374586,0.0,0.0,0.0,193.0,0.0,192.0,0.0,17.0,0.0,178.0,192.0,17.0,178.0,1744418775.0164409,0.0,2025-04-11 20:46:15.016,STOP,31
146.0,6786.928389898347,-13112.673236450344,-21636.555687970602,-24007.718146767398,20504.797459220586,6400.667893966186,36955.346102159754,46029.17087425839,0.0,0.0,0.0,193.0,0.0,193.0,0.0,17.0,0.0,179.0,193.0,17.0,179.0,1744418775.0164795,0.0,2025-04-11 20:46:15.016,STOP,31
147.0,6760.083944807523,-13156.639117793933,-21623.099937808507,-24054.634458379085,20690.026365521713,6255.7168311735195,37313.17517914476,46010.909499038404,0.0,0.0,0.0,193.0,0.0,192.0,0.0,17.0,0.0,178.0,192.0,17.0,178.0,1744418775.0165305,0.0,2025-04-11 20:46:15.016,STOP,31
148.0,6766.00715708818,-13145.373838588457,-21647.37393228697,-24054.14272000107,20603.815687157596,6008.66299970901,37350.413185407306,45873.80389854955,0.0,0.0,0.0,193.0,0.0,193.0,0.0,17.0,0.0,179.0,193.0,17.0,179.0,1744418775.01658,0.0,2025-04-11 20:46:15.016,STOP,31
149.0,6761.357994241476,-13128.811195947075,-21679.426333835883,-24035.926048269994,20479.29411879708,6198.27284792338,37129.62265367778,45959.120507135456,0.0,0.0,0.0,193.0,0.0,192.0,0.0,17.0,0.0,179.0,192.0,17.0,179.0,1744418775.016622,0.0,2025-04-11 20:46:15.016,STOP,31
150.0,6774.657282192384,-13119.490518509212,-21646.23399331975,-24023.029091719283,20515.503944814678,6337.077180990837,36930.89329372565,46042.224293020285,0.0,0.0,0.0,193.0,0.0,193.0,0.0,17.0,0.0,179.0,193.0,17.0,179.0,1744418775.0171983,0.0,2025-04-11 20:46:15.017,STOP,31
151.0,6757.8264186175375,-13153.778094503654,-21617.869629605964,-24041.782205317286,20700.57638890462,6267.38444177919,37252.51254469306,46044.817095377104,0.0,0.0,0.0,193.0,0.0,193.0,0.0,17.0,0.0,179.0,193.0,17.0,179.0,1744418775.0172615,0.0,2025-04-11 20:46:15.017,STOP,31
152.0,6750.070363291546,-13163.165827174882,-21654.839414935042,-24068.09020854118,20614.812745429605,6035.999183177851,37393.261479528126,45908.426750710816,0.0,0.0,0.0,193.0,0.0,193.0,0.0,17.0,0.0,179.0,193.0,17.0,179.0,1744418775.0173037,0.0,2025-04-11 20:46:15.017,STOP,31
153.0,6759.011061073668,-13133.974448916251,-21669.05512440862,-24027.767661543807,20503.746927231186,6194.115423454693,37196.90140448826,45939.85330341498,0.0,0.0,0.0,193.0,0.0,193.0,0.0,17.0,0.0,179.0,193.0,17.0,179.0,1744418775.0173433,0.0,2025-04-11 20:46:15.017,STOP,31
154.0,6767.43766873332,-13115.891887651907,-21650.614935232992,-24014.64718754854,20479.942319386282,6383.635864691242,36967.08076799879,46052.237874536266,0.0,0.0,0.0,193.0,0.0,193.0,0.0,17.0,0.0,179.0,193.0,17.0,179.0,1744418775.017461,0.0,2025-04-11 20:46:15.017,STOP,31
155.0,6746.9634708122585,-13152.906376469897,-21630.36425475648,-24050.879365310597,20652.341324370067,6290.451442057067,37212.50292211806,46082.88211618449,0.0,0.0,0.0,193.0,0.0,193.0,0.0,17.0,0.0,178.0,193.0,17.0,178.0,1744418775.017502,0.0,2025-04-11 20:46:15.017,STOP,31
156.0,6739.296822464088,-13164.596338820022,-21651.173728844373,-24076.449760967465,20629.900172936937,6026.164415617516,37427.54905552257,45963.68026300434,0.0,0.0,0.0,193.0,0.0,193.0,0.0,17.0,0.0,179.0,193.0,17.0,179.0,1744418775.0175416,0.0,2025-04-11 20:46:15.017,STOP,31
157.0,6743.09661902149,-13140.277640852648,-21674.91128145591,-24052.019304277816,20477.05894435155,6085.910628546551,37257.11700405085,45960.305149591586,0.0,0.0,0.0,193.0,0.0,193.0,0.0,17.0,0.0,178.0,193.0,17.0,178.0,1744418775.0175824,0.0,2025-04-11 20:46:15.017,STOP,31
158.0,6764.1072588094785,-13115.288390551614,-21662.014324905198,-24021.4197661185,20438.725702610696,6342.419247915655,37003.82703588332,46090.258191854744,0.0,0.0,0.0,193.0,0.0,193.0,0.0,17.0,0.0,179.0,193.0,17.0,179.0,1744418775.017619,0.0,2025-04-11 20:46:15.017,STOP,31
159.0,6751.210302258766,-13144.926803699353,-21634.007589102697,-24044.419711163013,20596.149038809424,6326.437750630111,37158.38934879176,46137.12979997752,0.0,0.0,0.0,193.0,0.0,192.0,0.0,17.0,0.0,178.0,192.0,17.0,178.0,1744418775.017661,0.0,2025-04-11 20:46:15.017,STOP,31
160.0,6738.1568834968675,-13165.93744348734,-21648.46916776528,-24074.125179544113,20634.12465263899,6079.518029632334,37463.96004724027,46047.99104308976,0.0,0.0,0.0,193.0,0.0,193.0,0.0,17.0,0.0,179.0,193.0,17.0,179.0,1744418775.0176964,0.0,2025-04-11 20:46:15.017,STOP,31
161.0,6744.840055089004,-13140.232937363737,-21666.484673796258,-24034.98727500287,20517.40384309338,6065.838762025686,37320.283033881555,45982.0533969466,0.0,0.0,0.0,193.0,0.0,193.0,0.0,17.0,0.0,179.0,193.0,17.0,179.0,1744418775.017795,0.0,2025-04-11 20:46:15.017,STOP,31
162.0,6751.634985403417,-13116.36127428547,-21667.937537185855,-24011.629702047077,20440.558545656033,6337.345401924301,37045.84831545929,46108.31840137463,0.0,0.0,0.0,193.0,0.0,192.0,0.0,17.0,0.0,178.0,192.0,17.0,178.0,1744418775.0178301,0.0,2025-04-11 20:46:15.017,STOP,31
163.0,6745.778828356127,-13132.454530293291,-21630.721882667767,-24026.65007432104,20606.766117425697,6329.008201242471,37089.43421714714,46154.362994952564,0.0,0.0,0.0,193.0,0.0,193.0,0.0,17.0,0.0,179.0,193.0,17.0,179.0,1744418775.0178657,0.0,2025-04-11 20:46:15.017,STOP,31
164.0,6735.47467416223,-13163.41169636389,-21645.317571797084,-24073.09699929917,20711.86401985455,6098.740529863898,37441.31773010704,46084.60320050755,0.0,0.0,0.0,193.0,0.0,192.0,0.0,17.0,0.0,178.0,192.0,17.0,178.0,1744418775.0178995,0.0,2025-04-11 20:46:15.017,STOP,31
165.0,6737.2181102297445,-13152.951079958806,-21674.24072912225,-24056.556708402244,20586.82836137156,6005.6008107186335,37356.38110117687,45983.19333591382,0.0,0.0,0.0,193.0,0.0,193.0,0.0,17.0,0.0,179.0,193.0,17.0,179.0,1744418775.0182383,0.0,2025-04-11 20:46:15.018,STOP,31
166.0,6744.0353922886125,-13128.632381991432,-21683.919034471397,-24027.94647549945,20444.268935235614,6276.101622116759,37100.16305448569,46099.66827627042,0.0,0.0,0.0,193.0,0.0,192.0,0.0,17.0,0.0,179.0,192.0,17.0,179.0,1744418775.018274,0.0,2025-04-11 20:46:15.018,STOP,31
167.0,6758.5863779290175,-13118.618800475455,-21636.533336226148,-24013.864876492607,20518.76729950515,6350.443524175111,37040.23802760101,46154.921788563945,0.0,0.0,0.0,193.0,0.0,193.0,0.0,17.0,0.0,179.0,193.0,17.0,179.0,1744418775.0183072,0.0,2025-04-11 20:46:15.018,STOP,31
168.0,6731.786636327105,-13163.009364963695,-21633.269981535672,-24053.58392638969,20679.27517643871,6196.41765313359,37416.619052483926,46130.91601501894,0.0,0.0,0.0,193.0,0.0,193.0,0.0,17.0,0.0,179.0,193.0,17.0,179.0,1744418775.0183775,0.0,2025-04-11 20:46:15.018,STOP,31
169.0,6731.026677015624,-13161.489446340735,-21665.411790062404,-24052.019304277816,20563.98487853824,6026.566747017711,37403.811502911034,46017.79383633064,0.0,0.0,0.0,193.0,0.0,193.0,0.0,17.0,0.0,180.0,193.0,17.0,180.0,1744418775.0184684,0.0,2025-04-11 20:46:15.018,STOP,31
170.0,6732.926575294326,-13140.322344341559,-21686.91416822841,-24023.453774863934,20450.482720194188,6263.830514410796,37153.13668884477,46114.442779355384,0.0,0.0,0.0,193.0,0.0,193.0,0.0,17.0,0.0,179.0,193.0,17.0,179.0,1744418775.0185077,0.0,2025-04-11 20:46:15.018,STOP,31
171.0,6751.322060981043,-13122.910335410874,-21643.395321773925,-24008.70162352343,20511.927665701827,6370.381280229245,37003.84938762777,46175.44068997392,0.0,0.0,0.0,193.0,0.0,193.0,0.0,17.0,0.0,179.0,193.0,17.0,179.0,1744418775.018544,0.0,2025-04-11 20:46:15.018,STOP,31
172.0,6727.517453136141,-13163.143475430426,-21633.158222813396,-24046.94545828646,20675.788304303685,6257.661432941131,37365.992351292654,46148.39507918299,0.0,0.0,0.0,193.0,0.0,193.0,0.0,17.0,0.0,179.0,193.0,17.0,179.0,1744418775.0185795,0.0,2025-04-11 20:46:15.018,STOP,31
173.0,6723.583546112007,-13161.51179808519,-21669.725676742277,-24063.105769527647,20592.572759696577,6042.436485580979,37440.088384161994,46009.59074611554,0.0,0.0,0.0,193.0,0.0,193.0,0.0,17.0,0.0,178.0,193.0,17.0,178.0,1744418775.018624,0.0,2025-04-11 20:46:15.018,STOP,31
174.0,6726.846900802481,-13131.739274470721,-21695.318424143607,-24029.46639412241,20457.52351969761,6245.211511279525,37216.41447739774,46067.191191576865,0.0,0.0,0.0,193.0,0.0,193.0,0.0,17.0,0.0,179.0,193.0,17.0,179.0,1744418775.0186672,0.0,2025-04-11 20:46:15.018,STOP,31
175.0,6754.227787760233,-13104.559553213066,-21656.784016702655,-24009.93096946847,20465.614851190432,6412.335504571856,37017.774524423425,46163.594265412605,0.0,0.0,0.0,193.0,0.0,192.0,0.0,17.0,0.0,179.0,192.0,17.0,179.0,1744418775.0187063,0.0,2025-04-11 20:46:15.018,STOP,31
176.0,6738.71567710825,-13153.018135192173,-21638.477937993757,-24056.33319095769,20615.192725085348,6274.000558137961,37316.55029255751,46165.13653578002,0.0,0.0,0.0,193.0,0.0,193.0,0.0,17.0,0.0,179.0,193.0,17.0,179.0,1744418775.018748,0.0,2025-04-11 20:46:15.018,STOP,31
177.0,6738.827435830526,-13151.565271802578,-21659.913260926398,-24071.085342298193,20526.63511355342,5984.7019296529215,37452.60536105697,46008.98724901525,0.0,0.0,0.0,193.0,0.0,192.0,0.0,17.0,0.0,179.0,192.0,17.0,179.0,1744418775.0187888,0.0,2025-04-11 20:46:15.018,STOP,31
178.0,6731.80898807156,-13137.50602454019,-21677.90641521292,-24044.10678674064,20436.110548509427,6111.279858503325,37268.538745467515,46025.72870561227,0.0,0.0,0.0,193.0,0.0,193.0,0.0,17.0,0.0,179.0,193.0,17.0,179.0,1744418775.0188308,0.0,2025-04-11 20:46:15.018,STOP,31
179.0,6739.341525952998,-13130.442873292313,-21653.118330611986,-24026.270094665302,20500.4388690518,6349.392992185712,37033.174876353136,46141.287224446205,0.0,0.0,0.0,193.0,0.0,192.0,0.0,17.0,0.0,178.0,192.0,17.0,178.0,1744418775.0188835,0.0,2025-04-11 20:46:15.018,STOP,31
180.0,6730.467883404242,-13157.376725360959,-21606.80551610059,-24036.931876770483,20695.99428129128,6309.2492591439795,37247.8410301019,46172.66907366146,0.0,0.0,0.0,193.0,0.0,193.0,0.0,17.0,0.0,179.0,193.0,17.0,179.0,1744418775.01937,0.0,2025-04-11 20:46:15.019,STOP,31
181.0,6707.892621504381,-13188.177429220372,-21645.831661919554,-24080.830702880707,20692.082726011602,6083.5860471232,37495.16308249987,46069.18049683339,0.0,0.0,0.0,193.0,0.0,193.0,0.0,17.0,0.0,179.0,193.0,17.0,179.0,1744418775.0194345,0.0,2025-04-11 20:46:15.019,STOP,31
182.0,6717.123891964423,-13159.723658528765,-21676.945290201344,-24058.613068892133,20539.286200915125,6093.487869916901,37316.706754768704,46034.267071994196,0.0,0.0,0.0,193.0,0.0,193.0,0.0,17.0,0.0,179.0,193.0,17.0,179.0,1744418775.0194764,0.0,2025-04-11 20:46:15.019,STOP,31
183.0,6737.486331163208,-13125.011399389674,-21668.608089519512,-24021.777394029785,20464.229043034204,6319.776930782429,37046.07183290384,46152.37368969604,0.0,0.0,0.0,193.0,0.0,192.0,0.0,17.0,0.0,179.0,192.0,17.0,179.0,1744418775.0195253,0.0,2025-04-11 20:46:15.019,STOP,31
184.0,6723.918822278836,-13152.012306691684,-21638.18736531584,-24029.064062722216,20604.597998213532,6373.242303519524,37173.320314087905,46202.79922518721,0.0,0.0,0.0,193.0,0.0,193.0,0.0,17.0,0.0,179.0,193.0,17.0,179.0,1744418775.0196137,0.0,2025-04-11 20:46:15.019,STOP,31
185.0,6709.412540127342,-13171.480676112256,-21648.24565032073,-24066.123255029113,20649.726170268797,6141.700582706998,37485.03774226162,46110.2853548867,0.0,0.0,0.0,193.0,0.0,193.0,0.0,17.0,0.0,179.0,193.0,17.0,179.0,1744418775.01965,0.0,2025-04-11 20:46:15.019,STOP,31
186.0,6698.884868488893,-13164.596338820022,-21681.058011181118,-24050.454682165942,20512.754680246675,6112.620963170643,37365.70177861473,46035.49641793924,0.0,0.0,0.0,193.0,0.0,193.0,0.0,17.0,0.0,179.0,193.0,17.0,179.0,1744418775.4926388,0.0,2025-04-11 20:46:15.492,STOP,31
187.0,6711.133624450401,-13135.941402428318,-21684.67899378288,-24024.79487953125,20421.671321591297,6387.726233926563,37087.08728397933,46151.59137864011,0.0,0.0,0.0,193.0,0.0,193.0,0.0,17.0,0.0,178.0,193.0,17.0,178.0,1744418775.4927902,0.0,2025-04-11 20:46:15.492,STOP,31
188.0,6725.505796135163,-13134.600297761,-21637.874440893465,-24029.71226331142,20539.330904404032,6395.50464099701,37094.3068974384,46197.077178606654,0.0,0.0,0.0,193.0,0.0,193.0,0.0,17.0,0.0,179.0,193.0,17.0,179.0,1744418775.4928288,0.0,2025-04-11 20:46:15.492,STOP,31
189.0,6711.357141894954,-13168.686708055344,-21643.238859562738,-24072.582909176697,20635.152832883934,6159.1572951265925,37460.60728557197,46137.55448312217,0.0,0.0,0.0,193.0,0.0,193.0,0.0,17.0,0.0,179.0,193.0,17.0,179.0,1744418775.4928648,0.0,2025-04-11 20:46:15.492,STOP,31
190.0,6716.721560564228,-13159.567196317577,-21681.058011181118,-24066.011496306837,20479.584691475,5995.922505369485,37396.45777898524,46024.67817362287,0.0,0.0,0.0,193.0,0.0,193.0,0.0,17.0,0.0,179.0,193.0,17.0,179.0,1744418775.4928987,0.0,2025-04-11 20:46:15.492,STOP,31
191.0,6732.770113083138,-13125.190213345315,-21690.646909552444,-24033.824984291197,20341.02622759655,6223.865595324707,37139.54682821594,46136.36984066604,0.0,0.0,0.0,193.0,0.0,193.0,0.0,17.0,0.0,179.0,193.0,17.0,179.0,1744418775.4929323,0.0,2025-04-11 20:46:15.492,STOP,31
192.0,6741.0402585316015,-13121.010437132174,-21645.362275285992,-24018.156411428026,20479.204711819257,6338.664154847164,37063.930876723636,46194.03734136073,0.0,0.0,0.0,193.0,0.0,193.0,0.0,17.0,0.0,179.0,193.0,17.0,179.0,1744418775.4929767,0.0,2025-04-11 20:46:15.492,STOP,31
193.0,6716.56509835304,-13162.137646929938,-21638.969676371777,-24057.24961248036,20723.755147904772,6227.71009537102,37451.55482906757,46187.6000389576,0.0,0.0,0.0,193.0,0.0,193.0,0.0,17.0,0.0,179.0,193.0,17.0,179.0,1744418775.493018,0.0,2025-04-11 20:46:15.493,STOP,31
194.0,6714.75460705216,-13155.163902659882,-21671.84909246553,-24059.10480727015,20629.877821192484,6026.186767361971,37425.26917758813,46039.63149066347,0.0,0.0,0.0,193.0,0.0,193.0,0.0,17.0,0.0,179.0,193.0,17.0,179.0,1744418775.4930527,0.0,2025-04-11 20:46:15.493,STOP,31
195.0,6711.021865728124,-13140.970544930762,-21694.647871809946,-24033.75792905783,20484.323261299523,6251.38059274919,37174.14732863275,46117.63907881249,0.0,0.0,0.0,193.0,0.0,192.0,0.0,17.0,0.0,178.0,192.0,17.0,178.0,1744418775.4933138,0.0,2025-04-11 20:46:15.493,STOP,31
196.0,6718.912031520847,-13134.533242527634,-21664.227147606274,-24030.047539478248,20497.82371495053,6378.204390788602,37015.36053602225,46199.06648386318,0.0,0.0,0.0,193.0,0.0,193.0,0.0,17.0,0.0,179.0,193.0,17.0,179.0,1744418775.4933524,0.0,2025-04-11 20:46:15.493,STOP,31
197.0,6705.031598214102,-13164.819856264576,-21632.599429202015,-24053.58392638969,20673.597833347063,6264.031680110894,37363.71247335822,46186.79537615721,0.0,0.0,0.0,193.0,0.0,193.0,0.0,17.0,0.0,178.0,193.0,17.0,178.0,1744418775.493389,0.0,2025-04-11 20:46:15.493,STOP,31
198.0,6707.691455804284,-13160.640080051433,-21664.92005168439,-24069.543071930777,20585.017870070682,6022.521081271301,37441.87652371842,46033.61887140499,0.0,0.0,0.0,193.0,0.0,193.0,0.0,17.0,0.0,179.0,193.0,17.0,179.0,1744418775.4934273,0.0,2025-04-11 20:46:15.493,STOP,31
199.0,6712.251211673166,-13136.656658250888,-21680.230996636274,-24028.371158644102,20462.127979055404,6224.983182547472,37226.808038569456,46088.11242438703,0.0,0.0,0.0,193.0,0.0,192.0,0.0,17.0,0.0,178.0,192.0,17.0,178.0,1744418775.4935453,0.0,2025-04-11 20:46:15.493,STOP,31
200.0,6717.772092553627,-13136.41078906188,-21662.014324905198,-24026.98535048787,20452.293211495067,6419.331600586367,37033.10782111977,46197.72537919586,0.0,0.0,0.0,193.0,0.0,193.0,0.0,17.0,0.0,179.0,193.0,17.0,179.0,1744418775.4936492,0.0,2025-04-11 20:46:15.493,STOP,31
201.0,6705.322170892021,-13171.480676112256,-21639.66258044989,-24061.362333460133,20632.314161338112,6309.316314377345,37321.534731571046,46193.56795472717,0.0,0.0,0.0,193.0,0.0,192.0,0.0,17.0,0.0,178.0,192.0,17.0,178.0,1744418775.49371,0.0,2025-04-11 20:46:15.493,STOP,31
202.0,6699.331903377999,-13183.684728584854,-21681.929729214877,-24094.778191420817,20558.843977313518,6025.203290605938,37504.12613202645,46058.0716798391,0.0,0.0,0.0,193.0,0.0,193.0,0.0,17.0,0.0,179.0,193.0,17.0,179.0,1744418775.4937625,0.0,2025-04-11 20:46:15.493,STOP,31
203.0,6716.587450097496,-13148.83835897903,-21691.943310730854,-24050.29821995476,20402.5158765931,6127.797797655797,37300.837016205434,46043.990080832256,0.0,0.0,0.0,193.0,0.0,192.0,0.0,17.0,0.0,178.0,192.0,17.0,178.0,1744418775.4938023,0.0,2025-04-11 20:46:15.493,STOP,31
204.0,6725.103464734968,-13134.197966360804,-21677.52643555718,-24038.451795393445,20409.534324352066,6345.347326439301,37054.677254519134,46147.433954171414,0.0,0.0,0.0,193.0,0.0,193.0,0.0,17.0,0.0,179.0,193.0,17.0,179.0,1744418775.4938533,0.0,2025-04-11 20:46:15.493,STOP,31
205.0,6722.980049011713,-13150.470036324268,-21632.17474605736,-24052.51104265583,20628.536716525166,6274.939331405084,37247.1928295127,46154.25123623029,0.0,0.0,0.0,193.0,0.0,192.0,0.0,17.0,0.0,179.0,192.0,17.0,179.0,1744418775.4939165,0.0,2025-04-11 20:46:15.493,STOP,31
206.0,6710.977162239214,-13169.737240044742,-21658.32628707007,-24092.654775697563,20642.03717017617,6030.277136597292,37519.0570973226,46030.60138590353,0.0,0.0,0.0,193.0,0.0,193.0,0.0,17.0,0.0,179.0,193.0,17.0,179.0,1744418775.493965,0.0,2025-04-11 20:46:15.493,STOP,31
207.0,6721.594240855485,-13141.84226296452,-21672.38553433246,-24038.89883028255,20497.756659717164,6094.560753650756,37355.509383143115,45974.409100342884,0.0,0.0,0.0,193.0,0.0,192.0,0.0,17.0,0.0,178.0,192.0,17.0,178.0,1744418775.494028,0.0,2025-04-11 20:46:15.494,STOP,31
208.0,6733.261851461155,-13113.746120184198,-21671.29029885415,-24015.27303639329,20402.47117310419,6363.16166677018,37084.87446127826,46097.14252914698,0.0,0.0,0.0,193.0,0.0,193.0,0.0,17.0,0.0,179.0,193.0,17.0,179.0,1744418775.4940832,0.0,2025-04-11 20:46:15.494,STOP,31
209.0,6727.696267091784,-13134.712056483277,-21628.28554252214,-24034.204963946937,20585.3084427486,6337.703029835586,37190.3299916184,46151.25610247327,0.0,0.0,0.0,193.0,0.0,192.0,0.0,17.0,0.0,178.0,192.0,17.0,178.0,1744418775.4941301,0.0,2025-04-11 20:46:15.494,STOP,31
210.0,6724.678781590317,-13161.89177774093,-21638.969676371777,-24070.750066131364,20680.392763661475,6108.977628824428,37525.96378635929,46070.5216015007,0.0,0.0,0.0,193.0,0.0,192.0,0.0,17.0,0.0,179.0,192.0,17.0,179.0,1744418775.4943337,0.0,2025-04-11 20:46:15.494,STOP,31
211.0,6727.897432791881,-13157.26496663868,-21679.783961747165,-24055.61793513512,20538.68270381483,6073.438355140491,37413.802732682554,45982.96981846927,0.0,0.0,0.0,193.0,0.0,192.0,0.0,17.0,0.0,179.0,192.0,17.0,179.0,1744418775.4944031,0.0,2025-04-11 20:46:15.494,STOP,31
212.0,6731.09373224899,-13133.862690193975,-21693.127953186984,-24030.51692611181,20395.45272534522,6364.413364459678,37136.39523224774,46095.30968610164,0.0,0.0,0.0,193.0,0.0,193.0,0.0,17.0,0.0,179.0,193.0,17.0,179.0,1744418775.4944596,0.0,2025-04-11 20:46:15.494,STOP,31
213.0,6726.33281068001,-13138.288335596126,-21657.655734736414,-24036.90952502603,20475.136694328394,6401.740777700041,37132.39426999024,46136.41454415495,0.0,0.0,0.0,193.0,0.0,192.0,0.0,17.0,0.0,178.0,192.0,17.0,178.0,1744418775.4945078,0.0,2025-04-11 20:46:15.494,STOP,31
214.0,6713.480557618208,-13169.826647022564,-21659.913260926398,-24083.065877326237,20598.78654465515,6156.139809625127,37490.60332663099,46068.68875845537,0.0,0.0,0.0,193.0,0.0,192.0,0.0,17.0,0.0,179.0,192.0,17.0,179.0,1744418775.4945788,0.0,2025-04-11 20:46:15.494,STOP,31
215.0,6706.640923814884,-13172.46415286829,-21687.9199967289,-24069.38660971959,20489.419459035333,6032.020572664806,37444.67049177534,45957.17590536784,0.0,0.0,0.0,193.0,0.0,192.0,0.0,17.0,0.0,178.0,192.0,17.0,178.0,1744418775.4946127,0.0,2025-04-11 20:46:15.494,STOP,31
216.0,6707.289124404088,-13149.821835735063,-21690.937482230365,-24034.495536624854,20430.880240306884,6319.151081937681,37195.24737539856,46076.198944592354,0.0,0.0,0.0,193.0,0.0,193.0,0.0,17.0,0.0,179.0,193.0,17.0,179.0,1744418775.4946463,0.0,2025-04-11 20:46:15.494,STOP,31
217.0,6728.1209502364345,-13140.344696086015,-21649.698513710322,-24025.107803953626,20511.838258724005,6421.723237243085,37095.26802244998,46148.86446581656,0.0,0.0,0.0,193.0,0.0,193.0,0.0,17.0,0.0,179.0,193.0,17.0,179.0,1744418775.4946811,0.0,2025-04-11 20:46:15.494,STOP,31
218.0,6717.459168131253,-13178.65558608241,-21642.47890025126,-24064.558632917244,20654.129463926492,6260.343642275768,37468.58685834251,46120.254232913765,0.0,0.0,0.0,193.0,0.0,192.0,0.0,17.0,0.0,179.0,192.0,17.0,179.0,1744418775.4947145,0.0,2025-04-11 20:46:15.494,STOP,31
219.0,6710.954810494758,-13177.85092328202,-21672.54199654365,-24069.408961464043,20534.68174155733,6048.29264262827,37489.64220161941,45978.23124864474,0.0,0.0,0.0,193.0,0.0,193.0,0.0,17.0,0.0,179.0,193.0,17.0,179.0,1744418775.4947464,0.0,2025-04-11 20:46:15.494,STOP,31
220.0,6710.463072116741,-13156.147379415916,-21688.05410719563,-24034.80846104723,20397.37497536838,6261.036546353883,37253.093690048896,46057.199961805345,0.0,0.0,0.0,193.0,0.0,193.0,0.0,17.0,0.0,179.0,193.0,17.0,179.0,1744418775.4947789,0.0,2025-04-11 20:46:15.494,STOP,31
221.0,6722.287144933599,-13146.111446155483,-21655.688781224344,-24026.04657722075,20434.121243252903,6391.458975250599,37085.41090314519,46142.80714306917,0.0,0.0,0.0,193.0,0.0,192.0,0.0,17.0,0.0,178.0,192.0,17.0,178.0,1744418775.4948108,0.0,2025-04-11 20:46:15.494,STOP,31
222.0,6701.030635956602,-13186.478696641767,-21638.880269393954,-24063.083417783193,20598.11599232149,6259.606034708743,37427.21377935574,46133.73233482031,0.0,0.0,0.0,193.0,0.0,193.0,0.0,17.0,0.0,179.0,193.0,17.0,179.0,1744418775.494843,0.0,2025-04-11 20:46:15.494,STOP,31
223.0,6700.941228978781,-13186.054013497116,-21669.09982789753,-24079.176673791015,20528.847936254497,6006.7183979413985,37540.29125455514,45981.62871380195,0.0,0.0,0.0,193.0,0.0,192.0,0.0,17.0,0.0,179.0,192.0,17.0,179.0,1744418775.4948747,0.0,2025-04-11 20:46:15.494,STOP,31
224.0,6709.524298849618,-13156.415600349379,-21694.91609274341,-24053.695685111965,20381.192312382736,6140.225367572948,37327.77086827408,46006.573260614074,0.0,0.0,0.0,193.0,0.0,193.0,0.0,17.0,0.0,179.0,193.0,17.0,179.0,1744418775.494907,0.0,2025-04-11 20:46:15.494,STOP,31
225.0,6727.651563602873,-13136.611954761978,-21670.262118609207,-24028.505269110832,20431.774310085097,6361.105306280292,37112.47886568056,46095.3320378461,0.0,0.0,0.0,193.0,0.0,193.0,0.0,17.0,0.0,179.0,193.0,17.0,179.0,1744418775.4949555,0.0,2025-04-11 20:46:15.494,STOP,31
226.0,6711.200679683767,-13167.971452232774,-21643.127100840462,-24057.204908991447,20644.60762078853,6320.849814516284,37380.45392995524,46105.65854378445,0.0,0.0,0.0,193.0,0.0,193.0,0.0,17.0,0.0,178.0,193.0,17.0,178.0,1744418775.4949877,0.0,2025-04-11 20:46:15.494,STOP,31
227.0,6704.94219123628,-13179.75082156072,-21676.47590356778,-24087.223301794926,20607.92840813737,6032.981697676385,37564.65465601142,45967.14478339491,0.0,0.0,0.0,193.0,0.0,193.0,0.0,17.0,0.0,179.0,193.0,17.0,179.0,1744418775.4950192,0.0,2025-04-11 20:46:15.495,STOP,31
228.0,6708.831394771504,-13163.83637950854,-21699.34173814556,-24051.885193811082,20441.989057301173,6131.061152346272,37380.58804042197,45964.976664182745,0.0,0.0,0.0,193.0,0.0,193.0,0.0,17.0,0.0,178.0,193.0,17.0,178.0,1744418775.495051,0.0,2025-04-11 20:46:15.495,STOP,31
229.0,6731.920746793837,-13130.778149459142,-21679.53809255816,-24015.049518948737,20358.147663849315,6408.088673125348,37111.27187147998,46066.23006656529,0.0,0.0,0.0,193.0,0.0,193.0,0.0,17.0,0.0,179.0,193.0,17.0,179.0,1744418775.4950974,0.0,2025-04-11 20:46:15.495,STOP,31
230.0,6721.147205966378,-13153.129893914449,-21634.61108620299,-24033.55676335773,20590.091716062037,6402.500737011521,37289.035295133035,46097.41075008044,0.0,0.0,0.0,193.0,0.0,193.0,0.0,17.0,0.0,179.0,193.0,17.0,179.0,1744418775.495129,0.0,2025-04-11 20:46:15.495,STOP,31
231.0,6701.812947012538,-13179.326138416069,-21655.532319013157,-24076.472112711923,20649.94968771335,6119.63941092961,37566.10751940102,45989.38476912794,0.0,0.0,0.0,193.0,0.0,192.0,0.0,17.0,0.0,179.0,192.0,17.0,179.0,1744418775.4951603,0.0,2025-04-11 20:46:15.495,STOP,31
232.0,6703.6457900578735,-13165.490408598234,-21687.942348473352,-24060.982353804393,20496.750831216676,6122.053399330784,37413.9815466382,45913.79116938009,0.0,0.0,0.0,193.0,0.0,193.0,0.0,17.0,0.0,179.0,193.0,17.0,179.0,1744418775.495192,0.0,2025-04-11 20:46:15.495,STOP,31
233.0,6726.288107191099,-13131.895736681909,-21679.582796047067,-24024.906638253527,20401.577103325977,6393.448280507122,37138.87627588228,46017.32444969707,0.0,0.0,0.0,193.0,0.0,193.0,0.0,17.0,0.0,179.0,193.0,17.0,179.0,1744418775.495224,0.0,2025-04-11 20:46:15.495,STOP,31
234.0,6729.66322060385,-13141.484635053235,-21634.879307136456,-24030.628684834086,20547.422235896855,6392.107175839803,37229.244378715084,46058.20579030583,0.0,0.0,0.0,193.0,0.0,193.0,0.0,17.0,0.0,178.0,193.0,17.0,178.0,1744418775.4952555,0.0,2025-04-11 20:46:15.495,STOP,31
235.0,6717.034484986602,-13173.42527787987,-21657.163996358395,-24079.735467402395,20626.860335691017,6120.511128963367,37589.86742375701,45978.611228300484,0.0,0.0,0.0,193.0,0.0,193.0,0.0,17.0,0.0,178.0,193.0,17.0,178.0,1744418775.4952874,0.0,2025-04-11 20:46:15.495,STOP,31
236.0,6716.810967542049,-13158.181388161349,-21691.160999674918,-24056.3778944466,20480.59051997549,6036.736790744876,37498.62760289045,45879.99533176367,0.0,0.0,0.0,193.0,0.0,192.0,0.0,17.0,0.0,178.0,192.0,17.0,178.0,1744418775.4953194,0.0,2025-04-11 20:46:15.495,STOP,31
237.0,6725.215223457244,-13131.806329704086,-21695.58664507707,-24023.006739974826,20406.18156268377,6329.656401831675,37227.07625950292,45996.939658753836,0.0,0.0,0.0,193.0,0.0,193.0,0.0,17.0,0.0,179.0,193.0,17.0,179.0,1744418775.4953513,0.0,2025-04-11 20:46:15.495,STOP,31
238.0,6734.781770084116,-13135.092036139016,-21648.42446427637,-24024.213734175413,20513.06760466905,6371.409460474189,37186.64195378327,46046.11349655551,0.0,0.0,0.0,193.0,0.0,192.0,0.0,17.0,0.0,179.0,192.0,17.0,179.0,1744418775.4953823,0.0,2025-04-11 20:46:15.495,STOP,31
239.0,6702.639961557385,-13185.741089074743,-21653.274792823173,-24082.52943545931,20616.109146608014,6139.934794895029,37576.32226661709,46014.99986827372,0.0,0.0,0.0,193.0,0.0,193.0,0.0,17.0,0.0,179.0,193.0,17.0,179.0,1744418775.495414,0.0,2025-04-11 20:46:15.495,STOP,31
240.0,6700.225973156211,-13174.207588935804,-21686.087153683562,-24075.15335978906,20497.667252739342,5975.805935359709,37547.66733022539,45901.45300644076,0.0,0.0,0.0,193.0,0.0,193.0,0.0,17.0,0.0,178.0,193.0,17.0,178.0,1744418775.4954588,0.0,2025-04-11 20:46:15.495,STOP,31
241.0,6708.9878569826915,-13132.253364593193,-21695.787810777165,-24028.393510388556,20375.403210568813,6289.266799600935,37297.86423419288,45999.107777966,0.0,0.0,0.0,193.0,0.0,193.0,0.0,17.0,0.0,179.0,193.0,17.0,179.0,1744418775.4954908,0.0,2025-04-11 20:46:15.495,STOP,31
242.0,6727.875081047426,-13126.93364941283,-21649.47499626577,-24020.011606217817,20429.226211217192,6380.372510000767,37193.034552697485,46079.484651027284,0.0,0.0,0.0,193.0,0.0,193.0,0.0,17.0,0.0,179.0,193.0,17.0,179.0,1744418775.4955237,0.0,2025-04-11 20:46:15.495,STOP,31
243.0,6712.698246562272,-13175.973376747774,-21630.163089056387,-24054.52269965681,20652.22956564779,6205.425406149078,37564.78876647816,46068.532296244186,0.0,0.0,0.0,193.0,0.0,193.0,0.0,17.0,0.0,179.0,193.0,17.0,179.0,1744418775.4955556,0.0,2025-04-11 20:46:15.495,STOP,31
244.0,6721.0801507330125,-13164.395173119925,-21650.927859655367,-24045.447891407955,20579.921672334873,6027.6172790071105,37596.88587151597,45921.94955610628,0.0,0.0,0.0,193.0,0.0,193.0,0.0,17.0,0.0,179.0,193.0,17.0,179.0,1744418775.4956043,0.0,2025-04-11 20:46:15.495,STOP,31
245.0,6723.203566456266,-13135.583774517034,-21666.484673796258,-24013.239027647858,20438.36807469941,6265.95393013405,37360.82909832348,45983.5509638251,0.0,0.0,0.0,193.0,0.0,193.0,0.0,17.0,0.0,179.0,193.0,17.0,179.0,1744418775.4956608,0.0,2025-04-11 20:46:15.495,STOP,31
246.0,6732.412485171853,-13117.657675463877,-21635.885135636945,-24004.23127463237,20450.5274236831,6428.831091979872,37186.954878205644,46064.71014794233,0.0,0.0,0.0,193.0,0.0,193.0,0.0,17.0,0.0,179.0,193.0,17.0,179.0,1744418775.495711,0.0,2025-04-11 20:46:15.495,STOP,31
247.0,6704.204583669256,-13166.898568498918,-21629.827812889554,-24047.839528064673,20610.70002444983,6311.037398700404,37523.52744621366,46063.749022930744,0.0,0.0,0.0,193.0,0.0,193.0,0.0,17.0,0.0,179.0,193.0,17.0,179.0,1744418775.4957693,0.0,2025-04-11 20:46:15.495,STOP,31
248.0,6706.70797904825,-13175.883969769951,-21661.656696993912,-24064.759798617342,20544.136529461925,6035.887424455575,37649.747747152775,45917.032172326115,0.0,0.0,0.0,193.0,0.0,193.0,0.0,17.0,0.0,178.0,193.0,17.0,178.0,1744418775.495803,0.0,2025-04-11 20:46:15.495,STOP,31
249.0,6701.522374334619,-13159.433085850846,-21686.511836828213,-24032.975618001896,20406.56154233951,6192.684911809553,37439.529590550614,45931.42669575533,0.0,0.0,0.0,193.0,0.0,193.0,0.0,17.0,0.0,180.0,193.0,17.0,180.0,1744418775.4958353,0.0,2025-04-11 20:46:15.495,STOP,31
250.0,6709.189022682789,-13140.12117864146,-21675.291261111648,-24020.302178895734,20311.76779410455,6375.231608776046,37206.1326749483,46019.06788576459,0.0,0.0,0.0,193.0,0.0,193.0,0.0,17.0,0.0,178.0,193.0,17.0,178.0,1744418775.4958668,0.0,2025-04-11 20:46:15.495,STOP,31
251.0,6702.684665046295,-13170.474847611767,-21636.7568536707,-24048.778301331797,20523.327055374033,6260.567159720321,37461.54605883909,46029.61790914749,0.0,0.0,0.0,193.0,0.0,192.0,0.0,17.0,0.0,178.0,192.0,17.0,178.0,1744418775.4958992,0.0,2025-04-11 20:46:15.495,STOP,31
252.0,6702.014112712635,-13177.448591881823,-21647.66450496489,-24064.960964317437,20603.07807959057,6024.420979550002,37673.21707883085,45895.88742207139,0.0,0.0,0.0,193.0,0.0,193.0,0.0,17.0,0.0,179.0,193.0,17.0,179.0,1744418775.495931,0.0,2025-04-11 20:46:15.495,STOP,31
253.0,6693.98983645318,-13166.563292332088,-21678.688726268858,-24036.484841881378,20469.705220425752,6144.472199019457,37500.1028180245,45886.8796690559,0.0,0.0,0.0,193.0,0.0,192.0,0.0,17.0,0.0,178.0,192.0,17.0,178.0,1744418775.495963,0.0,2025-04-11 20:46:15.495,STOP,31
254.0,6705.769205781127,-13133.706227982788,-21669.47980755327,-24016.412975360512,20390.222417142682,6410.949696415627,37239.14620150879,46010.75303682721,0.0,0.0,0.0,193.0,0.0,193.0,0.0,17.0,0.0,179.0,193.0,17.0,179.0,1744418775.4959946,0.0,2025-04-11 20:46:15.495,STOP,31
255.0,6710.060740716546,-13139.942364685818,-21621.71412965228,-24027.365330143613,20570.288070474635,6374.561056442387,37386.04186606906,46054.00366234823,0.0,0.0,0.0,193.0,0.0,193.0,0.0,17.0,0.0,179.0,193.0,17.0,179.0,1744418775.496064,0.0,2025-04-11 20:46:15.496,STOP,31
0.0,6703.75754878015,-13176.487466870245,-21638.075606593564,-24068.13491203009,20618.679597220373,6095.052492028773,37668.5902677286,45946.245902329196,0.0,0.0,0.0,193.0,0.0,193.0,0.0,17.0,0.0,179.0,193.0,17.0,179.0,1744418775.4960961,0.0,2025-04-11 20:46:15.496,STOP,31
1.0,6701.365912123431,-13175.124010458472,-21670.642098264947,-24051.013475777327,20481.931624642806,6064.855285269652,37534.23393180775,45885.5832678775,0.0,0.0,0.0,193.0,0.0,193.0,0.0,17.0,0.0,179.0,193.0,17.0,179.0,1744418775.4961276,0.0,2025-04-11 20:46:15.496,STOP,31
2.0,6707.378531381909,-13151.364106102481,-21680.655679780924,-24027.879420266083,20366.84249244243,6329.321125664846,37270.25982979057,46019.06788576459,0.0,0.0,0.0,193.0,0.0,193.0,0.0,17.0,0.0,178.0,193.0,17.0,178.0,1744418775.4961607,0.0,2025-04-11 20:46:15.496,STOP,31
3.0,6712.675894817817,-13151.386457846935,-21639.506118238703,-24021.33035914068,20444.894784080363,6355.763239355474,37308.61542327588,46056.73057517178,0.0,0.0,0.0,193.0,0.0,192.0,0.0,17.0,0.0,178.0,192.0,17.0,178.0,1744418775.4963074,0.0,2025-04-11 20:46:15.496,STOP,31
4.0,6691.75466200765,-13188.110373987005,-21651.7101707113,-24074.013420821837,20568.11995126247,6113.291515504303,37667.00329387227,45992.469309862776,0.0,0.0,0.0,193.0,0.0,193.0,0.0,17.0,0.0,179.0,193.0,17.0,179.0,1744418775.4963405,0.0,2025-04-11 20:46:15.496,STOP,31
5.0,6696.672045787817,-13173.51468485769,-21684.63429029397,-24061.407036949044,20466.62067969092,6005.042017107251,37570.130833402975,45885.136232988385,0.0,0.0,0.0,193.0,0.0,192.0,0.0,17.0,0.0,179.0,192.0,17.0,179.0,1744418775.4963791,0.0,2025-04-11 20:46:15.496,STOP,31
6.0,6701.812947012538,-13145.306783355092,-21697.240674166762,-24029.198173188946,20321.289637242513,6315.865375502751,37298.66889699327,45989.47417610576,0.0,0.0,0.0,193.0,0.0,193.0,0.0,17.0,0.0,179.0,193.0,17.0,179.0,1744418775.496411,0.0,2025-04-11 20:46:15.496,STOP,31
7.0,6718.196775698278,-13130.040541892116,-21647.150414842417,-24014.4683735929,20426.09696699345,6417.118777885292,37250.299721991985,46042.581920931574,0.0,0.0,0.0,193.0,0.0,193.0,0.0,17.0,0.0,179.0,193.0,17.0,179.0,1744418775.4964423,0.0,2025-04-11 20:46:15.496,STOP,31
8.0,6687.999568939158,-13170.854827267507,-21645.47403400827,-24058.344847958666,20590.963434095793,6236.628441408688,37639.130668536505,46012.027086261165,0.0,0.0,0.0,193.0,0.0,193.0,0.0,17.0,0.0,179.0,193.0,17.0,179.0,1744418775.496475,0.0,2025-04-11 20:46:15.496,STOP,31
9.0,6694.213353897733,-13169.22314992227,-21667.423447063382,-24056.981391546895,20489.15123810187,6035.015706421817,37601.33386866258,45859.87876175389,0.0,0.0,0.0,193.0,0.0,193.0,0.0,17.0,0.0,179.0,193.0,17.0,179.0,1744418775.4965067,0.0,2025-04-11 20:46:15.496,STOP,31
10.0,6699.555420822552,-13151.386457846935,-21678.53226405767,-24026.873591765594,20438.770406099607,6281.823668697318,37340.623121335884,45928.16334106486,0.0,0.0,0.0,193.0,0.0,193.0,0.0,17.0,0.0,179.0,193.0,17.0,179.0,1744418775.4965389,0.0,2025-04-11 20:46:15.496,STOP,31
11.0,6707.378531381909,-13144.278603110148,-21645.652847963913,-24022.537353341264,20485.999642133673,6397.248077064523,37206.28913715949,45986.52374583766,0.0,0.0,0.0,193.0,0.0,193.0,0.0,17.0,0.0,179.0,193.0,17.0,179.0,1744418775.4965713,0.0,2025-04-11 20:46:15.496,STOP,31
12.0,6690.860592229437,-13181.002519250218,-21631.705359423802,-24057.026095035806,20644.94289695536,6235.264984996914,37573.19302239335,45964.1496496379,0.0,0.0,0.0,193.0,0.0,193.0,0.0,17.0,0.0,179.0,193.0,17.0,179.0,1744418775.4966035,0.0,2025-04-11 20:46:15.496,STOP,31
13.0,6687.954865450248,-13186.523400130678,-21668.652793008423,-24065.832682351196,20546.997552752204,5991.809784389709,37653.41343324345,45829.83801720596,0.0,0.0,0.0,193.0,0.0,193.0,0.0,17.0,0.0,179.0,193.0,17.0,179.0,1744418775.4966357,0.0,2025-04-11 20:46:15.496,STOP,31
14.0,6695.3085893760435,-13158.360202116992,-21692.792677020156,-24029.4216906335,20383.65100427282,6189.220391418981,37428.0854973895,45884.06334925453,0.0,0.0,0.0,193.0,0.0,192.0,0.0,17.0,0.0,178.0,192.0,17.0,178.0,1744418775.4966924,0.0,2025-04-11 20:46:15.496,STOP,31
15.0,6706.618572070429,-13138.64596350741,-21662.99780166123,-24009.70745202392,20388.054297930517,6404.691207968141,37236.35223345187,45982.20985915779,0.0,0.0,0.0,193.0,0.0,193.0,0.0,17.0,0.0,178.0,193.0,17.0,178.0,1744418775.496725,0.0,2025-04-11 20:46:15.496,STOP,31
16.0,6693.98983645318,-13172.285338912647,-21638.14266182693,-24045.96198153043,20587.677727660863,6316.91590749215,37542.727594700766,45991.59759182901,0.0,0.0,0.0,193.0,0.0,193.0,0.0,17.0,0.0,179.0,193.0,17.0,179.0,1744418775.4967575,0.0,2025-04-11 20:46:15.496,STOP,31
17.0,6694.570981809018,-13185.428164652369,-21664.249499350728,-24064.268060239323,20524.623456552443,6043.19644489246,37689.93618368342,45856.347186129955,0.0,0.0,0.0,193.0,0.0,193.0,0.0,17.0,0.0,179.0,193.0,17.0,179.0,1744418775.4967904,0.0,2025-04-11 20:46:15.496,STOP,31
18.0,6698.281371388599,-13168.284376655147,-21678.10758091302,-24023.3196643972,20406.338024894958,6188.706301296509,37483.56252712757,45889.830099324005,0.0,0.0,0.0,193.0,0.0,193.0,0.0,17.0,0.0,179.0,193.0,17.0,179.0,1744418775.4968424,0.0,2025-04-11 20:46:15.496,STOP,31
19.0,6704.94219123628,-13151.252347380203,-21667.535205785658,-24013.596655559144,20361.858053428896,6411.396731304733,37247.639864401805,46016.497435152225,0.0,0.0,0.0,193.0,0.0,193.0,0.0,17.0,0.0,179.0,193.0,17.0,179.0,1744418775.4968772,0.0,2025-04-11 20:46:15.496,STOP,31
20.0,6710.351313394465,-13149.330097357048,-21615.053309804596,-24021.442117862956,20532.021883967147,6317.899384248184,37452.22538140123,46035.183493516866,0.0,0.0,0.0,193.0,0.0,193.0,0.0,17.0,0.0,179.0,193.0,17.0,179.0,1744418775.4969103,0.0,2025-04-11 20:46:15.496,STOP,31
21.0,6683.126888647901,-13180.957815761307,-21653.967696901287,-24059.57419390371,20501.53410453011,6068.342157404681,37698.54160529871,45927.80571315357,0.0,0.0,0.0,193.0,0.0,193.0,0.0,17.0,0.0,179.0,193.0,17.0,179.0,1744418775.4969437,0.0,2025-04-11 20:46:15.496,STOP,31
22.0,6688.603066039452,-13160.818894007076,-21671.178540131874,-24030.002835989337,20417.782118056075,6125.182643554526,37525.29323402563,45894.99335229318,0.0,0.0,0.0,193.0,0.0,192.0,0.0,17.0,0.0,179.0,192.0,17.0,179.0,1744418775.4969766,0.0,2025-04-11 20:46:15.496,STOP,31
23.0,6707.08795870399,-13130.465225036767,-21655.778188202166,-24003.627777532074,20406.3156731505,6374.315187253379,37246.67873939023,45997.61021108749,0.0,0.0,0.0,193.0,0.0,193.0,0.0,17.0,0.0,179.0,193.0,17.0,179.0,1744418775.49701,0.0,2025-04-11 20:46:15.497,STOP,31
24.0,6703.534031335596,-13145.776169988654,-21617.981388328244,-24010.55681831322,20565.01305878318,6387.770937415474,37378.442272954264,46031.29428998164,0.0,0.0,0.0,193.0,0.0,192.0,0.0,17.0,0.0,179.0,192.0,17.0,179.0,1744418775.4970436,0.0,2025-04-11 20:46:15.497,STOP,31
25.0,6680.958769435736,-13182.36597566199,-21645.18346133035,-24061.33998171568,20583.050916558615,6144.472199019457,37688.52802378274,45928.140989320396,0.0,0.0,0.0,193.0,0.0,193.0,0.0,17.0,0.0,179.0,193.0,17.0,179.0,1744418775.4970765,0.0,2025-04-11 20:46:15.497,STOP,31
26.0,6681.964597936225,-13174.162885446893,-21670.48563605376,-24038.049463993248,20433.830670574986,6079.5850848657,37553.43408029486,45835.716525997705,0.0,0.0,0.0,193.0,0.0,193.0,0.0,17.0,0.0,179.0,193.0,17.0,179.0,1744418775.4971097,0.0,2025-04-11 20:46:15.497,STOP,31
27.0,6695.599162053963,-13150.671202024365,-21667.937537185855,-24001.07967866417,20366.820140697975,6353.796285843407,37290.95754515619,45952.258521587675,0.0,0.0,0.0,193.0,0.0,192.0,0.0,17.0,0.0,179.0,192.0,17.0,179.0,1744418775.4971433,0.0,2025-04-11 20:46:15.497,STOP,31
28.0,6707.4008831263645,-13154.582757304044,-21624.84337387602,-24004.454792076922,20507.50202029968,6413.162519116702,37320.95358621521,46003.86869953498,0.0,0.0,0.0,193.0,0.0,192.0,0.0,17.0,0.0,179.0,192.0,17.0,179.0,1744418775.4971771,0.0,2025-04-11 20:46:15.497,STOP,31
29.0,6689.005397439647,-13186.74691757523,-21642.814176418087,-24056.84728108016,20607.83900115955,6191.477917608967,37693.78068372973,45951.90089367639,0.0,0.0,0.0,193.0,0.0,193.0,0.0,18.0,0.0,179.0,193.0,18.0,179.0,1744418775.4972107,0.0,2025-04-11 20:46:15.497,STOP,31
30.0,6684.758565993138,-13170.452495867312,-21670.262118609207,-24046.721940841908,20470.755752415153,6061.3684131346245,37623.21622648433,45844.813685991016,0.0,0.0,0.0,193.0,0.0,192.0,0.0,17.0,0.0,179.0,192.0,17.0,179.0,1744418775.4972696,0.0,2025-04-11 20:46:15.497,STOP,31
31.0,6694.481574831197,-13143.36218158748,-21676.341793101048,-24005.818248488697,20341.473262485655,6331.712762321564,37361.00791227912,45950.224512842244,0.0,0.0,0.0,193.0,0.0,193.0,0.0,17.0,0.0,178.0,193.0,17.0,178.0,1744418775.4973032,0.0,2025-04-11 20:46:15.497,STOP,31
32.0,6697.253191143655,-13151.989954947228,-21643.66354270739,-24006.801725244728,20425.493469893154,6405.920553913183,37303.072190650964,46020.49839740973,0.0,0.0,0.0,193.0,0.0,192.0,0.0,18.0,0.0,178.0,192.0,18.0,178.0,1744418775.4973578,0.0,2025-04-11 20:46:15.497,STOP,31
33.0,6671.526333275597,-13201.499068915733,-21647.888022409443,-24060.66942938202,20604.240370302246,6215.483691153967,37678.96147715586,45980.645237045916,0.0,0.0,0.0,193.0,0.0,193.0,0.0,17.0,0.0,179.0,193.0,17.0,179.0,1744418775.4974434,0.0,2025-04-11 20:46:15.497,STOP,31
34.0,6669.671138485806,-13202.571952649589,-21679.515740813702,-24062.971659060917,20495.834409694005,6017.156662602028,37668.5902677286,45819.086828122956,0.0,0.0,0.0,193.0,0.0,193.0,0.0,18.0,0.0,179.0,193.0,18.0,179.0,1744418775.497504,0.0,2025-04-11 20:46:15.497,STOP,31
35.0,6677.047214156058,-13170.430144122856,-21685.72952577228,-24022.067966707706,20356.761855693087,6260.008366108938,37401.9786598657,45868.439479880275,0.0,0.0,0.0,193.0,0.0,192.0,0.0,17.0,0.0,178.0,192.0,17.0,178.0,1744418775.4975567,0.0,2025-04-11 20:46:15.497,STOP,31
36.0,6692.760490508139,-13157.51083582769,-21650.23495557725,-24013.239027647858,20378.733620492654,6392.889486895739,37238.52035266404,45923.737695662705,0.0,0.0,0.0,193.0,0.0,193.0,0.0,17.0,0.0,179.0,193.0,17.0,179.0,1744418775.497619,0.0,2025-04-11 20:46:15.497,STOP,31
