Sample Index,EXG Channel 0,EXG Channel 1,EXG Channel 2,EXG Channel 3,EXG Channel 4,EXG Channel 5,EXG Channel 6,EXG Channel 7,Accel Channel 0,Accel Channel 1,Accel Channel 2,Not Used,Digital Channel 0 (D11),Digital Channel 1 (D12),Digital Channel 2 (D13),Digital Channel 3 (D17),Not Used,Digital Channel 4 (D18),Analog Channel 0,Analog Channel 1,Analog Channel 2,Timestamp,Marker Channel,Timestamp (Formatted),Stimulus_Direction,Stimulus_Number
215.0,8550.726896611082,-6390.296684538924,-20112.725509730044,-23382.025764229988,13078.519770922634,14889.32399622488,31217.921521415894,51427.206567192865,0.0,0.0,0.0,193.0,0.0,193.0,0.0,1.0,0.0,179.0,193.0,1.0,179.0,1744418910.1264665,0.0,2025-04-11 20:48:30.126,STOP,48
216.0,8580.968806859113,-6325.7448465519965,-20114.603056264288,-23335.400025296214,12991.012691380107,15132.600382876442,30962.776358458563,51531.075123676674,0.0,0.0,0.0,193.0,0.0,193.0,0.0,1.0,0.0,179.0,193.0,1.0,179.0,1744418910.1265275,0.0,2025-04-11 20:48:30.126,STOP,48
217.0,8584.36627201632,-6334.35026816729,-20052.688724123087,-23340.94325792113,13092.936646096308,15134.120301499404,30957.16607060028,51578.52787715529,0.0,0.0,0.0,193.0,0.0,193.0,0.0,1.0,0.0,179.0,193.0,1.0,179.0,1744418910.1265612,0.0,2025-04-11 20:48:30.126,STOP,48
218.0,8551.978594300579,-6400.444376521633,-20051.30291596686,-23396.509694637025,13199.934446803862,14955.127531901306,31317.319729008643,51546.27430990629,0.0,0.0,0.0,193.0,0.0,193.0,0.0,1.0,0.0,179.0,193.0,1.0,179.0,1744418910.1265955,0.0,2025-04-11 20:48:30.126,STOP,48
219.0,8561.433382205174,-6387.078033337359,-20099.381518290225,-23380.796418284943,13073.848256331476,14865.541740124434,31243.08958567257,51419.80813977816,0.0,0.0,0.0,193.0,0.0,193.0,0.0,1.0,0.0,179.0,193.0,1.0,179.0,1744418910.12663,0.0,2025-04-11 20:48:30.126,STOP,48
220.0,8563.422687461698,-6365.799172615907,-20120.235695867028,-23341.882031188255,12968.102153313417,15108.125222697881,30996.639251308356,51514.69129499094,0.0,0.0,0.0,193.0,0.0,193.0,0.0,1.0,0.0,179.0,193.0,1.0,179.0,1744418910.1266644,0.0,2025-04-11 20:48:30.126,STOP,48
221.0,8576.163181801223,-6347.180169484636,-20064.713962640046,-23332.069615372377,13048.411971141335,15151.532310430088,30913.4460584457,51594.79994711876,0.0,0.0,0.0,193.0,0.0,193.0,0.0,1.0,0.0,178.0,193.0,1.0,178.0,1744418910.1267002,0.0,2025-04-11 20:48:30.126,STOP,48
222.0,8559.2205595041,-6378.584370444342,-20035.477880892504,-23377.175435683184,13208.025778296684,14987.917541017241,31263.72024580482,51571.88940905207,0.0,0.0,0.0,193.0,0.0,193.0,0.0,1.0,0.0,179.0,193.0,1.0,179.0,1744418910.12674,0.0,2025-04-11 20:48:30.126,STOP,48
223.0,8558.058268792423,-6385.960446114594,-20092.564236231356,-23389.58065385588,13112.114442838962,14849.984925983541,31270.068141230124,51425.57488984762,0.0,0.0,0.0,193.0,0.0,193.0,0.0,1.0,0.0,179.0,193.0,1.0,179.0,1744418910.1267767,0.0,2025-04-11 20:48:30.126,STOP,48
224.0,8563.445039206152,-6362.535817925432,-20134.6525710407,-23356.14244415074,12994.588970492956,15077.257463605103,31053.077406058004,51501.81669018468,0.0,0.0,0.0,193.0,0.0,193.0,0.0,1.0,0.0,179.0,193.0,1.0,179.0,1744418910.126817,0.0,2025-04-11 20:48:30.126,STOP,48
225.0,8577.392527746264,-6344.028573516438,-20100.566160746355,-23341.47969978806,13012.246848612649,15177.728554931708,30906.82994208693,51606.64637168007,0.0,0.0,0.0,193.0,0.0,193.0,0.0,1.0,0.0,179.0,193.0,1.0,179.0,1744418910.6027565,0.0,2025-04-11 20:48:30.602,STOP,48
226.0,8570.619949176305,-6368.16845752817,-20047.413712431637,-23371.38633386926,13187.506876886711,15037.359599752379,31208.019698622193,51599.471461709916,0.0,0.0,0.0,193.0,0.0,193.0,0.0,1.0,0.0,179.0,193.0,1.0,179.0,1744418910.6029413,0.0,2025-04-11 20:48:30.602,STOP,48
227.0,8559.868760093303,-6378.271446021968,-20097.906303156175,-23401.248264461552,13134.197966360804,14843.03353345794,31308.87076960454,51461.22592225384,0.0,0.0,0.0,193.0,0.0,193.0,0.0,1.0,0.0,178.0,193.0,1.0,178.0,1744418910.603216,0.0,2025-04-11 20:48:30.603,STOP,48
228.0,8564.473219451096,-6357.64078588972,-20134.40670185169,-23357.930583707166,13013.81147072452,15016.63953264231,31103.435886315812,51488.38329176704,0.0,0.0,0.0,193.0,0.0,192.0,0.0,1.0,0.0,178.0,192.0,1.0,178.0,1744418910.6032584,0.0,2025-04-11 20:48:30.603,STOP,48
229.0,8576.967844601613,-6343.782704327429,-20106.712890471565,-23335.869411929776,13004.893124686852,15168.407877493844,30910.473276433146,51597.79508087577,0.0,0.0,0.0,193.0,0.0,193.0,0.0,1.0,0.0,179.0,193.0,1.0,179.0,1744418910.603291,0.0,2025-04-11 20:48:30.603,STOP,48
230.0,8557.097143780846,-6395.482289252554,-20061.40590446066,-23381.332860151873,13169.111391199995,15055.17394008326,31159.181136987347,51613.106025827656,0.0,0.0,0.0,193.0,0.0,193.0,0.0,1.0,0.0,179.0,193.0,1.0,179.0,1744418910.6033232,0.0,2025-04-11 20:48:30.603,STOP,48
231.0,8543.2167104741,-6407.485176025054,-20091.02196586394,-23417.721500125113,13148.167806645371,14836.842100243819,31334.597627472598,51486.706910932895,0.0,0.0,0.0,193.0,0.0,193.0,0.0,1.0,0.0,179.0,193.0,1.0,179.0,1744418910.6033742,0.0,2025-04-11 20:48:30.603,STOP,48
232.0,8552.962071056614,-6372.683509908141,-20113.999559163996,-23368.43590360116,13032.095197688961,14963.084752927394,31151.536840383633,51462.164695520965,0.0,0.0,0.0,193.0,0.0,193.0,0.0,1.0,0.0,179.0,193.0,1.0,179.0,1744418910.603406,0.0,2025-04-11 20:48:30.603,STOP,48
233.0,8570.12821079829,-6345.660250861675,-20112.680806241133,-23346.128862634763,12983.144877331839,15162.708182657741,30928.242913275113,51588.563810415726,0.0,0.0,0.0,193.0,0.0,193.0,0.0,1.0,0.0,179.0,193.0,1.0,179.0,1744418910.603439,0.0,2025-04-11 20:48:30.603,STOP,48
234.0,8580.70058592565,-6360.568864413365,-20054.07453227932,-23364.680810532667,13143.920975198864,15093.775402757574,31086.71678146324,51620.370342775626,0.0,0.0,0.0,193.0,0.0,193.0,0.0,1.0,0.0,179.0,193.0,1.0,179.0,1744418910.6034722,0.0,2025-04-11 20:48:30.603,STOP,48
235.0,8567.155428785734,-6390.274332794468,-20084.62936694972,-23414.793421601466,13169.401963877914,14868.000432014518,31344.655912477487,51515.67477174697,0.0,0.0,0.0,193.0,0.0,193.0,0.0,1.0,0.0,179.0,193.0,1.0,179.0,1744418910.603504,0.0,2025-04-11 20:48:30.603,STOP,48
236.0,8575.716146912117,-6368.637844161731,-20122.582629034834,-23377.845988016845,13043.829863527997,14903.942037098652,31170.334657470547,51436.52724463073,0.0,0.0,0.0,193.0,0.0,193.0,0.0,1.0,0.0,179.0,193.0,1.0,179.0,1744418910.6035364,0.0,2025-04-11 20:48:30.603,STOP,48
237.0,8584.165106316223,-6345.459085161578,-20124.773099991453,-23342.57493526637,12974.51710397209,15137.920098056806,30927.102974307894,51558.45601063443,0.0,0.0,0.0,193.0,0.0,193.0,0.0,1.0,0.0,179.0,193.0,1.0,179.0,1744418910.6035695,0.0,2025-04-11 20:48:30.603,STOP,48
238.0,8576.230237034588,-6360.300643479901,-20066.92678534112,-23351.62739177077,13099.30689326607,15116.440071635256,31004.149437445336,51612.36841826063,0.0,0.0,0.0,193.0,0.0,193.0,0.0,1.0,0.0,179.0,193.0,1.0,179.0,1744418910.603603,0.0,2025-04-11 20:48:30.603,STOP,48
239.0,8545.876568064281,-6405.898202168728,-20074.034640077905,-23401.53883713947,13168.37378363297,14917.24132504956,31336.4975257513,51556.35494665563,0.0,0.0,0.0,193.0,0.0,193.0,0.0,1.0,0.0,179.0,193.0,1.0,179.0,1744418910.603636,0.0,2025-04-11 20:48:30.603,STOP,48
240.0,8578.018376591013,-6369.68837615113,-20096.900474655686,-23357.684714518156,13067.299195206071,14891.067432292395,31219.687309227862,51443.7915615787,0.0,0.0,0.0,193.0,0.0,193.0,0.0,1.0,0.0,178.0,193.0,1.0,178.0,1744418910.6036692,0.0,2025-04-11 20:48:30.603,STOP,48
241.0,8570.083507309379,-6359.048945790404,-20130.785719249932,-23338.84219394233,12978.13808657385,15137.85304282344,30993.934690229264,51557.67369957849,0.0,0.0,0.0,193.0,0.0,193.0,0.0,1.0,0.0,178.0,193.0,1.0,178.0,1744418910.6037035,0.0,2025-04-11 20:48:30.603,STOP,48
242.0,8572.095164310356,-6363.429887703644,-20081.41071574816,-23346.218269612586,13071.724840608222,15153.09693254196,30977.237937121146,51628.55108124627,0.0,0.0,0.0,193.0,0.0,193.0,0.0,1.0,0.0,178.0,193.0,1.0,178.0,1744418910.6038904,0.0,2025-04-11 20:48:30.603,STOP,48
243.0,8552.805608845427,-6391.906010139705,-20074.124047055728,-23399.90715979423,13190.27849319917,14955.954546446152,31315.419830729945,51584.38403420259,0.0,0.0,0.0,193.0,0.0,193.0,0.0,1.0,0.0,178.0,193.0,1.0,178.0,1744418910.6039317,0.0,2025-04-11 20:48:30.603,STOP,48
244.0,8556.225425747089,-6376.483306465543,-20117.106451643285,-23388.910101522222,13078.609177900456,14842.094760190817,31243.044882183658,51433.73327657381,0.0,0.0,0.0,193.0,0.0,192.0,0.0,1.0,0.0,178.0,192.0,1.0,178.0,1744418910.6039653,0.0,2025-04-11 20:48:30.603,STOP,48
245.0,8553.87849257928,-6368.503733694999,-20143.369751378268,-23354.08608366085,12976.953444117718,15088.947425955228,31015.81704805101,51523.20730962841,0.0,0.0,0.0,193.0,0.0,192.0,0.0,1.0,0.0,178.0,192.0,1.0,178.0,1744418910.6040013,0.0,2025-04-11 20:48:30.604,STOP,48
246.0,8576.967844601613,-6356.9702335560605,-20099.44857352359,-23347.559374279903,13028.965953465218,15155.846197109962,30930.67925342074,51622.27024105433,0.0,0.0,0.0,193.0,0.0,192.0,0.0,1.0,0.0,178.0,192.0,1.0,178.0,1744418910.604067,0.0,2025-04-11 20:48:30.604,STOP,48
247.0,8583.874533638304,-6379.947826856116,-20052.241689233982,-23371.833368758365,13197.453403169324,14998.78048882252,31269.486995874286,51602.93598210049,0.0,0.0,0.0,193.0,0.0,192.0,0.0,1.0,0.0,178.0,192.0,1.0,178.0,1744418910.6041002,0.0,2025-04-11 20:48:30.604,STOP,48
248.0,8566.484876452074,-6383.702919924608,-20096.386384533213,-23382.87513051929,13117.300047552591,14841.178338668149,31307.037926559202,51454.02866053923,0.0,0.0,0.0,193.0,0.0,193.0,0.0,1.0,0.0,179.0,193.0,1.0,179.0,1744418910.6041317,0.0,2025-04-11 20:48:30.604,STOP,48
249.0,8557.924158325692,-6363.988681315027,-20132.573858806358,-23350.018066169985,12993.963121648208,15048.669582446764,31093.53406352211,51510.86914668908,0.0,0.0,0.0,193.0,0.0,193.0,0.0,1.0,0.0,179.0,193.0,1.0,179.0,1744418910.6041636,0.0,2025-04-11 20:48:30.604,STOP,48
250.0,8568.74240264206,-6355.517370166465,-20106.22115209355,-23344.13955737824,13007.351816576936,15155.041534309572,30926.521828952056,51611.38494150459,0.0,0.0,0.0,193.0,0.0,193.0,0.0,1.0,0.0,179.0,193.0,1.0,179.0,1744418910.604195,0.0,2025-04-11 20:48:30.604,STOP,48
251.0,8555.085486779868,-6386.943922870627,-20055.750913113465,-23371.408685613715,13175.28047266966,15029.111806048371,31215.12755335898,51616.50349098486,0.0,0.0,0.0,193.0,0.0,193.0,0.0,1.0,0.0,179.0,193.0,1.0,179.0,1744418910.6042264,0.0,2025-04-11 20:48:30.604,STOP,48
252.0,8569.278844508988,-6384.686396680641,-20095.089983354806,-23392.30756667943,13118.037655119617,14832.17058565266,31323.30999652267,51466.99267232331,0.0,0.0,0.0,193.0,0.0,193.0,0.0,1.0,0.0,179.0,193.0,1.0,179.0,1744418910.6042585,0.0,2025-04-11 20:48:30.604,STOP,48
253.0,8567.356594485831,-6360.21123650208,-20149.292963658925,-23370.045229201944,12999.99809265114,14994.310139931458,31126.324072638046,51478.19089629542,0.0,0.0,0.0,193.0,0.0,193.0,0.0,1.0,0.0,179.0,193.0,1.0,179.0,1744418910.6042907,0.0,2025-04-11 20:48:30.604,STOP,48
254.0,8582.108745826334,-6328.471759375544,-20124.638989524723,-23340.630333498757,12986.721156444688,15164.786894892086,30927.058270818983,51602.42189197802,0.0,0.0,0.0,193.0,0.0,193.0,0.0,1.0,0.0,179.0,193.0,1.0,179.0,1744418910.6043231,0.0,2025-04-11 20:48:30.604,STOP,48
255.0,8559.444076948652,-6383.233533291046,-20054.67802937961,-23362.020952942486,13167.278548154658,15074.552902526011,31160.052855021106,51631.09918011417,0.0,0.0,0.0,193.0,0.0,193.0,0.0,1.0,0.0,179.0,193.0,1.0,179.0,1744418910.604356,0.0,2025-04-11 20:48:30.604,STOP,48
0.0,8551.844483833847,-6408.446301036633,-20079.421410491635,-23397.224950459597,13155.74504801572,14851.013106228484,31357.463462050375,51507.13640536504,0.0,0.0,0.0,193.0,0.0,193.0,0.0,0.0,0.0,178.0,193.0,0.0,178.0,1744418910.604389,0.0,2025-04-11 20:48:30.604,STOP,48
1.0,8561.16516127171,-6396.801042175418,-20116.570009776355,-23365.53017682197,13041.929965249297,14947.282069597491,31172.770997616175,51467.21618976787,0.0,0.0,0.0,193.0,0.0,193.0,0.0,0.0,0.0,178.0,193.0,0.0,178.0,1744418910.604421,0.0,2025-04-11 20:48:30.604,STOP,48
2.0,8569.703527653639,-6385.8486873923175,-20117.73230048803,-23349.52632779197,12987.458764011713,15160.025973323105,30944.51498323858,51592.765938373326,0.0,0.0,0.0,193.0,0.0,192.0,0.0,1.0,0.0,178.0,192.0,1.0,178.0,1744418910.6046178,0.0,2025-04-11 20:48:30.604,STOP,48
3.0,8573.145696299756,-6401.3607980443,-20056.712038125042,-23367.7653512675,13139.629440263443,15101.777327272574,31084.749827951175,51629.512206257845,0.0,0.0,0.0,193.0,0.0,193.0,0.0,1.0,0.0,179.0,193.0,1.0,179.0,1744418910.6046622,0.0,2025-04-11 20:48:30.604,STOP,48
4.0,8557.343012969854,-6432.1615019037135,-20082.68476518211,-23419.26377049253,13178.499123871223,14876.874074563275,31361.710293496883,51531.946841710436,0.0,0.0,0.0,193.0,0.0,193.0,0.0,0.0,0.0,179.0,193.0,0.0,179.0,1744418910.6047127,0.0,2025-04-11 20:48:30.604,STOP,48
5.0,8566.104896796334,-6413.520147027987,-20119.22986736654,-23377.041325216454,13059.520788135624,14894.889580594252,31209.830189923072,51445.40088717949,0.0,0.0,0.0,193.0,0.0,193.0,0.0,0.0,0.0,179.0,193.0,0.0,179.0,1744418910.6047473,0.0,2025-04-11 20:48:30.604,STOP,48
6.0,8577.616045190816,-6373.197600030613,-20117.240562110015,-23334.215382840084,12989.13514484586,15137.271897467603,30965.302105582014,51562.85930429212,0.0,0.0,0.0,193.0,0.0,193.0,0.0,1.0,0.0,179.0,193.0,1.0,179.0,1744418910.6048548,0.0,2025-04-11 20:48:30.604,STOP,48
7.0,8587.18259181769,-6371.521219196466,-20054.856843335252,-23339.780967209455,13114.059044606573,15131.795720076052,31008.55273110303,51618.44809275247,0.0,0.0,0.0,193.0,0.0,193.0,0.0,0.0,0.0,178.0,193.0,0.0,178.0,1744418910.604888,0.0,2025-04-11 20:48:30.604,STOP,48
8.0,8570.709356154128,-6415.040065650948,-20057.382590458703,-23385.71380206511,13203.533077661166,14936.083845625382,31342.420738031953,51558.50071412334,0.0,0.0,0.0,193.0,0.0,193.0,0.0,0.0,0.0,179.0,193.0,0.0,179.0,1744418910.6049192,0.0,2025-04-11 20:48:30.604,STOP,48
9.0,8572.855123621837,-6407.462824280599,-20107.383442805225,-23379.00827872852,13081.269035490637,14885.881827578763,31256.254763156747,51447.16667499145,0.0,0.0,0.0,193.0,0.0,193.0,0.0,0.0,0.0,178.0,193.0,0.0,178.0,1744418910.6049504,0.0,2025-04-11 20:48:30.604,STOP,48
10.0,8563.780315372982,-6391.637789206242,-20142.721550789065,-23358.15410115172,12963.408286977803,15117.915286769306,31009.60326309243,51544.75439128332,0.0,0.0,0.0,193.0,0.0,193.0,0.0,0.0,0.0,178.0,193.0,0.0,178.0,1744418910.6049814,0.0,2025-04-11 20:48:30.604,STOP,48
11.0,8572.810420132926,-6385.759280414496,-20079.823741891832,-23350.286287103452,13051.608270598445,15148.157197017337,30964.22922184816,51608.12158681412,0.0,0.0,0.0,193.0,0.0,192.0,0.0,0.0,0.0,178.0,192.0,0.0,178.0,1744418910.6050138,0.0,2025-04-11 20:48:30.605,STOP,48
12.0,8564.584978173372,-6415.241231351046,-20039.545898383367,-23380.95288049613,13211.579705665077,14983.335433403903,31321.38774649951,51572.80583057473,0.0,0.0,0.0,193.0,0.0,193.0,0.0,0.0,0.0,178.0,193.0,0.0,178.0,1744418910.605046,0.0,2025-04-11 20:48:30.605,STOP,48
13.0,8565.926082840691,-6411.955524916116,-20086.998651861984,-23379.29885140644,13110.281599793625,14863.395972656725,31297.00199329877,51433.777980062725,0.0,0.0,0.0,193.0,0.0,193.0,0.0,0.0,0.0,179.0,193.0,0.0,179.0,1744418910.6050782,0.0,2025-04-11 20:48:30.605,STOP,48
14.0,8561.16516127171,-6390.609608961297,-20124.638989524723,-23351.85090921532,12994.700729215232,15091.60728354541,31079.72068544873,51521.86620496109,0.0,0.0,0.0,193.0,0.0,193.0,0.0,0.0,0.0,179.0,193.0,0.0,179.0,1744418910.6051097,0.0,2025-04-11 20:48:30.605,STOP,48
15.0,8588.478992996097,-6373.957559342094,-20082.930634371118,-23339.9597811651,13029.122415676406,15160.584766934488,30950.88523040834,51604.16532804553,0.0,0.0,0.0,193.0,0.0,193.0,0.0,0.0,0.0,179.0,193.0,0.0,179.0,1744418910.605141,0.0,2025-04-11 20:48:30.605,STOP,48
16.0,8576.051423078945,-6413.989533661549,-20044.709151352545,-23379.9694037401,13197.743975847243,15007.989407538105,31274.605545354552,51585.345159214165,0.0,0.0,0.0,193.0,0.0,193.0,0.0,0.0,0.0,179.0,193.0,0.0,179.0,1744418910.6051724,0.0,2025-04-11 20:48:30.605,STOP,48
17.0,8571.066984065412,-6406.769920202484,-20088.317404784848,-23398.588406871368,13115.623666718444,14828.616658284267,31320.896008121494,51433.80033180718,0.0,0.0,0.0,193.0,0.0,193.0,0.0,0.0,0.0,178.0,193.0,0.0,178.0,1744418910.6052916,0.0,2025-04-11 20:48:30.605,STOP,48
18.0,8570.016452076014,-6382.115946068281,-20117.17350687665,-23358.86935697429,12998.321711816992,15029.424730470746,31100.463104303257,51468.53494269073,0.0,0.0,0.0,193.0,0.0,193.0,0.0,0.0,0.0,179.0,193.0,0.0,179.0,1744418910.605324,0.0,2025-04-11 20:48:30.605,STOP,48
19.0,8573.726841655594,-6372.147068041214,-20085.344622772292,-23331.890801416732,13006.770671221098,15177.639147953887,30930.813363887475,51583.75818535784,0.0,0.0,0.0,193.0,0.0,193.0,0.0,0.0,0.0,178.0,193.0,0.0,178.0,1744418910.6053553,0.0,2025-04-11 20:48:30.605,STOP,48
20.0,8562.238045005566,-6406.389940546745,-20036.751930326456,-23364.703162277125,13173.760554046698,15068.562635011987,31219.910826672418,51607.40633099155,0.0,0.0,0.0,193.0,0.0,193.0,0.0,0.0,0.0,179.0,193.0,0.0,179.0,1744418910.6053865,0.0,2025-04-11 20:48:30.605,STOP,48
21.0,8561.254568249533,-6419.7786354754735,-20075.331041256315,-23393.648671346746,13125.659599978877,14850.521367850468,31343.940656654915,51461.27062574275,0.0,0.0,0.0,193.0,0.0,193.0,0.0,0.0,0.0,179.0,193.0,0.0,179.0,1744418910.6054316,0.0,2025-04-11 20:48:30.605,STOP,48
22.0,8562.394507216753,-6396.532821241954,-20115.765346975964,-23348.498147547027,13008.469403799701,14999.07106150044,31144.49604088021,51455.95091056239,0.0,0.0,0.0,193.0,0.0,193.0,0.0,0.0,0.0,179.0,193.0,0.0,179.0,1744418910.6054635,0.0,2025-04-11 20:48:30.605,STOP,48
23.0,8563.176818272688,-6388.5532484714095,-20114.804221964387,-23333.47777527306,12983.368394776393,15177.303871787057,30945.230239061148,51587.088595281675,0.0,0.0,0.0,193.0,0.0,193.0,0.0,0.0,0.0,179.0,193.0,0.0,179.0,1744418910.6054945,0.0,2025-04-11 20:48:30.605,STOP,48
24.0,8558.88528333727,-6414.838899950851,-20053.091055523284,-23352.297944104426,13150.648850279911,15091.696690523231,31151.469785150268,51622.940793387985,0.0,0.0,0.0,193.0,0.0,193.0,0.0,0.0,0.0,179.0,193.0,0.0,179.0,1744418910.6055253,0.0,2025-04-11 20:48:30.605,STOP,48
25.0,8550.101047766335,-6436.765961261507,-20078.05795407986,-23395.14623822525,13150.26887062417,14870.526179137967,31364.21368887588,51495.580553481646,0.0,0.0,0.0,193.0,0.0,193.0,0.0,0.0,0.0,179.0,193.0,0.0,179.0,1744418910.6055565,0.0,2025-04-11 20:48:30.605,STOP,48
26.0,8553.967899557103,-6414.436568550655,-20122.157945890183,-23366.37954311127,13019.019427182608,14949.047857409461,31193.155788559412,51448.30661395867,0.0,0.0,0.0,193.0,0.0,193.0,0.0,0.0,0.0,178.0,193.0,0.0,178.0,1744418910.6055872,0.0,2025-04-11 20:48:30.605,STOP,48
27.0,8562.081582794379,-6387.547419970921,-20118.872239455253,-23341.233830599052,12977.825162151476,15161.210615779235,30956.65198047781,51569.7212898399,0.0,0.0,0.0,193.0,0.0,192.0,0.0,0.0,0.0,178.0,192.0,0.0,178.0,1744418910.6056185,0.0,2025-04-11 20:48:30.605,STOP,48
28.0,8557.36536471431,-6405.406463790711,-20055.795616602376,-23360.72455176408,13125.190213345315,15106.56060058601,31060.34172300598,51606.9816478469,0.0,0.0,0.0,193.0,0.0,192.0,0.0,0.0,0.0,178.0,192.0,0.0,178.0,1744418910.6056497,0.0,2025-04-11 20:48:30.605,STOP,48
29.0,8541.294460450943,-6426.46180706761,-20067.97731733052,-23411.150087255253,13183.394155906935,14889.27929273597,31355.854136449594,51519.273402604274,0.0,0.0,0.0,193.0,0.0,192.0,0.0,0.0,0.0,178.0,192.0,0.0,178.0,1744418910.605681,0.0,2025-04-11 20:48:30.605,STOP,48
30.0,8539.238099961054,-6414.436568550655,-20119.855716211285,-23389.848874789343,13050.088351975484,14888.407574702213,31227.868047698506,51433.50975912926,0.0,0.0,0.0,193.0,0.0,193.0,0.0,0.0,0.0,179.0,193.0,0.0,179.0,1744418910.6057124,0.0,2025-04-11 20:48:30.605,STOP,48
31.0,8565.88137935178,-6377.556190199398,-20118.134631888228,-23341.18912711014,12972.058412082008,15124.464347894711,30973.728713241664,51534.360830111604,0.0,0.0,0.0,193.0,0.0,193.0,0.0,0.0,0.0,179.0,193.0,0.0,179.0,1744418910.6057434,0.0,2025-04-11 20:48:30.605,STOP,48
32.0,8578.532466713485,-6373.197600030613,-20051.6828956226,-23338.685731731148,13089.807401872564,15133.695618354754,30999.500274598635,51591.87186859511,0.0,0.0,0.0,193.0,0.0,193.0,0.0,0.0,0.0,179.0,193.0,0.0,179.0,1744418910.6058607,0.0,2025-04-11 20:48:30.605,STOP,48
33.0,8547.865873320803,-6426.417103578699,-20044.35152344126,-23390.47472363409,13190.569065877089,14948.980802176095,31351.137918369524,51548.12950469607,0.0,0.0,0.0,193.0,0.0,193.0,0.0,0.0,0.0,179.0,193.0,0.0,179.0,1744418910.605893,0.0,2025-04-11 20:48:30.605,STOP,48
34.0,8547.731762854071,-6418.750455230529,-20091.714869942054,-23379.231796173073,13072.35068945297,14872.627243116767,31270.515176119232,51421.99861073478,0.0,0.0,0.0,193.0,0.0,193.0,0.0,0.0,0.0,179.0,193.0,0.0,179.0,1744418910.605924,0.0,2025-04-11 20:48:30.605,STOP,48
35.0,8556.515998425008,-6397.225725320069,-20118.000521421494,-23349.503976047516,12976.573464461979,15113.646103578343,31036.71592911672,51523.117902650585,0.0,0.0,0.0,193.0,0.0,193.0,0.0,0.0,0.0,179.0,193.0,0.0,179.0,1744418910.6059551,0.0,2025-04-11 20:48:30.605,STOP,48
36.0,8569.16708578671,-6403.9312486566605,-20075.532206956414,-23355.360133094804,13047.070866474018,15157.924909344305,30978.13200689936,51604.94763910147,0.0,0.0,0.0,193.0,0.0,193.0,0.0,0.0,0.0,179.0,193.0,0.0,179.0,1744418910.606001,0.0,2025-04-11 20:48:30.606,STOP,48
37.0,8554.772562357493,-6438.732914773574,-20048.151319998662,-23394.54274112496,13179.594359349532,14987.269340428036,31323.935845367414,51580.53953415627,0.0,0.0,0.0,193.0,0.0,193.0,0.0,0.0,0.0,179.0,193.0,0.0,179.0,1744418910.606032,0.0,2025-04-11 20:48:30.606,STOP,48
38.0,8540.556852883918,-6427.1770628901795,-20096.095811855295,-23400.06362200542,13088.801573372075,14847.637992815733,31311.061240561157,51436.37078241954,0.0,0.0,0.0,193.0,0.0,193.0,0.0,0.0,0.0,179.0,193.0,0.0,179.0,1744418910.606063,0.0,2025-04-11 20:48:30.606,STOP,48
39.0,8553.610271645817,-6386.072204836871,-20119.632198766732,-23356.43301682866,12995.90772341582,15080.45376306221,31086.202691340768,51511.092664133634,0.0,0.0,0.0,193.0,0.0,193.0,0.0,0.0,0.0,178.0,193.0,0.0,178.0,1744418910.606094,0.0,2025-04-11 20:48:30.606,STOP,48
40.0,8571.178742787688,-6382.339463512834,-20080.091962825296,-23339.512746275992,13023.936810962774,15172.677060684808,30950.572305985967,51602.801871633754,0.0,0.0,0.0,193.0,0.0,193.0,0.0,0.0,0.0,178.0,193.0,0.0,178.0,1744418910.6061249,0.0,2025-04-11 20:48:30.606,STOP,48
41.0,8551.2186349891,-6429.009905935515,-20043.904488552154,-23381.0199357295,13186.188123963848,15021.40045421129,31263.206155682346,51594.73289188539,0.0,0.0,0.0,193.0,0.0,193.0,0.0,0.0,0.0,178.0,193.0,0.0,178.0,1744418910.6061554,0.0,2025-04-11 20:48:30.606,STOP,48
42.0,8542.702620351627,-6431.759170503517,-20092.005442619975,-23403.63990111827,13111.600352716488,14820.83825121382,31324.15936281197,51443.85861681207,0.0,0.0,0.0,193.0,0.0,192.0,0.0,0.0,0.0,178.0,192.0,0.0,178.0,1744418910.6061864,0.0,2025-04-11 20:48:30.606,STOP,48
43.0,8543.462579663108,-6406.591106246842,-20134.630219296243,-23370.425208857683,12981.088516841952,15003.96609353615,31105.179322383327,51471.84300087011,0.0,0.0,0.0,193.0,0.0,192.0,0.0,0.0,0.0,178.0,192.0,0.0,178.0,1744418910.6062171,0.0,2025-04-11 20:48:30.606,STOP,48
44.0,8575.939664356669,-6371.610626174286,-20098.956835145575,-23344.340723078338,12977.311072029004,15147.844272594963,30905.60059614189,51573.76695558631,0.0,0.0,0.0,193.0,0.0,193.0,0.0,0.0,0.0,178.0,193.0,0.0,178.0,1744418910.6062481,0.0,2025-04-11 20:48:30.606,STOP,48
45.0,8577.772507402004,-6392.174231073169,-20037.176613471107,-23371.855720502823,13156.147379415916,15042.522852721555,31168.36770395848,51584.76401385832,0.0,0.0,0.0,193.0,0.0,192.0,0.0,0.0,0.0,179.0,192.0,0.0,179.0,1744418910.606279,0.0,2025-04-11 20:48:30.606,STOP,48
46.0,8587.450812751153,-6407.753396958518,-20072.425314477125,-23402.902293551244,13120.87632666544,14834.673981031656,31326.930979124427,51445.42323892394,0.0,0.0,0.0,193.0,0.0,193.0,0.0,0.0,0.0,179.0,193.0,0.0,179.0,1744418910.6063097,0.0,2025-04-11 20:48:30.606,STOP,48
47.0,8580.298254525454,-6386.608646703798,-20101.393175291203,-23348.453444058116,13007.105947387929,14974.417087366235,31139.042215233116,51428.547671860186,0.0,0.0,0.0,193.0,0.0,193.0,0.0,0.0,0.0,179.0,193.0,0.0,179.0,1744418910.6064508,0.0,2025-04-11 20:48:30.606,STOP,48
48.0,8557.722992625593,-6375.611588431787,-20088.876198396232,-23323.575952479358,12971.119638814884,15174.62166245242,30926.54418069651,51548.509484351816,0.0,0.0,0.0,193.0,0.0,193.0,0.0,0.0,0.0,179.0,193.0,0.0,179.0,1744418910.6064825,0.0,2025-04-11 20:48:30.606,STOP,48
49.0,8557.387716458765,-6383.8593821357945,-20030.716959323523,-23342.351417821817,13131.403998303891,15105.621827318888,31114.857627732472,51582.7747086018,0.0,0.0,0.0,193.0,0.0,193.0,0.0,0.0,0.0,179.0,193.0,0.0,179.0,1744418910.6065135,0.0,2025-04-11 20:48:30.606,STOP,48
50.0,8561.299271738442,-6399.4608997656,-20045.893793808675,-23377.77893278348,13166.764458032187,14874.884769306753,31353.86483119307,51471.23950376982,0.0,0.0,0.0,193.0,0.0,193.0,0.0,0.0,0.0,179.0,193.0,0.0,179.0,1744418910.6065447,0.0,2025-04-11 20:48:30.606,STOP,48
51.0,8560.338146726865,-6387.078033337359,-20091.178428075127,-23350.263935358995,13044.299250161559,14931.725255456598,31198.98959386225,51412.56617457464,0.0,0.0,0.0,193.0,0.0,193.0,0.0,0.0,0.0,179.0,193.0,0.0,179.0,1744418910.60659,0.0,2025-04-11 20:48:30.606,STOP,48
52.0,8563.26622525051,-6375.633940176242,-20106.109393371273,-23332.941333406132,12970.80671439251,15160.383601234389,30976.52268129858,51548.48713260736,0.0,0.0,0.0,193.0,0.0,193.0,0.0,0.0,0.0,178.0,193.0,0.0,178.0,1744418910.6066208,0.0,2025-04-11 20:48:30.606,STOP,48
53.0,8557.767696114504,-6392.889486895739,-20042.831604818297,-23346.397083568227,13101.430308989324,15120.977475759682,31069.61769695493,51605.059397823745,0.0,0.0,0.0,193.0,0.0,192.0,0.0,0.0,0.0,178.0,192.0,0.0,178.0,1744418910.606652,0.0,2025-04-11 20:48:30.606,STOP,48
54.0,8546.055382019924,-6413.274277838979,-20042.406921673646,-23389.558302111425,13173.51468485769,14907.920647611696,31376.06011343719,51525.10720790711,0.0,0.0,0.0,193.0,0.0,193.0,0.0,0.0,0.0,179.0,193.0,0.0,179.0,1744418910.6066828,0.0,2025-04-11 20:48:30.606,STOP,48
55.0,8551.777428600482,-6394.0070741185045,-20086.328099528328,-23365.19490065514,13048.881357774897,14889.838086347352,31247.47052758581,51412.677933296916,0.0,0.0,0.0,193.0,0.0,193.0,0.0,0.0,0.0,179.0,193.0,0.0,179.0,1744418910.6067183,0.0,2025-04-11 20:48:30.606,STOP,48
56.0,8543.842559318848,-6384.6193414472755,-20104.723585215044,-23330.504993260503,12968.973871347174,15136.601345133942,31010.27381542609,51529.73401900936,0.0,0.0,0.0,193.0,0.0,193.0,0.0,0.0,0.0,179.0,193.0,0.0,179.0,1744418910.6067495,0.0,2025-04-11 20:48:30.606,STOP,48
57.0,8561.299271738442,-6377.109155310292,-20044.82091007482,-23327.487507759037,13085.135887281405,15135.886089311372,30998.159169931314,51585.70278712545,0.0,0.0,0.0,193.0,0.0,193.0,0.0,0.0,0.0,179.0,193.0,0.0,179.0,1744418910.6067803,0.0,2025-04-11 20:48:30.606,STOP,48
58.0,8557.79004785896,-6395.750510186018,-20018.088223706272,-23367.05009544493,13206.70702537382,14953.227633622604,31338.06214786317,51531.924489965975,0.0,0.0,0.0,193.0,0.0,193.0,0.0,0.0,0.0,179.0,193.0,0.0,179.0,1744418910.6068113,0.0,2025-04-11 20:48:30.606,STOP,48
59.0,8549.721068110593,-6405.406463790711,-20075.532206956414,-23368.614717556804,13086.007605315162,14865.452333146613,31281.936917535895,51399.04336917918,0.0,0.0,0.0,193.0,0.0,193.0,0.0,0.0,0.0,178.0,193.0,0.0,178.0,1744418910.6068423,0.0,2025-04-11 20:48:30.606,STOP,48
60.0,8549.676364621684,-6383.255885035502,-20109.328044572838,-23335.71294971859,12969.867941125387,15101.93378948376,31043.644969897865,51492.04897785771,0.0,0.0,0.0,193.0,0.0,192.0,0.0,0.0,0.0,178.0,192.0,0.0,178.0,1744418910.606873,0.0,2025-04-11 20:48:30.606,STOP,48
61.0,8563.914425839714,-6355.584425399831,-20059.193081759582,-23328.493336259526,13036.677305302299,15154.66155465383,30969.906564939807,51578.52787715529,0.0,0.0,0.0,193.0,0.0,192.0,0.0,0.0,0.0,178.0,192.0,0.0,178.0,1744418910.6069038,0.0,2025-04-11 20:48:30.606,STOP,48
62.0,8544.982498286068,-6398.231553820558,-20025.956037754542,-23365.75369426652,13191.530190888667,14994.399546909279,31316.939749352903,51559.64065309056,0.0,0.0,0.0,193.0,0.0,192.0,0.0,0.0,0.0,178.0,192.0,0.0,178.0,1744418910.6069343,0.0,2025-04-11 20:48:30.606,STOP,48
63.0,8545.004850030524,-6414.1459958727355,-20079.466113980547,-23377.28719440546,13090.5897129285,14844.262879402982,31326.372185513042,51413.6837617974,0.0,0.0,0.0,193.0,0.0,193.0,0.0,0.0,0.0,179.0,193.0,0.0,179.0,1744418910.6070964,0.0,2025-04-11 20:48:30.607,STOP,48
64.0,8557.767696114504,-6381.244228034524,-20111.496163785003,-23330.66145547169,12968.839760880443,15058.571405240466,31090.427171042822,51465.53980893372,0.0,0.0,0.0,193.0,0.0,193.0,0.0,0.0,0.0,178.0,193.0,0.0,178.0,1744418910.6071284,0.0,2025-04-11 20:48:30.607,STOP,48
65.0,8570.55289394294,-6358.423096945656,-20077.320346512835,-23314.545847719415,12987.52581924508,15180.187246821792,30936.93774186823,51567.77668807229,0.0,0.0,0.0,193.0,0.0,193.0,0.0,0.0,0.0,179.0,193.0,0.0,179.0,1744418910.6071591,0.0,2025-04-11 20:48:30.607,STOP,48
66.0,8567.758925886026,-6388.93322812715,-20027.475956377504,-23351.58268828186,13177.269777926182,15043.26046028858,31234.104184401538,51557.24901643384,0.0,0.0,0.0,193.0,0.0,193.0,0.0,0.0,0.0,179.0,193.0,0.0,179.0,1744418910.6071901,0.0,2025-04-11 20:48:30.607,STOP,48
67.0,8560.584015915872,-6404.579449245864,-20081.075439581327,-23381.80224678543,13120.809271432076,14839.904289234197,31318.280854020224,51401.14443315798,0.0,0.0,0.0,193.0,0.0,193.0,0.0,0.0,0.0,179.0,193.0,0.0,179.0,1744418910.6072347,0.0,2025-04-11 20:48:30.607,STOP,48
68.0,8551.062172777913,-6386.899219381717,-20130.450443083104,-23357.77412149598,12995.6171507379,15012.839736084909,31120.177342912837,51426.84893928158,0.0,0.0,0.0,193.0,0.0,193.0,0.0,0.0,0.0,179.0,193.0,0.0,179.0,1744418910.6072657,0.0,2025-04-11 20:48:30.607,STOP,48
69.0,8559.354669970831,-6353.9750997990495,-20105.282378826425,-23338.84219394233,12978.42865925177,15169.033726338594,30929.136983053326,51549.56001634122,0.0,0.0,0.0,193.0,0.0,193.0,0.0,0.0,0.0,179.0,193.0,0.0,179.0,1744418910.6072967,0.0,2025-04-11 20:48:30.607,STOP,48
70.0,8555.823094346893,-6372.012957574482,-20042.49632865147,-23363.607926798813,13159.142513172927,15071.356603068902,31172.256907493702,51577.18677248798,0.0,0.0,0.0,193.0,0.0,193.0,0.0,0.0,0.0,179.0,193.0,0.0,179.0,1744418910.6073277,0.0,2025-04-11 20:48:30.607,STOP,48
71.0,8554.370230957298,-6395.638751463742,-20070.838340620798,-23394.833313802876,13151.341754358025,14841.357152623792,31348.053377634693,51440.70702084387,0.0,0.0,0.0,193.0,0.0,193.0,0.0,0.0,0.0,179.0,193.0,0.0,179.0,1744418910.6073585,0.0,2025-04-11 20:48:30.607,STOP,48
72.0,8531.414989401697,-6396.8904491532385,-20126.15890814768,-23367.094798933842,13016.270162614604,14953.831130722898,31168.211241747293,51420.702209556366,0.0,0.0,0.0,193.0,0.0,193.0,0.0,0.0,0.0,178.0,193.0,0.0,178.0,1744418910.6073895,0.0,2025-04-11 20:48:30.607,STOP,48
73.0,8548.044687276446,-6371.521219196466,-20112.189067863117,-23334.32714156236,12965.554054445513,15152.761656375129,30939.3517302694,51544.173245927486,0.0,0.0,0.0,193.0,0.0,193.0,0.0,0.0,0.0,179.0,193.0,0.0,179.0,1744418910.60742,0.0,2025-04-11 20:48:30.607,STOP,48
74.0,8547.172969242689,-6389.000283360516,-20052.174634000618,-23351.80620572641,13121.099844109995,15086.287568365047,31095.47866528972,51579.35489170014,0.0,0.0,0.0,193.0,0.0,193.0,0.0,0.0,0.0,178.0,193.0,0.0,178.0,1744418910.6074507,0.0,2025-04-11 20:48:30.607,STOP,48
75.0,8538.522844138484,-6423.421969821688,-20080.02490759193,-23403.841066818368,13150.201815390805,14862.032516244952,31357.21759286137,51477.6991579174,0.0,0.0,0.0,193.0,0.0,193.0,0.0,0.0,0.0,179.0,193.0,0.0,179.0,1744418910.6074817,0.0,2025-04-11 20:48:30.607,STOP,48
76.0,8564.36146072882,-6394.319998540878,-20103.136611358717,-23364.367886110293,13035.179738423794,14899.292874251947,31189.26658502419,51389.83445046359,0.0,0.0,0.0,193.0,0.0,193.0,0.0,0.0,0.0,179.0,193.0,0.0,179.0,1744418910.6075125,0.0,2025-04-11 20:48:30.607,STOP,48
77.0,8557.767696114504,-6382.115946068281,-20115.65358825369,-23339.602153253814,12960.413153220792,15137.920098056806,30955.042654877027,51515.94299268043,0.0,0.0,0.0,193.0,0.0,193.0,0.0,0.0,0.0,178.0,193.0,0.0,178.0,1744418910.6075435,0.0,2025-04-11 20:48:30.607,STOP,48
78.0,8570.754059643037,-6365.7768208714515,-20046.653753120157,-23335.19885959612,13093.5401431966,15119.211687947714,31011.927844515783,51564.669795593,0.0,0.0,0.0,193.0,0.0,192.0,0.0,0.0,0.0,179.0,192.0,0.0,179.0,1744418910.6076972,0.0,2025-04-11 20:48:30.607,STOP,48
79.0,8556.091315280357,-6394.744681685529,-20043.993895529973,-23378.650650817235,13175.146362202926,14924.460938508624,31337.570409485154,51497.61456222708,0.0,0.0,0.0,193.0,0.0,192.0,0.0,0.0,0.0,178.0,192.0,0.0,178.0,1744418910.6077297,0.0,2025-04-11 20:48:30.607,STOP,48
80.0,8552.693850123149,-6387.323902526367,-20091.424297264137,-23362.46798783159,13058.023221257117,14887.580560157367,31227.84569595405,51383.62066550501,0.0,0.0,0.0,193.0,0.0,192.0,0.0,0.0,0.0,179.0,192.0,0.0,179.0,1744418910.607761,0.0,2025-04-11 20:48:30.607,STOP,48
81.0,8548.894053565748,-6375.745698898519,-20131.74684426151,-23337.948124164122,12959.18380727575,15123.100891482938,30985.84335873644,51498.19570758292,0.0,0.0,0.0,193.0,0.0,193.0,0.0,0.0,0.0,178.0,193.0,0.0,178.0,1744418910.6077917,0.0,2025-04-11 20:48:30.607,STOP,48
82.0,8571.625777676794,-6367.721422639063,-20076.538035456902,-23335.087100873843,13039.985363481685,15127.861813051917,30943.88913439383,51555.147952455045,0.0,0.0,0.0,193.0,0.0,192.0,0.0,0.0,0.0,178.0,192.0,0.0,178.0,1744418910.6078408,0.0,2025-04-11 20:48:30.607,STOP,48
83.0,8551.844483833847,-6398.03038812046,-20035.030846003396,-23372.682735047667,13175.079306969561,14947.460883553134,31299.170112510936,51513.327838579164,0.0,0.0,0.0,193.0,0.0,192.0,0.0,0.0,0.0,178.0,192.0,0.0,178.0,1744418910.6078725,0.0,2025-04-11 20:48:30.607,STOP,48
84.0,8549.899882066236,-6393.515335740488,-20076.895663368185,-23361.23864188655,13077.648052888877,14833.69050427562,31253.684312544385,51366.18630482988,0.0,0.0,0.0,193.0,0.0,192.0,0.0,0.0,0.0,178.0,192.0,0.0,178.0,1744418910.607903,0.0,2025-04-11 20:48:30.607,STOP,48
85.0,8538.031105760469,-6376.6397686767305,-20137.960629220084,-23330.884972916243,12981.200275564228,15081.347832840424,31029.33985344647,51457.336718718616,0.0,0.0,0.0,193.0,0.0,193.0,0.0,0.0,0.0,179.0,193.0,0.0,179.0,1744418910.6079338,0.0,2025-04-11 20:48:30.607,STOP,48
86.0,8543.820207574392,-6372.102364552304,-20092.83245716482,-23330.795565938424,13034.844462256964,15165.613909436932,30940.625779703354,51561.40644090253,0.0,0.0,0.0,193.0,0.0,193.0,0.0,0.0,0.0,179.0,193.0,0.0,179.0,1744418910.6079645,0.0,2025-04-11 20:48:30.607,STOP,48
87.0,8516.104044449812,-6426.305344856423,-20074.056991822363,-23382.271633418994,13186.679862341865,15002.692044102198,31268.257649929245,51538.40649585802,0.0,0.0,0.0,193.0,0.0,193.0,0.0,0.0,0.0,179.0,193.0,0.0,179.0,1744418910.6079957,0.0,2025-04-11 20:48:30.607,STOP,48
88.0,8498.87084947477,-6436.60949905032,-20145.47081535707,-23400.91298829472,13078.072736033528,14827.65553327269,31300.04183054469,51387.08518589559,0.0,0.0,0.0,193.0,0.0,193.0,0.0,0.0,0.0,179.0,193.0,0.0,179.0,1744418910.6080267,0.0,2025-04-11 20:48:30.608,STOP,48
89.0,8510.560811824897,-6413.050760394426,-20150.6564200707,-23344.541888778436,12983.435450009758,15042.478149232646,31091.5894617545,51439.09769524309,0.0,0.0,0.0,193.0,0.0,193.0,0.0,0.0,0.0,179.0,193.0,0.0,179.0,1744418911.0832589,0.0,2025-04-11 20:48:31.083,STOP,48
90.0,8523.033085230958,-6404.333580056856,-20108.635140494724,-23324.47002225757,13017.611267281924,15169.816037394528,30943.777375671554,51547.593062829146,0.0,0.0,0.0,193.0,0.0,193.0,0.0,0.0,0.0,178.0,193.0,0.0,178.0,1744418911.0834775,0.0,2025-04-11 20:48:31.083,STOP,48
91.0,8499.451994830608,-6447.338336388867,-20152.377504393757,-23376.996621727543,13152.79461774762,15034.54327995101,31219.016756894205,51540.731077281365,0.0,0.0,0.0,193.0,0.0,193.0,0.0,0.0,0.0,179.0,193.0,0.0,179.0,1744418911.0835369,0.0,2025-04-11 20:48:31.083,STOP,48
92.0,8501.68716927614,-6446.891301499761,-20145.98490547954,-23390.742944567555,13101.475012478235,14843.03353345794,31335.089365850614,51401.79263374718,0.0,0.0,0.0,193.0,0.0,193.0,0.0,0.0,0.0,178.0,193.0,0.0,178.0,1744418911.083586,0.0,2025-04-11 20:48:31.083,STOP,48
93.0,8498.714387263582,-6424.964240189104,-20110.915018429165,-23326.10169960281,13029.904726732342,15027.167204280759,31158.01884627567,51432.28041318422,0.0,0.0,0.0,193.0,0.0,192.0,0.0,0.0,0.0,178.0,192.0,0.0,178.0,1744418911.0845652,0.0,2025-04-11 20:48:31.084,STOP,48
94.0,8466.706689203584,-6443.315022386912,-20152.533966604944,-23327.643969970224,12991.124450102383,15191.184305093802,30957.680160722753,51550.789362286254,0.0,0.0,0.0,193.0,0.0,192.0,0.0,0.0,0.0,178.0,192.0,0.0,178.0,1744418911.0846226,0.0,2025-04-11 20:48:31.084,STOP,48
95.0,8441.67273541364,-6490.991293310081,-20123.186126135126,-23361.52921456447,13139.60708851899,15082.823047974474,31171.564003415588,51573.655196864034,0.0,0.0,0.0,193.0,0.0,192.0,0.0,0.0,0.0,178.0,192.0,0.0,178.0,1744418911.0846636,0.0,2025-04-11 20:48:31.084,STOP,48
96.0,8412.034322265903,-6520.897927391283,-20173.723420348575,-23399.169552227206,13131.158129114883,14856.60104234231,31371.612116290584,51454.07336402814,0.0,0.0,0.0,193.0,0.0,193.0,0.0,0.0,0.0,179.0,193.0,0.0,179.0,1744418911.0847049,0.0,2025-04-11 20:48:31.084,STOP,48
97.0,8382.395909118166,-6528.028133872525,-20300.793087576996,-23376.504883349524,12992.532610003069,14939.637772993778,31172.59218366053,51395.22122087732,0.0,0.0,0.0,193.0,0.0,193.0,0.0,0.0,0.0,179.0,193.0,0.0,179.0,1744418911.0848389,0.0,2025-04-11 20:48:31.084,STOP,48
98.0,8388.766156287928,-6513.655962187763,-20269.6347558063,-23338.66337998669,12925.633838848335,15150.593537162966,30929.584017942434,51509.66215248849,0.0,0.0,0.0,193.0,0.0,193.0,0.0,0.0,0.0,179.0,193.0,0.0,179.0,1744418911.0848825,0.0,2025-04-11 20:48:31.084,STOP,48
99.0,8404.322970428822,-6516.829909900416,-20152.668077071678,-23336.316446818884,13116.808309174576,15118.652894336332,31076.703199947264,51562.34521416965,0.0,0.0,0.0,193.0,0.0,193.0,0.0,0.0,0.0,179.0,193.0,0.0,179.0,1744418911.0849268,0.0,2025-04-11 20:48:31.084,STOP,48
100.0,8381.993577717969,-6543.964927669159,-20194.443487458648,-23377.24249091655,13166.876216754463,14909.32880751238,31363.811357475683,51464.6457391555,0.0,0.0,0.0,193.0,0.0,193.0,0.0,0.0,0.0,179.0,193.0,0.0,179.0,1744418911.0849645,0.0,2025-04-11 20:48:31.084,STOP,48
101.0,8359.41831581811,-6538.578157255431,-20256.804854488953,-23348.207574869106,13030.418816854813,14921.66697045171,31220.33550981707,51368.130906597486,0.0,0.0,0.0,193.0,0.0,193.0,0.0,0.0,0.0,178.0,193.0,0.0,178.0,1744418911.0850422,0.0,2025-04-11 20:48:31.085,STOP,48
102.0,8365.207417632035,-6530.844453673894,-20259.330601612404,-23316.155173320196,12973.153647560317,15168.273767027113,30992.6159373064,51498.7545011943,0.0,0.0,0.0,193.0,0.0,193.0,0.0,0.0,0.0,178.0,193.0,0.0,178.0,1744418911.0850844,0.0,2025-04-11 20:48:31.085,STOP,48
103.0,8370.638891534674,-6530.419770529244,-20188.564978666902,-23316.89278088722,13092.44490771829,15174.822828152517,31040.582780907487,51569.58717937317,0.0,0.0,0.0,193.0,0.0,193.0,0.0,0.0,0.0,179.0,193.0,0.0,179.0,1744418911.0851245,0.0,2025-04-11 20:48:31.085,STOP,48
104.0,8338.966469641504,-6567.188390158223,-20175.824484327375,-23368.68177279017,13169.60312957801,14971.734878031599,31368.92990695595,51507.91871642098,0.0,0.0,0.0,193.0,0.0,193.0,0.0,0.0,0.0,178.0,193.0,0.0,178.0,1744418911.085159,0.0,2025-04-11 20:48:31.085,STOP,48
105.0,8341.894548165148,-6553.911453951771,-20239.594011258367,-23355.650705772725,13032.586936066979,14913.061548836416,31259.18284168039,51371.66248222143,0.0,0.0,0.0,193.0,0.0,192.0,0.0,0.0,0.0,178.0,192.0,0.0,178.0,1744418911.0851967,0.0,2025-04-11 20:48:31.085,STOP,48
106.0,8328.237632302957,-6553.062087662469,-20314.360596461367,-23344.161909122697,12933.456949407691,15175.806304908552,31031.99971103665,51485.2540475433,0.0,0.0,0.0,193.0,0.0,192.0,0.0,0.0,0.0,178.0,192.0,0.0,178.0,1744418911.0852315,0.0,2025-04-11 20:48:31.085,STOP,48
107.0,8318.64873393163,-6560.460515077176,-20256.827206233407,-23356.76829299549,12994.454860026224,15205.15414537837,30983.563480802,51561.62995834708,0.0,0.0,0.0,193.0,0.0,192.0,0.0,0.0,0.0,178.0,192.0,0.0,178.0,1744418911.0852644,0.0,2025-04-11 20:48:31.085,STOP,48
108.0,8301.951980823515,-6601.520669641575,-20201.976025340085,-23399.169552227206,13115.243687062704,15036.443178229712,31327.936807624916,51530.58338529866,0.0,0.0,0.0,193.0,0.0,193.0,0.0,0.0,0.0,178.0,193.0,0.0,178.0,1744418911.085397,0.0,2025-04-11 20:48:31.085,STOP,48
109.0,8273.29704443181,-6613.3670942028875,-20290.57834036092,-23413.49702042306,13012.403310823836,14904.791403387953,31296.443199687386,51381.631360248495,0.0,0.0,0.0,193.0,0.0,193.0,0.0,0.0,0.0,179.0,193.0,0.0,179.0,1744418911.0854306,0.0,2025-04-11 20:48:31.085,STOP,48
110.0,8288.183306239045,-6586.96968400117,-20351.330381790445,-23371.632203058267,12917.922487011254,15142.770426603607,31065.236755041693,51463.03641355472,0.0,0.0,0.0,193.0,0.0,193.0,0.0,0.0,0.0,179.0,193.0,0.0,179.0,1744418911.085464,0.0,2025-04-11 20:48:31.085,STOP,48
111.0,8322.202661300023,-6543.272023591045,-20221.13147033828,-23340.47387128757,13004.691958986756,15245.58845109802,30951.555782741998,51569.14014448407,0.0,0.0,0.0,193.0,0.0,193.0,0.0,0.0,0.0,179.0,193.0,0.0,179.0,1744418911.085497,0.0,2025-04-11 20:48:31.085,STOP,48
112.0,8329.176405570079,-6563.165076156268,-20172.18114998116,-23387.14431371025,13145.105617654994,15098.670434793286,31285.3343826931,51573.99047303086,0.0,0.0,0.0,193.0,0.0,193.0,0.0,0.0,0.0,178.0,193.0,0.0,178.0,1744418911.0872145,0.0,2025-04-11 20:48:31.087,STOP,48
113.0,8321.733274666462,-6569.200047159201,-20215.00709235753,-23421.789517615976,13052.703506076754,14908.390034245258,31317.073859819637,51419.20464267786,0.0,0.0,0.0,193.0,0.0,193.0,0.0,0.0,0.0,178.0,193.0,0.0,178.0,1744418911.0872521,0.0,2025-04-11 20:48:31.087,STOP,48
114.0,8312.591411184241,-6556.683070264229,-20278.597805332876,-23382.80807528592,12956.6580601523,15105.800641274529,31091.231833843212,51458.27549198574,0.0,0.0,0.0,193.0,0.0,192.0,0.0,0.0,0.0,178.0,192.0,0.0,178.0,1744418911.0872848,0.0,2025-04-11 20:48:31.087,STOP,48
115.0,8334.920803895093,-6533.750180453084,-20265.790255759985,-23359.271688374483,12955.026382807064,15252.942175023816,30915.16714276876,51571.35296718514,0.0,0.0,0.0,193.0,0.0,192.0,0.0,0.0,0.0,178.0,192.0,0.0,178.0,1744418911.0873172,0.0,2025-04-11 20:48:31.087,STOP,48
116.0,8320.347466510233,-6545.976584670137,-20209.79913589944,-23395.77208707,13140.79173097512,15154.706258142742,31206.07509685458,51599.806737876745,0.0,0.0,0.0,193.0,0.0,193.0,0.0,0.0,0.0,179.0,193.0,0.0,179.0,1744418911.0873492,0.0,2025-04-11 20:48:31.087,STOP,48
117.0,8310.892678605638,-6572.441050105221,-20281.59293908989,-23432.384244487792,13084.73355588121,14944.890432940774,31332.854191405084,51458.99074780831,0.0,0.0,0.0,193.0,0.0,193.0,0.0,0.0,0.0,179.0,193.0,0.0,179.0,1744418911.0873816,0.0,2025-04-11 20:48:31.087,STOP,48
118.0,8318.671085676086,-6556.414849330766,-20349.78811142303,-23401.270616206006,12943.582289645945,15094.13303066886,31119.506790579177,51437.91305278696,0.0,0.0,0.0,193.0,0.0,193.0,0.0,0.0,0.0,179.0,193.0,0.0,179.0,1744418911.0874145,0.0,2025-04-11 20:48:31.087,STOP,48
119.0,8347.437780790066,-6513.454796487666,-20323.278942499037,-23372.794493769943,12919.397702145303,15284.994576572726,30900.280880961524,51552.6669088205,0.0,0.0,0.0,193.0,0.0,193.0,0.0,0.0,0.0,179.0,193.0,0.0,179.0,1744418911.0874476,0.0,2025-04-11 20:48:31.087,STOP,48
120.0,8321.554460710819,-6546.960061426171,-20303.40824167827,-23405.42804067469,13077.603349399968,15205.91410468985,31094.09285713349,51585.56867665872,0.0,0.0,0.0,193.0,0.0,193.0,0.0,0.0,0.0,179.0,193.0,0.0,179.0,1744418911.0874798,0.0,2025-04-11 20:48:31.087,STOP,48
121.0,8306.64584715913,-6568.238922147623,-20295.182799718714,-23434.64177067778,13103.419614245846,15004.413128425256,31322.125354066535,51485.499916732304,0.0,0.0,0.0,193.0,0.0,193.0,0.0,0.0,0.0,179.0,193.0,0.0,179.0,1744418911.087524,0.0,2025-04-11 20:48:31.087,STOP,48
122.0,8322.135606066657,-6537.348811310389,-20335.59475369391,-23385.602043342835,12992.510258258613,15096.815240003496,31138.97515999975,51430.67108758344,0.0,0.0,0.0,193.0,0.0,193.0,0.0,0.0,0.0,179.0,193.0,0.0,179.0,1744418911.0875566,0.0,2025-04-11 20:48:31.087,STOP,48
123.0,8345.537882511364,-6512.203098798168,-20345.988314865626,-23353.549641793925,12931.51234764008,15325.831213692572,30892.167197724248,51553.98566174337,0.0,0.0,0.0,193.0,0.0,193.0,0.0,0.0,0.0,179.0,193.0,0.0,179.0,1744418911.087695,0.0,2025-04-11 20:48:31.087,STOP,48
124.0,8350.969356414003,-6530.3080118069665,-20283.984575746606,-23372.615679814302,13068.841465573487,15284.413431216888,30979.718980755686,51596.11870004162,0.0,0.0,0.0,193.0,0.0,193.0,0.0,0.0,0.0,179.0,193.0,0.0,179.0,1744418911.087728,0.0,2025-04-11 20:48:31.087,STOP,48
125.0,8354.053897148837,-6542.042677646003,-20279.96126174465,-23420.336654226383,13142.222242620259,15084.432373575257,31271.968039508825,51517.172338625474,0.0,0.0,0.0,193.0,0.0,193.0,0.0,0.0,0.0,179.0,193.0,0.0,179.0,1744418911.0877607,0.0,2025-04-11 20:48:31.087,STOP,48
126.0,8352.019888403403,-6503.642380671786,-20335.751215905097,-23397.06848824841,13018.348874848947,15094.624769046875,31137.611703587976,51430.201700949874,0.0,0.0,0.0,193.0,0.0,193.0,0.0,0.0,0.0,179.0,193.0,0.0,179.0,1744418911.087794,0.0,2025-04-11 20:48:31.087,STOP,48
127.0,8358.837170462271,-6461.151714462247,-20365.322573819467,-23367.228909400572,12927.89136503832,15337.498824298244,30878.554985350966,51547.302490151225,0.0,0.0,0.0,193.0,0.0,193.0,0.0,0.0,0.0,179.0,193.0,0.0,179.0,1744418911.0878687,0.0,2025-04-11 20:48:31.087,STOP,48
128.0,8359.597129773752,-6478.407261181744,-20328.755119890586,-23376.326069393883,13040.857081515442,15341.097455155546,30894.089447747407,51611.85432813816,0.0,0.0,0.0,193.0,0.0,193.0,0.0,0.0,0.0,178.0,193.0,0.0,178.0,1744418911.0879035,0.0,2025-04-11 20:48:31.087,STOP,48
129.0,8356.311423338822,-6523.133101836813,-20305.30813995697,-23417.25211349155,13145.88792871093,15149.878281340396,31225.342300575056,51555.68439432197,0.0,0.0,0.0,193.0,0.0,193.0,0.0,0.0,0.0,178.0,193.0,0.0,178.0,1744418911.0879369,0.0,2025-04-11 20:48:31.087,STOP,48
130.0,8368.694289767061,-6509.610296441352,-20311.83484933792,-23404.221046474107,13033.950392478751,15078.687975250243,31144.853668791497,51427.206567192865,0.0,0.0,0.0,193.0,0.0,193.0,0.0,0.0,0.0,178.0,193.0,0.0,178.0,1744418911.0879705,0.0,2025-04-11 20:48:31.087,STOP,48
131.0,8369.968339201014,-6477.580246636898,-20344.043713098017,-23363.607926798813,12944.856339079899,15323.03724563566,30901.55493039548,51529.130521909065,0.0,0.0,0.0,193.0,0.0,192.0,0.0,0.0,0.0,178.0,192.0,0.0,178.0,1744418911.0880027,0.0,2025-04-11 20:48:31.088,STOP,48
132.0,8387.246237664967,-6464.392717408266,-20299.764907332054,-23355.650705772725,13017.81243298202,15374.110981716036,30824.530819002488,51612.055493838256,0.0,0.0,0.0,193.0,0.0,192.0,0.0,0.0,0.0,178.0,192.0,0.0,178.0,1744418911.0880346,0.0,2025-04-11 20:48:31.088,STOP,48
133.0,8382.530019584898,-6497.80857536895,-20276.854369265362,-23405.092764507863,13163.232882408249,15208.48455530221,31168.814738847585,51588.563810415726,0.0,0.0,0.0,193.0,0.0,193.0,0.0,0.0,0.0,179.0,193.0,0.0,179.0,1744418911.0880678,0.0,2025-04-11 20:48:31.088,STOP,48
134.0,8395.42697613561,-6498.769700380529,-20335.997085094106,-23415.73219486859,13051.898843276364,15064.427562287756,31149.368721171468,51433.95679401837,0.0,0.0,0.0,193.0,0.0,193.0,0.0,0.0,0.0,179.0,193.0,0.0,179.0,1744418911.0881004,0.0,2025-04-11 20:48:31.088,STOP,48
135.0,8399.85262153776,-6476.037976269481,-20367.51304477609,-23379.81294152891,12932.384065673838,15285.575721928564,30914.988328813117,51499.4027017835,0.0,0.0,0.0,193.0,0.0,193.0,0.0,0.0,0.0,179.0,193.0,0.0,179.0,1744418911.088133,0.0,2025-04-11 20:48:31.088,STOP,48
136.0,8423.90309857167,-6442.488007842066,-20327.50342220109,-23355.650705772725,12977.601644706923,15382.582292864598,30770.394893931734,51595.336388985685,0.0,0.0,0.0,193.0,0.0,193.0,0.0,0.0,0.0,179.0,193.0,0.0,179.0,1744418911.0881662,0.0,2025-04-11 20:48:31.088,STOP,48
137.0,8404.770005317927,-6475.903865802749,-20279.20130243317,-23397.42611615969,13145.642059521922,15255.914957036372,31096.171569367838,51597.9291913425,0.0,0.0,0.0,193.0,0.0,193.0,0.0,0.0,0.0,179.0,193.0,0.0,179.0,1744418911.0881996,0.0,2025-04-11 20:48:31.088,STOP,48
138.0,8394.04116797938,-6486.252723485556,-20316.416956951256,-23429.12088979732,13057.173854967816,15076.74337348263,31172.63688714944,51456.777925107235,0.0,0.0,0.0,193.0,0.0,193.0,0.0,0.0,0.0,179.0,193.0,0.0,179.0,1744418911.0882325,0.0,2025-04-11 20:48:31.088,STOP,48
139.0,8408.458043153054,-6467.23138895409,-20344.602506709398,-23384.10447646433,12965.37524048987,15268.387230442433,30958.976561901163,51485.74578592131,0.0,0.0,0.0,193.0,0.0,193.0,0.0,0.0,0.0,179.0,193.0,0.0,179.0,1744418911.0882845,0.0,2025-04-11 20:48:31.088,STOP,48
140.0,8427.524081173431,-6437.347106617344,-20309.957302803672,-23357.61765928479,12954.624051406867,15407.303322232166,30766.952725285617,51597.68332215349,0.0,0.0,0.0,193.0,0.0,193.0,0.0,0.0,0.0,179.0,193.0,0.0,179.0,1744418911.08832,0.0,2025-04-11 20:48:31.088,STOP,48
141.0,8427.926412573626,-6449.864083512317,-20240.71159848113,-23385.33382240937,13127.335980813024,15299.836134891051,31017.269911440602,51615.72117992892,0.0,0.0,0.0,193.0,0.0,193.0,0.0,0.0,0.0,178.0,193.0,0.0,178.0,1744418911.088354,0.0,2025-04-11 20:48:31.088,STOP,48
142.0,8427.121749773234,-6464.8621040418275,-20275.222691920128,-23421.92362808271,13107.152355569882,15085.326443353468,31170.088788281537,51482.303617275196,0.0,0.0,0.0,193.0,0.0,193.0,0.0,0.0,0.0,178.0,193.0,0.0,178.0,1744418911.0884075,0.0,2025-04-11 20:48:31.088,STOP,48
143.0,8424.730113116517,-6448.075943955892,-20314.07002378345,-23396.39793591475,12980.395612763836,15207.992816924194,30985.061047680505,51469.54077119121,0.0,0.0,0.0,193.0,0.0,193.0,0.0,0.0,0.0,178.0,193.0,0.0,178.0,1744418911.0884445,0.0,2025-04-11 20:48:31.088,STOP,48
144.0,8436.71064814456,-6413.810719705906,-20302.603578877875,-23364.457293088115,12935.915641297775,15399.793136095184,30761.65536184971,51595.179926774494,0.0,0.0,0.0,193.0,0.0,192.0,0.0,0.0,0.0,178.0,192.0,0.0,178.0,1744418911.088484,0.0,2025-04-11 20:48:31.088,STOP,48
145.0,8423.321953215833,-6429.635754780264,-20236.464767034624,-23385.825560787387,13105.744195669198,15332.492033540253,30934.993140100618,51632.73085745941,0.0,0.0,0.0,193.0,0.0,192.0,0.0,0.0,0.0,178.0,192.0,0.0,178.0,1744418911.0885408,0.0,2025-04-11 20:48:31.088,STOP,48
146.0,8436.62124116674,-6434.419028093699,-20246.925383439706,-23424.650540906256,13134.309725083082,15123.525574627589,31178.001305818714,51521.28505960525,0.0,0.0,0.0,193.0,0.0,192.0,0.0,0.0,0.0,179.0,192.0,0.0,179.0,1744418911.088585,0.0,2025-04-11 20:48:31.088,STOP,48
147.0,8455.173189064644,-6405.920553913183,-20283.00109899057,-23393.20163645764,13007.508278788124,15184.836409668496,31013.71598407221,51449.893587815,0.0,0.0,0.0,193.0,0.0,193.0,0.0,0.0,0.0,179.0,193.0,0.0,179.0,1744418911.0886247,0.0,2025-04-11 20:48:31.088,STOP,48
148.0,8470.037099127425,-6390.45314675011,-20281.235311178603,-23358.891708718744,12946.666830380778,15413.450051957376,30781.011972548007,51573.16345848602,0.0,0.0,0.0,193.0,0.0,193.0,0.0,0.0,0.0,179.0,193.0,0.0,179.0,1744418911.0886655,0.0,2025-04-11 20:48:31.088,STOP,48
149.0,8463.689203702117,-6424.025466921981,-20222.98666512807,-23369.821711757388,13082.565436669045,15378.558978862642,30879.44905512918,51637.134151117105,0.0,0.0,0.0,193.0,0.0,193.0,0.0,0.0,0.0,179.0,193.0,0.0,179.0,1744418911.0886981,0.0,2025-04-11 20:48:31.088,STOP,48
150.0,8443.416171481154,-6463.252778441046,-20235.95067691215,-23425.432851962192,13143.31747809857,15161.05415356805,31188.2607565237,51567.91079853902,0.0,0.0,0.0,193.0,0.0,193.0,0.0,0.0,0.0,179.0,193.0,0.0,179.0,1744418911.088735,0.0,2025-04-11 20:48:31.088,STOP,48
151.0,8449.540549461908,-6438.889376984761,-20257.54246205598,-23398.63311036028,13024.853232485442,15136.936621300772,31055.938429348284,51452.173465749445,0.0,0.0,0.0,193.0,0.0,193.0,0.0,0.0,0.0,179.0,193.0,0.0,179.0,1744418911.0887692,0.0,2025-04-11 20:48:31.088,STOP,48
152.0,8449.294680272898,-6406.121719613281,-20268.785389516997,-23363.071484931887,12940.631859377845,15383.4316591539,30816.5735979764,51562.479324636384,0.0,0.0,0.0,193.0,0.0,193.0,0.0,0.0,0.0,179.0,193.0,0.0,179.0,1744418911.0888016,0.0,2025-04-11 20:48:31.088,STOP,48
153.0,8456.424886754143,-6403.998303890026,-20214.828278401885,-23367.340668122848,13033.838633756475,15391.545342391175,30801.888501869264,51625.06420911124,0.0,0.0,0.0,193.0,0.0,193.0,0.0,0.0,0.0,178.0,193.0,0.0,178.0,1744418911.0888348,0.0,2025-04-11 20:48:31.088,STOP,48
154.0,8453.541511719408,-6424.114873899803,-20194.443487458648,-23404.86924706331,13153.50987357019,15207.501078546176,31142.01499724567,51578.17024924401,0.0,0.0,0.0,193.0,0.0,192.0,0.0,0.0,0.0,178.0,192.0,0.0,178.0,1744418911.088892,0.0,2025-04-11 20:48:31.088,STOP,48
155.0,8456.737811176517,-6416.090597640347,-20245.20429911665,-23399.191903971663,13038.174872180805,15113.377882644878,31085.755656451664,51442.293994700194,0.0,0.0,0.0,193.0,0.0,192.0,0.0,0.0,0.0,178.0,192.0,0.0,178.0,1744418911.0889258,0.0,2025-04-11 20:48:31.088,STOP,48
156.0,8473.568674751363,-6384.574637958364,-20260.694058024175,-23352.968496438087,12937.770836087566,15344.60667903503,30849.05068266996,51527.09651316363,0.0,0.0,0.0,193.0,0.0,192.0,0.0,0.0,0.0,178.0,192.0,0.0,178.0,1744418911.0889595,0.0,2025-04-11 20:48:31.088,STOP,48
157.0,8493.998169183513,-6368.280216250446,-20218.76218542602,-23345.324199834373,13002.792060708054,15409.985531566803,30763.17528047267,51608.6803804255,0.0,0.0,0.0,193.0,0.0,192.0,0.0,0.0,0.0,178.0,192.0,0.0,178.0,1744418911.0889933,0.0,2025-04-11 20:48:31.088,STOP,48
158.0,8468.874808415749,-6417.364647074301,-20188.52027517799,-23402.231741217583,13154.761571259687,15259.647698360408,31124.558284826075,51605.99817109087,0.0,0.0,0.0,193.0,0.0,193.0,0.0,0.0,0.0,179.0,193.0,0.0,179.0,1744418911.0890613,0.0,2025-04-11 20:48:31.089,STOP,48
159.0,8480.788288210428,-6402.5230887559765,-20223.545458739456,-23400.71182259462,13064.639337615889,15095.250617891625,31124.73709878172,51448.664241869956,0.0,0.0,0.0,193.0,0.0,193.0,0.0,0.0,0.0,179.0,193.0,0.0,179.0,1744418911.0890944,0.0,2025-04-11 20:48:31.089,STOP,48
160.0,8490.958331937592,-6374.918684353672,-20253.45209282066,-23358.511729063004,12950.019592049073,15310.900248396427,30903.007793785073,51502.39783554052,0.0,0.0,0.0,193.0,0.0,193.0,0.0,0.0,0.0,179.0,193.0,0.0,179.0,1744418911.089127,0.0,2025-04-11 20:48:31.089,STOP,48
161.0,8506.1575181672,-6364.033384803937,-20221.422043016202,-23347.9617056801,12966.649289923822,15416.422833969931,30745.919733753173,51600.14201404357,0.0,0.0,0.0,193.0,0.0,193.0,0.0,0.0,0.0,179.0,193.0,0.0,179.0,1744418911.08916,0.0,2025-04-11 20:48:31.089,STOP,48
162.0,8478.888389931726,-6393.69414969613,-20168.18018772366,-23384.640918331257,13142.64692576491,15290.135477797447,31049.881106600897,51602.5783541892,0.0,0.0,0.0,193.0,0.0,193.0,0.0,0.0,0.0,179.0,193.0,0.0,179.0,1744418911.089192,0.0,2025-04-11 20:48:31.089,STOP,48
163.0,8469.970043894058,-6405.473519024077,-20210.603798699834,-23414.279331478996,13089.382718727913,15088.187466643747,31154.151994484902,51461.20357050939,0.0,0.0,0.0,193.0,0.0,193.0,0.0,0.0,0.0,178.0,193.0,0.0,178.0,1744418911.089224,0.0,2025-04-11 20:48:31.089,STOP,48
164.0,8476.474401530553,-6382.920608868672,-20241.404502559246,-23370.022877457486,12970.80671439251,15257.323116937056,30944.47027974967,51477.542695706215,0.0,0.0,0.0,193.0,0.0,193.0,0.0,0.0,0.0,178.0,193.0,0.0,178.0,1744418911.0892558,0.0,2025-04-11 20:48:31.089,STOP,48
165.0,8488.052605158402,-6353.528064909943,-20223.903086650742,-23347.08998764634,12952.008897305597,15419.149746793479,30746.411472131193,51603.8300518787,0.0,0.0,0.0,193.0,0.0,192.0,0.0,0.0,0.0,178.0,192.0,0.0,178.0,1744418911.0892882,0.0,2025-04-11 20:48:31.089,STOP,48
166.0,8483.381090567242,-6385.625169947764,-20162.435789398645,-23369.017048956997,13118.21646907526,15311.928428641371,30970.286544595547,51618.80572066375,0.0,0.0,0.0,193.0,0.0,193.0,0.0,0.0,0.0,179.0,193.0,0.0,179.0,1744418911.0893204,0.0,2025-04-11 20:48:31.089,STOP,48
167.0,8476.63086374174,-6400.913763155194,-20182.865283830797,-23399.7730493275,13108.806384659576,15105.353606385424,31166.89248882443,51495.84877441511,0.0,0.0,0.0,193.0,0.0,193.0,0.0,0.0,0.0,179.0,193.0,0.0,179.0,1744418911.0893524,0.0,2025-04-11 20:48:31.089,STOP,48
168.0,8483.805773711894,-6374.471649464566,-20218.695130192653,-23362.356229109315,12985.268293055093,15210.719729747741,30979.964849944696,51451.21234073786,0.0,0.0,0.0,193.0,0.0,193.0,0.0,0.0,0.0,179.0,193.0,0.0,179.0,1744418911.089384,0.0,2025-04-11 20:48:31.089,STOP,48
169.0,8500.077843675357,-6349.415343930166,-20214.068319090406,-23335.66824622968,12938.441388421224,15405.626941398019,30754.972190257573,51575.890371309564,0.0,0.0,0.0,193.0,0.0,193.0,0.0,0.0,0.0,179.0,193.0,0.0,179.0,1744418911.0894308,0.0,2025-04-11 20:48:31.089,STOP,48
170.0,8495.071052917368,-6361.105306280292,-20146.387236879735,-23350.308638847906,13098.50223046568,15353.055638439137,30924.912503351272,51632.84261618169,0.0,0.0,0.0,193.0,0.0,193.0,0.0,0.0,0.0,179.0,193.0,0.0,179.0,1744418911.0894635,0.0,2025-04-11 20:48:31.089,STOP,48
171.0,8481.414137055175,-6403.126585856269,-20169.834216813353,-23404.06458426292,13129.369989558458,15135.707275355731,31205.69511719884,51540.753429025826,0.0,0.0,0.0,193.0,0.0,193.0,0.0,0.0,0.0,178.0,193.0,0.0,178.0,1744418911.0894964,0.0,2025-04-11 20:48:31.089,STOP,48
172.0,8491.852401715803,-6387.368606015278,-20210.00030159954,-23371.252223402527,13000.154554862327,15163.62460418041,31025.09302199996,51448.12780000303,0.0,0.0,0.0,193.0,0.0,193.0,0.0,0.0,0.0,178.0,193.0,0.0,178.0,1744418911.0895293,0.0,2025-04-11 20:48:31.089,STOP,48
173.0,8509.48792809104,-6348.633032874231,-20207.072223075895,-23330.348531049316,12930.12653948385,15402.497697174276,30760.71658858259,51557.85251353413,0.0,0.0,0.0,193.0,0.0,193.0,0.0,0.0,0.0,178.0,193.0,0.0,178.0,1744418911.0895765,0.0,2025-04-11 20:48:31.089,STOP,48
174.0,8520.797910785426,-6352.63399513173,-20146.476643857557,-23339.222173598075,13063.141770737384,15380.123600974513,30813.95844387513,51608.85919438115,0.0,0.0,0.0,193.0,0.0,193.0,0.0,0.0,0.0,178.0,193.0,0.0,178.0,1744418911.089609,0.0,2025-04-11 20:48:31.089,STOP,48
175.0,8498.714387263582,-6382.965312357583,-20150.052922970408,-23388.23954918856,13151.341754358025,15172.654708940354,31139.824526289052,51547.660118062515,0.0,0.0,0.0,193.0,0.0,193.0,0.0,0.0,0.0,179.0,193.0,0.0,179.0,1744418911.089641,0.0,2025-04-11 20:48:31.089,STOP,48
176.0,8496.412157584686,-6376.840934376828,-20204.993510841552,-23375.47670310458,13021.545174306057,15125.112548483916,31037.453536683744,51434.35912541856,0.0,0.0,0.0,193.0,0.0,193.0,0.0,0.0,0.0,179.0,193.0,0.0,179.0,1744418911.0896733,0.0,2025-04-11 20:48:31.089,STOP,48
177.0,8502.514183820986,-6350.711745108574,-20222.58433372788,-23337.031702641452,12919.17418470075,15371.227606681301,30802.112019313816,51548.95651924092,0.0,0.0,0.0,193.0,0.0,193.0,0.0,0.0,0.0,179.0,193.0,0.0,179.0,1744418911.0897048,0.0,2025-04-11 20:48:31.089,STOP,48
178.0,8514.852346760315,-6336.96542226856,-20167.062600500896,-23338.261048586493,13002.546191519046,15385.935054532893,30758.526117625966,51610.31205777074,0.0,0.0,0.0,193.0,0.0,193.0,0.0,0.0,0.0,179.0,193.0,0.0,179.0,1744418911.0897367,0.0,2025-04-11 20:48:31.089,STOP,48
179.0,8478.77663120945,-6375.298664009412,-20145.783739779443,-23390.586482356368,13135.539071028123,15204.304779089069,31101.06660140355,51567.46376364992,0.0,0.0,0.0,193.0,0.0,193.0,0.0,0.0,0.0,179.0,193.0,0.0,179.0,1744418911.0897686,0.0,2025-04-11 20:48:31.089,STOP,48
180.0,8472.607549739785,-6376.326844254357,-20188.676737389178,-23388.261900933016,13034.95622097924,15092.344891112434,31064.85677538595,51430.335811416604,0.0,0.0,0.0,193.0,0.0,193.0,0.0,0.0,0.0,179.0,193.0,0.0,179.0,1744418911.0898013,0.0,2025-04-11 20:48:31.089,STOP,48
181.0,8483.895180689715,-6359.4959806795105,-20217.91281913672,-23352.25324061552,12929.23246970564,15324.825385192084,30840.512316288034,51519.899251449024,0.0,0.0,0.0,193.0,0.0,193.0,0.0,0.0,0.0,179.0,193.0,0.0,179.0,1744418911.0898333,0.0,2025-04-11 20:48:31.089,STOP,48
182.0,8498.669683774673,-6353.662175376675,-20173.47755115957,-23343.021970155474,12972.013708593096,15389.265464456734,30726.27255037696,51605.21586003493,0.0,0.0,0.0,193.0,0.0,193.0,0.0,0.0,0.0,179.0,193.0,0.0,179.0,1744418911.0898652,0.0,2025-04-11 20:48:31.089,STOP,48
183.0,8478.374299809253,-6401.606667233309,-20138.60882980929,-23384.14917995324,13127.335980813024,15230.568078824053,31053.05505431355,51591.424833706005,0.0,0.0,0.0,193.0,0.0,193.0,0.0,0.0,0.0,178.0,193.0,0.0,178.0,1744418911.0898972,0.0,2025-04-11 20:48:31.089,STOP,48
184.0,8477.614340497774,-6397.717463698085,-20179.132542506763,-23394.29687193595,13048.926061263808,15057.722038951164,31069.774159166118,51434.694401585395,0.0,0.0,0.0,193.0,0.0,192.0,0.0,1.0,0.0,178.0,192.0,1.0,178.0,1744418911.089944,0.0,2025-04-11 20:48:31.089,STOP,48
185.0,8466.058488614379,-6375.745698898519,-20217.734005181075,-23367.318316378394,12928.830138305442,15265.906186807893,30853.58808679439,51490.46200400138,0.0,0.0,0.0,193.0,0.0,193.0,0.0,2.0,0.0,178.0,193.0,2.0,178.0,1744418911.0899773,0.0,2025-04-11 20:48:31.089,STOP,48
186.0,8479.782459709939,-6363.005204558994,-20187.581501910867,-23353.14731039373,12936.832062820444,15390.159534234946,30682.17255856664,51604.32179025672,0.0,0.0,0.0,193.0,0.0,192.0,0.0,4.0,0.0,178.0,192.0,4.0,178.0,1744418911.0900128,0.0,2025-04-11 20:48:31.090,STOP,48
187.0,8473.456916029087,-6397.404539275711,-20134.719626274065,-23374.739095537556,13114.193155073304,15270.801218843606,30962.79871020302,51616.95052587397,0.0,0.0,0.0,193.0,0.0,193.0,0.0,5.0,0.0,178.0,193.0,5.0,178.0,1744418911.0900455,0.0,2025-04-11 20:48:31.090,STOP,48
188.0,8474.239227085021,-6404.713559712596,-20164.246280699528,-23396.040308003463,13076.4857621772,15066.618033244376,31068.902441132363,51465.40569846698,0.0,0.0,0.0,193.0,0.0,192.0,0.0,6.0,0.0,178.0,192.0,6.0,178.0,1744418911.0900912,0.0,2025-04-11 20:48:31.090,STOP,48
189.0,8457.073087343346,-6394.923495641172,-20211.006130100028,-23369.352325123826,12955.205196762705,15218.855764729473,30870.888337002798,51472.17827703694,0.0,0.0,0.0,193.0,0.0,193.0,0.0,7.0,0.0,179.0,193.0,7.0,179.0,1744418911.0901237,0.0,2025-04-11 20:48:31.090,STOP,48
190.0,8479.335424820832,-6357.529027167443,-20192.051850801927,-23343.469005044582,12924.538603370023,15375.787362550183,30651.505965173958,51588.78732786028,0.0,0.0,0.0,193.0,0.0,193.0,0.0,8.0,0.0,179.0,193.0,8.0,179.0,1744418911.090156,0.0,2025-04-11 20:48:31.090,STOP,48
191.0,8478.486058531531,-6381.69126292363,-20132.41739659517,-23364.412589599204,13104.313684024059,15294.292902266134,30869.748398035576,51618.5822032192,0.0,0.0,0.0,193.0,0.0,193.0,0.0,9.0,0.0,179.0,193.0,9.0,179.0,1744418911.0901885,0.0,2025-04-11 20:48:31.090,STOP,48
192.0,8452.96036636357,-6412.313152827401,-20172.941109292642,-23410.121907010307,13105.028939846628,15087.338100354445,31099.30081359158,51517.84289095913,0.0,0.0,0.0,193.0,0.0,193.0,0.0,9.0,0.0,179.0,193.0,9.0,179.0,1744418911.0902212,0.0,2025-04-11 20:48:31.090,STOP,48
193.0,8447.573595949842,-6403.819489934384,-20218.069281347907,-23380.081162462375,12973.578330704968,15169.704278672252,30922.945549839205,51475.374576494054,0.0,0.0,0.0,193.0,0.0,193.0,0.0,10.0,0.0,180.0,193.0,10.0,180.0,1744418911.0902576,0.0,2025-04-11 20:48:31.090,STOP,48
194.0,8452.356869263276,-6385.938094370138,-20214.984740613072,-23350.174528381172,12911.351074141392,15376.077935228102,30689.950965637086,51599.538516943285,0.0,0.0,0.0,193.0,0.0,193.0,0.0,11.0,0.0,179.0,193.0,11.0,179.0,1744418911.0902903,0.0,2025-04-11 20:48:31.090,STOP,48
195.0,8452.558034963375,-6397.918629398183,-20149.98586773704,-23360.18810989715,13070.294328963082,15324.199536347334,30807.364679260812,51636.12832261662,0.0,0.0,0.0,193.0,0.0,193.0,0.0,11.0,0.0,179.0,193.0,11.0,179.0,1744418911.0903234,0.0,2025-04-11 20:48:31.090,STOP,48
196.0,8440.53279644642,-6424.070170410892,-20163.083989987852,-23408.8255058319,13128.78884420262,15114.763690801108,31098.920833935837,51548.24126341835,0.0,0.0,0.0,193.0,0.0,193.0,0.0,12.0,0.0,178.0,193.0,12.0,178.0,1744418911.090356,0.0,2025-04-11 20:48:31.090,STOP,48
197.0,8449.898177373192,-6401.450205022122,-20196.94688283764,-23375.901386249232,13009.09525264445,15122.251525193637,30944.82790766095,51444.685631356915,0.0,0.0,0.0,193.0,0.0,192.0,0.0,12.0,0.0,178.0,192.0,12.0,178.0,1744418911.0903883,0.0,2025-04-11 20:48:31.090,STOP,48
198.0,8460.33644203382,-6377.556190199398,-20215.23060980208,-23348.609906269303,12918.369521900358,15359.314126886622,30699.919843664153,51566.14501072705,0.0,0.0,0.0,193.0,0.0,193.0,0.0,12.0,0.0,178.0,193.0,12.0,178.0,1744418911.0904212,0.0,2025-04-11 20:48:31.090,STOP,48
199.0,8464.67268045815,-6386.586294959342,-20164.022763254972,-23361.417455842195,13026.104930174939,15341.566841789108,30724.30559686489,51627.634659723604,0.0,0.0,0.0,193.0,0.0,193.0,0.0,13.0,0.0,179.0,193.0,13.0,179.0,1744418911.0904682,0.0,2025-04-11 20:48:31.090,STOP,48
200.0,8440.53279644642,-6422.997286677038,-20151.371675893268,-23398.744869082555,13136.41078906188,15150.995868563161,31071.785816167096,51580.20425798944,0.0,0.0,0.0,193.0,0.0,193.0,0.0,13.0,0.0,179.0,193.0,13.0,179.0,1744418911.090501,0.0,2025-04-11 20:48:31.090,STOP,48
201.0,8439.705781901572,-6414.704789484119,-20195.359908981314,-23384.931491009178,13018.594744037957,15090.422641089279,30992.70534428422,51467.752631634794,0.0,0.0,0.0,193.0,0.0,193.0,0.0,13.0,0.0,179.0,193.0,13.0,179.0,1744418911.0905335,0.0,2025-04-11 20:48:31.090,STOP,48
202.0,8440.935127846615,-6377.31032101039,-20215.23060980208,-23349.012237669496,12913.78741428702,15324.914792169904,30742.723434296066,51569.58717937317,0.0,0.0,0.0,193.0,0.0,193.0,0.0,13.0,0.0,179.0,193.0,13.0,179.0,1744418911.090566,0.0,2025-04-11 20:48:31.090,STOP,48
203.0,8445.226662782034,-6386.943922870627,-20171.868225558785,-23353.594345282836,12986.967025633696,15350.820463993607,30676.40580849717,51638.475255784426,0.0,0.0,0.0,193.0,0.0,193.0,0.0,14.0,0.0,179.0,193.0,14.0,179.0,1744418911.0906124,0.0,2025-04-11 20:48:31.090,STOP,48
204.0,8432.486168442509,-6438.442342095655,-20155.663210828687,-23404.377508685295,13124.586716245023,15173.437019996289,31017.24755969615,51600.25377276585,0.0,0.0,0.0,193.0,0.0,193.0,0.0,14.0,0.0,179.0,193.0,14.0,179.0,1744418911.0906453,0.0,2025-04-11 20:48:31.090,STOP,48
205.0,8432.150892275678,-6425.254812867023,-20201.149010795238,-23407.55145639795,13019.57822079399,15035.705570662687,30986.42450409228,51442.24929121129,0.0,0.0,0.0,193.0,0.0,193.0,0.0,14.0,0.0,179.0,193.0,14.0,179.0,1744418911.0906775,0.0,2025-04-11 20:48:31.090,STOP,48
206.0,8428.529909673918,-6396.286952052946,-20230.80977568743,-23365.217252399594,12912.35690264188,15262.911053050882,30756.17918445816,51518.62520201507,0.0,0.0,0.0,193.0,0.0,193.0,0.0,14.0,0.0,179.0,193.0,14.0,179.0,1744418911.0907102,0.0,2025-04-11 20:48:31.090,STOP,48
207.0,8422.271421226433,-6392.755376429007,-20192.923568835686,-23350.39804582573,12950.108999026896,15352.2733273832,30621.688738070578,51614.20126130596,0.0,0.0,0.0,193.0,0.0,193.0,0.0,14.0,0.0,179.0,193.0,14.0,179.0,1744418911.090757,0.0,2025-04-11 20:48:31.090,STOP,48
208.0,8431.525043430931,-6415.062417395404,-20134.764329762977,-23375.901386249232,13124.296143567104,15223.527279320631,30947.241896062125,51615.78823516229,0.0,0.0,0.0,193.0,0.0,193.0,0.0,15.0,0.0,178.0,193.0,15.0,178.0,1744418911.0907884,0.0,2025-04-11 20:48:31.090,STOP,48
209.0,8422.182014248612,-6422.572603532387,-20184.94399606514,-23404.377508685295,13049.507206619646,15056.291527306024,31019.840362052964,51481.07427133015,0.0,0.0,0.0,193.0,0.0,193.0,0.0,15.0,0.0,179.0,193.0,15.0,179.0,1744418911.09082,0.0,2025-04-11 20:48:31.090,STOP,48
210.0,8423.724284616028,-6402.07605386687,-20224.126604095294,-23363.563223309902,12925.857356292887,15243.308573163578,30803.09549606985,51516.2112136139,0.0,0.0,0.0,193.0,0.0,193.0,0.0,15.0,0.0,178.0,193.0,15.0,178.0,1744418911.566089,0.0,2025-04-11 20:48:31.566,STOP,48
211.0,8432.553223675874,-6394.521164240977,-20204.72528990809,-23352.834385971357,12929.053655749996,15369.975908991804,30615.877284512197,51621.46557825394,0.0,0.0,0.0,193.0,0.0,192.0,0.0,15.0,0.0,179.0,192.0,15.0,179.0,1744418911.5662649,0.0,2025-04-11 20:48:31.566,STOP,48
212.0,8425.557127661363,-6421.0079814205155,-20151.952821249106,-23375.499054849035,13105.699492180287,15262.486369906232,30885.193453454194,51646.164255877055,0.0,0.0,0.0,193.0,0.0,192.0,0.0,15.0,0.0,179.0,192.0,15.0,179.0,1744418911.5663126,0.0,2025-04-11 20:48:31.566,STOP,48
213.0,8420.416226436642,-6435.89424322775,-20186.262748988003,-23405.45039241915,13072.283634219604,15052.916413893274,31016.219379451202,51500.94497215092,0.0,0.0,0.0,193.0,0.0,193.0,0.0,15.0,0.0,179.0,193.0,15.0,179.0,1744418911.5663593,0.0,2025-04-11 20:48:31.566,STOP,48
214.0,8415.789415334393,-6418.951620930627,-20223.344293039358,-23368.346496623337,12958.177978775262,15199.007415653161,30832.979778406596,51498.12865234955,0.0,0.0,0.0,193.0,0.0,193.0,0.0,15.0,0.0,179.0,193.0,15.0,179.0,1744418911.56657,0.0,2025-04-11 20:48:31.566,STOP,48
215.0,8439.795188879394,-6383.88173388025,-20202.71363290711,-23332.941333406132,12919.442405634214,15377.508446873242,30614.469124611514,51618.06811309673,0.0,0.0,0.0,193.0,0.0,193.0,0.0,15.0,0.0,179.0,193.0,15.0,179.0,1744418911.5666125,0.0,2025-04-11 20:48:31.566,STOP,48
216.0,8437.448255711586,-6406.03231263546,-20143.41445486718,-23354.57782203887,13084.375927969924,15306.765175672195,30805.71065017112,51655.194360637,0.0,0.0,0.0,193.0,0.0,193.0,0.0,15.0,0.0,179.0,193.0,15.0,179.0,1744418911.5666509,0.0,2025-04-11 20:48:31.566,STOP,48
217.0,8409.2850576979,-6433.837882737861,-20173.365792437293,-23403.25992146253,13097.049367076084,15092.70251902372,31046.304827488046,51553.20335068743,0.0,0.0,0.0,193.0,0.0,193.0,0.0,15.0,0.0,179.0,193.0,15.0,179.0,1744418911.5666916,0.0,2025-04-11 20:48:31.566,STOP,48
218.0,8402.601886105764,-6434.396676349244,-20224.03719711747,-23385.043249731454,12962.737734644144,15144.647973137853,30877.05741847246,51493.01010286929,0.0,0.0,0.0,193.0,0.0,193.0,0.0,15.0,0.0,179.0,193.0,15.0,179.0,1744418911.5667691,0.0,2025-04-11 20:48:31.566,STOP,48
219.0,8428.686371885105,-6402.567792244887,-20199.584388683368,-23339.266877086982,12901.851582747888,15351.647478538453,30624.326243916305,51598.24211576487,0.0,0.0,0.0,193.0,0.0,193.0,0.0,16.0,0.0,179.0,193.0,16.0,179.0,1744418911.566808,0.0,2025-04-11 20:48:31.566,STOP,48
220.0,8429.066351540847,-6410.145033615236,-20135.948972219107,-23352.879089460264,13048.993116497173,15313.694216453341,30721.712794508076,51637.80470345077,0.0,0.0,0.0,193.0,0.0,193.0,0.0,16.0,0.0,179.0,193.0,16.0,179.0,1744418911.5668478,0.0,2025-04-11 20:48:31.566,STOP,48
221.0,8419.991543291992,-6432.519129814998,-20147.32601014686,-23399.504828394038,13116.40597777438,15112.997902989138,31036.13478376088,51571.33061544068,0.0,0.0,0.0,193.0,0.0,193.0,0.0,16.0,0.0,179.0,193.0,16.0,179.0,1744418911.5668876,0.0,2025-04-11 20:48:31.566,STOP,48
222.0,8415.185918234101,-6416.336466829356,-20194.152914780727,-23375.946089738143,12990.073918112985,15107.164097686304,30904.93004380823,51466.41152696747,0.0,0.0,0.0,193.0,0.0,193.0,0.0,16.0,0.0,179.0,193.0,16.0,179.0,1744418911.566926,0.0,2025-04-11 20:48:31.566,STOP,48
223.0,8404.993522762481,-6404.311228312401,-20221.220877316104,-23356.34360985084,12898.811745501966,15346.908908713927,30669.11913980474,51585.546324914256,0.0,0.0,0.0,193.0,0.0,193.0,0.0,16.0,0.0,179.0,193.0,16.0,179.0,1744418911.566965,0.0,2025-04-11 20:48:31.566,STOP,48
224.0,8432.843796353793,-6391.302513039412,-20160.08885623084,-23346.553545779414,13018.43828182677,15357.123655930003,30685.70413419058,51660.80464849528,0.0,0.0,0.0,193.0,0.0,193.0,0.0,16.0,0.0,180.0,193.0,16.0,180.0,1744418911.5670056,0.0,2025-04-11 20:48:31.567,STOP,48
225.0,8431.502691686475,-6424.27133611099,-20152.7574840495,-23392.30756667943,13134.734408227732,15171.201845550759,31025.584760377977,51611.87667988261,0.0,0.0,0.0,193.0,0.0,193.0,0.0,16.0,0.0,180.0,193.0,16.0,180.0,1744418911.5670445,0.0,2025-04-11 20:48:31.567,STOP,48
226.0,8430.675677141628,-6424.8301297223725,-20201.014900328508,-23391.637014345768,13020.651104527844,15090.623806789376,30957.009608389093,51480.94016086342,0.0,0.0,0.0,193.0,0.0,193.0,0.0,16.0,0.0,179.0,193.0,16.0,179.0,1744418911.567087,0.0,2025-04-11 20:48:31.567,STOP,48
227.0,8433.939031832104,-6389.894353138728,-20219.589199970866,-23348.632258013757,12915.754367799089,15317.449309521833,30713.867332204263,51569.475420650895,0.0,0.0,0.0,193.0,0.0,193.0,0.0,16.0,0.0,179.0,193.0,16.0,179.0,1744418911.567125,0.0,2025-04-11 20:48:31.567,STOP,48
228.0,8438.699953401083,-6386.251018792513,-20173.94693779313,-23340.94325792113,12983.591912220945,15364.253862411246,30627.05315673985,51637.5364825173,0.0,0.0,0.0,193.0,0.0,193.0,0.0,16.0,0.0,179.0,193.0,16.0,179.0,1744418911.5671668,0.0,2025-04-11 20:48:31.567,STOP,48
229.0,8400.903153527159,-6438.822321751395,-20157.876033529763,-23398.409592915727,13119.401111531392,15202.561343021554,30968.543108528032,51618.06811309673,0.0,0.0,0.0,193.0,0.0,193.0,0.0,16.0,0.0,178.0,193.0,16.0,178.0,1744418911.567434,0.0,2025-04-11 20:48:31.567,STOP,48
230.0,8414.00127577797,-6434.486083327065,-20200.18788578366,-23403.01405227352,13026.283744130582,15059.97956514115,30961.167032857782,51473.67584391545,0.0,0.0,0.0,193.0,0.0,193.0,0.0,16.0,0.0,178.0,193.0,16.0,178.0,1744418911.5674782,0.0,2025-04-11 20:48:31.567,STOP,48
231.0,8435.235433010512,-6384.418175747178,-20218.203391814637,-23353.013199926998,12927.444330149214,15284.54754168362,30729.200628900606,51531.164530654496,0.0,0.0,0.0,193.0,0.0,193.0,0.0,16.0,0.0,179.0,193.0,16.0,179.0,1744418911.5675159,0.0,2025-04-11 20:48:31.567,STOP,48
232.0,8458.39184026621,-6363.11696328127,-20170.549472635925,-23331.019083382977,12950.131350771351,15383.185789964891,30589.412819077115,51631.36740104764,0.0,0.0,0.0,193.0,0.0,193.0,0.0,16.0,0.0,179.0,193.0,16.0,179.0,1744418911.5675533,0.0,2025-04-11 20:48:31.567,STOP,48
233.0,8453.742677419505,-6405.585277746353,-20127.79058549292,-23361.395104097737,13124.385550544925,15260.809989072084,30906.6958316202,51638.966994162445,0.0,0.0,0.0,193.0,0.0,193.0,0.0,16.0,0.0,179.0,193.0,16.0,179.0,1744418911.5676136,0.0,2025-04-11 20:48:31.567,STOP,48
234.0,8426.00416255047,-6426.5288623009765,-20186.8662460883,-23397.62728185979,13064.102895748962,15062.684126220242,30991.297184383537,51494.84294591462,0.0,0.0,0.0,193.0,0.0,193.0,0.0,16.0,0.0,179.0,193.0,16.0,179.0,1744418911.5676477,0.0,2025-04-11 20:48:31.567,STOP,48
235.0,8410.80497632086,-6410.949696415627,-20223.56781048391,-23358.109397662807,12938.575498887956,15222.29793337559,30769.478472409068,51505.7058937199,0.0,0.0,0.0,193.0,0.0,193.0,0.0,16.0,0.0,179.0,193.0,16.0,179.0,1744418911.5676816,0.0,2025-04-11 20:48:31.567,STOP,48
236.0,8437.314145244854,-6377.9808733440495,-20193.392955469248,-23333.410720039694,12927.46668189367,15371.361717148033,30568.5139380114,51619.655086953055,0.0,0.0,0.0,193.0,0.0,193.0,0.0,16.0,0.0,179.0,193.0,16.0,179.0,1744418911.5677145,0.0,2025-04-11 20:48:31.567,STOP,48
237.0,8437.202386522578,-6402.5230887559765,-20133.110300673285,-23354.57782203887,13105.118346824449,15282.02179456017,30818.04881311045,51647.147732633086,0.0,0.0,0.0,193.0,0.0,193.0,0.0,16.0,0.0,179.0,193.0,16.0,179.0,1744418911.5677464,0.0,2025-04-11 20:48:31.567,STOP,48
238.0,8435.52600568843,-6420.2480221090345,-20163.866301043785,-23390.85470328983,13091.550837940078,15073.010632158594,30995.678126296774,51514.57953626866,0.0,0.0,0.0,193.0,0.0,193.0,0.0,16.0,0.0,179.0,193.0,16.0,179.0,1744418911.5677836,0.0,2025-04-11 20:48:31.567,STOP,48
239.0,8436.978869078024,-6395.1246613412695,-20211.7213859226,-23366.692467533645,12955.808693862999,15184.076450357015,30802.62610943629,51482.571838208656,0.0,0.0,0.0,193.0,0.0,193.0,0.0,16.0,0.0,180.0,193.0,16.0,180.0,1744418911.567816,0.0,2025-04-11 20:48:31.567,STOP,48
240.0,8441.359810991265,-6371.5882744298315,-20210.402632999736,-23350.845080714833,12897.314178623461,15364.56678683362,30571.352609557227,51596.92336284201,0.0,0.0,0.0,193.0,0.0,193.0,0.0,16.0,0.0,179.0,193.0,16.0,179.0,1744418911.567848,0.0,2025-04-11 20:48:31.567,STOP,48
241.0,8442.566805191851,-6387.83799264884,-20135.36782686327,-23356.32125810638,13065.086372504995,15300.752556413718,30736.196724915117,51632.75320920387,0.0,0.0,0.0,193.0,0.0,193.0,0.0,16.0,0.0,179.0,193.0,16.0,179.0,1744418911.56788,0.0,2025-04-11 20:48:31.567,STOP,48
242.0,8420.796206092382,-6437.347106617344,-20158.166606207684,-23409.183133743183,13108.292294537103,15090.065013177993,30994.828760007473,51531.76802775479,0.0,0.0,0.0,193.0,0.0,193.0,0.0,16.0,0.0,179.0,193.0,16.0,179.0,1744418911.567913,0.0,2025-04-11 20:48:31.567,STOP,48
243.0,8425.62418289473,-6413.69896098363,-20202.8700951183,-23382.696316563644,12974.874731883376,15131.974534031695,30834.879676685297,51459.9965763088,0.0,0.0,0.0,193.0,0.0,193.0,0.0,17.0,0.0,179.0,193.0,17.0,179.0,1744418911.5679464,0.0,2025-04-11 20:48:31.567,STOP,48
244.0,8438.096456300791,-6379.232571033546,-20211.319054522402,-23347.447615557627,12897.381233856826,15358.12948443049,30586.596499275747,51575.15276374254,0.0,0.0,0.0,193.0,0.0,193.0,0.0,17.0,0.0,179.0,193.0,17.0,179.0,1744418911.5679967,0.0,2025-04-11 20:48:31.567,STOP,48
245.0,8457.520122232452,-6368.749602884007,-20149.22590842556,-23350.688618503646,13027.691904031266,15340.069274910604,30659.530241433415,51624.2371945664,0.0,0.0,0.0,193.0,0.0,193.0,0.0,17.0,0.0,179.0,193.0,17.0,179.0,1744418911.5680296,0.0,2025-04-11 20:48:31.568,STOP,48
246.0,8444.265537770456,-6401.047873621926,-20163.151045221217,-23403.483438907082,13099.329245010525,15144.916194071317,30987.340925614946,51562.65813859202,0.0,0.0,0.0,193.0,0.0,193.0,0.0,17.0,0.0,179.0,193.0,17.0,179.0,1744418911.568062,0.0,2025-04-11 20:48:31.568,STOP,48
247.0,8429.379275963222,-6421.253850609523,-20213.6212842013,-23394.833313802876,12984.173057576783,15108.236981420157,30866.797967767474,51448.105448258575,0.0,0.0,0.0,193.0,0.0,193.0,0.0,17.0,0.0,179.0,193.0,17.0,179.0,1744418911.5680983,0.0,2025-04-11 20:48:31.568,STOP,48
248.0,8421.354999703766,-6401.1149288552915,-20235.660104234234,-23362.9150227207,12889.245198875095,15337.074141153591,30623.141601460175,51556.98079550038,0.0,0.0,0.0,193.0,0.0,193.0,0.0,17.0,0.0,179.0,193.0,17.0,179.0,1744418911.5681787,0.0,2025-04-11 20:48:31.568,STOP,48
249.0,8442.790322636405,-6378.316149510879,-20171.912929047696,-23347.984057424554,12996.488868771658,15355.648440795952,30606.064868696318,51628.41697077954,0.0,0.0,0.0,193.0,0.0,193.0,0.0,17.0,0.0,179.0,193.0,17.0,179.0,1744418911.568216,0.0,2025-04-11 20:48:31.568,STOP,48
250.0,8406.960476274548,-6445.103161943336,-20161.832292298353,-23403.975177285098,13122.664466221866,15165.457447225745,30947.152489084303,51587.647388893056,0.0,0.0,0.0,193.0,0.0,193.0,0.0,17.0,0.0,179.0,193.0,17.0,179.0,1744418911.5682502,0.0,2025-04-11 20:48:31.568,STOP,48
251.0,8395.404624391154,-6453.909749258727,-20215.029444101983,-23411.418308188717,13008.648217755344,15063.041754131527,30880.030200485016,51443.45628541187,0.0,0.0,0.0,193.0,0.0,193.0,0.0,17.0,0.0,179.0,193.0,17.0,179.0,1744418911.5682828,0.0,2025-04-11 20:48:31.568,STOP,48
252.0,8454.837912897816,-6380.6854344231415,-20209.933246366174,-23340.697388732122,12916.17905094374,15330.480376539277,30648.77905235041,51542.29569939324,0.0,0.0,0.0,193.0,0.0,193.0,0.0,17.0,0.0,179.0,193.0,17.0,179.0,1744418911.568329,0.0,2025-04-11 20:48:31.568,STOP,48
253.0,8457.00603210998,-6378.226742533057,-20168.671926101677,-23341.457348043605,12974.382993505358,15392.19354298038,30550.409025002606,51632.44028478149,0.0,0.0,0.0,193.0,0.0,193.0,0.0,17.0,0.0,179.0,193.0,17.0,179.0,1744418911.5683868,0.0,2025-04-11 20:48:31.568,STOP,48
254.0,8427.211156751056,-6427.735856501563,-20155.931431762154,-23406.903255808742,13125.16786160086,15228.332904378523,30898.962128038664,51630.09335161369,0.0,0.0,0.0,193.0,0.0,193.0,0.0,17.0,0.0,179.0,193.0,17.0,179.0,1744418911.5684323,0.0,2025-04-11 20:48:31.568,STOP,48
255.0,8440.756313890972,-6410.435606293155,-20194.04115605845,-23405.96448254162,13029.7259127767,15058.012611629083,30902.31488970696,51469.004329324285,0.0,0.0,0.0,193.0,0.0,193.0,0.0,17.0,0.0,179.0,193.0,17.0,179.0,1744418911.5684855,0.0,2025-04-11 20:48:31.568,STOP,48
0.0,8441.784494135916,-6384.55228621391,-20221.75731918303,-23362.08800817585,12917.788376544522,15273.461076433789,30683.78188416742,51525.084856162655,0.0,0.0,0.0,193.0,0.0,193.0,0.0,17.0,0.0,180.0,193.0,17.0,180.0,1744418911.5685513,0.0,2025-04-11 20:48:31.568,STOP,48
1.0,8460.314090289367,-6361.418230702667,-20193.43765895816,-23350.33099059236,12936.787359331533,15378.134295717991,30506.689012848023,51616.57054621822,0.0,0.0,0.0,193.0,0.0,193.0,0.0,17.0,0.0,179.0,193.0,17.0,179.0,1744418911.5686111,0.0,2025-04-11 20:48:31.568,STOP,48
2.0,8458.280081543933,-6381.288931523434,-20147.03543746894,-23380.416438629203,13109.208716059771,15253.746837824207,30797.99929833404,51619.677438697516,0.0,0.0,0.0,193.0,0.0,193.0,0.0,17.0,0.0,179.0,193.0,17.0,179.0,1744418911.5686677,0.0,2025-04-11 20:48:31.568,STOP,48
3.0,8447.52889246093,-6398.276257309468,-20196.321033992892,-23407.48440116458,13064.795799827076,15066.483922777645,30928.757003397586,51496.564030237685,0.0,0.0,0.0,193.0,0.0,193.0,0.0,17.0,0.0,179.0,193.0,17.0,179.0,1744418911.5688057,0.0,2025-04-11 20:48:31.568,STOP,48
4.0,8454.301471030889,-6376.550361698909,-20224.19365932866,-23368.502958834524,12937.592022131923,15242.615669085464,30735.526172581456,51522.53675729475,0.0,0.0,0.0,193.0,0.0,193.0,0.0,17.0,0.0,179.0,193.0,17.0,179.0,1744418911.5688725,0.0,2025-04-11 20:48:31.568,STOP,48
5.0,8480.542419021418,-6350.331765452835,-20188.408516455715,-23346.754711479512,12912.22279217515,15396.462726171343,30526.827934602254,51637.71529647295,0.0,0.0,0.0,193.0,0.0,193.0,0.0,17.0,0.0,179.0,193.0,17.0,179.0,1744418911.5689275,0.0,2025-04-11 20:48:31.568,STOP,48
6.0,8485.035119656935,-6356.500846922499,-20123.968437191063,-23362.28917387595,13099.239838032705,15290.336643497545,30746.232658175548,51657.831866482724,0.0,0.0,0.0,193.0,0.0,193.0,0.0,17.0,0.0,179.0,193.0,17.0,179.0,1744418911.5689833,0.0,2025-04-11 20:48:31.568,STOP,48
7.0,8459.598834466797,-6386.251018792513,-20170.258899958004,-23409.40665118774,13083.370099469435,15072.049507147016,30929.338148753424,51525.0625044182,0.0,0.0,0.0,193.0,0.0,192.0,0.0,17.0,0.0,178.0,192.0,17.0,178.0,1744418911.56911,0.0,2025-04-11 20:48:31.569,STOP,48
8.0,8447.014802338457,-6388.486193238044,-20238.655237991243,-23404.422212174202,12945.638650135834,15171.179493806303,30762.303562438916,51498.82155642767,0.0,0.0,0.0,193.0,0.0,193.0,0.0,17.0,0.0,178.0,193.0,17.0,178.0,1744418911.5691533,0.0,2025-04-11 20:48:31.569,STOP,48
9.0,8481.570599266362,-6346.956652040083,-20228.82047043091,-23371.252223402527,12889.178143641728,15362.868054255016,30526.671472391066,51618.06811309673,0.0,0.0,0.0,193.0,0.0,193.0,0.0,17.0,0.0,178.0,193.0,17.0,178.0,1744418911.5691936,0.0,2025-04-11 20:48:31.569,STOP,48
10.0,8491.561829037884,-6344.252090960991,-20132.41739659517,-23365.75369426652,13056.637413100889,15317.628123477474,30669.052084571373,51656.40135483758,0.0,0.0,0.0,193.0,0.0,193.0,0.0,17.0,0.0,179.0,193.0,17.0,179.0,1744418911.5692327,0.0,2025-04-11 20:48:31.569,STOP,48
11.0,8459.598834466797,-6391.0119403614935,-20155.61850733978,-23405.226874974596,13100.491535722202,15108.527554098077,30947.331303039948,51559.327728668184,0.0,0.0,0.0,193.0,0.0,193.0,0.0,17.0,0.0,179.0,193.0,17.0,179.0,1744418911.569271,0.0,2025-04-11 20:48:31.569,STOP,48
12.0,8442.544453447397,-6407.0381411359485,-20233.939019911173,-23401.047098761454,12952.143007772329,15114.964856501205,30788.991545318553,51466.41152696747,0.0,0.0,0.0,193.0,0.0,193.0,0.0,17.0,0.0,179.0,193.0,17.0,179.0,1744418911.5693104,0.0,2025-04-11 20:48:31.569,STOP,48
13.0,8468.852456671293,-6369.218989517569,-20250.97104918612,-23364.032609943464,12869.083925376408,15346.350115102545,30546.028083089364,51590.75428137235,0.0,0.0,0.0,193.0,0.0,193.0,0.0,17.0,0.0,179.0,193.0,17.0,179.0,1744418911.569352,0.0,2025-04-11 20:48:31.569,STOP,48
14.0,8482.978759167047,-6368.324919739356,-20157.85368178531,-23353.19201388264,13017.521860304101,15327.619353248998,30605.930758229588,51654.9931949369,0.0,0.0,0.0,193.0,0.0,193.0,0.0,17.0,0.0,179.0,193.0,17.0,179.0,1744418911.5693917,0.0,2025-04-11 20:48:31.569,STOP,48
15.0,8467.86897991526,-6403.126585856269,-20161.452312642614,-23405.11511625232,13094.635378674911,15118.921115269795,30931.193343543215,51595.15757503004,0.0,0.0,0.0,193.0,0.0,193.0,0.0,17.0,0.0,180.0,193.0,17.0,180.0,1744418911.5694363,0.0,2025-04-11 20:48:31.569,STOP,48
16.0,8482.934055678137,-6377.757355899496,-20199.85260961683,-23385.24441543155,12977.601644706923,15075.156399626303,30821.222760823104,51476.71568116137,0.0,0.0,0.0,193.0,0.0,193.0,0.0,17.0,0.0,179.0,193.0,17.0,179.0,1744418911.5694788,0.0,2025-04-11 20:48:31.569,STOP,48
17.0,8456.089610587313,-6363.519294681465,-20251.663953264233,-23364.256127388016,12888.485239563614,15322.344341557544,30590.73157199998,51588.630865649095,0.0,0.0,0.0,193.0,0.0,193.0,0.0,17.0,0.0,180.0,193.0,17.0,180.0,1744418911.5695157,0.0,2025-04-11 20:48:31.569,STOP,48
18.0,8434.296659743388,-6379.232571033546,-20242.38797931528,-23375.81197927141,12953.484112439646,15335.710684741818,30547.99503660143,51660.0446891838,0.0,0.0,0.0,193.0,0.0,193.0,0.0,17.0,0.0,179.0,193.0,17.0,179.0,1744418911.569549,0.0,2025-04-11 20:48:31.569,STOP,48
19.0,8445.897215115692,-6408.379245803267,-20261.6328312913,-23423.82352636141,13098.524582210135,15153.991002320172,30883.5394243645,51615.899993884566,0.0,0.0,0.0,193.0,0.0,193.0,0.0,17.0,0.0,178.0,193.0,17.0,178.0,1744418911.5696042,0.0,2025-04-11 20:48:31.569,STOP,48
20.0,8475.91560791917,-6381.69126292363,-20225.28889480697,-23395.39210741426,13002.657950241322,15048.490768491123,30857.991380452084,51476.87214337256,0.0,0.0,0.0,193.0,0.0,193.0,0.0,17.0,0.0,179.0,193.0,17.0,179.0,1744418911.5696378,0.0,2025-04-11 20:48:31.569,STOP,48
21.0,8421.600868892774,-6390.184925816647,-20364.473207530165,-23396.174418470197,12856.075210103418,15251.466959889765,30603.650880295147,51526.113036407594,0.0,0.0,0.0,193.0,0.0,193.0,0.0,17.0,0.0,179.0,193.0,17.0,179.0,1744418911.5696702,0.0,2025-04-11 20:48:31.569,STOP,48
22.0,8484.141049878723,-6359.87596033525,-20302.11184049986,-23372.079237947375,12916.380216643836,15354.03911519517,30506.063164003273,51634.60840399366,0.0,0.0,0.0,193.0,0.0,193.0,0.0,17.0,0.0,179.0,193.0,17.0,179.0,1744418911.569702,0.0,2025-04-11 20:48:31.569,STOP,48
23.0,8453.005069852481,-6401.450205022122,-20224.126604095294,-23411.977101800097,13094.92595135283,15219.369854851944,30849.609476281345,51638.43055229552,0.0,0.0,0.0,193.0,0.0,193.0,0.0,17.0,0.0,179.0,193.0,17.0,179.0,1744418911.5697532,0.0,2025-04-11 20:48:31.569,STOP,48
24.0,8428.61931665174,-6429.658106524719,-20388.590739797444,-23452.143186586283,13001.965046163208,15027.882460103328,30878.085598717404,51471.440669469914,0.0,0.0,0.0,193.0,0.0,193.0,0.0,17.0,0.0,180.0,193.0,17.0,180.0,1744418911.5697913,0.0,2025-04-11 20:48:31.569,STOP,48
25.0,8449.987584351014,-6375.7009954096075,-20390.93767296525,-23390.9217585232,12885.132477895319,15228.668180545352,30653.20469775256,51501.63787622903,0.0,0.0,0.0,193.0,0.0,193.0,0.0,17.0,0.0,179.0,193.0,17.0,179.0,1744418911.5698242,0.0,2025-04-11 20:48:31.569,STOP,48
26.0,8461.47638100104,-6381.020710589971,-20358.46058827169,-23361.61862154229,12875.185951612706,15351.356905860534,30487.17593993854,51599.13618554309,0.0,0.0,0.0,193.0,0.0,193.0,0.0,17.0,0.0,179.0,193.0,17.0,179.0,1744418911.5698557,0.0,2025-04-11 20:48:31.569,STOP,48
27.0,8466.796096181404,-6374.337538997834,-20237.850575190852,-23357.930583707166,13080.106744778961,15264.92271005186,30806.917644371708,51640.59867150768,0.0,0.0,0.0,193.0,0.0,193.0,0.0,17.0,0.0,179.0,193.0,17.0,179.0,1744418911.569888,0.0,2025-04-11 20:48:31.569,STOP,48
28.0,8425.445368939087,-6420.806815720417,-20417.6703593338,-23414.815773345923,13011.486889301168,15049.206024313693,30938.03297734654,51492.47366100236,0.0,0.0,0.0,193.0,0.0,193.0,0.0,17.0,0.0,179.0,193.0,17.0,179.0,1744418911.5699213,0.0,2025-04-11 20:48:31.569,STOP,48
29.0,8414.671828111628,-6425.992420434049,-20617.494954764243,-23408.222008731605,12848.095637332874,15181.438944511288,30713.88968394872,51461.47179144285,0.0,0.0,0.0,193.0,0.0,193.0,0.0,17.0,0.0,179.0,193.0,17.0,179.0,1744418911.569954,0.0,2025-04-11 20:48:31.569,STOP,48
30.0,8509.510279835496,-6336.853663546284,-20457.94820284226,-23330.393234538227,12894.40845184427,15397.490906416288,30546.251600533917,51607.51808971383,0.0,0.0,0.0,193.0,0.0,192.0,0.0,17.0,0.0,179.0,192.0,17.0,179.0,1744418911.5699868,0.0,2025-04-11 20:48:31.569,STOP,48
31.0,8475.334462563333,-6381.601855945809,-20401.353585881425,-23354.264897616496,13075.837561587998,15309.894419895938,30760.04603624893,51631.479159769915,0.0,0.0,0.0,193.0,0.0,193.0,0.0,17.0,0.0,179.0,193.0,17.0,179.0,1744418911.570019,0.0,2025-04-11 20:48:31.570,STOP,48
32.0,8415.76706358994,-6426.215937878602,-20522.947075718293,-23408.177305242694,13045.975630995707,15079.26912060608,30963.625724747864,51499.38035003905,0.0,0.0,0.0,193.0,0.0,193.0,0.0,17.0,0.0,179.0,193.0,17.0,179.0,1744418911.5700507,0.0,2025-04-11 20:48:31.570,STOP,48
33.0,8400.411415149143,-6431.669763525697,-20582.69328864733,-23387.233720688073,12912.915696253265,15167.737325160186,30790.89144359725,51450.05005002619,0.0,0.0,0.0,193.0,0.0,193.0,0.0,17.0,0.0,179.0,193.0,17.0,179.0,1744418911.5700824,0.0,2025-04-11 20:48:31.570,STOP,48
34.0,8447.037154082913,-6396.488117753043,-20607.883704648462,-23358.355266851817,12852.588337968391,15373.37337414901,30556.82397566128,51574.012824775324,0.0,0.0,0.0,193.0,0.0,193.0,0.0,17.0,0.0,179.0,193.0,17.0,179.0,1744418911.5701332,0.0,2025-04-11 20:48:31.570,STOP,48
35.0,8474.1498201072,-6388.5532484714095,-20397.79965851303,-23340.33976082084,13020.539345805568,15361.258728654235,30700.568044253356,51641.26922384134,0.0,0.0,0.0,193.0,0.0,193.0,0.0,17.0,0.0,179.0,193.0,17.0,179.0,1744418911.5701687,0.0,2025-04-11 20:48:31.570,STOP,48
36.0,8403.719473328529,-6447.785371277973,-20500.10359288497,-23408.087898264876,13055.899805533863,15146.86079583893,30996.303975141524,51555.43852513296,0.0,0.0,0.0,193.0,0.0,193.0,0.0,17.0,0.0,179.0,193.0,17.0,179.0,1744418911.5702045,0.0,2025-04-11 20:48:31.570,STOP,48
37.0,8508.057416445901,-6373.421117475166,-20508.083165655516,-23363.026781442975,12961.061353809995,15166.127999559403,30862.30526713196,51469.09373630211,0.0,0.0,0.0,193.0,0.0,193.0,0.0,17.0,0.0,179.0,193.0,17.0,179.0,1744418911.570237,0.0,2025-04-11 20:48:31.570,STOP,48
38.0,8493.193506383122,-6355.942053311116,-20472.38742976039,-23317.496277987513,12879.142210381295,15404.487002430798,30614.424421122603,51575.97977828739,0.0,0.0,0.0,193.0,0.0,193.0,0.0,17.0,0.0,180.0,193.0,17.0,180.0,1744418911.5702884,0.0,2025-04-11 20:48:31.570,STOP,48
39.0,8442.700915658585,-6405.585277746353,-20516.934456459818,-23367.67594428968,12964.592929433935,15373.082801471091,30609.462333853524,51609.50739497035,0.0,0.0,0.0,193.0,0.0,193.0,0.0,17.0,0.0,179.0,193.0,17.0,179.0,1744418911.5703223,0.0,2025-04-11 20:48:31.570,STOP,48
40.0,8397.013949991937,-6472.104069245347,-20551.73612257673,-23435.24526777807,13063.834674815498,15172.252377540157,30961.94934391372,51562.03228974728,0.0,0.0,0.0,193.0,0.0,193.0,0.0,17.0,0.0,179.0,193.0,17.0,179.0,1744418911.5703566,0.0,2025-04-11 20:48:31.570,STOP,48
41.0,8359.172446629102,-6487.303255474956,-20643.601792288042,-23472.103294384873,12894.922541966742,15063.131161109348,30860.20420315316,51414.2872588977,0.0,0.0,0.0,193.0,0.0,193.0,0.0,17.0,0.0,179.0,193.0,17.0,179.0,1744418911.5703905,0.0,2025-04-11 20:48:31.570,STOP,48
42.0,8414.314200200344,-6425.388923333755,-20648.51917606821,-23412.088860522374,12811.327017703894,15329.251030594234,30635.792688821875,51520.72626599387,0.0,0.0,0.0,193.0,0.0,193.0,0.0,17.0,0.0,179.0,193.0,17.0,179.0,1744418911.5704236,0.0,2025-04-11 20:48:31.570,STOP,48
43.0,8399.338531415287,-6419.7786354754735,-20578.26764324518,-23358.310563362906,12922.281077180038,15389.131353990002,30595.380734846683,51613.95539211696,0.0,0.0,0.0,193.0,0.0,193.0,0.0,17.0,0.0,179.0,193.0,17.0,179.0,1744418911.5704575,0.0,2025-04-11 20:48:31.570,STOP,48
44.0,8445.33842150431,-6423.041990165948,-20520.711901272763,-23381.221101429594,13087.080489049016,15225.15895666587,30958.820099689976,51603.33831350068,0.0,0.0,0.0,193.0,0.0,193.0,0.0,17.0,0.0,179.0,193.0,17.0,179.0,1744418911.5704927,0.0,2025-04-11 20:48:31.570,STOP,48
45.0,8434.788398121405,-6425.277164611479,-20538.995628237204,-23383.50097936404,12977.266368540093,15084.65589101981,30934.88138137834,51453.02283203875,0.0,0.0,0.0,193.0,0.0,193.0,0.0,17.0,0.0,179.0,193.0,17.0,179.0,1744418911.5705552,0.0,2025-04-11 20:48:31.570,STOP,48
46.0,8340.799312686839,-6456.435496382177,-20707.259560496757,-23390.67588933419,12846.083980331896,15284.97222482827,30671.86840437274,51499.24623957232,0.0,0.0,0.0,193.0,0.0,193.0,0.0,17.0,0.0,179.0,193.0,17.0,179.0,1744418911.570639,0.0,2025-04-11 20:48:31.570,STOP,48
47.0,8446.232491282522,-6422.818472721395,-20694.85434232406,-23389.804171300435,12836.91976510522,15358.75533327524,30531.052414304308,51598.39857797606,0.0,0.0,0.0,193.0,0.0,193.0,0.0,17.0,0.0,179.0,193.0,17.0,179.0,1744418911.5706809,0.0,2025-04-11 20:48:31.570,STOP,48
48.0,8432.329706231321,-6439.470522340599,-20534.324113646046,-23397.739040582066,13029.748264521155,15240.648715573398,30876.051589971972,51625.332430044706,0.0,0.0,0.0,193.0,0.0,193.0,0.0,17.0,0.0,179.0,193.0,17.0,179.0,1744418911.5707293,0.0,2025-04-11 20:48:31.570,STOP,48
49.0,8328.528204980876,-6512.046636586981,-20671.13914145698,-23485.8943207138,12956.054563052006,15014.203192496681,30906.87464557584,51443.009250522766,0.0,0.0,0.0,193.0,0.0,193.0,0.0,17.0,0.0,179.0,193.0,17.0,179.0,1744418911.5709515,0.0,2025-04-11 20:48:31.570,STOP,48
50.0,8359.12774314019,-6480.150697249258,-20652.028399947692,-23422.415366460726,12855.047029858475,15209.19981112478,30694.98010813953,51482.12480331955,0.0,0.0,0.0,193.0,0.0,193.0,0.0,17.0,0.0,179.0,193.0,17.0,179.0,1744418911.5710132,0.0,2025-04-11 20:48:31.571,STOP,48
51.0,8457.922453632647,-6411.866117938294,-20632.381216571477,-23379.09768570634,12889.871047719842,15353.726190772795,30525.352719468203,51610.80379614876,0.0,0.0,0.0,193.0,0.0,193.0,0.0,17.0,0.0,179.0,193.0,17.0,179.0,1744418911.5710604,0.0,2025-04-11 20:48:31.571,STOP,48
52.0,8495.58514303984,-6393.515335740488,-20571.182140252848,-23377.48836010556,13085.918198337342,15258.664221604375,30805.464780982114,51642.29740408628,0.0,0.0,0.0,193.0,0.0,193.0,0.0,17.0,0.0,179.0,193.0,17.0,179.0,1744418911.5711124,0.0,2025-04-11 20:48:31.571,STOP,48
53.0,8454.793209408905,-6421.902051198727,-20557.704038346295,-23431.44547122067,13051.362401409437,15048.468416746668,30961.54701251352,51500.2073645839,0.0,0.0,0.0,193.0,0.0,193.0,0.0,17.0,0.0,179.0,193.0,17.0,179.0,1744418911.5711718,0.0,2025-04-11 20:48:31.571,STOP,48
54.0,8436.330668488821,-6440.923385730194,-20612.868143661995,-23393.045174246454,12892.352091354382,15164.85395012545,30760.448367649125,51466.45623045638,0.0,0.0,0.0,193.0,0.0,193.0,0.0,17.0,0.0,179.0,193.0,17.0,179.0,1744418911.5712044,0.0,2025-04-11 20:48:31.571,STOP,48
55.0,8433.782569620917,-6419.0186761639925,-20691.702746355862,-23379.5670723399,12824.91687833272,15320.578553745576,30533.309940494295,51567.12848748309,0.0,0.0,0.0,193.0,0.0,193.0,0.0,17.0,0.0,179.0,193.0,17.0,179.0,1744418911.5712373,0.0,2025-04-11 20:48:31.571,STOP,48
56.0,8426.85352883977,-6435.93894671666,-20642.99829518775,-23406.031537774987,12980.507371486114,15229.91987823485,30730.206457401095,51613.82128165022,0.0,0.0,0.0,193.0,0.0,193.0,0.0,17.0,0.0,179.0,193.0,17.0,179.0,1744418911.5712705,0.0,2025-04-11 20:48:31.571,STOP,48
57.0,8435.637764410707,-6470.986482022582,-20749.705523217384,-23464.324887314426,12951.271289738572,14977.322814145426,30936.4013000013,51484.42703299845,0.0,0.0,0.0,193.0,0.0,193.0,0.0,17.0,0.0,179.0,193.0,17.0,179.0,1744418911.5713031,0.0,2025-04-11 20:48:31.571,STOP,48
58.0,8446.679526171629,-6426.9982489345375,-20691.18865623339,-23407.417345931215,12924.98563825913,15046.16618706777,30797.686373911667,51447.85957906957,0.0,0.0,0.0,193.0,0.0,193.0,0.0,17.0,0.0,179.0,193.0,17.0,179.0,1744418911.5713356,0.0,2025-04-11 20:48:31.571,STOP,48
59.0,8514.405311871209,-6355.8526463332955,-20647.51334756772,-23324.648836213215,12893.514382066058,15259.82651231605,30574.168929358595,51583.64642663556,0.0,0.0,0.0,193.0,0.0,193.0,0.0,17.0,0.0,179.0,193.0,17.0,179.0,1744418911.5713673,0.0,2025-04-11 20:48:31.571,STOP,48
60.0,8565.054364806934,-6320.380427882723,-20483.71976419923,-23311.57306570686,13014.169098635806,15226.522413077642,30671.577831694824,51639.77165696283,0.0,0.0,0.0,193.0,0.0,193.0,0.0,17.0,0.0,179.0,193.0,17.0,179.0,1744418911.5713992,0.0,2025-04-11 20:48:31.571,STOP,48
61.0,8539.707486594616,-6365.285082493435,-20471.225139048714,-23310.254312783996,13114.461376006768,15041.248803287603,31005.33407990147,51575.73390909838,0.0,0.0,0.0,193.0,0.0,193.0,0.0,17.0,0.0,179.0,193.0,17.0,179.0,1744418911.5714319,0.0,2025-04-11 20:48:31.571,STOP,48
62.0,8485.169230123667,-6391.436623506144,-20641.411321331423,-23353.303772604915,12980.350909274926,14999.562799878455,30884.50054937608,51462.25410249879,0.0,0.0,0.0,193.0,0.0,193.0,0.0,17.0,0.0,179.0,193.0,17.0,179.0,1744418911.5714636,0.0,2025-04-11 20:48:31.571,STOP,48
63.0,8502.447128587619,-6361.597044658309,-20704.66675813994,-23344.966571923087,12846.508663476547,15211.502040803676,30631.031767252898,51561.987586258365,0.0,0.0,0.0,193.0,0.0,193.0,0.0,17.0,0.0,180.0,193.0,17.0,180.0,1744418911.5714953,0.0,2025-04-11 20:48:31.571,STOP,48
64.0,8491.047738915413,-6374.248132020013,-20685.95834803085,-23391.569959112403,12900.778699014032,15196.526372018621,30637.379662678202,51627.12056960113,0.0,0.0,0.0,193.0,0.0,193.0,0.0,17.0,0.0,179.0,193.0,17.0,179.0,1744418911.5715413,0.0,2025-04-11 20:48:31.571,STOP,48
65.0,8504.592896055328,-6377.198562288113,-20569.5057594187,-23366.58070881137,13084.219465758737,15043.863957388874,31020.555617875532,51619.319810786226,0.0,0.0,0.0,193.0,0.0,193.0,0.0,17.0,0.0,179.0,193.0,17.0,179.0,1744418911.5715737,0.0,2025-04-11 20:48:31.571,STOP,48
66.0,8451.172226807144,-6404.311228312401,-20671.630879834996,-23364.47964483257,12970.292624270038,14941.828243950396,30940.31285528098,51462.83524785462,0.0,0.0,0.0,193.0,0.0,193.0,0.0,17.0,0.0,179.0,193.0,17.0,179.0,1744418911.5716133,0.0,2025-04-11 20:48:31.571,STOP,48
67.0,8464.225645569044,-6386.0275013479595,-20791.97267198237,-23363.652630287725,12817.741968362567,15142.189281247769,30689.906262148175,51538.40649585802,0.0,0.0,0.0,193.0,0.0,193.0,0.0,17.0,0.0,178.0,193.0,17.0,178.0,1744418911.5716455,0.0,2025-04-11 20:48:31.571,STOP,48
68.0,8537.02527725998,-6356.21027424458,-20613.426937273376,-23337.43403404165,12917.31898991096,15188.926778903817,30599.96284246002,51610.49087172638,0.0,0.0,0.0,193.0,0.0,192.0,0.0,17.0,0.0,178.0,192.0,17.0,178.0,1744418911.5716937,0.0,2025-04-11 20:48:31.571,STOP,48
69.0,8507.051587945412,-6367.632015661242,-20571.36095420849,-23357.32708660687,13082.096050035483,15040.69000967622,30950.952285641706,51600.298476254764,0.0,0.0,0.0,193.0,0.0,192.0,0.0,17.0,0.0,178.0,192.0,17.0,178.0,1744418911.5717263,0.0,2025-04-11 20:48:31.571,STOP,48
70.0,8468.137200848723,-6393.627094462764,-20745.48104351533,-23375.29788914894,12971.119638814884,14901.572752186388,30934.635512189332,51443.03160226722,0.0,0.0,0.0,193.0,0.0,192.0,0.0,17.0,0.0,179.0,192.0,17.0,179.0,1744418911.571758,0.0,2025-04-11 20:48:31.571,STOP,48
71.0,8437.291793500399,-6405.629981235264,-20794.140791194535,-23397.694337093155,12811.304665959438,15102.246713906135,30700.25511983098,51495.71466394838,0.0,0.0,0.0,193.0,0.0,192.0,0.0,17.0,0.0,179.0,192.0,17.0,179.0,1744418911.5717945,0.0,2025-04-11 20:48:31.571,STOP,48
72.0,8521.513166607996,-6335.289041434413,-20660.14208318497,-23348.431092313658,12888.529943052525,15217.24643912869,30584.54013878586,51624.52776724431,0.0,0.0,0.0,193.0,0.0,192.0,0.0,17.0,0.0,178.0,192.0,17.0,178.0,1744418911.571826,0.0,2025-04-11 20:48:31.571,STOP,48
73.0,8558.773524614993,-6324.291983162401,-20517.739119260208,-23342.038493399443,13103.911352623863,15120.642199592854,30914.585997412923,51649.00292742287,0.0,0.0,0.0,193.0,0.0,193.0,0.0,17.0,0.0,179.0,193.0,17.0,179.0,1744418911.5718577,0.0,2025-04-11 20:48:31.571,STOP,48
74.0,8524.977686998569,-6346.040230517416,-20622.345283311046,-23347.268801601986,13028.72008427621,14930.250040322548,30979.517815055588,51489.74674817881,0.0,0.0,0.0,193.0,0.0,193.0,0.0,17.0,0.0,179.0,193.0,17.0,179.0,1744418912.0427113,0.0,2025-04-11 20:48:32.042,STOP,48
75.0,8520.619096829783,-6354.131562010237,-20635.063425906115,-23338.976304409065,12882.78554472751,15100.100946438426,30756.067425735884,51505.214155341884,0.0,0.0,0.0,193.0,0.0,193.0,0.0,17.0,0.0,179.0,193.0,17.0,179.0,1744418912.0428648,0.0,2025-04-11 20:48:32.042,STOP,48
76.0,8555.867797835803,-6313.6525528016755,-20601.17818131187,-23302.498257458003,12881.891474949298,15231.283334646623,30555.840498905243,51626.226499822915,0.0,0.0,0.0,193.0,0.0,193.0,0.0,17.0,0.0,179.0,193.0,17.0,179.0,1744418912.0429027,0.0,2025-04-11 20:48:32.042,STOP,48
77.0,8542.859082562814,-6343.581538627332,-20581.799218869117,-23329.409757782192,13059.878416046908,15123.056187994027,30787.315164484404,51642.54327327529,0.0,0.0,0.0,193.0,0.0,193.0,0.0,17.0,0.0,179.0,193.0,17.0,179.0,1744418912.04294,0.0,2025-04-11 20:48:32.042,STOP,48
78.0,8503.520012321474,-6397.8292224203615,-20698.00593829226,-23386.943148010156,13007.932961932775,14904.210258032115,30947.7559861846,51508.27634433226,0.0,0.0,0.0,193.0,0.0,193.0,0.0,17.0,0.0,179.0,193.0,17.0,179.0,1744418912.0429854,0.0,2025-04-11 20:48:32.042,STOP,48
79.0,8522.1613671972,-6352.164608498169,-20659.80680701814,-23306.521571459958,12899.325835624437,15020.215811755159,30772.786530588455,51498.28511456074,0.0,0.0,0.0,193.0,0.0,193.0,0.0,17.0,0.0,180.0,193.0,17.0,180.0,1744418912.043083,0.0,2025-04-11 20:48:32.043,STOP,48
80.0,8553.431457690174,-6323.934355251116,-20629.162565369912,-23279.990050791508,12870.380326554816,15193.10655511696,30554.633504704656,51625.51124400035,0.0,0.0,0.0,193.0,0.0,193.0,0.0,17.0,0.0,179.0,193.0,17.0,179.0,1744418912.0431223,0.0,2025-04-11 20:48:32.043,STOP,48
81.0,8545.250719219532,-6344.7661810834625,-20572.858521086993,-23305.94042610412,13021.209898139226,15112.528516355576,30704.79252395541,51662.83865724071,0.0,0.0,0.0,193.0,0.0,194.0,0.0,17.0,0.0,180.0,194.0,17.0,180.0,1744418912.04316,0.0,2025-04-11 20:48:32.043,STOP,48
82.0,8532.130245224267,-6366.425021460655,-20581.955681080304,-23344.98892366754,13059.54313988008,14909.23940053456,30958.149547356315,51562.144048469556,0.0,0.0,0.0,193.0,0.0,194.0,0.0,17.0,0.0,179.0,194.0,17.0,179.0,1744418912.043198,0.0,2025-04-11 20:48:32.043,STOP,48
83.0,8512.214840914588,-6366.335614482834,-20706.320787229633,-23349.99571442553,12912.55806834198,14932.775787445999,30775.84871957883,51464.1987042664,0.0,0.0,0.0,193.0,0.0,193.0,0.0,17.0,0.0,179.0,193.0,17.0,179.0,1744418912.043258,0.0,2025-04-11 20:48:32.043,STOP,48
84.0,8539.618079616796,-6334.707896078575,-20691.81450507814,-23316.91513263168,12844.653468686756,15141.362266702923,30539.121394052672,51587.96031331543,0.0,0.0,0.0,193.0,0.0,193.0,0.0,17.0,0.0,179.0,193.0,17.0,179.0,1744418912.0432947,0.0,2025-04-11 20:48:32.043,STOP,48
85.0,8592.882286653792,-6305.136538164204,-20486.58078748951,-23269.59648961979,13033.481005845191,15170.57599670601,30648.287313972392,51686.19623019651,0.0,0.0,0.0,193.0,0.0,193.0,0.0,17.0,0.0,179.0,193.0,17.0,179.0,1744418912.043331,0.0,2025-04-11 20:48:32.043,STOP,48
86.0,8526.810530043904,-6382.674739679664,-20610.051823860627,-23372.52627283648,13079.279730234115,14947.550290530955,30939.955227369694,51587.06624353722,0.0,0.0,0.0,193.0,0.0,193.0,0.0,17.0,0.0,179.0,193.0,17.0,179.0,1744418912.0433643,0.0,2025-04-11 20:48:32.043,STOP,48
87.0,8511.231364158555,-6386.876867637261,-20711.61815066554,-23369.53113907947,12922.683408580233,14901.706862653122,30802.894330369752,51456.04031754021,0.0,0.0,0.0,193.0,0.0,193.0,0.0,17.0,0.0,179.0,193.0,17.0,179.0,1744418912.0433974,0.0,2025-04-11 20:48:32.043,STOP,48
88.0,8509.309114135398,-6354.265672476969,-20655.828196505096,-23334.058920628897,12848.296803032972,15141.272859725103,30570.838519434754,51582.86411557962,0.0,0.0,0.0,193.0,0.0,193.0,0.0,17.0,0.0,179.0,193.0,17.0,179.0,1744418912.04343,0.0,2025-04-11 20:48:32.043,STOP,48
89.0,8523.457768375609,-6355.807942844384,-20659.717400040317,-23351.023894670474,12912.6474753198,15130.365208430912,30513.84157107372,51635.2342528384,0.0,0.0,0.0,193.0,0.0,193.0,0.0,17.0,0.0,179.0,193.0,17.0,179.0,1744418912.0434623,0.0,2025-04-11 20:48:32.043,STOP,48
90.0,8521.244945674533,-6377.600893688309,-20607.906056392916,-23377.77893278348,13086.141715781894,14979.692099057687,30869.122549190826,51610.021485092824,0.0,0.0,0.0,193.0,0.0,193.0,0.0,17.0,0.0,179.0,193.0,17.0,179.0,1744418912.0434945,0.0,2025-04-11 20:48:32.043,STOP,48
91.0,8545.943623297648,-6360.121829524259,-20633.61056251652,-23356.544775550938,12976.327595272971,14896.498906195035,30815.99245262056,51466.38917522302,0.0,0.0,0.0,193.0,0.0,193.0,0.0,17.0,0.0,179.0,193.0,17.0,179.0,1744418912.043527,0.0,2025-04-11 20:48:32.043,STOP,48
92.0,8547.016507031502,-6346.9343002956275,-20703.52681917272,-23333.164850850684,12849.302631533461,15134.120301499404,30587.49056905396,51554.723269310394,0.0,0.0,0.0,193.0,0.0,193.0,0.0,17.0,0.0,179.0,193.0,17.0,179.0,1744418912.0435593,0.0,2025-04-11 20:48:32.043,STOP,48
93.0,8563.914425839714,-6327.354172152779,-20642.551260298642,-23325.252333313507,12914.525021854046,15187.76448819214,30494.775533053344,51654.56851179225,0.0,0.0,0.0,193.0,0.0,193.0,0.0,17.0,0.0,178.0,193.0,17.0,178.0,1744418912.0435913,0.0,2025-04-11 20:48:32.043,STOP,48
94.0,8521.580221841363,-6390.095518838825,-20601.64756794543,-23376.05784846042,13086.745212882188,15027.658942658776,30834.589104007377,51647.75122973338,0.0,0.0,0.0,193.0,0.0,193.0,0.0,17.0,0.0,179.0,193.0,17.0,179.0,1744418912.0436394,0.0,2025-04-11 20:48:32.043,STOP,48
95.0,8503.654122788206,-6413.475443539077,-20714.568580933643,-23401.561188883923,12961.396629976825,14860.22202494407,30827.77182194851,51474.70402416039,0.0,0.0,0.0,193.0,0.0,192.0,0.0,17.0,0.0,178.0,192.0,17.0,178.0,1744418912.0436728,0.0,2025-04-11 20:48:32.043,STOP,48
96.0,8528.68807657815,-6366.536780182932,-20634.057597405626,-23345.324199834373,12878.963396425654,15080.476114806666,30622.649863082155,51539.121751680585,0.0,0.0,0.0,193.0,0.0,193.0,0.0,17.0,0.0,179.0,193.0,17.0,179.0,1744418912.0437071,0.0,2025-04-11 20:48:32.043,STOP,48
97.0,8551.129228011278,-6336.764256568463,-20664.32185939811,-23330.549696749415,12889.111088408363,15189.418517281834,30464.31010536076,51648.28767160031,0.0,0.0,0.0,193.0,0.0,193.0,0.0,17.0,0.0,178.0,193.0,17.0,178.0,1744418912.0437417,0.0,2025-04-11 20:48:32.043,STOP,48
98.0,8569.345899742353,-6340.988736270516,-20560.766227336673,-23333.34366480633,13080.710241879255,15083.962986941695,30763.55526012841,51660.31291011726,0.0,0.0,0.0,193.0,0.0,192.0,0.0,17.0,0.0,179.0,192.0,17.0,179.0,1744418912.0438676,0.0,2025-04-11 20:48:32.043,STOP,48
99.0,8547.664707620706,-6351.963442798072,-20580.569872924076,-23349.705141747614,13034.173909923305,14921.041121606962,30876.20805218316,51520.30158284922,0.0,0.0,0.0,193.0,0.0,193.0,0.0,17.0,0.0,179.0,193.0,17.0,179.0,1744418912.0439005,0.0,2025-04-11 20:48:32.043,STOP,48
100.0,8506.470442589574,-6365.352137726801,-20676.302394426155,-23353.929621449664,12879.924521437231,15064.964004154685,30652.44473844108,51512.18789961194,0.0,0.0,0.0,193.0,0.0,193.0,0.0,17.0,0.0,178.0,193.0,17.0,178.0,1744418912.0439324,0.0,2025-04-11 20:48:32.043,STOP,48
101.0,8544.35664944132,-6332.740942566507,-20646.015780689213,-23334.57301075137,12858.31038454895,15206.405843067867,30431.095413100174,51623.00784862135,0.0,0.0,0.0,193.0,0.0,193.0,0.0,17.0,0.0,179.0,193.0,17.0,179.0,1744418912.0439641,0.0,2025-04-11 20:48:32.043,STOP,48
102.0,8533.672515591683,-6367.050870305404,-20573.976108309762,-23352.879089460264,13037.794892525066,15122.631504849376,30670.21437528305,51670.95234047799,0.0,0.0,0.0,193.0,0.0,193.0,0.0,17.0,0.0,179.0,193.0,17.0,179.0,1744418912.0439956,0.0,2025-04-11 20:48:32.043,STOP,48
103.0,8520.708503807606,-6394.029425862959,-20612.443460517345,-23398.096668493352,13026.887241230876,14919.700016939643,30871.536537592,51553.40451638753,0.0,0.0,0.0,193.0,0.0,193.0,0.0,17.0,0.0,179.0,193.0,17.0,179.0,1744418912.0440273,0.0,2025-04-11 20:48:32.044,STOP,48
104.0,8534.074846991878,-6350.711745108574,-20634.169356127903,-23344.117205633785,12910.524059596546,15032.26340201657,30705.239558844514,51527.85647247511,0.0,0.0,0.0,193.0,0.0,193.0,0.0,17.0,0.0,180.0,193.0,17.0,180.0,1744418912.0440593,0.0,2025-04-11 20:48:32.044,STOP,48
105.0,8534.700695836627,-6335.534910623421,-20644.048827177146,-23336.24939158552,12852.074247845918,15213.468994315745,30475.59773631069,51649.78523847881,0.0,0.0,0.0,193.0,0.0,193.0,0.0,17.0,0.0,179.0,193.0,17.0,179.0,1744418912.0440905,0.0,2025-04-11 20:48:32.044,STOP,48
106.0,8513.69005604864,-6375.365719242778,-20598.384213254954,-23344.519537033982,12995.974778649186,15136.735455600674,30593.458484823524,51671.824058511746,0.0,0.0,0.0,193.0,0.0,193.0,0.0,17.0,0.0,179.0,193.0,17.0,179.0,1744418912.044122,0.0,2025-04-11 20:48:32.044,STOP,48
107.0,8505.710483278095,-6398.946809643127,-20600.4629254893,-23377.15308393873,13032.475177344702,14939.883642182785,30872.67647655922,51576.38210968758,0.0,0.0,0.0,193.0,0.0,193.0,0.0,17.0,0.0,179.0,193.0,17.0,179.0,1744418912.0441537,0.0,2025-04-11 20:48:32.044,STOP,48
108.0,8524.083617220356,-6363.541646425921,-20598.227751043767,-23338.95395266461,12932.339362184926,14985.168276449238,30727.41248934418,51486.975131866355,0.0,0.0,0.0,193.0,0.0,193.0,0.0,17.0,0.0,179.0,193.0,17.0,179.0,1744418912.044186,0.0,2025-04-11 20:48:32.044,STOP,48
109.0,8519.657971818206,-6356.657309133686,-20638.527946296686,-23330.080310115853,12845.435779742693,15201.15318312087,30494.596719097703,51609.12741531461,0.0,0.0,0.0,193.0,0.0,193.0,0.0,17.0,0.0,179.0,193.0,17.0,179.0,1744418912.0442348,0.0,2025-04-11 20:48:32.044,STOP,48
110.0,8503.609419299295,-6382.227704790557,-20570.377477452457,-23336.897592174722,12960.860188109898,15176.946243875773,30526.917341580076,51665.453811341984,0.0,0.0,0.0,193.0,0.0,193.0,0.0,17.0,0.0,179.0,193.0,17.0,179.0,1744418912.044269,0.0,2025-04-11 20:48:32.044,STOP,48
111.0,8480.989453910524,-6419.868042453295,-20568.142303006924,-23383.63508983077,13063.767619582131,15001.239180712604,30858.840746741385,51611.18377580449,0.0,0.0,0.0,193.0,0.0,193.0,0.0,17.0,0.0,178.0,193.0,17.0,178.0,1744418912.0443046,0.0,2025-04-11 20:48:32.044,STOP,48
112.0,8481.34708182181,-6411.84376619384,-20612.823440173084,-23365.75369426652,12940.363638444382,14957.72033425812,30761.476547894068,51490.73022493484,0.0,0.0,0.0,193.0,0.0,193.0,0.0,17.0,0.0,179.0,193.0,17.0,179.0,1744418912.044348,0.0,2025-04-11 20:48:32.044,STOP,48
113.0,8481.838820199826,-6396.354007286312,-20600.060594089104,-23322.726586190056,12852.074247845918,15193.62064523943,30530.605379415203,51596.16340353053,0.0,0.0,0.0,193.0,0.0,193.0,0.0,17.0,0.0,179.0,193.0,17.0,179.0,1744418912.0447903,0.0,2025-04-11 20:48:32.044,STOP,48
114.0,8458.235378055022,-6416.60468776282,-20547.668105085864,-23322.681882701145,12938.106112254396,15219.280447874124,30493.03209698583,51674.57332307975,0.0,0.0,0.0,193.0,0.0,192.0,0.0,17.0,0.0,179.0,192.0,17.0,179.0,1744418912.0448265,0.0,2025-04-11 20:48:32.044,STOP,48
115.0,8439.594023179296,-6446.891301499761,-20535.039369468614,-23365.53017682197,13071.702488863766,15047.216719057169,30838.075976142405,51639.861063940654,0.0,0.0,0.0,193.0,0.0,193.0,0.0,17.0,0.0,179.0,193.0,17.0,179.0,1744418912.0448596,0.0,2025-04-11 20:48:32.044,STOP,48
116.0,8439.079933056824,-6437.615327550809,-20572.50089317571,-23355.09191216134,12976.953444117718,14966.146941917772,30826.833048681387,51514.19955661292,0.0,0.0,0.0,193.0,0.0,193.0,0.0,17.0,0.0,179.0,193.0,17.0,179.0,1744418912.044894,0.0,2025-04-11 20:48:32.044,STOP,48
117.0,8442.544453447397,-6419.733931986562,-20544.270639928658,-23312.109507573787,12885.177181384228,15194.514715017644,30610.177589676096,51598.30917099824,0.0,0.0,0.0,193.0,0.0,193.0,0.0,17.0,0.0,179.0,193.0,17.0,179.0,1744418912.0449276,0.0,2025-04-11 20:48:32.044,STOP,48
118.0,8437.872938856237,-6430.216900136102,-20499.00835740666,-23309.762574405977,12922.37048415786,15251.466959889765,30470.65800078607,51672.874590501146,0.0,0.0,0.0,193.0,0.0,192.0,0.0,17.0,0.0,178.0,192.0,17.0,178.0,1744418912.0449634,0.0,2025-04-11 20:48:32.044,STOP,48
119.0,8414.224793222522,-6463.364537163322,-20450.99681031666,-23354.264897616496,13087.907503593864,15122.542097871556,30800.033307079473,51676.87555275865,0.0,0.0,0.0,193.0,0.0,192.0,0.0,17.0,0.0,179.0,192.0,17.0,179.0,1744418912.0450091,0.0,2025-04-11 20:48:32.045,STOP,48
120.0,8394.599961590762,-6480.016586782526,-20501.24353185219,-23386.20554044313,12992.6667204698,14939.77188346051,30823.14501084626,51509.14806236602,0.0,0.0,0.0,193.0,0.0,192.0,0.0,17.0,0.0,178.0,192.0,17.0,178.0,1744418912.0450494,0.0,2025-04-11 20:48:32.045,STOP,48
121.0,8392.118917956224,-6466.85140929835,-20518.990816949703,-23349.99571442553,12878.605768514368,15130.722836342196,30603.04738319485,51540.14993192553,0.0,0.0,0.0,193.0,0.0,192.0,0.0,17.0,0.0,179.0,192.0,17.0,179.0,1744418912.0450823,0.0,2025-04-11 20:48:32.045,STOP,48
122.0,8389.928446999604,-6464.772697064006,-20497.82371495053,-23347.648781257725,12856.298727547972,15242.280392918634,30419.24898853886,51639.190511607,0.0,0.0,0.0,193.0,0.0,193.0,0.0,17.0,0.0,179.0,193.0,17.0,179.0,1744418912.045117,0.0,2025-04-11 20:48:32.045,STOP,48
123.0,8385.413394619633,-6489.694892131673,-20416.2174959442,-23363.026781442975,13065.801628327565,15150.481778440688,30711.587454269822,51669.007738710374,0.0,0.0,0.0,193.0,0.0,193.0,0.0,17.0,0.0,179.0,193.0,17.0,179.0,1744418912.045153,0.0,2025-04-11 20:48:32.045,STOP,48
124.0,8355.283243093878,-6514.997066855081,-20416.66453083331,-23387.256072432527,13032.519880833612,14963.554139560956,30849.6318280258,51530.40457134302,0.0,0.0,0.0,193.0,0.0,193.0,0.0,17.0,0.0,179.0,193.0,17.0,179.0,1744418912.045219,0.0,2025-04-11 20:48:32.045,STOP,48
125.0,8349.89647268015,-6495.99808406807,-20451.443845205766,-23351.515633048493,12906.433690361226,15100.838554005451,30653.919953575132,51515.83123395815,0.0,0.0,0.0,193.0,0.0,193.0,0.0,17.0,0.0,179.0,193.0,17.0,179.0,1744418912.0453134,0.0,2025-04-11 20:48:32.045,STOP,48
126.0,8390.129612699702,-6456.122571959802,-20432.310751952024,-23335.310618318395,12860.746724694578,15247.600108098997,30440.863125427142,51630.920366158534,0.0,0.0,0.0,193.0,0.0,193.0,0.0,17.0,0.0,180.0,193.0,17.0,180.0,1744418912.0453649,0.0,2025-04-11 20:48:32.045,STOP,48
127.0,8366.190894388068,-6493.941723578182,-20357.901794660305,-23365.932508222166,13023.310962118027,15157.120246543915,30629.713014330035,51653.160351891565,0.0,0.0,0.0,193.0,0.0,193.0,0.0,17.0,0.0,179.0,193.0,17.0,179.0,1744418912.0454075,0.0,2025-04-11 20:48:32.045,STOP,48
128.0,8331.188062571056,-6532.140854852302,-20414.42935638778,-23421.856572849345,13027.58014530899,14951.953584188652,30856.382054851303,51540.19463541444,0.0,0.0,0.0,193.0,0.0,193.0,0.0,17.0,0.0,179.0,193.0,17.0,179.0,1744418912.0454912,0.0,2025-04-11 20:48:32.045,STOP,48
129.0,8332.573870727287,-6494.902848589761,-20422.36422566941,-23375.81197927141,12917.140175955317,15050.949460381205,30702.60205299879,51496.6534372155,0.0,0.0,0.0,193.0,0.0,193.0,0.0,17.0,0.0,179.0,193.0,17.0,179.0,1744418912.0455315,0.0,2025-04-11 20:48:32.045,STOP,48
130.0,8331.79155967135,-6492.377101466311,-20433.22717347469,-23368.704124534623,12835.690419160179,15249.768227311162,30482.526777091836,51629.64631672458,0.0,0.0,0.0,193.0,0.0,193.0,0.0,17.0,0.0,179.0,193.0,17.0,179.0,1744418912.0455737,0.0,2025-04-11 20:48:32.045,STOP,48
131.0,8332.260946304912,-6531.582061240919,-20329.35861699088,-23373.19682517014,12970.09145856994,15180.187246821792,30578.594574760747,51665.90084623109,0.0,0.0,0.0,193.0,0.0,193.0,0.0,17.0,0.0,179.0,193.0,17.0,179.0,1744418912.0456316,0.0,2025-04-11 20:48:32.045,STOP,48
132.0,8307.539916937341,-6562.159247655779,-20368.429466298756,-23423.53295368349,13027.24486914216,14989.191590451193,30870.06132245795,51579.42194693351,0.0,0.0,0.0,193.0,0.0,193.0,0.0,17.0,0.0,179.0,193.0,17.0,179.0,1744418912.0457108,0.0,2025-04-11 20:48:32.045,STOP,48
133.0,8318.73814090945,-6533.906642664271,-20422.475984391687,-23400.644767361257,12873.263701589549,15002.289712702002,30727.79246899992,51475.173410793956,0.0,0.0,0.0,193.0,0.0,193.0,0.0,17.0,0.0,178.0,193.0,17.0,178.0,1744418912.0457768,0.0,2025-04-11 20:48:32.045,STOP,48
134.0,8307.83048961526,-6511.532546464508,-20394.55865556701,-23365.060790188407,12825.341561477371,15238.368837638956,30497.949480765998,51603.718293156424,0.0,0.0,0.0,193.0,0.0,193.0,0.0,17.0,0.0,178.0,193.0,17.0,178.0,1744418912.0458293,0.0,2025-04-11 20:48:32.045,STOP,48
135.0,8286.126945749158,-6532.274965319034,-20423.057129747525,-23396.24147370356,12912.55806834198,15196.615778996442,30493.188559197017,51643.95143317598,0.0,0.0,0.0,193.0,0.0,193.0,0.0,17.0,0.0,178.0,193.0,17.0,178.0,1744418912.0459275,0.0,2025-04-11 20:48:32.045,STOP,48
136.0,8321.353295010722,-6536.544148509997,-20326.58700067842,-23419.666101892723,13048.926061263808,15019.411148954769,30844.20035412316,51597.437452964485,0.0,0.0,0.0,193.0,0.0,192.0,0.0,17.0,0.0,178.0,192.0,17.0,178.0,1744418912.0460129,0.0,2025-04-11 20:48:32.046,STOP,48
137.0,8371.08592642378,-6490.186630509691,-20316.48401218462,-23389.62535734479,12962.08953405494,14973.38890712129,30782.33072547087,51473.94406484891,0.0,0.0,0.0,193.0,0.0,192.0,0.0,17.0,0.0,179.0,192.0,17.0,179.0,1744418912.0460863,0.0,2025-04-11 20:48:32.046,STOP,48
138.0,8360.513551296419,-6468.863066299327,-20396.07857418997,-23366.62541230028,12849.928480378208,15210.004473925172,30547.793870901332,51566.52499038279,0.0,0.0,0.0,193.0,0.0,193.0,0.0,17.0,0.0,178.0,193.0,17.0,178.0,1744418912.04618,0.0,2025-04-11 20:48:32.046,STOP,48
139.0,8359.261853606922,-6465.979691264593,-20393.731641022165,-23367.564185567404,12916.111995710373,15240.939288251317,30483.733771292424,51637.87175868413,0.0,0.0,0.0,193.0,0.0,193.0,0.0,17.0,0.0,178.0,193.0,17.0,178.0,1744418912.0464709,0.0,2025-04-11 20:48:32.046,STOP,48
