Sample Index,EXG Channel 0,EXG Channel 1,EXG Channel 2,EXG Channel 3,EXG Channel 4,EXG Channel 5,EXG Channel 6,EXG Channel 7,Accel Channel 0,Accel Channel 1,Accel Channel 2,Not Used,Digital Channel 0 (D11),Digital Channel 1 (D12),Digital Channel 2 (D13),Digital Channel 3 (D17),Not Used,Digital Channel 4 (D18),Analog Channel 0,Analog Channel 1,Analog Channel 2,Timestamp,Marker Channel,Timestamp (Formatted),Stimulus_Direction,Stimulus_Number
223.0,15719.534840528351,2742.4919894328104,-63829.58606834246,-61773.33733717649,-36796.9839926939,-34379.6651815969,-29827.195981406687,-22525.68573065826,0.0,0.0,0.0,193.0,1.0,155.0,0.0,10.0,3.0,251.0,411.0,10.0,1019.0,1744252677.621326,0.0,2025-04-09 22:37:57.621,STOP,13
224.0,15638.487415133408,2719.8496722995847,-63876.860007865434,-61840.92901240934,-36824.32017616274,-34408.09660054405,-29701.601529312316,-22554.340667049964,0.0,0.0,0.0,193.0,1.0,155.0,0.0,9.0,3.0,251.0,411.0,9.0,1019.0,1744252677.6213346,0.0,2025-04-09 22:37:57.621,STOP,13
225.0,15654.044229274301,2692.513488830744,-63893.51205748464,-61808.876610860425,-36888.89436589413,-34470.86029897455,-29562.350161355756,-22602.106344950957,0.0,0.0,0.0,193.0,1.0,154.0,0.0,8.0,3.0,249.0,410.0,8.0,1017.0,1744252677.6213431,0.0,2025-04-09 22:37:57.621,STOP,13
226.0,15767.769905062903,2722.8671578010512,-63889.42168824932,-61839.81142518657,-36869.26953426236,-34440.30546430415,-29689.68804951764,-22588.89646397787,0.0,0.0,0.0,193.0,1.0,155.0,0.0,8.0,3.0,252.0,411.0,8.0,1020.0,1744252677.6213517,0.0,2025-04-09 22:37:57.621,STOP,13
227.0,15726.888564454148,2743.0731347886485,-63827.26148691911,-61773.98553776569,-36790.010248423845,-34368.19873669132,-29915.574778982973,-22520.723643389185,0.0,0.0,0.0,193.0,1.0,155.0,0.0,7.0,3.0,251.0,411.0,7.0,1019.0,1744252677.6213603,0.0,2025-04-09 22:37:57.621,STOP,13
228.0,15652.18903448451,2731.6960968608973,-63872.63552816338,-61823.80757615657,-36820.38626913861,-34401.32402197409,-29659.58024973634,-22547.299867546542,0.0,0.0,0.0,193.0,1.0,154.0,0.0,7.0,3.0,249.0,410.0,7.0,1017.0,1744252677.621369,0.0,2025-04-09 22:37:57.621,STOP,13
229.0,15635.581688354217,2695.4415673543895,-63891.545103972574,-61812.654055673374,-36879.17135705607,-34459.885592447,-29641.564743705363,-22602.866304262436,0.0,0.0,0.0,193.0,1.0,155.0,0.0,6.0,3.0,251.0,411.0,6.0,1019.0,1744252677.6213772,0.0,2025-04-09 22:37:57.621,STOP,13
230.0,15774.207207466032,2734.2441957288024,-63885.89011262538,-61814.553953952076,-36883.418188502576,-34452.95655166585,-29566.351123613254,-22599.580597827506,0.0,0.0,0.0,193.0,1.0,155.0,0.0,6.0,3.0,252.0,411.0,6.0,1020.0,1744252677.621386,0.0,2025-04-09 22:37:57.621,STOP,13
231.0,15752.749532788937,2762.317986764668,-63811.88348673386,-61768.84463654097,-36784.69053324348,-34358.90041099792,-29986.139236228377,-22512.699367129728,0.0,0.0,0.0,193.0,1.0,155.0,0.0,6.0,3.0,252.0,411.0,6.0,1020.0,1744252677.6213944,0.0,2025-04-09 22:37:57.621,STOP,13
232.0,15677.692374908016,2750.7844866257296,-63854.66472562131,-61803.221619513235,-36820.073344716235,-34406.39786796545,-29641.11770881626,-22560.308582819533,0.0,0.0,0.0,193.0,1.0,155.0,0.0,5.0,3.0,251.0,411.0,5.0,1019.0,1744252677.6214027,0.0,2025-04-09 22:37:57.621,STOP,13
233.0,15620.963647480447,2691.9770469638165,-63890.53927547208,-61831.00483787118,-36879.707798922995,-34462.27722910371,-29701.243901401034,-22608.61070258745,0.0,0.0,0.0,193.0,1.0,154.0,0.0,5.0,3.0,249.0,410.0,5.0,1017.0,1744252677.621411,0.0,2025-04-09 22:37:57.621,STOP,13
234.0,15758.717448558504,2719.670858343942,-63891.45569699475,-61808.72014864924,-36906.77576145837,-34481.52208107973,-29469.366904421677,-22620.613589359953,0.0,0.0,0.0,193.0,1.0,155.0,0.0,5.0,3.0,252.0,411.0,5.0,1020.0,1744252677.6214197,0.0,2025-04-09 22:37:57.621,STOP,13
235.0,15754.582375834272,2746.537655179221,-63828.08850146396,-61798.81832585554,-36808.115161432645,-34381.25215545323,-30019.89037035589,-22535.78871915206,0.0,0.0,0.0,193.0,1.0,155.0,0.0,5.0,3.0,251.0,411.0,5.0,1019.0,1744252677.6214283,0.0,2025-04-09 22:37:57.621,STOP,13
236.0,15679.72638365345,2733.484236417322,-63858.95626055673,-61804.07098580254,-36832.165638466555,-34416.99259483726,-29652.114767088267,-22559.526271763596,0.0,0.0,0.0,193.0,1.0,154.0,0.0,5.0,3.0,249.0,410.0,5.0,1017.0,1744252677.621441,0.0,2025-04-09 22:37:57.621,STOP,13
237.0,15613.967551465936,2693.67577954242,-63885.107801569444,-61842.0465996321,-36868.68838890653,-34452.308351076645,-29752.854079348337,-22595.400821614367,0.0,0.0,0.0,193.0,1.0,154.0,0.0,5.0,3.0,250.0,410.0,5.0,1018.0,1744252677.6214497,0.0,2025-04-09 22:37:57.621,STOP,13
238.0,15730.084863911256,2702.169442435437,-63892.64033945088,-61801.880514845914,-36919.06922090879,-34500.409305144465,-29429.223171379945,-22630.113080753457,0.0,0.0,0.0,193.0,1.0,155.0,0.0,4.0,3.0,252.0,411.0,4.0,1020.0,1744252677.621458,0.0,2025-04-09 22:37:57.621,STOP,13
239.0,15763.59012884976,2739.832131842629,-63833.43056838877,-61811.78233763961,-36813.68074580202,-34389.544652646146,-29990.900157797358,-22538.426224997787,0.0,0.0,0.0,193.0,1.0,155.0,0.0,4.0,3.0,252.0,411.0,4.0,1020.0,1744252677.6214666,0.0,2025-04-09 22:37:57.621,STOP,13
240.0,15703.016901375879,2744.9730330673497,-63830.860117776414,-61773.11381973193,-36810.32798413372,-34399.960565562316,-29673.59479350982,-22538.247411042146,0.0,0.0,0.0,193.0,1.0,154.0,0.0,4.0,3.0,249.0,410.0,4.0,1017.0,1744252677.6214752,0.0,2025-04-09 22:37:57.621,STOP,13
241.0,15620.1366329356,2706.416273881945,-63869.93096708429,-61835.74340769571,-36843.2968072053,-34432.124725833506,-29738.92894255268,-22576.535949294084,0.0,0.0,0.0,193.0,1.0,154.0,0.0,4.0,3.0,249.0,410.0,4.0,1017.0,1744252677.6214838,0.0,2025-04-09 22:37:57.621,STOP,13
242.0,15711.06352937979,2708.8973175164842,-63875.36244098693,-61782.65801461435,-36899.5114445104,-34489.5910608281,-29427.412680079065,-22615.495039879686,0.0,0.0,0.0,193.0,1.0,155.0,0.0,4.0,3.0,252.0,411.0,4.0,1020.0,1744252677.6214924,0.0,2025-04-09 22:37:57.621,STOP,13
243.0,15767.41227715162,2738.4463236864,-63855.73760935517,-61829.88725064841,-36835.585455368215,-34415.42797272539,-29899.705040419703,-22554.921812405802,0.0,0.0,0.0,193.0,1.0,155.0,0.0,4.0,3.0,252.0,411.0,4.0,1020.0,1744252677.6215007,0.0,2025-04-09 22:37:57.621,STOP,13
244.0,15710.504735768407,2740.4356289429224,-63831.59772534344,-61770.25279644165,-36803.354239863664,-34396.69721087184,-29745.41094844472,-22529.686692915762,0.0,0.0,0.0,193.0,1.0,155.0,0.0,4.0,3.0,248.0,411.0,4.0,1016.0,1744252677.6215093,0.0,2025-04-09 22:37:57.621,STOP,13
245.0,15628.674999317527,2707.377398893523,-63874.51307469763,-61839.43144553083,-36832.83619080022,-34421.01590883922,-29718.521799864986,-22560.88972817537,0.0,0.0,0.0,193.0,1.0,154.0,0.0,4.0,3.0,249.0,410.0,4.0,1017.0,1744252677.6215177,0.0,2025-04-09 22:37:57.621,STOP,13
246.0,15686.945997112512,2698.8166807671405,-63875.049516564555,-61783.46267741474,-36889.22964206096,-34478.50459557827,-29493.529140177863,-22608.409536887353,0.0,0.0,0.0,193.0,1.0,155.0,0.0,4.0,3.0,252.0,411.0,4.0,1020.0,1744252677.6215265,0.0,2025-04-09 22:37:57.621,STOP,13
247.0,15778.252873212443,2735.0488585291932,-63858.620984389905,-61823.360541267466,-36839.89934204809,-34424.43572574088,-29773.64120169177,-22572.959670181237,0.0,0.0,0.0,193.0,1.0,155.0,0.0,4.0,3.0,251.0,411.0,4.0,1019.0,1744252677.6215348,0.0,2025-04-09 22:37:57.621,STOP,13
248.0,15717.657293994105,2738.4910271753106,-63815.72798678017,-61763.994307994166,-36786.61278326664,-34384.224937465784,-29820.222237136633,-22524.210515524213,0.0,0.0,0.0,193.0,1.0,155.0,0.0,3.0,3.0,252.0,411.0,3.0,1020.0,1744252677.6215434,0.0,2025-04-09 22:37:57.621,STOP,13
249.0,15632.273630174832,2715.3793234085233,-63864.074810037,-61833.061198361065,-36820.67684181653,-34419.92067336091,-29666.95632540659,-22558.18516709628,0.0,0.0,0.0,193.0,1.0,154.0,0.0,3.0,3.0,249.0,410.0,3.0,1017.0,1744252677.621552,0.0,2025-04-09 22:37:57.621,STOP,13
250.0,15655.452389174985,2694.01105570925,-63866.444094949264,-61792.35867170795,-36873.65047617561,-34470.30150536317,-29566.75345501345,-22601.905179250858,0.0,0.0,0.0,193.0,1.0,154.0,0.0,3.0,3.0,250.0,410.0,3.0,1018.0,1744252677.6215603,0.0,2025-04-09 22:37:57.621,STOP,13
251.0,15776.59884412275,2727.2704514587467,-63867.561682172025,-61821.79591915559,-36867.414339472576,-34449.11205161954,-29632.646397667697,-22590.975176212214,0.0,0.0,0.0,193.0,1.0,155.0,0.0,3.0,3.0,251.0,411.0,3.0,1019.0,1744252677.6215732,0.0,2025-04-09 22:37:57.621,STOP,13
252.0,15733.68349476856,2742.4472859439,-63807.793117498535,-61768.9787470077,-36789.13853039009,-34372.02088499319,-29917.58643598395,-22509.92775081727,0.0,0.0,0.0,193.0,1.0,155.0,0.0,3.0,3.0,251.0,411.0,3.0,1019.0,1744252677.6215818,0.0,2025-04-09 22:37:57.621,STOP,13
253.0,15658.492226420907,2734.8923963180064,-63851.53548139757,-61817.32557026453,-36820.363917394156,-34410.644699411954,-29645.34218851831,-22548.350399535942,0.0,0.0,0.0,193.0,1.0,154.0,0.0,3.0,3.0,250.0,410.0,3.0,1018.0,1744252677.6215904,0.0,2025-04-09 22:37:57.621,STOP,13
254.0,15633.704141819971,2692.781709764208,-63869.50628393964,-61813.32460800703,-36873.270496519865,-34464.46770006033,-29645.476298985042,-22592.740964024182,0.0,0.0,0.0,193.0,1.0,155.0,0.0,3.0,3.0,250.0,411.0,3.0,1018.0,1744252677.6215987,0.0,2025-04-09 22:37:57.621,STOP,13
255.0,15768.149884718643,2720.743742077797,-63871.54029268507,-61816.23033478622,-36882.68058093555,-34477.74463626678,-29513.802172398828,-22608.81186828755,0.0,0.0,0.0,193.0,1.0,154.0,0.0,3.0,3.0,251.0,410.0,3.0,1019.0,1744252677.6216073,0.0,2025-04-09 22:37:57.621,STOP,13
0.0,15737.036256436857,2735.2500242292913,-63818.52195483708,-61797.11959327693,-36794.45824557045,-34387.91297530091,-29973.555204100037,-22520.768346878096,0.0,0.0,0.0,193.0,1.0,154.0,0.0,3.0,3.0,251.0,410.0,3.0,1019.0,1744252677.621616,0.0,2025-04-09 22:37:57.621,STOP,13
1.0,15670.964499826969,2735.2276724848357,-63850.73081859718,-61814.37513999643,-36813.70309754647,-34415.405620980935,-29611.568702646342,-22535.83342264097,0.0,0.0,0.0,193.0,1.0,154.0,0.0,3.0,3.0,249.0,410.0,3.0,1017.0,1744252677.6216245,0.0,2025-04-09 22:37:57.621,STOP,13
2.0,15623.735263792905,2698.1014249445707,-63868.343993227965,-61830.691913448805,-36853.86918233266,-34449.71554871983,-29690.760933251495,-22571.529158536097,0.0,0.0,0.0,193.0,1.0,155.0,0.0,3.0,3.0,252.0,411.0,3.0,1020.0,1744252677.621633,0.0,2025-04-09 22:37:57.621,STOP,13
3.0,15754.761189789915,2717.0110007537605,-63875.72006889821,-61807.557857937565,-36893.25295606291,-34484.98660147031,-29422.562351532266,-22603.335690895998,0.0,0.0,0.0,193.0,1.0,155.0,0.0,3.0,3.0,252.0,411.0,3.0,1020.0,1744252677.6216416,0.0,2025-04-09 22:37:57.621,STOP,13
4.0,15758.181006691577,2750.695079647908,-63815.482117591164,-61802.70752939076,-36792.91597520304,-34378.011152507206,-29989.156721729843,-22516.65562589832,0.0,0.0,0.0,193.0,1.0,155.0,0.0,3.0,3.0,251.0,411.0,3.0,1019.0,1744252677.6216502,0.0,2025-04-09 22:37:57.621,STOP,13
5.0,15689.829372147247,2742.849617344096,-63837.20801320172,-61791.62106414093,-36809.880949244616,-34402.821588852596,-29627.77371737644,-22532.614771439406,0.0,0.0,0.0,193.0,1.0,154.0,0.0,3.0,3.0,249.0,410.0,3.0,1017.0,1744252677.6216588,0.0,2025-04-09 22:37:57.621,STOP,13
6.0,15616.80622301176,2697.0508929551715,-63871.80851361853,-61837.64330597441,-36849.97997879743,-34435.745708435265,-29719.102945220824,-22568.310507334532,0.0,0.0,0.0,193.0,1.0,155.0,0.0,3.0,3.0,250.0,411.0,3.0,1018.0,1744252677.6216671,0.0,2025-04-09 22:37:57.621,STOP,13
7.0,15725.435701064553,2707.712675060353,-63883.16319980183,-61795.577322909514,-36910.77672371587,-34492.04975271818,-29403.63042397862,-22619.875981792928,0.0,0.0,0.0,193.0,1.0,154.0,0.0,3.0,3.0,250.0,410.0,3.0,1018.0,1744252677.6216755,0.0,2025-04-09 22:37:57.621,STOP,13
8.0,15762.964280005013,2747.454076701889,-63832.69296082175,-61815.96211385276,-36813.94896673548,-34383.97906827677,-29961.865241749914,-22526.31157950301,0.0,0.0,0.0,193.0,1.0,154.0,0.0,3.0,3.0,251.0,410.0,3.0,1019.0,1744252677.621684,0.0,2025-04-09 22:37:57.621,STOP,13
9.0,15701.988721130934,2751.320928492657,-63827.73087355267,-61771.03510749759,-36803.13072241911,-34388.985859034765,-29670.331438819343,-22521.997692823137,0.0,0.0,0.0,193.0,1.0,155.0,0.0,3.0,3.0,252.0,411.0,3.0,1020.0,1744252677.6216927,0.0,2025-04-09 22:37:57.621,STOP,13
10.0,15619.980170724413,2711.1324919620147,-63872.83669386348,-61839.76672169766,-36840.45813565947,-34426.69325193087,-29715.280796918967,-22559.816844441517,0.0,0.0,0.0,193.0,1.0,154.0,0.0,3.0,3.0,253.0,410.0,3.0,1021.0,1744252677.6217053,0.0,2025-04-09 22:37:57.621,STOP,13
11.0,15707.509602011396,2709.657276827965,-63873.21667351922,-61778.56764537903,-36895.55518574181,-34484.31604913664,-29424.10462189968,-22602.32986239551,0.0,0.0,0.0,193.0,1.0,154.0,0.0,3.0,3.0,251.0,410.0,3.0,1019.0,1744252677.621714,0.0,2025-04-09 22:37:57.621,STOP,13
12.0,15774.49778014395,2739.7203731203526,-63844.58408887197,-61817.23616328671,-36826.55535060827,-34411.0246790677,-29855.180365464734,-22550.74203619266,0.0,0.0,0.0,193.0,1.0,155.0,0.0,3.0,3.0,251.0,411.0,3.0,1019.0,1744252677.6217225,0.0,2025-04-09 22:37:57.621,STOP,13
13.0,15715.757395715404,2746.761172623774,-63816.331483880465,-61754.29365090057,-36792.06660891374,-34390.88575731347,-29743.46634667711,-22513.392271207842,0.0,0.0,0.0,193.0,1.0,155.0,0.0,3.0,3.0,251.0,411.0,3.0,1019.0,1744252677.621731,0.0,2025-04-09 22:37:57.621,STOP,13
14.0,15636.56516511025,2727.3598584365677,-63855.49174016616,-61814.688064418806,-36818.70988830446,-34412.09756280155,-29686.29058436043,-22536.571030207997,0.0,0.0,0.0,193.0,1.0,154.0,0.0,3.0,3.0,249.0,410.0,3.0,1017.0,1744252677.6217394,0.0,2025-04-09 22:37:57.621,STOP,13
15.0,15689.784668658338,2713.3453146630904,-63854.6200221324,-61754.36070613393,-36868.88955460663,-34464.37829308251,-29494.087933789247,-22582.056830174548,0.0,0.0,0.0,193.0,1.0,154.0,0.0,3.0,3.0,250.0,410.0,3.0,1018.0,1744252677.621748,0.0,2025-04-09 22:37:57.621,STOP,13
16.0,15787.439440183574,2741.7767336102406,-63852.87658606489,-61797.343110721486,-36840.59224612621,-34425.53096121919,-29721.89691327774,-22553.93833564977,0.0,0.0,0.0,193.0,1.0,154.0,0.0,3.0,3.0,251.0,410.0,3.0,1019.0,1744252677.6217563,0.0,2025-04-09 22:37:57.621,STOP,13
17.0,15735.82926223627,2756.886512862028,-63806.65317853131,-61731.80779597853,-36778.56615526273,-34370.14333845894,-29840.964655991156,-22482.457456881697,0.0,0.0,0.0,193.0,1.0,154.0,0.0,3.0,3.0,249.0,410.0,3.0,1017.0,1744252678.0945556,0.0,2025-04-09 22:37:58.094,STOP,13
18.0,15658.201653742988,2743.9895563113164,-63858.129246011886,-61793.09627927498,-36809.76919052234,-34406.91195808792,-29646.705644930084,-22511.805297351515,0.0,0.0,0.0,193.0,1.0,154.0,0.0,3.0,3.0,251.0,410.0,3.0,1019.0,1744252678.0945938,0.0,2025-04-09 22:37:58.094,STOP,13
19.0,15663.655479390083,2715.580489108621,-63859.06801927901,-61751.74555203266,-36851.455193931484,-34447.972112652315,-29561.76901599992,-22544.528251234085,0.0,0.0,0.0,193.0,1.0,155.0,0.0,3.0,3.0,252.0,411.0,3.0,1020.0,1744252678.094614,0.0,2025-04-09 22:37:58.094,STOP,13
20.0,15775.280091199887,2742.313175477168,-63858.08454252298,-61768.41995339632,-36843.52032464985,-34428.48139148729,-29565.18883290158,-22539.163832564813,0.0,0.0,0.0,193.0,1.0,155.0,0.0,3.0,3.0,251.0,411.0,3.0,1019.0,1744252678.0946343,0.0,2025-04-09 22:37:58.094,STOP,13
21.0,15733.169404646089,2749.711602891875,-63804.61916978588,-61723.15767087432,-36765.49038475638,-34353.670102795375,-29904.555368966507,-22474.634346322342,0.0,0.0,0.0,193.0,1.0,154.0,0.0,3.0,3.0,250.0,410.0,3.0,1018.0,1744252678.0946548,0.0,2025-04-09 22:37:58.094,STOP,13
22.0,15650.825578072738,2724.655297357476,-63860.14090301286,-61769.78340980809,-36804.53888231979,-34395.73608586026,-29604.52790314292,-22512.945236318737,0.0,0.0,0.0,193.0,1.0,154.0,0.0,3.0,3.0,251.0,410.0,3.0,1019.0,1744252678.094672,0.0,2025-04-09 22:37:58.094,STOP,13
23.0,15631.111339463156,2691.418253352434,-63863.33720246997,-61751.09735144346,-36836.16660072406,-34426.939121119874,-29636.490897714008,-22537.979190108683,0.0,0.0,0.0,193.0,1.0,154.0,0.0,3.0,3.0,250.0,410.0,3.0,1018.0,1744252678.0946891,0.0,2025-04-09 22:37:58.094,STOP,13
24.0,15772.352012676241,2727.002230525283,-63868.36634497242,-61741.79902575005,-36856.43963294502,-34439.612560226036,-29459.465081627975,-22549.51269024762,0.0,0.0,0.0,193.0,1.0,155.0,0.0,3.0,3.0,252.0,411.0,3.0,1020.0,1744252678.094707,0.0,2025-04-09 22:37:58.094,STOP,13
25.0,15751.810759521815,2750.583320925632,-63808.01663494309,-61715.69218822625,-36759.880096898094,-34339.14146889943,-29955.427939346784,-22458.11640716987,0.0,0.0,0.0,193.0,1.0,155.0,0.0,2.0,3.0,251.0,411.0,2.0,1019.0,1744252678.0947504,0.0,2025-04-09 22:37:58.094,STOP,13
26.0,15682.050965076802,2748.392849969012,-63842.41596965981,-61727.94094418776,-36785.07051289923,-34372.557326860115,-29589.395772146676,-22487.151323217313,0.0,0.0,0.0,193.0,1.0,154.0,0.0,2.0,3.0,250.0,410.0,2.0,1018.0,1744252678.0947597,0.0,2025-04-09 22:37:58.094,STOP,13
27.0,15617.90145849007,2694.972180720828,-63882.20207479025,-61768.91169177434,-36839.228789714434,-34427.430859497894,-29680.143854635222,-22547.50103324664,0.0,0.0,0.0,193.0,1.0,155.0,0.0,2.0,3.0,250.0,411.0,2.0,1018.0,1744252678.0947688,0.0,2025-04-09 22:37:58.094,STOP,13
28.0,15748.614460064706,2716.608669353565,-63890.36046151644,-61740.94965946075,-36883.909926880595,-34467.03815067269,-29401.19408383299,-22586.348365109967,0.0,0.0,0.0,193.0,1.0,155.0,0.0,2.0,3.0,252.0,411.0,2.0,1020.0,1744252678.0947776,0.0,2025-04-09 22:37:58.094,STOP,13
29.0,15760.30442241483,2745.3083092341794,-63831.128338709874,-61743.98949670667,-36781.60599250865,-34357.17932667486,-29975.87978552339,-22487.48659938414,0.0,0.0,0.0,193.0,1.0,155.0,0.0,2.0,3.0,252.0,411.0,2.0,1020.0,1744252678.0947864,0.0,2025-04-09 22:37:58.094,STOP,13
30.0,15699.932360641047,2754.6513384164978,-63835.50928062312,-61713.63582773636,-36779.2814110853,-34362.409634877404,-29620.48704868401,-22476.534244601044,0.0,0.0,0.0,193.0,1.0,154.0,0.0,2.0,3.0,249.0,410.0,2.0,1017.0,1744252678.0947955,0.0,2025-04-09 22:37:58.094,STOP,13
31.0,15620.918943991537,2708.8302622831184,-63877.32939449899,-61773.40439240985,-36822.040298228305,-34408.76715287771,-29702.719116535085,-22530.424300482788,0.0,0.0,0.0,193.0,1.0,155.0,0.0,2.0,3.0,250.0,411.0,2.0,1018.0,1744252678.0948043,0.0,2025-04-09 22:37:58.094,STOP,13
32.0,15716.495003282429,2700.9177447459397,-63896.149563330364,-61741.39669434985,-36891.934203140045,-34482.08087469111,-29387.827740648718,-22594.104420435957,0.0,0.0,0.0,193.0,1.0,155.0,0.0,2.0,3.0,252.0,411.0,2.0,1020.0,1744252678.094813,0.0,2025-04-09 22:37:58.094,STOP,13
33.0,15760.125608459188,2734.221843984347,-63853.323620954,-61771.30332843105,-36806.796408509785,-34389.70111485733,-29930.371633812385,-22525.641027169353,0.0,0.0,0.0,193.0,1.0,155.0,0.0,2.0,3.0,251.0,411.0,2.0,1019.0,1744252678.094822,0.0,2025-04-09 22:37:58.094,STOP,13
34.0,15703.240418820433,2744.1460185225033,-63836.22453644568,-61716.34038881546,-36788.28916410079,-34386.124835744486,-29691.185616396146,-22517.16971602079,0.0,0.0,0.0,193.0,1.0,154.0,0.0,2.0,3.0,249.0,410.0,2.0,1017.0,1744252678.094831,0.0,2025-04-09 22:37:58.094,STOP,13
35.0,15622.260048658854,2718.5532711211767,-63872.50141769665,-61777.89709304537,-36811.62438531213,-34409.08007730008,-29707.591796826342,-22538.806204653527,0.0,0.0,0.0,193.0,1.0,154.0,0.0,2.0,3.0,251.0,410.0,2.0,1019.0,1744252678.09484,0.0,2025-04-09 22:37:58.094,STOP,13
36.0,15698.166572829077,2715.4016751529784,-63875.2283305202,-61720.67662723978,-36872.376426741655,-34465.182955882905,-29433.49235457091,-22579.55343479555,0.0,0.0,0.0,193.0,1.0,155.0,0.0,2.0,3.0,252.0,411.0,2.0,1020.0,1744252678.0948493,0.0,2025-04-09 22:37:58.094,STOP,13
37.0,15770.586224864272,2742.201416754892,-63856.83284483348,-61767.95056676276,-36817.25702491486,-34397.859501583516,-29813.539065544497,-22523.674073657283,0.0,0.0,0.0,193.0,1.0,154.0,0.0,2.0,3.0,250.0,410.0,2.0,1018.0,1744252678.094858,0.0,2025-04-09 22:37:58.094,STOP,13
38.0,15701.273465308364,2735.652355629487,-63834.68226607827,-61716.094519626444,-36788.75855073435,-34374.501928627724,-29756.206841016632,-22493.007480264605,0.0,0.0,0.0,193.0,1.0,154.0,0.0,2.0,3.0,250.0,410.0,2.0,1018.0,1744252678.0948668,0.0,2025-04-09 22:37:58.094,STOP,13
39.0,15616.448595100475,2704.3152099031463,-63886.87358938141,-61794.0350525421,-36824.342527907196,-34411.494065701256,-29673.907717932194,-22535.386387751867,0.0,0.0,0.0,193.0,1.0,154.0,0.0,2.0,3.0,250.0,410.0,2.0,1018.0,1744252678.0948756,0.0,2025-04-09 22:37:58.094,STOP,13
40.0,15648.053961760279,2679.8176979801297,-63895.92604588581,-61753.42193286681,-36885.206328059,-34473.83308098711,-29511.3658322532,-22588.315318622033,0.0,0.0,0.0,193.0,1.0,155.0,0.0,2.0,3.0,252.0,411.0,2.0,1020.0,1744252678.0948892,0.0,2025-04-09 22:37:58.094,STOP,13
41.0,15757.979840991478,2718.3297536766236,-63885.107801569444,-61785.49668616017,-36854.09269977721,-34434.494010745766,-29693.711363519596,-22570.590385268973,0.0,0.0,0.0,193.0,1.0,154.0,0.0,2.0,3.0,249.0,410.0,2.0,1017.0,1744252678.0948975,0.0,2025-04-09 22:37:58.094,STOP,13
42.0,15717.009093404902,2741.3296987211347,-63821.271219405084,-61716.69801672674,-36774.632248238595,-34362.6108005775,-29861.43885391222,-22489.677070340764,0.0,0.0,0.0,193.0,1.0,154.0,0.0,2.0,3.0,249.0,410.0,2.0,1017.0,1744252678.0949066,0.0,2025-04-09 22:37:58.094,STOP,13
43.0,15641.259031445865,2725.5940706245983,-63864.45478969274,-61773.449095898766,-36799.95677470646,-34391.913937558405,-29626.030281308926,-22509.771288606084,0.0,0.0,0.0,193.0,1.0,154.0,0.0,2.0,3.0,250.0,410.0,2.0,1018.0,1744252678.0949154,0.0,2025-04-09 22:37:58.094,STOP,13
44.0,15631.75954005236,2690.680645785409,-63882.35853700144,-61759.30044165855,-36859.792394613316,-34456.018740656225,-29580.969164487025,-22570.590385268973,0.0,0.0,0.0,193.0,1.0,155.0,0.0,2.0,3.0,252.0,411.0,2.0,1020.0,1744252678.0949244,0.0,2025-04-09 22:37:58.094,STOP,13
45.0,15757.376343891186,2717.390980409501,-63890.628682449904,-61780.75811633565,-36871.21413602998,-34459.32679883562,-29553.856498462737,-22583.37558309741,0.0,0.0,0.0,193.0,1.0,155.0,0.0,2.0,3.0,251.0,411.0,2.0,1019.0,1744252678.0949328,0.0,2025-04-09 22:37:58.094,STOP,13
46.0,15738.936154715557,2752.97495758235,-63810.90000997782,-61720.430758050774,-36763.05404461075,-34356.57582957457,-29943.20153512973,-22488.291262184535,0.0,0.0,0.0,193.0,1.0,154.0,0.0,2.0,3.0,249.0,410.0,2.0,1017.0,1744252678.0949416,0.0,2025-04-09 22:37:58.094,STOP,13
47.0,15668.841084103715,2746.872931346051,-63849.14384474085,-61748.66101129783,-36787.88683270059,-34384.18023397687,-29599.498760640476,-22507.916093816293,0.0,0.0,0.0,193.0,1.0,154.0,0.0,2.0,3.0,250.0,410.0,2.0,1018.0,1744252678.0949504,0.0,2025-04-09 22:37:58.094,STOP,13
48.0,15631.603077841173,2702.504718602266,-63870.914443840324,-61758.69694455826,-36839.07232750324,-34430.53775197718,-29656.49570900151,-22552.373713537898,0.0,0.0,0.0,193.0,1.0,155.0,0.0,2.0,3.0,252.0,411.0,2.0,1020.0,1744252678.0949593,0.0,2025-04-09 22:37:58.094,STOP,13
49.0,15769.31217543032,2732.6348701280203,-63875.07186830901,-61746.67170604131,-36865.380330727145,-34457.382197068,-29455.598229837207,-22581.341574351976,0.0,0.0,0.0,193.0,1.0,154.0,0.0,2.0,3.0,251.0,410.0,2.0,1019.0,1744252678.0949678,0.0,2025-04-09 22:37:58.094,STOP,13
50.0,15754.44826536754,2749.5551406806876,-63820.60066707143,-61739.98853444917,-36774.922820916516,-34367.438777379844,-29986.943899028767,-22504.205704236712,0.0,0.0,0.0,193.0,1.0,154.0,0.0,2.0,3.0,249.0,410.0,2.0,1017.0,1744252678.0949764,0.0,2025-04-09 22:37:58.094,STOP,13
51.0,15692.936264626536,2758.674652418453,-63840.87369929239,-61735.49583381365,-36786.25515535536,-34386.37070493349,-29629.114822043757,-22513.772250863585,0.0,0.0,0.0,193.0,1.0,155.0,0.0,2.0,3.0,252.0,411.0,2.0,1020.0,1744252678.0949852,0.0,2025-04-09 22:37:58.094,STOP,13
52.0,15626.417473127542,2712.294782673691,-63875.85417936494,-61776.46658140023,-36832.1432867221,-34434.04697585666,-29721.226360944078,-22565.673001488805,0.0,0.0,0.0,193.0,1.0,155.0,0.0,2.0,3.0,252.0,411.0,2.0,1020.0,1744252678.0949936,0.0,2025-04-09 22:37:58.094,STOP,13
53.0,15746.535747830361,2721.034314755716,-63887.18651380378,-61744.213014151224,-36882.568822213274,-34477.34230486659,-29420.684804998018,-22600.56407458354,0.0,0.0,0.0,193.0,1.0,155.0,0.0,2.0,3.0,251.0,411.0,2.0,1019.0,1744252678.0950024,0.0,2025-04-09 22:37:58.095,STOP,13
54.0,15759.097428214245,2748.5493121801987,-63835.95631551222,-61756.17119743481,-36786.433969311,-34369.51748961419,-29988.1285414849,-22512.095870029436,0.0,0.0,0.0,193.0,1.0,154.0,0.0,2.0,3.0,250.0,410.0,2.0,1018.0,1744252678.0950108,0.0,2025-04-09 22:37:58.095,STOP,13
55.0,15698.971235629468,2756.864161117573,-63840.31490568101,-61724.05174065253,-36786.70219024446,-34379.531071130164,-29651.086586843325,-22512.83347759646,0.0,0.0,0.0,193.0,1.0,154.0,0.0,2.0,3.0,250.0,410.0,2.0,1018.0,1744252678.0950239,0.0,2025-04-09 22:37:58.095,STOP,13
56.0,15626.573935338729,2718.0391809987045,-63872.88139735239,-61776.39952616686,-36816.653527814575,-34405.23557725377,-29727.618959858297,-22543.947105878247,0.0,0.0,0.0,193.0,1.0,155.0,0.0,2.0,3.0,252.0,411.0,2.0,1020.0,1744252678.0950325,0.0,2025-04-09 22:37:58.095,STOP,13
57.0,15717.701997483016,2712.6524105849758,-63889.30992952704,-61732.59010703446,-36882.61352570218,-34472.49197631979,-29412.124086871638,-22603.514504851642,0.0,0.0,0.0,193.0,1.0,155.0,0.0,2.0,3.0,250.0,411.0,2.0,1018.0,1744252678.0950413,0.0,2025-04-09 22:37:58.095,STOP,13
58.0,15758.762152047415,2737.1946259969027,-63863.583071658984,-61774.09729648797,-36811.57968182322,-34388.18119623437,-29919.240465073643,-22532.055977828026,0.0,0.0,0.0,193.0,1.0,154.0,0.0,2.0,3.0,249.0,410.0,2.0,1017.0,1744252678.0950499,0.0,2025-04-09 22:37:58.095,STOP,13
59.0,15696.1549158281,2739.4074486979785,-63846.953373784236,-61721.816566207,-36791.03842866879,-34379.754588574724,-29718.320634164887,-22505.658567626306,0.0,0.0,0.0,193.0,1.0,155.0,0.0,2.0,3.0,252.0,411.0,2.0,1020.0,1744252678.0950582,0.0,2025-04-09 22:37:58.095,STOP,13
60.0,15620.248391657877,2717.770960065241,-63878.98342358869,-61783.95441579276,-36812.22788241242,-34401.05580104063,-29719.4158696432,-22535.498146474143,0.0,0.0,0.0,193.0,1.0,154.0,0.0,2.0,3.0,251.0,410.0,2.0,1019.0,1744252678.0950668,0.0,2025-04-09 22:37:58.095,STOP,13
61.0,15685.202561045,2709.3667041500457,-63881.08448756749,-61730.35493258893,-36869.358941240185,-34461.271400603226,-29468.69635208802,-22594.79732451407,0.0,0.0,0.0,193.0,1.0,154.0,0.0,2.0,3.0,249.0,410.0,2.0,1017.0,1744252678.0950756,0.0,2025-04-09 22:37:58.095,STOP,13
62.0,15760.013849736912,2729.6173846265538,-63875.49655145366,-61786.94954954977,-36831.20451345498,-34411.18114127888,-29794.070696123923,-22552.731341449184,0.0,0.0,0.0,193.0,1.0,154.0,0.0,2.0,3.0,251.0,410.0,2.0,1019.0,1744252678.0950842,0.0,2025-04-09 22:37:58.095,STOP,13
63.0,15696.043157105823,2728.566852637154,-63844.51703363861,-61732.053665167536,-36793.47476881442,-34378.74876007423,-29794.51773101303,-22502.50697165811,0.0,0.0,0.0,193.0,1.0,155.0,0.0,2.0,3.0,251.0,411.0,2.0,1019.0,1744252678.0950928,0.0,2025-04-09 22:37:58.095,STOP,13
64.0,15626.484528360908,2716.385151909012,-63877.843484621466,-61789.52000016213,-36811.9373097345,-34397.926556816885,-29680.948517435616,-22532.92769586178,0.0,0.0,0.0,193.0,1.0,155.0,0.0,2.0,3.0,252.0,411.0,2.0,1020.0,1744252678.095101,0.0,2025-04-09 22:37:58.095,STOP,13
65.0,15661.844988089204,2701.6777040574198,-63871.763810129625,-61737.842766981455,-36857.557220167786,-34442.183010838395,-29543.79821345785,-22568.556376523542,0.0,0.0,0.0,193.0,1.0,154.0,0.0,2.0,3.0,250.0,410.0,2.0,1018.0,1744252678.09511,0.0,2025-04-09 22:37:58.095,STOP,13
66.0,15774.78835282187,2734.870044573551,-63870.02037406211,-61772.19739820927,-36840.16756298156,-34414.66801341391,-29646.906810630182,-22544.684713445273,0.0,0.0,0.0,193.0,1.0,154.0,0.0,2.0,3.0,250.0,410.0,2.0,1018.0,1744252678.0951185,0.0,2025-04-09 22:37:58.095,STOP,13
67.0,15724.407520819608,2754.7183936498636,-63817.851402503424,-61720.1178336284,-36769.93838190298,-34353.87126849547,-29880.43783669923,-22490.660547096795,0.0,0.0,0.0,193.0,1.0,155.0,0.0,2.0,3.0,252.0,411.0,2.0,1020.0,1744252678.095127,0.0,2025-04-09 22:37:58.095,STOP,13
68.0,15645.036476258812,2728.835073570618,-63870.914443840324,-61778.6347006124,-36808.22692015492,-34395.4678649268,-29628.82424936584,-22536.973361608194,0.0,0.0,0.0,193.0,1.0,155.0,0.0,2.0,3.0,251.0,411.0,2.0,1019.0,1744252678.0951357,0.0,2025-04-09 22:37:58.095,STOP,13
69.0,15627.110377205656,2681.315264858635,-63892.103897583955,-61771.23627319769,-36867.83902261723,-34451.50368827626,-29614.653243381174,-22583.643804030875,0.0,0.0,0.0,193.0,1.0,154.0,0.0,2.0,3.0,249.0,410.0,2.0,1017.0,1744252678.0951483,0.0,2025-04-09 22:37:58.095,STOP,13
70.0,15756.1693496906,2709.769035550241,-63899.167048831834,-61784.84848557097,-36883.01585710238,-34458.58919126859,-29532.041195874357,-22591.645728545875,0.0,0.0,0.0,193.0,1.0,155.0,0.0,2.0,3.0,252.0,411.0,2.0,1020.0,1744252678.095157,0.0,2025-04-09 22:37:58.095,STOP,13
71.0,15729.883698211159,2733.439532928411,-63834.25758293362,-61748.21397640872,-36792.737161247394,-34369.49513786974,-29973.376390144396,-22517.639102654353,0.0,0.0,0.0,193.0,1.0,154.0,0.0,2.0,3.0,251.0,410.0,2.0,1019.0,1744252678.095166,0.0,2025-04-09 22:37:58.095,STOP,13
72.0,15664.81777010176,2736.032335285227,-63866.667612393816,-61767.12355221791,-36815.20066442498,-34396.00430679373,-29635.708586658075,-22542.22602155519,0.0,0.0,0.0,193.0,1.0,154.0,0.0,2.0,3.0,249.0,410.0,2.0,1017.0,1744252678.0951748,0.0,2025-04-09 22:37:58.095,STOP,13
73.0,15618.683769546005,2690.457128340856,-63888.080583582,-61783.440325670286,-36857.80308935679,-34438.830249170096,-29697.77938101046,-22581.27451911861,0.0,0.0,0.0,193.0,1.0,154.0,0.0,2.0,3.0,250.0,410.0,2.0,1018.0,1744252678.0951834,0.0,2025-04-09 22:37:58.095,STOP,13
74.0,15746.44634085254,2707.332695404613,-63897.490667997685,-61769.06815398552,-36892.291831051334,-34469.04980767367,-29441.986017463925,-22602.083993206503,0.0,0.0,0.0,193.0,1.0,155.0,0.0,2.0,3.0,252.0,411.0,2.0,1020.0,1744252678.095192,0.0,2025-04-09 22:37:58.095,STOP,13
75.0,15735.49398606944,2729.9750125378387,-63842.751245826636,-61769.872816785915,-36798.548614805775,-34375.37364666148,-29992.777704331602,-22524.45638471322,0.0,0.0,0.0,193.0,1.0,154.0,0.0,2.0,3.0,250.0,410.0,2.0,1018.0,1744252678.0952008,0.0,2025-04-09 22:37:58.095,STOP,13
76.0,15676.44067721852,2739.2733382312463,-63857.704562867235,-61757.355839890944,-36806.170559665035,-34393.27739397018,-29633.54046744591,-22537.93448661977,0.0,0.0,0.0,193.0,1.0,154.0,0.0,2.0,3.0,249.0,410.0,2.0,1017.0,1744252678.0952094,0.0,2025-04-09 22:37:58.095,STOP,13
77.0,15605.85386822866,2689.2948376291797,-63892.55093247306,-61803.71335789125,-36850.8964003201,-34436.796240424665,-29728.289512191954,-22584.33670810899,0.0,0.0,0.0,193.0,1.0,155.0,0.0,2.0,3.0,250.0,411.0,2.0,1018.0,1744252678.095218,0.0,2025-04-09 22:37:58.095,STOP,13
78.0,15734.644619780138,2713.769997807741,-63888.080583582,-61754.070133456014,-36892.49299675143,-34473.60956354255,-29414.359261317168,-22612.67872007832,0.0,0.0,0.0,193.0,1.0,155.0,0.0,2.0,3.0,252.0,411.0,2.0,1020.0,1744252678.095227,0.0,2025-04-09 22:37:58.095,STOP,13
79.0,15753.844768267247,2740.5920911541098,-63845.45580690573,-61779.21584596823,-36803.2871846303,-34379.30755368561,-29969.93422149828,-22537.129823819378,0.0,0.0,0.0,193.0,1.0,155.0,0.0,2.0,3.0,251.0,411.0,2.0,1019.0,1744252678.0952356,0.0,2025-04-09 22:37:58.095,STOP,13
80.0,15679.05583131979,2735.4288381849337,-63856.072885522,-61749.666839798316,-36810.99853646738,-34396.76426610521,-29668.319781818365,-22541.108434332426,0.0,0.0,0.0,193.0,1.0,154.0,0.0,2.0,3.0,249.0,410.0,2.0,1017.0,1744252678.095244,0.0,2025-04-09 22:37:58.095,STOP,13
81.0,15596.689653001984,2694.100462687071,-63891.58980746148,-61807.31198874855,-36839.87699030364,-34423.76517340722,-29730.032948259468,-22560.107417119434,0.0,0.0,0.0,193.0,1.0,154.0,0.0,2.0,3.0,250.0,410.0,2.0,1018.0,1744252678.0952525,0.0,2025-04-09 22:37:58.095,STOP,13
82.0,15691.1034215812,2697.0732446996267,-63888.34880451546,-61744.41417985132,-36892.38123802916,-34475.12948216552,-29423.746993988396,-22603.492153107185,0.0,0.0,0.0,193.0,1.0,155.0,0.0,2.0,3.0,252.0,411.0,2.0,1020.0,1744252678.0952613,0.0,2025-04-09 22:37:58.095,STOP,13
83.0,15755.610556079217,2739.1168760200594,-63851.04374301955,-61775.57251162202,-36814.50776034686,-34389.43289392387,-29889.847921114913,-22546.45050125724,0.0,0.0,0.0,193.0,1.0,154.0,0.0,2.0,3.0,249.0,410.0,2.0,1017.0,1744252678.09527,0.0,2025-04-09 22:37:58.095,STOP,13
84.0,15696.49019199493,2749.2645680027686,-63825.1157194514,-61713.993455647644,-36780.62251575262,-34369.38337914746,-29718.857076031814,-22505.904436815315,0.0,0.0,0.0,193.0,1.0,154.0,0.0,2.0,3.0,250.0,410.0,2.0,1018.0,1744252678.0952837,0.0,2025-04-09 22:37:58.095,STOP,13
85.0,15610.190106652988,2707.1538814489704,-63871.69675489626,-61787.776564094616,-36816.25119641438,-34405.23557725377,-29678.91450869018,-22547.322219291,0.0,0.0,0.0,193.0,1.0,154.0,0.0,2.0,3.0,252.0,410.0,2.0,1020.0,1744252678.0952923,0.0,2025-04-09 22:37:58.095,STOP,13
86.0,15662.850816589693,2687.81962249513,-63873.082563052485,-61736.5687175475,-36871.14708079661,-34463.6853890044,-29461.11911071767,-22588.158856410846,0.0,0.0,0.0,193.0,1.0,155.0,0.0,2.0,3.0,252.0,411.0,2.0,1020.0,1744252678.0953012,0.0,2025-04-09 22:37:58.095,STOP,13
87.0,15745.976954218979,2713.0770937296265,-63867.561682172025,-61788.402412939366,-36835.317234434755,-34420.61357743902,-29732.089308749357,-22555.167681594812,0.0,0.0,0.0,193.0,1.0,155.0,0.0,2.0,3.0,252.0,411.0,2.0,1020.0,1744252678.09531,0.0,2025-04-09 22:37:58.095,STOP,13
88.0,15687.996529101913,2725.281146202224,-63824.66868456229,-61730.62315352239,-36785.696361743976,-34378.078207740575,-29808.979309675615,-22515.918018331293,0.0,0.0,0.0,193.0,1.0,155.0,0.0,2.0,3.0,251.0,411.0,2.0,1019.0,1744252678.0953188,0.0,2025-04-09 22:37:58.095,STOP,13
89.0,15613.207592154455,2708.8973175164842,-63866.57820541599,-61791.2857879741,-36815.98297548091,-34400.653469640434,-29659.043807869413,-22535.83342264097,0.0,0.0,0.0,193.0,1.0,154.0,0.0,2.0,3.0,252.0,410.0,2.0,1020.0,1744252678.0953271,0.0,2025-04-09 22:37:58.095,STOP,13
90.0,15627.780929539316,2676.3084741006464,-63878.93872009978,-61760.23921492568,-36873.762234897884,-34459.170336624426,-29554.683513007585,-22585.633109287395,0.0,0.0,0.0,193.0,1.0,155.0,0.0,2.0,3.0,252.0,411.0,2.0,1020.0,1744252678.0953357,0.0,2025-04-09 22:37:58.095,STOP,13
91.0,15748.726218786982,2711.892451273495,-63880.21276953373,-61788.737689106194,-36865.6038481717,-34440.14900209296,-29619.28005448342,-22578.52525455061,0.0,0.0,0.0,193.0,1.0,155.0,0.0,2.0,3.0,251.0,411.0,2.0,1019.0,1744252678.0953443,0.0,2025-04-09 22:37:58.095,STOP,13
92.0,15717.053796893812,2741.955547565883,-63810.56473381099,-61722.77769121858,-36774.58754474969,-34348.439794592836,-29906.947005623224,-22485.050259238513,0.0,0.0,0.0,193.0,1.0,154.0,0.0,2.0,3.0,249.0,410.0,2.0,1017.0,1744252678.095353,0.0,2025-04-09 22:37:58.095,STOP,13
93.0,15637.928621522025,2727.4716171588443,-63860.52088266861,-61771.03510749759,-36809.590376566695,-34386.08013225557,-29614.407374192164,-22526.021006825093,0.0,0.0,0.0,193.0,1.0,154.0,0.0,2.0,3.0,250.0,410.0,2.0,1018.0,1744252678.0953612,0.0,2025-04-09 22:37:58.095,STOP,13
94.0,15618.169679423534,2693.29579988668,-63874.758943886634,-61760.9768224927,-36859.27830449084,-34433.68934794538,-29620.57645566183,-22569.875129446405,0.0,0.0,0.0,193.0,1.0,155.0,0.0,2.0,3.0,252.0,411.0,2.0,1020.0,1744252678.0953698,0.0,2025-04-09 22:37:58.095,STOP,13
95.0,15743.87589024018,2715.0216954972384,-63886.80653414805,-61771.5268458756,-36883.842871647226,-34451.34722606507,-29486.622451141175,-22593.545626824576,0.0,0.0,0.0,193.0,1.0,155.0,0.0,2.0,3.0,251.0,411.0,2.0,1019.0,1744252678.0953784,0.0,2025-04-09 22:37:58.095,STOP,13
96.0,15732.409445334608,2747.476428446344,-63811.16823091129,-61733.14890064584,-36777.47091978442,-34344.08120442405,-29965.486224351673,-22500.003576279116,0.0,0.0,0.0,193.0,1.0,154.0,0.0,2.0,3.0,251.0,410.0,2.0,1019.0,1744252678.0953867,0.0,2025-04-09 22:37:58.095,STOP,13
97.0,15665.95770906898,2747.1411522795147,-63841.834824303965,-61748.057514197535,-36799.06270492825,-34370.83624253705,-29601.957452530558,-22516.230942753667,0.0,0.0,0.0,193.0,1.0,154.0,0.0,2.0,3.0,250.0,410.0,2.0,1018.0,1744252678.095395,0.0,2025-04-09 22:37:58.095,STOP,13
98.0,15611.307693875755,2703.86817501404,-63871.339126984974,-61772.62208135392,-36848.08008051873,-34417.84196112656,-29677.34988657831,-22557.916946162815,0.0,0.0,0.0,193.0,1.0,154.0,0.0,2.0,3.0,252.0,410.0,2.0,1020.0,1744252678.095404,0.0,2025-04-09 22:37:58.095,STOP,13
99.0,15742.937116973057,2720.073189744138,-63883.0290893351,-61753.80191252255,-36892.80592117381,-34461.740787236784,-29409.2407118369,-22598.127734437912,0.0,0.0,0.0,193.0,1.0,155.0,0.0,2.0,3.0,252.0,411.0,2.0,1020.0,1744252678.0954716,0.0,2025-04-09 22:37:58.095,STOP,13
100.0,15740.344314616243,2747.118800535059,-63824.2663531621,-61754.31600264502,-36794.16767289254,-34358.27456215317,-29976.393875645863,-22510.12891651737,0.0,0.0,0.0,193.0,1.0,155.0,0.0,2.0,3.0,251.0,411.0,2.0,1019.0,1744252678.0954802,0.0,2025-04-09 22:37:58.095,STOP,13
101.0,15669.489284692918,2748.4599052023777,-63841.58895511496,-61740.144996660354,-36805.85763524266,-34378.838167052054,-29615.077926525824,-22519.963684077702,0.0,0.0,0.0,193.0,1.0,154.0,0.0,2.0,3.0,249.0,410.0,2.0,1017.0,1744252678.0954888,0.0,2025-04-09 22:37:58.095,STOP,13
102.0,15600.578856537208,2709.2325936833136,-63865.37121121541,-61780.46754365773,-36829.371670409644,-34406.62138541,-29712.531532350964,-22549.35622803643,0.0,0.0,0.0,193.0,1.0,154.0,0.0,2.0,3.0,251.0,410.0,2.0,1019.0,1744252678.0954976,0.0,2025-04-09 22:37:58.095,STOP,13
103.0,15712.181116602555,2723.8506345570845,-63869.86391185092,-61733.26065936812,-36881.026551845855,-34461.137290136496,-29377.94826959947,-22596.741926281684,0.0,0.0,0.0,193.0,1.0,155.0,0.0,2.0,3.0,252.0,411.0,2.0,1020.0,1744252678.095506,0.0,2025-04-09 22:37:58.095,STOP,13
104.0,15736.432759336563,2740.3909254540117,-63837.9679725132,-61770.90099703086,-36806.371725365134,-34369.71865531429,-29917.944063895236,-22515.806259609017,0.0,0.0,0.0,193.0,1.0,154.0,0.0,2.0,3.0,250.0,410.0,2.0,1018.0,1744252678.0955145,0.0,2025-04-09 22:37:58.095,STOP,13
105.0,15675.345441740208,2741.7320301213304,-63828.58023984197,-61725.1693278753,-36793.67593451452,-34365.71769305679,-29649.007874608982,-22493.63332910935,0.0,0.0,0.0,193.0,1.0,154.0,0.0,2.0,3.0,250.0,410.0,2.0,1018.0,1744252678.095523,0.0,2025-04-09 22:37:58.095,STOP,13
106.0,15597.069632657724,2709.769035550241,-63860.58793790197,-61785.96607279374,-36817.547597592784,-34394.95377480433,-29697.712325777095,-22535.699312174238,0.0,0.0,0.0,193.0,1.0,154.0,0.0,2.0,3.0,250.0,410.0,2.0,1018.0,1744252678.095532,0.0,2025-04-09 22:37:58.095,STOP,13
107.0,15688.264750035376,2714.7087710748638,-63849.70263835224,-61717.77090046059,-36861.8487551032,-34443.39000503898,-29404.233921078914,-22576.111266149434,0.0,0.0,0.0,193.0,1.0,155.0,0.0,2.0,3.0,251.0,411.0,2.0,1019.0,1744252678.0955408,0.0,2025-04-09 22:37:58.095,STOP,13
108.0,15744.21116640701,2736.389963196512,-63836.380998656874,-61771.2809766866,-36812.00436496787,-34379.48636764126,-29805.89476894078,-22528.524402204086,0.0,0.0,0.0,193.0,1.0,154.0,0.0,2.0,3.0,250.0,410.0,2.0,1018.0,1744252678.095549,0.0,2025-04-09 22:37:58.095,STOP,13
109.0,15685.493133722919,2751.7903151262185,-63805.22266688618,-61705.87977241037,-36777.8285476957,-34348.708015526296,-29717.225398686576,-22490.034698252046,0.0,0.0,0.0,193.0,1.0,154.0,0.0,2.0,3.0,250.0,410.0,2.0,1018.0,1744252678.0955577,0.0,2025-04-09 22:37:58.095,STOP,13
110.0,15600.757670492849,2721.7942740671965,-63849.792045330054,-61775.01371801063,-36807.824588754724,-34376.960620517806,-29655.48988050102,-22519.56135267751,0.0,0.0,0.0,193.0,1.0,155.0,0.0,2.0,3.0,251.0,411.0,2.0,1019.0,1744252678.0955665,0.0,2025-04-09 22:37:58.095,STOP,13
111.0,15647.696333848995,2700.291895901191,-63850.79787383055,-61727.18098487628,-36862.63106615914,-34434.18108632339,-29461.297924673312,-22565.628297999894,0.0,0.0,0.0,193.0,1.0,155.0,0.0,2.0,3.0,251.0,411.0,2.0,1019.0,1744252678.0955749,0.0,2025-04-09 22:37:58.095,STOP,13
112.0,15739.629058793673,2726.666954358453,-63846.21576621721,-61773.47144764322,-36832.23269369992,-34398.01596379471,-29680.322668590867,-22544.125919833892,0.0,0.0,0.0,193.0,1.0,154.0,0.0,2.0,3.0,249.0,410.0,2.0,1017.0,1744252678.0955832,0.0,2025-04-09 22:37:58.095,STOP,13
113.0,15680.553398198295,2732.903091061484,-63802.965140696186,-61721.12366212889,-36771.65946622604,-34351.97137021677,-29802.631414250307,-22493.745087831627,0.0,0.0,0.0,193.0,1.0,154.0,0.0,2.0,3.0,252.0,410.0,2.0,1020.0,1744252678.095592,0.0,2025-04-09 22:37:58.095,STOP,13
114.0,15607.083214173701,2718.9332507769172,-63843.42179816029,-61776.62304361142,-36794.279431614814,-34378.99462926324,-29614.72029861454,-22528.65851267082,0.0,0.0,0.0,193.0,1.0,155.0,0.0,2.0,3.0,252.0,411.0,2.0,1020.0,1744252678.0956063,0.0,2025-04-09 22:37:58.095,STOP,13
115.0,15611.866487487137,2681.5611340476435,-63854.73178085468,-61751.633793310386,-36850.09173751971,-34435.52219099071,-29548.916762938115,-22579.464027817732,0.0,0.0,0.0,193.0,1.0,154.0,0.0,2.0,3.0,249.0,410.0,2.0,1017.0,1744252678.095615,0.0,2025-04-09 22:37:58.095,STOP,13
116.0,15733.012942434902,2714.485253630311,-63854.776484343594,-61771.01275575314,-36848.3483014522,-34423.787525151674,-29549.05087340485,-22569.383391068386,0.0,0.0,0.0,193.0,1.0,154.0,0.0,2.0,3.0,250.0,410.0,2.0,1018.0,1744252678.0956235,0.0,2025-04-09 22:37:58.095,STOP,13
117.0,15696.892523395125,2736.613480641065,-63795.09732664792,-61722.30830458502,-36767.32322780171,-34341.287236367134,-29893.267738016577,-22489.83353255195,0.0,0.0,0.0,193.0,1.0,155.0,0.0,2.0,3.0,251.0,411.0,2.0,1019.0,1744252678.095632,0.0,2025-04-09 22:37:58.095,STOP,13
118.0,15619.667246302039,2723.4035996679786,-63846.14871098384,-61767.05649698454,-36805.92469047602,-34382.347390931536,-29584.32192615532,-22528.770271393096,0.0,0.0,0.0,193.0,1.0,154.0,0.0,2.0,3.0,250.0,410.0,2.0,1018.0,1744252678.0956404,0.0,2025-04-09 22:37:58.095,STOP,13
119.0,15587.860713942136,2684.3103986156466,-63875.742420642666,-61776.95831977825,-36865.2015167715,-34439.947836392865,-29625.87381909774,-22586.32601336551,0.0,0.0,0.0,193.0,1.0,154.0,0.0,2.0,3.0,250.0,410.0,2.0,1018.0,1744252678.0956492,0.0,2025-04-09 22:37:58.095,STOP,13
120.0,15740.612535549706,2728.7903700817074,-63866.95818507174,-61756.931156746294,-36876.19857504351,-34441.35599629355,-29462.147290962614,-22587.644766288373,0.0,0.0,0.0,193.0,1.0,154.0,0.0,2.0,3.0,252.0,410.0,2.0,1020.0,1744252678.0956576,0.0,2025-04-09 22:37:58.095,STOP,13
121.0,15720.943000429035,2747.454076701889,-63797.444259815726,-61730.869022711406,-36771.36889354812,-34336.5039630537,-29961.194689416254,-22486.92780577276,0.0,0.0,0.0,193.0,1.0,155.0,0.0,2.0,3.0,252.0,411.0,2.0,1020.0,1744252678.095666,0.0,2025-04-09 22:37:58.095,STOP,13
122.0,15647.76338908236,2740.9497190653947,-63829.116681708896,-61743.721275773205,-36791.932498447,-34370.523318114676,-29590.89333902518,-22518.98020732167,0.0,0.0,0.0,193.0,1.0,154.0,0.0,2.0,3.0,250.0,410.0,2.0,1018.0,1744252678.0956745,0.0,2025-04-09 22:37:58.095,STOP,13
123.0,15592.196952366467,2698.1237766890263,-63850.32848719699,-61767.72704931821,-36827.96351050896,-34403.51449293071,-29677.662811000686,-22557.916946162815,0.0,0.0,0.0,193.0,1.0,154.0,0.0,2.0,3.0,250.0,410.0,2.0,1018.0,1744252678.095683,0.0,2025-04-09 22:37:58.095,STOP,13
124.0,15699.306511796298,2691.351198119068,-63877.59761543246,-61756.79704627956,-36889.29669729432,-34461.606676770054,-29376.830682376705,-22607.80603978706,0.0,0.0,0.0,193.0,1.0,155.0,0.0,2.0,3.0,252.0,411.0,2.0,1020.0,1744252678.0956917,0.0,2025-04-09 22:37:58.095,STOP,13
125.0,15712.58344800275,2721.973088022839,-63822.09823394993,-61763.927252760805,-36790.18906237949,-34350.89848648292,-29955.897325980346,-22502.97635829167,0.0,0.0,0.0,193.0,1.0,154.0,0.0,2.0,3.0,250.0,410.0,2.0,1018.0,1744252678.0957,0.0,2025-04-09 22:37:58.095,STOP,13
126.0,15651.540833895308,2726.2422712138023,-63833.49762362214,-61741.977839705694,-36797.05104792727,-34371.75266405972,-29604.840827565295,-22514.085175285956,0.0,0.0,0.0,193.0,1.0,154.0,0.0,2.0,3.0,251.0,410.0,2.0,1019.0,1744252678.0957086,0.0,2025-04-09 22:37:58.095,STOP,13
127.0,15579.165885349023,2688.5348783176996,-63866.95818507174,-61795.666729887336,-36831.67390008854,-34407.96249007732,-29697.01942169898,-22552.26195481562,0.0,0.0,0.0,193.0,1.0,154.0,0.0,2.0,3.0,252.0,410.0,2.0,1020.0,1744252678.0957172,0.0,2025-04-09 22:37:58.095,STOP,13
128.0,15684.464953477975,2698.861384256051,-63868.56751067252,-61741.910784472326,-36884.08874083623,-34457.270438345724,-29372.315629996734,-22590.32697562301,0.0,0.0,0.0,193.0,1.0,155.0,0.0,2.0,3.0,252.0,411.0,2.0,1020.0,1744252678.0957255,0.0,2025-04-09 22:37:58.095,STOP,13
129.0,15728.54259354384,2728.7233148483415,-63829.49666136464,-61775.684270344296,-36803.13072241911,-34367.81875703559,-29892.127799049355,-22523.361149234912,0.0,0.0,0.0,193.0,1.0,155.0,0.0,2.0,3.0,250.0,411.0,2.0,1018.0,1744252678.0957391,0.0,2025-04-09 22:37:58.095,STOP,13
130.0,15658.939261310014,2727.7621898367634,-63828.78140554207,-61738.93800245977,-36799.733257261905,-34380.69336184184,-29665.279944572445,-22527.898553359337,0.0,0.0,0.0,193.0,1.0,155.0,0.0,2.0,3.0,252.0,411.0,2.0,1020.0,1744252678.0957477,0.0,2025-04-09 22:37:58.095,STOP,13
131.0,15576.506027758842,2697.0732446996267,-63864.38773445937,-61803.42278521333,-36820.632138327615,-34403.805065608634,-29684.72596224856,-22548.909193147327,0.0,0.0,0.0,193.0,1.0,155.0,0.0,2.0,3.0,252.0,411.0,2.0,1020.0,1744252678.0957563,0.0,2025-04-09 22:37:58.095,STOP,13
132.0,15659.00631654338,2695.7991952656744,-63857.21282448922,-61734.60176403544,-36871.14708079661,-34447.01098764074,-29410.805333948774,-22580.961594696237,0.0,0.0,0.0,193.0,1.0,155.0,0.0,2.0,3.0,249.0,411.0,2.0,1017.0,1744252678.0957649,0.0,2025-04-09 22:37:58.095,STOP,13
133.0,15733.30351511282,2721.8613293005624,-63842.79594931554,-61784.44615417077,-36821.86148427266,-34386.124835744486,-29776.9269081267,-22540.259068043124,0.0,0.0,0.0,193.0,1.0,155.0,0.0,2.0,3.0,250.0,411.0,2.0,1018.0,1744252678.0957735,0.0,2025-04-09 22:37:58.095,STOP,13
134.0,15677.20063653,2731.472579416344,-63803.523934307574,-61722.755339474126,-36775.45926278344,-34357.46989935278,-29741.544096653954,-22505.4126984373,0.0,0.0,0.0,193.0,1.0,155.0,0.0,2.0,3.0,252.0,411.0,2.0,1020.0,1744252678.095782,0.0,2025-04-09 22:37:58.095,STOP,13
135.0,15594.342719834176,2707.645619826987,-63845.612269116915,-61791.46460192974,-36801.99078345189,-34388.918803801396,-29634.568647690852,-22534.917001118305,0.0,0.0,0.0,193.0,1.0,154.0,0.0,2.0,3.0,251.0,410.0,2.0,1019.0,1744252678.0957904,0.0,2025-04-09 22:37:58.095,STOP,13
136.0,15626.752749294372,2684.1539364044593,-63851.6695918643,-61747.78929326407,-36859.74769112441,-34445.42401378441,-29474.21723296848,-22579.888710962383,0.0,0.0,0.0,193.0,1.0,155.0,0.0,2.0,3.0,252.0,411.0,2.0,1020.0,1744252678.0957992,0.0,2025-04-09 22:37:58.095,STOP,13
137.0,15741.461901839008,2722.1742537229366,-63843.15357722683,-61779.39465992388,-36833.55144662278,-34404.76619062021,-29642.458813483576,-22552.686637960272,0.0,0.0,0.0,193.0,1.0,154.0,0.0,2.0,3.0,250.0,410.0,2.0,1018.0,1744252678.5759797,0.0,2025-04-09 22:37:58.575,STOP,13
138.0,15692.95861637099,2735.6300038850313,-63792.37041382437,-61722.4200633073,-36772.55353600425,-34348.52920157066,-29838.260094912064,-22499.958872790205,0.0,0.0,0.0,193.0,1.0,155.0,0.0,2.0,3.0,252.0,411.0,2.0,1020.0,1744252678.576018,0.0,2025-04-09 22:37:58.576,STOP,13
139.0,15602.121126904623,2710.350180906079,-63852.63071687588,-61791.9339885633,-36814.8877400026,-34399.91586207341,-29608.66297586715,-22553.55835599403,0.0,0.0,0.0,193.0,1.0,155.0,0.0,2.0,3.0,252.0,411.0,2.0,1020.0,1744252678.5760376,0.0,2025-04-09 22:37:58.576,STOP,13
140.0,15601.294112359778,2678.163668890437,-63858.44217043426,-61766.76592430662,-36854.98676955543,-34444.708757961846,-29568.541594569877,-22592.69626053527,0.0,0.0,0.0,193.0,1.0,154.0,0.0,2.0,3.0,250.0,410.0,2.0,1018.0,1744252678.5760577,0.0,2025-04-09 22:37:58.576,STOP,13
141.0,15732.1635761456,2709.992552994794,-63863.31485072552,-61780.646357613376,-36863.949819082,-34442.183010838395,-29513.824524143285,-22596.361946625944,0.0,0.0,0.0,193.0,1.0,155.0,0.0,2.0,3.0,250.0,411.0,2.0,1018.0,1744252678.5760777,0.0,2025-04-09 22:37:58.576,STOP,13
142.0,15699.977064129956,2735.026506784738,-63798.24892261612,-61735.11585415791,-36775.392207550074,-34347.07633818106,-29918.793430184538,-22505.099774014925,0.0,0.0,0.0,193.0,1.0,154.0,0.0,2.0,3.0,251.0,410.0,2.0,1019.0,1744252678.576101,0.0,2025-04-09 22:37:58.576,STOP,13
143.0,15626.261010916354,2729.4385706709113,-63836.09042597895,-61765.670688828315,-36798.36980085013,-34377.80998680711,-29587.384115145698,-22527.9656085927,0.0,0.0,0.0,193.0,1.0,154.0,0.0,2.0,3.0,249.0,410.0,2.0,1017.0,1744252678.5761182,0.0,2025-04-09 22:37:58.576,STOP,13
144.0,15592.912208189036,2691.5076603302555,-63852.42955117578,-61769.76105806364,-36839.787583325815,-34419.98772859427,-29630.05359531088,-22572.713800992227,0.0,0.0,0.0,193.0,1.0,155.0,0.0,2.0,3.0,251.0,411.0,2.0,1019.0,1744252678.5761592,0.0,2025-04-09 22:37:58.576,STOP,13
145.0,15717.724349227472,2708.092654716093,-63871.58499617398,-61767.61529059593,-36880.132482067645,-34454.699987733366,-29404.189217590003,-22602.03928971759,0.0,0.0,0.0,193.0,1.0,155.0,0.0,2.0,3.0,251.0,411.0,2.0,1019.0,1744252678.5761685,0.0,2025-04-09 22:37:58.576,STOP,13
146.0,15703.508639753896,2724.610593868565,-63813.69397803474,-61758.29461315807,-36780.55546051925,-34356.44171910783,-29943.64857001884,-22516.45446019822,0.0,0.0,0.0,193.0,1.0,154.0,0.0,2.0,3.0,251.0,410.0,2.0,1019.0,1744252678.5761776,0.0,2025-04-09 22:37:58.576,STOP,13
147.0,15638.643877344595,2724.4317799129226,-63833.69878932224,-61755.16536893432,-36795.41937058203,-34379.978106019276,-29572.408446360645,-22528.79262313755,0.0,0.0,0.0,193.0,1.0,154.0,0.0,2.0,3.0,250.0,410.0,2.0,1018.0,1744252678.5761864,0.0,2025-04-09 22:37:58.576,STOP,13
148.0,15583.949158662459,2691.4629568413447,-63850.708466852724,-61781.674537858315,-36826.644757586095,-34407.85073135504,-29671.96311616458,-22552.552527493543,0.0,0.0,0.0,193.0,1.0,155.0,0.0,2.0,3.0,252.0,411.0,2.0,1020.0,1744252678.5761952,0.0,2025-04-09 22:37:58.576,STOP,13
149.0,15698.300683295809,2696.715616788342,-63867.852254849946,-61755.813569523525,-36887.754426926906,-34466.47935706131,-29365.2301270044,-22603.514504851642,0.0,0.0,0.0,193.0,1.0,155.0,0.0,2.0,3.0,251.0,411.0,2.0,1019.0,1744252678.576204,0.0,2025-04-09 22:37:58.576,STOP,13
150.0,15714.952732915013,2723.381247923523,-63820.4665566047,-61777.785334323096,-36796.11227466015,-34371.37268440398,-29936.63012225987,-22523.785832379563,0.0,0.0,0.0,193.0,1.0,155.0,0.0,2.0,3.0,250.0,411.0,2.0,1018.0,1744252678.576213,0.0,2025-04-09 22:37:58.576,STOP,13
151.0,15654.312450207764,2729.840902071107,-63823.75226303963,-61744.3247728735,-36793.720638003426,-34384.96254503281,-29611.814571835348,-22529.26200977111,0.0,0.0,0.0,193.0,1.0,155.0,0.0,2.0,3.0,252.0,411.0,2.0,1020.0,1744252678.5762217,0.0,2025-04-09 22:37:58.576,STOP,13
152.0,15575.679013213994,2691.0159219522384,-63860.096199523956,-61803.60159916897,-36828.65641458707,-34416.21028378133,-29679.11567439028,-22566.924699178304,0.0,0.0,0.0,193.0,1.0,154.0,0.0,2.0,3.0,250.0,410.0,2.0,1018.0,1744252678.5762305,0.0,2025-04-09 22:37:58.576,STOP,13
153.0,15669.377525970642,2688.6019335510655,-63866.935833327276,-61752.37140087741,-36886.03334260385,-34471.91083096395,-29369.320496239725,-22610.75647005516,0.0,0.0,0.0,193.0,1.0,155.0,0.0,2.0,3.0,251.0,411.0,2.0,1019.0,1744252678.5762396,0.0,2025-04-09 22:37:58.576,STOP,13
154.0,15723.40169231912,2722.688343845409,-63830.167213698296,-61786.793087338585,-36805.85763524266,-34382.88383279846,-29861.796481823505,-22543.23185005568,0.0,0.0,0.0,193.0,1.0,155.0,0.0,2.0,3.0,250.0,411.0,2.0,1018.0,1744252678.5762484,0.0,2025-04-09 22:37:58.576,STOP,13
155.0,15667.05294454729,2731.472579416344,-63809.469498332684,-61730.019656422104,-36782.20948960895,-34367.57288784658,-29676.902851689203,-22524.79166088005,0.0,0.0,0.0,193.0,1.0,154.0,0.0,2.0,3.0,248.0,410.0,2.0,1016.0,1744252678.5762572,0.0,2025-04-09 22:37:58.576,STOP,13
156.0,15582.026908639302,2697.229706910814,-63854.88824306587,-61800.58411366751,-36812.47375160143,-34398.19477775035,-29668.990334152026,-22563.661344487828,0.0,0.0,0.0,193.0,1.0,155.0,0.0,2.0,3.0,252.0,411.0,2.0,1020.0,1744252678.576266,0.0,2025-04-09 22:37:58.576,STOP,13
157.0,15641.035514001313,2682.0752241701157,-63863.60542340344,-61749.84565375396,-36873.31520000878,-34454.32000807762,-29416.706194484974,-22595.110248936446,0.0,0.0,0.0,193.0,1.0,155.0,0.0,2.0,3.0,252.0,411.0,2.0,1020.0,1744252678.5762746,0.0,2025-04-09 22:37:58.576,STOP,13
158.0,15728.989628432946,2715.0216954972384,-63845.83578656147,-61791.9339885633,-36827.561179108765,-34391.221033480295,-29742.996960043547,-22549.020951869603,0.0,0.0,0.0,193.0,1.0,154.0,0.0,2.0,3.0,249.0,410.0,2.0,1017.0,1744252678.5762835,0.0,2025-04-09 22:37:58.576,STOP,13
159.0,15679.122886553156,2735.607652140576,-63794.91851269228,-61718.620266749895,-36769.3795882916,-34342.784803245646,-29763.717027153616,-22500.07063151248,0.0,0.0,0.0,193.0,1.0,155.0,0.0,2.0,3.0,252.0,411.0,2.0,1020.0,1744252678.576298,0.0,2025-04-09 22:37:58.576,STOP,13
160.0,15599.66243501454,2715.6251925975316,-63839.13026322488,-61783.82030532602,-36796.38049559361,-34372.46791988229,-29614.58618814781,-22529.820803382496,0.0,0.0,0.0,193.0,1.0,155.0,0.0,2.0,3.0,251.0,411.0,2.0,1019.0,1744252678.5763068,0.0,2025-04-09 22:37:58.576,STOP,13
161.0,15621.455385858464,2683.0139974372387,-63846.99807727314,-61749.108046186935,-36851.611656142675,-34431.8788566445,-29484.11905576218,-22581.52038830762,0.0,0.0,0.0,193.0,1.0,154.0,0.0,2.0,3.0,249.0,410.0,2.0,1017.0,1744252678.5763156,0.0,2025-04-09 22:37:58.576,STOP,13
162.0,15729.950753444524,2708.2491169272803,-63851.64724011985,-61790.0340902846,-36845.196705484,-34418.825437882595,-29598.448228651076,-22588.60589129995,0.0,0.0,0.0,193.0,1.0,155.0,0.0,2.0,3.0,252.0,411.0,2.0,1020.0,1744252678.5763242,0.0,2025-04-09 22:37:58.576,STOP,13
163.0,15684.666119178071,2727.3822101810233,-63792.14689637982,-61731.83014772298,-36766.6303237236,-34348.305684126106,-29855.62740035384,-22517.415585209797,0.0,0.0,0.0,193.0,1.0,155.0,0.0,2.0,3.0,251.0,411.0,2.0,1019.0,1744252678.5763328,0.0,2025-04-09 22:37:58.576,STOP,13
164.0,15609.1842781525,2720.743742077797,-63834.88343177837,-61777.494761645175,-36790.14435889058,-34373.07141698258,-29579.583356330797,-22528.07736731498,0.0,0.0,0.0,193.0,1.0,154.0,0.0,2.0,3.0,249.0,410.0,2.0,1017.0,1744252678.576342,0.0,2025-04-09 22:37:58.576,STOP,13
165.0,15597.60607452465,2684.220991637825,-63845.45580690573,-61760.10510445895,-36836.47952514643,-34416.724373903795,-29555.577582785798,-22563.840158443472,0.0,0.0,0.0,193.0,1.0,154.0,0.0,2.0,3.0,251.0,410.0,2.0,1019.0,1744252678.5763507,0.0,2025-04-09 22:37:58.576,STOP,13
166.0,15731.470672067486,2712.674762329431,-63849.83674881897,-61765.22365393921,-36849.13061250813,-34419.65245242744,-29451.910192002084,-22571.93148993629,0.0,0.0,0.0,193.0,1.0,155.0,0.0,2.0,3.0,252.0,411.0,2.0,1020.0,1744252678.5763593,0.0,2025-04-09 22:37:58.576,STOP,13
167.0,15697.138392584133,2728.3433351926014,-63796.84076271544,-61739.56385130452,-36766.83148942369,-34341.13077415595,-29893.200682783212,-22504.563332147998,0.0,0.0,0.0,193.0,1.0,155.0,0.0,2.0,3.0,250.0,411.0,2.0,1018.0,1744252678.576368,0.0,2025-04-09 22:37:58.576,STOP,13
168.0,15623.62350507063,2724.0741520016377,-63837.5209376241,-61768.41995339632,-36799.77796075081,-34379.888699041454,-29557.298667108855,-22538.51563197561,0.0,0.0,0.0,193.0,1.0,154.0,0.0,2.0,3.0,249.0,410.0,2.0,1017.0,1744252678.576377,0.0,2025-04-09 22:37:58.576,STOP,13
169.0,15580.708155716438,2686.612628294543,-63854.150635498845,-61779.372308179416,-36842.60390312719,-34417.19376053736,-29643.129365817236,-22577.362963838932,0.0,0.0,0.0,193.0,1.0,155.0,0.0,2.0,3.0,252.0,411.0,2.0,1020.0,1744252678.5763855,0.0,2025-04-09 22:37:58.576,STOP,13
170.0,15708.090747367234,2702.4376633689003,-63865.01358330412,-61761.91559575983,-36880.28894427883,-34447.212153340835,-29383.357391757658,-22598.418307115833,0.0,0.0,0.0,193.0,1.0,154.0,0.0,2.0,3.0,250.0,410.0,2.0,1018.0,1744252678.5763943,0.0,2025-04-09 22:37:58.576,STOP,13
171.0,15711.331750313253,2735.16061725147,-63795.76787898158,-61746.60465080794,-36767.90437315755,-34333.64293976342,-29930.393985556842,-22497.611939622395,0.0,0.0,0.0,193.0,1.0,154.0,0.0,2.0,3.0,249.0,410.0,2.0,1017.0,1744252678.5764031,0.0,2025-04-09 22:37:58.576,STOP,13
172.0,15634.732322064916,2724.4317799129226,-63829.13903345336,-61751.81260726602,-36795.15114964857,-34372.758492560206,-29552.18011762859,-22522.08709980096,0.0,0.0,0.0,193.0,1.0,154.0,0.0,2.0,3.0,250.0,410.0,2.0,1018.0,1744252678.576412,0.0,2025-04-09 22:37:58.576,STOP,13
173.0,15561.709172929428,2677.8507444680627,-63862.197263502756,-61799.287712489095,-36837.127725735634,-34414.95858609183,-29663.87178467176,-22570.344516079967,0.0,0.0,0.0,193.0,1.0,155.0,0.0,2.0,3.0,252.0,411.0,2.0,1020.0,1744252678.5764208,0.0,2025-04-09 22:37:58.576,STOP,13
174.0,15687.996529101913,2695.039235954194,-63860.63264139088,-61748.70571478674,-36879.90896462309,-34459.036226157696,-29350.2768099638,-22605.012071730147,0.0,0.0,0.0,193.0,1.0,155.0,0.0,2.0,3.0,249.0,411.0,2.0,1017.0,1744252678.5764344,0.0,2025-04-09 22:37:58.576,STOP,13
175.0,15716.316189326786,2729.3268119486347,-63812.21876290069,-61769.738706319185,-36789.07147515672,-34360.48738485425,-29903.10250557691,-22525.88689635836,0.0,0.0,0.0,193.0,1.0,155.0,0.0,2.0,3.0,250.0,411.0,2.0,1018.0,1744252678.5764437,0.0,2025-04-09 22:37:58.576,STOP,13
176.0,15651.876110062136,2733.864216073062,-63814.25277164612,-61733.26065936812,-36789.80908272375,-34366.745873301734,-29609.020603778437,-22523.428204468277,0.0,0.0,0.0,193.0,1.0,155.0,0.0,2.0,3.0,251.0,411.0,2.0,1019.0,1744252678.5764525,0.0,2025-04-09 22:37:58.576,STOP,13
177.0,15576.1260481031,2696.648561554976,-63850.842577319454,-61793.09627927498,-36820.02864122733,-34393.94794630384,-29668.744464963016,-22550.920850148304,0.0,0.0,0.0,193.0,1.0,154.0,0.0,2.0,3.0,249.0,410.0,2.0,1017.0,1744252678.5764608,0.0,2025-04-09 22:37:58.576,STOP,13
178.0,15666.58355791373,2691.2617911412467,-63859.76092335713,-61744.771807762605,-36882.68058093555,-34460.9361244364,-29375.3331154982,-22609.460068876753,0.0,0.0,0.0,193.0,1.0,155.0,0.0,2.0,3.0,252.0,411.0,2.0,1020.0,1744252678.5764697,0.0,2025-04-09 22:37:58.576,STOP,13
179.0,15729.101387155222,2725.549367135688,-63831.150690454335,-61784.826133826515,-36813.81485626875,-34377.89939378493,-29826.771298262036,-22543.27655354459,0.0,0.0,0.0,193.0,1.0,155.0,0.0,2.0,3.0,251.0,411.0,2.0,1019.0,1744252678.576478,0.0,2025-04-09 22:37:58.576,STOP,13
180.0,15663.029630545334,2730.734971849319,-63810.25180938862,-61731.38311283388,-36785.36108557714,-34362.67785581086,-29685.44121807113,-22510.866524084395,0.0,0.0,0.0,193.0,1.0,154.0,0.0,2.0,3.0,249.0,410.0,2.0,1017.0,1744252678.5764868,0.0,2025-04-09 22:37:58.576,STOP,13
181.0,15590.207647109944,2705.6563145704645,-63842.43832140426,-61794.616197897936,-36798.123931661125,-34384.783731077165,-29645.610409451772,-22535.252277285133,0.0,0.0,0.0,193.0,1.0,154.0,0.0,2.0,3.0,252.0,410.0,2.0,1020.0,1744252678.576496,0.0,2025-04-09 22:37:58.576,STOP,13
182.0,15634.955839509468,2678.2083723793476,-63851.71429535322,-61749.532729331586,-36863.86041210418,-34451.32487432061,-29418.337871830212,-22588.270615133122,0.0,0.0,0.0,193.0,1.0,154.0,0.0,2.0,3.0,251.0,410.0,2.0,1019.0,1744252678.5765045,0.0,2025-04-09 22:37:58.576,STOP,13
183.0,15735.963372703001,2721.995439767294,-63831.150690454335,-61781.808648325044,-36816.09473420319,-34391.355143947025,-29686.514101804987,-22550.31735304801,0.0,0.0,0.0,193.0,1.0,154.0,0.0,2.0,3.0,250.0,410.0,2.0,1018.0,1744252678.5765133,0.0,2025-04-09 22:37:58.576,STOP,13
184.0,15678.765258641872,2730.3549921935787,-63789.889370189834,-61721.771862718095,-36766.13858534558,-34348.10451842601,-29761.79477713046,-22506.574989148976,0.0,0.0,0.0,193.0,1.0,155.0,0.0,2.0,3.0,251.0,411.0,2.0,1019.0,1744252678.5765219,0.0,2025-04-09 22:37:58.576,STOP,13
185.0,15593.739222733882,2707.712675060353,-63843.60061211594,-61792.22456124122,-36804.695344530985,-34385.29782119964,-29605.801952576872,-22547.27751580209,0.0,0.0,0.0,193.0,1.0,154.0,0.0,2.0,3.0,249.0,410.0,2.0,1017.0,1744252678.5765305,0.0,2025-04-09 22:37:58.576,STOP,13
186.0,15612.715853776439,2687.3278841171127,-63845.99224877266,-61748.92923223129,-36855.61261840017,-34429.19664730986,-29518.697204434542,-22580.84983597396,0.0,0.0,0.0,193.0,1.0,154.0,0.0,2.0,3.0,250.0,410.0,2.0,1018.0,1744252678.5765393,0.0,2025-04-09 22:37:58.576,STOP,13
187.0,15730.666009267094,2716.3180966756463,-63849.63558311887,-61774.834904054995,-36853.46685093246,-34414.44449596936,-29562.37251310021,-22574.90427194885,0.0,0.0,0.0,193.0,1.0,155.0,0.0,2.0,3.0,251.0,411.0,2.0,1019.0,1744252678.5765479,0.0,2025-04-09 22:37:58.576,STOP,13
188.0,15700.960540885992,2745.062440045171,-63776.32186130546,-61709.27723756758,-36756.92966662999,-34327.49621003821,-29866.37858943684,-22491.73343083065,0.0,0.0,0.0,193.0,1.0,155.0,0.0,2.0,3.0,251.0,411.0,2.0,1019.0,1744252678.5765564,0.0,2025-04-09 22:37:58.576,STOP,13
189.0,15619.443728857486,2726.957527036372,-63828.133204952865,-61762.317927160024,-36792.29012635829,-34375.57481236158,-29570.508548081943,-22537.398044752845,0.0,0.0,0.0,193.0,1.0,154.0,0.0,2.0,3.0,249.0,410.0,2.0,1017.0,1744252678.5765705,0.0,2025-04-09 22:37:58.576,STOP,13
190.0,15593.672167500517,2684.802136993663,-63848.02625751809,-61763.70373531625,-36845.15200199509,-34434.78458342369,-29585.57362384482,-22592.56215006854,0.0,0.0,0.0,193.0,1.0,155.0,0.0,2.0,3.0,250.0,411.0,2.0,1018.0,1744252678.5765789,0.0,2025-04-09 22:37:58.576,STOP,13
191.0,15721.16651787359,2704.516375603244,-63860.20795824623,-61771.66095634234,-36872.19761278601,-34452.330702821106,-29437.515668572865,-22606.46493511974,0.0,0.0,0.0,193.0,1.0,155.0,0.0,2.0,3.0,251.0,411.0,2.0,1019.0,1744252678.5765877,0.0,2025-04-09 22:37:58.576,STOP,13
192.0,15700.267636807876,2732.0760765166374,-63791.47634404616,-61740.48027282718,-36771.212431336935,-34348.61860854848,-29923.509648264608,-22510.240675239645,0.0,0.0,0.0,193.0,1.0,154.0,0.0,2.0,3.0,250.0,410.0,2.0,1018.0,1744252678.576596,0.0,2025-04-09 22:37:58.576,STOP,13
193.0,15630.37373189613,2727.315154947657,-63824.62398107338,-61757.51230210213,-36794.502949059366,-34378.74876007423,-29554.95173394105,-22526.17746903628,0.0,0.0,0.0,193.0,1.0,155.0,0.0,2.0,3.0,252.0,411.0,2.0,1020.0,1744252678.5766048,0.0,2025-04-09 22:37:58.576,STOP,13
194.0,15574.449667268953,2681.5387823031883,-63849.07678950749,-61784.267340215134,-36835.585455368215,-34419.98772859427,-29639.776604148938,-22571.19388236927,0.0,0.0,0.0,193.0,1.0,155.0,0.0,2.0,3.0,251.0,411.0,2.0,1019.0,1744252678.5766134,0.0,2025-04-09 22:37:58.576,STOP,13
195.0,15698.367738529176,2695.709788287853,-63860.230309990686,-61761.22269168171,-36878.00906634439,-34463.0371884152,-29360.178632757503,-22617.260827691654,0.0,0.0,0.0,193.0,1.0,154.0,0.0,2.0,3.0,249.0,410.0,2.0,1017.0,1744252678.5766225,0.0,2025-04-09 22:37:58.576,STOP,13
196.0,15696.557247228295,2723.6941723458976,-63806.83199248696,-61767.30236617356,-36783.863518698636,-34359.36979763148,-29936.07132864849,-22528.680864415273,0.0,0.0,0.0,193.0,1.0,155.0,0.0,2.0,3.0,250.0,411.0,2.0,1018.0,1744252678.576631,0.0,2025-04-09 22:37:58.576,STOP,13
197.0,15629.099682462178,2721.9060327894726,-63826.590934585445,-61752.88549099988,-36798.548614805775,-34378.346428674035,-29571.939059727083,-22519.02491081058,0.0,0.0,0.0,193.0,1.0,155.0,0.0,1.0,3.0,252.0,411.0,1.0,1020.0,1744252678.5766397,0.0,2025-04-09 22:37:58.576,STOP,13
198.0,15562.200911307445,2676.487288056289,-63855.31292621052,-61800.15943052286,-36828.7905250538,-34410.2200162673,-29655.623990967753,-22555.94999265075,0.0,0.0,0.0,193.0,1.0,155.0,0.0,2.0,3.0,251.0,411.0,2.0,1019.0,1744252678.5766485,0.0,2025-04-09 22:37:58.576,STOP,13
199.0,15672.037383560824,2682.902238714962,-63861.83963559147,-61755.880624756894,-36880.3559995122,-34463.95360993786,-29326.829830030183,-22603.492153107185,0.0,0.0,0.0,193.0,1.0,154.0,0.0,2.0,3.0,250.0,410.0,2.0,1018.0,1744252678.5766568,0.0,2025-04-09 22:37:58.576,STOP,13
200.0,15717.701997483016,2725.035277013216,-63813.872791990376,-61781.31690994703,-36789.56321353474,-34359.99564647623,-29881.309554732987,-22522.64589341234,0.0,0.0,0.0,193.0,1.0,155.0,0.0,2.0,3.0,252.0,411.0,2.0,1020.0,1744252678.5766656,0.0,2025-04-09 22:37:58.576,STOP,13
201.0,15660.81680784426,2732.701925361386,-63804.9097424638,-61733.75239774614,-36779.16965236302,-34356.955809230305,-29617.089583526802,-22508.45253568322,0.0,0.0,0.0,193.0,1.0,154.0,0.0,2.0,3.0,250.0,410.0,2.0,1018.0,1744252678.5766745,0.0,2025-04-09 22:37:58.576,STOP,13
202.0,15578.070649870713,2697.609686566554,-63842.035990004064,-61797.14194502139,-36808.271623643835,-34388.27060321219,-29654.595810722807,-22544.997637867647,0.0,0.0,0.0,193.0,1.0,154.0,0.0,2.0,3.0,249.0,410.0,2.0,1017.0,1744252678.5766833,0.0,2025-04-09 22:37:58.576,STOP,13
203.0,15651.786703084315,2686.970256205828,-63845.67932435028,-61742.26841238361,-36865.33562723823,-34445.91575216243,-29360.782129857795,-22586.080144176503,0.0,0.0,0.0,193.0,1.0,155.0,0.0,2.0,3.0,252.0,411.0,2.0,1020.0,1744252678.576692,0.0,2025-04-09 22:37:58.576,STOP,13
204.0,15706.43671827754,2704.4046168809673,-63835.553984112026,-61798.527753177616,-36820.38626913861,-34386.23659446676,-29774.110588325333,-22548.88684140287,0.0,0.0,0.0,193.0,1.0,154.0,0.0,2.0,3.0,249.0,410.0,2.0,1017.0,1744252678.5767052,0.0,2025-04-09 22:37:58.576,STOP,13
205.0,15639.694409333993,2702.7282360468193,-63808.50837332111,-61743.6765722843,-36786.36691407763,-34367.84110878004,-29703.4120206132,-22519.94133233325,0.0,0.0,0.0,193.0,1.0,154.0,0.0,2.0,3.0,250.0,410.0,2.0,1018.0,1744252678.576714,0.0,2025-04-09 22:37:58.576,STOP,13
206.0,15561.530358973785,2680.2423811247804,-63847.24394646215,-61810.37417773893,-36804.31536487524,-34394.95377480433,-29623.86216209676,-22545.958762879225,0.0,0.0,0.0,193.0,1.0,155.0,0.0,2.0,3.0,252.0,411.0,2.0,1020.0,1744252678.5767224,0.0,2025-04-09 22:37:58.576,STOP,13
207.0,15598.99188268088,2654.8507994235515,-63852.96599304271,-61762.47438937121,-36862.027569058846,-34449.71554871983,-29432.91120921507,-22590.23756864519,0.0,0.0,0.0,193.0,1.0,155.0,0.0,2.0,3.0,252.0,411.0,2.0,1020.0,1744252678.5767312,0.0,2025-04-09 22:37:58.576,STOP,13
208.0,15699.06064260729,2687.3725876060234,-63845.38875167236,-61802.39460496839,-36833.640853600606,-34406.50962668772,-29643.82226989535,-22571.775027725107,0.0,0.0,0.0,193.0,1.0,154.0,0.0,2.0,3.0,249.0,410.0,2.0,1017.0,1744252678.5767398,0.0,2025-04-09 22:37:58.576,STOP,13
209.0,15655.318278708253,2706.8856605155065,-63784.32378582047,-61730.60080177794,-36759.053082353246,-34341.42134683387,-29784.12416984131,-22499.310672201,0.0,0.0,0.0,193.0,1.0,154.0,0.0,2.0,3.0,252.0,410.0,2.0,1020.0,1744252678.5767488,0.0,2025-04-09 22:37:58.576,STOP,13
210.0,15570.806332922737,2680.778822991708,-63836.33629516796,-61793.297444975076,-36794.01121068135,-34368.24344018024,-29567.26754513592,-22508.385480449855,0.0,0.0,0.0,193.0,1.0,155.0,0.0,2.0,3.0,252.0,411.0,2.0,1020.0,1744252678.5767577,0.0,2025-04-09 22:37:58.576,STOP,13
211.0,15574.874350413604,2651.3415755440683,-63844.09235049396,-61763.25670042714,-36844.615560128164,-34417.48433321528,-29500.905215848117,-22554.2736118166,0.0,0.0,0.0,193.0,1.0,155.0,0.0,2.0,3.0,251.0,411.0,2.0,1019.0,1744252678.5767663,0.0,2025-04-09 22:37:58.576,STOP,13
212.0,15689.114116324678,2669.4241368084117,-63856.11758901091,-61792.82805834151,-36858.183069012535,-34422.17819955089,-29492.79153261084,-22571.99854516966,0.0,0.0,0.0,193.0,1.0,154.0,0.0,2.0,3.0,250.0,410.0,2.0,1018.0,1744252678.5767748,0.0,2025-04-09 22:37:58.576,STOP,13
213.0,15650.780874583827,2685.7185585163306,-63792.839800457936,-61746.04585719656,-36772.687646470986,-34336.63807352044,-29866.33388594793,-22491.755782575106,0.0,0.0,0.0,193.0,1.0,154.0,0.0,2.0,3.0,249.0,410.0,2.0,1017.0,1744252678.5767832,0.0,2025-04-09 22:37:58.576,STOP,13
214.0,15574.874350413604,2674.676796755409,-63831.48596662116,-61778.70175584576,-36796.69342001598,-34366.79057679064,-29556.739873497474,-22517.92967533227,0.0,0.0,0.0,193.0,1.0,155.0,0.0,2.0,3.0,252.0,411.0,2.0,1020.0,1744252678.576792,0.0,2025-04-09 22:37:58.576,STOP,13
215.0,15531.64607663704,2624.6312409199763,-63856.16229249982,-61785.04965127107,-36850.47171717545,-34419.607748938535,-29588.077019223812,-22570.478626546697,0.0,0.0,0.0,193.0,1.0,154.0,0.0,3.0,3.0,251.0,410.0,3.0,1019.0,1744252678.5768003,0.0,2025-04-09 22:37:58.576,STOP,13
216.0,15661.15208401109,2645.2395493077697,-63866.377039715895,-61783.015642525635,-36879.19370880052,-34442.4288800274,-29398.891854154095,-22592.80801925755,0.0,0.0,0.0,193.0,1.0,154.0,0.0,11.0,3.0,250.0,410.0,11.0,1018.0,1744252678.576809,0.0,2025-04-09 22:37:58.576,STOP,13
217.0,15644.634144858617,2668.977101919306,-63797.9583499382,-61757.89228175787,-36773.22408833791,-34336.43690782034,-29908.69044169074,-22493.476866898163,0.0,0.0,0.0,193.0,1.0,154.0,0.0,22.0,3.0,250.0,410.0,22.0,1018.0,1744252678.576818,0.0,2025-04-09 22:37:58.576,STOP,13
218.0,15571.521588745307,2665.8702094400182,-63826.613286329906,-61763.54727310506,-36791.23959436889,-34364.80127153412,-29542.747681468452,-22512.3640909629,0.0,0.0,0.0,193.0,1.0,155.0,0.0,32.0,3.0,251.0,411.0,32.0,1019.0,1744252678.5768266,0.0,2025-04-09 22:37:58.576,STOP,13
219.0,15515.753986329317,2620.809092618119,-63849.523824396594,-61790.4364216848,-36831.02569949933,-34401.88281558547,-29640.06717682686,-22553.424245527298,0.0,0.0,0.0,193.0,1.0,155.0,0.0,38.0,3.0,251.0,411.0,38.0,1019.0,1744252678.5768404,0.0,2025-04-09 22:37:58.576,STOP,13
220.0,15639.649705845084,2634.5554154581328,-63862.51018792513,-61765.380116150394,-36881.58534545724,-34455.05761564465,-29347.57224888471,-22607.291949664588,0.0,0.0,0.0,193.0,1.0,154.0,0.0,39.0,3.0,249.0,410.0,39.0,1017.0,1744252678.576849,0.0,2025-04-09 22:37:58.576,STOP,13
221.0,15647.025781515335,2657.3094913136356,-63809.71536752169,-61777.785334323096,-36777.76149246234,-34348.86447773749,-29917.809953428503,-22504.809201337004,0.0,0.0,0.0,193.0,1.0,154.0,0.0,39.0,3.0,250.0,410.0,39.0,1018.0,1744252678.5768576,0.0,2025-04-09 22:37:58.576,STOP,13
222.0,15577.623614981607,2654.023784878705,-63821.29357114954,-61754.45011311175,-36781.15895761955,-34366.94703900183,-29557.70099850905,-22503.78102109206,0.0,0.0,0.0,193.0,1.0,155.0,0.0,38.0,3.0,252.0,411.0,38.0,1020.0,1744252678.5768664,0.0,2025-04-09 22:37:58.576,STOP,13
223.0,15506.25449493581,2619.490339695256,-63855.29057446606,-61806.39556722589,-36815.98297548091,-34402.195740007846,-29642.324703016842,-22541.153137821333,0.0,0.0,0.0,193.0,1.0,154.0,0.0,38.0,3.0,251.0,410.0,38.0,1019.0,1744252678.5768752,0.0,2025-04-09 22:37:58.576,STOP,13
224.0,15623.109414948156,2637.394087003957,-63847.69098135126,-61740.03323793808,-36858.317179479265,-34446.74276670728,-29323.030033472784,-22574.70310624875,0.0,0.0,0.0,193.0,1.0,154.0,0.0,38.0,3.0,249.0,410.0,38.0,1017.0,1744252678.576884,0.0,2025-04-09 22:37:58.576,STOP,13
225.0,15664.124866023645,2663.970311161317,-63816.55500132502,-61774.07494474351,-36782.27654484231,-34358.25221040872,-29834.14737393229,-22502.149343746823,0.0,0.0,0.0,193.0,1.0,154.0,0.0,39.0,3.0,250.0,410.0,39.0,1018.0,1744252678.5768929,0.0,2025-04-09 22:37:58.576,STOP,13
226.0,15602.65756877155,2670.0946891420713,-63806.07203317548,-61719.514336528104,-36768.99960863586,-34355.860573752,-29616.731955615516,-22486.793695306027,0.0,0.0,0.0,193.0,1.0,155.0,0.0,39.0,3.0,252.0,411.0,39.0,1020.0,1744252678.5769017,0.0,2025-04-09 22:37:58.576,STOP,13
227.0,15519.486727653353,2636.2541480367363,-63849.85910056342,-61786.502514660664,-36803.19777765248,-34387.82356832309,-29636.53560120292,-22523.87523935738,0.0,0.0,0.0,193.0,1.0,154.0,0.0,39.0,3.0,251.0,410.0,39.0,1019.0,1744252678.5769105,0.0,2025-04-09 22:37:58.576,STOP,13
228.0,15591.146420377067,2632.1190753125043,-63852.78717908707,-61726.39867382034,-36856.01494980037,-34445.02168238422,-29369.119330539626,-22570.389219568875,0.0,0.0,0.0,193.0,1.0,153.0,0.0,39.0,3.0,249.0,409.0,39.0,1017.0,1744252678.576919,0.0,2025-04-09 22:37:58.576,STOP,13
229.0,15670.517464937862,2664.752622217253,-63838.23619344666,-61769.04580224107,-36802.95190846347,-34383.397922920936,-29724.10973597881,-22529.26200977111,0.0,0.0,0.0,193.0,1.0,155.0,0.0,39.0,3.0,253.0,411.0,39.0,1021.0,1744252678.576928,0.0,2025-04-09 22:37:58.576,STOP,13
230.0,15613.766385765837,2673.0227676657164,-63803.56863779648,-61702.34819678643,-36761.95880913243,-34348.73036727076,-29701.3109566344,-22479.35056440241,0.0,0.0,0.0,193.0,1.0,155.0,0.0,40.0,3.0,252.0,411.0,40.0,1020.0,1744252678.5769365,0.0,2025-04-09 22:37:58.576,STOP,13
231.0,15530.841413836648,2645.6865841968756,-63853.94946979875,-61769.13520921889,-36795.86640547114,-34378.6146496075,-29594.603728604765,-22506.619692637887,0.0,0.0,0.0,193.0,1.0,154.0,0.0,40.0,3.0,251.0,410.0,40.0,1019.0,1744252678.5769453,0.0,2025-04-09 22:37:58.576,STOP,13
232.0,15565.531321231285,2629.682735166876,-63857.90572856733,-61719.112005127914,-36850.069385775256,-34434.24814155676,-29448.378616378144,-22553.200728082746,0.0,0.0,0.0,193.0,1.0,154.0,0.0,40.0,3.0,248.0,410.0,40.0,1016.0,1744252678.5769536,0.0,2025-04-09 22:37:58.576,STOP,13
233.0,15682.118020310167,2671.5922560205768,-63847.69098135126,-61744.43653159578,-36821.50385636138,-34397.300707972136,-29591.94387101458,-22528.345588248445,0.0,0.0,0.0,193.0,1.0,155.0,0.0,40.0,3.0,252.0,411.0,40.0,1020.0,1744252678.5769675,0.0,2025-04-09 22:37:58.576,STOP,13
234.0,15641.840176801703,2690.77005276323,-63795.38789932584,-61681.76224014309,-36754.56038171773,-34336.79453573162,-29791.56730074493,-22473.203834677202,0.0,0.0,0.0,193.0,1.0,155.0,0.0,41.0,3.0,250.0,411.0,41.0,1018.0,1744252678.576976,0.0,2025-04-09 22:37:58.576,STOP,13
235.0,15572.438010267975,2685.67385502742,-63837.856213790925,-61727.002170920634,-36779.61668725213,-34359.57096333158,-29565.345295112766,-22495.399116921322,0.0,0.0,0.0,193.0,1.0,154.0,0.0,41.0,3.0,249.0,410.0,41.0,1017.0,1744252678.576985,0.0,2025-04-09 22:37:58.576,STOP,13
236.0,15568.74997243285,2657.130677357993,-63847.17689122879,-61701.8117549195,-36825.90715001907,-34408.25306275524,-29525.93916963806,-22540.192012809755,0.0,0.0,0.0,193.0,1.0,155.0,0.0,41.0,3.0,252.0,411.0,41.0,1020.0,1744252678.5769937,0.0,2025-04-09 22:37:58.576,STOP,13
237.0,15686.543665712317,2669.8935234419732,-63863.650126892346,-61726.15280463133,-36846.96249329597,-34415.94206284786,-29453.49716585841,-22551.03260887058,0.0,0.0,0.0,193.0,1.0,155.0,0.0,41.0,3.0,251.0,411.0,41.0,1019.0,1744252678.5770023,0.0,2025-04-09 22:37:58.577,STOP,13
238.0,15660.548586910796,2698.235535411303,-63792.66098650229,-61678.431830219255,-36747.56428570322,-34319.27076807866,-29863.584621379927,-22453.422540834254,0.0,0.0,0.0,193.0,1.0,154.0,0.0,42.0,3.0,249.0,410.0,42.0,1017.0,1744252678.5770109,0.0,2025-04-09 22:37:58.577,STOP,13
239.0,15598.008405924846,2701.320076146135,-63823.26052466161,-61699.66598745179,-36764.46220451143,-34346.27167538067,-29524.665120204107,-22476.64600332332,0.0,0.0,0.0,193.0,1.0,154.0,0.0,42.0,3.0,250.0,410.0,42.0,1018.0,1744252678.57702,0.0,2025-04-09 22:37:58.577,STOP,13
240.0,15543.98423957637,2644.2113690628257,-63856.96695530021,-61720.07313013949,-36823.53786510681,-34402.687478385866,-29577.415237118632,-22529.485527215664,0.0,0.0,0.0,193.0,1.0,155.0,0.0,42.0,3.0,252.0,411.0,42.0,1020.0,1744252678.5770288,0.0,2025-04-09 22:37:58.577,STOP,13
241.0,15672.327956238743,2666.451354795856,-63868.36634497242,-61710.39482479034,-36859.90415333559,-34431.342414777566,-29369.05227530626,-22559.883899674882,0.0,0.0,0.0,193.0,1.0,155.0,0.0,42.0,3.0,251.0,411.0,42.0,1019.0,1744252678.5770373,0.0,2025-04-09 22:37:58.577,STOP,13
242.0,15668.52815968134,2696.648561554976,-63804.19448664123,-61692.24520829263,-36759.90244864255,-34325.79747745961,-29907.43874400124,-22473.561462588485,0.0,0.0,0.0,193.0,1.0,154.0,0.0,42.0,3.0,248.0,410.0,42.0,1016.0,1744252678.5770478,0.0,2025-04-09 22:37:58.577,STOP,13
243.0,15600.869429215127,2694.994532465283,-63831.351856154426,-61693.3627955154,-36781.628344253106,-34356.329960385556,-29542.65827449063,-22504.809201337004,0.0,0.0,0.0,193.0,1.0,155.0,0.0,42.0,3.0,252.0,411.0,42.0,1020.0,1744252678.5770566,0.0,2025-04-09 22:37:58.577,STOP,13
244.0,15538.172786017989,2654.2473023232583,-63859.20212974574,-61732.47834831219,-36818.66518481555,-34392.897414314444,-29642.97290360605,-22539.70027443174,0.0,0.0,0.0,193.0,1.0,155.0,0.0,42.0,3.0,250.0,411.0,42.0,1018.0,1744252678.5770652,0.0,2025-04-09 22:37:58.577,STOP,13
245.0,15668.10347653669,2675.190886877881,-63857.9727838007,-61687.95367335722,-36855.99259805591,-34431.834153155585,-29322.225370672393,-22563.460178787733,0.0,0.0,0.0,193.0,1.0,154.0,0.0,42.0,3.0,250.0,410.0,42.0,1018.0,1744252678.5770738,0.0,2025-04-09 22:37:58.577,STOP,13
246.0,15692.176305315055,2709.612573339054,-63804.9097424638,-61703.59989447593,-36757.04142535227,-34331.877151951456,-29876.749798864104,-22479.708192313694,0.0,0.0,0.0,193.0,1.0,154.0,0.0,42.0,3.0,252.0,410.0,42.0,1020.0,1744252678.5770824,0.0,2025-04-09 22:37:58.577,STOP,13
247.0,15620.829537013715,2701.6330005685095,-63820.511260093605,-61681.27050176507,-36770.31836155872,-34356.531126085654,-29557.18690838658,-22497.477829155665,0.0,0.0,0.0,193.0,1.0,155.0,0.0,43.0,3.0,251.0,411.0,43.0,1019.0,1744252678.5770912,0.0,2025-04-09 22:37:58.577,STOP,13
248.0,15545.370047732598,2666.0490233956607,-63855.51409191061,-61740.45792108273,-36801.74491426288,-34387.309478200616,-29639.86601112676,-22536.615733696908,0.0,0.0,0.0,193.0,1.0,154.0,0.0,43.0,3.0,250.0,410.0,43.0,1018.0,1744252678.5771043,0.0,2025-04-09 22:37:58.577,STOP,13
249.0,15646.176415226033,2678.476593312811,-63851.24490871965,-61680.33172849796,-36851.67871137604,-34440.30546430415,-29334.340016167167,-22581.676850518805,0.0,0.0,0.0,193.0,1.0,155.0,0.0,42.0,3.0,252.0,411.0,42.0,1020.0,1744252678.5771132,0.0,2025-04-09 22:37:58.577,STOP,13
250.0,15691.639863448128,2701.3647796350456,-63828.02144623059,-61728.29857209904,-36789.92084144602,-34357.246381908226,-29811.99679517708,-22507.20083799372,0.0,0.0,0.0,193.0,1.0,155.0,0.0,43.0,3.0,251.0,411.0,43.0,1019.0,1744252678.5771215,0.0,2025-04-09 22:37:58.577,STOP,13
251.0,15636.743979065894,2714.0158669967495,-63803.032195929554,-61669.401725459305,-36761.26590505432,-34336.973349687265,-29633.853391868284,-22472.86855851037,0.0,0.0,0.0,193.0,1.0,154.0,0.0,43.0,3.0,249.0,410.0,43.0,1017.0,1744252678.5771303,0.0,2025-04-09 22:37:58.577,STOP,13
252.0,15558.89285312806,2687.1490701614703,-63843.19828071574,-61739.4744443267,-36790.59139377969,-34369.51748961419,-29624.130383030224,-22511.98411130716,0.0,0.0,0.0,193.0,1.0,154.0,0.0,43.0,3.0,249.0,410.0,43.0,1017.0,1744252678.5771391,0.0,2025-04-09 22:37:58.577,STOP,13
253.0,15624.025836470824,2676.9119712009397,-63844.986420272166,-61683.77389714407,-36848.460060174475,-34429.44251649887,-29389.705287182962,-22561.739094464672,0.0,0.0,0.0,193.0,1.0,155.0,0.0,43.0,3.0,250.0,411.0,43.0,1018.0,1744252678.5771477,0.0,2025-04-09 22:37:58.577,STOP,13
254.0,15712.62815149166,2712.808872796163,-63833.028236988575,-61728.85736571043,-36805.120027675635,-34375.39599840593,-29690.537415806943,-22525.573971935984,0.0,0.0,0.0,193.0,1.0,155.0,0.0,43.0,3.0,252.0,411.0,43.0,1020.0,1744252678.5771563,0.0,2025-04-09 22:37:58.577,STOP,13
255.0,15667.879959092137,2734.713582362364,-63780.881617174346,-61655.32012645247,-36744.591503690666,-34321.32712856855,-29724.869695290294,-22465.939517729228,0.0,0.0,0.0,193.0,1.0,154.0,0.0,43.0,3.0,249.0,410.0,43.0,1017.0,1744252678.577165,0.0,2025-04-09 22:37:58.577,STOP,13
0.0,15592.107545388646,2715.9157652754507,-63824.66868456229,-61719.02259815009,-36770.005437136344,-34351.32316962757,-29570.843824248772,-22491.062878496992,0.0,0.0,0.0,193.0,1.0,154.0,0.0,43.0,3.0,250.0,410.0,43.0,1018.0,1744252678.5771737,0.0,2025-04-09 22:37:58.577,STOP,13
1.0,15612.42528109852,2693.966352220339,-63832.760016055116,-61682.52219945457,-36826.085963974714,-34407.69426914385,-29450.010293723382,-22537.152175563835,0.0,0.0,0.0,193.0,1.0,155.0,0.0,43.0,3.0,252.0,411.0,43.0,1020.0,1744252678.5771823,0.0,2025-04-09 22:37:58.577,STOP,13
2.0,15719.177212617065,2718.9556025213724,-63843.69001909376,-61724.54347903055,-36826.13066746362,-34399.49117892876,-29541.339521567766,-22538.4709284867,0.0,0.0,0.0,193.0,1.0,154.0,0.0,43.0,3.0,251.0,410.0,43.0,1019.0,1744252678.950627,0.0,2025-04-09 22:37:58.950,STOP,13
3.0,15667.365868969664,2716.96629726485,-63798.53949529404,-61683.61743493289,-36761.288256798776,-34341.37664334496,-29810.968614932135,-22483.195064448722,0.0,0.0,0.0,193.0,1.0,154.0,0.0,43.0,3.0,249.0,410.0,43.0,1017.0,1744252678.950672,0.0,2025-04-09 22:37:58.950,STOP,13
4.0,15594.543885534275,2707.0197709822382,-63842.63948710436,-61731.338409344964,-36787.66331525604,-34373.83137629407,-29555.912858952626,-22522.869410856893,0.0,0.0,0.0,193.0,1.0,155.0,0.0,43.0,3.0,252.0,411.0,43.0,1020.0,1744252678.9506912,0.0,2025-04-09 22:37:58.950,STOP,13
5.0,15580.75285920535,2677.5378200456885,-63851.53548139757,-61714.32873181448,-36829.55048436528,-34418.691327415865,-29554.035312418382,-22563.303716576545,0.0,0.0,0.0,193.0,1.0,155.0,0.0,43.0,3.0,251.0,411.0,43.0,1019.0,1744252678.9507084,0.0,2025-04-09 22:37:58.950,STOP,13
6.0,15708.716596211982,2704.1140442030483,-63859.179778001286,-61721.011903406616,-36846.42605142904,-34423.56400770712,-29434.78875574932,-22557.00052464015,0.0,0.0,0.0,193.0,1.0,154.0,0.0,43.0,3.0,249.0,410.0,43.0,1017.0,1744252678.9507253,0.0,2025-04-09 22:37:58.950,STOP,13
7.0,15688.376508757652,2731.0031927827827,-63789.50939053409,-61679.81763837548,-36747.81015489223,-34319.471933778754,-29888.842092614424,-22465.69364854022,0.0,0.0,0.0,193.0,1.0,155.0,0.0,43.0,3.0,250.0,411.0,43.0,1018.0,1744252678.95076,0.0,2025-04-09 22:37:58.950,STOP,13
8.0,15615.912153233547,2726.555195636177,-63826.23330667416,-61701.1635543303,-36771.43594878149,-34351.97137021677,-29531.03536737387,-22491.35345117491,0.0,0.0,0.0,193.0,1.0,155.0,0.0,43.0,3.0,252.0,411.0,43.0,1020.0,1744252678.9507692,0.0,2025-04-09 22:37:58.950,STOP,13
9.0,15565.687783442472,2681.002340436261,-63850.59670813045,-61720.81073770652,-36814.37364988013,-34398.485350428266,-29600.884568796704,-22537.4203964973,0.0,0.0,0.0,193.0,1.0,155.0,0.0,43.0,3.0,251.0,411.0,43.0,1019.0,1744252678.9507778,0.0,2025-04-09 22:37:58.950,STOP,13
10.0,15703.642750220628,2703.9575819918614,-63854.66472562131,-61696.89437113934,-36847.32012120725,-34428.36963276501,-29348.220449473913,-22574.971327182215,0.0,0.0,0.0,193.0,1.0,154.0,0.0,43.0,3.0,249.0,410.0,43.0,1017.0,1744252678.9507868,0.0,2025-04-09 22:37:58.950,STOP,13
11.0,15704.693282210028,2736.613480641065,-63790.58227426795,-61687.64074893484,-36743.78684089027,-34315.33686105452,-29904.64477594433,-22474.276718411056,0.0,0.0,0.0,193.0,1.0,155.0,0.0,44.0,3.0,251.0,411.0,44.0,1019.0,1744252678.950796,0.0,2025-04-09 22:37:58.950,STOP,13
12.0,15633.950011008981,2736.1664457519587,-63812.755204767614,-61679.124734297366,-36761.71293994343,-34338.73913749923,-29533.40465228613,-22483.485637126643,0.0,0.0,0.0,193.0,1.0,155.0,0.0,44.0,3.0,252.0,411.0,44.0,1020.0,1744252678.950805,0.0,2025-04-09 22:37:58.950,STOP,13
13.0,15560.144550817557,2689.6971690293753,-63848.11566449591,-61729.57262153299,-36805.812931753746,-34379.0169810077,-29635.887400613716,-22529.351416748934,0.0,0.0,0.0,193.0,1.0,154.0,0.0,44.0,3.0,251.0,410.0,44.0,1019.0,1744252678.9508135,0.0,2025-04-09 22:37:58.950,STOP,13
14.0,15672.216197516465,2693.005227208761,-63857.05636227803,-61689.40653674681,-36856.93137132304,-34432.325891533605,-29315.542199080253,-22567.505844534142,0.0,0.0,0.0,193.0,1.0,155.0,0.0,43.0,3.0,250.0,411.0,43.0,1018.0,1744252678.9508226,0.0,2025-04-09 22:37:58.950,STOP,13
15.0,15703.978026387458,2723.2694892012464,-63808.73189076566,-61714.23932483666,-36762.15997483253,-34337.241570620725,-29867.093845259413,-22491.17463721927,0.0,0.0,0.0,193.0,1.0,155.0,0.0,44.0,3.0,252.0,411.0,44.0,1020.0,1744252678.9508317,0.0,2025-04-09 22:37:58.950,STOP,13
16.0,15643.069522746746,2731.383172438523,-63802.47340231817,-61670.049926048516,-36754.80625090674,-34337.26392236518,-29569.74858877046,-22482.256291181602,0.0,0.0,0.0,193.0,1.0,155.0,0.0,44.0,3.0,252.0,411.0,44.0,1020.0,1744252678.9508405,0.0,2025-04-09 22:37:58.950,STOP,13
17.0,15559.630460695083,2692.4687853418336,-63846.90867029532,-61740.569679805005,-36796.022867682324,-34374.434873394355,-29634.613351179763,-22529.239658026658,0.0,0.0,0.0,193.0,1.0,154.0,0.0,44.0,3.0,250.0,410.0,44.0,1018.0,1744252678.9508493,0.0,2025-04-09 22:37:58.950,STOP,13
18.0,15641.035514001313,2681.024692180716,-63856.96695530021,-61693.63101644886,-36861.62523765865,-34440.14900209296,-29349.919182052516,-22585.409591842843,0.0,0.0,0.0,193.0,1.0,155.0,0.0,44.0,3.0,249.0,411.0,44.0,1017.0,1744252678.950858,0.0,2025-04-09 22:37:58.950,STOP,13
19.0,15708.694244467528,2717.703904831875,-63821.62884731637,-61729.79613897755,-36783.75175997636,-34354.98885571824,-29788.214539076635,-22506.84321008244,0.0,0.0,0.0,193.0,1.0,155.0,0.0,44.0,3.0,251.0,411.0,44.0,1019.0,1744252678.9508667,0.0,2025-04-09 22:37:58.950,STOP,13
20.0,15649.551528638785,2726.3316781916237,-63795.45495455921,-61673.08976329443,-36754.69449218446,-34338.292102610125,-29650.48308974303,-22473.270889910567,0.0,0.0,0.0,193.0,1.0,155.0,0.0,44.0,3.0,252.0,411.0,44.0,1020.0,1744252678.9508755,0.0,2025-04-09 22:37:58.950,STOP,13
21.0,15565.196045064456,2696.4026923659676,-63839.55494636953,-61745.77763626309,-36785.964582677436,-34371.082111726064,-29609.06530726735,-22515.962721820204,0.0,0.0,0.0,193.0,1.0,155.0,0.0,44.0,3.0,249.0,411.0,44.0,1017.0,1744252678.9508843,0.0,2025-04-09 22:37:58.950,STOP,13
22.0,15609.720720019428,2669.2453228527693,-63848.339181940464,-61702.59406597544,-36852.863353832174,-34440.59603698207,-29409.575988003733,-22586.080144176503,0.0,0.0,0.0,193.0,1.0,155.0,0.0,44.0,3.0,250.0,411.0,44.0,1018.0,1744252678.9508986,0.0,2025-04-09 22:37:58.950,STOP,13
23.0,15699.15004958511,2701.521241846233,-63843.53355688257,-61751.72320028821,-36825.23659768541,-34399.15590276193,-29669.973810908057,-22560.152120608345,0.0,0.0,0.0,193.0,1.0,155.0,0.0,44.0,3.0,250.0,411.0,44.0,1018.0,1744252678.9509075,0.0,2025-04-09 22:37:58.950,STOP,13
24.0,15652.881938562625,2720.8555008000735,-63787.028346899555,-61679.750583142115,-36754.001588106345,-34333.79940197461,-29760.967762585613,-22481.83160803695,0.0,0.0,0.0,193.0,1.0,155.0,0.0,44.0,3.0,252.0,411.0,44.0,1020.0,1744252678.9509163,0.0,2025-04-09 22:37:58.950,STOP,13
25.0,15576.349565547654,2697.3638173775457,-63833.87760327788,-61744.59299380696,-36781.22601285291,-34368.154033202416,-29572.18492891609,-22519.963684077702,0.0,0.0,0.0,193.0,1.0,155.0,0.0,44.0,3.0,250.0,411.0,44.0,1018.0,1744252678.950925,0.0,2025-04-09 22:37:58.950,STOP,13
26.0,15581.825742939203,2663.4338692943898,-63847.221594717696,-61719.15670861682,-36843.073289760745,-34427.497914731255,-29481.235680727445,-22570.970364924713,0.0,0.0,0.0,193.0,1.0,154.0,0.0,44.0,3.0,249.0,410.0,44.0,1017.0,1744252678.9509337,0.0,2025-04-09 22:37:58.950,STOP,13
27.0,15702.838087420236,2692.446433597378,-63854.910594810324,-61751.29851714355,-36848.66122587457,-34420.34535650556,-29527.928474894583,-22579.508731306643,0.0,0.0,0.0,193.0,1.0,155.0,0.0,44.0,3.0,250.0,411.0,44.0,1018.0,1744252678.9509425,0.0,2025-04-09 22:37:58.950,STOP,13
28.0,15659.81097934377,2706.5280326042216,-63799.81354472799,-61705.477441010175,-36773.22408833791,-34348.23862889274,-29854.733330575626,-22512.11822177389,0.0,0.0,0.0,193.0,1.0,155.0,0.0,44.0,3.0,250.0,411.0,44.0,1018.0,1744252678.950951,0.0,2025-04-09 22:37:58.950,STOP,13
29.0,15587.078402886202,2697.1850034219033,-63837.81151030201,-61743.63186879538,-36794.19002463699,-34378.59229786305,-29561.411388088633,-22538.359169764422,0.0,0.0,0.0,193.0,1.0,155.0,0.0,44.0,3.0,253.0,411.0,44.0,1021.0,1744252678.95096,0.0,2025-04-09 22:37:58.950,STOP,13
30.0,15561.910338629526,2660.036404137183,-63848.69680985175,-61732.612458778916,-36833.30557743378,-34414.26568201371,-29567.647524791664,-22557.78283569608,0.0,0.0,0.0,193.0,1.0,154.0,0.0,44.0,3.0,249.0,410.0,44.0,1017.0,1744252678.9509687,0.0,2025-04-09 22:37:58.950,STOP,13
31.0,15697.63013096215,2696.96148597735,-63852.98834478717,-61728.49973779914,-36855.05382478879,-34426.58149320859,-29405.217397834946,-22576.223024871713,0.0,0.0,0.0,193.0,1.0,154.0,0.0,44.0,3.0,249.0,410.0,44.0,1017.0,1744252678.9509776,0.0,2025-04-09 22:37:58.950,STOP,13
32.0,15676.172456285056,2720.6319833555203,-63790.35875682339,-61703.57754273147,-36759.32130328671,-34334.82758221955,-29899.548578208516,-22499.98122453466,0.0,0.0,0.0,193.0,1.0,155.0,0.0,44.0,3.0,249.0,411.0,44.0,1017.0,1744252678.950986,0.0,2025-04-09 22:37:58.950,STOP,13
33.0,15603.194010638477,2713.7029425743754,-63827.641466574845,-61719.112005127914,-36785.49519604388,-34363.28135291116,-29527.79436442785,-22510.50889617311,0.0,0.0,0.0,193.0,1.0,155.0,0.0,44.0,3.0,253.0,411.0,44.0,1021.0,1744252678.9509947,0.0,2025-04-09 22:37:58.950,STOP,13
34.0,15547.538166944763,2667.993625163272,-63856.83284483348,-61748.90688048684,-36833.03735650031,-34408.58833892207,-29616.933121315615,-22558.453388029742,0.0,0.0,0.0,193.0,1.0,156.0,0.0,44.0,3.0,252.0,412.0,44.0,1020.0,1744252678.9510038,0.0,2025-04-09 22:37:58.951,STOP,13
35.0,15682.274482521354,2693.1393376754927,-63858.41981868981,-61716.02746439308,-36869.224830773455,-34444.86522017303,-29341.13494648158,-22596.272539648122,0.0,0.0,0.0,193.0,1.0,155.0,0.0,44.0,3.0,251.0,411.0,44.0,1019.0,1744252678.9510124,0.0,2025-04-09 22:37:58.951,STOP,13
36.0,15689.047061091313,2718.150939720981,-63803.90391396331,-61722.8670981964,-36773.46995752692,-34343.50005906821,-29909.472752746675,-22506.77615484907,0.0,0.0,0.0,193.0,1.0,154.0,0.0,44.0,3.0,250.0,410.0,44.0,1018.0,1744252678.9510212,0.0,2025-04-09 22:37:58.951,STOP,13
37.0,15626.015141727346,2725.281146202224,-63812.755204767614,-61699.84480140744,-36778.677913985004,-34355.39118711844,-29553.2753531069,-22506.127954259868,0.0,0.0,0.0,193.0,1.0,154.0,0.0,44.0,3.0,249.0,410.0,44.0,1017.0,1744252678.9510345,0.0,2025-04-09 22:37:58.951,STOP,13
38.0,15541.167919775,2674.0062444217497,-63855.335277954975,-61759.83688352548,-36823.42610638453,-34397.725391116786,-29640.29069427141,-22548.93154489178,0.0,0.0,0.0,193.0,1.0,154.0,0.0,44.0,3.0,252.0,410.0,44.0,1020.0,1744252678.9510436,0.0,2025-04-09 22:37:58.951,STOP,13
39.0,15652.323144951242,2682.4105003369455,-63861.83963559147,-61713.68053122527,-36875.90800236559,-34452.71068247684,-29319.766678782307,-22595.222007658722,0.0,0.0,0.0,193.0,1.0,155.0,0.0,44.0,3.0,251.0,411.0,44.0,1019.0,1744252678.9510524,0.0,2025-04-09 22:37:58.951,STOP,13
40.0,15691.505752981397,2710.976029750828,-63822.76878628359,-61745.59882230745,-36794.32413510372,-34364.04131222264,-29865.439816169717,-22535.386387751867,0.0,0.0,0.0,193.0,1.0,154.0,0.0,44.0,3.0,250.0,410.0,44.0,1018.0,1744252678.9510608,0.0,2025-04-09 22:37:58.951,STOP,13
41.0,15632.720665063938,2720.162596721959,-63813.604571056916,-61697.47551649517,-36783.684704743,-34357.9616377308,-29607.880664811215,-22507.044375782538,0.0,0.0,0.0,193.0,1.0,154.0,0.0,44.0,3.0,250.0,410.0,44.0,1018.0,1744252678.9510698,0.0,2025-04-09 22:37:58.951,STOP,13
42.0,15556.523568215796,2689.384244607001,-63848.22742321819,-61758.56283409153,-36807.981050965915,-34382.615611865,-29642.704682672585,-22534.492317973654,0.0,0.0,0.0,193.0,1.0,155.0,0.0,44.0,3.0,251.0,411.0,44.0,1019.0,1744252678.9510784,0.0,2025-04-09 22:37:58.951,STOP,13
43.0,15634.419397642541,2683.595142793077,-63850.239080219166,-61703.28697005355,-36861.96051382548,-34441.04307187117,-29350.09799600816,-22579.55343479555,0.0,0.0,0.0,193.0,1.0,155.0,0.0,44.0,3.0,252.0,411.0,44.0,1020.0,1744252678.9510872,0.0,2025-04-09 22:37:58.951,STOP,13
44.0,15704.134488598644,2722.77775082323,-63825.138071195855,-61745.3753048629,-36800.3367543622,-34366.745873301734,-29743.287532721464,-22523.048224812537,0.0,0.0,0.0,193.0,1.0,155.0,0.0,44.0,3.0,250.0,411.0,44.0,1018.0,1744252678.951096,0.0,2025-04-09 22:37:58.951,STOP,13
45.0,15650.400894928087,2728.320983448146,-63787.90006493331,-61678.34242324143,-36759.678931197996,-34337.33097759855,-29667.62687774025,-22487.665413339786,0.0,0.0,0.0,193.0,1.0,154.0,0.0,44.0,3.0,249.0,410.0,44.0,1017.0,1744252678.9511049,0.0,2025-04-09 22:37:58.951,STOP,13
46.0,15567.654736954539,2695.4639190988446,-63837.789158557556,-61754.4277613673,-36798.190986894486,-34381.83330080906,-29600.504589140965,-22550.451463514742,0.0,0.0,0.0,193.0,1.0,154.0,0.0,44.0,3.0,250.0,410.0,44.0,1018.0,1744252678.9511137,0.0,2025-04-09 22:37:58.951,STOP,13
47.0,15604.780984494804,2671.86047695404,-63845.187585972264,-61708.58433348946,-36858.40658645709,-34439.76902243722,-29431.614808036666,-22591.89159773488,0.0,0.0,0.0,193.0,1.0,155.0,0.0,44.0,3.0,252.0,411.0,44.0,1020.0,1744252678.951122,0.0,2025-04-09 22:37:58.951,STOP,13
48.0,15706.146145599621,2705.8798320150177,-63832.69296082175,-61740.68143852728,-36820.45332437198,-34387.28712645616,-29618.564798660853,-22535.699312174238,0.0,0.0,0.0,193.0,1.0,155.0,0.0,44.0,3.0,252.0,411.0,44.0,1020.0,1744252678.9511309,0.0,2025-04-09 22:37:58.951,STOP,13
49.0,15653.843063574204,2720.386114166512,-63782.33448056394,-61679.66117616429,-36754.53802997327,-34330.02195716166,-29758.374960228797,-22476.06485796748,0.0,0.0,0.0,193.0,1.0,155.0,0.0,44.0,3.0,252.0,411.0,44.0,1020.0,1744252678.9511392,0.0,2025-04-09 22:37:58.951,STOP,13
50.0,15576.058992869735,2706.0809977151152,-63828.80375728652,-61737.93217395928,-36787.30568734476,-34363.05783546661,-29554.638809518674,-22507.804335094017,0.0,0.0,0.0,193.0,1.0,155.0,0.0,44.0,3.0,251.0,411.0,44.0,1019.0,1744252678.951148,0.0,2025-04-09 22:37:58.951,STOP,13
51.0,15578.338870804177,2676.5990467785655,-63840.89605103685,-61713.658179480815,-36843.855600816685,-34418.981900093786,-29500.100553047723,-22565.158911366336,0.0,0.0,0.0,193.0,1.0,155.0,0.0,44.0,3.0,253.0,411.0,44.0,1021.0,1744252678.9511619,0.0,2025-04-09 22:37:58.951,STOP,13
52.0,15704.849744421213,2709.5678698501433,-63844.09235049396,-61733.97591519069,-36844.3473391947,-34415.964414592316,-29488.812922097793,-22583.28617611959,0.0,0.0,0.0,193.0,1.0,154.0,0.0,44.0,3.0,250.0,410.0,44.0,1018.0,1744252678.9511704,0.0,2025-04-09 22:37:58.951,STOP,13
53.0,15670.67392714905,2729.773846837741,-63782.87092243087,-61685.09265006694,-36761.51177424333,-34332.145372884916,-29861.282391701032,-22509.279550228068,0.0,0.0,0.0,193.0,1.0,154.0,0.0,44.0,3.0,250.0,410.0,44.0,1018.0,1744252678.951179,0.0,2025-04-09 22:37:58.951,STOP,13
54.0,15602.27758911581,2724.655297357476,-63822.96995198369,-61718.44145279425,-36788.28916410079,-34357.7604720307,-29548.961466427027,-22518.73433813266,0.0,0.0,0.0,193.0,1.0,154.0,0.0,44.0,3.0,251.0,410.0,44.0,1019.0,1744252678.9511876,0.0,2025-04-09 22:37:58.951,STOP,13
55.0,15568.571158477207,2683.1704596484255,-63839.13026322488,-61718.0167696496,-36828.5446558648,-34397.90420507243,-29572.497853338464,-22554.385370538876,0.0,0.0,0.0,193.0,1.0,155.0,0.0,44.0,3.0,252.0,411.0,44.0,1020.0,1744252678.951196,0.0,2025-04-09 22:37:58.951,STOP,13
56.0,15691.550456470306,2695.262753398747,-63853.658897120826,-61718.329694071974,-36863.7486533819,-34424.30161527415,-29367.554708427753,-22574.189016126278,0.0,0.0,0.0,193.0,1.0,155.0,0.0,44.0,3.0,251.0,411.0,44.0,1019.0,1744252678.9512048,0.0,2025-04-09 22:37:58.951,STOP,13
57.0,15670.875092849148,2716.7874833092073,-63797.60072202692,-61706.2150485772,-36771.72652145941,-34329.284349594636,-29884.52820593455,-22491.64402385283,0.0,0.0,0.0,193.0,1.0,155.0,0.0,44.0,3.0,251.0,411.0,44.0,1019.0,1744252678.9512134,0.0,2025-04-09 22:37:58.951,STOP,13
58.0,15612.715853776439,2729.6844398599196,-63814.05160594602,-61700.805926419016,-36781.71775123093,-34347.23280039225,-29523.860457403716,-22507.625521138376,0.0,0.0,0.0,193.0,1.0,155.0,0.0,44.0,3.0,249.0,411.0,44.0,1017.0,1744252678.9512224,0.0,2025-04-09 22:37:58.951,STOP,13
59.0,15547.962850089414,2681.091747414082,-63845.65697260582,-61739.04976118205,-36828.9916907539,-34398.418295194904,-29614.921464314637,-22560.777969453095,0.0,0.0,0.0,193.0,1.0,154.0,0.0,44.0,3.0,251.0,410.0,44.0,1019.0,1744252678.9512308,0.0,2025-04-09 22:37:58.951,STOP,13
60.0,15676.060697562778,2699.219012167336,-63847.95920228472,-61702.23643806415,-36870.92356335206,-34434.76223167923,-29322.113611950113,-22591.221045401224,0.0,0.0,0.0,193.0,1.0,154.0,0.0,44.0,3.0,250.0,410.0,44.0,1018.0,1744252678.9512396,0.0,2025-04-09 22:37:58.951,STOP,13
61.0,15691.282235536843,2734.378306195534,-63787.69889923321,-61704.359853787406,-36767.502041757354,-34321.88592217993,-29887.67980190275,-22498.573064633976,0.0,0.0,0.0,193.0,1.0,155.0,0.0,44.0,3.0,252.0,411.0,44.0,1020.0,1744252678.951248,0.0,2025-04-09 22:37:58.951,STOP,13
62.0,15628.76440629535,2734.288899217713,-63799.16534413879,-61680.510542453594,-36776.9791814064,-34340.393166588925,-29553.834146718284,-22510.97828280667,0.0,0.0,0.0,193.0,1.0,155.0,0.0,44.0,3.0,253.0,411.0,44.0,1021.0,1744252678.9512565,0.0,2025-04-09 22:37:58.951,STOP,13
63.0,15551.784998391271,2684.556267804655,-63833.9670102557,-61735.38407509137,-36812.384344623606,-34377.9664490183,-29639.731900660026,-22549.266821058613,0.0,0.0,0.0,193.0,1.0,155.0,0.0,44.0,3.0,252.0,411.0,44.0,1020.0,1744252678.951265,0.0,2025-04-09 22:37:58.951,STOP,13
64.0,15653.485435662918,2687.10436667256,-63839.24202194715,-61686.09847856742,-36863.65924640408,-34437.645606713966,-29313.128210679082,-22597.412478615344,0.0,0.0,0.0,193.0,1.0,154.0,0.0,44.0,3.0,251.0,410.0,44.0,1019.0,1744252678.951274,0.0,2025-04-09 22:37:58.951,STOP,13
65.0,15692.511581481886,2711.356009406568,-63806.1614401533,-61725.83988020896,-36787.41744606703,-34350.31734112708,-29822.747984260084,-22522.489431201153,0.0,0.0,0.0,193.0,1.0,154.0,0.0,44.0,3.0,250.0,410.0,44.0,1018.0,1744252678.9512825,0.0,2025-04-09 22:37:58.951,STOP,13
66.0,15630.552545851773,2720.743742077797,-63786.93893992173,-61671.94982432722,-36770.36306504763,-34341.33193985605,-29610.38406019021,-22500.07063151248,0.0,0.0,0.0,193.0,1.0,155.0,0.0,44.0,3.0,252.0,411.0,44.0,1020.0,1744252678.9512956,0.0,2025-04-09 22:37:58.951,STOP,13
67.0,15547.180539033478,2683.617494537532,-63830.01075148711,-61743.76597926211,-36802.393114852086,-34376.98297226226,-29626.253798753478,-22544.058864600524,0.0,0.0,0.0,193.0,1.0,155.0,0.0,44.0,3.0,251.0,411.0,44.0,1019.0,1744252678.9513044,0.0,2025-04-09 22:37:58.951,STOP,13
68.0,15623.467042859442,2677.9848549347944,-63831.75418755462,-61689.473591980175,-36859.68063589104,-34435.14221133497,-29369.253441006356,-22594.99849021417,0.0,0.0,0.0,193.0,1.0,155.0,0.0,44.0,3.0,251.0,411.0,44.0,1019.0,1744252678.9513133,0.0,2025-04-09 22:37:58.951,STOP,13
69.0,15703.620398476172,2709.8584425280624,-63811.79407975604,-61735.02644718009,-36801.63315554061,-34371.19387044834,-29720.242884188043,-22543.388312266867,0.0,0.0,0.0,193.0,1.0,154.0,0.0,44.0,3.0,249.0,410.0,44.0,1017.0,1744252678.9513218,0.0,2025-04-09 22:37:58.951,STOP,13
70.0,15639.716761078449,2718.9108990324617,-63781.28394857454,-61677.42600171876,-36763.99281787787,-34341.577809045055,-29684.994183182025,-22504.83155308146,0.0,0.0,0.0,193.0,1.0,154.0,0.0,44.0,3.0,249.0,410.0,44.0,1017.0,1744252678.9513307,0.0,2025-04-09 22:37:58.951,STOP,13
71.0,15561.709172929428,2703.9128785029507,-63822.96995198369,-61738.53567105957,-36793.921803703524,-34362.72255929978,-29592.4356093926,-22534.55937320702,0.0,0.0,0.0,193.0,1.0,154.0,0.0,44.0,3.0,250.0,410.0,44.0,1018.0,1744252678.9513392,0.0,2025-04-09 22:37:58.951,STOP,13
72.0,15598.723661747415,2678.72246250182,-63822.96995198369,-61690.34531001393,-36842.73801359392,-34410.309423245126,-29443.52828783134,-22566.343553822466,0.0,0.0,0.0,193.0,1.0,155.0,0.0,44.0,3.0,252.0,411.0,44.0,1020.0,1744252678.951348,0.0,2025-04-09 22:37:58.951,STOP,13
73.0,15710.236514834944,2710.77486405073,-63818.63371355936,-61725.325790086485,-36816.63117607012,-34376.111254228505,-29576.230594662502,-22539.163832564813,0.0,0.0,0.0,193.0,1.0,155.0,0.0,44.0,3.0,252.0,411.0,44.0,1020.0,1744252678.951357,0.0,2025-04-09 22:37:58.951,STOP,13
74.0,15658.648688632094,2723.87298630154,-63766.397686767305,-61667.39006845833,-36749.821811893205,-34318.734326211736,-29770.757826657038,-22485.83257029445,0.0,0.0,0.0,193.0,1.0,155.0,0.0,44.0,3.0,251.0,411.0,44.0,1019.0,1744252678.9513657,0.0,2025-04-09 22:37:58.951,STOP,13
75.0,15584.932635418492,2713.0770937296265,-63810.47532683317,-61717.39092080485,-36780.935440174995,-34346.51754456968,-29550.950771683547,-22516.74503287614,0.0,0.0,0.0,193.0,1.0,154.0,0.0,44.0,3.0,249.0,410.0,44.0,1017.0,1744252678.9513743,0.0,2025-04-09 22:37:58.951,STOP,13
76.0,15569.398173022053,2671.256979853747,-63829.13903345336,-61703.77870843157,-36836.94891177999,-34402.06162954112,-29516.864361389205,-22562.119074120412,0.0,0.0,0.0,193.0,1.0,154.0,0.0,44.0,3.0,251.0,410.0,44.0,1019.0,1744252678.951383,0.0,2025-04-09 22:37:58.951,STOP,13
77.0,15695.327901283254,2702.0800354576154,-63835.263411434105,-61722.17419411829,-36844.63791187262,-34405.34733597605,-29455.039436225827,-22574.345478337465,0.0,0.0,0.0,193.0,1.0,154.0,0.0,44.0,3.0,249.0,410.0,44.0,1017.0,1744252678.951392,0.0,2025-04-09 22:37:58.951,STOP,13
78.0,15672.998508572402,2728.25392821478,-63757.70285817419,-61669.64759464832,-36738.422422220996,-34301.63524170342,-29860.365970178365,-22476.82481727896,0.0,0.0,0.0,193.0,1.0,155.0,0.0,44.0,3.0,252.0,411.0,44.0,1020.0,1744252678.9514005,0.0,2025-04-09 22:37:58.951,STOP,13
79.0,15596.846115213171,2712.875928029529,-63799.56767553898,-61703.28697005355,-36767.45733826844,-34342.74009975673,-29518.071355589793,-22516.07448054248,0.0,0.0,0.0,193.0,1.0,154.0,0.0,44.0,3.0,249.0,410.0,44.0,1017.0,1744252678.951409,0.0,2025-04-09 22:37:58.951,STOP,13
80.0,15550.421541979498,2660.706956470842,-63827.61911483039,-61724.20820286372,-36824.32017616274,-34398.19477775035,-29581.215033676035,-22574.636051015386,0.0,0.0,0.0,193.0,1.0,154.0,0.0,44.0,3.0,249.0,410.0,44.0,1017.0,1744252678.9514182,0.0,2025-04-09 22:37:58.951,STOP,13
81.0,15684.755526155894,2690.9488667188725,-63832.7153125662,-61709.053720123025,-36856.23846724492,-34420.97120535031,-29364.514871181833,-22595.981966970205,0.0,0.0,0.0,193.0,1.0,154.0,0.0,44.0,3.0,249.0,410.0,44.0,1017.0,1744252678.9514682,0.0,2025-04-09 22:37:58.951,STOP,13
82.0,15669.95867132648,2713.032390240716,-63775.986585138635,-61702.28114155307,-36759.50011724235,-34321.70710822429,-29897.223996785164,-22498.93069254526,0.0,0.0,0.0,193.0,1.0,155.0,0.0,44.0,3.0,251.0,411.0,44.0,1019.0,1744252678.951477,0.0,2025-04-09 22:37:58.951,STOP,13
83.0,15598.254275113855,2705.2763349147244,-63806.58612329795,-61708.293760811546,-36782.6341727536,-34353.87126849547,-29529.89542840665,-22521.438899211753,0.0,0.0,0.0,193.0,1.0,155.0,0.0,44.0,3.0,252.0,411.0,44.0,1020.0,1744252678.9514863,0.0,2025-04-09 22:37:58.951,STOP,13
84.0,15542.464320953408,2670.7205379868196,-63830.21191718721,-61742.35781936143,-36818.464019115454,-34389.00821077922,-29634.881572113227,-22563.19195785427,0.0,0.0,0.0,193.0,1.0,155.0,0.0,44.0,3.0,251.0,411.0,44.0,1019.0,1744252678.9514997,0.0,2025-04-09 22:37:58.951,STOP,13
85.0,15666.717668380461,2682.745776503775,-63836.82803354598,-61704.44926076523,-36868.42016797306,-34436.41626076892,-29326.09222246316,-22609.14714445438,0.0,0.0,0.0,193.0,1.0,154.0,0.0,44.0,3.0,250.0,410.0,44.0,1018.0,1744252678.9515088,0.0,2025-04-09 22:37:58.951,STOP,13
86.0,15695.283197794342,2714.2393844413027,-63781.306300319,-61715.24515333714,-36764.641018467075,-34329.39610831691,-29894.16180779479,-22517.013253809604,0.0,0.0,0.0,193.0,1.0,154.0,0.0,44.0,3.0,249.0,410.0,44.0,1017.0,1744252678.9515176,0.0,2025-04-09 22:37:58.951,STOP,13
87.0,15629.613772584651,2720.8555008000735,-63788.347099822415,-61683.796248888524,-36762.6293614661,-34339.342634599525,-29557.94686769806,-22503.892779814338,0.0,0.0,0.0,193.0,1.0,155.0,0.0,44.0,3.0,250.0,411.0,44.0,1018.0,1744252678.9515264,0.0,2025-04-09 22:37:58.951,STOP,13
88.0,15547.64992566704,2678.1413171459817,-63826.948562496735,-61747.09638918596,-36799.91207121755,-34374.4125216499,-29632.86991511225,-22549.535041992076,0.0,0.0,0.0,193.0,1.0,155.0,0.0,44.0,3.0,253.0,411.0,44.0,1021.0,1744252678.9515352,0.0,2025-04-09 22:37:58.951,STOP,13
89.0,15643.829482058227,2677.381357834501,-63829.898992764836,-61696.58144671696,-36855.322045722256,-34429.733089176785,-29324.237027673367,-22590.66225178984,0.0,0.0,0.0,193.0,1.0,154.0,0.0,44.0,3.0,250.0,410.0,44.0,1018.0,1744252678.951544,0.0,2025-04-09 22:37:58.951,STOP,13
90.0,15699.798250174315,2709.2102419388584,-63796.192562126234,-61737.6192495369,-36778.14147211808,-34346.94222771433,-29802.743172972583,-22521.617713167398,0.0,0.0,0.0,193.0,1.0,154.0,0.0,44.0,3.0,250.0,410.0,44.0,1018.0,1744252678.9515524,0.0,2025-04-09 22:37:58.951,STOP,13
91.0,15645.639973359106,2720.319058933146,-63774.71253570468,-61681.44931572072,-36754.47097473991,-34335.05109966411,-29620.95643531757,-22507.334948460455,0.0,0.0,0.0,193.0,1.0,154.0,0.0,44.0,3.0,250.0,410.0,44.0,1018.0,1744252678.9515612,0.0,2025-04-09 22:37:58.951,STOP,13
92.0,15569.107600344134,2691.798233008174,-63814.364530368395,-61746.17996766329,-36782.65652449805,-34360.48738485425,-29612.082792768815,-22537.532155219575,0.0,0.0,0.0,193.0,1.0,155.0,0.0,44.0,3.0,252.0,411.0,44.0,1020.0,1744252678.95157,0.0,2025-04-09 22:37:58.951,STOP,13
93.0,15625.702217304972,2666.9877966627832,-63819.8630595044,-61693.92158912678,-36842.514496149364,-34415.65149016994,-29364.403112459557,-22571.953841680748,0.0,0.0,0.0,193.0,1.0,155.0,0.0,44.0,3.0,251.0,411.0,44.0,1019.0,1744252678.9515789,0.0,2025-04-09 22:37:58.951,STOP,13
94.0,15704.53681999884,2694.8157185096406,-63811.12352742237,-61744.92826997379,-36801.275527629325,-34367.28231516866,-29676.567575522375,-22544.23767855617,0.0,0.0,0.0,193.0,1.0,154.0,0.0,44.0,3.0,250.0,410.0,44.0,1018.0,1744252679.0555558,0.0,2025-04-09 22:37:59.055,STOP,13
95.0,15649.864453061158,2709.769035550241,-63765.16834082227,-61675.280234251055,-36747.229009536386,-34323.31643382507,-29709.625805571774,-22500.294148957033,0.0,0.0,0.0,193.0,1.0,154.0,0.0,44.0,3.0,249.0,410.0,44.0,1017.0,1744252679.0555837,0.0,2025-04-09 22:37:59.055,STOP,13
96.0,15569.778152677794,2692.155860919459,-63813.023425701074,-61740.41321759382,-36780.60016400816,-34354.27359989567,-29575.09065569528,-22535.475794729686,0.0,0.0,0.0,193.0,1.0,154.0,0.0,45.0,3.0,249.0,410.0,45.0,1017.0,1744252679.055626,0.0,2025-04-09 22:37:59.055,STOP,13
97.0,15600.46709781493,2670.9887589202835,-63815.16919316879,-61695.08387983846,-36832.791487311304,-34402.396905707945,-29454.771215292363,-22579.1287516509,0.0,0.0,0.0,193.0,1.0,155.0,0.0,44.0,3.0,250.0,411.0,44.0,1018.0,1744252679.0556364,0.0,2025-04-09 22:37:59.055,STOP,13
98.0,15710.750604957415,2692.2229161528253,-63816.37618736937,-61730.93607794477,-36817.972280737435,-34380.82747230858,-29542.45710879053,-22562.253184587145,0.0,0.0,0.0,193.0,1.0,155.0,0.0,44.0,3.0,252.0,411.0,44.0,1020.0,1744252679.0556464,0.0,2025-04-09 22:37:59.055,STOP,13
99.0,15673.758467883883,2714.1499774634813,-63759.24512854161,-61674.31910923948,-36743.384509490075,-34310.84416041901,-29794.137751357288,-22483.463285382186,0.0,0.0,0.0,193.0,1.0,154.0,0.0,44.0,3.0,249.0,410.0,44.0,1017.0,1744252679.0556557,0.0,2025-04-09 22:37:59.055,STOP,13
100.0,15602.27758911581,2707.735026804808,-63803.47923081866,-61724.74464473065,-36771.88298367059,-34343.99179744623,-29535.505716264932,-22521.327140489477,0.0,0.0,0.0,193.0,1.0,154.0,0.0,44.0,3.0,249.0,410.0,44.0,1017.0,1744252679.0556648,0.0,2025-04-09 22:37:59.055,STOP,13
101.0,15590.65468199905,2666.9877966627832,-63818.85723100391,-61713.859345180914,-36824.45428662947,-34398.910033572916,-29519.59127421275,-22578.055867917046,0.0,0.0,0.0,193.0,1.0,154.0,0.0,44.0,3.0,249.0,410.0,44.0,1017.0,1744252679.055674,0.0,2025-04-09 22:37:59.055,STOP,13
102.0,15715.712692226494,2682.946942203873,-63834.45874863372,-61732.00896167862,-36848.05772877428,-34413.68453665788,-29414.58277876172,-22589.499961078163,0.0,0.0,0.0,193.0,1.0,154.0,0.0,44.0,3.0,249.0,410.0,44.0,1017.0,1744252679.0556831,0.0,2025-04-09 22:37:59.055,STOP,13
103.0,15685.202561045,2707.042122726694,-63773.08085835944,-61700.7612229301,-36758.65075095305,-34321.12596286845,-29864.34458069141,-22504.049242025525,0.0,0.0,0.0,193.0,1.0,155.0,0.0,44.0,3.0,252.0,411.0,44.0,1020.0,1744252679.0556955,0.0,2025-04-09 22:37:59.055,STOP,13
104.0,15618.080272445712,2703.443491869389,-63807.2119721427,-61724.58818251946,-36784.66818149903,-34351.81490800559,-29521.491172491453,-22523.785832379563,0.0,0.0,0.0,193.0,1.0,155.0,0.0,44.0,3.0,251.0,411.0,44.0,1019.0,1744252679.0557046,0.0,2025-04-09 22:37:59.055,STOP,13
105.0,15573.712059701928,2659.544665759166,-63826.14389969634,-61741.59786004995,-36823.24729242889,-34398.619460895,-29592.346202414778,-22566.298850333555,0.0,0.0,0.0,193.0,1.0,155.0,0.0,44.0,3.0,253.0,411.0,44.0,1021.0,1744252679.0557132,0.0,2025-04-09 22:37:59.055,STOP,13
106.0,15715.578581759763,2690.39007310749,-63822.478213605675,-61714.015807392105,-36844.21322872797,-34422.468772228814,-29332.507173121834,-22591.310452379043,0.0,0.0,0.0,193.0,1.0,154.0,0.0,44.0,3.0,250.0,410.0,44.0,1018.0,1744252679.0557225,0.0,2025-04-09 22:37:59.055,STOP,13
107.0,15717.657293994105,2712.3618379070567,-63758.95455586369,-61704.47161250968,-36743.85389612364,-34316.29798606611,-29877.330944219942,-22504.228055981166,0.0,0.0,0.0,193.0,1.0,155.0,0.0,44.0,3.0,251.0,411.0,44.0,1019.0,1744252679.0557315,0.0,2025-04-09 22:37:59.055,STOP,13
108.0,15651.563185639763,2707.667971571442,-63781.23924508563,-61699.330711284965,-36760.70711144294,-34345.39995734691,-29521.93820738056,-22528.814974882007,0.0,0.0,0.0,193.0,1.0,155.0,0.0,44.0,3.0,250.0,411.0,44.0,1018.0,1744252679.0557406,0.0,2025-04-09 22:37:59.055,STOP,13
109.0,15585.1785046075,2667.546590274166,-63806.94375120923,-61736.1216826584,-36794.972335692924,-34373.89843152743,-29618.72126087204,-22555.681771717285,0.0,0.0,0.0,193.0,1.0,155.0,0.0,44.0,3.0,252.0,411.0,44.0,1020.0,1744252679.0557497,0.0,2025-04-09 22:37:59.055,STOP,13
110.0,15698.948883885014,2673.782726977197,-63818.67841704827,-61699.28600779606,-36854.047996288304,-34428.21317055383,-29289.770637723286,-22591.735135523693,0.0,0.0,0.0,193.0,1.0,154.0,0.0,44.0,3.0,251.0,410.0,44.0,1019.0,1744252679.0557587,0.0,2025-04-09 22:37:59.055,STOP,13
111.0,15734.622268035684,2705.477500614822,-63771.62799496985,-61719.02259815009,-36763.79165217777,-34323.31643382507,-29853.526336375042,-22503.155172247312,0.0,0.0,0.0,193.0,1.0,154.0,0.0,44.0,3.0,251.0,410.0,44.0,1019.0,1744252679.0557735,0.0,2025-04-09 22:37:59.055,STOP,13
112.0,15668.43875270352,2706.751550048775,-63772.94674789271,-61679.482362208655,-36761.53412598778,-34328.010300160684,-29555.912858952626,-22504.473925170176,0.0,0.0,0.0,193.0,1.0,154.0,0.0,45.0,3.0,249.0,410.0,45.0,1017.0,1744252679.0557823,0.0,2025-04-09 22:37:59.055,STOP,13
113.0,15592.331062833198,2675.3026456001576,-63807.68135877626,-61738.80389199304,-36789.250289112366,-34356.262905152194,-29622.699871385084,-22545.444672756752,0.0,0.0,0.0,193.0,1.0,155.0,0.0,45.0,3.0,252.0,411.0,45.0,1020.0,1744252679.0557911,0.0,2025-04-09 22:37:59.055,STOP,13
114.0,15693.025671604357,2688.6689887844313,-63795.47730630366,-61668.217083003176,-36830.846885543695,-34399.35706846203,-29314.178742668482,-22577.94410919477,0.0,0.0,0.0,193.0,1.0,155.0,0.0,44.0,3.0,251.0,411.0,44.0,1019.0,1744252679.0558,0.0,2025-04-09 22:37:59.055,STOP,13
115.0,15740.947811716534,2704.672837814431,-63784.43554454274,-61725.92928718678,-36780.153129119055,-34339.11911715497,-29757.056207305934,-22545.08704484547,0.0,0.0,0.0,193.0,1.0,155.0,0.0,44.0,3.0,252.0,411.0,44.0,1020.0,1744252679.055809,0.0,2025-04-09 22:37:59.055,STOP,13
116.0,15669.265767248366,2697.162651677448,-63774.60077698241,-61683.036289577045,-36764.39514927806,-34332.41359381838,-29634.211019779566,-22521.64006491185,0.0,0.0,0.0,193.0,1.0,154.0,0.0,45.0,3.0,250.0,410.0,45.0,1018.0,1744252679.0558183,0.0,2025-04-09 22:37:59.055,STOP,13
117.0,15582.138667361578,2669.871171697518,-63815.88444899135,-61752.72902878869,-36788.44562631197,-34356.28525689665,-29596.771847816926,-22529.686692915762,0.0,0.0,0.0,193.0,1.0,154.0,0.0,45.0,3.0,249.0,410.0,45.0,1017.0,1744252679.0558274,0.0,2025-04-09 22:37:59.055,STOP,13
118.0,15638.800339555783,2655.0519651236496,-63815.280951891065,-61699.330711284965,-36839.295844947796,-34414.01981282471,-29366.682990393998,-22577.89940570586,0.0,0.0,0.0,193.0,1.0,155.0,0.0,44.0,3.0,250.0,411.0,44.0,1018.0,1744252679.0558362,0.0,2025-04-09 22:37:59.055,STOP,13
119.0,15730.353084844719,2682.4999073147665,-63808.17309715428,-61744.74945601815,-36802.84014974119,-34367.28231516866,-29629.606560421773,-22552.28430656008,0.0,0.0,0.0,193.0,1.0,155.0,0.0,44.0,3.0,251.0,411.0,44.0,1019.0,1744252679.5239902,0.0,2025-04-09 22:37:59.523,STOP,13
120.0,15678.921720853057,2701.185965679403,-63760.02743959754,-61675.10142029541,-36748.346596759155,-34312.36407904197,-29715.32550040788,-22493.588625620443,0.0,0.0,0.0,193.0,1.0,155.0,0.0,45.0,3.0,250.0,411.0,45.0,1018.0,1744252679.5240316,0.0,2025-04-09 22:37:59.524,STOP,13
121.0,15589.470039542919,2680.2200293803253,-63817.73964378115,-61749.68919154277,-36789.585565279194,-34356.17349817437,-29557.790405486874,-22540.192012809755,0.0,0.0,0.0,193.0,1.0,155.0,0.0,45.0,3.0,249.0,411.0,45.0,1017.0,1744252679.5240512,0.0,2025-04-09 22:37:59.524,STOP,13
122.0,15602.925789705014,2656.9518634023507,-63818.074919947976,-61708.472574767184,-36831.24921694389,-34401.32402197409,-29461.610849095687,-22577.69824000576,0.0,0.0,0.0,193.0,1.0,154.0,0.0,44.0,3.0,250.0,410.0,44.0,1018.0,1744252679.5240717,0.0,2025-04-09 22:37:59.524,STOP,13
123.0,15717.657293994105,2675.0791281556044,-63822.20999267221,-61739.20622339323,-36824.74485930739,-34387.018905522695,-29494.289099489346,-22567.21527185622,0.0,0.0,0.0,193.0,1.0,155.0,0.0,44.0,3.0,252.0,411.0,44.0,1020.0,1744252679.524089,0.0,2025-04-09 22:37:59.524,STOP,13
124.0,15686.230741289943,2702.0800354576154,-63754.52891046154,-61680.91287385379,-36737.237779764866,-34305.9491283833,-29795.32239381342,-22488.02304125107,0.0,0.0,0.0,193.0,1.0,155.0,0.0,44.0,3.0,251.0,411.0,44.0,1019.0,1744252679.524107,0.0,2025-04-09 22:37:59.524,STOP,13
125.0,15607.731414762906,2694.413387109445,-63798.830067971954,-61725.951638931234,-36769.536050502786,-34345.5564195581,-29510.203541541523,-22525.93159984727,0.0,0.0,0.0,193.0,1.0,155.0,0.0,45.0,3.0,252.0,411.0,45.0,1020.0,1744252679.5241249,0.0,2025-04-09 22:37:59.524,STOP,13
126.0,15580.954024905448,2653.8449709230626,-63815.88444899135,-61721.011903406616,-36821.43680112801,-34397.59128065006,-29523.167553325602,-22569.383391068386,0.0,0.0,0.0,193.0,1.0,155.0,0.0,44.0,3.0,250.0,411.0,44.0,1018.0,1744252679.5241663,0.0,2025-04-09 22:37:59.524,STOP,13
127.0,15705.676758966061,2673.1792298769033,-63829.943696253744,-61729.12558664389,-36849.06355727477,-34413.9751093358,-29378.775284144318,-22594.283234391598,0.0,0.0,0.0,193.0,1.0,155.0,0.0,44.0,3.0,251.0,411.0,44.0,1019.0,1744252679.5241756,0.0,2025-04-09 22:37:59.524,STOP,13
128.0,15691.081069836746,2708.5620413496545,-63756.540567462514,-61691.64171119234,-36743.00452983434,-34304.116285337965,-29869.887813316323,-22498.617768122884,0.0,0.0,0.0,193.0,1.0,155.0,0.0,44.0,3.0,252.0,411.0,44.0,1020.0,1744252679.5241847,0.0,2025-04-09 22:37:59.524,STOP,13
129.0,15627.915040006048,2713.7029425743754,-63781.775686952555,-61698.95073162922,-36757.3767015191,-34325.17162861486,-29506.381393239666,-22505.278587970566,0.0,0.0,0.0,193.0,1.0,155.0,0.0,44.0,3.0,253.0,411.0,44.0,1021.0,1744252679.5241935,0.0,2025-04-09 22:37:59.524,STOP,13
130.0,15569.46522825542,2660.2152180928256,-63814.11866117939,-61732.41129307882,-36806.10350443167,-34378.23466995176,-29577.19171967408,-22555.614716483917,0.0,0.0,0.0,193.0,1.0,155.0,0.0,44.0,3.0,251.0,411.0,44.0,1019.0,1744252679.5242023,0.0,2025-04-09 22:37:59.524,STOP,13
131.0,15692.86920939317,2671.3016833426577,-63831.709484065716,-61719.55904001702,-36854.87501083315,-34427.25204554225,-29299.04661167224,-22601.771068784128,0.0,0.0,0.0,193.0,1.0,154.0,0.0,44.0,3.0,249.0,410.0,44.0,1017.0,1744252679.5242114,0.0,2025-04-09 22:37:59.524,STOP,13
132.0,15694.031500104846,2697.386169122001,-63778.154704350796,-61724.05174065253,-36762.338788788176,-34324.858704192484,-29868.881984815835,-22513.012291552102,0.0,0.0,0.0,193.0,1.0,154.0,0.0,45.0,3.0,249.0,410.0,45.0,1017.0,1744252679.52422,0.0,2025-04-09 22:37:59.524,STOP,13
133.0,15627.982095239413,2697.922610988928,-63792.07984114646,-61705.812717177,-36773.67112322702,-34344.438832335334,-29517.959596867517,-22518.533172432562,0.0,0.0,0.0,193.0,1.0,154.0,0.0,45.0,3.0,250.0,410.0,45.0,1018.0,1744252679.5242293,0.0,2025-04-09 22:37:59.524,STOP,13
134.0,15540.877347097081,2642.847912651052,-63838.5714696135,-61769.80576155255,-36824.119010462644,-34395.04318178215,-29611.971034046535,-22567.192920111767,0.0,0.0,0.0,193.0,1.0,155.0,0.0,44.0,3.0,252.0,411.0,44.0,1020.0,1744252679.5242383,0.0,2025-04-09 22:37:59.524,STOP,13
135.0,15659.922738066047,2658.203561091848,-63835.84455678995,-61719.112005127914,-36866.72143539446,-34439.4784497593,-29298.376059338578,-22602.553379840065,0.0,0.0,0.0,193.0,1.0,155.0,0.0,44.0,3.0,251.0,411.0,44.0,1019.0,1744252679.5242472,0.0,2025-04-09 22:37:59.524,STOP,13
136.0,15705.050910121312,2697.386169122001,-63782.53564626404,-61735.85346172494,-36769.64780922506,-34333.88880895243,-29835.51083034406,-22521.64006491185,0.0,0.0,0.0,193.0,1.0,155.0,0.0,44.0,3.0,252.0,411.0,44.0,1020.0,1744252679.524256,0.0,2025-04-09 22:37:59.524,STOP,13
137.0,15647.830444315727,2704.6951895588863,-63773.70670720419,-61685.8079058895,-36757.913143386024,-34329.977253672754,-29564.115949167724,-22504.429221681265,0.0,0.0,0.0,193.0,1.0,155.0,0.0,44.0,3.0,252.0,411.0,44.0,1020.0,1744252679.5242648,0.0,2025-04-09 22:37:59.524,STOP,13
138.0,15575.120219602612,2676.5766950341103,-63809.06716693249,-61744.280069384586,-36785.830472210706,-34347.16574515888,-29597.487103639498,-22516.007425309115,0.0,0.0,0.0,193.0,1.0,154.0,0.0,45.0,3.0,250.0,410.0,45.0,1018.0,1744252679.5242736,0.0,2025-04-09 22:37:59.524,STOP,13
139.0,15658.916909565558,2677.0460816676714,-63811.19058265574,-61689.49594372463,-36846.02372002885,-34410.33177498958,-29307.09323967615,-22574.70310624875,0.0,0.0,0.0,193.0,1.0,154.0,0.0,44.0,3.0,249.0,410.0,44.0,1017.0,1744252679.524286,0.0,2025-04-09 22:37:59.524,STOP,13
140.0,15730.978933689468,2713.524128618733,-63783.4073642978,-61730.53374654457,-36782.72357973141,-34342.11425091198,-29716.756012053018,-22525.395157980343,0.0,0.0,0.0,193.0,1.0,154.0,0.0,44.0,3.0,249.0,410.0,44.0,1017.0,1744252679.5243075,0.0,2025-04-09 22:37:59.524,STOP,13
141.0,15670.316299237766,2711.1101402175595,-63752.047866827,-61668.5076556811,-36747.0725473252,-34313.45931452028,-29621.023490550935,-22486.525474372564,0.0,0.0,0.0,193.0,1.0,154.0,0.0,45.0,3.0,249.0,410.0,45.0,1017.0,1744252679.5243196,0.0,2025-04-09 22:37:59.524,STOP,13
